Sample Index, EXG Channel 0, EXG Channel 1, EXG Channel 2, EXG Channel 3, Accel Channel 0, Accel Channel 1, Accel Channel 2, Other, Other, Other, Other, Other, Timestamp, Timestamp (Formatted)
0.0, 344.94781494140625, -1301.2813720703125, 428.61871337890625, 490.07647705078125, 0.0, 0.0, 0.0, 0.0, 0.0, 0.0, 0.0, 0.0, 1.62021355823517E9, 2021-05-05 13:19:18.235
1.0, 340.3851318359375, -1311.9849853515625, 416.1311950683594, 485.390380859375, 0.0, 0.04800000041723251, 0.0, 0.0, 0.0, 0.0, 0.0, 0.0, 1.620213558248516E9, 2021-05-05 13:19:18.248
1.0, 325.81072998046875, -1319.906005859375, 405.94744873046875, 480.319091796875, 0.0, 0.04800000041723251, 0.0, 0.0, 0.0, 0.0, 0.0, 0.0, 1.620213558248516E9, 2021-05-05 13:19:18.248
2.0, 341.342529296875, -1302.9232177734375, 418.48358154296875, 491.49017333984375, -0.08000000566244125, 0.04800000041723251, 0.0, 0.0, 0.0, 0.0, 0.0, 0.0, 1.6202135582651372E9, 2021-05-05 13:19:18.265
2.0, 346.8925476074219, -1303.20361328125, 431.0496520996094, 496.58392333984375, -0.08000000566244125, 0.04800000041723251, 0.0, 0.0, 0.0, 0.0, 0.0, 0.0, 1.6202135582651372E9, 2021-05-05 13:19:18.265
3.0, 335.2988586425781, -1309.32958984375, 416.42291259765625, 487.5595397949219, -0.08000000566244125, 0.04800000041723251, 0.0, 0.0, 0.0, 0.0, 0.0, 0.0, 1.6202135582658455E9, 2021-05-05 13:19:18.265
3.0, 322.70660400390625, -1314.44580078125, 405.2630310058594, 471.3695068359375, -0.08000000566244125, 0.04800000041723251, 0.0, 0.0, 0.0, 0.0, 0.0, 0.0, 1.6202135582658455E9, 2021-05-05 13:19:18.265
4.0, 340.17193603515625, -1301.0120849609375, 420.15533447265625, 483.4007568359375, -0.08000000566244125, 0.04800000041723251, 0.0, 0.0, 0.0, 0.0, 0.0, 0.0, 1.6202135582782965E9, 2021-05-05 13:19:18.278
4.0, 349.7087097167969, -1293.835205078125, 430.4662170410156, 490.35699462890625, -0.08000000566244125, 0.04800000041723251, 0.0, 0.0, 0.0, 0.0, 0.0, 0.0, 1.6202135582782965E9, 2021-05-05 13:19:18.278
5.0, 337.1949768066406, -1301.969482421875, 423.8316345214844, 490.9591064453125, -0.08000000566244125, 0.04800000041723251, 0.0, 0.0, 0.0, 0.0, 0.0, 0.0, 1.620213558310007E9, 2021-05-05 13:19:18.310
5.0, 340.7179870605469, -1302.0218505859375, 418.7752990722656, 490.52154541015625, -0.08000000566244125, 0.04800000041723251, 0.0, 0.0, 0.0, 0.0, 0.0, 0.0, 1.620213558310007E9, 2021-05-05 13:19:18.310
6.0, 356.8780822753906, -1292.2607421875, 433.31976318359375, 500.7501525878906, -0.08000000566244125, 0.04800000041723251, 0.0, 0.0, 0.0, 0.0, 0.0, 0.0, 1.6202135583107307E9, 2021-05-05 13:19:18.310
6.0, 343.9642028808594, -1303.0877685546875, 431.59942626953125, 493.1058044433594, -0.08000000566244125, 0.04800000041723251, 0.0, 0.0, 0.0, 0.0, 0.0, 0.0, 1.6202135583107307E9, 2021-05-05 13:19:18.310
7.0, 339.34918212890625, -1311.3416748046875, 426.20648193359375, 494.4671325683594, -0.08000000566244125, 0.04800000041723251, 0.0, 0.0, 0.0, 0.0, 0.0, 0.0, 1.620213558311602E9, 2021-05-05 13:19:18.311
7.0, 337.3034362792969, -1309.2623291015625, 429.9837646484375, 502.362060546875, -0.08000000566244125, 0.04800000041723251, 0.0, 0.0, 0.0, 0.0, 0.0, 0.0, 1.620213558311602E9, 2021-05-05 13:19:18.311
8.0, 343.4181823730469, -1302.0517578125, 437.3700866699219, 495.1552734375, -0.08000000566244125, 0.04800000041723251, 0.0, 0.0, 0.0, 0.0, 0.0, 0.0, 1.6202135583239431E9, 2021-05-05 13:19:18.323
8.0, 356.3844299316406, -1290.936767578125, 443.4698486328125, 506.23284912109375, -0.08000000566244125, 0.04800000041723251, 0.0, 0.0, 0.0, 0.0, 0.0, 0.0, 1.6202135583239431E9, 2021-05-05 13:19:18.323
9.0, 343.86322021484375, -1297.799560546875, 428.86553955078125, 500.7950439453125, -0.08000000566244125, 0.04800000041723251, 0.0, 0.0, 0.0, 0.0, 0.0, 0.0, 1.6202135583246934E9, 2021-05-05 13:19:18.324
9.0, 342.13165283203125, -1303.3382568359375, 421.2510986328125, 495.8808288574219, -0.08000000566244125, 0.04800000041723251, 0.0, 0.0, 0.0, 0.0, 0.0, 0.0, 1.6202135583246934E9, 2021-05-05 13:19:18.324
10.0, 358.8677062988281, -1282.013427734375, 439.4943542480469, 505.1894226074219, -0.08000000566244125, 0.04800000041723251, 1.055999994277954, 0.0, 0.0, 0.0, 0.0, 0.0, 1.6202135583553631E9, 2021-05-05 13:19:18.355
10.0, 359.0173034667969, -1286.370361328125, 439.39337158203125, 499.661865234375, -0.08000000566244125, 0.04800000041723251, 1.055999994277954, 0.0, 0.0, 0.0, 0.0, 0.0, 1.6202135583553631E9, 2021-05-05 13:19:18.355
11.0, 348.8260803222656, -1295.8248291015625, 432.05194091796875, 498.9363098144531, -0.08000000566244125, 0.04800000041723251, 1.055999994277954, 0.0, 0.0, 0.0, 0.0, 0.0, 1.6202135583560896E9, 2021-05-05 13:19:18.356
11.0, 351.11114501953125, -1296.5205078125, 437.26910400390625, 507.2987365722656, -0.08000000566244125, 0.04800000041723251, 1.055999994277954, 0.0, 0.0, 0.0, 0.0, 0.0, 1.6202135583560896E9, 2021-05-05 13:19:18.356
12.0, 363.91656494140625, -1283.236328125, 443.63067626953125, 507.8597106933594, -0.08000000566244125, 0.04800000041723251, 1.055999994277954, 0.0, 0.0, 0.0, 0.0, 0.0, 1.6202135583568387E9, 2021-05-05 13:19:18.356
12.0, 370.521240234375, -1277.850830078125, 450.12689208984375, 511.59588623046875, -0.08000000566244125, 0.04800000041723251, 1.055999994277954, 0.0, 0.0, 0.0, 0.0, 0.0, 1.6202135583568387E9, 2021-05-05 13:19:18.356
13.0, 364.3578796386719, -1280.6146240234375, 438.8922119140625, 510.1597595214844, -0.08000000566244125, 0.04800000041723251, 1.055999994277954, 0.0, 0.0, 0.0, 0.0, 0.0, 1.6202135583681571E9, 2021-05-05 13:19:18.368
13.0, 366.22784423828125, -1278.752197265625, 441.77569580078125, 510.94512939453125, -0.08000000566244125, 0.04800000041723251, 1.055999994277954, 0.0, 0.0, 0.0, 0.0, 0.0, 1.6202135583681571E9, 2021-05-05 13:19:18.368
14.0, 364.96002197265625, -1271.86328125, 446.2673034667969, 511.7529602050781, -0.08000000566244125, 0.04800000041723251, 1.055999994277954, 0.0, 0.0, 0.0, 0.0, 0.0, 1.620213558416175E9, 2021-05-05 13:19:18.416
14.0, 370.2407531738281, -1269.4398193359375, 448.4177551269531, 509.83062744140625, -0.08000000566244125, 0.04800000041723251, 1.055999994277954, 0.0, 0.0, 0.0, 0.0, 0.0, 1.620213558416175E9, 2021-05-05 13:19:18.416
15.0, 362.6824035644531, -1280.7269287109375, 438.8211669921875, 503.394287109375, -0.08000000566244125, 0.04800000041723251, 1.055999994277954, 0.0, 0.0, 0.0, 0.0, 0.0, 1.62021355841667E9, 2021-05-05 13:19:18.416
15.0, 366.1679992675781, -1280.5323486328125, 437.80389404296875, 510.4626770019531, -0.08000000566244125, 0.04800000041723251, 1.055999994277954, 0.0, 0.0, 0.0, 0.0, 0.0, 1.62021355841667E9, 2021-05-05 13:19:18.416
16.0, 376.35546875, -1271.593994140625, 445.63525390625, 513.241455078125, -0.08000000566244125, 0.04800000041723251, 1.055999994277954, 0.0, 0.0, 0.0, 0.0, 0.0, 1.6202135584173915E9, 2021-05-05 13:19:18.417
16.0, 378.09454345703125, -1274.3577880859375, 450.2839660644531, 512.7926635742188, -0.08000000566244125, 0.04800000041723251, 1.055999994277954, 0.0, 0.0, 0.0, 0.0, 0.0, 1.6202135584173915E9, 2021-05-05 13:19:18.417
17.0, 363.99884033203125, -1288.049560546875, 442.8116455078125, 512.3251342773438, -0.08000000566244125, 0.04800000041723251, 1.055999994277954, 0.0, 0.0, 0.0, 0.0, 0.0, 1.6202135584181297E9, 2021-05-05 13:19:18.418
17.0, 356.42181396484375, -1285.525146484375, 435.32061767578125, 503.7009582519531, -0.08000000566244125, 0.04800000041723251, 1.055999994277954, 0.0, 0.0, 0.0, 0.0, 0.0, 1.6202135584181297E9, 2021-05-05 13:19:18.418
18.0, 369.76202392578125, -1272.0914306640625, 449.5845947265625, 506.84619140625, -0.08000000566244125, 0.04800000041723251, 1.055999994277954, 0.0, 0.0, 0.0, 0.0, 0.0, 1.6202135584289043E9, 2021-05-05 13:19:18.428
18.0, 374.17138671875, -1272.989013671875, 449.02362060546875, 511.76416015625, -0.08000000566244125, 0.04800000041723251, 1.055999994277954, 0.0, 0.0, 0.0, 0.0, 0.0, 1.6202135584289043E9, 2021-05-05 13:19:18.428
19.0, 363.5650329589844, -1285.009033203125, 444.7040100097656, 512.26904296875, -0.08000000566244125, 0.04800000041723251, 1.055999994277954, 0.0, 0.0, 0.0, 0.0, 0.0, 1.6202135584297266E9, 2021-05-05 13:19:18.429
19.0, 354.73138427734375, -1286.5423583984375, 432.6465759277344, 504.6695861816406, -0.08000000566244125, 0.04800000041723251, 1.055999994277954, 0.0, 0.0, 0.0, 0.0, 0.0, 1.6202135584297266E9, 2021-05-05 13:19:18.429
20.0, 362.7871398925781, -1273.437744140625, 449.954833984375, 513.7276000976562, -0.08000000566244125, 0.04800000041723251, 1.055999994277954, 0.0, 0.0, 0.0, 0.0, 0.0, 1.6202135584438908E9, 2021-05-05 13:19:18.443
20.0, 365.27789306640625, -1270.6815185546875, 443.9149169921875, 507.126708984375, -0.08000000566244125, 0.04800000041723251, 1.055999994277954, 0.0, 0.0, 0.0, 0.0, 0.0, 1.6202135584438908E9, 2021-05-05 13:19:18.443
21.0, 353.6468200683594, -1277.8321533203125, 442.3890380859375, 505.754150390625, -0.08000000566244125, 0.04800000041723251, 1.055999994277954, 0.0, 0.0, 0.0, 0.0, 0.0, 1.6202135584446144E9, 2021-05-05 13:19:18.444
21.0, 350.6399230957031, -1281.26171875, 437.2765808105469, 507.72882080078125, -0.08000000566244125, 0.04800000041723251, 1.055999994277954, 0.0, 0.0, 0.0, 0.0, 0.0, 1.6202135584446144E9, 2021-05-05 13:19:18.444
22.0, 357.81304931640625, -1273.9090576171875, 440.0440979003906, 503.207275390625, -0.08000000566244125, 0.04800000041723251, 1.055999994277954, 0.0, 0.0, 0.0, 0.0, 0.0, 1.6202135584745767E9, 2021-05-05 13:19:18.474
22.0, 365.9922180175781, -1268.014892578125, 447.7071533203125, 503.60369873046875, -0.08000000566244125, 0.04800000041723251, 1.055999994277954, 0.0, 0.0, 0.0, 0.0, 0.0, 1.6202135584745767E9, 2021-05-05 13:19:18.474
23.0, 358.3478698730469, -1282.604248046875, 431.3787536621094, 498.45013427734375, -0.08000000566244125, 0.04800000041723251, 1.055999994277954, 0.0, 0.0, 0.0, 0.0, 0.0, 1.620213558475268E9, 2021-05-05 13:19:18.475
23.0, 358.4825134277344, -1289.6053466796875, 434.28466796875, 497.9115905761719, -0.08000000566244125, 0.04800000041723251, 1.055999994277954, 0.0, 0.0, 0.0, 0.0, 0.0, 1.620213558475268E9, 2021-05-05 13:19:18.475
24.0, 372.892333984375, -1275.4237060546875, 445.6651916503906, 507.0107421875, -0.08000000566244125, 0.04800000041723251, 1.055999994277954, 0.0, 0.0, 0.0, 0.0, 0.0, 1.6202135584760196E9, 2021-05-05 13:19:18.476
24.0, 377.2343444824219, -1275.11328125, 448.0774230957031, 514.251220703125, -0.08000000566244125, 0.04800000041723251, 1.055999994277954, 0.0, 0.0, 0.0, 0.0, 0.0, 1.6202135584760196E9, 2021-05-05 13:19:18.476
25.0, 362.5216064453125, -1285.31201171875, 433.63018798828125, 506.7265319824219, -0.08000000566244125, 0.04800000041723251, 1.055999994277954, 0.0, 0.0, 0.0, 0.0, 0.0, 1.6202135584882524E9, 2021-05-05 13:19:18.488
25.0, 361.706298828125, -1287.0435791015625, 440.8706359863281, 506.0458679199219, -0.08000000566244125, 0.04800000041723251, 1.055999994277954, 0.0, 0.0, 0.0, 0.0, 0.0, 1.6202135584882524E9, 2021-05-05 13:19:18.488
26.0, 368.24737548828125, -1285.3643798828125, 448.7879943847656, 507.2875061035156, -0.08000000566244125, 0.04800000041723251, 1.055999994277954, 0.0, 0.0, 0.0, 0.0, 0.0, 1.6202135585039184E9, 2021-05-05 13:19:18.503
26.0, 377.8589172363281, -1279.9676513671875, 453.88922119140625, 516.1398315429688, -0.08000000566244125, 0.04800000041723251, 1.055999994277954, 0.0, 0.0, 0.0, 0.0, 0.0, 1.6202135585039184E9, 2021-05-05 13:19:18.503
27.0, 367.5854187011719, -1281.242919921875, 453.3506774902344, 514.1763916015625, -0.08000000566244125, 0.04800000041723251, 1.055999994277954, 0.0, 0.0, 0.0, 0.0, 0.0, 1.6202135585045872E9, 2021-05-05 13:19:18.504
27.0, 363.2247009277344, -1291.59130859375, 445.15655517578125, 513.7799682617188, -0.08000000566244125, 0.04800000041723251, 1.055999994277954, 0.0, 0.0, 0.0, 0.0, 0.0, 1.6202135585045872E9, 2021-05-05 13:19:18.504
28.0, 369.3169860839844, -1274.0772705078125, 457.5468444824219, 514.4232177734375, -0.08000000566244125, 0.04800000041723251, 1.055999994277954, 0.0, 0.0, 0.0, 0.0, 0.0, 1.6202135585353055E9, 2021-05-05 13:19:18.535
28.0, 371.93865966796875, -1267.4501953125, 457.53936767578125, 514.8720092773438, -0.08000000566244125, 0.04800000041723251, 1.055999994277954, 0.0, 0.0, 0.0, 0.0, 0.0, 1.6202135585353055E9, 2021-05-05 13:19:18.535
29.0, 358.6882019042969, -1278.905517578125, 449.6481628417969, 514.2736206054688, -0.08000000566244125, 0.04800000041723251, 1.055999994277954, 0.0, 0.0, 0.0, 0.0, 0.0, 1.6202135585360224E9, 2021-05-05 13:19:18.536
29.0, 355.6962890625, -1282.7613525390625, 444.7040100097656, 511.19195556640625, -0.08000000566244125, 0.04800000041723251, 1.055999994277954, 0.0, 0.0, 0.0, 0.0, 0.0, 1.6202135585360224E9, 2021-05-05 13:19:18.536
30.0, 360.4459533691406, -1274.8590087890625, 443.1744079589844, 507.07806396484375, -0.08000000566244125, 0.04800000041723251, 1.055999994277954, 0.0, 0.0, 0.0, 0.0, 0.0, 1.620213558536694E9, 2021-05-05 13:19:18.536
30.0, 367.52557373046875, -1269.0845947265625, 446.8245544433594, 513.1217651367188, -0.08000000566244125, 0.04800000041723251, 1.055999994277954, 0.0, 0.0, 0.0, 0.0, 0.0, 1.620213558536694E9, 2021-05-05 13:19:18.536
31.0, 366.0146484375, -1284.066650390625, 436.7455139160156, 505.9523620605469, -0.08000000566244125, 0.04800000041723251, 1.055999994277954, 0.0, 0.0, 0.0, 0.0, 0.0, 1.6202135585482345E9, 2021-05-05 13:19:18.548
31.0, 354.7912292480469, -1286.9014892578125, 427.17138671875, 505.45123291015625, -0.08000000566244125, 0.04800000041723251, 1.055999994277954, 0.0, 0.0, 0.0, 0.0, 0.0, 1.6202135585482345E9, 2021-05-05 13:19:18.548
32.0, 374.2200012207031, -1271.287353515625, 446.7160949707031, 513.9071044921875, -0.08000000566244125, 0.04800000041723251, 1.055999994277954, 0.0, 0.0, 0.0, 0.0, 0.0, 1.6202135585640604E9, 2021-05-05 13:19:18.564
32.0, 373.68145751953125, -1272.5028076171875, 442.93505859375, 504.568603515625, -0.08000000566244125, 0.04800000041723251, 1.055999994277954, 0.0, 0.0, 0.0, 0.0, 0.0, 1.6202135585640604E9, 2021-05-05 13:19:18.564
33.0, 362.2972106933594, -1280.1546630859375, 436.2518615722656, 505.1033935546875, -0.08000000566244125, 0.04800000041723251, 1.055999994277954, 0.0, 0.0, 0.0, 0.0, 0.0, 1.620213558564812E9, 2021-05-05 13:19:18.564
33.0, 363.5949401855469, -1281.2093505859375, 442.66204833984375, 502.6275939941406, -0.08000000566244125, 0.04800000041723251, 1.055999994277954, 0.0, 0.0, 0.0, 0.0, 0.0, 1.620213558564812E9, 2021-05-05 13:19:18.564
34.0, 373.3224182128906, -1269.7652587890625, 449.7117614746094, 510.2158508300781, -0.08000000566244125, 0.04800000041723251, 1.055999994277954, 0.0, 0.0, 0.0, 0.0, 0.0, 1.6202135585944085E9, 2021-05-05 13:19:18.594
34.0, 380.4319763183594, -1260.3294677734375, 457.19903564453125, 515.6686401367188, -0.08000000566244125, 0.04800000041723251, 1.055999994277954, 0.0, 0.0, 0.0, 0.0, 0.0, 1.6202135585944085E9, 2021-05-05 13:19:18.594
35.0, 369.0177917480469, -1273.5125732421875, 446.80584716796875, 507.1790466308594, -0.08000000566244125, 0.04800000041723251, 1.055999994277954, 0.0, 0.0, 0.0, 0.0, 0.0, 1.620213558595136E9, 2021-05-05 13:19:18.595
35.0, 367.480712890625, -1270.6815185546875, 449.02362060546875, 512.2727661132812, -0.08000000566244125, 0.04800000041723251, 1.055999994277954, 0.0, 0.0, 0.0, 0.0, 0.0, 1.620213558595136E9, 2021-05-05 13:19:18.595
36.0, 375.62994384765625, -1261.35791015625, 449.90997314453125, 514.9131469726562, -0.08000000566244125, 0.04800000041723251, 1.055999994277954, 0.0, 0.0, 0.0, 0.0, 0.0, 1.62021355860891E9, 2021-05-05 13:19:18.608
36.0, 379.2950439453125, -1259.0130615234375, 457.8834228515625, 510.42901611328125, -0.08000000566244125, 0.04800000041723251, 1.055999994277954, 0.0, 0.0, 0.0, 0.0, 0.0, 1.62021355860891E9, 2021-05-05 13:19:18.608
37.0, 366.63922119140625, -1262.4462890625, 446.05413818359375, 511.7118225097656, -0.08000000566244125, 0.04800000041723251, 1.055999994277954, 0.0, 0.0, 0.0, 0.0, 0.0, 1.6202135586096027E9, 2021-05-05 13:19:18.609
37.0, 364.7655334472656, -1264.9183349609375, 444.90972900390625, 513.922119140625, -0.08000000566244125, 0.04800000041723251, 1.055999994277954, 0.0, 0.0, 0.0, 0.0, 0.0, 1.6202135586096027E9, 2021-05-05 13:19:18.609
38.0, 372.7876281738281, -1251.4248046875, 455.235595703125, 510.2046203613281, -0.08000000566244125, 0.04800000041723251, 1.055999994277954, 0.0, 0.0, 0.0, 0.0, 0.0, 1.6202135586239812E9, 2021-05-05 13:19:18.623
38.0, 379.2202453613281, -1242.9014892578125, 456.4847106933594, 521.42431640625, -0.08000000566244125, 0.04800000041723251, 1.055999994277954, 0.0, 0.0, 0.0, 0.0, 0.0, 1.6202135586239812E9, 2021-05-05 13:19:18.623
39.0, 366.26898193359375, -1262.4761962890625, 436.04241943359375, 507.02197265625, -0.08000000566244125, 0.04800000041723251, 1.055999994277954, 0.0, 0.0, 0.0, 0.0, 0.0, 1.6202135586246395E9, 2021-05-05 13:19:18.624
39.0, 371.1383361816406, -1253.8258056640625, 447.2135009765625, 510.9376525878906, -0.08000000566244125, 0.04800000041723251, 1.055999994277954, 0.0, 0.0, 0.0, 0.0, 0.0, 1.6202135586246395E9, 2021-05-05 13:19:18.624
40.0, 370.1472473144531, -1255.467529296875, 459.39434814453125, 520.9755249023438, -0.08000000566244125, 0.04800000041723251, 1.055999994277954, 0.0, 0.0, 0.0, 0.0, 0.0, 1.620213558638229E9, 2021-05-05 13:19:18.638
40.0, 378.72283935546875, -1247.763427734375, 463.04449462890625, 521.6749267578125, -0.08000000566244125, 0.04800000041723251, 1.055999994277954, 0.0, 0.0, 0.0, 0.0, 0.0, 1.620213558638229E9, 2021-05-05 13:19:18.638
41.0, 371.20562744140625, -1258.126708984375, 459.0839538574219, 522.351806640625, -0.08000000566244125, 0.04800000041723251, 1.055999994277954, 0.0, 0.0, 0.0, 0.0, 0.0, 1.6202135586703591E9, 2021-05-05 13:19:18.670
41.0, 369.30950927734375, -1265.643798828125, 447.2471618652344, 507.8372802734375, -0.08000000566244125, 0.04800000041723251, 1.055999994277954, 0.0, 0.0, 0.0, 0.0, 0.0, 1.6202135586703591E9, 2021-05-05 13:19:18.670
42.0, 379.2052917480469, -1256.6568603515625, 457.677734375, 516.3268432617188, -0.08000000566244125, 0.04800000041723251, 1.055999994277954, 0.0, 0.0, 0.0, 0.0, 0.0, 1.620213558671104E9, 2021-05-05 13:19:18.671
42.0, 384.90863037109375, -1253.552734375, 462.58074951171875, 524.2218017578125, -0.08000000566244125, 0.04800000041723251, 1.055999994277954, 0.0, 0.0, 0.0, 0.0, 0.0, 1.620213558671104E9, 2021-05-05 13:19:18.671
43.0, 368.28851318359375, -1267.6708984375, 453.7059631347656, 518.8438110351562, -0.08000000566244125, 0.04800000041723251, 1.055999994277954, 0.0, 0.0, 0.0, 0.0, 0.0, 1.6202135586717227E9, 2021-05-05 13:19:18.671
43.0, 367.2563171386719, -1272.5814208984375, 443.5745849609375, 515.3133544921875, -0.08000000566244125, 0.04800000041723251, 1.055999994277954, 0.0, 0.0, 0.0, 0.0, 0.0, 1.6202135586717227E9, 2021-05-05 13:19:18.671
44.0, 382.5450134277344, -1253.34326171875, 465.12762451171875, 526.3310546875, -0.08000000566244125, 0.04800000041723251, 1.055999994277954, 0.0, 0.0, 0.0, 0.0, 0.0, 1.6202135586725144E9, 2021-05-05 13:19:18.672
44.0, 372.9933166503906, -1262.3939208984375, 464.9256591796875, 517.7891235351562, -0.08000000566244125, 0.04800000041723251, 1.055999994277954, 0.0, 0.0, 0.0, 0.0, 0.0, 1.6202135586725144E9, 2021-05-05 13:19:18.672
45.0, 354.8099060058594, -1268.961181640625, 447.99139404296875, 505.9785461425781, -0.08000000566244125, 0.04800000041723251, 1.055999994277954, 0.0, 0.0, 0.0, 0.0, 0.0, 1.6202135586832097E9, 2021-05-05 13:19:18.683
45.0, 354.5780334472656, -1270.674072265625, 443.74285888671875, 504.7630920410156, -0.08000000566244125, 0.04800000041723251, 1.055999994277954, 0.0, 0.0, 0.0, 0.0, 0.0, 1.6202135586832097E9, 2021-05-05 13:19:18.683
46.0, 372.30517578125, -1255.8154296875, 460.9052734375, 513.7612915039062, -0.08000000566244125, 0.04800000041723251, 1.055999994277954, 0.0, 0.0, 0.0, 0.0, 0.0, 1.6202135586983328E9, 2021-05-05 13:19:18.698
46.0, 370.9027099609375, -1250.5906982421875, 459.3382568359375, 515.5975952148438, -0.08000000566244125, 0.04800000041723251, 1.055999994277954, 0.0, 0.0, 0.0, 0.0, 0.0, 1.6202135586983328E9, 2021-05-05 13:19:18.698
47.0, 356.96783447265625, -1264.899658203125, 450.4223327636719, 513.4284057617188, -0.08000000566244125, 0.04800000041723251, 1.055999994277954, 0.0, 0.0, 0.0, 0.0, 0.0, 1.6202135587138722E9, 2021-05-05 13:19:18.713
47.0, 358.3366394042969, -1269.4735107421875, 446.92926025390625, 516.6970825195312, -0.08000000566244125, 0.04800000041723251, 1.055999994277954, 0.0, 0.0, 0.0, 0.0, 0.0, 1.6202135587138722E9, 2021-05-05 13:19:18.713
48.0, 367.5106201171875, -1263.70654296875, 453.50775146484375, 514.3596801757812, -0.08000000566244125, 0.04800000041723251, 1.055999994277954, 0.0, 0.0, 0.0, 0.0, 0.0, 1.6202135587146633E9, 2021-05-05 13:19:18.714
48.0, 379.2838134765625, -1268.1683349609375, 457.52813720703125, 521.60009765625, -0.08000000566244125, 0.04800000041723251, 1.055999994277954, 0.0, 0.0, 0.0, 0.0, 0.0, 1.6202135587146633E9, 2021-05-05 13:19:18.714
49.0, 371.0036926269531, -1280.135986328125, 445.7100524902344, 509.8343811035156, -0.08000000566244125, 0.04800000041723251, 1.055999994277954, 0.0, 0.0, 0.0, 0.0, 0.0, 1.6202135587282758E9, 2021-05-05 13:19:18.728
49.0, 369.35064697265625, -1282.791259765625, 442.7518005371094, 509.70721435546875, -0.08000000566244125, 0.04800000041723251, 1.055999994277954, 0.0, 0.0, 0.0, 0.0, 0.0, 1.6202135587282758E9, 2021-05-05 13:19:18.728
50.0, 371.40386962890625, -1273.493896484375, 446.6263427734375, 510.23455810546875, -0.08000000566244125, 0.04800000041723251, 1.055999994277954, 0.0, 0.0, 0.0, 0.0, 0.0, 1.6202135587438393E9, 2021-05-05 13:19:18.743
50.0, 379.79620361328125, -1259.2523193359375, 454.47265625, 516.1735229492188, -0.08000000566244125, 0.04800000041723251, 1.055999994277954, 0.0, 0.0, 0.0, 0.0, 0.0, 1.6202135587438393E9, 2021-05-05 13:19:18.743
51.0, 366.4971008300781, -1274.9412841796875, 438.07318115234375, 508.6226501464844, -0.08000000566244125, 0.04800000041723251, 1.055999994277954, 0.0, 0.0, 0.0, 0.0, 0.0, 1.620213558744552E9, 2021-05-05 13:19:18.744
51.0, 361.0218811035156, -1276.7587890625, 438.2564392089844, 501.3186340332031, -0.08000000566244125, 0.04800000041723251, 1.055999994277954, 0.0, 0.0, 0.0, 0.0, 0.0, 1.620213558744552E9, 2021-05-05 13:19:18.744
52.0, 377.541015625, -1258.5679931640625, 448.9263610839844, 509.75958251953125, -0.08000000566244125, 0.04800000041723251, 1.055999994277954, 0.0, 0.0, 0.0, 0.0, 0.0, 1.6202135587582655E9, 2021-05-05 13:19:18.758
52.0, 380.0766906738281, -1256.181884765625, 452.2623596191406, 507.4894714355469, -0.08000000566244125, 0.04800000041723251, 1.055999994277954, 0.0, 0.0, 0.0, 0.0, 0.0, 1.6202135587582655E9, 2021-05-05 13:19:18.758
53.0, 366.43353271484375, -1264.140380859375, 441.6148681640625, 502.021728515625, -0.08000000566244125, 0.04800000041723251, 1.055999994277954, 0.0, 0.0, 0.0, 0.0, 0.0, 1.6202135587749603E9, 2021-05-05 13:19:18.774
53.0, 364.7804870605469, -1263.295166015625, 438.87353515625, 508.7423400878906, -0.08000000566244125, 0.04800000041723251, 1.055999994277954, 0.0, 0.0, 0.0, 0.0, 0.0, 1.6202135587749603E9, 2021-05-05 13:19:18.774
54.0, 371.72174072265625, -1247.1949462890625, 452.3670654296875, 510.5860900878906, -0.08000000566244125, 0.04800000041723251, 1.055999994277954, 0.0, 0.0, 0.0, 0.0, 0.0, 1.6202135587888737E9, 2021-05-05 13:19:18.788
54.0, 370.5623779296875, -1254.3680419921875, 451.7611999511719, 512.2653198242188, -0.08000000566244125, 0.04800000041723251, 1.055999994277954, 0.0, 0.0, 0.0, 0.0, 0.0, 1.6202135587888737E9, 2021-05-05 13:19:18.788
55.0, 360.0682067871094, -1254.0762939453125, 444.0906677246094, 512.3588256835938, -0.08000000566244125, 0.04800000041723251, 1.055999994277954, 0.0, 0.0, 0.0, 0.0, 0.0, 1.620213558789565E9, 2021-05-05 13:19:18.789
55.0, 363.76324462890625, -1252.4307861328125, 450.25030517578125, 519.0233154296875, -0.08000000566244125, 0.04800000041723251, 1.055999994277954, 0.0, 0.0, 0.0, 0.0, 0.0, 1.620213558789565E9, 2021-05-05 13:19:18.789
56.0, 374.3808288574219, -1250.486083984375, 455.6357421875, 519.3599243164062, -0.08000000566244125, 0.04800000041723251, 1.055999994277954, 0.0, 0.0, 0.0, 0.0, 0.0, 1.6202135588038855E9, 2021-05-05 13:19:18.803
56.0, 384.9572448730469, -1243.76171875, 464.0916748046875, 526.5853881835938, -0.08000000566244125, 0.04800000041723251, 1.055999994277954, 0.0, 0.0, 0.0, 0.0, 0.0, 1.6202135588038855E9, 2021-05-05 13:19:18.803
57.0, 369.7096862792969, -1259.7423095703125, 455.1383361816406, 519.7937622070312, -0.08000000566244125, 0.04800000041723251, 1.055999994277954, 0.0, 0.0, 0.0, 0.0, 0.0, 1.6202135588046696E9, 2021-05-05 13:19:18.804
57.0, 369.9639892578125, -1262.0535888671875, 452.21746826171875, 518.72412109375, -0.08000000566244125, 0.04800000041723251, 1.055999994277954, 0.0, 0.0, 0.0, 0.0, 0.0, 1.6202135588046696E9, 2021-05-05 13:19:18.804
58.0, 381.894287109375, -1251.1966552734375, 467.93255615234375, 525.0707397460938, -0.08000000566244125, 0.04800000041723251, 1.055999994277954, 0.0, 0.0, 0.0, 0.0, 0.0, 1.6202135588183007E9, 2021-05-05 13:19:18.818
58.0, 382.2757568359375, -1250.1943359375, 464.47314453125, 524.7715454101562, -0.08000000566244125, 0.04800000041723251, 1.055999994277954, 0.0, 0.0, 0.0, 0.0, 0.0, 1.6202135588183007E9, 2021-05-05 13:19:18.818
59.0, 373.0793151855469, -1257.3525390625, 461.2156677246094, 525.9869995117188, -0.08000000566244125, 0.04800000041723251, 1.055999994277954, 0.0, 0.0, 0.0, 0.0, 0.0, 1.6202135588503032E9, 2021-05-05 13:19:18.850
59.0, 371.80401611328125, -1261.3653564453125, 456.8736572265625, 519.4496459960938, -0.08000000566244125, 0.04800000041723251, 1.055999994277954, 0.0, 0.0, 0.0, 0.0, 0.0, 1.6202135588503032E9, 2021-05-05 13:19:18.850
60.0, 382.31689453125, -1248.189697265625, 463.5830383300781, 523.8029174804688, -0.08000000566244125, 0.04800000041723251, 1.055999994277954, 0.0, 0.0, 0.0, 0.0, 0.0, 1.6202135588510728E9, 2021-05-05 13:19:18.851
60.0, 383.5248718261719, -1246.697509765625, 460.306884765625, 516.5400390625, -0.08000000566244125, 0.04800000041723251, 1.055999994277954, 0.0, 0.0, 0.0, 0.0, 0.0, 1.6202135588510728E9, 2021-05-05 13:19:18.851
61.0, 374.69122314453125, -1254.547607421875, 455.02239990234375, 511.1358642578125, -0.08000000566244125, 0.04800000041723251, 1.055999994277954, 0.0, 0.0, 0.0, 0.0, 0.0, 1.620213558851692E9, 2021-05-05 13:19:18.851
61.0, 362.56646728515625, -1254.7532958984375, 446.7160949707031, 512.2503662109375, -0.08000000566244125, 0.04800000041723251, 1.055999994277954, 0.0, 0.0, 0.0, 0.0, 0.0, 1.620213558851692E9, 2021-05-05 13:19:18.851
62.0, 364.6159362792969, -1250.2242431640625, 447.3668212890625, 507.1640930175781, -0.08000000566244125, 0.04800000041723251, 1.055999994277954, 0.0, 0.0, 0.0, 0.0, 0.0, 1.6202135588526263E9, 2021-05-05 13:19:18.852
62.0, 377.6532287597656, -1238.9932861328125, 463.11553955078125, 514.6588745117188, -0.08000000566244125, 0.04800000041723251, 1.055999994277954, 0.0, 0.0, 0.0, 0.0, 0.0, 1.6202135588526263E9, 2021-05-05 13:19:18.852
63.0, 355.427001953125, -1254.9515380859375, 445.0817565917969, 508.1551513671875, -0.08000000566244125, 0.04800000041723251, 1.055999994277954, 0.0, 0.0, 0.0, 0.0, 0.0, 1.6202135588632395E9, 2021-05-05 13:19:18.863
63.0, 351.12237548828125, -1255.523681640625, 438.37237548828125, 504.2095642089844, -0.08000000566244125, 0.04800000041723251, 1.055999994277954, 0.0, 0.0, 0.0, 0.0, 0.0, 1.6202135588632395E9, 2021-05-05 13:19:18.863
64.0, 359.2903137207031, -1255.030029296875, 442.0487060546875, 508.8807067871094, -0.08000000566244125, 0.04800000041723251, 1.055999994277954, 0.0, 0.0, 0.0, 0.0, 0.0, 1.6202135588782356E9, 2021-05-05 13:19:18.878
64.0, 375.8505859375, -1245.5081787109375, 452.6961975097656, 518.1668701171875, -0.08000000566244125, 0.04800000041723251, 1.055999994277954, 0.0, 0.0, 0.0, 0.0, 0.0, 1.6202135588782356E9, 2021-05-05 13:19:18.878
65.0, 359.48480224609375, -1266.5601806640625, 434.860595703125, 504.9613037109375, -0.08000000566244125, 0.04800000041723251, 1.055999994277954, 0.0, 0.0, 0.0, 0.0, 0.0, 1.6202135588939207E9, 2021-05-05 13:19:18.893
65.0, 352.5098876953125, -1270.2364501953125, 432.80364990234375, 506.03839111328125, -0.08000000566244125, 0.04800000041723251, 1.055999994277954, 0.0, 0.0, 0.0, 0.0, 0.0, 1.6202135588939207E9, 2021-05-05 13:19:18.893
66.0, 370.2145690917969, -1260.21728515625, 444.4571838378906, 511.1246337890625, -0.08000000566244125, 0.04800000041723251, 1.055999994277954, 0.0, 0.0, 0.0, 0.0, 0.0, 1.6202135588946357E9, 2021-05-05 13:19:18.894
66.0, 379.0257568359375, -1255.8565673828125, 446.3682861328125, 516.8242797851562, -0.08000000566244125, 0.04800000041723251, 1.055999994277954, 0.0, 0.0, 0.0, 0.0, 0.0, 1.6202135588946357E9, 2021-05-05 13:19:18.894
67.0, 369.2085266113281, -1262.3116455078125, 443.24920654296875, 508.641357421875, -0.08000000566244125, 0.04800000041723251, 1.055999994277954, 0.0, 0.0, 0.0, 0.0, 0.0, 1.6202135589082263E9, 2021-05-05 13:19:18.908
67.0, 370.08367919921875, -1264.458251953125, 439.3335266113281, 512.3812255859375, -0.08000000566244125, 0.04800000041723251, 1.055999994277954, 0.0, 0.0, 0.0, 0.0, 0.0, 1.6202135589082263E9, 2021-05-05 13:19:18.908
68.0, 370.30059814453125, -1259.488037109375, 446.7572326660156, 509.6698303222656, -0.08000000566244125, 0.04800000041723251, 1.055999994277954, 0.0, 0.0, 0.0, 0.0, 0.0, 1.6202135589239793E9, 2021-05-05 13:19:18.923
68.0, 368.9317932128906, -1261.099853515625, 451.2787780761719, 508.7685241699219, -0.08000000566244125, 0.04800000041723251, 1.055999994277954, 0.0, 0.0, 0.0, 0.0, 0.0, 1.6202135589239793E9, 2021-05-05 13:19:18.923
69.0, 358.819091796875, -1267.1397705078125, 443.8176574707031, 509.5464172363281, -0.08000000566244125, 0.04800000041723251, 1.055999994277954, 0.0, 0.0, 0.0, 0.0, 0.0, 1.6202135589246242E9, 2021-05-05 13:19:18.924
69.0, 356.8369445800781, -1269.31640625, 437.68048095703125, 505.1632385253906, -0.08000000566244125, 0.04800000041723251, 1.055999994277954, 0.0, 0.0, 0.0, 0.0, 0.0, 1.6202135589246242E9, 2021-05-05 13:19:18.924
70.0, 372.6417541503906, -1261.1409912109375, 452.2586364746094, 511.0423583984375, -0.08000000566244125, 0.04800000041723251, 1.055999994277954, 0.0, 0.0, 0.0, 0.0, 0.0, 1.620213558938408E9, 2021-05-05 13:19:18.938
70.0, 380.6675720214844, -1258.119140625, 452.92059326171875, 512.1568603515625, -0.08000000566244125, 0.04800000041723251, 1.055999994277954, 0.0, 0.0, 0.0, 0.0, 0.0, 1.620213558938408E9, 2021-05-05 13:19:18.938
71.0, 361.9942626953125, -1267.061279296875, 444.2889099121094, 508.8956604003906, -0.08000000566244125, 0.04800000041723251, 1.055999994277954, 0.0, 0.0, 0.0, 0.0, 0.0, 1.6202135589539077E9, 2021-05-05 13:19:18.953
71.0, 356.0328674316406, -1274.799072265625, 433.8695373535156, 506.1692810058594, -0.08000000566244125, 0.04800000041723251, 1.055999994277954, 0.0, 0.0, 0.0, 0.0, 0.0, 1.6202135589539077E9, 2021-05-05 13:19:18.953
72.0, 362.8095703125, -1266.2086181640625, 442.7555236816406, 507.0855407714844, -0.08000000566244125, 0.04800000041723251, 1.055999994277954, 0.0, 0.0, 0.0, 0.0, 0.0, 1.6202135589547105E9, 2021-05-05 13:19:18.954
72.0, 371.882568359375, -1251.2041015625, 454.5624084472656, 513.2152709960938, -0.08000000566244125, 0.04800000041723251, 1.055999994277954, 0.0, 0.0, 0.0, 0.0, 0.0, 1.6202135589547105E9, 2021-05-05 13:19:18.954
73.0, 361.4968566894531, -1274.866455078125, 436.1695861816406, 506.84619140625, -0.08000000566244125, 0.04800000041723251, 1.055999994277954, 0.0, 0.0, 0.0, 0.0, 0.0, 1.6202135589682667E9, 2021-05-05 13:19:18.968
73.0, 356.6349792480469, -1276.1754150390625, 430.74298095703125, 506.0234375, -0.08000000566244125, 0.04800000041723251, 1.055999994277954, 0.0, 0.0, 0.0, 0.0, 0.0, 1.6202135589682667E9, 2021-05-05 13:19:18.968
74.0, 369.3132629394531, -1271.4705810546875, 443.5708312988281, 509.40802001953125, -0.08000000566244125, 0.04800000041723251, 1.055999994277954, 0.0, 0.0, 0.0, 0.0, 0.0, 1.6202135590004663E9, 2021-05-05 13:19:19.000
74.0, 374.7809753417969, -1266.029052734375, 447.1424255371094, 513.3348999023438, -0.08000000566244125, 0.04800000041723251, 1.055999994277954, 0.0, 0.0, 0.0, 0.0, 0.0, 1.6202135590004663E9, 2021-05-05 13:19:19.000
75.0, 367.5442810058594, -1270.674072265625, 450.9384460449219, 512.4261474609375, -0.08000000566244125, 0.04800000041723251, 1.055999994277954, 0.0, 0.0, 0.0, 0.0, 0.0, 1.6202135590010977E9, 2021-05-05 13:19:19.001
75.0, 368.6886901855469, -1276.7027587890625, 441.8542175292969, 513.6416015625, -0.08000000566244125, 0.04800000041723251, 1.055999994277954, 0.0, 0.0, 0.0, 0.0, 0.0, 1.6202135590010977E9, 2021-05-05 13:19:19.001
76.0, 375.6374206542969, -1258.6053466796875, 450.03338623046875, 521.09521484375, -0.08000000566244125, 0.04800000041723251, 1.055999994277954, 0.0, 0.0, 0.0, 0.0, 0.0, 1.62021355900186E9, 2021-05-05 13:19:19.001
76.0, 378.161865234375, -1249.0723876953125, 456.2677917480469, 520.4744262695312, -0.08000000566244125, 0.04800000041723251, 1.055999994277954, 0.0, 0.0, 0.0, 0.0, 0.0, 1.62021355900186E9, 2021-05-05 13:19:19.001
77.0, 370.33050537109375, -1256.9149169921875, 444.6217346191406, 513.1778564453125, -0.08000000566244125, 0.04800000041723251, 1.055999994277954, 0.0, 0.0, 0.0, 0.0, 0.0, 1.6202135590025115E9, 2021-05-05 13:19:19.002
77.0, 369.5899963378906, -1257.7227783203125, 447.1835632324219, 517.1122436523438, -0.08000000566244125, 0.04800000041723251, 1.055999994277954, 0.0, 0.0, 0.0, 0.0, 0.0, 1.6202135590025115E9, 2021-05-05 13:19:19.002
78.0, 385.6379089355469, -1241.2784423828125, 460.66217041015625, 521.2971801757812, -0.08000000566244125, 0.04800000041723251, 1.055999994277954, 0.0, 0.0, 0.0, 0.0, 0.0, 1.620213559013198E9, 2021-05-05 13:19:19.013
78.0, 395.7842712402344, -1237.0560302734375, 468.67303466796875, 527.22119140625, -0.08000000566244125, 0.04800000041723251, 1.055999994277954, 0.0, 0.0, 0.0, 0.0, 0.0, 1.620213559013198E9, 2021-05-05 13:19:19.013
79.0, 382.0139465332031, -1245.6016845703125, 462.75653076171875, 521.7721557617188, -0.08000000566244125, 0.04800000041723251, 1.055999994277954, 0.0, 0.0, 0.0, 0.0, 0.0, 1.6202135590282073E9, 2021-05-05 13:19:19.028
79.0, 378.96966552734375, -1251.297607421875, 459.1811828613281, 518.6867065429688, -0.08000000566244125, 0.04800000041723251, 1.055999994277954, 0.0, 0.0, 0.0, 0.0, 0.0, 1.6202135590282073E9, 2021-05-05 13:19:19.028
80.0, 391.7713623046875, -1237.96484375, 466.98260498046875, 526.705078125, -0.08000000566244125, 0.04800000041723251, 1.055999994277954, 0.0, 0.0, 0.0, 0.0, 0.0, 1.6202135590438612E9, 2021-05-05 13:19:19.043
80.0, 389.1122741699219, -1230.79541015625, 467.3977355957031, 525.8523559570312, -0.08000000566244125, 0.04800000041723251, 1.055999994277954, 0.0, 0.0, 0.0, 0.0, 0.0, 1.6202135590438612E9, 2021-05-05 13:19:19.043
81.0, 371.7890625, -1254.6112060546875, 458.51922607421875, 517.3253784179688, -0.08000000566244125, 0.04800000041723251, 1.055999994277954, 0.0, 0.0, 0.0, 0.0, 0.0, 1.620213559044576E9, 2021-05-05 13:19:19.044
81.0, 372.2565612792969, -1259.409423828125, 454.4950866699219, 518.3576049804688, -0.08000000566244125, 0.04800000041723251, 1.055999994277954, 0.0, 0.0, 0.0, 0.0, 0.0, 1.620213559044576E9, 2021-05-05 13:19:19.044
82.0, 375.1849060058594, -1255.5947265625, 463.2726135253906, 518.6680297851562, -0.08000000566244125, 0.04800000041723251, 1.055999994277954, 0.0, 0.0, 0.0, 0.0, 0.0, 1.620213559058178E9, 2021-05-05 13:19:19.058
82.0, 379.336181640625, -1256.15576171875, 465.049072265625, 523.32421875, -0.08000000566244125, 0.04800000041723251, 1.055999994277954, 0.0, 0.0, 0.0, 0.0, 0.0, 1.620213559058178E9, 2021-05-05 13:19:19.058
83.0, 371.8114929199219, -1271.04052734375, 454.9887390136719, 515.272216796875, -0.08000000566244125, 0.04800000041723251, 1.055999994277954, 0.0, 0.0, 0.0, 0.0, 0.0, 1.6202135590739696E9, 2021-05-05 13:19:19.073
83.0, 368.8943786621094, -1275.580810546875, 453.1487121582031, 518.9447631835938, -0.08000000566244125, 0.04800000041723251, 1.055999994277954, 0.0, 0.0, 0.0, 0.0, 0.0, 1.6202135590739696E9, 2021-05-05 13:19:19.073
84.0, 392.2687683105469, -1257.9808349609375, 474.9299011230469, 537.5732421875, -0.08000000566244125, 0.04800000041723251, 1.055999994277954, 0.0, 0.0, 0.0, 0.0, 0.0, 1.6202135590745964E9, 2021-05-05 13:19:19.074
84.0, 397.74395751953125, -1247.8905029296875, 484.2384948730469, 538.3323974609375, -0.08000000566244125, 0.04800000041723251, 1.055999994277954, 0.0, 0.0, 0.0, 0.0, 0.0, 1.6202135590745964E9, 2021-05-05 13:19:19.074
85.0, 382.64599609375, -1260.3818359375, 470.6813659667969, 536.5335083007812, -0.08000000566244125, 0.04800000041723251, 1.055999994277954, 0.0, 0.0, 0.0, 0.0, 0.0, 1.6202135590882196E9, 2021-05-05 13:19:19.088
85.0, 371.6058044433594, -1267.9102783203125, 457.266357421875, 522.2733154296875, -0.08000000566244125, 0.04800000041723251, 1.055999994277954, 0.0, 0.0, 0.0, 0.0, 0.0, 1.6202135590882196E9, 2021-05-05 13:19:19.088
86.0, 380.9742736816406, -1256.76904296875, 464.4619140625, 529.0088500976562, -0.08000000566244125, 0.04800000041723251, 1.055999994277954, 0.0, 0.0, 0.0, 0.0, 0.0, 1.6202135591046598E9, 2021-05-05 13:19:19.104
86.0, 378.5321044921875, -1259.9293212890625, 453.97149658203125, 517.3927001953125, -0.08000000566244125, 0.04800000041723251, 1.055999994277954, 0.0, 0.0, 0.0, 0.0, 0.0, 1.6202135591046598E9, 2021-05-05 13:19:19.104
87.0, 371.68060302734375, -1266.533935546875, 447.66229248046875, 519.2177734375, -0.08000000566244125, 0.04800000041723251, 1.055999994277954, 0.0, 0.0, 0.0, 0.0, 0.0, 1.6202135591053886E9, 2021-05-05 13:19:19.105
87.0, 360.0083923339844, -1277.5704345703125, 435.39166259765625, 500.9633483886719, -0.08000000566244125, 0.04800000041723251, 1.055999994277954, 0.0, 0.0, 0.0, 0.0, 0.0, 1.6202135591053886E9, 2021-05-05 13:19:19.105
88.0, 368.05291748046875, -1261.5673828125, 446.9554443359375, 507.971923828125, -0.08000000566244125, 0.04800000041723251, 1.055999994277954, 0.0, 0.0, 0.0, 0.0, 0.0, 1.6202135591182575E9, 2021-05-05 13:19:19.118
88.0, 357.0014953613281, -1264.4993896484375, 443.2716369628906, 500.671630859375, -0.08000000566244125, 0.04800000041723251, 1.055999994277954, 0.0, 0.0, 0.0, 0.0, 0.0, 1.6202135591182575E9, 2021-05-05 13:19:19.118
89.0, 345.7444152832031, -1273.0076904296875, 432.05194091796875, 499.8675537109375, -0.08000000566244125, 0.04800000041723251, 1.055999994277954, 0.0, 0.0, 0.0, 0.0, 0.0, 1.6202135591339653E9, 2021-05-05 13:19:19.133
89.0, 345.1160888671875, -1279.91162109375, 426.3486022949219, 494.3399658203125, -0.08000000566244125, 0.04800000041723251, 1.055999994277954, 0.0, 0.0, 0.0, 0.0, 0.0, 1.6202135591339653E9, 2021-05-05 13:19:19.133
90.0, 355.1726989746094, -1271.003173828125, 436.11346435546875, 491.505126953125, -0.08000000566244125, 0.04800000041723251, 1.055999994277954, 0.0, 0.0, 0.0, 0.0, 0.0, 1.6202135591346936E9, 2021-05-05 13:19:19.134
90.0, 355.5578918457031, -1273.3218994140625, 429.5948181152344, 493.6106872558594, -0.08000000566244125, 0.04800000041723251, 1.055999994277954, 0.0, 0.0, 0.0, 0.0, 0.0, 1.6202135591346936E9, 2021-05-05 13:19:19.134
91.0, 344.8767395019531, -1281.4822998046875, 424.6506652832031, 494.5868225097656, -0.08000000566244125, 0.04800000041723251, 1.055999994277954, 0.0, 0.0, 0.0, 0.0, 0.0, 1.6202135591481469E9, 2021-05-05 13:19:19.148
91.0, 336.4320373535156, -1287.974853515625, 418.3377380371094, 496.5390319824219, -0.08000000566244125, 0.04800000041723251, 1.055999994277954, 0.0, 0.0, 0.0, 0.0, 0.0, 1.6202135591481469E9, 2021-05-05 13:19:19.148
92.0, 344.2484436035156, -1275.9285888671875, 433.2823791503906, 501.44580078125, -0.08000000566244125, 0.04800000041723251, 1.055999994277954, 0.0, 0.0, 0.0, 0.0, 0.0, 1.620213559163921E9, 2021-05-05 13:19:19.163
92.0, 348.4184265136719, -1271.4219970703125, 439.88702392578125, 504.9164123535156, -0.08000000566244125, 0.04800000041723251, 1.055999994277954, 0.0, 0.0, 0.0, 0.0, 0.0, 1.620213559163921E9, 2021-05-05 13:19:19.163
93.0, 338.08135986328125, -1285.7869873046875, 422.1711120605469, 495.86212158203125, -0.08000000566244125, 0.04800000041723251, 1.055999994277954, 0.0, 0.0, 0.0, 0.0, 0.0, 1.6202135591646204E9, 2021-05-05 13:19:19.164
93.0, 336.3011474609375, -1286.4676513671875, 419.36993408203125, 495.64520263671875, -0.08000000566244125, 0.04800000041723251, 1.055999994277954, 0.0, 0.0, 0.0, 0.0, 0.0, 1.6202135591646204E9, 2021-05-05 13:19:19.164
94.0, 342.5879211425781, -1275.535888671875, 424.7703552246094, 501.6851501464844, -0.08000000566244125, 0.04800000041723251, 1.055999994277954, 0.0, 0.0, 0.0, 0.0, 0.0, 1.620213559178142E9, 2021-05-05 13:19:19.178
94.0, 358.7667236328125, -1266.2421875, 439.1726989746094, 507.3959655761719, -0.08000000566244125, 0.04800000041723251, 1.055999994277954, 0.0, 0.0, 0.0, 0.0, 0.0, 1.620213559178142E9, 2021-05-05 13:19:19.178
95.0, 331.682373046875, -1289.5081787109375, 418.74163818359375, 490.2073974609375, -0.08000000566244125, 0.04800000041723251, 1.055999994277954, 0.0, 0.0, 0.0, 0.0, 0.0, 1.6202135591938848E9, 2021-05-05 13:19:19.193
95.0, 334.3339538574219, -1285.0501708984375, 416.18353271484375, 486.2879638671875, -0.08000000566244125, 0.04800000041723251, 1.055999994277954, 0.0, 0.0, 0.0, 0.0, 0.0, 1.6202135591938848E9, 2021-05-05 13:19:19.193
96.0, 343.5303955078125, -1271.82958984375, 424.9049987792969, 494.31378173828125, -0.08000000566244125, 0.04800000041723251, 1.055999994277954, 0.0, 0.0, 0.0, 0.0, 0.0, 1.6202135591946783E9, 2021-05-05 13:19:19.194
96.0, 346.8476867675781, -1273.4302978515625, 425.4173583984375, 490.52154541015625, -0.08000000566244125, 0.04800000041723251, 1.055999994277954, 0.0, 0.0, 0.0, 0.0, 0.0, 1.6202135591946783E9, 2021-05-05 13:19:19.194
97.0, 345.16845703125, -1290.1776123046875, 423.7755432128906, 494.9794921875, -0.08000000566244125, 0.04800000041723251, 1.055999994277954, 0.0, 0.0, 0.0, 0.0, 0.0, 1.620213559208276E9, 2021-05-05 13:19:19.208
97.0, 324.3297424316406, -1279.9527587890625, 408.8570861816406, 481.8412170410156, -0.08000000566244125, 0.04800000041723251, 1.055999994277954, 0.0, 0.0, 0.0, 0.0, 0.0, 1.620213559208276E9, 2021-05-05 13:19:19.208
98.0, 342.187744140625, -1263.096923828125, 425.26776123046875, 492.9973449707031, -0.08000000566244125, 0.04800000041723251, 1.055999994277954, 0.0, 0.0, 0.0, 0.0, 0.0, 1.6202135592239597E9, 2021-05-05 13:19:19.223
98.0, 354.7014465332031, -1259.36083984375, 427.5902404785156, 496.1538391113281, -0.08000000566244125, 0.04800000041723251, 1.055999994277954, 0.0, 0.0, 0.0, 0.0, 0.0, 1.6202135592239597E9, 2021-05-05 13:19:19.223
99.0, 341.6342468261719, -1262.6070556640625, 423.861572265625, 494.5606384277344, -0.08000000566244125, 0.04800000041723251, 1.055999994277954, 0.0, 0.0, 0.0, 0.0, 0.0, 1.620213559224645E9, 2021-05-05 13:19:19.224
99.0, 332.1498718261719, -1278.4716796875, 408.8084716796875, 488.0756530761719, -0.08000000566244125, 0.04800000041723251, 1.055999994277954, 0.0, 0.0, 0.0, 0.0, 0.0, 1.620213559224645E9, 2021-05-05 13:19:19.224
100.0, 339.0312805175781, -1268.09716796875, 422.7545471191406, 493.0646667480469, -0.08000000566244125, 0.04800000041723251, 1.040000081062317, 0.0, 0.0, 0.0, 0.0, 0.0, 1.620213559238864E9, 2021-05-05 13:19:19.238
100.0, 348.9906311035156, -1267.8167724609375, 427.6687927246094, 498.9101257324219, -0.08000000566244125, 0.04800000041723251, 1.040000081062317, 0.0, 0.0, 0.0, 0.0, 0.0, 1.620213559238864E9, 2021-05-05 13:19:19.238
0.0, 336.11602783203125, -1279.2608642578125, 422.5320129394531, 498.470703125, -0.08000000566244125, 0.04800000041723251, 1.040000081062317, 0.0, 0.0, 0.0, 0.0, 0.0, 1.6202135592395911E9, 2021-05-05 13:19:19.239
1.0, 331.90863037109375, -1284.130126953125, 412.59136962890625, 497.872314453125, -0.08000000566244125, 0.04800000041723251, 1.040000081062317, 0.0, 0.0, 0.0, 0.0, 0.0, 1.6202135592531607E9, 2021-05-05 13:19:19.253
1.0, 340.8619689941406, -1276.2689208984375, 424.41693115234375, 494.22216796875, -0.08000000566244125, 0.04800000041723251, 1.040000081062317, 0.0, 0.0, 0.0, 0.0, 0.0, 1.6202135592531607E9, 2021-05-05 13:19:19.253
2.0, 354.3929138183594, -1269.9896240234375, 439.17083740234375, 505.9018859863281, -0.09600000083446503, 0.04800000041723251, 1.040000081062317, 0.0, 0.0, 0.0, 0.0, 0.0, 1.6202135592688973E9, 2021-05-05 13:19:19.268
2.0, 340.7983703613281, -1282.2490234375, 428.3737487792969, 498.388427734375, -0.09600000083446503, 0.04800000041723251, 1.040000081062317, 0.0, 0.0, 0.0, 0.0, 0.0, 1.6202135592688973E9, 2021-05-05 13:19:19.268
3.0, 337.4960632324219, -1285.4466552734375, 425.13873291015625, 497.015869140625, -0.09600000083446503, 0.04800000041723251, 1.040000081062317, 0.0, 0.0, 0.0, 0.0, 0.0, 1.6202135592696943E9, 2021-05-05 13:19:19.269
3.0, 354.7706604003906, -1267.517578125, 431.4329833984375, 492.95806884765625, -0.09600000083446503, 0.04800000041723251, 1.040000081062317, 0.0, 0.0, 0.0, 0.0, 0.0, 1.6202135592696943E9, 2021-05-05 13:19:19.269
4.0, 339.60162353515625, -1274.7916259765625, 428.0072326660156, 487.6623840332031, -0.09600000083446503, 0.04800000041723251, 1.040000081062317, 0.0, 0.0, 0.0, 0.0, 0.0, 1.6202135592833135E9, 2021-05-05 13:19:19.283
4.0, 340.9666748046875, -1280.5548095703125, 417.988037109375, 482.3479919433594, -0.09600000083446503, 0.04800000041723251, 1.040000081062317, 0.0, 0.0, 0.0, 0.0, 0.0, 1.6202135592833135E9, 2021-05-05 13:19:19.283
5.0, 340.1438903808594, -1279.7769775390625, 414.9811706542969, 489.738037109375, -0.09600000083446503, 0.04800000041723251, 1.040000081062317, 0.0, 0.0, 0.0, 0.0, 0.0, 1.6202135592988827E9, 2021-05-05 13:19:19.298
5.0, 342.2120666503906, -1281.254150390625, 424.0167541503906, 485.8485412597656, -0.09600000083446503, 0.04800000041723251, 1.040000081062317, 0.0, 0.0, 0.0, 0.0, 0.0, 1.6202135592988827E9, 2021-05-05 13:19:19.298
6.0, 351.5879821777344, -1272.252197265625, 436.9381103515625, 499.9367370605469, -0.09600000083446503, 0.04800000041723251, 1.040000081062317, 0.0, 0.0, 0.0, 0.0, 0.0, 1.6202135592995827E9, 2021-05-05 13:19:19.299
6.0, 342.956298828125, -1280.465087890625, 426.8179626464844, 494.4727478027344, -0.09600000083446503, 0.04800000041723251, 1.040000081062317, 0.0, 0.0, 0.0, 0.0, 0.0, 1.6202135592995827E9, 2021-05-05 13:19:19.299
7.0, 341.0078125, -1286.4451904296875, 423.58294677734375, 500.0152893066406, -0.09600000083446503, 0.04800000041723251, 1.040000081062317, 0.0, 0.0, 0.0, 0.0, 0.0, 1.6202135593131998E9, 2021-05-05 13:19:19.313
7.0, 349.94244384765625, -1276.205322265625, 431.14874267578125, 499.903076171875, -0.09600000083446503, 0.04800000041723251, 1.040000081062317, 0.0, 0.0, 0.0, 0.0, 0.0, 1.6202135593131998E9, 2021-05-05 13:19:19.313
8.0, 352.7510986328125, -1272.3831787109375, 433.3478088378906, 502.9099426269531, -0.09600000083446503, 0.04800000041723251, 1.040000081062317, 0.0, 0.0, 0.0, 0.0, 0.0, 1.6202135593292735E9, 2021-05-05 13:19:19.329
8.0, 352.205078125, -1282.1181640625, 433.5572509765625, 509.79510498046875, -0.09600000083446503, 0.04800000041723251, 1.040000081062317, 0.0, 0.0, 0.0, 0.0, 0.0, 1.6202135593292735E9, 2021-05-05 13:19:19.329
9.0, 344.4111328125, -1292.97509765625, 428.9796142578125, 504.6490173339844, -0.09600000083446503, 0.04800000041723251, 1.040000081062317, 0.0, 0.0, 0.0, 0.0, 0.0, 1.6202135593436344E9, 2021-05-05 13:19:19.343
9.0, 353.659912109375, -1288.6666259765625, 436.88201904296875, 506.08514404296875, -0.09600000083446503, 0.04800000041723251, 1.040000081062317, 0.0, 0.0, 0.0, 0.0, 0.0, 1.6202135593436344E9, 2021-05-05 13:19:19.343
10.0, 352.0517272949219, -1285.570068359375, 443.47174072265625, 510.31121826171875, -0.09600000083446503, 0.04800000041723251, 1.055999994277954, 0.0, 0.0, 0.0, 0.0, 0.0, 1.620213559359645E9, 2021-05-05 13:19:19.359
10.0, 339.63153076171875, -1296.935546875, 427.72674560546875, 502.47613525390625, -0.09600000083446503, 0.04800000041723251, 1.055999994277954, 0.0, 0.0, 0.0, 0.0, 0.0, 1.620213559359645E9, 2021-05-05 13:19:19.359
11.0, 332.0507507324219, -1292.017578125, 421.5334777832031, 496.10333251953125, -0.09600000083446503, 0.04800000041723251, 1.055999994277954, 0.0, 0.0, 0.0, 0.0, 0.0, 1.620213559360372E9, 2021-05-05 13:19:19.360
11.0, 343.82769775390625, -1284.6500244140625, 426.9488525390625, 504.27874755859375, -0.09600000083446503, 0.04800000041723251, 1.055999994277954, 0.0, 0.0, 0.0, 0.0, 0.0, 1.620213559360372E9, 2021-05-05 13:19:19.360
12.0, 349.1458435058594, -1276.78125, 432.2295837402344, 501.9787292480469, -0.08000000566244125, 0.04800000041723251, 1.055999994277954, 0.0, 0.0, 0.0, 0.0, 0.0, 1.62021355936109E9, 2021-05-05 13:19:19.361
12.0, 336.84906005859375, -1284.2647705078125, 425.43792724609375, 496.8288879394531, -0.08000000566244125, 0.04800000041723251, 1.055999994277954, 0.0, 0.0, 0.0, 0.0, 0.0, 1.62021355936109E9, 2021-05-05 13:19:19.361
13.0, 335.3792724609375, -1290.4468994140625, 423.246337890625, 491.6940002441406, -0.08000000566244125, 0.04800000041723251, 1.055999994277954, 0.0, 0.0, 0.0, 0.0, 0.0, 1.6202135593732746E9, 2021-05-05 13:19:19.373
13.0, 347.017822265625, -1288.797607421875, 428.9422302246094, 490.8487854003906, -0.08000000566244125, 0.04800000041723251, 1.055999994277954, 0.0, 0.0, 0.0, 0.0, 0.0, 1.6202135593732746E9, 2021-05-05 13:19:19.373
14.0, 359.6998291015625, -1274.4326171875, 436.3621826171875, 502.28912353515625, -0.08000000566244125, 0.04800000041723251, 1.055999994277954, 0.0, 0.0, 0.0, 0.0, 0.0, 1.62021355938903E9, 2021-05-05 13:19:19.389
14.0, 351.03448486328125, -1287.02490234375, 422.6928405761719, 493.8070373535156, -0.08000000566244125, 0.04800000041723251, 1.055999994277954, 0.0, 0.0, 0.0, 0.0, 0.0, 1.62021355938903E9, 2021-05-05 13:19:19.389
15.0, 351.6590576171875, -1288.8873291015625, 423.41839599609375, 497.08319091796875, -0.08000000566244125, 0.04800000041723251, 1.055999994277954, 0.0, 0.0, 0.0, 0.0, 0.0, 1.6202135593896377E9, 2021-05-05 13:19:19.389
15.0, 355.88140869140625, -1286.95751953125, 423.39593505859375, 493.9865417480469, -0.08000000566244125, 0.04800000041723251, 1.055999994277954, 0.0, 0.0, 0.0, 0.0, 0.0, 1.6202135593896377E9, 2021-05-05 13:19:19.389
16.0, 354.2769775390625, -1274.7056884765625, 431.53021240234375, 498.6576843261719, -0.08000000566244125, 0.04800000041723251, 1.055999994277954, 0.0, 0.0, 0.0, 0.0, 0.0, 1.620213559403298E9, 2021-05-05 13:19:19.403
16.0, 342.1858825683594, -1286.172119140625, 424.278564453125, 497.3973388671875, -0.08000000566244125, 0.04800000041723251, 1.055999994277954, 0.0, 0.0, 0.0, 0.0, 0.0, 1.620213559403298E9, 2021-05-05 13:19:19.403
17.0, 342.627197265625, -1285.887939453125, 423.1977233886719, 498.0555725097656, -0.08000000566244125, 0.04800000041723251, 1.055999994277954, 0.0, 0.0, 0.0, 0.0, 0.0, 1.620213559418872E9, 2021-05-05 13:19:19.418
17.0, 347.5115051269531, -1279.5787353515625, 433.70684814453125, 505.490478515625, -0.08000000566244125, 0.04800000041723251, 1.055999994277954, 0.0, 0.0, 0.0, 0.0, 0.0, 1.620213559418872E9, 2021-05-05 13:19:19.418
18.0, 359.0341491699219, -1275.9771728515625, 439.6271057128906, 503.02587890625, -0.08000000566244125, 0.04800000041723251, 1.055999994277954, 0.0, 0.0, 0.0, 0.0, 0.0, 1.620213559419644E9, 2021-05-05 13:19:19.419
18.0, 351.5693054199219, -1281.6207275390625, 433.5647277832031, 509.94097900390625, -0.08000000566244125, 0.04800000041723251, 1.055999994277954, 0.0, 0.0, 0.0, 0.0, 0.0, 1.620213559419644E9, 2021-05-05 13:19:19.419
19.0, 351.6141662597656, -1290.805908203125, 425.1312561035156, 502.13580322265625, -0.08000000566244125, 0.04800000041723251, 1.055999994277954, 0.0, 0.0, 0.0, 0.0, 0.0, 1.6202135594333065E9, 2021-05-05 13:19:19.433
19.0, 351.68524169921875, -1275.5770263671875, 437.177490234375, 504.9556884765625, -0.08000000566244125, 0.04800000041723251, 1.055999994277954, 0.0, 0.0, 0.0, 0.0, 0.0, 1.6202135594333065E9, 2021-05-05 13:19:19.433
20.0, 353.2559814453125, -1269.0322265625, 445.8914489746094, 510.3860168457031, -0.08000000566244125, 0.04800000041723251, 1.055999994277954, 0.0, 0.0, 0.0, 0.0, 0.0, 1.6202135594489048E9, 2021-05-05 13:19:19.448
20.0, 345.7799377441406, -1272.4580078125, 440.0497131347656, 503.9272155761719, -0.08000000566244125, 0.04800000041723251, 1.055999994277954, 0.0, 0.0, 0.0, 0.0, 0.0, 1.6202135594489048E9, 2021-05-05 13:19:19.448
21.0, 343.56964111328125, -1280.5548095703125, 430.5092468261719, 498.8297119140625, -0.08000000566244125, 0.04800000041723251, 1.055999994277954, 0.0, 0.0, 0.0, 0.0, 0.0, 1.620213559449586E9, 2021-05-05 13:19:19.449
21.0, 358.3534851074219, -1268.306640625, 438.8117980957031, 502.5546569824219, -0.08000000566244125, 0.04800000041723251, 1.055999994277954, 0.0, 0.0, 0.0, 0.0, 0.0, 1.620213559449586E9, 2021-05-05 13:19:19.449
22.0, 361.2331848144531, -1268.7330322265625, 443.2622985839844, 504.23760986328125, -0.08000000566244125, 0.04800000041723251, 1.055999994277954, 0.0, 0.0, 0.0, 0.0, 0.0, 1.6202135594796023E9, 2021-05-05 13:19:19.479
22.0, 350.421142578125, -1281.1981201171875, 423.3099365234375, 495.7181396484375, -0.08000000566244125, 0.04800000041723251, 1.055999994277954, 0.0, 0.0, 0.0, 0.0, 0.0, 1.6202135594796023E9, 2021-05-05 13:19:19.479
23.0, 351.6553039550781, -1275.315185546875, 425.639892578125, 496.4287109375, -0.08000000566244125, 0.04800000041723251, 1.055999994277954, 0.0, 0.0, 0.0, 0.0, 0.0, 1.6202135594803655E9, 2021-05-05 13:19:19.480
23.0, 357.9308776855469, -1265.90185546875, 427.65570068359375, 499.08404541015625, -0.08000000566244125, 0.04800000041723251, 1.055999994277954, 0.0, 0.0, 0.0, 0.0, 0.0, 1.6202135594803655E9, 2021-05-05 13:19:19.480
24.0, 358.0206298828125, -1265.5765380859375, 434.0509338378906, 505.57275390625, -0.08000000566244125, 0.04800000041723251, 1.055999994277954, 0.0, 0.0, 0.0, 0.0, 0.0, 1.6202135594810922E9, 2021-05-05 13:19:19.481
24.0, 354.99505615234375, -1269.443603515625, 428.9459533691406, 510.430908203125, -0.08000000566244125, 0.04800000041723251, 1.055999994277954, 0.0, 0.0, 0.0, 0.0, 0.0, 1.6202135594810922E9, 2021-05-05 13:19:19.481
25.0, 352.51922607421875, -1270.9544677734375, 428.0221862792969, 510.6553039550781, -0.08000000566244125, 0.04800000041723251, 1.055999994277954, 0.0, 0.0, 0.0, 0.0, 0.0, 1.62021355949328E9, 2021-05-05 13:19:19.493
25.0, 357.2801208496094, -1266.874267578125, 433.5460205078125, 509.3799743652344, -0.08000000566244125, 0.04800000041723251, 1.055999994277954, 0.0, 0.0, 0.0, 0.0, 0.0, 1.62021355949328E9, 2021-05-05 13:19:19.493
26.0, 361.37158203125, -1267.1361083984375, 436.67633056640625, 510.64031982421875, -0.08000000566244125, 0.04800000041723251, 1.055999994277954, 0.0, 0.0, 0.0, 0.0, 0.0, 1.6202135595088508E9, 2021-05-05 13:19:19.508
26.0, 346.3259582519531, -1281.848876953125, 427.4350280761719, 505.9467468261719, -0.08000000566244125, 0.04800000041723251, 1.055999994277954, 0.0, 0.0, 0.0, 0.0, 0.0, 1.6202135595088508E9, 2021-05-05 13:19:19.508
27.0, 342.8553161621094, -1286.3853759765625, 428.4560241699219, 509.7352600097656, -0.08000000566244125, 0.04800000041723251, 1.055999994277954, 0.0, 0.0, 0.0, 0.0, 0.0, 1.6202135595096173E9, 2021-05-05 13:19:19.509
27.0, 350.3052062988281, -1279.1898193359375, 439.82159423828125, 513.576171875, -0.08000000566244125, 0.04800000041723251, 1.055999994277954, 0.0, 0.0, 0.0, 0.0, 0.0, 1.6202135595096173E9, 2021-05-05 13:19:19.509
28.0, 348.6820983886719, -1275.831298828125, 437.0428466796875, 508.89752197265625, -0.08000000566244125, 0.04800000041723251, 1.055999994277954, 0.0, 0.0, 0.0, 0.0, 0.0, 1.6202135595232568E9, 2021-05-05 13:19:19.523
28.0, 328.7259826660156, -1291.957763671875, 428.4523010253906, 497.58807373046875, -0.08000000566244125, 0.04800000041723251, 1.055999994277954, 0.0, 0.0, 0.0, 0.0, 0.0, 1.6202135595232568E9, 2021-05-05 13:19:19.523
29.0, 331.0148010253906, -1294.5233154296875, 424.1513977050781, 496.6269226074219, -0.08000000566244125, 0.04800000041723251, 1.055999994277954, 0.0, 0.0, 0.0, 0.0, 0.0, 1.6202135595390165E9, 2021-05-05 13:19:19.539
29.0, 346.1090393066406, -1278.5914306640625, 427.0760192871094, 504.76495361328125, -0.08000000566244125, 0.04800000041723251, 1.055999994277954, 0.0, 0.0, 0.0, 0.0, 0.0, 1.6202135595390165E9, 2021-05-05 13:19:19.539
30.0, 353.6972961425781, -1275.360107421875, 430.370849609375, 499.4318542480469, -0.08000000566244125, 0.04800000041723251, 1.040000081062317, 0.0, 0.0, 0.0, 0.0, 0.0, 1.6202135595397449E9, 2021-05-05 13:19:19.539
30.0, 348.32305908203125, -1280.300537109375, 419.6709899902344, 491.33123779296875, -0.08000000566244125, 0.04800000041723251, 1.040000081062317, 0.0, 0.0, 0.0, 0.0, 0.0, 1.6202135595397449E9, 2021-05-05 13:19:19.539
31.0, 348.19964599609375, -1287.275390625, 417.8683776855469, 491.71270751953125, -0.08000000566244125, 0.04800000041723251, 1.040000081062317, 0.0, 0.0, 0.0, 0.0, 0.0, 1.62021355955329E9, 2021-05-05 13:19:19.553
31.0, 353.8768005371094, -1273.209716796875, 433.2356262207031, 499.3682861328125, -0.08000000566244125, 0.04800000041723251, 1.040000081062317, 0.0, 0.0, 0.0, 0.0, 0.0, 1.62021355955329E9, 2021-05-05 13:19:19.553
32.0, 362.86004638671875, -1272.3868408203125, 439.3316650390625, 503.1717529296875, -0.08000000566244125, 0.04800000041723251, 1.040000081062317, 0.0, 0.0, 0.0, 0.0, 0.0, 1.620213559569738E9, 2021-05-05 13:19:19.569
32.0, 357.392333984375, -1274.316650390625, 440.1581726074219, 507.9176940917969, -0.08000000566244125, 0.04800000041723251, 1.040000081062317, 0.0, 0.0, 0.0, 0.0, 0.0, 1.620213559569738E9, 2021-05-05 13:19:19.569
33.0, 349.77789306640625, -1288.8275146484375, 429.0731201171875, 499.4767150878906, -0.08000000566244125, 0.04800000041723251, 1.040000081062317, 0.0, 0.0, 0.0, 0.0, 0.0, 1.6202135595704837E9, 2021-05-05 13:19:19.570
33.0, 360.62359619140625, -1276.9981689453125, 438.8865966796875, 511.6239318847656, -0.08000000566244125, 0.04800000041723251, 1.040000081062317, 0.0, 0.0, 0.0, 0.0, 0.0, 1.6202135595704837E9, 2021-05-05 13:19:19.570
34.0, 357.51947021484375, -1276.6466064453125, 435.44964599609375, 510.06439208984375, -0.08000000566244125, 0.04800000041723251, 1.040000081062317, 0.0, 0.0, 0.0, 0.0, 0.0, 1.620213559583228E9, 2021-05-05 13:19:19.583
34.0, 359.81951904296875, -1282.2265625, 446.0821838378906, 516.0631713867188, -0.08000000566244125, 0.04800000041723251, 1.040000081062317, 0.0, 0.0, 0.0, 0.0, 0.0, 1.620213559583228E9, 2021-05-05 13:19:19.583
35.0, 357.5755615234375, -1289.2762451171875, 444.6647644042969, 509.9895935058594, -0.08000000566244125, 0.04800000041723251, 1.040000081062317, 0.0, 0.0, 0.0, 0.0, 0.0, 1.6202135595990582E9, 2021-05-05 13:19:19.599
35.0, 365.6687316894531, -1275.73779296875, 461.228759765625, 519.97509765625, -0.08000000566244125, 0.04800000041723251, 1.040000081062317, 0.0, 0.0, 0.0, 0.0, 0.0, 1.6202135595990582E9, 2021-05-05 13:19:19.599
36.0, 364.69635009765625, -1272.188720703125, 458.92498779296875, 519.0962524414062, -0.08000000566244125, 0.04800000041723251, 1.040000081062317, 0.0, 0.0, 0.0, 0.0, 0.0, 1.6202135595997488E9, 2021-05-05 13:19:19.599
36.0, 357.4820861816406, -1277.940673828125, 447.8249816894531, 514.9898071289062, -0.08000000566244125, 0.04800000041723251, 1.040000081062317, 0.0, 0.0, 0.0, 0.0, 0.0, 1.6202135595997488E9, 2021-05-05 13:19:19.599
37.0, 353.8768005371094, -1284.6949462890625, 443.7933654785156, 512.2783813476562, -0.08000000566244125, 0.04800000041723251, 1.040000081062317, 0.0, 0.0, 0.0, 0.0, 0.0, 1.6202135596131637E9, 2021-05-05 13:19:19.613
37.0, 363.91845703125, -1278.871826171875, 446.3290100097656, 513.8865356445312, -0.08000000566244125, 0.04800000041723251, 1.040000081062317, 0.0, 0.0, 0.0, 0.0, 0.0, 1.6202135596131637E9, 2021-05-05 13:19:19.613
38.0, 378.3619384765625, -1266.369384765625, 458.9100341796875, 520.5173950195312, -0.08000000566244125, 0.04800000041723251, 1.040000081062317, 0.0, 0.0, 0.0, 0.0, 0.0, 1.6202135596288877E9, 2021-05-05 13:19:19.628
38.0, 358.379638671875, -1283.2138671875, 439.2381591796875, 503.1530456542969, -0.08000000566244125, 0.04800000041723251, 1.040000081062317, 0.0, 0.0, 0.0, 0.0, 0.0, 1.6202135596288877E9, 2021-05-05 13:19:19.628
39.0, 356.50970458984375, -1281.2093505859375, 439.25311279296875, 500.5238952636719, -0.08000000566244125, 0.04800000041723251, 1.040000081062317, 0.0, 0.0, 0.0, 0.0, 0.0, 1.6202135596296551E9, 2021-05-05 13:19:19.629
39.0, 365.6425476074219, -1272.9927978515625, 446.5085144042969, 504.9556884765625, -0.08000000566244125, 0.04800000041723251, 1.040000081062317, 0.0, 0.0, 0.0, 0.0, 0.0, 1.6202135596296551E9, 2021-05-05 13:19:19.629
40.0, 373.8665771484375, -1267.4501953125, 456.4641418457031, 511.5753173828125, -0.08000000566244125, 0.04800000041723251, 1.040000081062317, 0.0, 0.0, 0.0, 0.0, 0.0, 1.6202135596431727E9, 2021-05-05 13:19:19.643
40.0, 368.54095458984375, -1280.135986328125, 448.66644287109375, 511.3808288574219, -0.08000000566244125, 0.04800000041723251, 1.040000081062317, 0.0, 0.0, 0.0, 0.0, 0.0, 1.6202135596431727E9, 2021-05-05 13:19:19.643
41.0, 356.5657958984375, -1281.0484619140625, 438.9165344238281, 505.1987609863281, -0.08000000566244125, 0.04800000041723251, 1.040000081062317, 0.0, 0.0, 0.0, 0.0, 0.0, 1.6202135596589675E9, 2021-05-05 13:19:19.658
41.0, 370.8597106933594, -1275.5396728515625, 446.50103759765625, 510.068115234375, -0.08000000566244125, 0.04800000041723251, 1.040000081062317, 0.0, 0.0, 0.0, 0.0, 0.0, 1.6202135596589675E9, 2021-05-05 13:19:19.658
42.0, 377.6588439941406, -1262.8052978515625, 453.6966247558594, 521.8076782226562, -0.08000000566244125, 0.04800000041723251, 1.040000081062317, 0.0, 0.0, 0.0, 0.0, 0.0, 1.6202135596596484E9, 2021-05-05 13:19:19.659
42.0, 363.6005554199219, -1281.1756591796875, 446.0933837890625, 519.9676513671875, -0.08000000566244125, 0.04800000041723251, 1.040000081062317, 0.0, 0.0, 0.0, 0.0, 0.0, 1.6202135596596484E9, 2021-05-05 13:19:19.659
43.0, 356.34515380859375, -1290.959228515625, 438.5799255371094, 516.511962890625, -0.08000000566244125, 0.04800000041723251, 1.040000081062317, 0.0, 0.0, 0.0, 0.0, 0.0, 1.6202135596733613E9, 2021-05-05 13:19:19.673
43.0, 376.1180114746094, -1270.42724609375, 458.83148193359375, 528.0458374023438, -0.08000000566244125, 0.04800000041723251, 1.040000081062317, 0.0, 0.0, 0.0, 0.0, 0.0, 1.6202135596733613E9, 2021-05-05 13:19:19.673
44.0, 371.68621826171875, -1272.169921875, 455.2524108886719, 524.141357421875, -0.08000000566244125, 0.04800000041723251, 1.040000081062317, 0.0, 0.0, 0.0, 0.0, 0.0, 1.6202135596891837E9, 2021-05-05 13:19:19.689
44.0, 368.8663330078125, -1280.629638671875, 443.69610595703125, 524.2797241210938, -0.08000000566244125, 0.04800000041723251, 1.040000081062317, 0.0, 0.0, 0.0, 0.0, 0.0, 1.6202135596891837E9, 2021-05-05 13:19:19.689
45.0, 360.9826354980469, -1285.9664306640625, 446.6543884277344, 523.9132080078125, -0.08000000566244125, 0.04800000041723251, 1.040000081062317, 0.0, 0.0, 0.0, 0.0, 0.0, 1.6202135596897345E9, 2021-05-05 13:19:19.689
45.0, 377.3185119628906, -1268.983642578125, 460.7949523925781, 525.2932739257812, -0.08000000566244125, 0.04800000041723251, 1.040000081062317, 0.0, 0.0, 0.0, 0.0, 0.0, 1.6202135596897345E9, 2021-05-05 13:19:19.689
46.0, 378.9154357910156, -1267.7457275390625, 466.9732666015625, 524.4069213867188, -0.08000000566244125, 0.04800000041723251, 1.040000081062317, 0.0, 0.0, 0.0, 0.0, 0.0, 1.620213559703339E9, 2021-05-05 13:19:19.703
46.0, 363.2789306640625, -1274.185791015625, 448.2737731933594, 514.010009765625, -0.08000000566244125, 0.04800000041723251, 1.040000081062317, 0.0, 0.0, 0.0, 0.0, 0.0, 1.620213559703339E9, 2021-05-05 13:19:19.703
47.0, 359.46795654296875, -1277.4171142578125, 438.9726257324219, 506.0664367675781, -0.08000000566244125, 0.04800000041723251, 1.040000081062317, 0.0, 0.0, 0.0, 0.0, 0.0, 1.6202135597188864E9, 2021-05-05 13:19:19.718
47.0, 373.649658203125, -1260.30322265625, 450.6822509765625, 506.36187744140625, -0.08000000566244125, 0.04800000041723251, 1.040000081062317, 0.0, 0.0, 0.0, 0.0, 0.0, 1.6202135597188864E9, 2021-05-05 13:19:19.718
48.0, 389.20391845703125, -1249.9212646484375, 457.4290466308594, 515.6966552734375, -0.08000000566244125, 0.04800000041723251, 1.040000081062317, 0.0, 0.0, 0.0, 0.0, 0.0, 1.6202135597196689E9, 2021-05-05 13:19:19.719
48.0, 368.4362487792969, -1264.046875, 443.20245361328125, 502.9174499511719, -0.08000000566244125, 0.04800000041723251, 1.040000081062317, 0.0, 0.0, 0.0, 0.0, 0.0, 1.6202135597196689E9, 2021-05-05 13:19:19.719
49.0, 369.84619140625, -1264.129150390625, 436.7773132324219, 501.2831115722656, -0.08000000566244125, 0.04800000041723251, 1.040000081062317, 0.0, 0.0, 0.0, 0.0, 0.0, 1.6202135597331767E9, 2021-05-05 13:19:19.733
49.0, 372.7445983886719, -1256.600830078125, 440.8500671386719, 502.8388977050781, -0.08000000566244125, 0.04800000041723251, 1.040000081062317, 0.0, 0.0, 0.0, 0.0, 0.0, 1.6202135597331767E9, 2021-05-05 13:19:19.733
50.0, 381.1332092285156, -1252.1390380859375, 450.1324768066406, 508.5235595703125, -0.08000000566244125, 0.04800000041723251, 1.055999994277954, 0.0, 0.0, 0.0, 0.0, 0.0, 1.6202135597488756E9, 2021-05-05 13:19:19.748
50.0, 366.9926452636719, -1260.9278564453125, 440.8912048339844, 507.9887390136719, -0.08000000566244125, 0.04800000041723251, 1.055999994277954, 0.0, 0.0, 0.0, 0.0, 0.0, 1.6202135597488756E9, 2021-05-05 13:19:19.748
51.0, 375.2204284667969, -1252.6402587890625, 442.8546447753906, 511.76605224609375, -0.08000000566244125, 0.06400000303983688, 1.055999994277954, 0.0, 0.0, 0.0, 0.0, 0.0, 1.620213559749601E9, 2021-05-05 13:19:19.749
51.0, 381.89239501953125, -1243.185791015625, 453.20294189453125, 520.6744995117188, -0.08000000566244125, 0.06400000303983688, 1.055999994277954, 0.0, 0.0, 0.0, 0.0, 0.0, 1.620213559749601E9, 2021-05-05 13:19:19.749
52.0, 396.3396301269531, -1230.3466796875, 469.3406066894531, 538.13232421875, -0.09600000083446503, 0.06400000303983688, 1.055999994277954, 0.0, 0.0, 0.0, 0.0, 0.0, 1.6202135597631834E9, 2021-05-05 13:19:19.763
52.0, 379.5661926269531, -1244.887451171875, 458.1807556152344, 531.0863647460938, -0.09600000083446503, 0.06400000303983688, 1.055999994277954, 0.0, 0.0, 0.0, 0.0, 0.0, 1.6202135597631834E9, 2021-05-05 13:19:19.763
53.0, 373.8665771484375, -1247.333251953125, 460.29754638671875, 530.596435546875, -0.09600000083446503, 0.06400000303983688, 1.055999994277954, 0.0, 0.0, 0.0, 0.0, 0.0, 1.6202135597788706E9, 2021-05-05 13:19:19.778
53.0, 389.01318359375, -1239.5318603515625, 467.19390869140625, 534.9721069335938, -0.09600000083446503, 0.06400000303983688, 1.055999994277954, 0.0, 0.0, 0.0, 0.0, 0.0, 1.6202135597788706E9, 2021-05-05 13:19:19.778
54.0, 390.9691467285156, -1238.98583984375, 466.9208984375, 535.1553955078125, -0.09600000083446503, 0.06400000303983688, 1.055999994277954, 0.0, 0.0, 0.0, 0.0, 0.0, 1.6202135597796206E9, 2021-05-05 13:19:19.779
54.0, 371.2149963378906, -1251.6229248046875, 449.2386474609375, 522.275146484375, -0.09600000083446503, 0.06400000303983688, 1.055999994277954, 0.0, 0.0, 0.0, 0.0, 0.0, 1.6202135597796206E9, 2021-05-05 13:19:19.779
55.0, 368.45867919921875, -1257.4571533203125, 451.71820068359375, 526.7667846679688, -0.09600000083446503, 0.06400000303983688, 1.055999994277954, 0.0, 0.0, 0.0, 0.0, 0.0, 1.620213559793219E9, 2021-05-05 13:19:19.793
55.0, 382.4833068847656, -1242.576171875, 464.4750061035156, 527.7167358398438, -0.09600000083446503, 0.06400000303983688, 1.055999994277954, 0.0, 0.0, 0.0, 0.0, 0.0, 1.620213559793219E9, 2021-05-05 13:19:19.793
56.0, 383.5267333984375, -1235.2459716796875, 468.5066223144531, 530.1962890625, -0.09600000083446503, 0.06400000303983688, 1.055999994277954, 0.0, 0.0, 0.0, 0.0, 0.0, 1.6202135598086267E9, 2021-05-05 13:19:19.808
56.0, 367.1684265136719, -1254.218505859375, 444.971435546875, 511.7361145019531, -0.09600000083446503, 0.06400000303983688, 1.055999994277954, 0.0, 0.0, 0.0, 0.0, 0.0, 1.6202135598086267E9, 2021-05-05 13:19:19.808
57.0, 361.39776611328125, -1258.048095703125, 441.8074645996094, 506.06268310546875, -0.09600000083446503, 0.06400000303983688, 1.055999994277954, 0.0, 0.0, 0.0, 0.0, 0.0, 1.6202135598239412E9, 2021-05-05 13:19:19.823
57.0, 366.5326232910156, -1251.2901611328125, 441.755126953125, 505.3745422363281, -0.09600000083446503, 0.06400000303983688, 1.055999994277954, 0.0, 0.0, 0.0, 0.0, 0.0, 1.6202135598239412E9, 2021-05-05 13:19:19.823
58.0, 377.2698974609375, -1244.18798828125, 447.57440185546875, 514.6008911132812, -0.09600000083446503, 0.06400000303983688, 1.055999994277954, 0.0, 0.0, 0.0, 0.0, 0.0, 1.6202135598246133E9, 2021-05-05 13:19:19.824
58.0, 368.978515625, -1250.310302734375, 439.8477783203125, 509.9110412597656, -0.09600000083446503, 0.06400000303983688, 1.055999994277954, 0.0, 0.0, 0.0, 0.0, 0.0, 1.6202135598246133E9, 2021-05-05 13:19:19.824
59.0, 364.1465759277344, -1261.298095703125, 441.9122009277344, 509.1107177734375, -0.09600000083446503, 0.06400000303983688, 1.055999994277954, 0.0, 0.0, 0.0, 0.0, 0.0, 1.6202135598388748E9, 2021-05-05 13:19:19.838
59.0, 367.6396484375, -1257.64794921875, 442.1552734375, 508.5010986328125, -0.09600000083446503, 0.06400000303983688, 1.055999994277954, 0.0, 0.0, 0.0, 0.0, 0.0, 1.6202135598388748E9, 2021-05-05 13:19:19.838
60.0, 372.4529113769531, -1256.6419677734375, 447.0807189941406, 508.0074462890625, -0.09600000083446503, 0.06400000303983688, 1.055999994277954, 0.0, 0.0, 0.0, 0.0, 0.0, 1.620213559839584E9, 2021-05-05 13:19:19.839
60.0, 363.6903076171875, -1264.7275390625, 444.6423034667969, 509.91851806640625, -0.09600000083446503, 0.06400000303983688, 1.055999994277954, 0.0, 0.0, 0.0, 0.0, 0.0, 1.620213559839584E9, 2021-05-05 13:19:19.839
61.0, 364.38592529296875, -1265.5428466796875, 438.09375, 512.6673583984375, -0.09600000083446503, 0.04800000041723251, 1.055999994277954, 0.0, 0.0, 0.0, 0.0, 0.0, 1.6202135598532069E9, 2021-05-05 13:19:19.853
61.0, 363.6042785644531, -1257.9920654296875, 443.69610595703125, 515.3638305664062, -0.09600000083446503, 0.04800000041723251, 1.055999994277954, 0.0, 0.0, 0.0, 0.0, 0.0, 1.6202135598532069E9, 2021-05-05 13:19:19.853
62.0, 372.73712158203125, -1248.904052734375, 449.5041809082031, 520.4388427734375, -0.08000000566244125, 0.04800000041723251, 1.055999994277954, 0.0, 0.0, 0.0, 0.0, 0.0, 1.6202135598688831E9, 2021-05-05 13:19:19.868
62.0, 374.8165283203125, -1254.5289306640625, 449.208740234375, 526.205810546875, -0.08000000566244125, 0.04800000041723251, 1.055999994277954, 0.0, 0.0, 0.0, 0.0, 0.0, 1.6202135598688831E9, 2021-05-05 13:19:19.868
63.0, 362.8974609375, -1271.07421875, 438.5612487792969, 515.4049682617188, -0.08000000566244125, 0.04800000041723251, 1.055999994277954, 0.0, 0.0, 0.0, 0.0, 0.0, 1.62021355986958E9, 2021-05-05 13:19:19.869
63.0, 365.3208923339844, -1265.935546875, 446.32525634765625, 520.5473022460938, -0.08000000566244125, 0.04800000041723251, 1.055999994277954, 0.0, 0.0, 0.0, 0.0, 0.0, 1.62021355986958E9, 2021-05-05 13:19:19.869
64.0, 376.2040100097656, -1258.904541015625, 452.2193603515625, 523.0829467773438, -0.08000000566244125, 0.04800000041723251, 1.055999994277954, 0.0, 0.0, 0.0, 0.0, 0.0, 1.620213559883219E9, 2021-05-05 13:19:19.883
64.0, 368.3502197265625, -1265.7635498046875, 445.7680358886719, 513.142333984375, -0.08000000566244125, 0.04800000041723251, 1.055999994277954, 0.0, 0.0, 0.0, 0.0, 0.0, 1.620213559883219E9, 2021-05-05 13:19:19.883
65.0, 349.31787109375, -1270.674072265625, 426.41778564453125, 498.13409423828125, -0.08000000566244125, 0.04800000041723251, 1.055999994277954, 0.0, 0.0, 0.0, 0.0, 0.0, 1.6202135598989644E9, 2021-05-05 13:19:19.898
65.0, 354.1947021484375, -1269.4847412109375, 427.4911193847656, 491.4621276855469, -0.08000000566244125, 0.04800000041723251, 1.055999994277954, 0.0, 0.0, 0.0, 0.0, 0.0, 1.6202135598989644E9, 2021-05-05 13:19:19.898
66.0, 364.4644775390625, -1255.5386962890625, 441.1380310058594, 499.1102294921875, -0.08000000566244125, 0.04800000041723251, 1.055999994277954, 0.0, 0.0, 0.0, 0.0, 0.0, 1.6202135598996928E9, 2021-05-05 13:19:19.899
66.0, 359.3782043457031, -1263.6766357421875, 436.02557373046875, 497.9882507324219, -0.08000000566244125, 0.04800000041723251, 1.055999994277954, 0.0, 0.0, 0.0, 0.0, 0.0, 1.6202135598996928E9, 2021-05-05 13:19:19.899
67.0, 341.7109069824219, -1273.4752197265625, 427.59210205078125, 494.08380126953125, -0.08000000566244125, 0.04800000041723251, 1.055999994277954, 0.0, 0.0, 0.0, 0.0, 0.0, 1.6202135599131973E9, 2021-05-05 13:19:19.913
67.0, 347.4965515136719, -1265.4755859375, 428.3064270019531, 495.1571350097656, -0.08000000566244125, 0.04800000041723251, 1.055999994277954, 0.0, 0.0, 0.0, 0.0, 0.0, 1.6202135599131973E9, 2021-05-05 13:19:19.913
68.0, 356.6518249511719, -1256.79150390625, 434.3949890136719, 502.41253662109375, -0.08000000566244125, 0.04800000041723251, 1.055999994277954, 0.0, 0.0, 0.0, 0.0, 0.0, 1.6202135599294243E9, 2021-05-05 13:19:19.929
68.0, 342.4701232910156, -1276.9046630859375, 417.2998962402344, 492.98052978515625, -0.08000000566244125, 0.04800000041723251, 1.055999994277954, 0.0, 0.0, 0.0, 0.0, 0.0, 1.6202135599294243E9, 2021-05-05 13:19:19.929
69.0, 350.608154296875, -1270.416015625, 420.45263671875, 502.9024658203125, -0.08000000566244125, 0.04800000041723251, 1.055999994277954, 0.0, 0.0, 0.0, 0.0, 0.0, 1.6202135599439032E9, 2021-05-05 13:19:19.943
69.0, 353.9665832519531, -1260.310791015625, 430.4157409667969, 507.955078125, -0.08000000566244125, 0.04800000041723251, 1.055999994277954, 0.0, 0.0, 0.0, 0.0, 0.0, 1.6202135599439032E9, 2021-05-05 13:19:19.943
70.0, 360.43658447265625, -1269.0023193359375, 434.5558166503906, 505.9280700683594, -0.08000000566244125, 0.04800000041723251, 1.055999994277954, 0.0, 0.0, 0.0, 0.0, 0.0, 1.6202135599446366E9, 2021-05-05 13:19:19.944
70.0, 345.4508056640625, -1274.2568359375, 422.0308837890625, 501.6234436035156, -0.08000000566244125, 0.04800000041723251, 1.055999994277954, 0.0, 0.0, 0.0, 0.0, 0.0, 1.6202135599446366E9, 2021-05-05 13:19:19.944
71.0, 340.0578918457031, -1275.47607421875, 425.1013488769531, 503.2054138183594, -0.08000000566244125, 0.04800000041723251, 1.055999994277954, 0.0, 0.0, 0.0, 0.0, 0.0, 1.620213559959012E9, 2021-05-05 13:19:19.959
71.0, 350.4847106933594, -1269.1781005859375, 427.6818542480469, 504.8659362792969, -0.08000000566244125, 0.04800000041723251, 1.055999994277954, 0.0, 0.0, 0.0, 0.0, 0.0, 1.620213559959012E9, 2021-05-05 13:19:19.959
72.0, 350.9596862792969, -1265.688720703125, 433.104736328125, 501.8702697753906, -0.08000000566244125, 0.04800000041723251, 1.055999994277954, 0.0, 0.0, 0.0, 0.0, 0.0, 1.6202135599598093E9, 2021-05-05 13:19:19.959
72.0, 347.5750732421875, -1272.259765625, 425.7109375, 500.4490966796875, -0.08000000566244125, 0.04800000041723251, 1.055999994277954, 0.0, 0.0, 0.0, 0.0, 0.0, 1.6202135599598093E9, 2021-05-05 13:19:19.959
73.0, 343.8613586425781, -1277.686279296875, 424.8171081542969, 493.2909240722656, -0.08000000566244125, 0.04800000041723251, 1.055999994277954, 0.0, 0.0, 0.0, 0.0, 0.0, 1.6202135599733949E9, 2021-05-05 13:19:19.973
73.0, 358.0093994140625, -1261.343017578125, 437.23358154296875, 499.7983703613281, -0.08000000566244125, 0.04800000041723251, 1.055999994277954, 0.0, 0.0, 0.0, 0.0, 0.0, 1.6202135599733949E9, 2021-05-05 13:19:19.973
74.0, 350.4136657714844, -1256.9635009765625, 445.56982421875, 500.2770690917969, -0.08000000566244125, 0.04800000041723251, 1.055999994277954, 0.0, 0.0, 0.0, 0.0, 0.0, 1.6202135599890842E9, 2021-05-05 13:19:19.989
74.0, 340.70489501953125, -1268.7442626953125, 430.3072814941406, 490.747802734375, -0.08000000566244125, 0.04800000041723251, 1.055999994277954, 0.0, 0.0, 0.0, 0.0, 0.0, 1.6202135599890842E9, 2021-05-05 13:19:19.989
75.0, 323.2096252441406, -1284.115234375, 411.43572998046875, 478.2528076171875, -0.08000000566244125, 0.04800000041723251, 1.055999994277954, 0.0, 0.0, 0.0, 0.0, 0.0, 1.6202135599897301E9, 2021-05-05 13:19:19.989
75.0, 343.988525390625, -1263.7440185546875, 431.3544616699219, 489.0648498535156, -0.08000000566244125, 0.04800000041723251, 1.055999994277954, 0.0, 0.0, 0.0, 0.0, 0.0, 1.6202135599897301E9, 2021-05-05 13:19:19.989
76.0, 348.1921691894531, -1264.996826171875, 434.12945556640625, 491.6416320800781, -0.08000000566244125, 0.04800000041723251, 1.055999994277954, 0.0, 0.0, 0.0, 0.0, 0.0, 1.6202135600033245E9, 2021-05-05 13:19:20.003
76.0, 339.235107421875, -1278.2061767578125, 416.5481872558594, 483.4811706542969, -0.08000000566244125, 0.04800000041723251, 1.055999994277954, 0.0, 0.0, 0.0, 0.0, 0.0, 1.6202135600033245E9, 2021-05-05 13:19:20.003
77.0, 331.6281433105469, -1282.8436279296875, 412.1874694824219, 478.2939453125, -0.08000000566244125, 0.04800000041723251, 1.055999994277954, 0.0, 0.0, 0.0, 0.0, 0.0, 1.6202135600188713E9, 2021-05-05 13:19:20.018
77.0, 347.0814208984375, -1275.0272216796875, 430.4344482421875, 489.9437255859375, -0.08000000566244125, 0.04800000041723251, 1.055999994277954, 0.0, 0.0, 0.0, 0.0, 0.0, 1.6202135600188713E9, 2021-05-05 13:19:20.018
78.0, 350.3388671875, -1283.528076171875, 426.6945495605469, 491.3050537109375, -0.08000000566244125, 0.04800000041723251, 1.055999994277954, 0.0, 0.0, 0.0, 0.0, 0.0, 1.6202135600195951E9, 2021-05-05 13:19:20.019
78.0, 340.99285888671875, -1291.0115966796875, 411.8097229003906, 480.3209533691406, -0.08000000566244125, 0.04800000041723251, 1.055999994277954, 0.0, 0.0, 0.0, 0.0, 0.0, 1.6202135600195951E9, 2021-05-05 13:19:20.019
79.0, 332.5294494628906, -1301.113037109375, 405.5865478515625, 481.8056945800781, -0.08000000566244125, 0.04800000041723251, 1.055999994277954, 0.0, 0.0, 0.0, 0.0, 0.0, 1.6202135600495703E9, 2021-05-05 13:19:20.049
79.0, 348.3604736328125, -1289.7100830078125, 423.2239074707031, 490.4598388671875, -0.08000000566244125, 0.04800000041723251, 1.055999994277954, 0.0, 0.0, 0.0, 0.0, 0.0, 1.6202135600495703E9, 2021-05-05 13:19:20.049
80.0, 353.28216552734375, -1277.8919677734375, 427.0348815917969, 490.8113708496094, -0.08000000566244125, 0.04800000041723251, 1.055999994277954, 0.0, 0.0, 0.0, 0.0, 0.0, 1.620213560050315E9, 2021-05-05 13:19:20.050
80.0, 340.31219482421875, -1292.7506103515625, 412.0303955078125, 487.1313171386719, -0.08000000566244125, 0.04800000041723251, 1.055999994277954, 0.0, 0.0, 0.0, 0.0, 0.0, 1.620213560050315E9, 2021-05-05 13:19:20.050
81.0, 332.8211669921875, -1299.38525390625, 415.9198913574219, 486.521728515625, -0.08000000566244125, 0.04800000041723251, 1.055999994277954, 0.0, 0.0, 0.0, 0.0, 0.0, 1.6202135600510418E9, 2021-05-05 13:19:20.051
81.0, 341.0489501953125, -1302.4669189453125, 417.67388916015625, 482.11236572265625, -0.08000000566244125, 0.04800000041723251, 1.055999994277954, 0.0, 0.0, 0.0, 0.0, 0.0, 1.6202135600510418E9, 2021-05-05 13:19:20.051
82.0, 348.5736389160156, -1285.74951171875, 433.0411376953125, 490.5084533691406, -0.08000000566244125, 0.04800000041723251, 1.055999994277954, 0.0, 0.0, 0.0, 0.0, 0.0, 1.6202135600632863E9, 2021-05-05 13:19:20.063
82.0, 335.3680419921875, -1299.774169921875, 421.48858642578125, 480.7024230957031, -0.08000000566244125, 0.04800000041723251, 1.055999994277954, 0.0, 0.0, 0.0, 0.0, 0.0, 1.6202135600632863E9, 2021-05-05 13:19:20.063
83.0, 328.6586608886719, -1307.2576904296875, 411.5741271972656, 471.34893798828125, -0.08000000566244125, 0.04800000041723251, 1.055999994277954, 0.0, 0.0, 0.0, 0.0, 0.0, 1.620213560078885E9, 2021-05-05 13:19:20.078
83.0, 345.14788818359375, -1292.22705078125, 420.8266296386719, 476.91766357421875, -0.08000000566244125, 0.04800000041723251, 1.055999994277954, 0.0, 0.0, 0.0, 0.0, 0.0, 1.620213560078885E9, 2021-05-05 13:19:20.078
84.0, 351.8572692871094, -1289.313720703125, 421.9299011230469, 483.7504577636719, -0.08000000566244125, 0.04800000041723251, 1.055999994277954, 0.0, 0.0, 0.0, 0.0, 0.0, 1.620213560079605E9, 2021-05-05 13:19:20.079
84.0, 344.41485595703125, -1288.21044921875, 421.91119384765625, 484.4759826660156, -0.08000000566244125, 0.04800000041723251, 1.055999994277954, 0.0, 0.0, 0.0, 0.0, 0.0, 1.620213560079605E9, 2021-05-05 13:19:20.079
85.0, 317.75311279296875, -1303.7908935546875, 403.9671630859375, 474.4717712402344, -0.08000000566244125, 0.04800000041723251, 1.055999994277954, 0.0, 0.0, 0.0, 0.0, 0.0, 1.6202135600932152E9, 2021-05-05 13:19:20.093
85.0, 326.5568542480469, -1299.9910888671875, 409.53961181640625, 476.67828369140625, -0.08000000566244125, 0.04800000041723251, 1.055999994277954, 0.0, 0.0, 0.0, 0.0, 0.0, 1.6202135600932152E9, 2021-05-05 13:19:20.093
86.0, 341.97271728515625, -1284.010498046875, 420.886474609375, 489.5285949707031, -0.08000000566244125, 0.04800000041723251, 1.055999994277954, 0.0, 0.0, 0.0, 0.0, 0.0, 1.6202135601090395E9, 2021-05-05 13:19:20.109
86.0, 335.1174621582031, -1293.4910888671875, 421.4100646972656, 491.01708984375, -0.08000000566244125, 0.04800000041723251, 1.055999994277954, 0.0, 0.0, 0.0, 0.0, 0.0, 1.6202135601090395E9, 2021-05-05 13:19:20.109
87.0, 332.7875061035156, -1303.869384765625, 410.4521484375, 486.74237060546875, -0.08000000566244125, 0.04800000041723251, 1.055999994277954, 0.0, 0.0, 0.0, 0.0, 0.0, 1.6202135601097677E9, 2021-05-05 13:19:20.109
87.0, 342.956298828125, -1297.5638427734375, 423.9083251953125, 492.0867004394531, -0.08000000566244125, 0.04800000041723251, 1.055999994277954, 0.0, 0.0, 0.0, 0.0, 0.0, 1.6202135601097677E9, 2021-05-05 13:19:20.109
88.0, 358.4544372558594, -1280.8876953125, 434.8138732910156, 504.8023376464844, -0.08000000566244125, 0.04800000041723251, 1.055999994277954, 0.0, 0.0, 0.0, 0.0, 0.0, 1.6202135601232285E9, 2021-05-05 13:19:20.123
88.0, 341.430419921875, -1306.93603515625, 418.7135925292969, 496.6156921386719, -0.08000000566244125, 0.04800000041723251, 1.055999994277954, 0.0, 0.0, 0.0, 0.0, 0.0, 1.6202135601232285E9, 2021-05-05 13:19:20.123
89.0, 338.8125, -1309.2061767578125, 418.98284912109375, 495.9425354003906, -0.08000000566244125, 0.04800000041723251, 1.055999994277954, 0.0, 0.0, 0.0, 0.0, 0.0, 1.620213560156025E9, 2021-05-05 13:19:20.156
89.0, 348.62225341796875, -1289.1865234375, 433.9200134277344, 498.0892333984375, -0.08000000566244125, 0.04800000041723251, 1.055999994277954, 0.0, 0.0, 0.0, 0.0, 0.0, 1.620213560156025E9, 2021-05-05 13:19:20.156
90.0, 350.185546875, -1290.25244140625, 431.89300537109375, 501.53741455078125, -0.08000000566244125, 0.04800000041723251, 1.055999994277954, 0.0, 0.0, 0.0, 0.0, 0.0, 1.620213560156764E9, 2021-05-05 13:19:20.156
90.0, 338.3038635253906, -1297.8218994140625, 418.8631896972656, 492.2101135253906, -0.08000000566244125, 0.04800000041723251, 1.055999994277954, 0.0, 0.0, 0.0, 0.0, 0.0, 1.620213560156764E9, 2021-05-05 13:19:20.156
91.0, 333.40460205078125, -1298.4202880859375, 411.1328125, 483.1632995605469, -0.08000000566244125, 0.04800000041723251, 1.055999994277954, 0.0, 0.0, 0.0, 0.0, 0.0, 1.6202135601575546E9, 2021-05-05 13:19:20.157
91.0, 334.17877197265625, -1284.305908203125, 409.5882263183594, 479.9507141113281, -0.08000000566244125, 0.04800000041723251, 1.055999994277954, 0.0, 0.0, 0.0, 0.0, 0.0, 1.6202135601575546E9, 2021-05-05 13:19:20.157
92.0, 346.4942626953125, -1273.7220458984375, 423.5231018066406, 489.8203125, -0.08000000566244125, 0.04800000041723251, 1.055999994277954, 0.0, 0.0, 0.0, 0.0, 0.0, 1.6202135601581485E9, 2021-05-05 13:19:20.158
92.0, 331.45611572265625, -1290.5067138671875, 410.96826171875, 475.982666015625, -0.08000000566244125, 0.04800000041723251, 1.055999994277954, 0.0, 0.0, 0.0, 0.0, 0.0, 1.6202135601581485E9, 2021-05-05 13:19:20.158
93.0, 326.4259338378906, -1287.974853515625, 407.5425109863281, 477.6431884765625, -0.08000000566244125, 0.04800000041723251, 1.055999994277954, 0.0, 0.0, 0.0, 0.0, 0.0, 1.6202135601682103E9, 2021-05-05 13:19:20.168
93.0, 333.0418395996094, -1287.107177734375, 413.69091796875, 479.045654296875, -0.08000000566244125, 0.04800000041723251, 1.055999994277954, 0.0, 0.0, 0.0, 0.0, 0.0, 1.6202135601682103E9, 2021-05-05 13:19:20.168
94.0, 342.5374450683594, -1281.9124755859375, 423.4258728027344, 486.49554443359375, -0.08000000566244125, 0.04800000041723251, 1.055999994277954, 0.0, 0.0, 0.0, 0.0, 0.0, 1.6202135601831772E9, 2021-05-05 13:19:20.183
94.0, 337.80645751953125, -1291.0565185546875, 415.5421447753906, 487.89801025390625, -0.08000000566244125, 0.04800000041723251, 1.055999994277954, 0.0, 0.0, 0.0, 0.0, 0.0, 1.6202135601831772E9, 2021-05-05 13:19:20.183
95.0, 331.2616271972656, -1297.67236328125, 408.4849548339844, 486.75732421875, -0.08000000566244125, 0.04800000041723251, 1.055999994277954, 0.0, 0.0, 0.0, 0.0, 0.0, 1.620213560215316E9, 2021-05-05 13:19:20.215
95.0, 346.0566711425781, -1292.5113525390625, 420.4002990722656, 491.01708984375, -0.08000000566244125, 0.04800000041723251, 1.055999994277954, 0.0, 0.0, 0.0, 0.0, 0.0, 1.620213560215316E9, 2021-05-05 13:19:20.215
96.0, 367.4339599609375, -1282.6678466796875, 433.4039306640625, 503.2652587890625, -0.08000000566244125, 0.04800000041723251, 1.055999994277954, 0.0, 0.0, 0.0, 0.0, 0.0, 1.6202135602159755E9, 2021-05-05 13:19:20.215
96.0, 347.6723327636719, -1288.4833984375, 422.4085998535156, 499.1214294433594, -0.08000000566244125, 0.04800000041723251, 1.055999994277954, 0.0, 0.0, 0.0, 0.0, 0.0, 1.6202135602159755E9, 2021-05-05 13:19:20.215
97.0, 332.6790466308594, -1301.7264404296875, 407.71453857421875, 486.0691833496094, -0.08000000566244125, 0.04800000041723251, 1.055999994277954, 0.0, 0.0, 0.0, 0.0, 0.0, 1.620213560216718E9, 2021-05-05 13:19:20.216
97.0, 341.9016418457031, -1288.434814453125, 418.515380859375, 487.1500244140625, -0.08000000566244125, 0.04800000041723251, 1.055999994277954, 0.0, 0.0, 0.0, 0.0, 0.0, 1.620213560216718E9, 2021-05-05 13:19:20.216
98.0, 348.7905578613281, -1278.6624755859375, 419.24090576171875, 490.1120300292969, -0.08000000566244125, 0.04800000041723251, 1.055999994277954, 0.0, 0.0, 0.0, 0.0, 0.0, 1.6202135602174933E9, 2021-05-05 13:19:20.217
98.0, 338.7937927246094, -1281.53466796875, 412.39691162109375, 487.1387939453125, -0.08000000566244125, 0.04800000041723251, 1.055999994277954, 0.0, 0.0, 0.0, 0.0, 0.0, 1.6202135602174933E9, 2021-05-05 13:19:20.217
99.0, 334.5228271484375, -1281.6917724609375, 409.360107421875, 491.8922119140625, -0.08000000566244125, 0.04800000041723251, 1.055999994277954, 0.0, 0.0, 0.0, 0.0, 0.0, 1.6202135602448733E9, 2021-05-05 13:19:20.244
99.0, 344.2353515625, -1279.8741455078125, 418.0216979980469, 493.8481750488281, -0.08000000566244125, 0.04800000041723251, 1.055999994277954, 0.0, 0.0, 0.0, 0.0, 0.0, 1.6202135602448733E9, 2021-05-05 13:19:20.244
100.0, 354.9800720214844, -1268.482421875, 428.0408935546875, 498.3136291503906, -0.08000000566244125, 0.04800000041723251, 1.040000081062317, 0.0, 0.0, 0.0, 0.0, 0.0, 1.6202135602452977E9, 2021-05-05 13:19:20.245
100.0, 345.3311462402344, -1285.8580322265625, 426.1410217285156, 494.6148681640625, -0.08000000566244125, 0.04800000041723251, 1.040000081062317, 0.0, 0.0, 0.0, 0.0, 0.0, 1.6202135602452977E9, 2021-05-05 13:19:20.245
0.0, 327.3029479980469, -1286.4208984375, 412.47918701171875, 482.0730895996094, -0.08000000566244125, 0.04800000041723251, 1.040000081062317, 0.0, 0.0, 0.0, 0.0, 0.0, 1.6202135602460127E9, 2021-05-05 13:19:20.246
1.0, 333.0212707519531, -1282.0714111328125, 419.0801086425781, 483.1614074707031, -0.08000000566244125, 0.04800000041723251, 1.040000081062317, 0.0, 0.0, 0.0, 0.0, 0.0, 1.620213560258292E9, 2021-05-05 13:19:20.258
1.0, 343.53411865234375, -1268.2113037109375, 433.7106018066406, 493.4049987792969, -0.08000000566244125, 0.04800000041723251, 1.040000081062317, 0.0, 0.0, 0.0, 0.0, 0.0, 1.620213560258292E9, 2021-05-05 13:19:20.258
2.0, 335.0931701660156, -1277.3890380859375, 421.8102111816406, 489.6052551269531, -0.08000000566244125, 0.04800000041723251, 1.040000081062317, 0.0, 0.0, 0.0, 0.0, 0.0, 1.6202135602739284E9, 2021-05-05 13:19:20.273
2.0, 333.2269592285156, -1282.7744140625, 421.2080993652344, 488.89093017578125, -0.08000000566244125, 0.04800000041723251, 1.040000081062317, 0.0, 0.0, 0.0, 0.0, 0.0, 1.6202135602739284E9, 2021-05-05 13:19:20.273
3.0, 336.9705810546875, -1276.117431640625, 421.9598083496094, 491.77813720703125, -0.08000000566244125, 0.04800000041723251, 1.040000081062317, 0.0, 0.0, 0.0, 0.0, 0.0, 1.6202135602748165E9, 2021-05-05 13:19:20.274
3.0, 346.9187316894531, -1271.5809326171875, 431.72845458984375, 498.7343444824219, -0.08000000566244125, 0.04800000041723251, 1.040000081062317, 0.0, 0.0, 0.0, 0.0, 0.0, 1.6202135602748165E9, 2021-05-05 13:19:20.274
4.0, 344.2746276855469, -1270.75439453125, 430.1427307128906, 501.2101745605469, -0.08000000566244125, 0.04800000041723251, 1.040000081062317, 0.0, 0.0, 0.0, 0.0, 0.0, 1.6202135602881553E9, 2021-05-05 13:19:20.288
4.0, 328.290283203125, -1282.19482421875, 416.813720703125, 489.6613464355469, -0.08000000566244125, 0.04800000041723251, 1.040000081062317, 0.0, 0.0, 0.0, 0.0, 0.0, 1.6202135602881553E9, 2021-05-05 13:19:20.288
5.0, 354.48828125, -1272.8262939453125, 431.5040588378906, 499.87127685546875, -0.08000000566244125, 0.04800000041723251, 1.040000081062317, 0.0, 0.0, 0.0, 0.0, 0.0, 1.620213560303933E9, 2021-05-05 13:19:20.303
5.0, 362.2523193359375, -1270.3468017578125, 439.4027099609375, 508.62640380859375, -0.08000000566244125, 0.04800000041723251, 1.040000081062317, 0.0, 0.0, 0.0, 0.0, 0.0, 1.620213560303933E9, 2021-05-05 13:19:20.303
6.0, 342.1765441894531, -1279.0906982421875, 426.96380615234375, 503.5550842285156, -0.08000000566244125, 0.04800000041723251, 1.040000081062317, 0.0, 0.0, 0.0, 0.0, 0.0, 1.6202135603048072E9, 2021-05-05 13:19:20.304
6.0, 343.0479431152344, -1285.8935546875, 422.43853759765625, 497.1224670410156, -0.08000000566244125, 0.04800000041723251, 1.040000081062317, 0.0, 0.0, 0.0, 0.0, 0.0, 1.6202135603048072E9, 2021-05-05 13:19:20.304
7.0, 352.5024108886719, -1281.75341796875, 433.99481201171875, 502.1638488769531, -0.08000000566244125, 0.04800000041723251, 1.040000081062317, 0.0, 0.0, 0.0, 0.0, 0.0, 1.6202135603181372E9, 2021-05-05 13:19:20.318
7.0, 358.983642578125, -1275.130126953125, 445.0050964355469, 504.3591613769531, -0.08000000566244125, 0.04800000041723251, 1.040000081062317, 0.0, 0.0, 0.0, 0.0, 0.0, 1.6202135603181372E9, 2021-05-05 13:19:20.318
8.0, 347.8798828125, -1282.8118896484375, 426.320556640625, 495.0804748535156, -0.08000000566244125, 0.04800000041723251, 1.040000081062317, 0.0, 0.0, 0.0, 0.0, 0.0, 1.620213560333732E9, 2021-05-05 13:19:20.333
8.0, 343.0628967285156, -1285.5120849609375, 424.75726318359375, 489.8595886230469, -0.08000000566244125, 0.04800000041723251, 1.040000081062317, 0.0, 0.0, 0.0, 0.0, 0.0, 1.620213560333732E9, 2021-05-05 13:19:20.333
9.0, 347.1206970214844, -1273.7052001953125, 421.0697326660156, 483.546630859375, -0.08000000566244125, 0.04800000041723251, 1.040000081062317, 0.0, 0.0, 0.0, 0.0, 0.0, 1.620213560348951E9, 2021-05-05 13:19:20.348
9.0, 361.47442626953125, -1256.337158203125, 432.741943359375, 490.5851135253906, -0.08000000566244125, 0.04800000041723251, 1.040000081062317, 0.0, 0.0, 0.0, 0.0, 0.0, 1.620213560348951E9, 2021-05-05 13:19:20.348
10.0, 348.5194091796875, -1268.050537109375, 423.0855407714844, 487.3014831542969, -0.08000000566244125, 0.04800000041723251, 1.040000081062317, 0.0, 0.0, 0.0, 0.0, 0.0, 1.6202135603496604E9, 2021-05-05 13:19:20.349
10.0, 337.82330322265625, -1282.430419921875, 415.1344909667969, 480.0423278808594, -0.08000000566244125, 0.04800000041723251, 1.040000081062317, 0.0, 0.0, 0.0, 0.0, 0.0, 1.6202135603496604E9, 2021-05-05 13:19:20.349
11.0, 355.097900390625, -1263.2222900390625, 427.9287109375, 492.6607666015625, -0.08000000566244125, 0.04800000041723251, 1.040000081062317, 0.0, 0.0, 0.0, 0.0, 0.0, 1.6202135603639257E9, 2021-05-05 13:19:20.363
11.0, 354.42095947265625, -1259.201904296875, 432.1772155761719, 494.2876281738281, -0.08000000566244125, 0.04800000041723251, 1.040000081062317, 0.0, 0.0, 0.0, 0.0, 0.0, 1.6202135603639257E9, 2021-05-05 13:19:20.363
12.0, 350.0826721191406, -1270.200927734375, 422.55072021484375, 494.3324890136719, -0.08000000566244125, 0.04800000041723251, 1.040000081062317, 0.0, 0.0, 0.0, 0.0, 0.0, 1.6202135603647351E9, 2021-05-05 13:19:20.364
12.0, 347.09075927734375, -1278.346435546875, 419.7757263183594, 490.7608947753906, -0.08000000566244125, 0.04800000041723251, 1.040000081062317, 0.0, 0.0, 0.0, 0.0, 0.0, 1.6202135603647351E9, 2021-05-05 13:19:20.364
13.0, 355.83837890625, -1270.9114990234375, 425.3780822753906, 495.5479736328125, -0.08000000566244125, 0.04800000041723251, 1.040000081062317, 0.0, 0.0, 0.0, 0.0, 0.0, 1.6202135603782496E9, 2021-05-05 13:19:20.378
13.0, 363.93902587890625, -1264.800537109375, 434.4959716796875, 502.2723083496094, -0.08000000566244125, 0.04800000041723251, 1.040000081062317, 0.0, 0.0, 0.0, 0.0, 0.0, 1.6202135603782496E9, 2021-05-05 13:19:20.378
14.0, 354.12176513671875, -1274.2774658203125, 425.3818359375, 500.6492004394531, -0.08000000566244125, 0.04800000041723251, 1.040000081062317, 0.0, 0.0, 0.0, 0.0, 0.0, 1.620213560394339E9, 2021-05-05 13:19:20.394
14.0, 352.78662109375, -1276.3717041015625, 419.6261291503906, 498.3828125, -0.08000000566244125, 0.04800000041723251, 1.040000081062317, 0.0, 0.0, 0.0, 0.0, 0.0, 1.620213560394339E9, 2021-05-05 13:19:20.394
15.0, 359.77276611328125, -1267.971923828125, 429.0020446777344, 496.7110595703125, -0.08000000566244125, 0.04800000041723251, 1.040000081062317, 0.0, 0.0, 0.0, 0.0, 0.0, 1.6202135604090693E9, 2021-05-05 13:19:20.409
15.0, 358.8602294921875, -1260.0919189453125, 427.5547180175781, 493.6892395019531, -0.08000000566244125, 0.04800000041723251, 1.040000081062317, 0.0, 0.0, 0.0, 0.0, 0.0, 1.6202135604090693E9, 2021-05-05 13:19:20.409
16.0, 353.28778076171875, -1265.0435791015625, 417.84967041015625, 489.8221740722656, -0.08000000566244125, 0.04800000041723251, 1.040000081062317, 0.0, 0.0, 0.0, 0.0, 0.0, 1.6202135604098103E9, 2021-05-05 13:19:20.409
16.0, 349.8059387207031, -1266.1693115234375, 415.1943359375, 485.2669677734375, -0.08000000566244125, 0.04800000041723251, 1.040000081062317, 0.0, 0.0, 0.0, 0.0, 0.0, 1.6202135604098103E9, 2021-05-05 13:19:20.409
17.0, 361.3360290527344, -1259.64697265625, 426.0138854980469, 487.1780700683594, -0.08000000566244125, 0.04800000041723251, 1.040000081062317, 0.0, 0.0, 0.0, 0.0, 0.0, 1.620213560423872E9, 2021-05-05 13:19:20.423
17.0, 368.11273193359375, -1252.18212890625, 434.26409912109375, 495.7760925292969, -0.08000000566244125, 0.04800000041723251, 1.040000081062317, 0.0, 0.0, 0.0, 0.0, 0.0, 1.620213560423872E9, 2021-05-05 13:19:20.423
18.0, 353.4972229003906, -1269.344482421875, 434.72784423828125, 503.6224060058594, -0.08000000566244125, 0.04800000041723251, 1.040000081062317, 0.0, 0.0, 0.0, 0.0, 0.0, 1.620213560424608E9, 2021-05-05 13:19:20.424
18.0, 353.62811279296875, -1267.8336181640625, 434.70166015625, 504.8790283203125, -0.08000000566244125, 0.04800000041723251, 1.040000081062317, 0.0, 0.0, 0.0, 0.0, 0.0, 1.620213560424608E9, 2021-05-05 13:19:20.424
19.0, 356.5377502441406, -1271.341552734375, 439.34661865234375, 498.8465576171875, -0.08000000566244125, 0.04800000041723251, 1.040000081062317, 0.0, 0.0, 0.0, 0.0, 0.0, 1.6202135604382417E9, 2021-05-05 13:19:20.438
19.0, 364.0474853515625, -1266.8499755859375, 448.8796081542969, 504.89398193359375, -0.08000000566244125, 0.04800000041723251, 1.040000081062317, 0.0, 0.0, 0.0, 0.0, 0.0, 1.6202135604382417E9, 2021-05-05 13:19:20.438
20.0, 352.01995849609375, -1274.5654296875, 440.218017578125, 505.61578369140625, -0.08000000566244125, 0.04800000041723251, 1.040000081062317, 0.0, 0.0, 0.0, 0.0, 0.0, 1.6202135604538984E9, 2021-05-05 13:19:20.453
20.0, 344.1885986328125, -1279.9508056640625, 437.65618896484375, 504.83038330078125, -0.08000000566244125, 0.04800000041723251, 1.040000081062317, 0.0, 0.0, 0.0, 0.0, 0.0, 1.6202135604538984E9, 2021-05-05 13:19:20.453
21.0, 349.2225036621094, -1267.1341552734375, 448.3859558105469, 507.6652526855469, -0.08000000566244125, 0.04800000041723251, 1.040000081062317, 0.0, 0.0, 0.0, 0.0, 0.0, 1.620213560454608E9, 2021-05-05 13:19:20.454
21.0, 356.81451416015625, -1258.6707763671875, 441.6578674316406, 504.1983642578125, -0.08000000566244125, 0.04800000041723251, 1.040000081062317, 0.0, 0.0, 0.0, 0.0, 0.0, 1.620213560454608E9, 2021-05-05 13:19:20.454
22.0, 358.97991943359375, -1264.0225830078125, 441.3848571777344, 504.04876708984375, -0.08000000566244125, 0.04800000041723251, 1.040000081062317, 0.0, 0.0, 0.0, 0.0, 0.0, 1.6202135604845352E9, 2021-05-05 13:19:20.484
22.0, 345.4788818359375, -1285.2315673828125, 425.5538635253906, 498.82037353515625, -0.08000000566244125, 0.04800000041723251, 1.040000081062317, 0.0, 0.0, 0.0, 0.0, 0.0, 1.6202135604845352E9, 2021-05-05 13:19:20.484
23.0, 359.4960021972656, -1275.3245849609375, 432.5960998535156, 497.7507629394531, -0.08000000566244125, 0.04800000041723251, 1.040000081062317, 0.0, 0.0, 0.0, 0.0, 0.0, 1.6202135604852695E9, 2021-05-05 13:19:20.485
23.0, 371.96484375, -1265.6494140625, 436.89324951171875, 503.0464782714844, -0.08000000566244125, 0.04800000041723251, 1.040000081062317, 0.0, 0.0, 0.0, 0.0, 0.0, 1.6202135604852695E9, 2021-05-05 13:19:20.485
24.0, 364.3017883300781, -1271.951171875, 431.4629211425781, 491.28448486328125, -0.08000000566244125, 0.04800000041723251, 1.040000081062317, 0.0, 0.0, 0.0, 0.0, 0.0, 1.6202135604860165E9, 2021-05-05 13:19:20.486
24.0, 358.7704772949219, -1269.2734375, 424.783447265625, 489.8109436035156, -0.08000000566244125, 0.04800000041723251, 1.040000081062317, 0.0, 0.0, 0.0, 0.0, 0.0, 1.6202135604860165E9, 2021-05-05 13:19:20.486
25.0, 369.7508239746094, -1254.2352294921875, 439.4251403808594, 492.7392883300781, -0.08000000566244125, 0.04800000041723251, 1.040000081062317, 0.0, 0.0, 0.0, 0.0, 0.0, 1.62021356051443E9, 2021-05-05 13:19:20.514
25.0, 372.2154235839844, -1258.7755126953125, 443.88311767578125, 499.474853515625, -0.08000000566244125, 0.04800000041723251, 1.040000081062317, 0.0, 0.0, 0.0, 0.0, 0.0, 1.62021356051443E9, 2021-05-05 13:19:20.514
26.0, 366.9982604980469, -1267.5679931640625, 443.3109130859375, 498.2107849121094, -0.08000000566244125, 0.04800000041723251, 1.040000081062317, 0.0, 0.0, 0.0, 0.0, 0.0, 1.620213560530121E9, 2021-05-05 13:19:20.530
26.0, 369.148681640625, -1279.520751953125, 447.28643798828125, 502.68743896484375, -0.08000000566244125, 0.04800000041723251, 1.040000081062317, 0.0, 0.0, 0.0, 0.0, 0.0, 1.620213560530121E9, 2021-05-05 13:19:20.530
27.0, 372.4173583984375, -1270.9227294921875, 456.3968200683594, 503.9103698730469, -0.08000000566244125, 0.04800000041723251, 1.040000081062317, 0.0, 0.0, 0.0, 0.0, 0.0, 1.62021356053078E9, 2021-05-05 13:19:20.530
27.0, 380.5516357421875, -1262.36962890625, 465.3501281738281, 513.3424072265625, -0.08000000566244125, 0.04800000041723251, 1.040000081062317, 0.0, 0.0, 0.0, 0.0, 0.0, 1.62021356053078E9, 2021-05-05 13:19:20.530
28.0, 366.10443115234375, -1274.3297119140625, 449.6089172363281, 502.2835388183594, -0.08000000566244125, 0.04800000041723251, 1.040000081062317, 0.0, 0.0, 0.0, 0.0, 0.0, 1.6202135605314753E9, 2021-05-05 13:19:20.531
28.0, 345.5013122558594, -1286.3946533203125, 431.1225891113281, 495.2300720214844, -0.08000000566244125, 0.04800000041723251, 1.040000081062317, 0.0, 0.0, 0.0, 0.0, 0.0, 1.6202135605314753E9, 2021-05-05 13:19:20.531
29.0, 353.88616943359375, -1275.82568359375, 438.4415588378906, 499.8451232910156, -0.08000000566244125, 0.04800000041723251, 1.040000081062317, 0.0, 0.0, 0.0, 0.0, 0.0, 1.6202135605440817E9, 2021-05-05 13:19:20.544
29.0, 368.1912841796875, -1277.0, 445.8689880371094, 504.1160888671875, -0.08000000566244125, 0.04800000041723251, 1.040000081062317, 0.0, 0.0, 0.0, 0.0, 0.0, 1.6202135605440817E9, 2021-05-05 13:19:20.544
30.0, 362.60760498046875, -1281.4281005859375, 434.1780700683594, 502.6500244140625, -0.08000000566244125, 0.04800000041723251, 1.055999994277954, 0.0, 0.0, 0.0, 0.0, 0.0, 1.6202135605447955E9, 2021-05-05 13:19:20.544
30.0, 350.01910400390625, -1293.2386474609375, 414.6932067871094, 485.93267822265625, -0.08000000566244125, 0.04800000041723251, 1.055999994277954, 0.0, 0.0, 0.0, 0.0, 0.0, 1.6202135605447955E9, 2021-05-05 13:19:20.544
31.0, 368.96917724609375, -1273.0919189453125, 430.81591796875, 492.6607666015625, -0.08000000566244125, 0.04800000041723251, 1.055999994277954, 0.0, 0.0, 0.0, 0.0, 0.0, 1.620213560558211E9, 2021-05-05 13:19:20.558
31.0, 376.1273498535156, -1262.1077880859375, 437.2036437988281, 494.7251892089844, -0.08000000566244125, 0.04800000041723251, 1.055999994277954, 0.0, 0.0, 0.0, 0.0, 0.0, 1.620213560558211E9, 2021-05-05 13:19:20.558
32.0, 364.98992919921875, -1274.789794921875, 426.2569580078125, 489.1864013671875, -0.08000000566244125, 0.04800000041723251, 1.055999994277954, 0.0, 0.0, 0.0, 0.0, 0.0, 1.620213560573988E9, 2021-05-05 13:19:20.573
32.0, 363.5538024902344, -1268.181396484375, 425.30328369140625, 491.2283935546875, -0.08000000566244125, 0.04800000041723251, 1.055999994277954, 0.0, 0.0, 0.0, 0.0, 0.0, 1.620213560573988E9, 2021-05-05 13:19:20.573
33.0, 359.4773254394531, -1261.7562255859375, 432.25201416015625, 493.7528076171875, -0.08000000566244125, 0.04800000041723251, 1.055999994277954, 0.0, 0.0, 0.0, 0.0, 0.0, 1.6202135605747066E9, 2021-05-05 13:19:20.574
33.0, 358.4825134277344, -1260.0919189453125, 436.814697265625, 491.94268798828125, -0.08000000566244125, 0.04800000041723251, 1.055999994277954, 0.0, 0.0, 0.0, 0.0, 0.0, 1.6202135605747066E9, 2021-05-05 13:19:20.574
34.0, 358.2244567871094, -1260.364990234375, 442.46942138671875, 499.95355224609375, -0.08000000566244125, 0.04800000041723251, 1.055999994277954, 0.0, 0.0, 0.0, 0.0, 0.0, 1.620213560588209E9, 2021-05-05 13:19:20.588
34.0, 347.4535217285156, -1273.8585205078125, 428.50091552734375, 488.59173583984375, -0.08000000566244125, 0.04800000041723251, 1.055999994277954, 0.0, 0.0, 0.0, 0.0, 0.0, 1.620213560588209E9, 2021-05-05 13:19:20.588
35.0, 368.9242858886719, -1255.3497314453125, 446.2467346191406, 502.6799621582031, -0.08000000566244125, 0.04800000041723251, 1.055999994277954, 0.0, 0.0, 0.0, 0.0, 0.0, 1.620213560603974E9, 2021-05-05 13:19:20.603
35.0, 373.1915283203125, -1247.7540283203125, 456.2322692871094, 508.1551513671875, -0.08000000566244125, 0.04800000041723251, 1.055999994277954, 0.0, 0.0, 0.0, 0.0, 0.0, 1.620213560603974E9, 2021-05-05 13:19:20.603
36.0, 367.9930725097656, -1259.145751953125, 452.8102722167969, 507.796142578125, -0.08000000566244125, 0.04800000041723251, 1.055999994277954, 0.0, 0.0, 0.0, 0.0, 0.0, 1.6202135606047008E9, 2021-05-05 13:19:20.604
36.0, 360.03082275390625, -1273.185302734375, 446.4898376464844, 499.9984436035156, -0.08000000566244125, 0.04800000041723251, 1.055999994277954, 0.0, 0.0, 0.0, 0.0, 0.0, 1.6202135606047008E9, 2021-05-05 13:19:20.604
37.0, 369.30950927734375, -1259.3253173828125, 448.2214050292969, 507.3660583496094, -0.08000000566244125, 0.04800000041723251, 1.055999994277954, 0.0, 0.0, 0.0, 0.0, 0.0, 1.6202135606343672E9, 2021-05-05 13:19:20.634
37.0, 368.7971496582031, -1247.1219482421875, 447.9670715332031, 507.8036193847656, -0.08000000566244125, 0.04800000041723251, 1.055999994277954, 0.0, 0.0, 0.0, 0.0, 0.0, 1.6202135606343672E9, 2021-05-05 13:19:20.634
38.0, 359.851318359375, -1253.932373046875, 443.2099304199219, 512.0147705078125, -0.08000000566244125, 0.04800000041723251, 1.055999994277954, 0.0, 0.0, 0.0, 0.0, 0.0, 1.6202135606350522E9, 2021-05-05 13:19:20.635
38.0, 353.4710388183594, -1269.4117431640625, 428.0745544433594, 493.2030334472656, -0.08000000566244125, 0.04800000041723251, 1.055999994277954, 0.0, 0.0, 0.0, 0.0, 0.0, 1.6202135606350522E9, 2021-05-05 13:19:20.635
39.0, 370.14349365234375, -1253.6705322265625, 445.3416748046875, 506.7713928222656, -0.08000000566244125, 0.04800000041723251, 1.055999994277954, 0.0, 0.0, 0.0, 0.0, 0.0, 1.6202135606489377E9, 2021-05-05 13:19:20.648
39.0, 368.0229797363281, -1261.210205078125, 441.37738037109375, 501.0531005859375, -0.08000000566244125, 0.04800000041723251, 1.055999994277954, 0.0, 0.0, 0.0, 0.0, 0.0, 1.6202135606489377E9, 2021-05-05 13:19:20.648
40.0, 366.35125732421875, -1267.50439453125, 438.7257995605469, 504.8640441894531, -0.08000000566244125, 0.04800000041723251, 1.055999994277954, 0.0, 0.0, 0.0, 0.0, 0.0, 1.6202135606495922E9, 2021-05-05 13:19:20.649
40.0, 356.2198486328125, -1271.9437255859375, 430.7710266113281, 497.7096252441406, -0.08000000566244125, 0.04800000041723251, 1.055999994277954, 0.0, 0.0, 0.0, 0.0, 0.0, 1.6202135606495922E9, 2021-05-05 13:19:20.649
41.0, 361.8072814941406, -1261.385986328125, 438.692138671875, 497.1261901855469, -0.08000000566244125, 0.04800000041723251, 1.055999994277954, 0.0, 0.0, 0.0, 0.0, 0.0, 1.6202135606640086E9, 2021-05-05 13:19:20.664
41.0, 370.5661315917969, -1252.185791015625, 446.77032470703125, 507.7250671386719, -0.08000000566244125, 0.04800000041723251, 1.055999994277954, 0.0, 0.0, 0.0, 0.0, 0.0, 1.6202135606640086E9, 2021-05-05 13:19:20.664
42.0, 359.94854736328125, -1266.90234375, 437.85064697265625, 498.0798645019531, -0.08000000566244125, 0.04800000041723251, 1.055999994277954, 0.0, 0.0, 0.0, 0.0, 0.0, 1.6202135606646557E9, 2021-05-05 13:19:20.664
42.0, 355.5279846191406, -1267.0855712890625, 430.041748046875, 499.5272216796875, -0.08000000566244125, 0.04800000041723251, 1.055999994277954, 0.0, 0.0, 0.0, 0.0, 0.0, 1.6202135606646557E9, 2021-05-05 13:19:20.664
43.0, 360.674072265625, -1260.0208740234375, 438.3293762207031, 501.352294921875, -0.08000000566244125, 0.04800000041723251, 1.055999994277954, 0.0, 0.0, 0.0, 0.0, 0.0, 1.620213560678383E9, 2021-05-05 13:19:20.678
43.0, 374.15643310546875, -1249.048095703125, 455.87322998046875, 509.6585998535156, -0.08000000566244125, 0.04800000041723251, 1.055999994277954, 0.0, 0.0, 0.0, 0.0, 0.0, 1.620213560678383E9, 2021-05-05 13:19:20.678
44.0, 355.8945007324219, -1261.243896484375, 439.9225769042969, 499.8488464355469, -0.08000000566244125, 0.04800000041723251, 1.055999994277954, 0.0, 0.0, 0.0, 0.0, 0.0, 1.6202135606939852E9, 2021-05-05 13:19:20.693
44.0, 355.1614685058594, -1260.5445556640625, 438.8492126464844, 501.8646545410156, -0.08000000566244125, 0.04800000041723251, 1.055999994277954, 0.0, 0.0, 0.0, 0.0, 0.0, 1.6202135606939852E9, 2021-05-05 13:19:20.693
45.0, 362.1476135253906, -1250.8282470703125, 449.76971435546875, 508.1551513671875, -0.08000000566244125, 0.04800000041723251, 1.055999994277954, 0.0, 0.0, 0.0, 0.0, 0.0, 1.6202135606947072E9, 2021-05-05 13:19:20.694
45.0, 366.14556884765625, -1251.022705078125, 453.5507507324219, 507.14166259765625, -0.08000000566244125, 0.04800000041723251, 1.055999994277954, 0.0, 0.0, 0.0, 0.0, 0.0, 1.6202135606947072E9, 2021-05-05 13:19:20.694
46.0, 366.8224792480469, -1264.3367919921875, 450.4952697753906, 502.42938232421875, -0.08000000566244125, 0.04800000041723251, 1.055999994277954, 0.0, 0.0, 0.0, 0.0, 0.0, 1.620213560708271E9, 2021-05-05 13:19:20.708
46.0, 350.0789489746094, -1274.19140625, 437.0241394042969, 496.19122314453125, -0.08000000566244125, 0.04800000041723251, 1.055999994277954, 0.0, 0.0, 0.0, 0.0, 0.0, 1.620213560708271E9, 2021-05-05 13:19:20.708
47.0, 356.6312561035156, -1271.3004150390625, 437.3943786621094, 495.95562744140625, -0.08000000566244125, 0.04800000041723251, 1.055999994277954, 0.0, 0.0, 0.0, 0.0, 0.0, 1.620213560723918E9, 2021-05-05 13:19:20.723
47.0, 361.76239013671875, -1259.9161376953125, 444.19354248046875, 504.7144470214844, -0.08000000566244125, 0.04800000041723251, 1.055999994277954, 0.0, 0.0, 0.0, 0.0, 0.0, 1.620213560723918E9, 2021-05-05 13:19:20.723
48.0, 361.2537536621094, -1260.7314453125, 439.44384765625, 498.55859375, -0.08000000566244125, 0.04800000041723251, 1.055999994277954, 0.0, 0.0, 0.0, 0.0, 0.0, 1.62021356072461E9, 2021-05-05 13:19:20.724
48.0, 343.2723388671875, -1280.9605712890625, 422.3113708496094, 487.20050048828125, -0.08000000566244125, 0.04800000041723251, 1.055999994277954, 0.0, 0.0, 0.0, 0.0, 0.0, 1.62021356072461E9, 2021-05-05 13:19:20.724
49.0, 355.8720397949219, -1273.308837890625, 430.73736572265625, 494.3511962890625, -0.08000000566244125, 0.04800000041723251, 1.055999994277954, 0.0, 0.0, 0.0, 0.0, 0.0, 1.6202135607382967E9, 2021-05-05 13:19:20.738
49.0, 362.95916748046875, -1262.1451416015625, 443.6923828125, 501.3934326171875, -0.08000000566244125, 0.04800000041723251, 1.055999994277954, 0.0, 0.0, 0.0, 0.0, 0.0, 1.6202135607382967E9, 2021-05-05 13:19:20.738
50.0, 356.788330078125, -1265.4549560546875, 436.474365234375, 501.49066162109375, -0.08000000566244125, 0.04800000041723251, 1.055999994277954, 0.0, 0.0, 0.0, 0.0, 0.0, 1.6202135607538683E9, 2021-05-05 13:19:20.753
50.0, 337.71484375, -1277.5423583984375, 426.47015380859375, 492.8066101074219, -0.08000000566244125, 0.04800000041723251, 1.055999994277954, 0.0, 0.0, 0.0, 0.0, 0.0, 1.6202135607538683E9, 2021-05-05 13:19:20.753
51.0, 345.7743225097656, -1265.1856689453125, 435.10931396484375, 498.4613342285156, -0.08000000566244125, 0.04800000041723251, 1.055999994277954, 0.0, 0.0, 0.0, 0.0, 0.0, 1.6202135607546003E9, 2021-05-05 13:19:20.754
51.0, 346.7691345214844, -1258.55859375, 440.0946044921875, 503.3194885253906, -0.08000000566244125, 0.04800000041723251, 1.055999994277954, 0.0, 0.0, 0.0, 0.0, 0.0, 1.6202135607546003E9, 2021-05-05 13:19:20.754
52.0, 355.3222961425781, -1255.8509521484375, 443.31463623046875, 508.88818359375, -0.08000000566244125, 0.04800000041723251, 1.055999994277954, 0.0, 0.0, 0.0, 0.0, 0.0, 1.6202135607683043E9, 2021-05-05 13:19:20.768
52.0, 342.5879211425781, -1259.321533203125, 437.1886901855469, 497.8779296875, -0.08000000566244125, 0.04800000041723251, 1.055999994277954, 0.0, 0.0, 0.0, 0.0, 0.0, 1.6202135607683043E9, 2021-05-05 13:19:20.768
53.0, 349.3608703613281, -1254.0894775390625, 440.0123291015625, 497.5563049316406, -0.08000000566244125, 0.04800000041723251, 1.055999994277954, 0.0, 0.0, 0.0, 0.0, 0.0, 1.6202135607839763E9, 2021-05-05 13:19:20.783
53.0, 353.9534912109375, -1249.145263671875, 439.8477783203125, 500.31634521484375, -0.08000000566244125, 0.04800000041723251, 1.055999994277954, 0.0, 0.0, 0.0, 0.0, 0.0, 1.6202135607839763E9, 2021-05-05 13:19:20.783
54.0, 350.673583984375, -1252.3204345703125, 439.701904296875, 501.23260498046875, -0.08000000566244125, 0.04800000041723251, 1.055999994277954, 0.0, 0.0, 0.0, 0.0, 0.0, 1.6202135607846863E9, 2021-05-05 13:19:20.784
54.0, 350.7895202636719, -1257.0888671875, 433.3739929199219, 500.1854248046875, -0.08000000566244125, 0.04800000041723251, 1.055999994277954, 0.0, 0.0, 0.0, 0.0, 0.0, 1.6202135607846863E9, 2021-05-05 13:19:20.784
55.0, 359.4473876953125, -1254.755126953125, 439.3653259277344, 498.4239501953125, -0.08000000566244125, 0.04800000041723251, 1.055999994277954, 0.0, 0.0, 0.0, 0.0, 0.0, 1.6202135607984476E9, 2021-05-05 13:19:20.798
55.0, 364.7804870605469, -1244.638671875, 449.0928039550781, 506.0495910644531, -0.08000000566244125, 0.04800000041723251, 1.055999994277954, 0.0, 0.0, 0.0, 0.0, 0.0, 1.6202135607984476E9, 2021-05-05 13:19:20.798
56.0, 356.43304443359375, -1255.75, 441.403564453125, 502.0553894042969, -0.08000000566244125, 0.04800000041723251, 1.055999994277954, 0.0, 0.0, 0.0, 0.0, 0.0, 1.6202135608141425E9, 2021-05-05 13:19:20.814
56.0, 341.3948974609375, -1263.20361328125, 429.9819030761719, 499.8974609375, -0.08000000566244125, 0.04800000041723251, 1.055999994277954, 0.0, 0.0, 0.0, 0.0, 0.0, 1.6202135608141425E9, 2021-05-05 13:19:20.814
57.0, 352.6557312011719, -1256.50537109375, 434.08831787109375, 500.2041320800781, -0.08000000566244125, 0.04800000041723251, 1.055999994277954, 0.0, 0.0, 0.0, 0.0, 0.0, 1.6202135608146288E9, 2021-05-05 13:19:20.814
57.0, 369.3880615234375, -1244.4666748046875, 444.99761962890625, 504.28436279296875, -0.08000000566244125, 0.04800000041723251, 1.055999994277954, 0.0, 0.0, 0.0, 0.0, 0.0, 1.6202135608146288E9, 2021-05-05 13:19:20.814
58.0, 356.84442138671875, -1252.043701171875, 436.7660827636719, 498.89892578125, -0.08000000566244125, 0.04800000041723251, 1.055999994277954, 0.0, 0.0, 0.0, 0.0, 0.0, 1.6202135608283863E9, 2021-05-05 13:19:20.828
58.0, 348.1192321777344, -1265.5447998046875, 422.3525085449219, 494.7738037109375, -0.08000000566244125, 0.04800000041723251, 1.055999994277954, 0.0, 0.0, 0.0, 0.0, 0.0, 1.6202135608283863E9, 2021-05-05 13:19:20.828
59.0, 356.8369445800781, -1249.7960205078125, 436.1639709472656, 497.5263671875, -0.08000000566244125, 0.04800000041723251, 1.055999994277954, 0.0, 0.0, 0.0, 0.0, 0.0, 1.620213560843907E9, 2021-05-05 13:19:20.843
59.0, 356.1263732910156, -1253.427490234375, 443.9055480957031, 503.23345947265625, -0.08000000566244125, 0.04800000041723251, 1.055999994277954, 0.0, 0.0, 0.0, 0.0, 0.0, 1.620213560843907E9, 2021-05-05 13:19:20.843
60.0, 347.0047607421875, -1259.639404296875, 443.0603332519531, 504.404052734375, -0.08000000566244125, 0.04800000041723251, 1.055999994277954, 0.0, 0.0, 0.0, 0.0, 0.0, 1.6202135608446848E9, 2021-05-05 13:19:20.844
60.0, 342.5467834472656, -1267.807373046875, 441.8224182128906, 510.24951171875, -0.08000000566244125, 0.04800000041723251, 1.055999994277954, 0.0, 0.0, 0.0, 0.0, 0.0, 1.6202135608446848E9, 2021-05-05 13:19:20.844
61.0, 346.42132568359375, -1258.9364013671875, 453.19921875, 517.8340454101562, -0.08000000566244125, 0.04800000041723251, 1.055999994277954, 0.0, 0.0, 0.0, 0.0, 0.0, 1.620213560858232E9, 2021-05-05 13:19:20.858
61.0, 352.9100646972656, -1248.7039794921875, 462.4180603027344, 520.0779418945312, -0.08000000566244125, 0.04800000041723251, 1.055999994277954, 0.0, 0.0, 0.0, 0.0, 0.0, 1.620213560858232E9, 2021-05-05 13:19:20.858
62.0, 347.89111328125, -1262.100341796875, 455.5927429199219, 516.3118896484375, -0.08000000566244125, 0.04800000041723251, 1.055999994277954, 0.0, 0.0, 0.0, 0.0, 0.0, 1.6202135608739257E9, 2021-05-05 13:19:20.873
62.0, 343.1376953125, -1268.7423095703125, 443.6026306152344, 509.815673828125, -0.08000000566244125, 0.04800000041723251, 1.055999994277954, 0.0, 0.0, 0.0, 0.0, 0.0, 1.6202135608739257E9, 2021-05-05 13:19:20.873
63.0, 350.7969970703125, -1258.02001953125, 450.0614318847656, 513.9782104492188, -0.08000000566244125, 0.04800000041723251, 1.055999994277954, 0.0, 0.0, 0.0, 0.0, 0.0, 1.6202135608746595E9, 2021-05-05 13:19:20.874
63.0, 369.840576171875, -1245.566162109375, 464.6732177734375, 523.7430419921875, -0.08000000566244125, 0.04800000041723251, 1.055999994277954, 0.0, 0.0, 0.0, 0.0, 0.0, 1.6202135608746595E9, 2021-05-05 13:19:20.874
64.0, 367.53680419921875, -1249.882080078125, 458.47247314453125, 518.1743774414062, -0.08000000566244125, 0.04800000041723251, 1.055999994277954, 0.0, 0.0, 0.0, 0.0, 0.0, 1.6202135609047403E9, 2021-05-05 13:19:20.904
64.0, 382.9414367675781, -1237.876953125, 465.3052673339844, 522.8455200195312, -0.08000000566244125, 0.04800000041723251, 1.055999994277954, 0.0, 0.0, 0.0, 0.0, 0.0, 1.6202135609047403E9, 2021-05-05 13:19:20.904
65.0, 394.1274719238281, -1224.66015625, 478.211669921875, 526.2899169921875, -0.08000000566244125, 0.04800000041723251, 1.055999994277954, 0.0, 0.0, 0.0, 0.0, 0.0, 1.6202135609054496E9, 2021-05-05 13:19:20.905
65.0, 418.2984619140625, -1212.2025146484375, 494.6746826171875, 536.447509765625, -0.08000000566244125, 0.04800000041723251, 1.055999994277954, 0.0, 0.0, 0.0, 0.0, 0.0, 1.6202135609054496E9, 2021-05-05 13:19:20.905
66.0, 402.411376953125, -1214.8280029296875, 488.48516845703125, 529.5810546875, -0.08000000566244125, 0.04800000041723251, 1.055999994277954, 0.0, 0.0, 0.0, 0.0, 0.0, 1.6202135609061604E9, 2021-05-05 13:19:20.906
66.0, 403.17803955078125, -1217.4495849609375, 481.5738220214844, 535.486328125, -0.08000000566244125, 0.04800000041723251, 1.055999994277954, 0.0, 0.0, 0.0, 0.0, 0.0, 1.6202135609061604E9, 2021-05-05 13:19:20.906
67.0, 405.2985534667969, -1207.980224609375, 487.5913391113281, 538.22021484375, -0.08000000566244125, 0.04800000041723251, 1.055999994277954, 0.0, 0.0, 0.0, 0.0, 0.0, 1.6202135609183364E9, 2021-05-05 13:19:20.918
67.0, 396.7641296386719, -1213.7396240234375, 479.54681396484375, 526.1590576171875, -0.08000000566244125, 0.04800000041723251, 1.055999994277954, 0.0, 0.0, 0.0, 0.0, 0.0, 1.6202135609183364E9, 2021-05-05 13:19:20.918
68.0, 383.9587097167969, -1228.8787841796875, 472.7738342285156, 529.7269287109375, -0.08000000566244125, 0.04800000041723251, 1.055999994277954, 0.0, 0.0, 0.0, 0.0, 0.0, 1.620213560933896E9, 2021-05-05 13:19:20.933
68.0, 370.5025329589844, -1243.3372802734375, 456.7371520996094, 514.31103515625, -0.08000000566244125, 0.04800000041723251, 1.055999994277954, 0.0, 0.0, 0.0, 0.0, 0.0, 1.620213560933896E9, 2021-05-05 13:19:20.933
69.0, 376.5649108886719, -1243.02685546875, 457.15228271484375, 517.5011596679688, -0.08000000566244125, 0.04800000041723251, 1.055999994277954, 0.0, 0.0, 0.0, 0.0, 0.0, 1.6202135609346623E9, 2021-05-05 13:19:20.934
69.0, 377.4176025390625, -1249.9344482421875, 461.1502380371094, 522.10498046875, -0.08000000566244125, 0.04800000041723251, 1.055999994277954, 0.0, 0.0, 0.0, 0.0, 0.0, 1.6202135609346623E9, 2021-05-05 13:19:20.934
70.0, 359.6119384765625, -1266.315185546875, 446.4262390136719, 513.1105346679688, -0.08000000566244125, 0.04800000041723251, 1.055999994277954, 0.0, 0.0, 0.0, 0.0, 0.0, 1.6202135609816577E9, 2021-05-05 13:19:20.981
70.0, 352.3266296386719, -1274.1689453125, 441.1529846191406, 509.7408752441406, -0.08000000566244125, 0.04800000041723251, 1.055999994277954, 0.0, 0.0, 0.0, 0.0, 0.0, 1.6202135609816577E9, 2021-05-05 13:19:20.981
71.0, 351.91522216796875, -1266.008544921875, 439.45880126953125, 503.2783508300781, -0.08000000566244125, 0.04800000041723251, 1.055999994277954, 0.0, 0.0, 0.0, 0.0, 0.0, 1.6202135609824433E9, 2021-05-05 13:19:20.982
71.0, 347.1206970214844, -1273.708984375, 440.0609436035156, 499.8862609863281, -0.08000000566244125, 0.04800000041723251, 1.055999994277954, 0.0, 0.0, 0.0, 0.0, 0.0, 1.6202135609824433E9, 2021-05-05 13:19:20.982
72.0, 331.5776672363281, -1281.6973876953125, 426.0437927246094, 497.8143310546875, -0.08000000566244125, 0.04800000041723251, 1.055999994277954, 0.0, 0.0, 0.0, 0.0, 0.0, 1.620213560983061E9, 2021-05-05 13:19:20.983
72.0, 319.13128662109375, -1277.4713134765625, 421.0734558105469, 489.9605407714844, -0.08000000566244125, 0.04800000041723251, 1.055999994277954, 0.0, 0.0, 0.0, 0.0, 0.0, 1.620213560983061E9, 2021-05-05 13:19:20.983
73.0, 322.9908447265625, -1270.705810546875, 423.0855407714844, 484.3095703125, -0.08000000566244125, 0.04800000041723251, 1.055999994277954, 0.0, 0.0, 0.0, 0.0, 0.0, 1.6202135609839332E9, 2021-05-05 13:19:20.983
73.0, 329.8685302734375, -1262.16015625, 424.5478210449219, 493.2666320800781, -0.08000000566244125, 0.04800000041723251, 1.055999994277954, 0.0, 0.0, 0.0, 0.0, 0.0, 1.6202135609839332E9, 2021-05-05 13:19:20.983
74.0, 325.567626953125, -1281.443115234375, 406.73095703125, 475.07574462890625, -0.08000000566244125, 0.04800000041723251, 1.055999994277954, 0.0, 0.0, 0.0, 0.0, 0.0, 1.6202135609938805E9, 2021-05-05 13:19:20.993
74.0, 324.1988525390625, -1293.12646484375, 402.8526611328125, 469.9857482910156, -0.08000000566244125, 0.04800000041723251, 1.055999994277954, 0.0, 0.0, 0.0, 0.0, 0.0, 1.6202135609938805E9, 2021-05-05 13:19:20.993
75.0, 334.405029296875, -1292.5579833984375, 409.2217102050781, 469.26019287109375, -0.08000000566244125, 0.04800000041723251, 1.055999994277954, 0.0, 0.0, 0.0, 0.0, 0.0, 1.6202135609946723E9, 2021-05-05 13:19:20.994
75.0, 343.9604797363281, -1286.3087158203125, 404.3785400390625, 473.01507568359375, -0.08000000566244125, 0.04800000041723251, 1.055999994277954, 0.0, 0.0, 0.0, 0.0, 0.0, 1.6202135609946723E9, 2021-05-05 13:19:20.994
76.0, 332.26580810546875, -1296.537353515625, 398.1179504394531, 474.2604675292969, -0.08000000566244125, 0.04800000041723251, 1.055999994277954, 0.0, 0.0, 0.0, 0.0, 0.0, 1.620213561008171E9, 2021-05-05 13:19:21.008
76.0, 322.5196228027344, -1301.03271484375, 389.4638366699219, 469.6566467285156, -0.08000000566244125, 0.04800000041723251, 1.055999994277954, 0.0, 0.0, 0.0, 0.0, 0.0, 1.620213561008171E9, 2021-05-05 13:19:21.008
77.0, 336.0617980957031, -1296.9075927734375, 404.4496154785156, 470.2587585449219, -0.08000000566244125, 0.04800000041723251, 1.055999994277954, 0.0, 0.0, 0.0, 0.0, 0.0, 1.6202135610238473E9, 2021-05-05 13:19:21.023
77.0, 328.537109375, -1301.7208251953125, 400.35443115234375, 473.43768310546875, -0.08000000566244125, 0.04800000041723251, 1.055999994277954, 0.0, 0.0, 0.0, 0.0, 0.0, 1.6202135610238473E9, 2021-05-05 13:19:21.023
