Sample Index, EXG Channel 0, EXG Channel 1, EXG Channel 2, EXG Channel 3, Accel Channel 0, Accel Channel 1, Accel Channel 2, Other, Other, Other, Other, Other, Timestamp, Timestamp (Formatted)
0.0, 412.5895080566406, -1044.716796875, 544.1292724609375, 577.382568359375, 0.0, 0.0, 0.0, 0.0, 0.0, 0.0, 0.0, 0.0, 1.620213828934683E9, 2021-05-05 13:23:48.934
1.0, 464.2524719238281, -1111.2645263671875, 576.6851196289062, 607.7505493164062, 0.0, 0.04800000041723251, 0.0, 0.0, 0.0, 0.0, 0.0, 0.0, 1.6202138289481342E9, 2021-05-05 13:23:48.948
1.0, 492.61962890625, -1067.279541015625, 580.6605834960938, 601.3216552734375, 0.0, 0.04800000041723251, 0.0, 0.0, 0.0, 0.0, 0.0, 0.0, 1.6202138289481342E9, 2021-05-05 13:23:48.948
2.0, 540.883056640625, -1058.1280517578125, 635.9363403320312, 648.9530639648438, -0.08000000566244125, 0.04800000041723251, 0.0, 0.0, 0.0, 0.0, 0.0, 0.0, 1.62021382898104E9, 2021-05-05 13:23:48.981
2.0, 516.5587158203125, -979.1637573242188, 644.4857177734375, 648.04052734375, -0.08000000566244125, 0.04800000041723251, 0.0, 0.0, 0.0, 0.0, 0.0, 0.0, 1.62021382898104E9, 2021-05-05 13:23:48.981
3.0, 506.0009765625, -1000.2717895507812, 621.0365600585938, 645.6843872070312, -0.08000000566244125, 0.04800000041723251, 0.0, 0.0, 0.0, 0.0, 0.0, 0.0, 1.6202138289817991E9, 2021-05-05 13:23:48.981
3.0, 481.04461669921875, -1091.29345703125, 609.1698608398438, 638.286865234375, -0.08000000566244125, 0.04800000041723251, 0.0, 0.0, 0.0, 0.0, 0.0, 0.0, 1.6202138289817991E9, 2021-05-05 13:23:48.981
4.0, 486.6619567871094, -997.264892578125, 600.2315063476562, 623.1627197265625, -0.08000000566244125, 0.04800000041723251, 0.0, 0.0, 0.0, 0.0, 0.0, 0.0, 1.6202138289825506E9, 2021-05-05 13:23:48.982
4.0, 485.5325012207031, -1056.9088134765625, 592.4263305664062, 610.8958129882812, -0.08000000566244125, 0.04800000041723251, 0.0, 0.0, 0.0, 0.0, 0.0, 0.0, 1.6202138289825506E9, 2021-05-05 13:23:48.982
5.0, 433.8807678222656, -1119.5147705078125, 554.9525146484375, 589.4923706054688, -0.08000000566244125, 0.04800000041723251, 0.0, 0.0, 0.0, 0.0, 0.0, 0.0, 1.62021382899348E9, 2021-05-05 13:23:48.993
5.0, 440.37322998046875, -1160.0665283203125, 544.7164306640625, 589.52978515625, -0.08000000566244125, 0.04800000041723251, 0.0, 0.0, 0.0, 0.0, 0.0, 0.0, 1.62021382899348E9, 2021-05-05 13:23:48.993
6.0, 400.5058898925781, -1086.9215087890625, 485.93267822265625, 521.123291015625, -0.08000000566244125, 0.04800000041723251, 0.0, 0.0, 0.0, 0.0, 0.0, 0.0, 1.6202138289941704E9, 2021-05-05 13:23:48.994
6.0, 396.7622375488281, -1177.2850341796875, 493.2666320800781, 516.7662963867188, -0.08000000566244125, 0.04800000041723251, 0.0, 0.0, 0.0, 0.0, 0.0, 0.0, 1.6202138289941704E9, 2021-05-05 13:23:48.994
7.0, 370.5081481933594, -1171.6414794921875, 483.1053161621094, 533.1994018554688, -0.08000000566244125, 0.04800000041723251, 0.0, 0.0, 0.0, 0.0, 0.0, 0.0, 1.6202138290079432E9, 2021-05-05 13:23:49.007
7.0, 371.6899719238281, -1213.8013916015625, 473.6695556640625, 527.275390625, -0.08000000566244125, 0.04800000041723251, 0.0, 0.0, 0.0, 0.0, 0.0, 0.0, 1.6202138290079432E9, 2021-05-05 13:23:49.007
8.0, 374.3901672363281, -1175.9161376953125, 478.2958068847656, 517.9481201171875, -0.08000000566244125, 0.04800000041723251, 0.0, 0.0, 0.0, 0.0, 0.0, 0.0, 1.620213829039988E9, 2021-05-05 13:23:49.039
8.0, 346.94305419921875, -1183.8447265625, 460.3816833496094, 520.1396484375, -0.08000000566244125, 0.04800000041723251, 0.0, 0.0, 0.0, 0.0, 0.0, 0.0, 1.620213829039988E9, 2021-05-05 13:23:49.039
9.0, 351.56182861328125, -1223.2371826171875, 464.1963806152344, 515.07958984375, -0.08000000566244125, 0.04800000041723251, 0.0, 0.0, 0.0, 0.0, 0.0, 0.0, 1.6202138290407321E9, 2021-05-05 13:23:49.040
9.0, 386.8253173828125, -1181.189453125, 467.3603515625, 518.4342651367188, -0.08000000566244125, 0.04800000041723251, 0.0, 0.0, 0.0, 0.0, 0.0, 0.0, 1.6202138290407321E9, 2021-05-05 13:23:49.040
10.0, 384.7197570800781, -1143.1434326171875, 489.6426696777344, 541.86474609375, -0.08000000566244125, 0.04800000041723251, 1.040000081062317, 0.0, 0.0, 0.0, 0.0, 0.0, 1.6202138290413997E9, 2021-05-05 13:23:49.041
10.0, 364.2438049316406, -1287.33154296875, 488.30377197265625, 548.14404296875, -0.08000000566244125, 0.04800000041723251, 1.040000081062317, 0.0, 0.0, 0.0, 0.0, 0.0, 1.6202138290413997E9, 2021-05-05 13:23:49.041
11.0, 353.6299743652344, -1180.0787353515625, 460.74444580078125, 538.5698852539062, -0.08000000566244125, 0.04800000041723251, 1.040000081062317, 0.0, 0.0, 0.0, 0.0, 0.0, 1.6202138290421546E9, 2021-05-05 13:23:49.042
11.0, 335.491455078125, -1212.2904052734375, 453.29083251953125, 493.74346923828125, -0.08000000566244125, 0.04800000041723251, 1.040000081062317, 0.0, 0.0, 0.0, 0.0, 0.0, 1.6202138290421546E9, 2021-05-05 13:23:49.042
12.0, 360.6572570800781, -1174.6109619140625, 458.01806640625, 516.8485717773438, -0.08000000566244125, 0.04800000041723251, 1.040000081062317, 0.0, 0.0, 0.0, 0.0, 0.0, 1.6202138290528092E9, 2021-05-05 13:23:49.052
12.0, 364.7113037109375, -1313.1817626953125, 470.7337341308594, 521.2579345703125, -0.08000000566244125, 0.04800000041723251, 1.040000081062317, 0.0, 0.0, 0.0, 0.0, 0.0, 1.6202138290528092E9, 2021-05-05 13:23:49.052
13.0, 340.9853820800781, -1191.1002197265625, 443.61572265625, 503.6280212402344, -0.08000000566244125, 0.04800000041723251, 1.040000081062317, 0.0, 0.0, 0.0, 0.0, 0.0, 1.6202138290678718E9, 2021-05-05 13:23:49.067
13.0, 312.2330322265625, -1270.84228515625, 414.94189453125, 473.4806823730469, -0.08000000566244125, 0.04800000041723251, 1.040000081062317, 0.0, 0.0, 0.0, 0.0, 0.0, 1.6202138290678718E9, 2021-05-05 13:23:49.067
14.0, 324.2942199707031, -1227.0966796875, 450.2428283691406, 500.407958984375, -0.08000000566244125, 0.04800000041723251, 1.040000081062317, 0.0, 0.0, 0.0, 0.0, 0.0, 1.6202138290842428E9, 2021-05-05 13:23:49.084
14.0, 339.2687683105469, -1224.0262451171875, 438.0806579589844, 492.8795471191406, -0.08000000566244125, 0.04800000041723251, 1.040000081062317, 0.0, 0.0, 0.0, 0.0, 0.0, 1.6202138290842428E9, 2021-05-05 13:23:49.084
15.0, 288.8736267089844, -1245.78125, 423.6783142089844, 484.8163146972656, -0.08000000566244125, 0.04800000041723251, 1.040000081062317, 0.0, 0.0, 0.0, 0.0, 0.0, 1.6202138290849996E9, 2021-05-05 13:23:49.084
15.0, 335.2521057128906, -1301.3636474609375, 444.6853332519531, 504.0543518066406, -0.08000000566244125, 0.04800000041723251, 1.040000081062317, 0.0, 0.0, 0.0, 0.0, 0.0, 1.6202138290849996E9, 2021-05-05 13:23:49.084
16.0, 305.63958740234375, -1236.3865966796875, 393.9535827636719, 451.29559326171875, -0.08000000566244125, 0.04800000041723251, 1.040000081062317, 0.0, 0.0, 0.0, 0.0, 0.0, 1.6202138290978277E9, 2021-05-05 13:23:49.097
16.0, 297.2285461425781, -1264.5106201171875, 425.9110412597656, 485.0594177246094, -0.08000000566244125, 0.04800000041723251, 1.040000081062317, 0.0, 0.0, 0.0, 0.0, 0.0, 1.6202138290978277E9, 2021-05-05 13:23:49.097
17.0, 301.088134765625, -1275.4385986328125, 431.479736328125, 506.08514404296875, -0.08000000566244125, 0.04800000041723251, 1.040000081062317, 0.0, 0.0, 0.0, 0.0, 0.0, 1.620213829113492E9, 2021-05-05 13:23:49.113
17.0, 323.17596435546875, -1312.5833740234375, 416.8529968261719, 493.5340270996094, -0.08000000566244125, 0.04800000041723251, 1.040000081062317, 0.0, 0.0, 0.0, 0.0, 0.0, 1.620213829113492E9, 2021-05-05 13:23:49.113
18.0, 296.3272399902344, -1257.4310302734375, 407.09185791015625, 455.99664306640625, -0.08000000566244125, 0.04800000041723251, 1.040000081062317, 0.0, 0.0, 0.0, 0.0, 0.0, 1.620213829114299E9, 2021-05-05 13:23:49.114
18.0, 330.6707458496094, -1239.00830078125, 423.0387878417969, 476.8017272949219, -0.08000000566244125, 0.04800000041723251, 1.040000081062317, 0.0, 0.0, 0.0, 0.0, 0.0, 1.620213829114299E9, 2021-05-05 13:23:49.114
19.0, 315.0192565917969, -1314.307373046875, 425.1181640625, 498.6427307128906, -0.08000000566244125, 0.04800000041723251, 1.040000081062317, 0.0, 0.0, 0.0, 0.0, 0.0, 1.620213829127816E9, 2021-05-05 13:23:49.127
19.0, 288.54449462890625, -1269.5445556640625, 399.1669921875, 460.8099060058594, -0.08000000566244125, 0.04800000041723251, 1.040000081062317, 0.0, 0.0, 0.0, 0.0, 0.0, 1.620213829127816E9, 2021-05-05 13:23:49.127
20.0, 315.0716247558594, -1285.255859375, 436.47998046875, 489.63330078125, -0.08000000566244125, 0.04800000041723251, 1.055999994277954, 0.0, 0.0, 0.0, 0.0, 0.0, 1.62021382914419E9, 2021-05-05 13:23:49.144
20.0, 304.7457580566406, -1293.352783203125, 403.2995910644531, 459.878662109375, -0.08000000566244125, 0.04800000041723251, 1.055999994277954, 0.0, 0.0, 0.0, 0.0, 0.0, 1.62021382914419E9, 2021-05-05 13:23:49.144
21.0, 293.4699401855469, -1309.583984375, 403.826904296875, 478.6454772949219, -0.08000000566244125, 0.04800000041723251, 1.055999994277954, 0.0, 0.0, 0.0, 0.0, 0.0, 1.6202138291448607E9, 2021-05-05 13:23:49.144
21.0, 298.6721496582031, -1322.860595703125, 392.0238037109375, 454.384765625, -0.08000000566244125, 0.04800000041723251, 1.055999994277954, 0.0, 0.0, 0.0, 0.0, 0.0, 1.6202138291448607E9, 2021-05-05 13:23:49.144
22.0, 344.7851257324219, -1256.49609375, 427.6164245605469, 498.5941162109375, -0.08000000566244125, 0.04800000041723251, 1.055999994277954, 0.0, 0.0, 0.0, 0.0, 0.0, 1.6202138291577787E9, 2021-05-05 13:23:49.157
22.0, 296.40576171875, -1318.24560546875, 403.486572265625, 459.022216796875, -0.08000000566244125, 0.04800000041723251, 1.055999994277954, 0.0, 0.0, 0.0, 0.0, 0.0, 1.6202138291577787E9, 2021-05-05 13:23:49.157
23.0, 284.86444091796875, -1276.5045166015625, 401.4371337890625, 461.7074890136719, -0.08000000566244125, 0.04800000041723251, 1.055999994277954, 0.0, 0.0, 0.0, 0.0, 0.0, 1.6202138291735694E9, 2021-05-05 13:23:49.173
23.0, 380.50115966796875, -1351.2314453125, 434.6997985839844, 488.4515075683594, -0.08000000566244125, 0.04800000041723251, 1.055999994277954, 0.0, 0.0, 0.0, 0.0, 0.0, 1.6202138291735694E9, 2021-05-05 13:23:49.173
24.0, 279.72955322265625, -1254.26708984375, 409.51531982421875, 478.44354248046875, -0.08000000566244125, 0.04800000041723251, 1.055999994277954, 0.0, 0.0, 0.0, 0.0, 0.0, 1.6202138291741908E9, 2021-05-05 13:23:49.174
24.0, 303.6686706542969, -1266.29833984375, 399.6494445800781, 451.7742919921875, -0.08000000566244125, 0.04800000041723251, 1.055999994277954, 0.0, 0.0, 0.0, 0.0, 0.0, 1.6202138291741908E9, 2021-05-05 13:23:49.174
25.0, 317.03131103515625, -1293.364013671875, 420.5704345703125, 490.90863037109375, -0.08000000566244125, 0.04800000041723251, 1.055999994277954, 0.0, 0.0, 0.0, 0.0, 0.0, 1.6202138291877756E9, 2021-05-05 13:23:49.187
25.0, 313.6766357421875, -1294.1343994140625, 412.7353515625, 464.81158447265625, -0.08000000566244125, 0.04800000041723251, 1.055999994277954, 0.0, 0.0, 0.0, 0.0, 0.0, 1.6202138291877756E9, 2021-05-05 13:23:49.187
26.0, 297.65863037109375, -1282.41357421875, 437.09332275390625, 498.8596496582031, -0.08000000566244125, 0.04800000041723251, 1.055999994277954, 0.0, 0.0, 0.0, 0.0, 0.0, 1.6202138292042449E9, 2021-05-05 13:23:49.204
26.0, 312.41253662109375, -1294.747802734375, 421.5951843261719, 477.17572021484375, -0.08000000566244125, 0.04800000041723251, 1.055999994277954, 0.0, 0.0, 0.0, 0.0, 0.0, 1.6202138292042449E9, 2021-05-05 13:23:49.204
27.0, 319.0882568359375, -1287.2230224609375, 413.87603759765625, 478.9858093261719, -0.08000000566244125, 0.04800000041723251, 1.055999994277954, 0.0, 0.0, 0.0, 0.0, 0.0, 1.6202138292049112E9, 2021-05-05 13:23:49.204
27.0, 302.76361083984375, -1303.9105224609375, 412.0621643066406, 471.7079772949219, -0.08000000566244125, 0.04800000041723251, 1.055999994277954, 0.0, 0.0, 0.0, 0.0, 0.0, 1.6202138292049112E9, 2021-05-05 13:23:49.204
28.0, 324.3689880371094, -1283.131591796875, 447.1947937011719, 514.0211791992188, -0.08000000566244125, 0.04800000041723251, 1.055999994277954, 0.0, 0.0, 0.0, 0.0, 0.0, 1.6202138292178981E9, 2021-05-05 13:23:49.217
28.0, 343.4350280761719, -1315.7547607421875, 408.5578918457031, 457.5412292480469, -0.08000000566244125, 0.04800000041723251, 1.055999994277954, 0.0, 0.0, 0.0, 0.0, 0.0, 1.6202138292178981E9, 2021-05-05 13:23:49.217
29.0, 283.5255432128906, -1302.21630859375, 395.24383544921875, 459.7776794433594, -0.08000000566244125, 0.04800000041723251, 1.055999994277954, 0.0, 0.0, 0.0, 0.0, 0.0, 1.620213829233538E9, 2021-05-05 13:23:49.233
29.0, 296.26739501953125, -1278.2623291015625, 394.7165222167969, 457.354248046875, -0.08000000566244125, 0.04800000041723251, 1.055999994277954, 0.0, 0.0, 0.0, 0.0, 0.0, 1.620213829233538E9, 2021-05-05 13:23:49.233
30.0, 306.94482421875, -1305.6346435546875, 409.9229431152344, 482.0450439453125, -0.08000000566244125, 0.04800000041723251, 1.055999994277954, 0.0, 0.0, 0.0, 0.0, 0.0, 1.6202138292341752E9, 2021-05-05 13:23:49.234
30.0, 341.25091552734375, -1287.26416015625, 416.9951171875, 479.32989501953125, -0.08000000566244125, 0.04800000041723251, 1.055999994277954, 0.0, 0.0, 0.0, 0.0, 0.0, 1.6202138292341752E9, 2021-05-05 13:23:49.234
31.0, 287.2841491699219, -1330.75927734375, 394.76513671875, 455.3907775878906, -0.08000000566244125, 0.04800000041723251, 1.055999994277954, 0.0, 0.0, 0.0, 0.0, 0.0, 1.620213829247808E9, 2021-05-05 13:23:49.247
31.0, 290.1451721191406, -1262.7716064453125, 399.260498046875, 457.9825439453125, -0.08000000566244125, 0.04800000041723251, 1.055999994277954, 0.0, 0.0, 0.0, 0.0, 0.0, 1.620213829247808E9, 2021-05-05 13:23:49.247
32.0, 298.09246826171875, -1296.0791015625, 407.5219421386719, 473.4395446777344, -0.08000000566244125, 0.04800000041723251, 1.055999994277954, 0.0, 0.0, 0.0, 0.0, 0.0, 1.6202138292641215E9, 2021-05-05 13:23:49.264
32.0, 326.9420471191406, -1264.185302734375, 423.8914794921875, 480.88568115234375, -0.08000000566244125, 0.04800000041723251, 1.055999994277954, 0.0, 0.0, 0.0, 0.0, 0.0, 1.6202138292641215E9, 2021-05-05 13:23:49.264
33.0, 317.0911560058594, -1346.6875, 427.6239013671875, 491.4770812988281, -0.08000000566244125, 0.04800000041723251, 1.055999994277954, 0.0, 0.0, 0.0, 0.0, 0.0, 1.6202138292648485E9, 2021-05-05 13:23:49.264
33.0, 292.3966064453125, -1242.0076904296875, 400.54327392578125, 448.09423828125, -0.08000000566244125, 0.04800000041723251, 1.055999994277954, 0.0, 0.0, 0.0, 0.0, 0.0, 1.6202138292648485E9, 2021-05-05 13:23:49.264
34.0, 336.1085510253906, -1277.4993896484375, 422.21600341796875, 467.6427001953125, -0.08000000566244125, 0.04800000041723251, 1.055999994277954, 0.0, 0.0, 0.0, 0.0, 0.0, 1.6202138292778184E9, 2021-05-05 13:23:49.277
34.0, 322.8393859863281, -1269.7540283203125, 457.0382080078125, 512.1362915039062, -0.08000000566244125, 0.04800000041723251, 1.055999994277954, 0.0, 0.0, 0.0, 0.0, 0.0, 1.6202138292778184E9, 2021-05-05 13:23:49.277
35.0, 337.1033630371094, -1248.2271728515625, 421.7298278808594, 466.26641845703125, -0.08000000566244125, 0.04800000041723251, 1.055999994277954, 0.0, 0.0, 0.0, 0.0, 0.0, 1.6202138292934964E9, 2021-05-05 13:23:49.293
35.0, 354.000244140625, -1282.836181640625, 453.34320068359375, 511.4818115234375, -0.08000000566244125, 0.04800000041723251, 1.055999994277954, 0.0, 0.0, 0.0, 0.0, 0.0, 1.6202138292934964E9, 2021-05-05 13:23:49.293
36.0, 329.11492919921875, -1257.8087158203125, 449.8613586425781, 508.3702087402344, -0.08000000566244125, 0.04800000041723251, 1.055999994277954, 0.0, 0.0, 0.0, 0.0, 0.0, 1.620213829294158E9, 2021-05-05 13:23:49.294
36.0, 364.57293701171875, -1259.7423095703125, 451.6153564453125, 502.46490478515625, -0.08000000566244125, 0.04800000041723251, 1.055999994277954, 0.0, 0.0, 0.0, 0.0, 0.0, 1.620213829294158E9, 2021-05-05 13:23:49.294
37.0, 328.9690856933594, -1268.49365234375, 426.0905456542969, 486.850830078125, -0.08000000566244125, 0.04800000041723251, 1.055999994277954, 0.0, 0.0, 0.0, 0.0, 0.0, 1.6202138293407092E9, 2021-05-05 13:23:49.340
37.0, 327.9256591796875, -1276.930908203125, 427.3995056152344, 495.6732482910156, -0.08000000566244125, 0.04800000041723251, 1.055999994277954, 0.0, 0.0, 0.0, 0.0, 0.0, 1.6202138293407092E9, 2021-05-05 13:23:49.340
38.0, 354.5387878417969, -1272.787109375, 440.49664306640625, 493.0291442871094, -0.08000000566244125, 0.04800000041723251, 1.055999994277954, 0.0, 0.0, 0.0, 0.0, 0.0, 1.6202138293413084E9, 2021-05-05 13:23:49.341
38.0, 354.4228515625, -1262.1619873046875, 451.1740417480469, 507.0462951660156, -0.08000000566244125, 0.04800000041723251, 1.055999994277954, 0.0, 0.0, 0.0, 0.0, 0.0, 1.6202138293413084E9, 2021-05-05 13:23:49.341
39.0, 326.18658447265625, -1274.3914794921875, 436.3154296875, 492.87579345703125, -0.08000000566244125, 0.04800000041723251, 1.055999994277954, 0.0, 0.0, 0.0, 0.0, 0.0, 1.6202138293421052E9, 2021-05-05 13:23:49.342
39.0, 339.1715393066406, -1286.4676513671875, 425.63800048828125, 486.2935791015625, -0.08000000566244125, 0.04800000041723251, 1.055999994277954, 0.0, 0.0, 0.0, 0.0, 0.0, 1.6202138293421052E9, 2021-05-05 13:23:49.342
40.0, 341.63238525390625, -1256.2679443359375, 440.1376037597656, 496.39129638671875, -0.08000000566244125, 0.04800000041723251, 1.040000081062317, 0.0, 0.0, 0.0, 0.0, 0.0, 1.620213829342805E9, 2021-05-05 13:23:49.342
40.0, 359.1014404296875, -1272.9217529296875, 447.9465026855469, 499.8955993652344, -0.08000000566244125, 0.04800000041723251, 1.040000081062317, 0.0, 0.0, 0.0, 0.0, 0.0, 1.620213829342805E9, 2021-05-05 13:23:49.342
41.0, 352.00311279296875, -1276.83740234375, 447.0414733886719, 509.7876281738281, -0.08000000566244125, 0.04800000041723251, 1.040000081062317, 0.0, 0.0, 0.0, 0.0, 0.0, 1.6202138293536048E9, 2021-05-05 13:23:49.353
41.0, 339.13787841796875, -1278.7110595703125, 428.4691162109375, 481.0240478515625, -0.08000000566244125, 0.04800000041723251, 1.040000081062317, 0.0, 0.0, 0.0, 0.0, 0.0, 1.6202138293536048E9, 2021-05-05 13:23:49.353
42.0, 340.3757629394531, -1256.8177490234375, 445.223876953125, 494.7681884765625, -0.08000000566244125, 0.04800000041723251, 1.040000081062317, 0.0, 0.0, 0.0, 0.0, 0.0, 1.620213829354322E9, 2021-05-05 13:23:49.354
42.0, 371.443115234375, -1255.7181396484375, 447.6248779296875, 504.85845947265625, -0.08000000566244125, 0.04800000041723251, 1.040000081062317, 0.0, 0.0, 0.0, 0.0, 0.0, 1.620213829354322E9, 2021-05-05 13:23:49.354
43.0, 342.7019958496094, -1270.6851806640625, 445.9120178222656, 509.50714111328125, -0.08000000566244125, 0.04800000041723251, 1.040000081062317, 0.0, 0.0, 0.0, 0.0, 0.0, 1.6202138293843164E9, 2021-05-05 13:23:49.384
43.0, 342.4925537109375, -1252.5728759765625, 446.69366455078125, 507.0201110839844, -0.08000000566244125, 0.04800000041723251, 1.040000081062317, 0.0, 0.0, 0.0, 0.0, 0.0, 1.6202138293843164E9, 2021-05-05 13:23:49.384
44.0, 361.0948181152344, -1272.1026611328125, 464.61151123046875, 515.9509887695312, -0.08000000566244125, 0.04800000041723251, 1.040000081062317, 0.0, 0.0, 0.0, 0.0, 0.0, 1.6202138293850622E9, 2021-05-05 13:23:49.385
44.0, 337.5521545410156, -1261.1971435546875, 425.9409484863281, 480.72113037109375, -0.08000000566244125, 0.04800000041723251, 1.040000081062317, 0.0, 0.0, 0.0, 0.0, 0.0, 1.6202138293850622E9, 2021-05-05 13:23:49.385
45.0, 349.68438720703125, -1264.046875, 435.563720703125, 494.0501403808594, -0.08000000566244125, 0.04800000041723251, 1.040000081062317, 0.0, 0.0, 0.0, 0.0, 0.0, 1.6202138293858676E9, 2021-05-05 13:23:49.385
45.0, 326.8934326171875, -1266.0103759765625, 432.5792541503906, 483.70184326171875, -0.08000000566244125, 0.04800000041723251, 1.040000081062317, 0.0, 0.0, 0.0, 0.0, 0.0, 1.6202138293858676E9, 2021-05-05 13:23:49.385
46.0, 345.1927795410156, -1254.712158203125, 442.8041687011719, 492.58782958984375, -0.08000000566244125, 0.04800000041723251, 1.040000081062317, 0.0, 0.0, 0.0, 0.0, 0.0, 1.6202138293977845E9, 2021-05-05 13:23:49.397
46.0, 352.08538818359375, -1250.770263671875, 448.9936828613281, 497.21783447265625, -0.08000000566244125, 0.04800000041723251, 1.040000081062317, 0.0, 0.0, 0.0, 0.0, 0.0, 1.6202138293977845E9, 2021-05-05 13:23:49.397
47.0, 334.32086181640625, -1257.9696044921875, 434.8643493652344, 500.72210693359375, -0.08000000566244125, 0.04800000041723251, 1.040000081062317, 0.0, 0.0, 0.0, 0.0, 0.0, 1.6202138294136088E9, 2021-05-05 13:23:49.413
47.0, 331.9385681152344, -1261.133544921875, 441.61859130859375, 484.1319274902344, -0.08000000566244125, 0.04800000041723251, 1.040000081062317, 0.0, 0.0, 0.0, 0.0, 0.0, 1.6202138294136088E9, 2021-05-05 13:23:49.413
48.0, 352.21630859375, -1251.94091796875, 449.614501953125, 494.9252624511719, -0.08000000566244125, 0.04800000041723251, 1.040000081062317, 0.0, 0.0, 0.0, 0.0, 0.0, 1.6202138294143E9, 2021-05-05 13:23:49.414
48.0, 366.51019287109375, -1237.833984375, 453.88922119140625, 496.8064270019531, -0.08000000566244125, 0.04800000041723251, 1.040000081062317, 0.0, 0.0, 0.0, 0.0, 0.0, 1.6202138294143E9, 2021-05-05 13:23:49.414
49.0, 342.3280029296875, -1252.70751953125, 443.6531066894531, 489.1396484375, -0.08000000566244125, 0.04800000041723251, 1.040000081062317, 0.0, 0.0, 0.0, 0.0, 0.0, 1.6202138294277728E9, 2021-05-05 13:23:49.427
49.0, 345.4246520996094, -1250.0147705078125, 449.1806945800781, 495.3030090332031, -0.08000000566244125, 0.04800000041723251, 1.040000081062317, 0.0, 0.0, 0.0, 0.0, 0.0, 1.6202138294277728E9, 2021-05-05 13:23:49.427
50.0, 356.6405944824219, -1253.0703125, 456.2528381347656, 498.69134521484375, -0.08000000566244125, 0.04800000041723251, 1.040000081062317, 0.0, 0.0, 0.0, 0.0, 0.0, 1.620213829443544E9, 2021-05-05 13:23:49.443
50.0, 358.061767578125, -1246.0916748046875, 460.79681396484375, 508.5497131347656, -0.08000000566244125, 0.04800000041723251, 1.040000081062317, 0.0, 0.0, 0.0, 0.0, 0.0, 1.620213829443544E9, 2021-05-05 13:23:49.443
51.0, 351.8011779785156, -1252.120361328125, 451.76495361328125, 507.6259765625, -0.08000000566244125, 0.04800000041723251, 1.040000081062317, 0.0, 0.0, 0.0, 0.0, 0.0, 1.620213829444374E9, 2021-05-05 13:23:49.444
51.0, 358.226318359375, -1256.6494140625, 456.7016296386719, 506.9939270019531, -0.08000000566244125, 0.04800000041723251, 1.040000081062317, 0.0, 0.0, 0.0, 0.0, 0.0, 1.620213829444374E9, 2021-05-05 13:23:49.444
52.0, 352.4930419921875, -1255.2806396484375, 452.44561767578125, 501.5523681640625, -0.08000000566244125, 0.04800000041723251, 1.040000081062317, 0.0, 0.0, 0.0, 0.0, 0.0, 1.6202138294577754E9, 2021-05-05 13:23:49.457
52.0, 353.1026611328125, -1255.0599365234375, 447.14617919921875, 498.3547668457031, -0.08000000566244125, 0.04800000041723251, 1.040000081062317, 0.0, 0.0, 0.0, 0.0, 0.0, 1.6202138294577754E9, 2021-05-05 13:23:49.457
53.0, 338.49835205078125, -1251.85107421875, 437.4785461425781, 497.9844970703125, -0.08000000566244125, 0.04800000041723251, 1.040000081062317, 0.0, 0.0, 0.0, 0.0, 0.0, 1.620213829473468E9, 2021-05-05 13:23:49.473
53.0, 333.2138671875, -1261.0400390625, 427.48553466796875, 487.81573486328125, -0.08000000566244125, 0.04800000041723251, 1.040000081062317, 0.0, 0.0, 0.0, 0.0, 0.0, 1.620213829473468E9, 2021-05-05 13:23:49.473
54.0, 336.08984375, -1247.6661376953125, 435.881591796875, 494.6784362792969, -0.08000000566244125, 0.04800000041723251, 1.040000081062317, 0.0, 0.0, 0.0, 0.0, 0.0, 1.620213829474252E9, 2021-05-05 13:23:49.474
54.0, 338.8461608886719, -1239.9058837890625, 437.5645446777344, 487.7558898925781, -0.08000000566244125, 0.04800000041723251, 1.040000081062317, 0.0, 0.0, 0.0, 0.0, 0.0, 1.620213829474252E9, 2021-05-05 13:23:49.474
55.0, 323.93890380859375, -1245.0257568359375, 431.7340393066406, 495.5236511230469, -0.08000000566244125, 0.04800000041723251, 1.040000081062317, 0.0, 0.0, 0.0, 0.0, 0.0, 1.620213829487904E9, 2021-05-05 13:23:49.487
55.0, 319.234130859375, -1256.3538818359375, 415.11767578125, 468.1924743652344, -0.08000000566244125, 0.04800000041723251, 1.040000081062317, 0.0, 0.0, 0.0, 0.0, 0.0, 1.620213829487904E9, 2021-05-05 13:23:49.487
56.0, 335.06884765625, -1248.0401611328125, 426.3111877441406, 480.65380859375, -0.08000000566244125, 0.04800000041723251, 1.040000081062317, 0.0, 0.0, 0.0, 0.0, 0.0, 1.6202138295031943E9, 2021-05-05 13:23:49.503
56.0, 329.328125, -1246.742431640625, 427.5902404785156, 479.6216125488281, -0.08000000566244125, 0.04800000041723251, 1.040000081062317, 0.0, 0.0, 0.0, 0.0, 0.0, 1.6202138295031943E9, 2021-05-05 13:23:49.503
57.0, 338.02337646484375, -1247.8531494140625, 429.1684875488281, 489.19573974609375, -0.08000000566244125, 0.04800000041723251, 1.040000081062317, 0.0, 0.0, 0.0, 0.0, 0.0, 1.620213829534838E9, 2021-05-05 13:23:49.534
57.0, 320.58795166015625, -1258.8148193359375, 417.0437316894531, 475.23095703125, -0.08000000566244125, 0.04800000041723251, 1.040000081062317, 0.0, 0.0, 0.0, 0.0, 0.0, 1.620213829534838E9, 2021-05-05 13:23:49.534
58.0, 336.87896728515625, -1244.7901611328125, 436.59967041015625, 485.62786865234375, -0.08000000566244125, 0.04800000041723251, 1.040000081062317, 0.0, 0.0, 0.0, 0.0, 0.0, 1.6202138295355713E9, 2021-05-05 13:23:49.535
58.0, 336.6807556152344, -1258.45947265625, 432.3997497558594, 484.7864074707031, -0.08000000566244125, 0.04800000041723251, 1.040000081062317, 0.0, 0.0, 0.0, 0.0, 0.0, 1.6202138295355713E9, 2021-05-05 13:23:49.535
59.0, 330.9325256347656, -1264.4246826171875, 429.2956237792969, 490.055908203125, -0.08000000566244125, 0.04800000041723251, 1.040000081062317, 0.0, 0.0, 0.0, 0.0, 0.0, 1.620213829536328E9, 2021-05-05 13:23:49.536
59.0, 323.5910949707031, -1268.718017578125, 424.81524658203125, 488.810546875, -0.08000000566244125, 0.04800000041723251, 1.040000081062317, 0.0, 0.0, 0.0, 0.0, 0.0, 1.620213829536328E9, 2021-05-05 13:23:49.536
60.0, 332.2003479003906, -1262.977294921875, 434.8269348144531, 497.8012390136719, -0.08000000566244125, 0.04800000041723251, 1.040000081062317, 0.0, 0.0, 0.0, 0.0, 0.0, 1.6202138295371037E9, 2021-05-05 13:23:49.537
60.0, 331.4785461425781, -1269.8624267578125, 432.8186340332031, 492.7000427246094, -0.08000000566244125, 0.04800000041723251, 1.040000081062317, 0.0, 0.0, 0.0, 0.0, 0.0, 1.6202138295371037E9, 2021-05-05 13:23:49.537
61.0, 322.6785583496094, -1286.9949951171875, 420.3535461425781, 488.9302062988281, -0.08000000566244125, 0.04800000041723251, 1.040000081062317, 0.0, 0.0, 0.0, 0.0, 0.0, 1.6202138295478127E9, 2021-05-05 13:23:49.547
61.0, 310.43414306640625, -1290.0504150390625, 412.3763427734375, 473.293701171875, -0.08000000566244125, 0.04800000041723251, 1.040000081062317, 0.0, 0.0, 0.0, 0.0, 0.0, 1.6202138295478127E9, 2021-05-05 13:23:49.547
62.0, 318.59832763671875, -1274.6046142578125, 424.4674377441406, 480.8370666503906, -0.08000000566244125, 0.04800000041723251, 1.040000081062317, 0.0, 0.0, 0.0, 0.0, 0.0, 1.6202138295635068E9, 2021-05-05 13:23:49.563
62.0, 317.3641662597656, -1273.8641357421875, 416.9389953613281, 479.374755859375, -0.08000000566244125, 0.04800000041723251, 1.040000081062317, 0.0, 0.0, 0.0, 0.0, 0.0, 1.6202138295635068E9, 2021-05-05 13:23:49.563
63.0, 293.16326904296875, -1280.9512939453125, 404.02886962890625, 468.46173095703125, -0.08000000566244125, 0.04800000041723251, 1.040000081062317, 0.0, 0.0, 0.0, 0.0, 0.0, 1.6202138295641856E9, 2021-05-05 13:23:49.564
63.0, 300.4261779785156, -1266.2796630859375, 409.7060546875, 475.4254455566406, -0.08000000566244125, 0.04800000041723251, 1.040000081062317, 0.0, 0.0, 0.0, 0.0, 0.0, 1.6202138295641856E9, 2021-05-05 13:23:49.564
64.0, 308.8783264160156, -1256.2567138671875, 418.9510803222656, 478.78759765625, -0.08000000566244125, 0.04800000041723251, 1.040000081062317, 0.0, 0.0, 0.0, 0.0, 0.0, 1.6202138295777824E9, 2021-05-05 13:23:49.577
64.0, 312.5621337890625, -1256.2342529296875, 415.7796325683594, 477.5160217285156, -0.08000000566244125, 0.04800000041723251, 1.040000081062317, 0.0, 0.0, 0.0, 0.0, 0.0, 1.6202138295777824E9, 2021-05-05 13:23:49.577
65.0, 297.1387939453125, -1283.9581298828125, 400.01220703125, 464.0935363769531, -0.08000000566244125, 0.04800000041723251, 1.040000081062317, 0.0, 0.0, 0.0, 0.0, 0.0, 1.6202138295934646E9, 2021-05-05 13:23:49.593
65.0, 293.6831359863281, -1279.15234375, 405.8763732910156, 466.2888488769531, -0.08000000566244125, 0.04800000041723251, 1.040000081062317, 0.0, 0.0, 0.0, 0.0, 0.0, 1.6202138295934646E9, 2021-05-05 13:23:49.593
66.0, 327.4057922363281, -1269.6978759765625, 426.6066589355469, 475.38055419921875, -0.08000000566244125, 0.04800000041723251, 1.040000081062317, 0.0, 0.0, 0.0, 0.0, 0.0, 1.6202138295941849E9, 2021-05-05 13:23:49.594
66.0, 315.16510009765625, -1265.1090087890625, 423.4501647949219, 480.1938171386719, -0.08000000566244125, 0.04800000041723251, 1.040000081062317, 0.0, 0.0, 0.0, 0.0, 0.0, 1.6202138295941849E9, 2021-05-05 13:23:49.594
67.0, 314.3385925292969, -1281.321533203125, 419.1156311035156, 475.72088623046875, -0.08000000566244125, 0.04800000041723251, 1.040000081062317, 0.0, 0.0, 0.0, 0.0, 0.0, 1.6202138296078415E9, 2021-05-05 13:23:49.607
67.0, 320.51690673828125, -1274.09228515625, 421.25860595703125, 477.2542419433594, -0.08000000566244125, 0.04800000041723251, 1.040000081062317, 0.0, 0.0, 0.0, 0.0, 0.0, 1.6202138296078415E9, 2021-05-05 13:23:49.607
68.0, 326.182861328125, -1269.6717529296875, 432.36236572265625, 489.00128173828125, -0.08000000566244125, 0.04800000041723251, 1.040000081062317, 0.0, 0.0, 0.0, 0.0, 0.0, 1.6202138296395495E9, 2021-05-05 13:23:49.639
68.0, 324.9786071777344, -1268.89013671875, 431.068359375, 482.9613342285156, -0.08000000566244125, 0.04800000041723251, 1.040000081062317, 0.0, 0.0, 0.0, 0.0, 0.0, 1.6202138296395495E9, 2021-05-05 13:23:49.639
69.0, 311.9674987792969, -1277.589111328125, 420.2189025878906, 485.665283203125, -0.08000000566244125, 0.04800000041723251, 1.040000081062317, 0.0, 0.0, 0.0, 0.0, 0.0, 1.6202138296403005E9, 2021-05-05 13:23:49.640
69.0, 317.9625549316406, -1275.831298828125, 422.62738037109375, 488.212158203125, -0.08000000566244125, 0.04800000041723251, 1.040000081062317, 0.0, 0.0, 0.0, 0.0, 0.0, 1.6202138296403005E9, 2021-05-05 13:23:49.640
70.0, 325.48724365234375, -1261.40283203125, 430.810302734375, 489.44256591796875, -0.08000000566244125, 0.04800000041723251, 1.040000081062317, 0.0, 0.0, 0.0, 0.0, 0.0, 1.62021382964104E9, 2021-05-05 13:23:49.641
70.0, 333.75616455078125, -1260.0228271484375, 438.6491394042969, 495.3852844238281, -0.08000000566244125, 0.04800000041723251, 1.040000081062317, 0.0, 0.0, 0.0, 0.0, 0.0, 1.62021382964104E9, 2021-05-05 13:23:49.641
71.0, 324.0174560546875, -1271.1527099609375, 421.4455871582031, 491.3798522949219, -0.08000000566244125, 0.04800000041723251, 1.040000081062317, 0.0, 0.0, 0.0, 0.0, 0.0, 1.6202138296534274E9, 2021-05-05 13:23:49.653
71.0, 314.2712707519531, -1282.881103515625, 420.2301330566406, 485.0369873046875, -0.08000000566244125, 0.04800000041723251, 1.040000081062317, 0.0, 0.0, 0.0, 0.0, 0.0, 1.6202138296534274E9, 2021-05-05 13:23:49.653
72.0, 324.70184326171875, -1269.488525390625, 432.7064208984375, 486.2038269042969, -0.08000000566244125, 0.04800000041723251, 1.040000081062317, 0.0, 0.0, 0.0, 0.0, 0.0, 1.6202138296541495E9, 2021-05-05 13:23:49.654
72.0, 312.72296142578125, -1271.1826171875, 426.87591552734375, 488.8479309082031, -0.08000000566244125, 0.04800000041723251, 1.040000081062317, 0.0, 0.0, 0.0, 0.0, 0.0, 1.6202138296541495E9, 2021-05-05 13:23:49.654
73.0, 296.3721008300781, -1281.6243896484375, 412.2379455566406, 477.40008544921875, -0.08000000566244125, 0.04800000041723251, 1.040000081062317, 0.0, 0.0, 0.0, 0.0, 0.0, 1.6202138296842902E9, 2021-05-05 13:23:49.684
73.0, 278.188720703125, -1307.02587890625, 391.0962829589844, 454.2388916015625, -0.08000000566244125, 0.04800000041723251, 1.040000081062317, 0.0, 0.0, 0.0, 0.0, 0.0, 1.6202138296842902E9, 2021-05-05 13:23:49.684
74.0, 280.5560607910156, -1305.361572265625, 393.5459289550781, 456.9615478515625, -0.08000000566244125, 0.04800000041723251, 1.040000081062317, 0.0, 0.0, 0.0, 0.0, 0.0, 1.6202138296848772E9, 2021-05-05 13:23:49.684
74.0, 257.6117858886719, -1336.780517578125, 372.3893127441406, 440.20306396484375, -0.08000000566244125, 0.04800000041723251, 1.040000081062317, 0.0, 0.0, 0.0, 0.0, 0.0, 1.6202138296848772E9, 2021-05-05 13:23:49.684
75.0, 230.13099670410156, -1356.231689453125, 340.81707763671875, 421.13330078125, -0.08000000566244125, 0.04800000041723251, 1.040000081062317, 0.0, 0.0, 0.0, 0.0, 0.0, 1.6202138296856592E9, 2021-05-05 13:23:49.685
75.0, 236.2719268798828, -1363.3748779296875, 339.59039306640625, 421.1557312011719, -0.08000000566244125, 0.04800000041723251, 1.040000081062317, 0.0, 0.0, 0.0, 0.0, 0.0, 1.6202138296856592E9, 2021-05-05 13:23:49.685
76.0, 262.8700866699219, -1332.1766357421875, 361.9549865722656, 426.4439697265625, -0.08000000566244125, 0.04800000041723251, 1.040000081062317, 0.0, 0.0, 0.0, 0.0, 0.0, 1.6202138297141395E9, 2021-05-05 13:23:49.714
76.0, 288.2228698730469, -1314.879638671875, 391.5712585449219, 457.83294677734375, -0.08000000566244125, 0.04800000041723251, 1.040000081062317, 0.0, 0.0, 0.0, 0.0, 0.0, 1.6202138297141395E9, 2021-05-05 13:23:49.714
77.0, 271.3970642089844, -1320.7923583984375, 380.7816467285156, 447.9334411621094, -0.08000000566244125, 0.04800000041723251, 1.040000081062317, 0.0, 0.0, 0.0, 0.0, 0.0, 1.6202138297148557E9, 2021-05-05 13:23:49.714
77.0, 293.6419982910156, -1296.11279296875, 409.0552978515625, 475.2122497558594, -0.08000000566244125, 0.04800000041723251, 1.040000081062317, 0.0, 0.0, 0.0, 0.0, 0.0, 1.6202138297148557E9, 2021-05-05 13:23:49.714
78.0, 333.10540771484375, -1265.935546875, 436.0274658203125, 496.00982666015625, -0.08000000566244125, 0.04800000041723251, 1.040000081062317, 0.0, 0.0, 0.0, 0.0, 0.0, 1.6202138297156453E9, 2021-05-05 13:23:49.715
78.0, 341.6510925292969, -1246.6826171875, 453.7059631347656, 506.10009765625, -0.08000000566244125, 0.04800000041723251, 1.040000081062317, 0.0, 0.0, 0.0, 0.0, 0.0, 1.6202138297156453E9, 2021-05-05 13:23:49.715
79.0, 341.8044128417969, -1254.8280029296875, 456.7091064453125, 502.7715759277344, -0.08000000566244125, 0.04800000041723251, 1.040000081062317, 0.0, 0.0, 0.0, 0.0, 0.0, 1.6202138297441337E9, 2021-05-05 13:23:49.744
79.0, 348.98876953125, -1240.990478515625, 457.266357421875, 507.59979248046875, -0.08000000566244125, 0.04800000041723251, 1.040000081062317, 0.0, 0.0, 0.0, 0.0, 0.0, 1.6202138297441337E9, 2021-05-05 13:23:49.744
80.0, 380.0635986328125, -1223.8504638671875, 472.8617248535156, 518.883056640625, -0.08000000566244125, 0.04800000041723251, 1.040000081062317, 0.0, 0.0, 0.0, 0.0, 0.0, 1.620213829744871E9, 2021-05-05 13:23:49.744
80.0, 364.47943115234375, -1227.321044921875, 465.9541320800781, 520.2481079101562, -0.08000000566244125, 0.04800000041723251, 1.040000081062317, 0.0, 0.0, 0.0, 0.0, 0.0, 1.620213829744871E9, 2021-05-05 13:23:49.744
81.0, 345.5106506347656, -1261.58984375, 449.6556396484375, 505.9729309082031, -0.08000000566244125, 0.04800000041723251, 1.040000081062317, 0.0, 0.0, 0.0, 0.0, 0.0, 1.6202138297457728E9, 2021-05-05 13:23:49.745
81.0, 339.6278076171875, -1257.19921875, 448.6944885253906, 497.4422302246094, -0.08000000566244125, 0.04800000041723251, 1.040000081062317, 0.0, 0.0, 0.0, 0.0, 0.0, 1.6202138297457728E9, 2021-05-05 13:23:49.745
82.0, 350.7689514160156, -1255.5648193359375, 444.80126953125, 494.71209716796875, -0.08000000566244125, 0.04800000041723251, 1.040000081062317, 0.0, 0.0, 0.0, 0.0, 0.0, 1.6202138297579105E9, 2021-05-05 13:23:49.757
82.0, 330.3977355957031, -1258.384765625, 433.5030212402344, 489.88763427734375, -0.08000000566244125, 0.04800000041723251, 1.040000081062317, 0.0, 0.0, 0.0, 0.0, 0.0, 1.6202138297579105E9, 2021-05-05 13:23:49.757
83.0, 303.5227966308594, -1278.1724853515625, 409.53399658203125, 469.47900390625, -0.08000000566244125, 0.04800000041723251, 1.040000081062317, 0.0, 0.0, 0.0, 0.0, 0.0, 1.6202138297735083E9, 2021-05-05 13:23:49.773
83.0, 300.1867980957031, -1295.877197265625, 397.45037841796875, 466.4908142089844, -0.08000000566244125, 0.04800000041723251, 1.040000081062317, 0.0, 0.0, 0.0, 0.0, 0.0, 1.6202138297735083E9, 2021-05-05 13:23:49.773
84.0, 312.427490234375, -1288.797607421875, 403.9540710449219, 466.2589416503906, -0.08000000566244125, 0.04800000041723251, 1.040000081062317, 0.0, 0.0, 0.0, 0.0, 0.0, 1.620213829774167E9, 2021-05-05 13:23:49.774
84.0, 311.32421875, -1284.59765625, 406.20550537109375, 473.97808837890625, -0.08000000566244125, 0.04800000041723251, 1.040000081062317, 0.0, 0.0, 0.0, 0.0, 0.0, 1.620213829774167E9, 2021-05-05 13:23:49.774
85.0, 293.67938232421875, -1297.919189453125, 394.8511657714844, 470.4476318359375, -0.08000000566244125, 0.04800000041723251, 1.040000081062317, 0.0, 0.0, 0.0, 0.0, 0.0, 1.620213829804152E9, 2021-05-05 13:23:49.804
85.0, 294.7489929199219, -1308.895751953125, 390.3296203613281, 468.2897033691406, -0.08000000566244125, 0.04800000041723251, 1.040000081062317, 0.0, 0.0, 0.0, 0.0, 0.0, 1.620213829804152E9, 2021-05-05 13:23:49.804
86.0, 295.7026672363281, -1299.5123291015625, 403.662353515625, 466.4908142089844, -0.08000000566244125, 0.04800000041723251, 1.040000081062317, 0.0, 0.0, 0.0, 0.0, 0.0, 1.6202138298048544E9, 2021-05-05 13:23:49.804
86.0, 311.8627624511719, -1290.1065673828125, 414.1041564941406, 475.43292236328125, -0.08000000566244125, 0.04800000041723251, 1.040000081062317, 0.0, 0.0, 0.0, 0.0, 0.0, 1.6202138298048544E9, 2021-05-05 13:23:49.804
87.0, 295.75128173828125, -1300.0621337890625, 406.3363952636719, 473.3273620605469, -0.08000000566244125, 0.04800000041723251, 1.040000081062317, 0.0, 0.0, 0.0, 0.0, 0.0, 1.620213829805635E9, 2021-05-05 13:23:49.805
87.0, 300.912353515625, -1294.9346923828125, 412.8475646972656, 476.39031982421875, -0.08000000566244125, 0.04800000041723251, 1.040000081062317, 0.0, 0.0, 0.0, 0.0, 0.0, 1.620213829805635E9, 2021-05-05 13:23:49.805
88.0, 306.5596008300781, -1288.0682373046875, 416.98388671875, 472.75140380859375, -0.08000000566244125, 0.04800000041723251, 1.040000081062317, 0.0, 0.0, 0.0, 0.0, 0.0, 1.6202138298177817E9, 2021-05-05 13:23:49.817
88.0, 313.94964599609375, -1283.8421630859375, 424.53472900390625, 480.2012939453125, -0.08000000566244125, 0.04800000041723251, 1.040000081062317, 0.0, 0.0, 0.0, 0.0, 0.0, 1.6202138298177817E9, 2021-05-05 13:23:49.817
89.0, 302.7261962890625, -1293.5584716796875, 416.5089111328125, 474.5802001953125, -0.08000000566244125, 0.04800000041723251, 1.040000081062317, 0.0, 0.0, 0.0, 0.0, 0.0, 1.620213829833471E9, 2021-05-05 13:23:49.833
89.0, 306.2604064941406, -1293.8988037109375, 416.5089111328125, 471.6967468261719, -0.08000000566244125, 0.04800000041723251, 1.040000081062317, 0.0, 0.0, 0.0, 0.0, 0.0, 1.620213829833471E9, 2021-05-05 13:23:49.833
90.0, 326.9831848144531, -1281.4598388671875, 427.8632507324219, 478.97833251953125, -0.08000000566244125, 0.04800000041723251, 1.055999994277954, 0.0, 0.0, 0.0, 0.0, 0.0, 1.6202138298341496E9, 2021-05-05 13:23:49.834
90.0, 318.7928161621094, -1273.5911865234375, 428.0166015625, 484.0496520996094, -0.08000000566244125, 0.04800000041723251, 1.055999994277954, 0.0, 0.0, 0.0, 0.0, 0.0, 1.6202138298341496E9, 2021-05-05 13:23:49.834
91.0, 318.56842041015625, -1278.00048828125, 419.7364501953125, 474.03045654296875, -0.08000000566244125, 0.04800000041723251, 1.055999994277954, 0.0, 0.0, 0.0, 0.0, 0.0, 1.6202138298639715E9, 2021-05-05 13:23:49.863
91.0, 311.0362548828125, -1282.6453857421875, 410.1136779785156, 472.10064697265625, -0.08000000566244125, 0.04800000041723251, 1.055999994277954, 0.0, 0.0, 0.0, 0.0, 0.0, 1.6202138298639715E9, 2021-05-05 13:23:49.863
92.0, 327.68255615234375, -1269.200439453125, 424.51605224609375, 480.79217529296875, -0.08000000566244125, 0.04800000041723251, 1.055999994277954, 0.0, 0.0, 0.0, 0.0, 0.0, 1.6202138298646443E9, 2021-05-05 13:23:49.864
92.0, 322.614990234375, -1270.4122314453125, 425.4809265136719, 485.89715576171875, -0.08000000566244125, 0.04800000041723251, 1.055999994277954, 0.0, 0.0, 0.0, 0.0, 0.0, 1.6202138298646443E9, 2021-05-05 13:23:49.864
93.0, 306.36138916015625, -1278.8868408203125, 412.6194152832031, 476.1509704589844, -0.08000000566244125, 0.04800000041723251, 1.055999994277954, 0.0, 0.0, 0.0, 0.0, 0.0, 1.6202138298785284E9, 2021-05-05 13:23:49.878
93.0, 308.4145812988281, -1284.8145751953125, 416.92779541015625, 481.3382263183594, -0.08000000566244125, 0.04800000041723251, 1.055999994277954, 0.0, 0.0, 0.0, 0.0, 0.0, 1.6202138298785284E9, 2021-05-05 13:23:49.878
94.0, 313.5419921875, -1274.559814453125, 425.2939453125, 482.3891296386719, -0.08000000566244125, 0.04800000041723251, 1.055999994277954, 0.0, 0.0, 0.0, 0.0, 0.0, 1.6202138298792326E9, 2021-05-05 13:23:49.879
94.0, 324.2680358886719, -1264.45458984375, 439.7972717285156, 497.2253112792969, -0.08000000566244125, 0.04800000041723251, 1.055999994277954, 0.0, 0.0, 0.0, 0.0, 0.0, 1.6202138298792326E9, 2021-05-05 13:23:49.879
95.0, 301.0806579589844, -1283.9918212890625, 425.1817321777344, 487.81573486328125, -0.08000000566244125, 0.04800000041723251, 1.055999994277954, 0.0, 0.0, 0.0, 0.0, 0.0, 1.6202138298935099E9, 2021-05-05 13:23:49.893
95.0, 309.2972106933594, -1286.733154296875, 425.15557861328125, 490.2765808105469, -0.08000000566244125, 0.04800000041723251, 1.055999994277954, 0.0, 0.0, 0.0, 0.0, 0.0, 1.6202138298935099E9, 2021-05-05 13:23:49.893
96.0, 325.0047912597656, -1272.779541015625, 437.59820556640625, 493.552734375, -0.08000000566244125, 0.04800000041723251, 1.055999994277954, 0.0, 0.0, 0.0, 0.0, 0.0, 1.620213829894278E9, 2021-05-05 13:23:49.894
96.0, 332.85858154296875, -1274.690673828125, 436.573486328125, 497.5731201171875, -0.08000000566244125, 0.04800000041723251, 1.055999994277954, 0.0, 0.0, 0.0, 0.0, 0.0, 1.620213829894278E9, 2021-05-05 13:23:49.894
97.0, 318.99102783203125, -1271.36962890625, 430.90753173828125, 495.5086975097656, -0.08000000566244125, 0.04800000041723251, 1.055999994277954, 0.0, 0.0, 0.0, 0.0, 0.0, 1.6202138299238594E9, 2021-05-05 13:23:49.923
97.0, 310.43414306640625, -1279.8404541015625, 428.11383056640625, 488.7394714355469, -0.08000000566244125, 0.04800000041723251, 1.055999994277954, 0.0, 0.0, 0.0, 0.0, 0.0, 1.6202138299238594E9, 2021-05-05 13:23:49.923
98.0, 330.3565979003906, -1267.28564453125, 443.10333251953125, 494.7756652832031, -0.08000000566244125, 0.04800000041723251, 1.055999994277954, 0.0, 0.0, 0.0, 0.0, 0.0, 1.6202138299247124E9, 2021-05-05 13:23:49.924
98.0, 340.94049072265625, -1271.6427001953125, 441.5101623535156, 494.2707824707031, -0.08000000566244125, 0.04800000041723251, 1.055999994277954, 0.0, 0.0, 0.0, 0.0, 0.0, 1.6202138299247124E9, 2021-05-05 13:23:49.924
99.0, 322.450439453125, -1284.16015625, 425.49591064453125, 485.52691650390625, -0.08000000566244125, 0.04800000041723251, 1.055999994277954, 0.0, 0.0, 0.0, 0.0, 0.0, 1.6202138299390988E9, 2021-05-05 13:23:49.939
99.0, 323.43402099609375, -1276.9271240234375, 421.6250915527344, 486.4394226074219, -0.08000000566244125, 0.04800000041723251, 1.055999994277954, 0.0, 0.0, 0.0, 0.0, 0.0, 1.6202138299390988E9, 2021-05-05 13:23:49.939
100.0, 336.6470947265625, -1273.856689453125, 434.0715026855469, 489.06109619140625, -0.08000000566244125, 0.04800000041723251, 1.055999994277954, 0.0, 0.0, 0.0, 0.0, 0.0, 1.620213829939885E9, 2021-05-05 13:23:49.939
100.0, 335.47650146484375, -1276.6541748046875, 431.1842956542969, 490.2840576171875, -0.08000000566244125, 0.04800000041723251, 1.055999994277954, 0.0, 0.0, 0.0, 0.0, 0.0, 1.620213829939885E9, 2021-05-05 13:23:49.939
0.0, 311.2980651855469, -1282.4434814453125, 413.6778259277344, 476.2893371582031, -0.08000000566244125, 0.04800000041723251, 1.055999994277954, 0.0, 0.0, 0.0, 0.0, 0.0, 1.6202138299406831E9, 2021-05-05 13:23:49.940
1.0, 313.7551574707031, -1279.653564453125, 414.08544921875, 478.9708557128906, -0.08000000566244125, 0.04800000041723251, 1.055999994277954, 0.0, 0.0, 0.0, 0.0, 0.0, 1.6202138299527392E9, 2021-05-05 13:23:49.952
1.0, 326.7363586425781, -1263.975830078125, 426.1615905761719, 479.75250244140625, -0.08000000566244125, 0.04800000041723251, 1.055999994277954, 0.0, 0.0, 0.0, 0.0, 0.0, 1.6202138299527392E9, 2021-05-05 13:23:49.952
2.0, 325.43487548828125, -1266.272216796875, 429.1123962402344, 486.78350830078125, -0.08000000566244125, 0.04800000041723251, 1.055999994277954, 0.0, 0.0, 0.0, 0.0, 0.0, 1.6202138299684377E9, 2021-05-05 13:23:49.968
2.0, 319.8624267578125, -1274.5897216796875, 423.10235595703125, 491.0544738769531, -0.08000000566244125, 0.04800000041723251, 1.055999994277954, 0.0, 0.0, 0.0, 0.0, 0.0, 1.6202138299684377E9, 2021-05-05 13:23:49.968
3.0, 315.1912841796875, -1284.0703125, 423.2145690917969, 485.73260498046875, -0.08000000566244125, 0.04800000041723251, 1.055999994277954, 0.0, 0.0, 0.0, 0.0, 0.0, 1.6202138299691448E9, 2021-05-05 13:23:49.969
3.0, 327.30108642578125, -1274.9224853515625, 431.1693115234375, 494.8841247558594, -0.08000000566244125, 0.04800000041723251, 1.055999994277954, 0.0, 0.0, 0.0, 0.0, 0.0, 1.6202138299691448E9, 2021-05-05 13:23:49.969
4.0, 326.6690368652344, -1271.1077880859375, 439.7299499511719, 501.5037536621094, -0.08000000566244125, 0.04800000041723251, 1.055999994277954, 0.0, 0.0, 0.0, 0.0, 0.0, 1.6202138299828057E9, 2021-05-05 13:23:49.982
4.0, 307.109375, -1285.4840087890625, 416.31817626953125, 484.6106262207031, -0.08000000566244125, 0.04800000041723251, 1.055999994277954, 0.0, 0.0, 0.0, 0.0, 0.0, 1.6202138299828057E9, 2021-05-05 13:23:49.982
5.0, 329.3692626953125, -1276.826171875, 422.7919616699219, 493.9416809082031, -0.08000000566244125, 0.04800000041723251, 1.055999994277954, 0.0, 0.0, 0.0, 0.0, 0.0, 1.6202138299984248E9, 2021-05-05 13:23:49.998
5.0, 324.0885009765625, -1276.710205078125, 426.2401428222656, 484.6779479980469, -0.08000000566244125, 0.04800000041723251, 1.055999994277954, 0.0, 0.0, 0.0, 0.0, 0.0, 1.6202138299984248E9, 2021-05-05 13:23:49.998
6.0, 330.76422119140625, -1267.401611328125, 431.6966552734375, 493.283447265625, -0.08000000566244125, 0.04800000041723251, 1.055999994277954, 0.0, 0.0, 0.0, 0.0, 0.0, 1.620213829999159E9, 2021-05-05 13:23:49.999
6.0, 329.3505554199219, -1273.318115234375, 426.4757385253906, 490.42242431640625, -0.08000000566244125, 0.04800000041723251, 1.055999994277954, 0.0, 0.0, 0.0, 0.0, 0.0, 1.620213829999159E9, 2021-05-05 13:23:49.999
7.0, 312.8201904296875, -1288.3824462890625, 421.8569641113281, 486.74237060546875, -0.08000000566244125, 0.04800000041723251, 1.055999994277954, 0.0, 0.0, 0.0, 0.0, 0.0, 1.6202138300128496E9, 2021-05-05 13:23:50.012
7.0, 337.9186706542969, -1257.3748779296875, 438.7912292480469, 498.8895568847656, -0.08000000566244125, 0.04800000041723251, 1.055999994277954, 0.0, 0.0, 0.0, 0.0, 0.0, 1.6202138300128496E9, 2021-05-05 13:23:50.012
8.0, 333.2437744140625, -1265.5203857421875, 442.830322265625, 500.4790344238281, -0.08000000566244125, 0.04800000041723251, 1.055999994277954, 0.0, 0.0, 0.0, 0.0, 0.0, 1.620213830028416E9, 2021-05-05 13:23:50.028
8.0, 336.33294677734375, -1273.7332763671875, 437.80389404296875, 497.4384765625, -0.08000000566244125, 0.04800000041723251, 1.055999994277954, 0.0, 0.0, 0.0, 0.0, 0.0, 1.620213830028416E9, 2021-05-05 13:23:50.028
9.0, 327.2375183105469, -1266.8780517578125, 440.07403564453125, 496.9784851074219, -0.08000000566244125, 0.04800000041723251, 1.055999994277954, 0.0, 0.0, 0.0, 0.0, 0.0, 1.6202138300291507E9, 2021-05-05 13:23:50.029
9.0, 343.9473876953125, -1251.4097900390625, 449.4387512207031, 504.7911376953125, -0.08000000566244125, 0.04800000041723251, 1.055999994277954, 0.0, 0.0, 0.0, 0.0, 0.0, 1.6202138300291507E9, 2021-05-05 13:23:50.029
10.0, 338.9658203125, -1249.652099609375, 452.3184509277344, 505.0155334472656, -0.08000000566244125, 0.04800000041723251, 1.040000081062317, 0.0, 0.0, 0.0, 0.0, 0.0, 1.6202138300427573E9, 2021-05-05 13:23:50.042
10.0, 342.1036071777344, -1256.0247802734375, 448.4775695800781, 504.1889953613281, -0.08000000566244125, 0.04800000041723251, 1.040000081062317, 0.0, 0.0, 0.0, 0.0, 0.0, 1.6202138300427573E9, 2021-05-05 13:23:50.042
11.0, 335.4839782714844, -1263.822509765625, 443.7316589355469, 501.5, -0.08000000566244125, 0.04800000041723251, 1.040000081062317, 0.0, 0.0, 0.0, 0.0, 0.0, 1.6202138300584607E9, 2021-05-05 13:23:50.058
11.0, 350.5333557128906, -1249.4874267578125, 454.18841552734375, 502.0684814453125, -0.08000000566244125, 0.04800000041723251, 1.040000081062317, 0.0, 0.0, 0.0, 0.0, 0.0, 1.6202138300584607E9, 2021-05-05 13:23:50.058
12.0, 356.05718994140625, -1249.7305908203125, 456.5146179199219, 509.5408020019531, -0.08000000566244125, 0.04800000041723251, 1.040000081062317, 0.0, 0.0, 0.0, 0.0, 0.0, 1.6202138300592303E9, 2021-05-05 13:23:50.059
12.0, 331.7515563964844, -1260.19482421875, 437.52716064453125, 495.3179626464844, -0.08000000566244125, 0.04800000041723251, 1.040000081062317, 0.0, 0.0, 0.0, 0.0, 0.0, 1.6202138300592303E9, 2021-05-05 13:23:50.059
13.0, 342.8441162109375, -1255.1572265625, 442.1235046386719, 506.93035888671875, -0.08000000566244125, 0.04800000041723251, 1.040000081062317, 0.0, 0.0, 0.0, 0.0, 0.0, 1.620213830072766E9, 2021-05-05 13:23:50.072
13.0, 365.7958679199219, -1238.619384765625, 452.0304870605469, 512.8955078125, -0.08000000566244125, 0.04800000041723251, 1.040000081062317, 0.0, 0.0, 0.0, 0.0, 0.0, 1.620213830072766E9, 2021-05-05 13:23:50.072
14.0, 367.2357482910156, -1243.42138671875, 452.9729309082031, 510.3299255371094, -0.08000000566244125, 0.04800000041723251, 1.040000081062317, 0.0, 0.0, 0.0, 0.0, 0.0, 1.6202138300884855E9, 2021-05-05 13:23:50.088
14.0, 353.54022216796875, -1249.8240966796875, 445.0181884765625, 508.6282653808594, -0.08000000566244125, 0.04800000041723251, 1.040000081062317, 0.0, 0.0, 0.0, 0.0, 0.0, 1.6202138300884855E9, 2021-05-05 13:23:50.088
15.0, 339.01446533203125, -1251.4359130859375, 436.1471252441406, 501.61968994140625, -0.08000000566244125, 0.04800000041723251, 1.040000081062317, 0.0, 0.0, 0.0, 0.0, 0.0, 1.620213830089162E9, 2021-05-05 13:23:50.089
15.0, 364.5392761230469, -1240.145263671875, 460.10491943359375, 513.2171020507812, -0.08000000566244125, 0.04800000041723251, 1.040000081062317, 0.0, 0.0, 0.0, 0.0, 0.0, 1.620213830089162E9, 2021-05-05 13:23:50.089
16.0, 361.96246337890625, -1230.428955078125, 465.2846984863281, 521.5682983398438, -0.08000000566244125, 0.04800000041723251, 1.040000081062317, 0.0, 0.0, 0.0, 0.0, 0.0, 1.6202138301027703E9, 2021-05-05 13:23:50.102
16.0, 362.53466796875, -1236.82421875, 463.3773498535156, 515.7789306640625, -0.08000000566244125, 0.04800000041723251, 1.040000081062317, 0.0, 0.0, 0.0, 0.0, 0.0, 1.6202138301027703E9, 2021-05-05 13:23:50.102
17.0, 353.7384338378906, -1249.573486328125, 451.56298828125, 501.9151306152344, -0.08000000566244125, 0.04800000041723251, 1.040000081062317, 0.0, 0.0, 0.0, 0.0, 0.0, 1.6202138301191525E9, 2021-05-05 13:23:50.119
17.0, 366.31573486328125, -1231.7529296875, 467.02374267578125, 510.24017333984375, -0.08000000566244125, 0.04800000041723251, 1.040000081062317, 0.0, 0.0, 0.0, 0.0, 0.0, 1.6202138301191525E9, 2021-05-05 13:23:50.119
18.0, 365.7435302734375, -1225.641845703125, 468.71417236328125, 511.19384765625, -0.08000000566244125, 0.04800000041723251, 1.040000081062317, 0.0, 0.0, 0.0, 0.0, 0.0, 1.6202138301198902E9, 2021-05-05 13:23:50.119
18.0, 350.0696105957031, -1251.1517333984375, 453.13751220703125, 500.748291015625, -0.08000000566244125, 0.04800000041723251, 1.040000081062317, 0.0, 0.0, 0.0, 0.0, 0.0, 1.6202138301198902E9, 2021-05-05 13:23:50.119
19.0, 353.8880310058594, -1255.534912109375, 444.8648376464844, 491.2302551269531, -0.08000000566244125, 0.04800000041723251, 1.040000081062317, 0.0, 0.0, 0.0, 0.0, 0.0, 1.6202138301327271E9, 2021-05-05 13:23:50.132
19.0, 367.69573974609375, -1238.095703125, 458.17889404296875, 499.7572326660156, -0.08000000566244125, 0.04800000041723251, 1.040000081062317, 0.0, 0.0, 0.0, 0.0, 0.0, 1.6202138301327271E9, 2021-05-05 13:23:50.132
20.0, 366.5700378417969, -1239.113037109375, 464.8321533203125, 505.4792785644531, -0.08000000566244125, 0.04800000041723251, 1.055999994277954, 0.0, 0.0, 0.0, 0.0, 0.0, 1.6202138301481764E9, 2021-05-05 13:23:50.148
20.0, 358.1964111328125, -1247.36328125, 454.0051574707031, 508.2206115722656, -0.08000000566244125, 0.04800000041723251, 1.055999994277954, 0.0, 0.0, 0.0, 0.0, 0.0, 1.6202138301481764E9, 2021-05-05 13:23:50.148
21.0, 355.4400939941406, -1258.6614990234375, 443.15570068359375, 501.20831298828125, -0.08000000566244125, 0.04800000041723251, 1.055999994277954, 0.0, 0.0, 0.0, 0.0, 0.0, 1.6202138301634567E9, 2021-05-05 13:23:50.163
21.0, 360.9826354980469, -1238.9970703125, 463.45587158203125, 518.8494262695312, -0.08000000566244125, 0.04800000041723251, 1.055999994277954, 0.0, 0.0, 0.0, 0.0, 0.0, 1.6202138301634567E9, 2021-05-05 13:23:50.163
22.0, 372.9764709472656, -1238.67919921875, 459.4691467285156, 519.6871337890625, -0.08000000566244125, 0.04800000041723251, 1.055999994277954, 0.0, 0.0, 0.0, 0.0, 0.0, 1.6202138301641545E9, 2021-05-05 13:23:50.164
22.0, 339.646484375, -1253.4068603515625, 446.3907165527344, 507.7606201171875, -0.08000000566244125, 0.04800000041723251, 1.055999994277954, 0.0, 0.0, 0.0, 0.0, 0.0, 1.6202138301641545E9, 2021-05-05 13:23:50.164
23.0, 345.8771667480469, -1253.4443359375, 446.9891052246094, 513.7369384765625, -0.08000000566244125, 0.04800000041723251, 1.055999994277954, 0.0, 0.0, 0.0, 0.0, 0.0, 1.6202138301785393E9, 2021-05-05 13:23:50.178
23.0, 357.46337890625, -1248.2308349609375, 463.3137512207031, 516.24267578125, -0.08000000566244125, 0.04800000041723251, 1.055999994277954, 0.0, 0.0, 0.0, 0.0, 0.0, 1.6202138301785393E9, 2021-05-05 13:23:50.178
24.0, 375.3326110839844, -1230.9488525390625, 476.8858642578125, 528.872314453125, -0.08000000566244125, 0.04800000041723251, 1.055999994277954, 0.0, 0.0, 0.0, 0.0, 0.0, 1.6202138301793208E9, 2021-05-05 13:23:50.179
24.0, 350.3463439941406, -1246.0206298828125, 454.5923156738281, 515.3787841796875, -0.08000000566244125, 0.04800000041723251, 1.055999994277954, 0.0, 0.0, 0.0, 0.0, 0.0, 1.6202138301793208E9, 2021-05-05 13:23:50.179
25.0, 358.2786865234375, -1250.38134765625, 465.1949462890625, 515.4647827148438, -0.08000000566244125, 0.04800000041723251, 1.055999994277954, 0.0, 0.0, 0.0, 0.0, 0.0, 1.620213830208449E9, 2021-05-05 13:23:50.208
25.0, 364.6776428222656, -1231.0048828125, 479.4701232910156, 526.58349609375, -0.08000000566244125, 0.04800000041723251, 1.055999994277954, 0.0, 0.0, 0.0, 0.0, 0.0, 1.620213830208449E9, 2021-05-05 13:23:50.208
26.0, 369.12811279296875, -1235.62744140625, 482.36480712890625, 528.576904296875, -0.08000000566244125, 0.04800000041723251, 1.055999994277954, 0.0, 0.0, 0.0, 0.0, 0.0, 1.6202138302247899E9, 2021-05-05 13:23:50.224
26.0, 364.834716796875, -1245.2127685546875, 470.7711181640625, 526.1123046875, -0.08000000566244125, 0.04800000041723251, 1.055999994277954, 0.0, 0.0, 0.0, 0.0, 0.0, 1.6202138302247899E9, 2021-05-05 13:23:50.224
27.0, 355.14837646484375, -1258.728759765625, 460.2732238769531, 509.3612976074219, -0.08000000566244125, 0.04800000041723251, 1.055999994277954, 0.0, 0.0, 0.0, 0.0, 0.0, 1.6202138302255323E9, 2021-05-05 13:23:50.225
27.0, 370.99432373046875, -1235.8331298828125, 474.6755676269531, 517.379638671875, -0.08000000566244125, 0.04800000041723251, 1.055999994277954, 0.0, 0.0, 0.0, 0.0, 0.0, 1.6202138302255323E9, 2021-05-05 13:23:50.225
28.0, 376.3498840332031, -1239.453369140625, 471.7958679199219, 518.3145751953125, -0.08000000566244125, 0.04800000041723251, 1.055999994277954, 0.0, 0.0, 0.0, 0.0, 0.0, 1.6202138302263768E9, 2021-05-05 13:23:50.226
28.0, 362.73291015625, -1243.2530517578125, 464.0056457519531, 514.481201171875, -0.08000000566244125, 0.04800000041723251, 1.055999994277954, 0.0, 0.0, 0.0, 0.0, 0.0, 1.6202138302263768E9, 2021-05-05 13:23:50.226
29.0, 358.2188415527344, -1246.4468994140625, 468.35888671875, 518.1500244140625, -0.08000000566244125, 0.04800000041723251, 1.055999994277954, 0.0, 0.0, 0.0, 0.0, 0.0, 1.6202138302271447E9, 2021-05-05 13:23:50.227
29.0, 374.3527526855469, -1231.098388671875, 477.0728454589844, 521.4224853515625, -0.08000000566244125, 0.04800000041723251, 1.055999994277954, 0.0, 0.0, 0.0, 0.0, 0.0, 1.6202138302271447E9, 2021-05-05 13:23:50.227
30.0, 378.9565734863281, -1232.57568359375, 482.55181884765625, 524.7921142578125, -0.08000000566244125, 0.04800000041723251, 1.055999994277954, 0.0, 0.0, 0.0, 0.0, 0.0, 1.6202138302377763E9, 2021-05-05 13:23:50.237
30.0, 370.6390380859375, -1240.2574462890625, 473.1123046875, 528.505859375, -0.08000000566244125, 0.04800000041723251, 1.055999994277954, 0.0, 0.0, 0.0, 0.0, 0.0, 1.6202138302377763E9, 2021-05-05 13:23:50.237
31.0, 357.5045166015625, -1242.3853759765625, 467.63336181640625, 524.2199096679688, -0.08000000566244125, 0.04800000041723251, 1.055999994277954, 0.0, 0.0, 0.0, 0.0, 0.0, 1.6202138302528164E9, 2021-05-05 13:23:50.252
31.0, 383.8670654296875, -1226.412353515625, 482.9258117675781, 529.81103515625, -0.08000000566244125, 0.04800000041723251, 1.055999994277954, 0.0, 0.0, 0.0, 0.0, 0.0, 1.6202138302528164E9, 2021-05-05 13:23:50.252
32.0, 385.7781677246094, -1230.5224609375, 484.4142761230469, 530.8133544921875, -0.08000000566244125, 0.04800000041723251, 1.055999994277954, 0.0, 0.0, 0.0, 0.0, 0.0, 1.6202138302689075E9, 2021-05-05 13:23:50.268
32.0, 378.2085876464844, -1237.62451171875, 471.3882141113281, 520.8427734375, -0.08000000566244125, 0.04800000041723251, 1.055999994277954, 0.0, 0.0, 0.0, 0.0, 0.0, 1.6202138302689075E9, 2021-05-05 13:23:50.268
33.0, 367.20208740234375, -1240.264892578125, 475.19915771484375, 518.8381958007812, -0.08000000566244125, 0.04800000041723251, 1.055999994277954, 0.0, 0.0, 0.0, 0.0, 0.0, 1.6202138302836292E9, 2021-05-05 13:23:50.283
33.0, 376.60418701171875, -1228.1064453125, 480.2143859863281, 526.0337524414062, -0.08000000566244125, 0.04800000041723251, 1.055999994277954, 0.0, 0.0, 0.0, 0.0, 0.0, 1.6202138302836292E9, 2021-05-05 13:23:50.283
34.0, 378.4891052246094, -1218.562255859375, 477.701171875, 527.5858154296875, -0.08000000566244125, 0.04800000041723251, 1.055999994277954, 0.0, 0.0, 0.0, 0.0, 0.0, 1.6202138302843492E9, 2021-05-05 13:23:50.284
34.0, 363.6080322265625, -1232.010986328125, 470.8721008300781, 524.8706665039062, -0.08000000566244125, 0.04800000041723251, 1.055999994277954, 0.0, 0.0, 0.0, 0.0, 0.0, 1.6202138302843492E9, 2021-05-05 13:23:50.284
35.0, 358.3385009765625, -1231.52099609375, 469.297607421875, 519.7544555664062, -0.08000000566244125, 0.04800000041723251, 1.055999994277954, 0.0, 0.0, 0.0, 0.0, 0.0, 1.6202138302985451E9, 2021-05-05 13:23:50.298
35.0, 374.85015869140625, -1229.8118896484375, 486.26177978515625, 524.2236328125, -0.08000000566244125, 0.04800000041723251, 1.055999994277954, 0.0, 0.0, 0.0, 0.0, 0.0, 1.6202138302985451E9, 2021-05-05 13:23:50.298
36.0, 376.1553955078125, -1228.5777587890625, 486.2543029785156, 528.8424072265625, -0.08000000566244125, 0.04800000041723251, 1.055999994277954, 0.0, 0.0, 0.0, 0.0, 0.0, 1.6202138302992609E9, 2021-05-05 13:23:50.299
36.0, 362.14947509765625, -1242.8529052734375, 471.3807373046875, 526.4489135742188, -0.08000000566244125, 0.04800000041723251, 1.055999994277954, 0.0, 0.0, 0.0, 0.0, 0.0, 1.6202138302992609E9, 2021-05-05 13:23:50.299
37.0, 362.474853515625, -1246.5628662109375, 464.92193603515625, 524.855712890625, -0.08000000566244125, 0.04800000041723251, 1.055999994277954, 0.0, 0.0, 0.0, 0.0, 0.0, 1.620213830312961E9, 2021-05-05 13:23:50.312
37.0, 373.1933898925781, -1243.3577880859375, 476.235107421875, 526.7966918945312, -0.08000000566244125, 0.04800000041723251, 1.055999994277954, 0.0, 0.0, 0.0, 0.0, 0.0, 1.620213830312961E9, 2021-05-05 13:23:50.312
38.0, 381.4249267578125, -1232.33251953125, 477.701171875, 531.8343505859375, -0.08000000566244125, 0.04800000041723251, 1.055999994277954, 0.0, 0.0, 0.0, 0.0, 0.0, 1.620213830328924E9, 2021-05-05 13:23:50.328
38.0, 366.1885681152344, -1244.0047607421875, 466.6347961425781, 525.1324462890625, -0.08000000566244125, 0.04800000041723251, 1.055999994277954, 0.0, 0.0, 0.0, 0.0, 0.0, 1.620213830328924E9, 2021-05-05 13:23:50.328
39.0, 373.6384582519531, -1238.596923828125, 468.84881591796875, 523.8982543945312, -0.08000000566244125, 0.04800000041723251, 1.055999994277954, 0.0, 0.0, 0.0, 0.0, 0.0, 1.6202138303436449E9, 2021-05-05 13:23:50.343
39.0, 377.2624206542969, -1234.2998046875, 474.14453125, 524.1712646484375, -0.08000000566244125, 0.04800000041723251, 1.055999994277954, 0.0, 0.0, 0.0, 0.0, 0.0, 1.6202138303436449E9, 2021-05-05 13:23:50.343
40.0, 379.6521911621094, -1231.954833984375, 480.28167724609375, 526.2469482421875, -0.08000000566244125, 0.04800000041723251, 1.040000081062317, 0.0, 0.0, 0.0, 0.0, 0.0, 1.6202138303443086E9, 2021-05-05 13:23:50.344
40.0, 367.6209411621094, -1239.4271240234375, 469.5220031738281, 521.7440795898438, -0.08000000566244125, 0.04800000041723251, 1.040000081062317, 0.0, 0.0, 0.0, 0.0, 0.0, 1.6202138303443086E9, 2021-05-05 13:23:50.344
41.0, 360.268310546875, -1245.2950439453125, 463.9084167480469, 514.5111083984375, -0.08000000566244125, 0.04800000041723251, 1.040000081062317, 0.0, 0.0, 0.0, 0.0, 0.0, 1.6202138303585327E9, 2021-05-05 13:23:50.358
41.0, 374.6744079589844, -1236.7830810546875, 476.7325134277344, 528.3375244140625, -0.08000000566244125, 0.04800000041723251, 1.040000081062317, 0.0, 0.0, 0.0, 0.0, 0.0, 1.6202138303585327E9, 2021-05-05 13:23:50.358
42.0, 374.08349609375, -1233.95947265625, 471.2947082519531, 525.4129638671875, -0.09600000083446503, 0.04800000041723251, 1.040000081062317, 0.0, 0.0, 0.0, 0.0, 0.0, 1.6202138303591814E9, 2021-05-05 13:23:50.359
42.0, 358.6264953613281, -1242.1497802734375, 464.544189453125, 522.780029296875, -0.09600000083446503, 0.04800000041723251, 1.040000081062317, 0.0, 0.0, 0.0, 0.0, 0.0, 1.6202138303591814E9, 2021-05-05 13:23:50.359
43.0, 350.35009765625, -1247.6998291015625, 456.4136657714844, 515.9734497070312, -0.09600000083446503, 0.04800000041723251, 1.040000081062317, 0.0, 0.0, 0.0, 0.0, 0.0, 1.620213830389229E9, 2021-05-05 13:23:50.389
43.0, 369.2141418457031, -1226.4683837890625, 465.3258361816406, 523.0306396484375, -0.09600000083446503, 0.04800000041723251, 1.040000081062317, 0.0, 0.0, 0.0, 0.0, 0.0, 1.620213830389229E9, 2021-05-05 13:23:50.389
44.0, 358.10662841796875, -1232.85986328125, 462.8948974609375, 518.9466552734375, -0.09600000083446503, 0.04800000041723251, 1.040000081062317, 0.0, 0.0, 0.0, 0.0, 0.0, 1.6202138304046562E9, 2021-05-05 13:23:50.404
44.0, 347.8219299316406, -1242.789306640625, 447.5351257324219, 506.6386413574219, -0.09600000083446503, 0.04800000041723251, 1.040000081062317, 0.0, 0.0, 0.0, 0.0, 0.0, 1.6202138304046562E9, 2021-05-05 13:23:50.404
45.0, 350.86993408203125, -1254.0128173828125, 442.7667541503906, 504.9743957519531, -0.09600000083446503, 0.04800000041723251, 1.040000081062317, 0.0, 0.0, 0.0, 0.0, 0.0, 1.6202138304053185E9, 2021-05-05 13:23:50.405
45.0, 358.6414489746094, -1245.2689208984375, 455.893798828125, 509.5220947265625, -0.09600000083446503, 0.04800000041723251, 1.040000081062317, 0.0, 0.0, 0.0, 0.0, 0.0, 1.6202138304053185E9, 2021-05-05 13:23:50.405
46.0, 356.1431884765625, -1237.740478515625, 458.0367736816406, 518.3632202148438, -0.09600000083446503, 0.04800000041723251, 1.040000081062317, 0.0, 0.0, 0.0, 0.0, 0.0, 1.6202138304060514E9, 2021-05-05 13:23:50.406
46.0, 341.4192199707031, -1255.38525390625, 440.8519287109375, 501.46636962890625, -0.09600000083446503, 0.04800000041723251, 1.040000081062317, 0.0, 0.0, 0.0, 0.0, 0.0, 1.6202138304060514E9, 2021-05-05 13:23:50.406
47.0, 353.8207092285156, -1256.6942138671875, 448.5635986328125, 511.6538391113281, -0.09600000083446503, 0.04800000041723251, 1.040000081062317, 0.0, 0.0, 0.0, 0.0, 0.0, 1.6202138304512553E9, 2021-05-05 13:23:50.451
47.0, 359.42681884765625, -1241.910400390625, 463.35491943359375, 517.5740966796875, -0.09600000083446503, 0.04800000041723251, 1.040000081062317, 0.0, 0.0, 0.0, 0.0, 0.0, 1.6202138304512553E9, 2021-05-05 13:23:50.451
48.0, 351.9245910644531, -1249.880126953125, 461.71307373046875, 513.5985717773438, -0.09600000083446503, 0.04800000041723251, 1.040000081062317, 0.0, 0.0, 0.0, 0.0, 0.0, 1.6202138304519832E9, 2021-05-05 13:23:50.451
48.0, 359.26226806640625, -1249.8502197265625, 458.9156494140625, 512.68603515625, -0.09600000083446503, 0.04800000041723251, 1.040000081062317, 0.0, 0.0, 0.0, 0.0, 0.0, 1.6202138304519832E9, 2021-05-05 13:23:50.451
49.0, 355.5747375488281, -1261.5673828125, 460.0301208496094, 512.087646484375, -0.09600000083446503, 0.04800000041723251, 1.040000081062317, 0.0, 0.0, 0.0, 0.0, 0.0, 1.6202138304527185E9, 2021-05-05 13:23:50.452
49.0, 370.1341552734375, -1246.3870849609375, 474.5895690917969, 520.068603515625, -0.09600000083446503, 0.04800000041723251, 1.040000081062317, 0.0, 0.0, 0.0, 0.0, 0.0, 1.6202138304527185E9, 2021-05-05 13:23:50.452
50.0, 367.30303955078125, -1243.6046142578125, 470.0156555175781, 517.2374877929688, -0.09600000083446503, 0.04800000041723251, 1.040000081062317, 0.0, 0.0, 0.0, 0.0, 0.0, 1.6202138304533985E9, 2021-05-05 13:23:50.453
50.0, 361.77923583984375, -1254.97021484375, 466.3356018066406, 516.298828125, -0.09600000083446503, 0.04800000041723251, 1.040000081062317, 0.0, 0.0, 0.0, 0.0, 0.0, 1.6202138304533985E9, 2021-05-05 13:23:50.453
51.0, 356.853759765625, -1265.0791015625, 450.5457458496094, 511.1639099121094, -0.09600000083446503, 0.04800000041723251, 1.040000081062317, 0.0, 0.0, 0.0, 0.0, 0.0, 1.6202138304635105E9, 2021-05-05 13:23:50.463
51.0, 367.5947570800781, -1250.51220703125, 464.89947509765625, 512.2447509765625, -0.09600000083446503, 0.04800000041723251, 1.040000081062317, 0.0, 0.0, 0.0, 0.0, 0.0, 1.6202138304635105E9, 2021-05-05 13:23:50.463
52.0, 361.3117370605469, -1248.234619140625, 460.0525817871094, 510.5917053222656, -0.09600000083446503, 0.04800000041723251, 1.040000081062317, 0.0, 0.0, 0.0, 0.0, 0.0, 1.6202138304642568E9, 2021-05-05 13:23:50.464
52.0, 354.5163269042969, -1252.494384765625, 450.8748474121094, 510.0606384277344, -0.09600000083446503, 0.04800000041723251, 1.040000081062317, 0.0, 0.0, 0.0, 0.0, 0.0, 1.6202138304642568E9, 2021-05-05 13:23:50.464
53.0, 341.4790344238281, -1254.8616943359375, 447.4117126464844, 505.3483581542969, -0.09600000083446503, 0.04800000041723251, 1.040000081062317, 0.0, 0.0, 0.0, 0.0, 0.0, 1.6202138304785345E9, 2021-05-05 13:23:50.478
53.0, 369.6629333496094, -1234.3931884765625, 469.7314453125, 519.3206176757812, -0.09600000083446503, 0.04800000041723251, 1.040000081062317, 0.0, 0.0, 0.0, 0.0, 0.0, 1.6202138304785345E9, 2021-05-05 13:23:50.478
54.0, 360.02520751953125, -1239.5916748046875, 460.9913024902344, 512.0914306640625, -0.09600000083446503, 0.04800000041723251, 1.040000081062317, 0.0, 0.0, 0.0, 0.0, 0.0, 1.620213830479358E9, 2021-05-05 13:23:50.479
54.0, 343.823974609375, -1259.7198486328125, 449.52850341796875, 508.3403015136719, -0.09600000083446503, 0.04800000041723251, 1.040000081062317, 0.0, 0.0, 0.0, 0.0, 0.0, 1.620213830479358E9, 2021-05-05 13:23:50.479
55.0, 352.627685546875, -1261.2718505859375, 447.93902587890625, 507.5623779296875, -0.09600000083446503, 0.04800000041723251, 1.040000081062317, 0.0, 0.0, 0.0, 0.0, 0.0, 1.620213830509205E9, 2021-05-05 13:23:50.509
55.0, 356.7901916503906, -1250.8001708984375, 452.688720703125, 508.1084289550781, -0.09600000083446503, 0.04800000041723251, 1.040000081062317, 0.0, 0.0, 0.0, 0.0, 0.0, 1.620213830509205E9, 2021-05-05 13:23:50.509
56.0, 366.21099853515625, -1241.1624755859375, 463.33245849609375, 519.387939453125, -0.09600000083446503, 0.04800000041723251, 1.040000081062317, 0.0, 0.0, 0.0, 0.0, 0.0, 1.6202138305099757E9, 2021-05-05 13:23:50.509
56.0, 346.8121337890625, -1253.175048828125, 452.5914611816406, 516.3511352539062, -0.09600000083446503, 0.04800000041723251, 1.040000081062317, 0.0, 0.0, 0.0, 0.0, 0.0, 1.6202138305099757E9, 2021-05-05 13:23:50.509
57.0, 339.9905700683594, -1258.2501220703125, 434.17620849609375, 499.409423828125, -0.09600000083446503, 0.04800000041723251, 1.040000081062317, 0.0, 0.0, 0.0, 0.0, 0.0, 1.620213830510755E9, 2021-05-05 13:23:50.510
57.0, 363.4397277832031, -1236.8017578125, 457.6478271484375, 507.77557373046875, -0.09600000083446503, 0.04800000041723251, 1.040000081062317, 0.0, 0.0, 0.0, 0.0, 0.0, 1.620213830510755E9, 2021-05-05 13:23:50.510
58.0, 354.4639892578125, -1243.85888671875, 444.98077392578125, 503.55694580078125, -0.09600000083446503, 0.04800000041723251, 1.040000081062317, 0.0, 0.0, 0.0, 0.0, 0.0, 1.620213830522737E9, 2021-05-05 13:23:50.522
58.0, 344.8748779296875, -1251.1368408203125, 428.8505859375, 492.84588623046875, -0.09600000083446503, 0.04800000041723251, 1.040000081062317, 0.0, 0.0, 0.0, 0.0, 0.0, 1.620213830522737E9, 2021-05-05 13:23:50.522
59.0, 350.7278137207031, -1246.0318603515625, 433.6413879394531, 500.6435852050781, -0.09600000083446503, 0.04800000041723251, 1.040000081062317, 0.0, 0.0, 0.0, 0.0, 0.0, 1.6202138305388768E9, 2021-05-05 13:23:50.538
59.0, 362.8226623535156, -1231.65185546875, 447.8829345703125, 501.69073486328125, -0.09600000083446503, 0.04800000041723251, 1.040000081062317, 0.0, 0.0, 0.0, 0.0, 0.0, 1.6202138305388768E9, 2021-05-05 13:23:50.538
60.0, 360.5600280761719, -1226.6441650390625, 451.4695129394531, 506.3880615234375, -0.09600000083446503, 0.04800000041723251, 1.040000081062317, 0.0, 0.0, 0.0, 0.0, 0.0, 1.620213830554844E9, 2021-05-05 13:23:50.554
60.0, 351.7749938964844, -1237.1458740234375, 439.38214111328125, 500.0601501464844, -0.09600000083446503, 0.04800000041723251, 1.040000081062317, 0.0, 0.0, 0.0, 0.0, 0.0, 1.620213830554844E9, 2021-05-05 13:23:50.554
61.0, 343.1358337402344, -1241.0352783203125, 436.1209411621094, 494.6971435546875, -0.09600000083446503, 0.04800000041723251, 1.040000081062317, 0.0, 0.0, 0.0, 0.0, 0.0, 1.620213830555558E9, 2021-05-05 13:23:50.555
61.0, 359.7709045410156, -1222.623779296875, 452.66253662109375, 499.95916748046875, -0.09600000083446503, 0.04800000041723251, 1.040000081062317, 0.0, 0.0, 0.0, 0.0, 0.0, 1.620213830555558E9, 2021-05-05 13:23:50.555
62.0, 368.4736328125, -1219.99462890625, 456.4996643066406, 511.1489562988281, -0.08000000566244125, 0.04800000041723251, 1.040000081062317, 0.0, 0.0, 0.0, 0.0, 0.0, 1.6202138305563035E9, 2021-05-05 13:23:50.556
62.0, 343.0273742675781, -1240.0255126953125, 442.47503662109375, 497.2140808105469, -0.08000000566244125, 0.04800000041723251, 1.040000081062317, 0.0, 0.0, 0.0, 0.0, 0.0, 1.6202138305563035E9, 2021-05-05 13:23:50.556
63.0, 351.11676025390625, -1240.6090087890625, 447.14617919921875, 506.4366760253906, -0.08000000566244125, 0.04800000041723251, 1.040000081062317, 0.0, 0.0, 0.0, 0.0, 0.0, 1.620213830567741E9, 2021-05-05 13:23:50.567
63.0, 361.3641052246094, -1235.5899658203125, 449.9136962890625, 509.68292236328125, -0.08000000566244125, 0.04800000041723251, 1.040000081062317, 0.0, 0.0, 0.0, 0.0, 0.0, 1.620213830567741E9, 2021-05-05 13:23:50.567
64.0, 345.3423767089844, -1234.2510986328125, 439.3185729980469, 501.51123046875, -0.08000000566244125, 0.04800000041723251, 1.040000081062317, 0.0, 0.0, 0.0, 0.0, 0.0, 1.6202138305828753E9, 2021-05-05 13:23:50.582
64.0, 336.9949035644531, -1250.8450927734375, 429.2919006347656, 496.4586181640625, -0.08000000566244125, 0.04800000041723251, 1.040000081062317, 0.0, 0.0, 0.0, 0.0, 0.0, 1.6202138305828753E9, 2021-05-05 13:23:50.582
65.0, 341.18359375, -1251.3349609375, 429.26947021484375, 492.4681701660156, -0.08000000566244125, 0.04800000041723251, 1.040000081062317, 0.0, 0.0, 0.0, 0.0, 0.0, 1.6202138305984683E9, 2021-05-05 13:23:50.598
65.0, 351.0120544433594, -1237.706787109375, 440.7621765136719, 498.23883056640625, -0.08000000566244125, 0.04800000041723251, 1.040000081062317, 0.0, 0.0, 0.0, 0.0, 0.0, 1.6202138305984683E9, 2021-05-05 13:23:50.598
66.0, 347.8331298828125, -1243.5074462890625, 439.21759033203125, 495.9574890136719, -0.08000000566244125, 0.04800000041723251, 1.040000081062317, 0.0, 0.0, 0.0, 0.0, 0.0, 1.6202138305991943E9, 2021-05-05 13:23:50.599
66.0, 344.5233154296875, -1257.99951171875, 431.99957275390625, 488.810546875, -0.08000000566244125, 0.04800000041723251, 1.040000081062317, 0.0, 0.0, 0.0, 0.0, 0.0, 1.6202138305991943E9, 2021-05-05 13:23:50.599
67.0, 341.7483215332031, -1256.0697021484375, 432.2838134765625, 487.8942565917969, -0.08000000566244125, 0.04800000041723251, 1.040000081062317, 0.0, 0.0, 0.0, 0.0, 0.0, 1.6202138306291623E9, 2021-05-05 13:23:50.629
67.0, 348.6820983886719, -1261.5635986328125, 432.06689453125, 494.1697998046875, -0.08000000566244125, 0.04800000041723251, 1.040000081062317, 0.0, 0.0, 0.0, 0.0, 0.0, 1.6202138306291623E9, 2021-05-05 13:23:50.629
68.0, 356.4610900878906, -1244.206787109375, 452.33343505859375, 508.7815856933594, -0.08000000566244125, 0.04800000041723251, 1.040000081062317, 0.0, 0.0, 0.0, 0.0, 0.0, 1.620213830629884E9, 2021-05-05 13:23:50.629
68.0, 336.57977294921875, -1260.310791015625, 435.6534729003906, 495.4151916503906, -0.08000000566244125, 0.04800000041723251, 1.040000081062317, 0.0, 0.0, 0.0, 0.0, 0.0, 1.620213830629884E9, 2021-05-05 13:23:50.629
69.0, 345.7836608886719, -1257.29638671875, 438.9146728515625, 503.07452392578125, -0.08000000566244125, 0.04800000041723251, 1.040000081062317, 0.0, 0.0, 0.0, 0.0, 0.0, 1.6202138306306503E9, 2021-05-05 13:23:50.630
69.0, 345.8958740234375, -1249.760498046875, 452.02301025390625, 506.6012268066406, -0.08000000566244125, 0.04800000041723251, 1.040000081062317, 0.0, 0.0, 0.0, 0.0, 0.0, 1.6202138306306503E9, 2021-05-05 13:23:50.630
70.0, 352.5528869628906, -1250.05224609375, 454.7381896972656, 513.3592529296875, -0.08000000566244125, 0.04800000041723251, 1.055999994277954, 0.0, 0.0, 0.0, 0.0, 0.0, 1.6202138306428008E9, 2021-05-05 13:23:50.642
70.0, 335.2633361816406, -1256.61572265625, 438.3387145996094, 501.06243896484375, -0.08000000566244125, 0.04800000041723251, 1.055999994277954, 0.0, 0.0, 0.0, 0.0, 0.0, 1.6202138306428008E9, 2021-05-05 13:23:50.642
71.0, 343.54345703125, -1253.9678955078125, 437.6842346191406, 505.08282470703125, -0.08000000566244125, 0.04800000041723251, 1.055999994277954, 0.0, 0.0, 0.0, 0.0, 0.0, 1.6202138306584537E9, 2021-05-05 13:23:50.658
71.0, 354.2956848144531, -1248.750732421875, 450.8299865722656, 505.9617004394531, -0.08000000566244125, 0.04800000041723251, 1.055999994277954, 0.0, 0.0, 0.0, 0.0, 0.0, 1.6202138306584537E9, 2021-05-05 13:23:50.658
72.0, 361.5735168457031, -1246.1888427734375, 457.5767517089844, 511.96051025390625, -0.08000000566244125, 0.04800000041723251, 1.055999994277954, 0.0, 0.0, 0.0, 0.0, 0.0, 1.6202138306591516E9, 2021-05-05 13:23:50.659
72.0, 348.9176940917969, -1260.9727783203125, 439.8421630859375, 502.1170959472656, -0.08000000566244125, 0.04800000041723251, 1.055999994277954, 0.0, 0.0, 0.0, 0.0, 0.0, 1.6202138306591516E9, 2021-05-05 13:23:50.659
73.0, 355.8028564453125, -1252.692626953125, 452.4905090332031, 511.9118957519531, -0.08000000566244125, 0.04800000041723251, 1.055999994277954, 0.0, 0.0, 0.0, 0.0, 0.0, 1.6202138306889207E9, 2021-05-05 13:23:50.688
73.0, 367.710693359375, -1240.4144287109375, 461.2755126953125, 511.6351318359375, -0.08000000566244125, 0.04800000041723251, 1.055999994277954, 0.0, 0.0, 0.0, 0.0, 0.0, 1.6202138306889207E9, 2021-05-05 13:23:50.688
74.0, 364.8646545410156, -1239.11669921875, 458.4182434082031, 510.80487060546875, -0.08000000566244125, 0.04800000041723251, 1.055999994277954, 0.0, 0.0, 0.0, 0.0, 0.0, 1.6202138306897175E9, 2021-05-05 13:23:50.689
74.0, 352.1452331542969, -1251.5594482421875, 445.88958740234375, 504.3236389160156, -0.08000000566244125, 0.04800000041723251, 1.055999994277954, 0.0, 0.0, 0.0, 0.0, 0.0, 1.6202138306897175E9, 2021-05-05 13:23:50.689
75.0, 351.0157775878906, -1247.2659912109375, 453.0477294921875, 511.264892578125, -0.08000000566244125, 0.04800000041723251, 1.055999994277954, 0.0, 0.0, 0.0, 0.0, 0.0, 1.620213830703428E9, 2021-05-05 13:23:50.703
75.0, 374.2779541015625, -1242.1461181640625, 466.4552917480469, 518.5502319335938, -0.08000000566244125, 0.04800000041723251, 1.055999994277954, 0.0, 0.0, 0.0, 0.0, 0.0, 1.620213830703428E9, 2021-05-05 13:23:50.703
76.0, 375.50091552734375, -1236.7718505859375, 477.9031066894531, 523.307373046875, -0.08000000566244125, 0.04800000041723251, 1.055999994277954, 0.0, 0.0, 0.0, 0.0, 0.0, 1.6202138307041552E9, 2021-05-05 13:23:50.704
76.0, 365.31341552734375, -1248.4627685546875, 465.53900146484375, 521.4747924804688, -0.08000000566244125, 0.04800000041723251, 1.055999994277954, 0.0, 0.0, 0.0, 0.0, 0.0, 1.6202138307041552E9, 2021-05-05 13:23:50.704
77.0, 363.83990478515625, -1248.6123046875, 466.31317138671875, 515.25537109375, -0.08000000566244125, 0.04800000041723251, 1.055999994277954, 0.0, 0.0, 0.0, 0.0, 0.0, 1.6202138307189186E9, 2021-05-05 13:23:50.718
77.0, 380.6507568359375, -1232.15673828125, 480.13958740234375, 519.8741455078125, -0.08000000566244125, 0.04800000041723251, 1.055999994277954, 0.0, 0.0, 0.0, 0.0, 0.0, 1.6202138307189186E9, 2021-05-05 13:23:50.718
78.0, 387.30029296875, -1231.4013671875, 489.23126220703125, 528.247802734375, -0.08000000566244125, 0.04800000041723251, 1.055999994277954, 0.0, 0.0, 0.0, 0.0, 0.0, 1.6202138307334275E9, 2021-05-05 13:23:50.733
78.0, 372.0602111816406, -1251.230224609375, 467.595947265625, 514.645751953125, -0.08000000566244125, 0.04800000041723251, 1.055999994277954, 0.0, 0.0, 0.0, 0.0, 0.0, 1.6202138307334275E9, 2021-05-05 13:23:50.733
79.0, 359.9803161621094, -1251.6192626953125, 457.35235595703125, 508.07476806640625, -0.08000000566244125, 0.04800000041723251, 1.055999994277954, 0.0, 0.0, 0.0, 0.0, 0.0, 1.6202138307341485E9, 2021-05-05 13:23:50.734
79.0, 381.3127136230469, -1231.614501953125, 470.0194091796875, 519.1934814453125, -0.08000000566244125, 0.04800000041723251, 1.055999994277954, 0.0, 0.0, 0.0, 0.0, 0.0, 1.6202138307341485E9, 2021-05-05 13:23:50.734
80.0, 371.04669189453125, -1227.0069580078125, 464.7424011230469, 517.6339721679688, -0.08000000566244125, 0.04800000041723251, 1.055999994277954, 0.0, 0.0, 0.0, 0.0, 0.0, 1.6202138307485113E9, 2021-05-05 13:23:50.748
80.0, 359.3108825683594, -1244.446044921875, 453.21978759765625, 512.813232421875, -0.08000000566244125, 0.04800000041723251, 1.055999994277954, 0.0, 0.0, 0.0, 0.0, 0.0, 1.6202138307485113E9, 2021-05-05 13:23:50.748
81.0, 355.8103332519531, -1246.2449951171875, 453.4404296875, 507.2145690917969, -0.08000000566244125, 0.04800000041723251, 1.055999994277954, 0.0, 0.0, 0.0, 0.0, 0.0, 1.6202138307492144E9, 2021-05-05 13:23:50.749
81.0, 386.7206115722656, -1222.907958984375, 473.2955627441406, 523.57666015625, -0.08000000566244125, 0.04800000041723251, 1.055999994277954, 0.0, 0.0, 0.0, 0.0, 0.0, 1.6202138307492144E9, 2021-05-05 13:23:50.749
82.0, 372.43792724609375, -1230.22705078125, 466.4178771972656, 516.0257568359375, -0.08000000566244125, 0.04800000041723251, 1.055999994277954, 0.0, 0.0, 0.0, 0.0, 0.0, 1.6202138307628026E9, 2021-05-05 13:23:50.762
82.0, 357.66534423828125, -1238.959716796875, 462.9435119628906, 517.016845703125, -0.08000000566244125, 0.04800000041723251, 1.055999994277954, 0.0, 0.0, 0.0, 0.0, 0.0, 1.6202138307628026E9, 2021-05-05 13:23:50.762
83.0, 353.2223205566406, -1246.9481201171875, 460.8454284667969, 517.0729370117188, -0.08000000566244125, 0.04800000041723251, 1.055999994277954, 0.0, 0.0, 0.0, 0.0, 0.0, 1.6202138307784495E9, 2021-05-05 13:23:50.778
83.0, 372.6997375488281, -1229.21728515625, 471.9267578125, 521.9198608398438, -0.08000000566244125, 0.04800000041723251, 1.055999994277954, 0.0, 0.0, 0.0, 0.0, 0.0, 1.6202138307784495E9, 2021-05-05 13:23:50.778
84.0, 380.08978271484375, -1233.2974853515625, 479.2232971191406, 524.2647705078125, -0.08000000566244125, 0.04800000041723251, 1.055999994277954, 0.0, 0.0, 0.0, 0.0, 0.0, 1.620213830779147E9, 2021-05-05 13:23:50.779
84.0, 363.7651062011719, -1243.7430419921875, 461.5635070800781, 520.618408203125, -0.08000000566244125, 0.04800000041723251, 1.055999994277954, 0.0, 0.0, 0.0, 0.0, 0.0, 1.620213830779147E9, 2021-05-05 13:23:50.779
85.0, 355.67572021484375, -1253.91552734375, 450.7364807128906, 508.6020812988281, -0.08000000566244125, 0.04800000041723251, 1.055999994277954, 0.0, 0.0, 0.0, 0.0, 0.0, 1.620213830792732E9, 2021-05-05 13:23:50.792
85.0, 377.4830627441406, -1233.001953125, 467.74554443359375, 518.378173828125, -0.08000000566244125, 0.04800000041723251, 1.055999994277954, 0.0, 0.0, 0.0, 0.0, 0.0, 1.620213830792732E9, 2021-05-05 13:23:50.792
86.0, 377.6438903808594, -1234.2960205078125, 469.7015075683594, 524.679931640625, -0.08000000566244125, 0.04800000041723251, 1.055999994277954, 0.0, 0.0, 0.0, 0.0, 0.0, 1.6202138308084435E9, 2021-05-05 13:23:50.808
86.0, 361.6969299316406, -1249.3192138671875, 451.34234619140625, 510.5318603515625, -0.08000000566244125, 0.04800000041723251, 1.055999994277954, 0.0, 0.0, 0.0, 0.0, 0.0, 1.6202138308084435E9, 2021-05-05 13:23:50.808
87.0, 364.0493469238281, -1248.4066162109375, 446.1289367675781, 508.5010986328125, -0.08000000566244125, 0.04800000041723251, 1.055999994277954, 0.0, 0.0, 0.0, 0.0, 0.0, 1.6202138308091486E9, 2021-05-05 13:23:50.809
87.0, 383.1752014160156, -1230.604736328125, 463.6914978027344, 517.6451416015625, -0.08000000566244125, 0.04800000041723251, 1.055999994277954, 0.0, 0.0, 0.0, 0.0, 0.0, 1.6202138308091486E9, 2021-05-05 13:23:50.809
88.0, 394.02838134765625, -1226.31884765625, 471.4555358886719, 521.1083374023438, -0.08000000566244125, 0.04800000041723251, 1.055999994277954, 0.0, 0.0, 0.0, 0.0, 0.0, 1.6202138308227892E9, 2021-05-05 13:23:50.822
88.0, 369.3375549316406, -1238.432373046875, 453.2684020996094, 506.0926208496094, -0.08000000566244125, 0.04800000041723251, 1.055999994277954, 0.0, 0.0, 0.0, 0.0, 0.0, 1.6202138308227892E9, 2021-05-05 13:23:50.822
89.0, 380.38897705078125, -1237.740478515625, 460.14605712890625, 507.2257995605469, -0.08000000566244125, 0.04800000041723251, 1.055999994277954, 0.0, 0.0, 0.0, 0.0, 0.0, 1.6202138308383996E9, 2021-05-05 13:23:50.838
89.0, 392.4426574707031, -1220.8360595703125, 470.6664123535156, 519.5599975585938, -0.08000000566244125, 0.04800000041723251, 1.055999994277954, 0.0, 0.0, 0.0, 0.0, 0.0, 1.6202138308383996E9, 2021-05-05 13:23:50.838
90.0, 389.74993896484375, -1219.2242431640625, 466.2795104980469, 517.6115112304688, -0.08000000566244125, 0.04800000041723251, 1.055999994277954, 0.0, 0.0, 0.0, 0.0, 0.0, 1.6202138308391364E9, 2021-05-05 13:23:50.839
90.0, 381.7615051269531, -1223.8392333984375, 460.5050964355469, 515.4722900390625, -0.08000000566244125, 0.04800000041723251, 1.055999994277954, 0.0, 0.0, 0.0, 0.0, 0.0, 1.6202138308391364E9, 2021-05-05 13:23:50.839
91.0, 377.31475830078125, -1222.3358154296875, 467.9437561035156, 519.9900512695312, -0.08000000566244125, 0.04800000041723251, 1.055999994277954, 0.0, 0.0, 0.0, 0.0, 0.0, 1.6202138308527353E9, 2021-05-05 13:23:50.852
91.0, 387.88372802734375, -1210.2447509765625, 485.0388488769531, 529.0967407226562, -0.08000000566244125, 0.04800000041723251, 1.055999994277954, 0.0, 0.0, 0.0, 0.0, 0.0, 1.6202138308527353E9, 2021-05-05 13:23:50.852
92.0, 400.4797058105469, -1208.0980224609375, 490.9366760253906, 533.670654296875, -0.08000000566244125, 0.04800000041723251, 1.055999994277954, 0.0, 0.0, 0.0, 0.0, 0.0, 1.6202138308684895E9, 2021-05-05 13:23:50.868
92.0, 372.3893127441406, -1225.099609375, 480.1059265136719, 523.6290283203125, -0.08000000566244125, 0.04800000041723251, 1.055999994277954, 0.0, 0.0, 0.0, 0.0, 0.0, 1.6202138308684895E9, 2021-05-05 13:23:50.868
93.0, 379.412841796875, -1231.3638916015625, 476.9793701171875, 523.6776123046875, -0.08000000566244125, 0.04800000041723251, 1.055999994277954, 0.0, 0.0, 0.0, 0.0, 0.0, 1.6202138308692558E9, 2021-05-05 13:23:50.869
93.0, 395.5318298339844, -1219.4224853515625, 494.91217041015625, 531.72216796875, -0.08000000566244125, 0.04800000041723251, 1.055999994277954, 0.0, 0.0, 0.0, 0.0, 0.0, 1.6202138308692558E9, 2021-05-05 13:23:50.869
94.0, 406.8113708496094, -1211.6060791015625, 494.2053527832031, 542.1153564453125, -0.08000000566244125, 0.04800000041723251, 1.055999994277954, 0.0, 0.0, 0.0, 0.0, 0.0, 1.6202138308828359E9, 2021-05-05 13:23:50.882
94.0, 377.0455017089844, -1222.2984619140625, 484.99395751953125, 534.1156616210938, -0.08000000566244125, 0.04800000041723251, 1.055999994277954, 0.0, 0.0, 0.0, 0.0, 0.0, 1.6202138308828359E9, 2021-05-05 13:23:50.882
95.0, 385.1947326660156, -1222.260986328125, 483.9093933105469, 534.9683837890625, -0.08000000566244125, 0.04800000041723251, 1.055999994277954, 0.0, 0.0, 0.0, 0.0, 0.0, 1.620213830899196E9, 2021-05-05 13:23:50.899
95.0, 398.4078063964844, -1206.5982666015625, 504.3404541015625, 540.5782470703125, -0.08000000566244125, 0.04800000041723251, 1.055999994277954, 0.0, 0.0, 0.0, 0.0, 0.0, 1.620213830899196E9, 2021-05-05 13:23:50.899
96.0, 388.16046142578125, -1212.75048828125, 499.1046142578125, 538.0799560546875, -0.08000000566244125, 0.04800000041723251, 1.055999994277954, 0.0, 0.0, 0.0, 0.0, 0.0, 1.6202138308999076E9, 2021-05-05 13:23:50.899
96.0, 380.6058654785156, -1219.46728515625, 483.8944396972656, 534.1044921875, -0.08000000566244125, 0.04800000041723251, 1.055999994277954, 0.0, 0.0, 0.0, 0.0, 0.0, 1.6202138308999076E9, 2021-05-05 13:23:50.899
97.0, 382.73760986328125, -1223.1473388671875, 487.443603515625, 530.349609375, -0.08000000566244125, 0.04800000041723251, 1.055999994277954, 0.0, 0.0, 0.0, 0.0, 0.0, 1.6202138309127324E9, 2021-05-05 13:23:50.912
97.0, 392.45013427734375, -1215.2374267578125, 498.6632995605469, 540.750244140625, -0.08000000566244125, 0.04800000041723251, 1.055999994277954, 0.0, 0.0, 0.0, 0.0, 0.0, 1.6202138309127324E9, 2021-05-05 13:23:50.912
98.0, 400.797607421875, -1218.7081298828125, 495.12908935546875, 540.2379150390625, -0.08000000566244125, 0.04800000041723251, 1.055999994277954, 0.0, 0.0, 0.0, 0.0, 0.0, 1.6202138309288993E9, 2021-05-05 13:23:50.928
98.0, 376.8023986816406, -1228.259765625, 485.061279296875, 531.1686401367188, -0.08000000566244125, 0.04800000041723251, 1.055999994277954, 0.0, 0.0, 0.0, 0.0, 0.0, 1.6202138309288993E9, 2021-05-05 13:23:50.928
99.0, 376.56304931640625, -1236.2706298828125, 480.1657409667969, 525.9813842773438, -0.08000000566244125, 0.04800000041723251, 1.055999994277954, 0.0, 0.0, 0.0, 0.0, 0.0, 1.6202138309441624E9, 2021-05-05 13:23:50.944
99.0, 385.7108459472656, -1221.46435546875, 488.38232421875, 529.6988525390625, -0.08000000566244125, 0.04800000041723251, 1.055999994277954, 0.0, 0.0, 0.0, 0.0, 0.0, 1.6202138309441624E9, 2021-05-05 13:23:50.944
100.0, 389.2562561035156, -1222.6387939453125, 483.359619140625, 531.3107299804688, -0.08000000566244125, 0.04800000041723251, 1.055999994277954, 0.0, 0.0, 0.0, 0.0, 0.0, 1.6202138309448583E9, 2021-05-05 13:23:50.944
100.0, 382.4683532714844, -1225.8924560546875, 473.6583251953125, 531.841796875, -0.08000000566244125, 0.04800000041723251, 1.055999994277954, 0.0, 0.0, 0.0, 0.0, 0.0, 1.6202138309448583E9, 2021-05-05 13:23:50.944
0.0, 378.7565002441406, -1229.944580078125, 477.4674072265625, 529.55859375, -0.08000000566244125, 0.04800000041723251, 1.055999994277954, 0.0, 0.0, 0.0, 0.0, 0.0, 1.6202138309456244E9, 2021-05-05 13:23:50.945
1.0, 392.9269714355469, -1222.1917724609375, 485.336181640625, 529.3080444335938, -0.08000000566244125, 0.04800000041723251, 1.055999994277954, 0.0, 0.0, 0.0, 0.0, 0.0, 1.6202138309577496E9, 2021-05-05 13:23:50.957
1.0, 397.8636474609375, -1219.880615234375, 487.9541015625, 531.1405639648438, -0.08000000566244125, 0.04800000041723251, 1.055999994277954, 0.0, 0.0, 0.0, 0.0, 0.0, 1.6202138309577496E9, 2021-05-05 13:23:50.957
2.0, 382.8442077636719, -1237.0953369140625, 475.24591064453125, 529.3678588867188, -0.08000000566244125, 0.04800000041723251, 1.055999994277954, 0.0, 0.0, 0.0, 0.0, 0.0, 1.6202138309732282E9, 2021-05-05 13:23:50.973
2.0, 367.6527404785156, -1244.9940185546875, 467.3659362792969, 522.1573486328125, -0.08000000566244125, 0.04800000041723251, 1.055999994277954, 0.0, 0.0, 0.0, 0.0, 0.0, 1.6202138309732282E9, 2021-05-05 13:23:50.973
3.0, 380.0542297363281, -1235.3375244140625, 477.99847412109375, 528.2758178710938, -0.08000000566244125, 0.04800000041723251, 1.055999994277954, 0.0, 0.0, 0.0, 0.0, 0.0, 1.6202138309889796E9, 2021-05-05 13:23:50.988
3.0, 380.2300109863281, -1240.221923828125, 474.23614501953125, 527.105224609375, -0.08000000566244125, 0.04800000041723251, 1.055999994277954, 0.0, 0.0, 0.0, 0.0, 0.0, 1.6202138309889796E9, 2021-05-05 13:23:50.988
4.0, 359.0958557128906, -1256.905517578125, 458.775390625, 524.1320190429688, -0.08000000566244125, 0.04800000041723251, 1.055999994277954, 0.0, 0.0, 0.0, 0.0, 0.0, 1.6202138310042603E9, 2021-05-05 13:23:51.004
4.0, 350.2509765625, -1266.58447265625, 448.15032958984375, 506.1954650878906, -0.08000000566244125, 0.04800000041723251, 1.055999994277954, 0.0, 0.0, 0.0, 0.0, 0.0, 1.6202138310042603E9, 2021-05-05 13:23:51.004
5.0, 371.4599609375, -1252.2269287109375, 461.29608154296875, 518.41748046875, -0.08000000566244125, 0.04800000041723251, 1.055999994277954, 0.0, 0.0, 0.0, 0.0, 0.0, 1.6202138310049725E9, 2021-05-05 13:23:51.004
5.0, 373.2027587890625, -1255.880859375, 461.7934875488281, 516.4876708984375, -0.08000000566244125, 0.04800000041723251, 1.055999994277954, 0.0, 0.0, 0.0, 0.0, 0.0, 1.6202138310049725E9, 2021-05-05 13:23:51.004
6.0, 347.18426513671875, -1270.4515380859375, 438.95391845703125, 507.13043212890625, -0.08000000566244125, 0.04800000041723251, 1.055999994277954, 0.0, 0.0, 0.0, 0.0, 0.0, 1.6202138310056336E9, 2021-05-05 13:23:51.005
6.0, 350.41552734375, -1271.681884765625, 434.7353210449219, 495.566650390625, -0.08000000566244125, 0.04800000041723251, 1.055999994277954, 0.0, 0.0, 0.0, 0.0, 0.0, 1.6202138310056336E9, 2021-05-05 13:23:51.005
7.0, 357.94769287109375, -1256.4381103515625, 444.8966369628906, 502.6724853515625, -0.08000000566244125, 0.04800000041723251, 1.055999994277954, 0.0, 0.0, 0.0, 0.0, 0.0, 1.6202138310179088E9, 2021-05-05 13:23:51.017
7.0, 372.06207275390625, -1252.4925537109375, 454.0930480957031, 503.5812683105469, -0.08000000566244125, 0.04800000041723251, 1.055999994277954, 0.0, 0.0, 0.0, 0.0, 0.0, 1.6202138310179088E9, 2021-05-05 13:23:51.017
8.0, 336.764892578125, -1275.15625, 425.76702880859375, 482.1105041503906, -0.08000000566244125, 0.04800000041723251, 1.055999994277954, 0.0, 0.0, 0.0, 0.0, 0.0, 1.6202138310339625E9, 2021-05-05 13:23:51.033
8.0, 328.7989196777344, -1272.16064453125, 431.8032531738281, 491.7108154296875, -0.08000000566244125, 0.04800000041723251, 1.055999994277954, 0.0, 0.0, 0.0, 0.0, 0.0, 1.6202138310339625E9, 2021-05-05 13:23:51.033
9.0, 349.4656066894531, -1262.5191650390625, 439.7505187988281, 492.0848083496094, -0.08000000566244125, 0.04800000041723251, 1.055999994277954, 0.0, 0.0, 0.0, 0.0, 0.0, 1.6202138310489802E9, 2021-05-05 13:23:51.048
9.0, 347.5208435058594, -1263.5140380859375, 442.929443359375, 497.0738525390625, -0.08000000566244125, 0.04800000041723251, 1.055999994277954, 0.0, 0.0, 0.0, 0.0, 0.0, 1.6202138310489802E9, 2021-05-05 13:23:51.048
10.0, 338.126220703125, -1278.0135498046875, 428.1269226074219, 490.155029296875, -0.08000000566244125, 0.04800000041723251, 1.055999994277954, 0.0, 0.0, 0.0, 0.0, 0.0, 1.6202138310642383E9, 2021-05-05 13:23:51.064
10.0, 341.1966857910156, -1281.618896484375, 437.4205627441406, 496.5764465332031, -0.08000000566244125, 0.04800000041723251, 1.055999994277954, 0.0, 0.0, 0.0, 0.0, 0.0, 1.6202138310642383E9, 2021-05-05 13:23:51.064
11.0, 346.7953186035156, -1269.8643798828125, 440.0010986328125, 498.2145080566406, -0.08000000566244125, 0.04800000041723251, 1.055999994277954, 0.0, 0.0, 0.0, 0.0, 0.0, 1.6202138310648952E9, 2021-05-05 13:23:51.064
11.0, 354.2900695800781, -1271.8277587890625, 443.12017822265625, 504.4938049316406, -0.08000000566244125, 0.04800000041723251, 1.055999994277954, 0.0, 0.0, 0.0, 0.0, 0.0, 1.6202138310648952E9, 2021-05-05 13:23:51.064
12.0, 339.3042907714844, -1281.914306640625, 431.96405029296875, 498.3416748046875, -0.08000000566244125, 0.04800000041723251, 1.055999994277954, 0.0, 0.0, 0.0, 0.0, 0.0, 1.620213831065702E9, 2021-05-05 13:23:51.065
12.0, 338.32818603515625, -1287.4381103515625, 430.30352783203125, 498.01629638671875, -0.08000000566244125, 0.04800000041723251, 1.055999994277954, 0.0, 0.0, 0.0, 0.0, 0.0, 1.620213831065702E9, 2021-05-05 13:23:51.065
13.0, 350.3781433105469, -1271.43505859375, 440.2142639160156, 498.6109313964844, -0.08000000566244125, 0.04800000041723251, 1.055999994277954, 0.0, 0.0, 0.0, 0.0, 0.0, 1.6202138310777457E9, 2021-05-05 13:23:51.077
13.0, 352.9736328125, -1275.227294921875, 436.0405578613281, 497.67596435546875, -0.08000000566244125, 0.04800000041723251, 1.055999994277954, 0.0, 0.0, 0.0, 0.0, 0.0, 1.6202138310777457E9, 2021-05-05 13:23:51.077
14.0, 334.9884338378906, -1281.6973876953125, 419.76824951171875, 489.2350158691406, -0.08000000566244125, 0.04800000041723251, 1.055999994277954, 0.0, 0.0, 0.0, 0.0, 0.0, 1.6202138310934968E9, 2021-05-05 13:23:51.093
14.0, 343.373291015625, -1277.93505859375, 429.865966796875, 494.5195007324219, -0.08000000566244125, 0.04800000041723251, 1.055999994277954, 0.0, 0.0, 0.0, 0.0, 0.0, 1.6202138310934968E9, 2021-05-05 13:23:51.093
15.0, 346.5933532714844, -1263.8917236328125, 441.1978759765625, 500.99700927734375, -0.08000000566244125, 0.04800000041723251, 1.055999994277954, 0.0, 0.0, 0.0, 0.0, 0.0, 1.62021383109435E9, 2021-05-05 13:23:51.094
15.0, 339.3454284667969, -1267.4296875, 437.0203857421875, 491.0077209472656, -0.08000000566244125, 0.04800000041723251, 1.055999994277954, 0.0, 0.0, 0.0, 0.0, 0.0, 1.62021383109435E9, 2021-05-05 13:23:51.094
16.0, 333.87396240234375, -1278.5745849609375, 425.32574462890625, 482.1217346191406, -0.08000000566244125, 0.04800000041723251, 1.055999994277954, 0.0, 0.0, 0.0, 0.0, 0.0, 1.6202138311078322E9, 2021-05-05 13:23:51.107
16.0, 326.66717529296875, -1285.493408203125, 418.5079040527344, 478.63238525390625, -0.08000000566244125, 0.04800000041723251, 1.055999994277954, 0.0, 0.0, 0.0, 0.0, 0.0, 1.6202138311078322E9, 2021-05-05 13:23:51.107
17.0, 336.17401123046875, -1273.723876953125, 430.6101989746094, 484.7097473144531, -0.08000000566244125, 0.04800000041723251, 1.055999994277954, 0.0, 0.0, 0.0, 0.0, 0.0, 1.6202138311235847E9, 2021-05-05 13:23:51.123
17.0, 340.5384521484375, -1276.8167724609375, 435.30377197265625, 495.0505676269531, -0.08000000566244125, 0.04800000041723251, 1.055999994277954, 0.0, 0.0, 0.0, 0.0, 0.0, 1.6202138311235847E9, 2021-05-05 13:23:51.123
18.0, 323.26385498046875, -1287.6624755859375, 414.2032775878906, 483.8271179199219, -0.08000000566244125, 0.04800000041723251, 1.055999994277954, 0.0, 0.0, 0.0, 0.0, 0.0, 1.6202138311242695E9, 2021-05-05 13:23:51.124
18.0, 333.6907043457031, -1282.8231201171875, 424.45806884765625, 482.9071044921875, -0.08000000566244125, 0.04800000041723251, 1.055999994277954, 0.0, 0.0, 0.0, 0.0, 0.0, 1.6202138311242695E9, 2021-05-05 13:23:51.124
19.0, 347.5732116699219, -1273.2713623046875, 435.7974548339844, 496.8756408691406, -0.08000000566244125, 0.04800000041723251, 1.055999994277954, 0.0, 0.0, 0.0, 0.0, 0.0, 1.6202138311549459E9, 2021-05-05 13:23:51.154
19.0, 339.8877258300781, -1278.2379150390625, 434.97467041015625, 490.79827880859375, -0.08000000566244125, 0.04800000041723251, 1.055999994277954, 0.0, 0.0, 0.0, 0.0, 0.0, 1.6202138311549459E9, 2021-05-05 13:23:51.154
20.0, 333.1035461425781, -1297.6256103515625, 424.7497863769531, 488.6815185546875, -0.08000000566244125, 0.04800000041723251, 1.055999994277954, 0.0, 0.0, 0.0, 0.0, 0.0, 1.6202138311556287E9, 2021-05-05 13:23:51.155
20.0, 323.1778564453125, -1293.7286376953125, 421.9411315917969, 487.9821472167969, -0.08000000566244125, 0.04800000041723251, 1.055999994277954, 0.0, 0.0, 0.0, 0.0, 0.0, 1.6202138311556287E9, 2021-05-05 13:23:51.155
21.0, 335.93463134765625, -1287.0491943359375, 436.3733825683594, 500.0732421875, -0.08000000566244125, 0.04800000041723251, 1.055999994277954, 0.0, 0.0, 0.0, 0.0, 0.0, 1.6202138311563213E9, 2021-05-05 13:23:51.156
21.0, 322.3999328613281, -1296.021240234375, 426.2494812011719, 490.835693359375, -0.08000000566244125, 0.04800000041723251, 1.055999994277954, 0.0, 0.0, 0.0, 0.0, 0.0, 1.6202138311563213E9, 2021-05-05 13:23:51.156
22.0, 315.2716979980469, -1306.8631591796875, 418.1937561035156, 482.7724609375, -0.08000000566244125, 0.04800000041723251, 1.055999994277954, 0.0, 0.0, 0.0, 0.0, 0.0, 1.6202138311678145E9, 2021-05-05 13:23:51.167
22.0, 307.86669921875, -1309.41748046875, 408.69439697265625, 480.1732482910156, -0.08000000566244125, 0.04800000041723251, 1.055999994277954, 0.0, 0.0, 0.0, 0.0, 0.0, 1.6202138311678145E9, 2021-05-05 13:23:51.167
23.0, 339.4239807128906, -1291.574462890625, 423.7213134765625, 492.6121520996094, -0.08000000566244125, 0.04800000041723251, 1.055999994277954, 0.0, 0.0, 0.0, 0.0, 0.0, 1.6202138312162912E9, 2021-05-05 13:23:51.216
23.0, 329.34869384765625, -1291.0172119140625, 425.66607666015625, 491.36676025390625, -0.08000000566244125, 0.04800000041723251, 1.055999994277954, 0.0, 0.0, 0.0, 0.0, 0.0, 1.6202138312162912E9, 2021-05-05 13:23:51.216
24.0, 314.2581787109375, -1303.3775634765625, 414.5211486816406, 479.9189147949219, -0.08000000566244125, 0.04800000041723251, 1.055999994277954, 0.0, 0.0, 0.0, 0.0, 0.0, 1.6202138312169597E9, 2021-05-05 13:23:51.216
24.0, 323.196533203125, -1307.2520751953125, 414.3827819824219, 480.8426818847656, -0.08000000566244125, 0.04800000041723251, 1.055999994277954, 0.0, 0.0, 0.0, 0.0, 0.0, 1.6202138312169597E9, 2021-05-05 13:23:51.216
25.0, 334.47607421875, -1294.8543701171875, 425.72216796875, 484.8668212890625, -0.08000000566244125, 0.04800000041723251, 1.055999994277954, 0.0, 0.0, 0.0, 0.0, 0.0, 1.6202138312177572E9, 2021-05-05 13:23:51.217
25.0, 339.24072265625, -1281.4766845703125, 427.86138916015625, 490.56268310546875, -0.08000000566244125, 0.04800000041723251, 1.055999994277954, 0.0, 0.0, 0.0, 0.0, 0.0, 1.6202138312177572E9, 2021-05-05 13:23:51.217
26.0, 323.2264709472656, -1301.200927734375, 419.2147216796875, 482.5892028808594, -0.08000000566244125, 0.04800000041723251, 1.055999994277954, 0.0, 0.0, 0.0, 0.0, 0.0, 1.6202138312185311E9, 2021-05-05 13:23:51.218
26.0, 316.5395202636719, -1303.6468505859375, 417.13909912109375, 479.6795654296875, -0.08000000566244125, 0.04800000041723251, 1.055999994277954, 0.0, 0.0, 0.0, 0.0, 0.0, 1.6202138312185311E9, 2021-05-05 13:23:51.218
27.0, 329.4459228515625, -1284.5059814453125, 429.6528015136719, 492.2867736816406, -0.08000000566244125, 0.04800000041723251, 1.055999994277954, 0.0, 0.0, 0.0, 0.0, 0.0, 1.6202138312286596E9, 2021-05-05 13:23:51.228
27.0, 340.0148620605469, -1279.7637939453125, 435.2364807128906, 492.010009765625, -0.08000000566244125, 0.04800000041723251, 1.055999994277954, 0.0, 0.0, 0.0, 0.0, 0.0, 1.6202138312286596E9, 2021-05-05 13:23:51.228
28.0, 340.10089111328125, -1284.3040771484375, 426.5636291503906, 494.7625732421875, -0.08000000566244125, 0.04800000041723251, 1.055999994277954, 0.0, 0.0, 0.0, 0.0, 0.0, 1.620213831229347E9, 2021-05-05 13:23:51.229
28.0, 342.6328125, -1282.7071533203125, 430.9617614746094, 495.0243835449219, -0.08000000566244125, 0.04800000041723251, 1.055999994277954, 0.0, 0.0, 0.0, 0.0, 0.0, 1.620213831229347E9, 2021-05-05 13:23:51.229
29.0, 356.6649169921875, -1270.44775390625, 447.7464294433594, 505.3240661621094, -0.08000000566244125, 0.04800000041723251, 1.055999994277954, 0.0, 0.0, 0.0, 0.0, 0.0, 1.6202138312434812E9, 2021-05-05 13:23:51.243
29.0, 357.0762939453125, -1266.0159912109375, 452.0921936035156, 510.81048583984375, -0.08000000566244125, 0.04800000041723251, 1.055999994277954, 0.0, 0.0, 0.0, 0.0, 0.0, 1.6202138312434812E9, 2021-05-05 13:23:51.243
30.0, 347.97711181640625, -1276.166015625, 439.3279113769531, 503.97021484375, -0.08000000566244125, 0.04800000041723251, 1.055999994277954, 0.0, 0.0, 0.0, 0.0, 0.0, 1.6202138312441833E9, 2021-05-05 13:23:51.244
30.0, 347.8200378417969, -1279.4534912109375, 435.629150390625, 497.4216613769531, -0.08000000566244125, 0.04800000041723251, 1.055999994277954, 0.0, 0.0, 0.0, 0.0, 0.0, 1.6202138312441833E9, 2021-05-05 13:23:51.244
31.0, 359.7166748046875, -1265.1968994140625, 449.115234375, 499.75909423828125, -0.08000000566244125, 0.04800000041723251, 1.055999994277954, 0.0, 0.0, 0.0, 0.0, 0.0, 1.6202138312742035E9, 2021-05-05 13:23:51.274
31.0, 367.7798767089844, -1257.3917236328125, 452.14080810546875, 508.94427490234375, -0.08000000566244125, 0.04800000041723251, 1.055999994277954, 0.0, 0.0, 0.0, 0.0, 0.0, 1.6202138312742035E9, 2021-05-05 13:23:51.274
32.0, 341.0096740722656, -1271.34912109375, 443.2922058105469, 502.45928955078125, -0.08000000566244125, 0.04800000041723251, 1.055999994277954, 0.0, 0.0, 0.0, 0.0, 0.0, 1.620213831274968E9, 2021-05-05 13:23:51.274
32.0, 346.2418212890625, -1272.16064453125, 441.8486022949219, 500.37615966796875, -0.08000000566244125, 0.04800000041723251, 1.055999994277954, 0.0, 0.0, 0.0, 0.0, 0.0, 1.620213831274968E9, 2021-05-05 13:23:51.274
33.0, 360.95831298828125, -1258.3192138671875, 453.5058898925781, 507.0294494628906, -0.08000000566244125, 0.04800000041723251, 1.055999994277954, 0.0, 0.0, 0.0, 0.0, 0.0, 1.6202138312756455E9, 2021-05-05 13:23:51.275
33.0, 351.2383117675781, -1258.8092041015625, 456.06396484375, 503.99639892578125, -0.08000000566244125, 0.04800000041723251, 1.055999994277954, 0.0, 0.0, 0.0, 0.0, 0.0, 1.6202138312756455E9, 2021-05-05 13:23:51.275
34.0, 355.40081787109375, -1266.1243896484375, 445.1846008300781, 499.61322021484375, -0.08000000566244125, 0.04800000041723251, 1.055999994277954, 0.0, 0.0, 0.0, 0.0, 0.0, 1.6202138312879307E9, 2021-05-05 13:23:51.287
34.0, 338.1075134277344, -1275.5115966796875, 441.2090759277344, 498.95501708984375, -0.08000000566244125, 0.04800000041723251, 1.055999994277954, 0.0, 0.0, 0.0, 0.0, 0.0, 1.6202138312879307E9, 2021-05-05 13:23:51.287
35.0, 349.8769836425781, -1262.418212890625, 452.66815185546875, 510.5299987792969, -0.08000000566244125, 0.04800000041723251, 1.055999994277954, 0.0, 0.0, 0.0, 0.0, 0.0, 1.6202138313035166E9, 2021-05-05 13:23:51.303
35.0, 361.5716552734375, -1255.80224609375, 464.75177001953125, 512.4635009765625, -0.08000000566244125, 0.04800000041723251, 1.055999994277954, 0.0, 0.0, 0.0, 0.0, 0.0, 1.6202138313035166E9, 2021-05-05 13:23:51.303
36.0, 338.5413513183594, -1272.7515869140625, 442.6489562988281, 502.45928955078125, -0.08000000566244125, 0.04800000041723251, 1.055999994277954, 0.0, 0.0, 0.0, 0.0, 0.0, 1.6202138313042536E9, 2021-05-05 13:23:51.304
36.0, 348.6951904296875, -1268.0205078125, 447.1293640136719, 503.54388427734375, -0.08000000566244125, 0.04800000041723251, 1.055999994277954, 0.0, 0.0, 0.0, 0.0, 0.0, 1.6202138313042536E9, 2021-05-05 13:23:51.304
37.0, 346.4587097167969, -1261.57666015625, 447.68658447265625, 502.2610778808594, -0.08000000566244125, 0.04800000041723251, 1.055999994277954, 0.0, 0.0, 0.0, 0.0, 0.0, 1.6202138313341908E9, 2021-05-05 13:23:51.334
37.0, 349.1365051269531, -1262.2386474609375, 448.9057922363281, 509.7333984375, -0.08000000566244125, 0.04800000041723251, 1.055999994277954, 0.0, 0.0, 0.0, 0.0, 0.0, 1.6202138313341908E9, 2021-05-05 13:23:51.334
38.0, 355.35595703125, -1271.595947265625, 444.268310546875, 502.878173828125, -0.08000000566244125, 0.04800000041723251, 1.055999994277954, 0.0, 0.0, 0.0, 0.0, 0.0, 1.6202138313349943E9, 2021-05-05 13:23:51.334
38.0, 339.839111328125, -1272.9197998046875, 438.527587890625, 496.9765930175781, -0.08000000566244125, 0.04800000041723251, 1.055999994277954, 0.0, 0.0, 0.0, 0.0, 0.0, 1.6202138313349943E9, 2021-05-05 13:23:51.334
39.0, 356.76214599609375, -1260.98583984375, 458.2106628417969, 512.5420532226562, -0.08000000566244125, 0.04800000041723251, 1.055999994277954, 0.0, 0.0, 0.0, 0.0, 0.0, 1.6202138313358047E9, 2021-05-05 13:23:51.335
39.0, 360.10186767578125, -1261.7412109375, 455.465576171875, 510.1073913574219, -0.08000000566244125, 0.04800000041723251, 1.055999994277954, 0.0, 0.0, 0.0, 0.0, 0.0, 1.6202138313358047E9, 2021-05-05 13:23:51.335
40.0, 342.59539794921875, -1269.0115966796875, 445.6221618652344, 506.36749267578125, -0.08000000566244125, 0.04800000041723251, 1.055999994277954, 0.0, 0.0, 0.0, 0.0, 0.0, 1.6202138313477364E9, 2021-05-05 13:23:51.347
40.0, 348.15289306640625, -1275.4779052734375, 448.9581604003906, 505.2043762207031, -0.08000000566244125, 0.04800000041723251, 1.055999994277954, 0.0, 0.0, 0.0, 0.0, 0.0, 1.6202138313477364E9, 2021-05-05 13:23:51.347
41.0, 361.4033508300781, -1257.2720947265625, 460.7014465332031, 509.89794921875, -0.08000000566244125, 0.04800000041723251, 1.055999994277954, 0.0, 0.0, 0.0, 0.0, 0.0, 1.6202138313635907E9, 2021-05-05 13:23:51.363
41.0, 352.11346435546875, -1254.414794921875, 460.3199768066406, 508.4020080566406, -0.08000000566244125, 0.04800000041723251, 1.055999994277954, 0.0, 0.0, 0.0, 0.0, 0.0, 1.6202138313635907E9, 2021-05-05 13:23:51.363
42.0, 345.3255310058594, -1268.0841064453125, 441.42974853515625, 500.0545349121094, -0.08000000566244125, 0.04800000041723251, 1.055999994277954, 0.0, 0.0, 0.0, 0.0, 0.0, 1.620213831364339E9, 2021-05-05 13:23:51.364
42.0, 340.60577392578125, -1265.2904052734375, 442.7835998535156, 496.7671813964844, -0.08000000566244125, 0.04800000041723251, 1.055999994277954, 0.0, 0.0, 0.0, 0.0, 0.0, 1.620213831364339E9, 2021-05-05 13:23:51.364
43.0, 355.1091003417969, -1252.900146484375, 451.5199890136719, 501.2064208984375, -0.08000000566244125, 0.04800000041723251, 1.055999994277954, 0.0, 0.0, 0.0, 0.0, 0.0, 1.620213831394202E9, 2021-05-05 13:23:51.394
43.0, 349.2486877441406, -1251.3780517578125, 446.10089111328125, 503.6523132324219, -0.08000000566244125, 0.04800000041723251, 1.055999994277954, 0.0, 0.0, 0.0, 0.0, 0.0, 1.620213831394202E9, 2021-05-05 13:23:51.394
44.0, 335.18292236328125, -1254.81494140625, 436.814697265625, 497.3319091796875, -0.08000000566244125, 0.04800000041723251, 1.055999994277954, 0.0, 0.0, 0.0, 0.0, 0.0, 1.6202138313949456E9, 2021-05-05 13:23:51.394
44.0, 337.8681640625, -1251.680908203125, 443.1875, 498.8278503417969, -0.08000000566244125, 0.04800000041723251, 1.055999994277954, 0.0, 0.0, 0.0, 0.0, 0.0, 1.6202138313949456E9, 2021-05-05 13:23:51.394
45.0, 350.8418884277344, -1246.6732177734375, 449.9529724121094, 502.691162109375, -0.08000000566244125, 0.04800000041723251, 1.055999994277954, 0.0, 0.0, 0.0, 0.0, 0.0, 1.6202138313957577E9, 2021-05-05 13:23:51.395
45.0, 360.2028503417969, -1235.150634765625, 449.8856506347656, 503.2596435546875, -0.08000000566244125, 0.04800000041723251, 1.055999994277954, 0.0, 0.0, 0.0, 0.0, 0.0, 1.6202138313957577E9, 2021-05-05 13:23:51.395
46.0, 346.8925476074219, -1247.069580078125, 432.7082824707031, 492.30548095703125, -0.08000000566244125, 0.04800000041723251, 1.055999994277954, 0.0, 0.0, 0.0, 0.0, 0.0, 1.6202138314078178E9, 2021-05-05 13:23:51.407
46.0, 346.39141845703125, -1251.2470703125, 441.4559326171875, 492.5186462402344, -0.08000000566244125, 0.04800000041723251, 1.055999994277954, 0.0, 0.0, 0.0, 0.0, 0.0, 1.6202138314078178E9, 2021-05-05 13:23:51.407
47.0, 363.3780212402344, -1235.98828125, 449.95672607421875, 501.0643310546875, -0.08000000566244125, 0.04800000041723251, 1.055999994277954, 0.0, 0.0, 0.0, 0.0, 0.0, 1.6202138314236047E9, 2021-05-05 13:23:51.423
47.0, 358.4600524902344, -1233.9949951171875, 457.6122741699219, 512.1119995117188, -0.08000000566244125, 0.04800000041723251, 1.055999994277954, 0.0, 0.0, 0.0, 0.0, 0.0, 1.6202138314236047E9, 2021-05-05 13:23:51.423
48.0, 353.48974609375, -1245.2296142578125, 447.24530029296875, 501.1353759765625, -0.08000000566244125, 0.04800000041723251, 1.055999994277954, 0.0, 0.0, 0.0, 0.0, 0.0, 1.6202138314242113E9, 2021-05-05 13:23:51.424
48.0, 359.4511413574219, -1246.7218017578125, 455.0504455566406, 508.4169616699219, -0.08000000566244125, 0.04800000041723251, 1.055999994277954, 0.0, 0.0, 0.0, 0.0, 0.0, 1.6202138314242113E9, 2021-05-05 13:23:51.424
49.0, 352.9923400878906, -1248.9881591796875, 452.1071472167969, 501.9992980957031, -0.08000000566244125, 0.04800000041723251, 1.055999994277954, 0.0, 0.0, 0.0, 0.0, 0.0, 1.6202138314377956E9, 2021-05-05 13:23:51.437
49.0, 356.54150390625, -1243.0491943359375, 453.93597412109375, 509.6174621582031, -0.08000000566244125, 0.04800000041723251, 1.055999994277954, 0.0, 0.0, 0.0, 0.0, 0.0, 1.6202138314377956E9, 2021-05-05 13:23:51.437
50.0, 345.52001953125, -1256.24365234375, 440.46484375, 500.0919494628906, -0.08000000566244125, 0.04800000041723251, 1.055999994277954, 0.0, 0.0, 0.0, 0.0, 0.0, 1.6202138314536457E9, 2021-05-05 13:23:51.453
50.0, 349.6002502441406, -1250.1475830078125, 444.1673583984375, 501.23260498046875, -0.08000000566244125, 0.04800000041723251, 1.055999994277954, 0.0, 0.0, 0.0, 0.0, 0.0, 1.6202138314536457E9, 2021-05-05 13:23:51.453
51.0, 364.8179016113281, -1239.892822265625, 455.70867919921875, 509.3519287109375, -0.08000000566244125, 0.04800000041723251, 1.055999994277954, 0.0, 0.0, 0.0, 0.0, 0.0, 1.6202138314543855E9, 2021-05-05 13:23:51.454
51.0, 359.46234130859375, -1237.5889892578125, 458.0947265625, 515.7808227539062, -0.08000000566244125, 0.04800000041723251, 1.055999994277954, 0.0, 0.0, 0.0, 0.0, 0.0, 1.6202138314543855E9, 2021-05-05 13:23:51.454
52.0, 334.0983581542969, -1257.1524658203125, 438.5238342285156, 494.5456848144531, -0.08000000566244125, 0.04800000041723251, 1.055999994277954, 0.0, 0.0, 0.0, 0.0, 0.0, 1.62021383146776E9, 2021-05-05 13:23:51.467
52.0, 342.0867919921875, -1250.5888671875, 440.2666320800781, 494.4671325683594, -0.08000000566244125, 0.04800000041723251, 1.055999994277954, 0.0, 0.0, 0.0, 0.0, 0.0, 1.62021383146776E9, 2021-05-05 13:23:51.467
53.0, 366.624267578125, -1244.6162109375, 458.3041687011719, 499.9722595214844, -0.08000000566244125, 0.04800000041723251, 1.055999994277954, 0.0, 0.0, 0.0, 0.0, 0.0, 1.620213831483961E9, 2021-05-05 13:23:51.483
53.0, 363.55755615234375, -1241.0970458984375, 460.42095947265625, 504.1908874511719, -0.08000000566244125, 0.04800000041723251, 1.055999994277954, 0.0, 0.0, 0.0, 0.0, 0.0, 1.620213831483961E9, 2021-05-05 13:23:51.483
54.0, 359.3838195800781, -1262.36962890625, 450.0315246582031, 499.06719970703125, -0.08000000566244125, 0.04800000041723251, 1.055999994277954, 0.0, 0.0, 0.0, 0.0, 0.0, 1.620213831498502E9, 2021-05-05 13:23:51.498
54.0, 349.0055847167969, -1264.4638671875, 443.04913330078125, 493.74908447265625, -0.08000000566244125, 0.04800000041723251, 1.055999994277954, 0.0, 0.0, 0.0, 0.0, 0.0, 1.620213831498502E9, 2021-05-05 13:23:51.498
55.0, 362.9516906738281, -1249.298583984375, 458.1658020019531, 495.9593505859375, -0.08000000566244125, 0.04800000041723251, 1.055999994277954, 0.0, 0.0, 0.0, 0.0, 0.0, 1.6202138314992645E9, 2021-05-05 13:23:51.499
55.0, 366.9010009765625, -1250.611328125, 455.641357421875, 504.6845397949219, -0.08000000566244125, 0.04800000041723251, 1.055999994277954, 0.0, 0.0, 0.0, 0.0, 0.0, 1.6202138314992645E9, 2021-05-05 13:23:51.499
56.0, 345.84912109375, -1268.136474609375, 440.0871276855469, 497.5263671875, -0.08000000566244125, 0.04800000041723251, 1.055999994277954, 0.0, 0.0, 0.0, 0.0, 0.0, 1.6202138315134492E9, 2021-05-05 13:23:51.513
56.0, 338.3618469238281, -1250.585205078125, 439.6009216308594, 493.9098815917969, -0.08000000566244125, 0.04800000041723251, 1.055999994277954, 0.0, 0.0, 0.0, 0.0, 0.0, 1.6202138315134492E9, 2021-05-05 13:23:51.513
57.0, 357.9514465332031, -1245.30810546875, 456.4117736816406, 504.9014587402344, -0.08000000566244125, 0.04800000041723251, 1.055999994277954, 0.0, 0.0, 0.0, 0.0, 0.0, 1.6202138315141585E9, 2021-05-05 13:23:51.514
57.0, 363.0264892578125, -1246.20947265625, 460.0955810546875, 510.18218994140625, -0.08000000566244125, 0.04800000041723251, 1.055999994277954, 0.0, 0.0, 0.0, 0.0, 0.0, 1.6202138315141585E9, 2021-05-05 13:23:51.514
58.0, 354.2601623535156, -1258.7606201171875, 449.5565490722656, 504.1123352050781, -0.08000000566244125, 0.04800000041723251, 1.055999994277954, 0.0, 0.0, 0.0, 0.0, 0.0, 1.6202138315441551E9, 2021-05-05 13:23:51.544
58.0, 349.58154296875, -1255.8546142578125, 451.8677978515625, 503.6186828613281, -0.08000000566244125, 0.04800000041723251, 1.055999994277954, 0.0, 0.0, 0.0, 0.0, 0.0, 1.6202138315441551E9, 2021-05-05 13:23:51.544
59.0, 365.8014831542969, -1239.2420654296875, 472.3886413574219, 511.9212341308594, -0.08000000566244125, 0.04800000041723251, 1.055999994277954, 0.0, 0.0, 0.0, 0.0, 0.0, 1.6202138315448813E9, 2021-05-05 13:23:51.544
59.0, 372.6230773925781, -1238.5987548828125, 468.29718017578125, 517.2281494140625, -0.08000000566244125, 0.04800000041723251, 1.055999994277954, 0.0, 0.0, 0.0, 0.0, 0.0, 1.6202138315448813E9, 2021-05-05 13:23:51.544
60.0, 356.1375732421875, -1249.7249755859375, 445.7044372558594, 508.6002197265625, -0.08000000566244125, 0.04800000041723251, 1.055999994277954, 0.0, 0.0, 0.0, 0.0, 0.0, 1.620213831545652E9, 2021-05-05 13:23:51.545
60.0, 356.3731994628906, -1249.1004638671875, 447.2826843261719, 513.185302734375, -0.08000000566244125, 0.04800000041723251, 1.055999994277954, 0.0, 0.0, 0.0, 0.0, 0.0, 1.620213831545652E9, 2021-05-05 13:23:51.545
61.0, 370.7605895996094, -1240.3228759765625, 463.54376220703125, 507.2987365722656, -0.08000000566244125, 0.04800000041723251, 1.055999994277954, 0.0, 0.0, 0.0, 0.0, 0.0, 1.6202138315578945E9, 2021-05-05 13:23:51.557
61.0, 365.19189453125, -1236.8521728515625, 458.9960632324219, 504.2619323730469, -0.08000000566244125, 0.04800000041723251, 1.055999994277954, 0.0, 0.0, 0.0, 0.0, 0.0, 1.6202138315578945E9, 2021-05-05 13:23:51.557
62.0, 359.6717834472656, -1247.346435546875, 446.9311218261719, 503.11004638671875, -0.09600000083446503, 0.04800000041723251, 1.055999994277954, 0.0, 0.0, 0.0, 0.0, 0.0, 1.620213831573428E9, 2021-05-05 13:23:51.573
62.0, 352.36029052734375, -1251.3218994140625, 437.3233337402344, 494.6840515136719, -0.09600000083446503, 0.04800000041723251, 1.055999994277954, 0.0, 0.0, 0.0, 0.0, 0.0, 1.620213831573428E9, 2021-05-05 13:23:51.573
63.0, 368.0229797363281, -1234.7802734375, 457.5786437988281, 501.7150573730469, -0.09600000083446503, 0.04800000041723251, 1.055999994277954, 0.0, 0.0, 0.0, 0.0, 0.0, 1.620213831574299E9, 2021-05-05 13:23:51.574
63.0, 369.7919616699219, -1228.1607666015625, 458.1919860839844, 507.18280029296875, -0.09600000083446503, 0.04800000041723251, 1.055999994277954, 0.0, 0.0, 0.0, 0.0, 0.0, 1.620213831574299E9, 2021-05-05 13:23:51.574
64.0, 346.4400329589844, -1253.6480712890625, 439.7505187988281, 494.0071105957031, -0.09600000083446503, 0.04800000041723251, 1.055999994277954, 0.0, 0.0, 0.0, 0.0, 0.0, 1.6202138315877712E9, 2021-05-05 13:23:51.587
64.0, 348.50445556640625, -1256.4754638671875, 443.621337890625, 493.711669921875, -0.09600000083446503, 0.04800000041723251, 1.055999994277954, 0.0, 0.0, 0.0, 0.0, 0.0, 1.6202138315877712E9, 2021-05-05 13:23:51.587
65.0, 358.8003845214844, -1245.06884765625, 454.9943542480469, 504.7144470214844, -0.09600000083446503, 0.04800000041723251, 1.055999994277954, 0.0, 0.0, 0.0, 0.0, 0.0, 1.6202138316034691E9, 2021-05-05 13:23:51.603
65.0, 362.3383483886719, -1237.4169921875, 457.7319641113281, 498.6707763671875, -0.09600000083446503, 0.04800000041723251, 1.055999994277954, 0.0, 0.0, 0.0, 0.0, 0.0, 1.6202138316034691E9, 2021-05-05 13:23:51.603
66.0, 349.3833312988281, -1253.1357421875, 452.2978820800781, 504.5873107910156, -0.09600000083446503, 0.04800000041723251, 1.055999994277954, 0.0, 0.0, 0.0, 0.0, 0.0, 1.6202138316042144E9, 2021-05-05 13:23:51.604
66.0, 341.6080627441406, -1257.5638427734375, 445.94378662109375, 493.9659729003906, -0.09600000083446503, 0.04800000041723251, 1.055999994277954, 0.0, 0.0, 0.0, 0.0, 0.0, 1.6202138316042144E9, 2021-05-05 13:23:51.604
67.0, 354.6715393066406, -1241.747802734375, 457.9339294433594, 509.9428405761719, -0.09600000083446503, 0.04800000041723251, 1.055999994277954, 0.0, 0.0, 0.0, 0.0, 0.0, 1.6202138316177764E9, 2021-05-05 13:23:51.617
67.0, 353.74029541015625, -1243.4718017578125, 456.1911315917969, 508.79095458984375, -0.09600000083446503, 0.04800000041723251, 1.055999994277954, 0.0, 0.0, 0.0, 0.0, 0.0, 1.6202138316177764E9, 2021-05-05 13:23:51.617
68.0, 343.48175048828125, -1265.612060546875, 444.88916015625, 504.8042297363281, -0.09600000083446503, 0.04800000041723251, 1.055999994277954, 0.0, 0.0, 0.0, 0.0, 0.0, 1.6202138316336448E9, 2021-05-05 13:23:51.633
68.0, 342.2288818359375, -1265.0772705078125, 442.2188720703125, 499.00738525390625, -0.09600000083446503, 0.04800000041723251, 1.055999994277954, 0.0, 0.0, 0.0, 0.0, 0.0, 1.6202138316336448E9, 2021-05-05 13:23:51.633
69.0, 360.8984680175781, -1248.266357421875, 457.0887145996094, 505.3091125488281, -0.09600000083446503, 0.04800000041723251, 1.055999994277954, 0.0, 0.0, 0.0, 0.0, 0.0, 1.6202138316342547E9, 2021-05-05 13:23:51.634
69.0, 365.8014831542969, -1252.746826171875, 459.8038635253906, 508.4169616699219, -0.09600000083446503, 0.04800000041723251, 1.055999994277954, 0.0, 0.0, 0.0, 0.0, 0.0, 1.6202138316342547E9, 2021-05-05 13:23:51.634
70.0, 346.24554443359375, -1260.9371337890625, 445.6745300292969, 506.3338317871094, -0.09600000083446503, 0.04800000041723251, 1.055999994277954, 0.0, 0.0, 0.0, 0.0, 0.0, 1.620213831647732E9, 2021-05-05 13:23:51.647
70.0, 342.7487487792969, -1272.209228515625, 447.4173278808594, 506.8349914550781, -0.09600000083446503, 0.04800000041723251, 1.055999994277954, 0.0, 0.0, 0.0, 0.0, 0.0, 1.620213831647732E9, 2021-05-05 13:23:51.647
71.0, 368.5914611816406, -1247.099609375, 460.1853332519531, 508.7198791503906, -0.09600000083446503, 0.04800000041723251, 1.055999994277954, 0.0, 0.0, 0.0, 0.0, 0.0, 1.6202138316634665E9, 2021-05-05 13:23:51.663
71.0, 367.36102294921875, -1245.5924072265625, 461.3147888183594, 508.136474609375, -0.09600000083446503, 0.04800000041723251, 1.055999994277954, 0.0, 0.0, 0.0, 0.0, 0.0, 1.6202138316634665E9, 2021-05-05 13:23:51.663
72.0, 353.0260009765625, -1257.3955078125, 446.75909423828125, 501.4308166503906, -0.08000000566244125, 0.04800000041723251, 1.055999994277954, 0.0, 0.0, 0.0, 0.0, 0.0, 1.6202138316641848E9, 2021-05-05 13:23:51.664
72.0, 354.50323486328125, -1257.444091796875, 445.2593994140625, 496.587646484375, -0.08000000566244125, 0.04800000041723251, 1.055999994277954, 0.0, 0.0, 0.0, 0.0, 0.0, 1.6202138316641848E9, 2021-05-05 13:23:51.664
73.0, 367.5966491699219, -1246.86767578125, 453.29644775390625, 497.3992004394531, -0.08000000566244125, 0.04800000041723251, 1.055999994277954, 0.0, 0.0, 0.0, 0.0, 0.0, 1.620213831677724E9, 2021-05-05 13:23:51.677
73.0, 362.9815979003906, -1243.79345703125, 453.0533447265625, 500.331298828125, -0.08000000566244125, 0.04800000041723251, 1.055999994277954, 0.0, 0.0, 0.0, 0.0, 0.0, 1.620213831677724E9, 2021-05-05 13:23:51.677
74.0, 346.5223083496094, -1264.7742919921875, 438.8529357910156, 492.1895446777344, -0.08000000566244125, 0.04800000041723251, 1.055999994277954, 0.0, 0.0, 0.0, 0.0, 0.0, 1.6202138316934724E9, 2021-05-05 13:23:51.693
74.0, 351.9862976074219, -1266.18798828125, 439.4887390136719, 493.0908508300781, -0.08000000566244125, 0.04800000041723251, 1.055999994277954, 0.0, 0.0, 0.0, 0.0, 0.0, 1.6202138316934724E9, 2021-05-05 13:23:51.693
75.0, 352.3976745605469, -1261.587890625, 453.5357971191406, 503.13623046875, -0.08000000566244125, 0.04800000041723251, 1.055999994277954, 0.0, 0.0, 0.0, 0.0, 0.0, 1.6202138316941936E9, 2021-05-05 13:23:51.694
75.0, 367.8621826171875, -1250.6861572265625, 461.3671569824219, 509.146240234375, -0.08000000566244125, 0.04800000041723251, 1.055999994277954, 0.0, 0.0, 0.0, 0.0, 0.0, 1.6202138316941936E9, 2021-05-05 13:23:51.694
76.0, 345.0824279785156, -1269.2808837890625, 439.3840026855469, 500.2976379394531, -0.08000000566244125, 0.04800000041723251, 1.055999994277954, 0.0, 0.0, 0.0, 0.0, 0.0, 1.6202138317077432E9, 2021-05-05 13:23:51.707
76.0, 341.08074951171875, -1265.5970458984375, 442.6190185546875, 505.2791748046875, -0.08000000566244125, 0.04800000041723251, 1.055999994277954, 0.0, 0.0, 0.0, 0.0, 0.0, 1.6202138317077432E9, 2021-05-05 13:23:51.707
77.0, 352.2443542480469, -1250.8394775390625, 455.641357421875, 518.1856079101562, -0.08000000566244125, 0.04800000041723251, 1.055999994277954, 0.0, 0.0, 0.0, 0.0, 0.0, 1.620213831723605E9, 2021-05-05 13:23:51.723
77.0, 358.1010437011719, -1255.566650390625, 459.46728515625, 517.2169189453125, -0.08000000566244125, 0.04800000041723251, 1.055999994277954, 0.0, 0.0, 0.0, 0.0, 0.0, 1.620213831723605E9, 2021-05-05 13:23:51.723
