Sample Index, EXG Channel 0, EXG Channel 1, EXG Channel 2, EXG Channel 3, Accel Channel 0, Accel Channel 1, Accel Channel 2, Other, Other, Other, Other, Other, Timestamp, Timestamp (Formatted)
0.0, 514.1838989257812, -986.1929321289062, 402.2056579589844, 349.6862487792969, 0.0, 0.0, 0.0, 0.0, 0.0, 0.0, 0.0, 0.0, 1.6202067139038396E9, 2021-05-05 11:25:13.903
1.0, 509.6997375488281, -992.741455078125, 389.41522216796875, 343.0479431152344, 0.0, 0.04800000041723251, 0.0, 0.0, 0.0, 0.0, 0.0, 0.0, 1.6202067139171703E9, 2021-05-05 11:25:13.917
1.0, 507.8260498046875, -994.55908203125, 389.3815612792969, 349.2636413574219, 0.0, 0.04800000041723251, 0.0, 0.0, 0.0, 0.0, 0.0, 0.0, 1.6202067139171703E9, 2021-05-05 11:25:13.917
2.0, 532.1017456054688, -987.7823486328125, 408.6607360839844, 356.30963134765625, -0.09600000083446503, 0.04800000041723251, 0.0, 0.0, 0.0, 0.0, 0.0, 0.0, 1.6202067139502113E9, 2021-05-05 11:25:13.950
2.0, 530.0372924804688, -995.4454345703125, 406.8356628417969, 350.8418884277344, -0.09600000083446503, 0.04800000041723251, 0.0, 0.0, 0.0, 0.0, 0.0, 0.0, 1.6202067139502113E9, 2021-05-05 11:25:13.950
3.0, 511.5397644042969, -1007.3981323242188, 389.5348815917969, 341.78759765625, -0.09600000083446503, 0.04800000041723251, 0.0, 0.0, 0.0, 0.0, 0.0, 0.0, 1.6202067139509497E9, 2021-05-05 11:25:13.950
3.0, 514.8046875, -1002.166015625, 386.1128845214844, 334.3190002441406, -0.09600000083446503, 0.04800000041723251, 0.0, 0.0, 0.0, 0.0, 0.0, 0.0, 1.6202067139509497E9, 2021-05-05 11:25:13.950
4.0, 530.2318115234375, -984.5436401367188, 405.0218200683594, 350.509033203125, -0.09600000083446503, 0.04800000041723251, 0.0, 0.0, 0.0, 0.0, 0.0, 0.0, 1.6202067139516933E9, 2021-05-05 11:25:13.951
4.0, 524.042236328125, -992.8723754882812, 395.94134521484375, 341.6080627441406, -0.09600000083446503, 0.04800000041723251, 0.0, 0.0, 0.0, 0.0, 0.0, 0.0, 1.6202067139516933E9, 2021-05-05 11:25:13.951
5.0, 496.9990539550781, -999.5556030273438, 382.79559326171875, 330.332275390625, -0.09600000083446503, 0.04800000041723251, 0.0, 0.0, 0.0, 0.0, 0.0, 0.0, 1.6202067139627302E9, 2021-05-05 11:25:13.962
5.0, 506.1243896484375, -998.4373779296875, 387.8407287597656, 336.19268798828125, -0.09600000083446503, 0.04800000041723251, 0.0, 0.0, 0.0, 0.0, 0.0, 0.0, 1.6202067139627302E9, 2021-05-05 11:25:13.962
6.0, 517.69189453125, -986.6529541015625, 400.5526428222656, 346.9336853027344, -0.09600000083446503, 0.04800000041723251, 0.0, 0.0, 0.0, 0.0, 0.0, 0.0, 1.6202067139633904E9, 2021-05-05 11:25:13.963
6.0, 511.78662109375, -987.236328125, 401.52874755859375, 347.8050842285156, -0.09600000083446503, 0.04800000041723251, 0.0, 0.0, 0.0, 0.0, 0.0, 0.0, 1.6202067139633904E9, 2021-05-05 11:25:13.963
7.0, 498.9325866699219, -993.69140625, 390.0697021484375, 336.7013244628906, -0.09600000083446503, 0.04800000041723251, 0.0, 0.0, 0.0, 0.0, 0.0, 0.0, 1.6202067139770517E9, 2021-05-05 11:25:13.977
7.0, 503.4578552246094, -998.62060546875, 385.9632873535156, 339.2593994140625, -0.09600000083446503, 0.04800000041723251, 0.0, 0.0, 0.0, 0.0, 0.0, 0.0, 1.6202067139770517E9, 2021-05-05 11:25:13.977
8.0, 513.1404418945312, -987.2512817382812, 399.84954833984375, 347.9845886230469, -0.09600000083446503, 0.04800000041723251, 0.0, 0.0, 0.0, 0.0, 0.0, 0.0, 1.6202067140090325E9, 2021-05-05 11:25:14.009
8.0, 510.836669921875, -993.4595336914062, 399.9953918457031, 350.1874084472656, -0.09600000083446503, 0.04800000041723251, 0.0, 0.0, 0.0, 0.0, 0.0, 0.0, 1.6202067140090325E9, 2021-05-05 11:25:14.009
9.0, 498.4127197265625, -1003.9686889648438, 384.90863037109375, 339.3341979980469, -0.09600000083446503, 0.04800000041723251, 0.0, 0.0, 0.0, 0.0, 0.0, 0.0, 1.6202067140097985E9, 2021-05-05 11:25:14.009
9.0, 503.4017639160156, -1006.1490478515625, 384.5870056152344, 336.929443359375, -0.09600000083446503, 0.04800000041723251, 0.0, 0.0, 0.0, 0.0, 0.0, 0.0, 1.6202067140097985E9, 2021-05-05 11:25:14.009
10.0, 522.9240112304688, -990.1721801757812, 401.027587890625, 344.581298828125, -0.09600000083446503, 0.04800000041723251, 1.040000081062317, 0.0, 0.0, 0.0, 0.0, 0.0, 1.620206714010491E9, 2021-05-05 11:25:14.010
10.0, 517.280517578125, -997.1209106445312, 392.4632263183594, 341.5931091308594, -0.09600000083446503, 0.04800000041723251, 1.040000081062317, 0.0, 0.0, 0.0, 0.0, 0.0, 1.620206714010491E9, 2021-05-05 11:25:14.010
11.0, 502.4742736816406, -999.8847045898438, 382.64599609375, 333.0661315917969, -0.09600000083446503, 0.04800000041723251, 1.040000081062317, 0.0, 0.0, 0.0, 0.0, 0.0, 1.6202067140113144E9, 2021-05-05 11:25:14.011
11.0, 499.8451232910156, -1002.0613403320312, 382.3280944824219, 330.0779724121094, -0.09600000083446503, 0.04800000041723251, 1.040000081062317, 0.0, 0.0, 0.0, 0.0, 0.0, 1.6202067140113144E9, 2021-05-05 11:25:14.011
12.0, 510.12982177734375, -991.402587890625, 393.04290771484375, 340.0260925292969, -0.09600000083446503, 0.04800000041723251, 1.040000081062317, 0.0, 0.0, 0.0, 0.0, 0.0, 1.620206714021942E9, 2021-05-05 11:25:14.021
12.0, 513.2900390625, -992.8873291015625, 391.3450012207031, 342.82354736328125, -0.09600000083446503, 0.04800000041723251, 1.040000081062317, 0.0, 0.0, 0.0, 0.0, 0.0, 1.620206714021942E9, 2021-05-05 11:25:14.021
13.0, 498.9475402832031, -1000.1090698242188, 379.49700927734375, 334.68927001953125, -0.09600000083446503, 0.04800000041723251, 1.040000081062317, 0.0, 0.0, 0.0, 0.0, 0.0, 1.620206714036945E9, 2021-05-05 11:25:14.036
13.0, 496.1725158691406, -1002.4166259765625, 376.3704528808594, 333.6944580078125, -0.09600000083446503, 0.04800000041723251, 1.040000081062317, 0.0, 0.0, 0.0, 0.0, 0.0, 1.620206714036945E9, 2021-05-05 11:25:14.036
14.0, 516.973876953125, -980.4970703125, 395.4813232421875, 345.6808166503906, -0.09600000083446503, 0.04800000041723251, 1.040000081062317, 0.0, 0.0, 0.0, 0.0, 0.0, 1.6202067140533864E9, 2021-05-05 11:25:14.053
14.0, 505.413818359375, -980.2464599609375, 393.91058349609375, 343.1189880371094, -0.09600000083446503, 0.04800000041723251, 1.040000081062317, 0.0, 0.0, 0.0, 0.0, 0.0, 1.6202067140533864E9, 2021-05-05 11:25:14.053
15.0, 498.5286560058594, -990.5424194335938, 383.4687805175781, 335.5606384277344, -0.09600000083446503, 0.04800000041723251, 1.040000081062317, 0.0, 0.0, 0.0, 0.0, 0.0, 1.6202067140540597E9, 2021-05-05 11:25:14.054
15.0, 501.62530517578125, -990.79296875, 388.0277099609375, 337.1239318847656, -0.09600000083446503, 0.04800000041723251, 1.040000081062317, 0.0, 0.0, 0.0, 0.0, 0.0, 1.6202067140540597E9, 2021-05-05 11:25:14.054
16.0, 517.291748046875, -974.4945068359375, 405.36962890625, 352.53607177734375, -0.09600000083446503, 0.04800000041723251, 1.040000081062317, 0.0, 0.0, 0.0, 0.0, 0.0, 1.6202067140834315E9, 2021-05-05 11:25:14.083
16.0, 519.8311157226562, -977.505126953125, 402.28045654296875, 349.7648010253906, -0.09600000083446503, 0.04800000041723251, 1.040000081062317, 0.0, 0.0, 0.0, 0.0, 0.0, 1.6202067140834315E9, 2021-05-05 11:25:14.083
17.0, 501.7973327636719, -994.7423095703125, 382.74322509765625, 335.919677734375, -0.09600000083446503, 0.04800000041723251, 1.040000081062317, 0.0, 0.0, 0.0, 0.0, 0.0, 1.620206714084097E9, 2021-05-05 11:25:14.084
17.0, 507.8447570800781, -989.9440307617188, 380.3534240722656, 331.0316467285156, -0.09600000083446503, 0.04800000041723251, 1.040000081062317, 0.0, 0.0, 0.0, 0.0, 0.0, 1.620206714084097E9, 2021-05-05 11:25:14.084
18.0, 519.6553344726562, -975.9268798828125, 386.8346862792969, 337.456787109375, -0.09600000083446503, 0.04800000041723251, 1.040000081062317, 0.0, 0.0, 0.0, 0.0, 0.0, 1.620206714084818E9, 2021-05-05 11:25:14.084
18.0, 517.5498046875, -982.8494262695312, 389.6358642578125, 335.1903991699219, -0.09600000083446503, 0.04800000041723251, 1.040000081062317, 0.0, 0.0, 0.0, 0.0, 0.0, 1.620206714084818E9, 2021-05-05 11:25:14.084
19.0, 499.8338928222656, -1003.7479858398438, 373.5655212402344, 328.477294921875, -0.09600000083446503, 0.04800000041723251, 1.040000081062317, 0.0, 0.0, 0.0, 0.0, 0.0, 1.6202067140969863E9, 2021-05-05 11:25:14.096
19.0, 495.6639099121094, -1000.0155639648438, 373.9432373046875, 328.3613586425781, -0.09600000083446503, 0.04800000041723251, 1.040000081062317, 0.0, 0.0, 0.0, 0.0, 0.0, 1.6202067140969863E9, 2021-05-05 11:25:14.096
20.0, 522.7520141601562, -988.0778198242188, 397.8598937988281, 343.0479431152344, -0.09600000083446503, 0.04800000041723251, 1.040000081062317, 0.0, 0.0, 0.0, 0.0, 0.0, 1.620206714113422E9, 2021-05-05 11:25:14.113
20.0, 520.4182739257812, -989.240966796875, 394.9951477050781, 339.71942138671875, -0.09600000083446503, 0.04800000041723251, 1.040000081062317, 0.0, 0.0, 0.0, 0.0, 0.0, 1.620206714113422E9, 2021-05-05 11:25:14.113
21.0, 507.79986572265625, -999.3910522460938, 384.2990417480469, 332.7893981933594, -0.09600000083446503, 0.04800000041723251, 1.040000081062317, 0.0, 0.0, 0.0, 0.0, 0.0, 1.620206714114092E9, 2021-05-05 11:25:14.114
21.0, 499.19061279296875, -998.3812255859375, 375.1736755371094, 330.5566711425781, -0.09600000083446503, 0.04800000041723251, 1.040000081062317, 0.0, 0.0, 0.0, 0.0, 0.0, 1.620206714114092E9, 2021-05-05 11:25:14.114
22.0, 516.9027709960938, -984.7530517578125, 391.7489013671875, 341.5818786621094, -0.09600000083446503, 0.04800000041723251, 1.040000081062317, 0.0, 0.0, 0.0, 0.0, 0.0, 1.6202067141270175E9, 2021-05-05 11:25:14.127
22.0, 519.662841796875, -989.6972045898438, 390.1183166503906, 343.4480895996094, -0.09600000083446503, 0.04800000041723251, 1.040000081062317, 0.0, 0.0, 0.0, 0.0, 0.0, 1.6202067141270175E9, 2021-05-05 11:25:14.127
23.0, 511.2630310058594, -996.40283203125, 377.3428039550781, 335.22406005859375, -0.09600000083446503, 0.04800000041723251, 1.040000081062317, 0.0, 0.0, 0.0, 0.0, 0.0, 1.6202067141427217E9, 2021-05-05 11:25:14.142
23.0, 508.3608703613281, -997.3565063476562, 381.3893737792969, 333.7991638183594, -0.09600000083446503, 0.04800000041723251, 1.040000081062317, 0.0, 0.0, 0.0, 0.0, 0.0, 1.6202067141427217E9, 2021-05-05 11:25:14.142
24.0, 522.3106689453125, -979.1806030273438, 395.9600524902344, 342.4495544433594, -0.09600000083446503, 0.04800000041723251, 1.040000081062317, 0.0, 0.0, 0.0, 0.0, 0.0, 1.6202067141433887E9, 2021-05-05 11:25:14.143
24.0, 525.0482788085938, -980.579345703125, 397.8973083496094, 351.63848876953125, -0.09600000083446503, 0.04800000041723251, 1.040000081062317, 0.0, 0.0, 0.0, 0.0, 0.0, 1.6202067141433887E9, 2021-05-05 11:25:14.143
25.0, 509.7820129394531, -1000.2848510742188, 386.2325439453125, 343.571533203125, -0.09600000083446503, 0.04800000041723251, 1.040000081062317, 0.0, 0.0, 0.0, 0.0, 0.0, 1.6202067141569972E9, 2021-05-05 11:25:14.156
25.0, 504.40777587890625, -998.4261474609375, 388.7008972167969, 335.5980529785156, -0.09600000083446503, 0.04800000041723251, 1.040000081062317, 0.0, 0.0, 0.0, 0.0, 0.0, 1.6202067141569972E9, 2021-05-05 11:25:14.156
26.0, 525.9458618164062, -984.8203735351562, 399.5765075683594, 347.9322509765625, -0.09600000083446503, 0.04800000041723251, 1.040000081062317, 0.0, 0.0, 0.0, 0.0, 0.0, 1.62020671417281E9, 2021-05-05 11:25:14.172
26.0, 523.9412841796875, -988.2274169921875, 402.4898986816406, 349.21502685546875, -0.09600000083446503, 0.04800000041723251, 1.040000081062317, 0.0, 0.0, 0.0, 0.0, 0.0, 1.62020671417281E9, 2021-05-05 11:25:14.172
27.0, 508.1589050292969, -999.2003173828125, 381.6698913574219, 334.65185546875, -0.09600000083446503, 0.04800000041723251, 1.040000081062317, 0.0, 0.0, 0.0, 0.0, 0.0, 1.6202067141733756E9, 2021-05-05 11:25:14.173
27.0, 506.61431884765625, -998.4036865234375, 381.6287536621094, 334.4274597167969, -0.09600000083446503, 0.04800000041723251, 1.040000081062317, 0.0, 0.0, 0.0, 0.0, 0.0, 1.6202067141733756E9, 2021-05-05 11:25:14.173
28.0, 524.30029296875, -979.7153930664062, 394.11627197265625, 344.5738220214844, -0.09600000083446503, 0.04800000041723251, 1.040000081062317, 0.0, 0.0, 0.0, 0.0, 0.0, 1.620206714186986E9, 2021-05-05 11:25:14.186
28.0, 516.1921997070312, -987.715087890625, 387.7883605957031, 336.92572021484375, -0.09600000083446503, 0.04800000041723251, 1.040000081062317, 0.0, 0.0, 0.0, 0.0, 0.0, 1.620206714186986E9, 2021-05-05 11:25:14.186
29.0, 502.6612548828125, -995.8792724609375, 376.50506591796875, 336.2263488769531, -0.09600000083446503, 0.04800000041723251, 1.040000081062317, 0.0, 0.0, 0.0, 0.0, 0.0, 1.6202067142026663E9, 2021-05-05 11:25:14.202
29.0, 502.21246337890625, -992.5619506835938, 382.84796142578125, 335.7102355957031, -0.09600000083446503, 0.04800000041723251, 1.040000081062317, 0.0, 0.0, 0.0, 0.0, 0.0, 1.6202067142026663E9, 2021-05-05 11:25:14.202
30.0, 515.5938110351562, -979.9285888671875, 391.9732971191406, 344.6822814941406, -0.09600000083446503, 0.04800000041723251, 1.040000081062317, 0.0, 0.0, 0.0, 0.0, 0.0, 1.6202067142033632E9, 2021-05-05 11:25:14.203
30.0, 512.6842041015625, -980.3998413085938, 389.7293701171875, 340.42999267578125, -0.09600000083446503, 0.04800000041723251, 1.040000081062317, 0.0, 0.0, 0.0, 0.0, 0.0, 1.6202067142033632E9, 2021-05-05 11:25:14.203
31.0, 498.0761413574219, -994.9143676757812, 378.8537292480469, 335.35870361328125, -0.09600000083446503, 0.04800000041723251, 1.040000081062317, 0.0, 0.0, 0.0, 0.0, 0.0, 1.6202067142169988E9, 2021-05-05 11:25:14.216
31.0, 498.3790588378906, -996.9750366210938, 375.5850524902344, 335.1604919433594, -0.09600000083446503, 0.04800000041723251, 1.040000081062317, 0.0, 0.0, 0.0, 0.0, 0.0, 1.6202067142169988E9, 2021-05-05 11:25:14.216
32.0, 520.1939086914062, -978.6121215820312, 399.4718017578125, 352.5061340332031, -0.09600000083446503, 0.04800000041723251, 1.040000081062317, 0.0, 0.0, 0.0, 0.0, 0.0, 1.620206714232636E9, 2021-05-05 11:25:14.232
32.0, 516.7083129882812, -977.76318359375, 396.92120361328125, 351.3467712402344, -0.09600000083446503, 0.04800000041723251, 1.040000081062317, 0.0, 0.0, 0.0, 0.0, 0.0, 1.620206714232636E9, 2021-05-05 11:25:14.232
33.0, 500.4434814453125, -994.9630126953125, 387.6911315917969, 345.3666687011719, -0.09600000083446503, 0.04800000041723251, 1.040000081062317, 0.0, 0.0, 0.0, 0.0, 0.0, 1.620206714233352E9, 2021-05-05 11:25:14.233
33.0, 511.74920654296875, -990.381591796875, 390.0771789550781, 338.3880310058594, -0.09600000083446503, 0.04800000041723251, 1.040000081062317, 0.0, 0.0, 0.0, 0.0, 0.0, 1.620206714233352E9, 2021-05-05 11:25:14.233
34.0, 518.828857421875, -979.0908203125, 399.5989685058594, 349.5216979980469, -0.09600000083446503, 0.04800000041723251, 1.040000081062317, 0.0, 0.0, 0.0, 0.0, 0.0, 1.6202067142469866E9, 2021-05-05 11:25:14.246
34.0, 514.7635498046875, -988.8519897460938, 395.7506103515625, 348.9382629394531, -0.09600000083446503, 0.04800000041723251, 1.040000081062317, 0.0, 0.0, 0.0, 0.0, 0.0, 1.6202067142469866E9, 2021-05-05 11:25:14.246
35.0, 496.32586669921875, -1003.38525390625, 380.7386474609375, 337.22491455078125, -0.09600000083446503, 0.04800000041723251, 1.040000081062317, 0.0, 0.0, 0.0, 0.0, 0.0, 1.6202067142626655E9, 2021-05-05 11:25:14.262
35.0, 500.0133972167969, -999.6752319335938, 376.8416748046875, 335.35870361328125, -0.09600000083446503, 0.04800000041723251, 1.040000081062317, 0.0, 0.0, 0.0, 0.0, 0.0, 1.6202067142626655E9, 2021-05-05 11:25:14.262
36.0, 515.4517211914062, -975.3659057617188, 392.3772277832031, 341.3013916015625, -0.09600000083446503, 0.04800000041723251, 1.040000081062317, 0.0, 0.0, 0.0, 0.0, 0.0, 1.620206714263362E9, 2021-05-05 11:25:14.263
36.0, 505.9523620605469, -983.7357788085938, 389.0262756347656, 340.1158447265625, -0.09600000083446503, 0.04800000041723251, 1.040000081062317, 0.0, 0.0, 0.0, 0.0, 0.0, 1.620206714263362E9, 2021-05-05 11:25:14.263
37.0, 493.5658264160156, -987.483154296875, 378.81634521484375, 334.6219482421875, -0.09600000083446503, 0.04800000041723251, 1.040000081062317, 0.0, 0.0, 0.0, 0.0, 0.0, 1.6202067142769904E9, 2021-05-05 11:25:14.276
37.0, 493.3339538574219, -990.0711669921875, 377.810302734375, 332.16107177734375, -0.09600000083446503, 0.04800000041723251, 1.040000081062317, 0.0, 0.0, 0.0, 0.0, 0.0, 1.6202067142769904E9, 2021-05-05 11:25:14.276
38.0, 515.8032836914062, -973.2304077148438, 396.4686584472656, 348.149169921875, -0.09600000083446503, 0.04800000041723251, 1.040000081062317, 0.0, 0.0, 0.0, 0.0, 0.0, 1.6202067142926545E9, 2021-05-05 11:25:14.292
38.0, 516.341796875, -977.9314575195312, 402.9536437988281, 355.24749755859375, -0.09600000083446503, 0.04800000041723251, 1.040000081062317, 0.0, 0.0, 0.0, 0.0, 0.0, 1.6202067142926545E9, 2021-05-05 11:25:14.292
39.0, 502.0254821777344, -995.6810302734375, 386.812255859375, 347.15435791015625, -0.09600000083446503, 0.04800000041723251, 1.040000081062317, 0.0, 0.0, 0.0, 0.0, 0.0, 1.6202067142933445E9, 2021-05-05 11:25:14.293
39.0, 500.9820251464844, -997.0573120117188, 388.9065856933594, 344.0689392089844, -0.09600000083446503, 0.04800000041723251, 1.040000081062317, 0.0, 0.0, 0.0, 0.0, 0.0, 1.6202067142933445E9, 2021-05-05 11:25:14.293
40.0, 516.3978881835938, -977.9838256835938, 404.8572692871094, 358.40771484375, -0.09600000083446503, 0.04800000041723251, 1.040000081062317, 0.0, 0.0, 0.0, 0.0, 0.0, 1.6202067143070457E9, 2021-05-05 11:25:14.307
40.0, 512.0259399414062, -982.8831176757812, 397.8711242675781, 351.15228271484375, -0.09600000083446503, 0.04800000041723251, 1.040000081062317, 0.0, 0.0, 0.0, 0.0, 0.0, 1.6202067143070457E9, 2021-05-05 11:25:14.307
41.0, 503.042724609375, -992.4834594726562, 388.7981262207031, 339.0050964355469, -0.09600000083446503, 0.04800000041723251, 1.040000081062317, 0.0, 0.0, 0.0, 0.0, 0.0, 1.6202067143226345E9, 2021-05-05 11:25:14.322
41.0, 497.32440185546875, -1002.19970703125, 379.7064208984375, 329.7787780761719, -0.09600000083446503, 0.04800000041723251, 1.040000081062317, 0.0, 0.0, 0.0, 0.0, 0.0, 1.6202067143226345E9, 2021-05-05 11:25:14.322
42.0, 514.6214599609375, -980.1829223632812, 392.06304931640625, 344.5289306640625, -0.09600000083446503, 0.04800000041723251, 1.040000081062317, 0.0, 0.0, 0.0, 0.0, 0.0, 1.6202067143233397E9, 2021-05-05 11:25:14.323
42.0, 513.2750854492188, -986.4434814453125, 388.01275634765625, 340.1869201660156, -0.09600000083446503, 0.04800000041723251, 1.040000081062317, 0.0, 0.0, 0.0, 0.0, 0.0, 1.6202067143233397E9, 2021-05-05 11:25:14.323
43.0, 498.3080139160156, -995.6697998046875, 380.2225341796875, 329.7114562988281, -0.09600000083446503, 0.04800000041723251, 1.040000081062317, 0.0, 0.0, 0.0, 0.0, 0.0, 1.6202067143370018E9, 2021-05-05 11:25:14.337
43.0, 500.9259338378906, -1000.9655151367188, 378.85748291015625, 331.4879150390625, -0.09600000083446503, 0.04800000041723251, 1.040000081062317, 0.0, 0.0, 0.0, 0.0, 0.0, 1.6202067143370018E9, 2021-05-05 11:25:14.337
44.0, 520.9157104492188, -982.7671508789062, 389.1758728027344, 341.9334411621094, -0.09600000083446503, 0.04800000041723251, 1.040000081062317, 0.0, 0.0, 0.0, 0.0, 0.0, 1.6202067143526642E9, 2021-05-05 11:25:14.352
44.0, 518.828857421875, -988.3770141601562, 389.36285400390625, 341.08074951171875, -0.09600000083446503, 0.04800000041723251, 1.040000081062317, 0.0, 0.0, 0.0, 0.0, 0.0, 1.6202067143526642E9, 2021-05-05 11:25:14.352
45.0, 507.9382629394531, -993.560546875, 382.223388671875, 333.9786682128906, -0.09600000083446503, 0.04800000041723251, 1.040000081062317, 0.0, 0.0, 0.0, 0.0, 0.0, 1.6202067143533907E9, 2021-05-05 11:25:14.353
45.0, 495.6489562988281, -1002.2632446289062, 376.2806701660156, 333.90386962890625, -0.09600000083446503, 0.04800000041723251, 1.040000081062317, 0.0, 0.0, 0.0, 0.0, 0.0, 1.6202067143533907E9, 2021-05-05 11:25:14.353
46.0, 513.6790161132812, -985.2654418945312, 390.2118225097656, 342.0157165527344, -0.09600000083446503, 0.04800000041723251, 1.040000081062317, 0.0, 0.0, 0.0, 0.0, 0.0, 1.6202067143669612E9, 2021-05-05 11:25:14.366
46.0, 510.847900390625, -982.5166015625, 386.6738586425781, 342.3111877441406, -0.09600000083446503, 0.04800000041723251, 1.040000081062317, 0.0, 0.0, 0.0, 0.0, 0.0, 1.6202067143669612E9, 2021-05-05 11:25:14.366
47.0, 503.3082580566406, -998.5196533203125, 380.510498046875, 339.7979736328125, -0.09600000083446503, 0.04800000041723251, 1.040000081062317, 0.0, 0.0, 0.0, 0.0, 0.0, 1.6202067143826509E9, 2021-05-05 11:25:14.382
47.0, 502.67620849609375, -992.9733276367188, 380.57781982421875, 334.1918640136719, -0.09600000083446503, 0.04800000041723251, 1.040000081062317, 0.0, 0.0, 0.0, 0.0, 0.0, 1.6202067143826509E9, 2021-05-05 11:25:14.382
48.0, 514.6887817382812, -978.806640625, 394.95025634765625, 349.1813659667969, -0.09600000083446503, 0.04800000041723251, 1.040000081062317, 0.0, 0.0, 0.0, 0.0, 0.0, 1.620206714383391E9, 2021-05-05 11:25:14.383
48.0, 515.578857421875, -979.4386596679688, 397.0782775878906, 351.0737609863281, -0.09600000083446503, 0.04800000041723251, 1.040000081062317, 0.0, 0.0, 0.0, 0.0, 0.0, 1.620206714383391E9, 2021-05-05 11:25:14.383
49.0, 501.28497314453125, -994.0691528320312, 382.634765625, 339.8577880859375, -0.09600000083446503, 0.04800000041723251, 1.040000081062317, 0.0, 0.0, 0.0, 0.0, 0.0, 1.620206714396953E9, 2021-05-05 11:25:14.396
49.0, 491.6771545410156, -1000.5316772460938, 380.9667663574219, 343.24615478515625, -0.09600000083446503, 0.04800000041723251, 1.040000081062317, 0.0, 0.0, 0.0, 0.0, 0.0, 1.620206714396953E9, 2021-05-05 11:25:14.396
50.0, 515.2460327148438, -984.7156372070312, 394.66229248046875, 349.6413879394531, -0.09600000083446503, 0.04800000041723251, 1.040000081062317, 0.0, 0.0, 0.0, 0.0, 0.0, 1.6202067144127383E9, 2021-05-05 11:25:14.412
50.0, 512.3999633789062, -990.9052124023438, 396.6294860839844, 349.8507995605469, -0.09600000083446503, 0.04800000041723251, 1.040000081062317, 0.0, 0.0, 0.0, 0.0, 0.0, 1.6202067144127383E9, 2021-05-05 11:25:14.412
51.0, 492.8028869628906, -1003.52734375, 378.7976379394531, 338.1748352050781, -0.09600000083446503, 0.04800000041723251, 1.040000081062317, 0.0, 0.0, 0.0, 0.0, 0.0, 1.6202067144276319E9, 2021-05-05 11:25:14.427
51.0, 490.75714111328125, -1004.6455688476562, 381.14630126953125, 333.7056579589844, -0.09600000083446503, 0.04800000041723251, 1.040000081062317, 0.0, 0.0, 0.0, 0.0, 0.0, 1.6202067144276319E9, 2021-05-05 11:25:14.427
52.0, 516.4913940429688, -990.16845703125, 397.9571533203125, 347.4759826660156, -0.09600000083446503, 0.04800000041723251, 1.040000081062317, 0.0, 0.0, 0.0, 0.0, 0.0, 1.6202067144283469E9, 2021-05-05 11:25:14.428
52.0, 514.580322265625, -985.1868896484375, 395.099853515625, 342.0680847167969, -0.09600000083446503, 0.04800000041723251, 1.040000081062317, 0.0, 0.0, 0.0, 0.0, 0.0, 1.6202067144283469E9, 2021-05-05 11:25:14.428
53.0, 501.587890625, -1003.396484375, 372.77264404296875, 324.228759765625, -0.09600000083446503, 0.04800000041723251, 1.040000081062317, 0.0, 0.0, 0.0, 0.0, 0.0, 1.6202067144426713E9, 2021-05-05 11:25:14.442
53.0, 506.0645751953125, -998.055908203125, 376.88653564453125, 327.9162902832031, -0.09600000083446503, 0.04800000041723251, 1.040000081062317, 0.0, 0.0, 0.0, 0.0, 0.0, 1.6202067144426713E9, 2021-05-05 11:25:14.442
54.0, 522.1087036132812, -992.5582275390625, 394.8829345703125, 338.5002136230469, -0.09600000083446503, 0.04800000041723251, 1.040000081062317, 0.0, 0.0, 0.0, 0.0, 0.0, 1.6202067144434671E9, 2021-05-05 11:25:14.443
54.0, 520.2911376953125, -988.5752563476562, 402.7180480957031, 346.9822998046875, -0.09600000083446503, 0.04800000041723251, 1.040000081062317, 0.0, 0.0, 0.0, 0.0, 0.0, 1.6202067144434671E9, 2021-05-05 11:25:14.443
55.0, 500.9371643066406, -998.8749389648438, 382.1784973144531, 339.80169677734375, -0.09600000083446503, 0.04800000041723251, 1.040000081062317, 0.0, 0.0, 0.0, 0.0, 0.0, 1.62020671445696E9, 2021-05-05 11:25:14.456
55.0, 506.8648986816406, -995.4940795898438, 393.2411193847656, 342.10174560546875, -0.09600000083446503, 0.04800000041723251, 1.040000081062317, 0.0, 0.0, 0.0, 0.0, 0.0, 1.62020671445696E9, 2021-05-05 11:25:14.456
56.0, 523.701904296875, -983.1336669921875, 404.4383850097656, 355.3110656738281, -0.09600000083446503, 0.04800000041723251, 1.040000081062317, 0.0, 0.0, 0.0, 0.0, 0.0, 1.620206714472641E9, 2021-05-05 11:25:14.472
56.0, 518.982177734375, -992.457275390625, 398.0730895996094, 346.9112548828125, -0.09600000083446503, 0.04800000041723251, 1.040000081062317, 0.0, 0.0, 0.0, 0.0, 0.0, 1.620206714472641E9, 2021-05-05 11:25:14.472
57.0, 506.46099853515625, -1005.9956665039062, 387.6424865722656, 340.05975341796875, -0.09600000083446503, 0.04800000041723251, 1.040000081062317, 0.0, 0.0, 0.0, 0.0, 0.0, 1.6202067144733994E9, 2021-05-05 11:25:14.473
57.0, 502.38824462890625, -1008.9352416992188, 379.4820251464844, 346.41009521484375, -0.09600000083446503, 0.04800000041723251, 1.040000081062317, 0.0, 0.0, 0.0, 0.0, 0.0, 1.6202067144733994E9, 2021-05-05 11:25:14.473
58.0, 512.9983520507812, -1001.1337890625, 395.0923767089844, 392.26129150390625, -0.09600000083446503, 0.04800000041723251, 1.040000081062317, 0.0, 0.0, 0.0, 0.0, 0.0, 1.6202067144869654E9, 2021-05-05 11:25:14.486
58.0, 504.2881164550781, -999.3311767578125, 388.2932434082031, 389.5049743652344, -0.09600000083446503, 0.04800000041723251, 1.040000081062317, 0.0, 0.0, 0.0, 0.0, 0.0, 1.6202067144869654E9, 2021-05-05 11:25:14.486
59.0, 491.6996154785156, -1003.1458740234375, 376.04132080078125, 337.7746887207031, -0.09600000083446503, 0.04800000041723251, 1.040000081062317, 0.0, 0.0, 0.0, 0.0, 0.0, 1.6202067145027137E9, 2021-05-05 11:25:14.502
59.0, 495.48065185546875, -1000.9169311523438, 378.2964782714844, 337.9990539550781, -0.09600000083446503, 0.04800000041723251, 1.040000081062317, 0.0, 0.0, 0.0, 0.0, 0.0, 1.6202067145027137E9, 2021-05-05 11:25:14.502
60.0, 512.5944213867188, -981.8172607421875, 394.62115478515625, 350.0228576660156, -0.09600000083446503, 0.04800000041723251, 1.040000081062317, 0.0, 0.0, 0.0, 0.0, 0.0, 1.6202067145035045E9, 2021-05-05 11:25:14.503
60.0, 511.4388122558594, -980.9608154296875, 394.2621154785156, 355.438232421875, -0.09600000083446503, 0.04800000041723251, 1.040000081062317, 0.0, 0.0, 0.0, 0.0, 0.0, 1.6202067145035045E9, 2021-05-05 11:25:14.503
61.0, 493.9098815917969, -994.4281616210938, 379.7288818359375, 351.9750671386719, -0.09600000083446503, 0.04800000041723251, 1.040000081062317, 0.0, 0.0, 0.0, 0.0, 0.0, 1.6202067145170777E9, 2021-05-05 11:25:14.517
61.0, 491.0451354980469, -1004.8699951171875, 382.9377136230469, 347.9808654785156, -0.09600000083446503, 0.04800000041723251, 1.040000081062317, 0.0, 0.0, 0.0, 0.0, 0.0, 1.6202067145170777E9, 2021-05-05 11:25:14.517
62.0, 516.7905883789062, -976.6898193359375, 395.0213317871094, 354.80242919921875, -0.09600000083446503, 0.04800000041723251, 1.040000081062317, 0.0, 0.0, 0.0, 0.0, 0.0, 1.6202067145330827E9, 2021-05-05 11:25:14.533
62.0, 516.0276489257812, -982.905517578125, 392.9531555175781, 354.6678161621094, -0.09600000083446503, 0.04800000041723251, 1.040000081062317, 0.0, 0.0, 0.0, 0.0, 0.0, 1.6202067145330827E9, 2021-05-05 11:25:14.533
63.0, 505.90374755859375, -1002.2296142578125, 376.295654296875, 348.1603698730469, -0.09600000083446503, 0.04800000041723251, 1.040000081062317, 0.0, 0.0, 0.0, 0.0, 0.0, 1.6202067145477536E9, 2021-05-05 11:25:14.547
63.0, 500.05828857421875, -1000.2960815429688, 375.7496032714844, 341.7127990722656, -0.09600000083446503, 0.04800000041723251, 1.040000081062317, 0.0, 0.0, 0.0, 0.0, 0.0, 1.6202067145477536E9, 2021-05-05 11:25:14.547
64.0, 528.1449584960938, -986.7277221679688, 396.7641296386719, 359.2716064453125, -0.09600000083446503, 0.04800000041723251, 1.040000081062317, 0.0, 0.0, 0.0, 0.0, 0.0, 1.6202067145484295E9, 2021-05-05 11:25:14.548
64.0, 519.42724609375, -990.2656860351562, 388.2932434082031, 351.2794494628906, -0.09600000083446503, 0.04800000041723251, 1.040000081062317, 0.0, 0.0, 0.0, 0.0, 0.0, 1.6202067145484295E9, 2021-05-05 11:25:14.548
65.0, 502.93426513671875, -1006.9830322265625, 380.0617370605469, 353.5234069824219, -0.09600000083446503, 0.04800000041723251, 1.040000081062317, 0.0, 0.0, 0.0, 0.0, 0.0, 1.6202067145627E9, 2021-05-05 11:25:14.562
65.0, 505.2417907714844, -1012.435791015625, 378.655517578125, 348.90460205078125, -0.09600000083446503, 0.04800000041723251, 1.040000081062317, 0.0, 0.0, 0.0, 0.0, 0.0, 1.6202067145627E9, 2021-05-05 11:25:14.562
66.0, 523.6046752929688, -989.94775390625, 397.6504821777344, 361.0331115722656, -0.09600000083446503, 0.04800000041723251, 1.040000081062317, 0.0, 0.0, 0.0, 0.0, 0.0, 1.6202067145633943E9, 2021-05-05 11:25:14.563
66.0, 520.0667724609375, -997.072265625, 390.7840270996094, 356.5340270996094, -0.09600000083446503, 0.04800000041723251, 1.040000081062317, 0.0, 0.0, 0.0, 0.0, 0.0, 1.6202067145633943E9, 2021-05-05 11:25:14.563
67.0, 500.4771423339844, -1002.5250854492188, 377.88134765625, 345.3517150878906, -0.09600000083446503, 0.04800000041723251, 1.040000081062317, 0.0, 0.0, 0.0, 0.0, 0.0, 1.6202067145770755E9, 2021-05-05 11:25:14.577
67.0, 497.04766845703125, -1002.3156127929688, 371.2804260253906, 341.0321350097656, -0.09600000083446503, 0.04800000041723251, 1.040000081062317, 0.0, 0.0, 0.0, 0.0, 0.0, 1.6202067145770755E9, 2021-05-05 11:25:14.577
68.0, 507.8896484375, -981.1739501953125, 385.6528625488281, 353.654296875, -0.09600000083446503, 0.04800000041723251, 1.040000081062317, 0.0, 0.0, 0.0, 0.0, 0.0, 1.6202067145926857E9, 2021-05-05 11:25:14.592
68.0, 513.3536376953125, -981.3646850585938, 392.388427734375, 354.1778869628906, -0.09600000083446503, 0.04800000041723251, 1.040000081062317, 0.0, 0.0, 0.0, 0.0, 0.0, 1.6202067145926857E9, 2021-05-05 11:25:14.592
69.0, 486.1570739746094, -1001.0590209960938, 372.7689208984375, 343.45184326171875, -0.09600000083446503, 0.04800000041723251, 1.040000081062317, 0.0, 0.0, 0.0, 0.0, 0.0, 1.6202067145934167E9, 2021-05-05 11:25:14.593
69.0, 492.6083984375, -994.7385864257812, 378.3862609863281, 349.2412109375, -0.09600000083446503, 0.04800000041723251, 1.040000081062317, 0.0, 0.0, 0.0, 0.0, 0.0, 1.6202067145934167E9, 2021-05-05 11:25:14.593
70.0, 504.8490905761719, -984.2145385742188, 389.58349609375, 359.3838195800781, -0.09600000083446503, 0.04800000041723251, 1.040000081062317, 0.0, 0.0, 0.0, 0.0, 0.0, 1.620206714606974E9, 2021-05-05 11:25:14.606
70.0, 507.8298034667969, -990.6433715820312, 385.4322204589844, 356.79205322265625, -0.09600000083446503, 0.04800000041723251, 1.040000081062317, 0.0, 0.0, 0.0, 0.0, 0.0, 1.620206714606974E9, 2021-05-05 11:25:14.606
71.0, 494.63916015625, -999.0394897460938, 380.0916442871094, 353.7328186035156, -0.09600000083446503, 0.04800000041723251, 1.040000081062317, 0.0, 0.0, 0.0, 0.0, 0.0, 1.6202067146226797E9, 2021-05-05 11:25:14.622
71.0, 492.09228515625, -1001.6199951171875, 378.5657653808594, 347.1131896972656, -0.09600000083446503, 0.04800000041723251, 1.040000081062317, 0.0, 0.0, 0.0, 0.0, 0.0, 1.6202067146226797E9, 2021-05-05 11:25:14.622
72.0, 511.4874267578125, -993.1453857421875, 386.85711669921875, 358.8003845214844, -0.09600000083446503, 0.04800000041723251, 1.040000081062317, 0.0, 0.0, 0.0, 0.0, 0.0, 1.6202067146233935E9, 2021-05-05 11:25:14.623
72.0, 511.0610656738281, -991.5521850585938, 393.3196716308594, 366.94964599609375, -0.09600000083446503, 0.04800000041723251, 1.040000081062317, 0.0, 0.0, 0.0, 0.0, 0.0, 1.6202067146233935E9, 2021-05-05 11:25:14.623
73.0, 499.74786376953125, -1005.9395751953125, 378.7303161621094, 353.8562316894531, -0.09600000083446503, 0.04800000041723251, 1.040000081062317, 0.0, 0.0, 0.0, 0.0, 0.0, 1.62020671465334E9, 2021-05-05 11:25:14.653
73.0, 501.2774963378906, -1003.8489990234375, 381.0303649902344, 356.0889587402344, -0.09600000083446503, 0.04800000041723251, 1.040000081062317, 0.0, 0.0, 0.0, 0.0, 0.0, 1.62020671465334E9, 2021-05-05 11:25:14.653
74.0, 513.9520263671875, -988.702392578125, 393.3720397949219, 363.4154357910156, -0.09600000083446503, 0.04800000041723251, 1.040000081062317, 0.0, 0.0, 0.0, 0.0, 0.0, 1.6202067146540492E9, 2021-05-05 11:25:14.654
74.0, 513.5181884765625, -994.618896484375, 395.275634765625, 366.20166015625, -0.09600000083446503, 0.04800000041723251, 1.040000081062317, 0.0, 0.0, 0.0, 0.0, 0.0, 1.6202067146540492E9, 2021-05-05 11:25:14.654
75.0, 490.6673889160156, -1008.26953125, 376.05255126953125, 349.39453125, -0.09600000083446503, 0.04800000041723251, 1.040000081062317, 0.0, 0.0, 0.0, 0.0, 0.0, 1.6202067146547973E9, 2021-05-05 11:25:14.654
75.0, 493.1768798828125, -1003.0374145507812, 373.8647155761719, 353.24664306640625, -0.09600000083446503, 0.04800000041723251, 1.040000081062317, 0.0, 0.0, 0.0, 0.0, 0.0, 1.6202067146547973E9, 2021-05-05 11:25:14.654
76.0, 500.4060974121094, -991.896240234375, 381.8232116699219, 356.3582458496094, -0.09600000083446503, 0.04800000041723251, 1.040000081062317, 0.0, 0.0, 0.0, 0.0, 0.0, 1.620206714667153E9, 2021-05-05 11:25:14.667
76.0, 502.85198974609375, -991.271728515625, 383.8016357421875, 357.7644348144531, -0.09600000083446503, 0.04800000041723251, 1.040000081062317, 0.0, 0.0, 0.0, 0.0, 0.0, 1.620206714667153E9, 2021-05-05 11:25:14.667
77.0, 487.26409912109375, -1003.785400390625, 376.4826354980469, 349.5740661621094, -0.09600000083446503, 0.04800000041723251, 1.040000081062317, 0.0, 0.0, 0.0, 0.0, 0.0, 1.6202067146828775E9, 2021-05-05 11:25:14.682
77.0, 490.00543212890625, -1004.4922485351562, 375.0128479003906, 353.7440490722656, -0.09600000083446503, 0.04800000041723251, 1.040000081062317, 0.0, 0.0, 0.0, 0.0, 0.0, 1.6202067146828775E9, 2021-05-05 11:25:14.682
78.0, 504.3292541503906, -984.2107543945312, 392.8708801269531, 361.2350769042969, -0.09600000083446503, 0.04800000041723251, 1.040000081062317, 0.0, 0.0, 0.0, 0.0, 0.0, 1.6202067146834729E9, 2021-05-05 11:25:14.683
78.0, 503.723388671875, -986.9671020507812, 387.2049255371094, 358.42266845703125, -0.09600000083446503, 0.04800000041723251, 1.040000081062317, 0.0, 0.0, 0.0, 0.0, 0.0, 1.6202067146834729E9, 2021-05-05 11:25:14.683
79.0, 488.94329833984375, -998.8300170898438, 374.34716796875, 356.6723937988281, -0.09600000083446503, 0.04800000041723251, 1.040000081062317, 0.0, 0.0, 0.0, 0.0, 0.0, 1.620206714697014E9, 2021-05-05 11:25:14.697
79.0, 490.2373046875, -999.394775390625, 375.790771484375, 356.0478210449219, -0.09600000083446503, 0.04800000041723251, 1.040000081062317, 0.0, 0.0, 0.0, 0.0, 0.0, 1.620206714697014E9, 2021-05-05 11:25:14.697
80.0, 510.5860900878906, -986.5257568359375, 392.46697998046875, 363.50518798828125, -0.09600000083446503, 0.04800000041723251, 1.055999994277954, 0.0, 0.0, 0.0, 0.0, 0.0, 1.6202067147126756E9, 2021-05-05 11:25:14.712
80.0, 504.43023681640625, -989.8505249023438, 390.76904296875, 366.0744934082031, -0.09600000083446503, 0.04800000041723251, 1.055999994277954, 0.0, 0.0, 0.0, 0.0, 0.0, 1.6202067147126756E9, 2021-05-05 11:25:14.712
81.0, 495.2151184082031, -1004.9036254882812, 375.74212646484375, 354.4359436035156, -0.09600000083446503, 0.04800000041723251, 1.055999994277954, 0.0, 0.0, 0.0, 0.0, 0.0, 1.620206714713431E9, 2021-05-05 11:25:14.713
81.0, 498.4613342285156, -1004.2640991210938, 378.4834899902344, 346.3465270996094, -0.09600000083446503, 0.04800000041723251, 1.055999994277954, 0.0, 0.0, 0.0, 0.0, 0.0, 1.620206714713431E9, 2021-05-05 11:25:14.713
82.0, 513.1928100585938, -992.330078125, 390.1070861816406, 355.6813049316406, -0.09600000083446503, 0.04800000041723251, 1.055999994277954, 0.0, 0.0, 0.0, 0.0, 0.0, 1.6202067147269952E9, 2021-05-05 11:25:14.726
82.0, 519.38232421875, -994.4580688476562, 392.11541748046875, 359.6455993652344, -0.09600000083446503, 0.04800000041723251, 1.055999994277954, 0.0, 0.0, 0.0, 0.0, 0.0, 1.6202067147269952E9, 2021-05-05 11:25:14.726
83.0, 499.04852294921875, -1005.5656127929688, 373.6851806640625, 348.62786865234375, -0.09600000083446503, 0.04800000041723251, 1.055999994277954, 0.0, 0.0, 0.0, 0.0, 0.0, 1.620206714742674E9, 2021-05-05 11:25:14.742
83.0, 500.71649169921875, -998.3101806640625, 377.48492431640625, 347.2740173339844, -0.09600000083446503, 0.04800000041723251, 1.055999994277954, 0.0, 0.0, 0.0, 0.0, 0.0, 1.620206714742674E9, 2021-05-05 11:25:14.742
84.0, 517.632080078125, -987.2251586914062, 392.84844970703125, 357.6709289550781, -0.09600000083446503, 0.04800000041723251, 1.055999994277954, 0.0, 0.0, 0.0, 0.0, 0.0, 1.6202067147433603E9, 2021-05-05 11:25:14.743
84.0, 508.794677734375, -988.3657836914062, 388.7682189941406, 356.3245849609375, -0.09600000083446503, 0.04800000041723251, 1.055999994277954, 0.0, 0.0, 0.0, 0.0, 0.0, 1.6202067147433603E9, 2021-05-05 11:25:14.743
85.0, 493.27410888671875, -1001.4442138671875, 374.7959289550781, 349.4020080566406, -0.09600000083446503, 0.04800000041723251, 1.055999994277954, 0.0, 0.0, 0.0, 0.0, 0.0, 1.6202067147570136E9, 2021-05-05 11:25:14.757
85.0, 492.04742431640625, -1003.3328857421875, 373.83477783203125, 339.17340087890625, -0.09600000083446503, 0.04800000041723251, 1.055999994277954, 0.0, 0.0, 0.0, 0.0, 0.0, 1.6202067147570136E9, 2021-05-05 11:25:14.757
86.0, 503.45037841796875, -982.2884521484375, 385.51824951171875, 352.89508056640625, -0.09600000083446503, 0.04800000041723251, 1.055999994277954, 0.0, 0.0, 0.0, 0.0, 0.0, 1.6202067147726676E9, 2021-05-05 11:25:14.772
86.0, 507.0818176269531, -983.4478149414062, 387.810791015625, 355.0829162597656, -0.09600000083446503, 0.04800000041723251, 1.055999994277954, 0.0, 0.0, 0.0, 0.0, 0.0, 1.6202067147726676E9, 2021-05-05 11:25:14.772
87.0, 488.6665344238281, -998.8823852539062, 372.4098815917969, 344.42047119140625, -0.09600000083446503, 0.04800000041723251, 1.055999994277954, 0.0, 0.0, 0.0, 0.0, 0.0, 1.6202067147733731E9, 2021-05-05 11:25:14.773
87.0, 493.55084228515625, -995.3556518554688, 371.7554016113281, 342.63653564453125, -0.09600000083446503, 0.04800000041723251, 1.055999994277954, 0.0, 0.0, 0.0, 0.0, 0.0, 1.6202067147733731E9, 2021-05-05 11:25:14.773
88.0, 511.2069396972656, -984.6707763671875, 384.40374755859375, 350.40057373046875, -0.09600000083446503, 0.04800000041723251, 1.055999994277954, 0.0, 0.0, 0.0, 0.0, 0.0, 1.6202067147870154E9, 2021-05-05 11:25:14.787
88.0, 496.0042419433594, -987.0867309570312, 388.0613708496094, 359.1669006347656, -0.09600000083446503, 0.04800000041723251, 1.055999994277954, 0.0, 0.0, 0.0, 0.0, 0.0, 1.6202067147870154E9, 2021-05-05 11:25:14.787
89.0, 486.3104248046875, -992.7265014648438, 373.91705322265625, 344.1512145996094, -0.09600000083446503, 0.04800000041723251, 1.055999994277954, 0.0, 0.0, 0.0, 0.0, 0.0, 1.6202067148026633E9, 2021-05-05 11:25:14.802
89.0, 492.2904968261719, -991.260498046875, 374.1526794433594, 344.7944641113281, -0.09600000083446503, 0.04800000041723251, 1.055999994277954, 0.0, 0.0, 0.0, 0.0, 0.0, 1.6202067148026633E9, 2021-05-05 11:25:14.802
90.0, 517.1010131835938, -982.2323608398438, 392.80731201171875, 354.8697509765625, -0.09600000083446503, 0.04800000041723251, 1.040000081062317, 0.0, 0.0, 0.0, 0.0, 0.0, 1.6202067148033788E9, 2021-05-05 11:25:14.803
90.0, 511.28546142578125, -990.1721801757812, 390.3913269042969, 352.70062255859375, -0.09600000083446503, 0.04800000041723251, 1.040000081062317, 0.0, 0.0, 0.0, 0.0, 0.0, 1.6202067148033788E9, 2021-05-05 11:25:14.803
91.0, 495.8359375, -1000.2923583984375, 381.2210998535156, 344.0838928222656, -0.09600000083446503, 0.04800000041723251, 1.040000081062317, 0.0, 0.0, 0.0, 0.0, 0.0, 1.6202067148171089E9, 2021-05-05 11:25:14.817
91.0, 499.08966064453125, -1002.083740234375, 375.4728698730469, 344.7234191894531, -0.09600000083446503, 0.04800000041723251, 1.040000081062317, 0.0, 0.0, 0.0, 0.0, 0.0, 1.6202067148171089E9, 2021-05-05 11:25:14.817
92.0, 504.6807861328125, -980.6765747070312, 394.5538330078125, 351.8628845214844, -0.09600000083446503, 0.04800000041723251, 1.040000081062317, 0.0, 0.0, 0.0, 0.0, 0.0, 1.6202067148326871E9, 2021-05-05 11:25:14.832
92.0, 507.6652526855469, -984.0873413085938, 390.7428894042969, 347.8275146484375, -0.09600000083446503, 0.04800000041723251, 1.040000081062317, 0.0, 0.0, 0.0, 0.0, 0.0, 1.6202067148326871E9, 2021-05-05 11:25:14.832
93.0, 490.0129089355469, -998.5944213867188, 378.9173278808594, 340.68804931640625, -0.09600000083446503, 0.04800000041723251, 1.040000081062317, 0.0, 0.0, 0.0, 0.0, 0.0, 1.6202067148334768E9, 2021-05-05 11:25:14.833
93.0, 493.4573669433594, -996.167236328125, 379.2239990234375, 345.00390625, -0.09600000083446503, 0.04800000041723251, 1.040000081062317, 0.0, 0.0, 0.0, 0.0, 0.0, 1.6202067148334768E9, 2021-05-05 11:25:14.833
94.0, 505.99725341796875, -982.8980712890625, 396.6743469238281, 351.59735107421875, -0.09600000083446503, 0.04800000041723251, 1.040000081062317, 0.0, 0.0, 0.0, 0.0, 0.0, 1.6202067148470595E9, 2021-05-05 11:25:14.847
94.0, 512.5645141601562, -982.9093017578125, 398.86968994140625, 358.74053955078125, -0.09600000083446503, 0.04800000041723251, 1.040000081062317, 0.0, 0.0, 0.0, 0.0, 0.0, 1.6202067148470595E9, 2021-05-05 11:25:14.847
95.0, 492.25311279296875, -1000.6962280273438, 383.2817687988281, 350.6773376464844, -0.09600000083446503, 0.04800000041723251, 1.040000081062317, 0.0, 0.0, 0.0, 0.0, 0.0, 1.6202067148626585E9, 2021-05-05 11:25:14.862
95.0, 502.7360534667969, -996.0064086914062, 388.480224609375, 348.807373046875, -0.09600000083446503, 0.04800000041723251, 1.040000081062317, 0.0, 0.0, 0.0, 0.0, 0.0, 1.6202067148626585E9, 2021-05-05 11:25:14.862
96.0, 512.77392578125, -986.4434814453125, 399.70367431640625, 357.9551696777344, -0.09600000083446503, 0.04800000041723251, 1.040000081062317, 0.0, 0.0, 0.0, 0.0, 0.0, 1.6202067148633478E9, 2021-05-05 11:25:14.863
96.0, 507.1865234375, -988.1900024414062, 393.2897644042969, 349.1177978515625, -0.09600000083446503, 0.04800000041723251, 1.040000081062317, 0.0, 0.0, 0.0, 0.0, 0.0, 1.6202067148633478E9, 2021-05-05 11:25:14.863
97.0, 494.8186950683594, -1004.8325805664062, 377.1371154785156, 341.6716613769531, -0.09600000083446503, 0.04800000041723251, 1.040000081062317, 0.0, 0.0, 0.0, 0.0, 0.0, 1.6202067148769865E9, 2021-05-05 11:25:14.876
97.0, 497.4141845703125, -1005.9059448242188, 371.6768798828125, 341.8175048828125, -0.09600000083446503, 0.04800000041723251, 1.040000081062317, 0.0, 0.0, 0.0, 0.0, 0.0, 1.6202067148769865E9, 2021-05-05 11:25:14.876
98.0, 513.9931640625, -991.3427734375, 384.0148010253906, 345.7032470703125, -0.09600000083446503, 0.04800000041723251, 1.040000081062317, 0.0, 0.0, 0.0, 0.0, 0.0, 1.6202067148926291E9, 2021-05-05 11:25:14.892
98.0, 509.7034912109375, -990.404052734375, 382.810546875, 347.68914794921875, -0.09600000083446503, 0.04800000041723251, 1.040000081062317, 0.0, 0.0, 0.0, 0.0, 0.0, 1.6202067148926291E9, 2021-05-05 11:25:14.892
99.0, 495.0206298828125, -1000.7972412109375, 370.8129577636719, 331.2186279296875, -0.09600000083446503, 0.04800000041723251, 1.040000081062317, 0.0, 0.0, 0.0, 0.0, 0.0, 1.620206714893355E9, 2021-05-05 11:25:14.893
99.0, 492.8365478515625, -997.8015747070312, 367.09173583984375, 331.01666259765625, -0.09600000083446503, 0.04800000041723251, 1.040000081062317, 0.0, 0.0, 0.0, 0.0, 0.0, 1.620206714893355E9, 2021-05-05 11:25:14.893
100.0, 504.2881164550781, -980.9944458007812, 381.78955078125, 346.77288818359375, -0.09600000083446503, 0.04800000041723251, 1.040000081062317, 0.0, 0.0, 0.0, 0.0, 0.0, 1.6202067149076326E9, 2021-05-05 11:25:14.907
100.0, 498.476318359375, -980.4072875976562, 378.490966796875, 348.3772888183594, -0.09600000083446503, 0.04800000041723251, 1.040000081062317, 0.0, 0.0, 0.0, 0.0, 0.0, 1.6202067149076326E9, 2021-05-05 11:25:14.907
0.0, 486.0486145019531, -995.398681640625, 372.1518249511719, 334.00299072265625, -0.09600000083446503, 0.04800000041723251, 1.040000081062317, 0.0, 0.0, 0.0, 0.0, 0.0, 1.6202067149083722E9, 2021-05-05 11:25:14.908
1.0, 491.5911560058594, -995.3538208007812, 374.1003112792969, 336.2132568359375, -0.09600000083446503, 0.04800000041723251, 1.040000081062317, 0.0, 0.0, 0.0, 0.0, 0.0, 1.620206714922027E9, 2021-05-05 11:25:14.922
1.0, 502.34710693359375, -980.9402465820312, 390.8101806640625, 348.25201416015625, -0.09600000083446503, 0.04800000041723251, 1.040000081062317, 0.0, 0.0, 0.0, 0.0, 0.0, 1.620206714922027E9, 2021-05-05 11:25:14.922
2.0, 505.0510559082031, -983.4609375, 394.01904296875, 352.205078125, -0.09600000083446503, 0.04800000041723251, 1.040000081062317, 0.0, 0.0, 0.0, 0.0, 0.0, 1.620206714937632E9, 2021-05-05 11:25:14.937
2.0, 481.8374938964844, -998.7234497070312, 378.68170166015625, 337.30157470703125, -0.09600000083446503, 0.04800000041723251, 1.040000081062317, 0.0, 0.0, 0.0, 0.0, 0.0, 1.620206714937632E9, 2021-05-05 11:25:14.937
3.0, 485.9700927734375, -992.4478759765625, 378.5807189941406, 336.28057861328125, -0.09600000083446503, 0.04800000041723251, 1.040000081062317, 0.0, 0.0, 0.0, 0.0, 0.0, 1.6202067149383922E9, 2021-05-05 11:25:14.938
3.0, 500.01715087890625, -979.8668823242188, 388.7906494140625, 344.81878662109375, -0.09600000083446503, 0.04800000041723251, 1.040000081062317, 0.0, 0.0, 0.0, 0.0, 0.0, 1.6202067149383922E9, 2021-05-05 11:25:14.938
4.0, 498.3753356933594, -979.9716186523438, 380.7573547363281, 340.760986328125, -0.09600000083446503, 0.04800000041723251, 1.040000081062317, 0.0, 0.0, 0.0, 0.0, 0.0, 1.6202067149520228E9, 2021-05-05 11:25:14.952
4.0, 489.54168701171875, -994.6095581054688, 369.48529052734375, 331.4000244140625, -0.09600000083446503, 0.04800000041723251, 1.040000081062317, 0.0, 0.0, 0.0, 0.0, 0.0, 1.6202067149520228E9, 2021-05-05 11:25:14.952
5.0, 496.247314453125, -991.8719482421875, 372.1742858886719, 331.1756286621094, -0.09600000083446503, 0.04800000041723251, 1.040000081062317, 0.0, 0.0, 0.0, 0.0, 0.0, 1.620206714967666E9, 2021-05-05 11:25:14.967
5.0, 505.6120300292969, -978.8795166015625, 382.7619323730469, 338.81622314453125, -0.09600000083446503, 0.04800000041723251, 1.040000081062317, 0.0, 0.0, 0.0, 0.0, 0.0, 1.620206714967666E9, 2021-05-05 11:25:14.967
6.0, 504.0599670410156, -990.2376098632812, 385.91839599609375, 337.5671081542969, -0.09600000083446503, 0.04800000041723251, 1.040000081062317, 0.0, 0.0, 0.0, 0.0, 0.0, 1.6202067149683878E9, 2021-05-05 11:25:14.968
6.0, 488.93206787109375, -1004.9728393554688, 371.44873046875, 334.4405517578125, -0.09600000083446503, 0.04800000041723251, 1.040000081062317, 0.0, 0.0, 0.0, 0.0, 0.0, 1.6202067149683878E9, 2021-05-05 11:25:14.968
7.0, 490.5327453613281, -997.6538696289062, 368.5278625488281, 332.121826171875, -0.09600000083446503, 0.04800000041723251, 1.040000081062317, 0.0, 0.0, 0.0, 0.0, 0.0, 1.6202067149820604E9, 2021-05-05 11:25:14.982
7.0, 510.24951171875, -989.6729125976562, 382.5936279296875, 341.2359619140625, -0.09600000083446503, 0.04800000041723251, 1.040000081062317, 0.0, 0.0, 0.0, 0.0, 0.0, 1.6202067149820604E9, 2021-05-05 11:25:14.982
8.0, 503.9776916503906, -989.4859008789062, 380.45440673828125, 339.575439453125, -0.09600000083446503, 0.04800000041723251, 1.040000081062317, 0.0, 0.0, 0.0, 0.0, 0.0, 1.6202067149973872E9, 2021-05-05 11:25:14.997
8.0, 489.2237854003906, -1001.8051147460938, 368.7709655761719, 326.9794616699219, -0.09600000083446503, 0.04800000041723251, 1.040000081062317, 0.0, 0.0, 0.0, 0.0, 0.0, 1.6202067149973872E9, 2021-05-05 11:25:14.997
9.0, 492.690673828125, -994.1083984375, 369.60870361328125, 333.5354919433594, -0.09600000083446503, 0.04800000041723251, 1.040000081062317, 0.0, 0.0, 0.0, 0.0, 0.0, 1.6202067150131543E9, 2021-05-05 11:25:15.013
9.0, 499.0634765625, -984.5081176757812, 378.5657653808594, 337.35394287109375, -0.09600000083446503, 0.04800000041723251, 1.040000081062317, 0.0, 0.0, 0.0, 0.0, 0.0, 1.6202067150131543E9, 2021-05-05 11:25:15.013
10.0, 501.7038269042969, -988.6069946289062, 383.71185302734375, 340.4954528808594, -0.09600000083446503, 0.04800000041723251, 1.055999994277954, 0.0, 0.0, 0.0, 0.0, 0.0, 1.6202067150283725E9, 2021-05-05 11:25:15.028
10.0, 489.145263671875, -995.2528076171875, 375.4841003417969, 333.1502990722656, -0.09600000083446503, 0.04800000041723251, 1.055999994277954, 0.0, 0.0, 0.0, 0.0, 0.0, 1.6202067150283725E9, 2021-05-05 11:25:15.028
11.0, 500.0283508300781, -993.872802734375, 379.160400390625, 339.1042175292969, -0.09600000083446503, 0.04800000041723251, 1.055999994277954, 0.0, 0.0, 0.0, 0.0, 0.0, 1.6202067150291035E9, 2021-05-05 11:25:15.029
11.0, 506.3226013183594, -985.3345947265625, 388.39794921875, 343.56964111328125, -0.09600000083446503, 0.04800000041723251, 1.055999994277954, 0.0, 0.0, 0.0, 0.0, 0.0, 1.6202067150291035E9, 2021-05-05 11:25:15.029
12.0, 511.02740478515625, -986.430419921875, 397.8935546875, 347.9602966308594, -0.09600000083446503, 0.04800000041723251, 1.055999994277954, 0.0, 0.0, 0.0, 0.0, 0.0, 1.620206715029818E9, 2021-05-05 11:25:15.029
12.0, 498.53240966796875, -997.4668579101562, 376.3031311035156, 334.5115966796875, -0.09600000083446503, 0.04800000041723251, 1.055999994277954, 0.0, 0.0, 0.0, 0.0, 0.0, 1.620206715029818E9, 2021-05-05 11:25:15.029
13.0, 498.37158203125, -995.047119140625, 383.1022644042969, 337.6867980957031, -0.09600000083446503, 0.04800000041723251, 1.055999994277954, 0.0, 0.0, 0.0, 0.0, 0.0, 1.6202067150419538E9, 2021-05-05 11:25:15.041
13.0, 521.3009033203125, -987.3803100585938, 394.3294372558594, 343.7080383300781, -0.09600000083446503, 0.04800000041723251, 1.055999994277954, 0.0, 0.0, 0.0, 0.0, 0.0, 1.6202067150419538E9, 2021-05-05 11:25:15.041
14.0, 508.4169616699219, -982.5969848632812, 397.0371398925781, 343.62200927734375, -0.09600000083446503, 0.04800000041723251, 1.055999994277954, 0.0, 0.0, 0.0, 0.0, 0.0, 1.6202067150576868E9, 2021-05-05 11:25:15.057
14.0, 495.9631042480469, -993.3753662109375, 382.0700378417969, 335.3755187988281, -0.09600000083446503, 0.04800000041723251, 1.055999994277954, 0.0, 0.0, 0.0, 0.0, 0.0, 1.6202067150576868E9, 2021-05-05 11:25:15.057
15.0, 500.5706481933594, -990.162841796875, 384.3065185546875, 337.6456604003906, -0.09600000083446503, 0.04800000041723251, 1.055999994277954, 0.0, 0.0, 0.0, 0.0, 0.0, 1.6202067150584743E9, 2021-05-05 11:25:15.058
15.0, 519.5244750976562, -976.2130126953125, 397.4859313964844, 348.7643737792969, -0.09600000083446503, 0.04800000041723251, 1.055999994277954, 0.0, 0.0, 0.0, 0.0, 0.0, 1.6202067150584743E9, 2021-05-05 11:25:15.058
16.0, 520.8072509765625, -975.3341064453125, 397.88983154296875, 351.8161315917969, -0.09600000083446503, 0.04800000041723251, 1.055999994277954, 0.0, 0.0, 0.0, 0.0, 0.0, 1.62020671507199E9, 2021-05-05 11:25:15.071
16.0, 505.4773864746094, -986.781982421875, 387.5153503417969, 342.4327087402344, -0.09600000083446503, 0.04800000041723251, 1.055999994277954, 0.0, 0.0, 0.0, 0.0, 0.0, 1.62020671507199E9, 2021-05-05 11:25:15.071
17.0, 508.0055847167969, -986.3219604492188, 400.7845153808594, 349.64697265625, -0.09600000083446503, 0.04800000041723251, 1.055999994277954, 0.0, 0.0, 0.0, 0.0, 0.0, 1.6202067150877206E9, 2021-05-05 11:25:15.087
17.0, 524.3601684570312, -976.5383911132812, 408.492431640625, 360.3917236328125, -0.09600000083446503, 0.04800000041723251, 1.055999994277954, 0.0, 0.0, 0.0, 0.0, 0.0, 1.6202067150877206E9, 2021-05-05 11:25:15.087
18.0, 521.188720703125, -973.860595703125, 414.8053894042969, 358.9368896484375, -0.09600000083446503, 0.04800000041723251, 1.055999994277954, 0.0, 0.0, 0.0, 0.0, 0.0, 1.6202067150885043E9, 2021-05-05 11:25:15.088
18.0, 505.3390197753906, -986.4603271484375, 392.0929870605469, 349.50860595703125, -0.09600000083446503, 0.04800000041723251, 1.055999994277954, 0.0, 0.0, 0.0, 0.0, 0.0, 1.6202067150885043E9, 2021-05-05 11:25:15.088
19.0, 502.6687316894531, -980.7719116210938, 395.8665466308594, 350.4548034667969, -0.09600000083446503, 0.04800000041723251, 1.055999994277954, 0.0, 0.0, 0.0, 0.0, 0.0, 1.62020671511842E9, 2021-05-05 11:25:15.118
19.0, 523.0736083984375, -962.9737548828125, 405.5790710449219, 363.58184814453125, -0.09600000083446503, 0.04800000041723251, 1.055999994277954, 0.0, 0.0, 0.0, 0.0, 0.0, 1.62020671511842E9, 2021-05-05 11:25:15.118
20.0, 517.3441162109375, -969.0885009765625, 412.37445068359375, 364.1951904296875, -0.09600000083446503, 0.04800000041723251, 1.040000081062317, 0.0, 0.0, 0.0, 0.0, 0.0, 1.6202067151191227E9, 2021-05-05 11:25:15.119
20.0, 516.072509765625, -987.0848999023438, 396.0086669921875, 350.81756591796875, -0.09600000083446503, 0.04800000041723251, 1.040000081062317, 0.0, 0.0, 0.0, 0.0, 0.0, 1.6202067151191227E9, 2021-05-05 11:25:15.119
21.0, 509.4117736816406, -985.1139526367188, 395.72442626953125, 350.1144714355469, -0.09600000083446503, 0.04800000041723251, 1.040000081062317, 0.0, 0.0, 0.0, 0.0, 0.0, 1.6202067151198425E9, 2021-05-05 11:25:15.119
21.0, 526.3610229492188, -976.2877807617188, 409.49847412109375, 358.82843017578125, -0.09600000083446503, 0.04800000041723251, 1.040000081062317, 0.0, 0.0, 0.0, 0.0, 0.0, 1.6202067151198425E9, 2021-05-05 11:25:15.119
22.0, 532.2438354492188, -980.9514770507812, 406.11761474609375, 356.2554016113281, -0.09600000083446503, 0.04800000041723251, 1.040000081062317, 0.0, 0.0, 0.0, 0.0, 0.0, 1.620206715132013E9, 2021-05-05 11:25:15.132
22.0, 507.9419860839844, -993.9999389648438, 394.5089416503906, 348.3492431640625, -0.09600000083446503, 0.04800000041723251, 1.040000081062317, 0.0, 0.0, 0.0, 0.0, 0.0, 1.620206715132013E9, 2021-05-05 11:25:15.132
23.0, 508.5403747558594, -999.6546630859375, 391.2365417480469, 337.5970153808594, -0.09600000083446503, 0.04800000041723251, 1.040000081062317, 0.0, 0.0, 0.0, 0.0, 0.0, 1.6202067151476517E9, 2021-05-05 11:25:15.147
23.0, 519.58056640625, -982.1444702148438, 397.1867370605469, 350.1817932128906, -0.09600000083446503, 0.04800000041723251, 1.040000081062317, 0.0, 0.0, 0.0, 0.0, 0.0, 1.6202067151476517E9, 2021-05-05 11:25:15.147
24.0, 513.7612915039062, -981.2955322265625, 406.0054016113281, 354.56121826171875, -0.09600000083446503, 0.04800000041723251, 1.040000081062317, 0.0, 0.0, 0.0, 0.0, 0.0, 1.6202067151483788E9, 2021-05-05 11:25:15.148
24.0, 503.8954162597656, -1000.6981201171875, 389.60595703125, 341.5762939453125, -0.09600000083446503, 0.04800000041723251, 1.040000081062317, 0.0, 0.0, 0.0, 0.0, 0.0, 1.6202067151483788E9, 2021-05-05 11:25:15.148
25.0, 504.0001525878906, -1003.4918212890625, 387.0815124511719, 340.4543151855469, -0.09600000083446503, 0.04800000041723251, 1.040000081062317, 0.0, 0.0, 0.0, 0.0, 0.0, 1.6202067151619775E9, 2021-05-05 11:25:15.161
25.0, 510.4477233886719, -982.8887329101562, 394.1648864746094, 343.1844482421875, -0.09600000083446503, 0.04800000041723251, 1.040000081062317, 0.0, 0.0, 0.0, 0.0, 0.0, 1.6202067151619775E9, 2021-05-05 11:25:15.161
26.0, 512.9048461914062, -983.6142578125, 393.31219482421875, 349.8265075683594, -0.09600000083446503, 0.04800000041723251, 1.040000081062317, 0.0, 0.0, 0.0, 0.0, 0.0, 1.6202067151776576E9, 2021-05-05 11:25:15.177
26.0, 498.5024719238281, -994.740478515625, 388.1960144042969, 336.4825439453125, -0.09600000083446503, 0.04800000041723251, 1.040000081062317, 0.0, 0.0, 0.0, 0.0, 0.0, 1.6202067151776576E9, 2021-05-05 11:25:15.177
27.0, 500.59307861328125, -997.0853881835938, 386.21759033203125, 330.3865051269531, -0.09600000083446503, 0.04800000041723251, 1.040000081062317, 0.0, 0.0, 0.0, 0.0, 0.0, 1.6202067151783612E9, 2021-05-05 11:25:15.178
27.0, 518.6082153320312, -983.9732666015625, 402.5422668457031, 344.94219970703125, -0.09600000083446503, 0.04800000041723251, 1.040000081062317, 0.0, 0.0, 0.0, 0.0, 0.0, 1.6202067151783612E9, 2021-05-05 11:25:15.178
28.0, 514.3409423828125, -987.4364624023438, 390.5858154296875, 341.3182373046875, -0.09600000083446503, 0.04800000041723251, 1.040000081062317, 0.0, 0.0, 0.0, 0.0, 0.0, 1.620206715192002E9, 2021-05-05 11:25:15.192
28.0, 505.765380859375, -1009.647705078125, 381.2734375, 331.3962707519531, -0.09600000083446503, 0.04800000041723251, 1.040000081062317, 0.0, 0.0, 0.0, 0.0, 0.0, 1.620206715192002E9, 2021-05-05 11:25:15.192
29.0, 506.505859375, -1002.7886962890625, 380.9929504394531, 335.6335754394531, -0.09600000083446503, 0.04800000041723251, 1.040000081062317, 0.0, 0.0, 0.0, 0.0, 0.0, 1.6202067152076583E9, 2021-05-05 11:25:15.207
29.0, 523.6832275390625, -987.35791015625, 400.6573486328125, 348.730712890625, -0.09600000083446503, 0.04800000041723251, 1.040000081062317, 0.0, 0.0, 0.0, 0.0, 0.0, 1.6202067152076583E9, 2021-05-05 11:25:15.207
30.0, 521.8843383789062, -989.4111328125, 397.25030517578125, 348.5848693847656, -0.09600000083446503, 0.04800000041723251, 1.040000081062317, 0.0, 0.0, 0.0, 0.0, 0.0, 1.6202067152083611E9, 2021-05-05 11:25:15.208
30.0, 503.3419189453125, -998.790771484375, 384.06341552734375, 337.7578430175781, -0.09600000083446503, 0.04800000041723251, 1.040000081062317, 0.0, 0.0, 0.0, 0.0, 0.0, 1.6202067152083611E9, 2021-05-05 11:25:15.208
31.0, 505.3689270019531, -998.3270263671875, 385.6528625488281, 336.9911804199219, -0.09600000083446503, 0.04800000041723251, 1.040000081062317, 0.0, 0.0, 0.0, 0.0, 0.0, 1.6202067152381215E9, 2021-05-05 11:25:15.238
31.0, 509.475341796875, -991.6288452148438, 394.8305969238281, 347.380615234375, -0.09600000083446503, 0.04800000041723251, 1.040000081062317, 0.0, 0.0, 0.0, 0.0, 0.0, 1.6202067152381215E9, 2021-05-05 11:25:15.238
32.0, 511.6893615722656, -991.7373046875, 400.21978759765625, 352.3060607910156, -0.09600000083446503, 0.04800000041723251, 1.040000081062317, 0.0, 0.0, 0.0, 0.0, 0.0, 1.6202067152387717E9, 2021-05-05 11:25:15.238
32.0, 495.0505676269531, -1004.2659912109375, 377.92999267578125, 344.0895080566406, -0.09600000083446503, 0.04800000041723251, 1.040000081062317, 0.0, 0.0, 0.0, 0.0, 0.0, 1.6202067152387717E9, 2021-05-05 11:25:15.238
33.0, 499.42999267578125, -999.0899658203125, 385.27886962890625, 340.4804992675781, -0.09600000083446503, 0.04800000041723251, 1.040000081062317, 0.0, 0.0, 0.0, 0.0, 0.0, 1.620206715252724E9, 2021-05-05 11:25:15.252
33.0, 519.464599609375, -984.8521728515625, 400.4067687988281, 348.4950866699219, -0.09600000083446503, 0.04800000041723251, 1.040000081062317, 0.0, 0.0, 0.0, 0.0, 0.0, 1.620206715252724E9, 2021-05-05 11:25:15.252
34.0, 514.498046875, -991.1538696289062, 400.3918151855469, 349.31414794921875, -0.09600000083446503, 0.04800000041723251, 1.040000081062317, 0.0, 0.0, 0.0, 0.0, 0.0, 1.6202067152533865E9, 2021-05-05 11:25:15.253
34.0, 497.72833251953125, -999.8678588867188, 383.079833984375, 336.2955322265625, -0.09600000083446503, 0.04800000041723251, 1.040000081062317, 0.0, 0.0, 0.0, 0.0, 0.0, 1.6202067152533865E9, 2021-05-05 11:25:15.253
35.0, 493.26287841796875, -1000.8402099609375, 381.46044921875, 335.3306579589844, -0.09600000083446503, 0.04800000041723251, 1.040000081062317, 0.0, 0.0, 0.0, 0.0, 0.0, 1.6202067152676477E9, 2021-05-05 11:25:15.267
35.0, 518.783935546875, -982.5034790039062, 397.5719299316406, 346.9093933105469, -0.09600000083446503, 0.04800000041723251, 1.040000081062317, 0.0, 0.0, 0.0, 0.0, 0.0, 1.6202067152676477E9, 2021-05-05 11:25:15.267
36.0, 515.9640502929688, -991.8158569335938, 398.5443115234375, 346.61767578125, -0.09600000083446503, 0.04800000041723251, 1.040000081062317, 0.0, 0.0, 0.0, 0.0, 0.0, 1.6202067152683372E9, 2021-05-05 11:25:15.268
36.0, 500.3612060546875, -1010.1039428710938, 383.54730224609375, 332.8660583496094, -0.09600000083446503, 0.04800000041723251, 1.040000081062317, 0.0, 0.0, 0.0, 0.0, 0.0, 1.6202067152683372E9, 2021-05-05 11:25:15.268
37.0, 501.5766906738281, -997.911865234375, 382.7058410644531, 335.5662536621094, -0.09600000083446503, 0.04800000041723251, 1.040000081062317, 0.0, 0.0, 0.0, 0.0, 0.0, 1.620206715281991E9, 2021-05-05 11:25:15.281
37.0, 522.6697387695312, -991.6138916015625, 393.0466613769531, 348.2033996582031, -0.09600000083446503, 0.04800000041723251, 1.040000081062317, 0.0, 0.0, 0.0, 0.0, 0.0, 1.620206715281991E9, 2021-05-05 11:25:15.281
38.0, 524.4312133789062, -992.3394165039062, 395.4701232910156, 348.6559143066406, -0.09600000083446503, 0.04800000041723251, 1.040000081062317, 0.0, 0.0, 0.0, 0.0, 0.0, 1.6202067152976239E9, 2021-05-05 11:25:15.297
38.0, 504.68829345703125, -1008.2116088867188, 382.2981872558594, 337.68304443359375, -0.09600000083446503, 0.04800000041723251, 1.040000081062317, 0.0, 0.0, 0.0, 0.0, 0.0, 1.6202067152976239E9, 2021-05-05 11:25:15.297
39.0, 510.39910888671875, -1002.4296875, 388.81683349609375, 338.9433898925781, -0.09600000083446503, 0.04800000041723251, 1.040000081062317, 0.0, 0.0, 0.0, 0.0, 0.0, 1.620206715298346E9, 2021-05-05 11:25:15.298
39.0, 529.603515625, -988.39013671875, 397.4784240722656, 349.5460205078125, -0.09600000083446503, 0.04800000041723251, 1.040000081062317, 0.0, 0.0, 0.0, 0.0, 0.0, 1.620206715298346E9, 2021-05-05 11:25:15.298
40.0, 529.72314453125, -985.3832397460938, 399.9804382324219, 356.711669921875, -0.09600000083446503, 0.04800000041723251, 1.040000081062317, 0.0, 0.0, 0.0, 0.0, 0.0, 1.6202067153119583E9, 2021-05-05 11:25:15.311
40.0, 515.6424560546875, -1001.4161987304688, 384.2167663574219, 346.72613525390625, -0.09600000083446503, 0.04800000041723251, 1.040000081062317, 0.0, 0.0, 0.0, 0.0, 0.0, 1.6202067153119583E9, 2021-05-05 11:25:15.311
41.0, 509.2509460449219, -1005.3543090820312, 381.8905334472656, 339.4520263671875, -0.09600000083446503, 0.04800000041723251, 1.040000081062317, 0.0, 0.0, 0.0, 0.0, 0.0, 1.6202067153276987E9, 2021-05-05 11:25:15.327
41.0, 521.1924438476562, -987.1185302734375, 399.759765625, 351.090576171875, -0.09600000083446503, 0.04800000041723251, 1.040000081062317, 0.0, 0.0, 0.0, 0.0, 0.0, 1.6202067153276987E9, 2021-05-05 11:25:15.327
42.0, 516.1024780273438, -983.4683837890625, 391.59930419921875, 348.53997802734375, -0.09600000083446503, 0.04800000041723251, 1.040000081062317, 0.0, 0.0, 0.0, 0.0, 0.0, 1.6202067153283577E9, 2021-05-05 11:25:15.328
42.0, 501.8347473144531, -996.4832763671875, 380.2711486816406, 341.441650390625, -0.09600000083446503, 0.04800000041723251, 1.040000081062317, 0.0, 0.0, 0.0, 0.0, 0.0, 1.6202067153283577E9, 2021-05-05 11:25:15.328
43.0, 497.30572509765625, -996.51318359375, 384.1793518066406, 341.6510925292969, -0.09600000083446503, 0.04800000041723251, 1.040000081062317, 0.0, 0.0, 0.0, 0.0, 0.0, 1.620206715341951E9, 2021-05-05 11:25:15.341
43.0, 517.5572509765625, -980.4353637695312, 400.6349182128906, 350.2528381347656, -0.09600000083446503, 0.04800000041723251, 1.040000081062317, 0.0, 0.0, 0.0, 0.0, 0.0, 1.620206715341951E9, 2021-05-05 11:25:15.341
44.0, 510.1485290527344, -975.2406005859375, 404.2887878417969, 355.42138671875, -0.09600000083446503, 0.04800000041723251, 1.040000081062317, 0.0, 0.0, 0.0, 0.0, 0.0, 1.6202067153574317E9, 2021-05-05 11:25:15.357
44.0, 505.6269836425781, -994.4636840820312, 390.3389587402344, 346.3895263671875, -0.09600000083446503, 0.04800000041723251, 1.040000081062317, 0.0, 0.0, 0.0, 0.0, 0.0, 1.6202067153574317E9, 2021-05-05 11:25:15.357
45.0, 493.62939453125, -997.2274780273438, 392.7325134277344, 347.7957458496094, -0.09600000083446503, 0.04800000041723251, 1.040000081062317, 0.0, 0.0, 0.0, 0.0, 0.0, 1.6202067153726776E9, 2021-05-05 11:25:15.372
45.0, 512.8936157226562, -983.3524780273438, 404.5019836425781, 358.5965576171875, -0.09600000083446503, 0.04800000041723251, 1.040000081062317, 0.0, 0.0, 0.0, 0.0, 0.0, 1.6202067153726776E9, 2021-05-05 11:25:15.372
46.0, 512.6130981445312, -986.419189453125, 402.3963928222656, 357.5232238769531, -0.09600000083446503, 0.04800000041723251, 1.040000081062317, 0.0, 0.0, 0.0, 0.0, 0.0, 1.6202067153733487E9, 2021-05-05 11:25:15.373
46.0, 497.2309265136719, -1002.9944458007812, 382.02142333984375, 343.86883544921875, -0.09600000083446503, 0.04800000041723251, 1.040000081062317, 0.0, 0.0, 0.0, 0.0, 0.0, 1.6202067153733487E9, 2021-05-05 11:25:15.373
47.0, 505.45123291015625, -1000.37646484375, 381.2360534667969, 343.1769714355469, -0.09600000083446503, 0.04800000041723251, 1.040000081062317, 0.0, 0.0, 0.0, 0.0, 0.0, 1.6202067153877213E9, 2021-05-05 11:25:15.387
47.0, 523.61962890625, -978.9019775390625, 398.23016357421875, 354.4639892578125, -0.09600000083446503, 0.04800000041723251, 1.040000081062317, 0.0, 0.0, 0.0, 0.0, 0.0, 1.6202067153877213E9, 2021-05-05 11:25:15.387
48.0, 519.2476806640625, -980.9552001953125, 397.9908142089844, 350.5670166015625, -0.09600000083446503, 0.04800000041723251, 1.040000081062317, 0.0, 0.0, 0.0, 0.0, 0.0, 1.6202067153884444E9, 2021-05-05 11:25:15.388
48.0, 508.56280517578125, -994.0410766601562, 385.8249206542969, 339.575439453125, -0.09600000083446503, 0.04800000041723251, 1.040000081062317, 0.0, 0.0, 0.0, 0.0, 0.0, 1.6202067153884444E9, 2021-05-05 11:25:15.388
49.0, 509.1873779296875, -1000.37646484375, 382.4328308105469, 333.95062255859375, -0.09600000083446503, 0.04800000041723251, 1.040000081062317, 0.0, 0.0, 0.0, 0.0, 0.0, 1.620206715401939E9, 2021-05-05 11:25:15.401
49.0, 521.3569946289062, -975.0835571289062, 404.18780517578125, 353.55517578125, -0.09600000083446503, 0.04800000041723251, 1.040000081062317, 0.0, 0.0, 0.0, 0.0, 0.0, 1.620206715401939E9, 2021-05-05 11:25:15.401
50.0, 524.3638916015625, -975.32666015625, 404.7749938964844, 355.6831970214844, -0.09600000083446503, 0.04800000041723251, 1.040000081062317, 0.0, 0.0, 0.0, 0.0, 0.0, 1.6202067154177485E9, 2021-05-05 11:25:15.417
50.0, 504.40777587890625, -1000.0511474609375, 387.2572937011719, 341.3107604980469, -0.09600000083446503, 0.04800000041723251, 1.040000081062317, 0.0, 0.0, 0.0, 0.0, 0.0, 1.6202067154177485E9, 2021-05-05 11:25:15.417
51.0, 505.3652038574219, -998.5140380859375, 380.0542297363281, 338.4833984375, -0.09600000083446503, 0.04800000041723251, 1.040000081062317, 0.0, 0.0, 0.0, 0.0, 0.0, 1.6202067154184601E9, 2021-05-05 11:25:15.418
51.0, 523.7991943359375, -981.127197265625, 398.8247985839844, 354.2433166503906, -0.09600000083446503, 0.04800000041723251, 1.040000081062317, 0.0, 0.0, 0.0, 0.0, 0.0, 1.6202067154184601E9, 2021-05-05 11:25:15.418
52.0, 524.1806640625, -990.3759765625, 402.7890930175781, 359.6100769042969, -0.09600000083446503, 0.04800000041723251, 1.040000081062317, 0.0, 0.0, 0.0, 0.0, 0.0, 1.6202067154319456E9, 2021-05-05 11:25:15.431
52.0, 507.8896484375, -1002.0594482421875, 390.0360412597656, 349.46746826171875, -0.09600000083446503, 0.04800000041723251, 1.040000081062317, 0.0, 0.0, 0.0, 0.0, 0.0, 1.6202067154319456E9, 2021-05-05 11:25:15.431
53.0, 499.9012145996094, -1001.3114624023438, 384.77398681640625, 348.6895751953125, -0.09600000083446503, 0.04800000041723251, 1.040000081062317, 0.0, 0.0, 0.0, 0.0, 0.0, 1.620206715447674E9, 2021-05-05 11:25:15.447
53.0, 524.3713989257812, -978.673828125, 407.2732238769531, 361.1658935546875, -0.09600000083446503, 0.04800000041723251, 1.040000081062317, 0.0, 0.0, 0.0, 0.0, 0.0, 1.620206715447674E9, 2021-05-05 11:25:15.447
54.0, 523.8702392578125, -983.9695434570312, 404.6440734863281, 362.0073547363281, -0.09600000083446503, 0.04800000041723251, 1.040000081062317, 0.0, 0.0, 0.0, 0.0, 0.0, 1.6202067154485216E9, 2021-05-05 11:25:15.448
54.0, 501.516845703125, -1001.337646484375, 382.4627380371094, 345.74627685546875, -0.09600000083446503, 0.04800000041723251, 1.040000081062317, 0.0, 0.0, 0.0, 0.0, 0.0, 1.6202067154485216E9, 2021-05-05 11:25:15.448
55.0, 506.53204345703125, -997.67626953125, 383.7978820800781, 350.761474609375, -0.09600000083446503, 0.04800000041723251, 1.040000081062317, 0.0, 0.0, 0.0, 0.0, 0.0, 1.6202067154621315E9, 2021-05-05 11:25:15.462
55.0, 525.34375, -977.7874755859375, 405.4294738769531, 356.30401611328125, -0.09600000083446503, 0.04800000041723251, 1.040000081062317, 0.0, 0.0, 0.0, 0.0, 0.0, 1.6202067154621315E9, 2021-05-05 11:25:15.462
56.0, 521.2634887695312, -983.9957275390625, 401.82794189453125, 358.86956787109375, -0.09600000083446503, 0.04800000041723251, 1.040000081062317, 0.0, 0.0, 0.0, 0.0, 0.0, 1.620206715478129E9, 2021-05-05 11:25:15.478
56.0, 505.0361022949219, -996.9993896484375, 390.544677734375, 351.5057067871094, -0.09600000083446503, 0.04800000041723251, 1.040000081062317, 0.0, 0.0, 0.0, 0.0, 0.0, 1.620206715478129E9, 2021-05-05 11:25:15.478
57.0, 500.91845703125, -1003.2525024414062, 386.0380859375, 342.58978271484375, -0.09600000083446503, 0.04800000041723251, 1.040000081062317, 0.0, 0.0, 0.0, 0.0, 0.0, 1.6202067154926927E9, 2021-05-05 11:25:15.492
57.0, 524.7304077148438, -988.087158203125, 403.0621032714844, 354.6173095703125, -0.09600000083446503, 0.04800000041723251, 1.040000081062317, 0.0, 0.0, 0.0, 0.0, 0.0, 1.6202067154926927E9, 2021-05-05 11:25:15.492
58.0, 525.9832763671875, -983.0457763671875, 404.07562255859375, 362.1756591796875, -0.09600000083446503, 0.04800000041723251, 1.040000081062317, 0.0, 0.0, 0.0, 0.0, 0.0, 1.6202067154933803E9, 2021-05-05 11:25:15.493
58.0, 505.91497802734375, -996.4495849609375, 388.8841552734375, 345.1217041015625, -0.09600000083446503, 0.04800000041723251, 1.040000081062317, 0.0, 0.0, 0.0, 0.0, 0.0, 1.6202067154933803E9, 2021-05-05 11:25:15.493
59.0, 510.57861328125, -994.2056274414062, 393.1700744628906, 347.6236877441406, -0.09600000083446503, 0.04800000041723251, 1.040000081062317, 0.0, 0.0, 0.0, 0.0, 0.0, 1.6202067155076668E9, 2021-05-05 11:25:15.507
59.0, 527.232421875, -977.5631103515625, 406.4018249511719, 360.0887756347656, -0.09600000083446503, 0.04800000041723251, 1.040000081062317, 0.0, 0.0, 0.0, 0.0, 0.0, 1.6202067155076668E9, 2021-05-05 11:25:15.507
60.0, 522.2471313476562, -985.7833862304688, 403.3725280761719, 357.8261413574219, -0.09600000083446503, 0.04800000041723251, 1.040000081062317, 0.0, 0.0, 0.0, 0.0, 0.0, 1.620206715508391E9, 2021-05-05 11:25:15.508
60.0, 506.01220703125, -998.0914306640625, 393.409423828125, 351.6553039550781, -0.09600000083446503, 0.04800000041723251, 1.040000081062317, 0.0, 0.0, 0.0, 0.0, 0.0, 1.620206715508391E9, 2021-05-05 11:25:15.508
61.0, 508.8657531738281, -997.1751098632812, 391.47589111328125, 347.97149658203125, -0.09600000083446503, 0.04800000041723251, 1.040000081062317, 0.0, 0.0, 0.0, 0.0, 0.0, 1.6202067155219452E9, 2021-05-05 11:25:15.521
61.0, 528.1935424804688, -984.5567016601562, 408.0324401855469, 360.5637512207031, -0.09600000083446503, 0.04800000041723251, 1.040000081062317, 0.0, 0.0, 0.0, 0.0, 0.0, 1.6202067155219452E9, 2021-05-05 11:25:15.521
62.0, 527.2361450195312, -986.1574096679688, 412.33331298828125, 359.6400146484375, -0.09600000083446503, 0.04800000041723251, 1.040000081062317, 0.0, 0.0, 0.0, 0.0, 0.0, 1.6202067155376728E9, 2021-05-05 11:25:15.537
62.0, 511.8651428222656, -997.3322143554688, 392.96063232421875, 347.27215576171875, -0.09600000083446503, 0.04800000041723251, 1.040000081062317, 0.0, 0.0, 0.0, 0.0, 0.0, 1.6202067155376728E9, 2021-05-05 11:25:15.537
63.0, 507.6390686035156, -1002.336181640625, 390.1295471191406, 341.7370910644531, -0.09600000083446503, 0.04800000041723251, 1.040000081062317, 0.0, 0.0, 0.0, 0.0, 0.0, 1.620206715538412E9, 2021-05-05 11:25:15.538
63.0, 536.3914184570312, -980.6372680664062, 407.2882080078125, 348.4950866699219, -0.09600000083446503, 0.04800000041723251, 1.040000081062317, 0.0, 0.0, 0.0, 0.0, 0.0, 1.620206715538412E9, 2021-05-05 11:25:15.538
64.0, 525.0557861328125, -980.8018798828125, 403.52960205078125, 350.27154541015625, -0.09600000083446503, 0.04800000041723251, 1.040000081062317, 0.0, 0.0, 0.0, 0.0, 0.0, 1.6202067155520036E9, 2021-05-05 11:25:15.552
64.0, 504.6807861328125, -995.6268310546875, 387.2572937011719, 342.76556396484375, -0.09600000083446503, 0.04800000041723251, 1.040000081062317, 0.0, 0.0, 0.0, 0.0, 0.0, 1.6202067155520036E9, 2021-05-05 11:25:15.552
65.0, 509.9428405761719, -989.1380615234375, 387.3021545410156, 338.4609375, -0.09600000083446503, 0.04800000041723251, 1.040000081062317, 0.0, 0.0, 0.0, 0.0, 0.0, 1.6202067155676844E9, 2021-05-05 11:25:15.567
65.0, 530.5571899414062, -984.1004638671875, 402.96112060546875, 357.48956298828125, -0.09600000083446503, 0.04800000041723251, 1.040000081062317, 0.0, 0.0, 0.0, 0.0, 0.0, 1.6202067155676844E9, 2021-05-05 11:25:15.567
66.0, 530.1719360351562, -976.0409545898438, 408.05487060546875, 356.28155517578125, -0.09600000083446503, 0.04800000041723251, 1.040000081062317, 0.0, 0.0, 0.0, 0.0, 0.0, 1.6202067155683684E9, 2021-05-05 11:25:15.568
66.0, 520.145263671875, -986.8043823242188, 394.45660400390625, 346.3783264160156, -0.09600000083446503, 0.04800000041723251, 1.040000081062317, 0.0, 0.0, 0.0, 0.0, 0.0, 1.6202067155683684E9, 2021-05-05 11:25:15.568
67.0, 511.61083984375, -992.0851440429688, 391.22906494140625, 352.9231262207031, -0.09600000083446503, 0.04800000041723251, 1.040000081062317, 0.0, 0.0, 0.0, 0.0, 0.0, 1.6202067155983176E9, 2021-05-05 11:25:15.598
67.0, 531.6791381835938, -969.623291015625, 413.3767395019531, 364.60284423828125, -0.09600000083446503, 0.04800000041723251, 1.040000081062317, 0.0, 0.0, 0.0, 0.0, 0.0, 1.6202067155983176E9, 2021-05-05 11:25:15.598
68.0, 533.8258666992188, -973.344482421875, 408.73553466796875, 359.93170166015625, -0.09600000083446503, 0.04800000041723251, 1.040000081062317, 0.0, 0.0, 0.0, 0.0, 0.0, 1.620206715599038E9, 2021-05-05 11:25:15.599
68.0, 513.4134521484375, -992.4553833007812, 394.2882995605469, 349.7292785644531, -0.09600000083446503, 0.04800000041723251, 1.040000081062317, 0.0, 0.0, 0.0, 0.0, 0.0, 1.620206715599038E9, 2021-05-05 11:25:15.599
69.0, 516.2782592773438, -992.7770385742188, 392.6502380371094, 351.935791015625, -0.09600000083446503, 0.04800000041723251, 1.040000081062317, 0.0, 0.0, 0.0, 0.0, 0.0, 1.62020671559981E9, 2021-05-05 11:25:15.599
69.0, 529.72314453125, -974.27197265625, 416.8885192871094, 364.8758544921875, -0.09600000083446503, 0.04800000041723251, 1.040000081062317, 0.0, 0.0, 0.0, 0.0, 0.0, 1.62020671559981E9, 2021-05-05 11:25:15.599
70.0, 534.7645263671875, -975.2780151367188, 418.421875, 359.8868408203125, -0.09600000083446503, 0.04800000041723251, 1.055999994277954, 0.0, 0.0, 0.0, 0.0, 0.0, 1.620206715612098E9, 2021-05-05 11:25:15.612
70.0, 513.1890869140625, -994.0934448242188, 393.69366455078125, 345.6490478515625, -0.09600000083446503, 0.04800000041723251, 1.055999994277954, 0.0, 0.0, 0.0, 0.0, 0.0, 1.620206715612098E9, 2021-05-05 11:25:15.612
71.0, 515.2310791015625, -993.2744140625, 394.9390563964844, 347.533935546875, -0.09600000083446503, 0.04800000041723251, 1.055999994277954, 0.0, 0.0, 0.0, 0.0, 0.0, 1.6202067156288326E9, 2021-05-05 11:25:15.628
71.0, 537.9920654296875, -975.9100341796875, 410.9757385253906, 360.4403381347656, -0.09600000083446503, 0.04800000041723251, 1.055999994277954, 0.0, 0.0, 0.0, 0.0, 0.0, 1.6202067156288326E9, 2021-05-05 11:25:15.628
72.0, 528.3917846679688, -978.6813354492188, 410.38482666015625, 361.3192138671875, -0.09600000083446503, 0.04800000041723251, 1.055999994277954, 0.0, 0.0, 0.0, 0.0, 0.0, 1.6202067156430771E9, 2021-05-05 11:25:15.643
72.0, 514.7860107421875, -1000.1221923828125, 389.923828125, 347.7022399902344, -0.09600000083446503, 0.04800000041723251, 1.055999994277954, 0.0, 0.0, 0.0, 0.0, 0.0, 1.6202067156430771E9, 2021-05-05 11:25:15.643
73.0, 514.6812744140625, -987.275634765625, 404.6702575683594, 352.2536926269531, -0.09600000083446503, 0.04800000041723251, 1.055999994277954, 0.0, 0.0, 0.0, 0.0, 0.0, 1.6202067156583207E9, 2021-05-05 11:25:15.658
73.0, 550.8162231445312, -956.1484375, 428.7552185058594, 379.13983154296875, -0.09600000083446503, 0.04800000041723251, 1.055999994277954, 0.0, 0.0, 0.0, 0.0, 0.0, 1.6202067156583207E9, 2021-05-05 11:25:15.658
74.0, 561.9498901367188, -945.302734375, 446.11956787109375, 393.2018737792969, -0.09600000083446503, 0.04800000041723251, 1.055999994277954, 0.0, 0.0, 0.0, 0.0, 0.0, 1.6202067156590426E9, 2021-05-05 11:25:15.659
74.0, 543.231689453125, -957.9884643554688, 429.4209289550781, 382.3449401855469, -0.09600000083446503, 0.04800000041723251, 1.055999994277954, 0.0, 0.0, 0.0, 0.0, 0.0, 1.6202067156590426E9, 2021-05-05 11:25:15.659
75.0, 542.3191528320312, -960.7522583007812, 423.7923583984375, 381.2865295410156, -0.09600000083446503, 0.04800000041723251, 1.055999994277954, 0.0, 0.0, 0.0, 0.0, 0.0, 1.6202067156597984E9, 2021-05-05 11:25:15.659
75.0, 558.8569946289062, -951.0172729492188, 432.22210693359375, 388.8561096191406, -0.09600000083446503, 0.04800000041723251, 1.055999994277954, 0.0, 0.0, 0.0, 0.0, 0.0, 1.6202067156597984E9, 2021-05-05 11:25:15.659
76.0, 558.0977783203125, -955.1199340820312, 431.7733154296875, 385.538818359375, -0.09600000083446503, 0.04800000041723251, 1.055999994277954, 0.0, 0.0, 0.0, 0.0, 0.0, 1.620206715671974E9, 2021-05-05 11:25:15.671
76.0, 531.2153930664062, -987.5, 410.4820556640625, 368.7391662597656, -0.09600000083446503, 0.04800000041723251, 1.055999994277954, 0.0, 0.0, 0.0, 0.0, 0.0, 1.620206715671974E9, 2021-05-05 11:25:15.671
77.0, 520.7286987304688, -981.7293701171875, 407.0076904296875, 361.3528747558594, -0.09600000083446503, 0.04800000041723251, 1.055999994277954, 0.0, 0.0, 0.0, 0.0, 0.0, 1.6202067157189631E9, 2021-05-05 11:25:15.718
77.0, 535.5499267578125, -960.785888671875, 419.1025390625, 370.3211669921875, -0.09600000083446503, 0.04800000041723251, 1.055999994277954, 0.0, 0.0, 0.0, 0.0, 0.0, 1.6202067157189631E9, 2021-05-05 11:25:15.718
78.0, 531.8436889648438, -967.2335205078125, 410.194091796875, 363.15924072265625, -0.09600000083446503, 0.04800000041723251, 1.055999994277954, 0.0, 0.0, 0.0, 0.0, 0.0, 1.620206715719542E9, 2021-05-05 11:25:15.719
78.0, 515.1412963867188, -980.2072143554688, 397.5120849609375, 353.8656005859375, -0.09600000083446503, 0.04800000041723251, 1.055999994277954, 0.0, 0.0, 0.0, 0.0, 0.0, 1.620206715719542E9, 2021-05-05 11:25:15.719
79.0, 520.6912841796875, -984.399658203125, 398.0618591308594, 348.14727783203125, -0.09600000083446503, 0.04800000041723251, 1.055999994277954, 0.0, 0.0, 0.0, 0.0, 0.0, 1.620206715720307E9, 2021-05-05 11:25:15.720
79.0, 529.8241577148438, -969.9337158203125, 416.9446105957031, 368.7915344238281, -0.09600000083446503, 0.04800000041723251, 1.055999994277954, 0.0, 0.0, 0.0, 0.0, 0.0, 1.620206715720307E9, 2021-05-05 11:25:15.720
80.0, 528.75830078125, -982.357666015625, 409.62188720703125, 361.02001953125, -0.09600000083446503, 0.04800000041723251, 1.055999994277954, 0.0, 0.0, 0.0, 0.0, 0.0, 1.6202067157337413E9, 2021-05-05 11:25:15.733
80.0, 516.3792114257812, -991.3184814453125, 393.8731689453125, 355.75048828125, -0.09600000083446503, 0.04800000041723251, 1.055999994277954, 0.0, 0.0, 0.0, 0.0, 0.0, 1.6202067157337413E9, 2021-05-05 11:25:15.733
81.0, 510.6496887207031, -995.926025390625, 391.61053466796875, 351.2738342285156, -0.09600000083446503, 0.04800000041723251, 1.055999994277954, 0.0, 0.0, 0.0, 0.0, 0.0, 1.620206715734476E9, 2021-05-05 11:25:15.734
81.0, 527.995361328125, -973.662353515625, 405.3397216796875, 360.6385498046875, -0.09600000083446503, 0.04800000041723251, 1.055999994277954, 0.0, 0.0, 0.0, 0.0, 0.0, 1.620206715734476E9, 2021-05-05 11:25:15.734
82.0, 520.5791015625, -982.74658203125, 402.9573974609375, 361.4463806152344, -0.09600000083446503, 0.04800000041723251, 1.055999994277954, 0.0, 0.0, 0.0, 0.0, 0.0, 1.6202067157352161E9, 2021-05-05 11:25:15.735
82.0, 498.4875183105469, -995.7240600585938, 382.99005126953125, 343.32281494140625, -0.09600000083446503, 0.04800000041723251, 1.055999994277954, 0.0, 0.0, 0.0, 0.0, 0.0, 1.6202067157352161E9, 2021-05-05 11:25:15.735
83.0, 492.5074157714844, -995.1181640625, 386.4943542480469, 342.440185546875, -0.09600000083446503, 0.04800000041723251, 1.055999994277954, 0.0, 0.0, 0.0, 0.0, 0.0, 1.620206715764076E9, 2021-05-05 11:25:15.764
83.0, 510.9937438964844, -979.7247314453125, 399.2586364746094, 351.6814880371094, -0.09600000083446503, 0.04800000041723251, 1.055999994277954, 0.0, 0.0, 0.0, 0.0, 0.0, 1.620206715764076E9, 2021-05-05 11:25:15.764
84.0, 513.7089233398438, -981.44140625, 398.1590881347656, 352.638916015625, -0.09600000083446503, 0.04800000041723251, 1.055999994277954, 0.0, 0.0, 0.0, 0.0, 0.0, 1.620206715764783E9, 2021-05-05 11:25:15.764
84.0, 493.9398193359375, -997.440673828125, 379.59423828125, 337.885009765625, -0.09600000083446503, 0.04800000041723251, 1.055999994277954, 0.0, 0.0, 0.0, 0.0, 0.0, 1.620206715764783E9, 2021-05-05 11:25:15.764
85.0, 492.3204345703125, -1001.95849609375, 378.8686828613281, 328.9765625, -0.09600000083446503, 0.04800000041723251, 1.055999994277954, 0.0, 0.0, 0.0, 0.0, 0.0, 1.620206715765529E9, 2021-05-05 11:25:15.765
85.0, 511.54351806640625, -985.3121948242188, 395.9226379394531, 344.1194152832031, -0.09600000083446503, 0.04800000041723251, 1.055999994277954, 0.0, 0.0, 0.0, 0.0, 0.0, 1.620206715765529E9, 2021-05-05 11:25:15.765
86.0, 515.5003051757812, -983.1318359375, 399.10528564453125, 347.31329345703125, -0.09600000083446503, 0.04800000041723251, 1.055999994277954, 0.0, 0.0, 0.0, 0.0, 0.0, 1.6202067157662547E9, 2021-05-05 11:25:15.766
86.0, 499.0821838378906, -997.0629272460938, 383.71185302734375, 337.5671081542969, -0.09600000083446503, 0.04800000041723251, 1.055999994277954, 0.0, 0.0, 0.0, 0.0, 0.0, 1.6202067157662547E9, 2021-05-05 11:25:15.766
87.0, 499.37762451171875, -995.8511962890625, 381.61376953125, 337.5932922363281, -0.09600000083446503, 0.04800000041723251, 1.055999994277954, 0.0, 0.0, 0.0, 0.0, 0.0, 1.6202067157769647E9, 2021-05-05 11:25:15.776
87.0, 519.2926025390625, -975.1770629882812, 403.9035949707031, 349.0074768066406, -0.09600000083446503, 0.04800000041723251, 1.055999994277954, 0.0, 0.0, 0.0, 0.0, 0.0, 1.6202067157769647E9, 2021-05-05 11:25:15.776
88.0, 528.9863891601562, -986.0489501953125, 409.689208984375, 354.2657775878906, -0.09600000083446503, 0.04800000041723251, 1.055999994277954, 0.0, 0.0, 0.0, 0.0, 0.0, 1.6202067157920218E9, 2021-05-05 11:25:15.792
88.0, 505.6195068359375, -998.1063842773438, 389.7667541503906, 344.0895080566406, -0.09600000083446503, 0.04800000041723251, 1.055999994277954, 0.0, 0.0, 0.0, 0.0, 0.0, 1.6202067157920218E9, 2021-05-05 11:25:15.792
89.0, 498.39776611328125, -1001.5396118164062, 385.12554931640625, 337.6905212402344, -0.09600000083446503, 0.04800000041723251, 1.055999994277954, 0.0, 0.0, 0.0, 0.0, 0.0, 1.6202067158405504E9, 2021-05-05 11:25:15.840
89.0, 522.1610717773438, -980.2333984375, 409.18804931640625, 355.77667236328125, -0.09600000083446503, 0.04800000041723251, 1.055999994277954, 0.0, 0.0, 0.0, 0.0, 0.0, 1.6202067158405504E9, 2021-05-05 11:25:15.840
90.0, 526.5704345703125, -986.9390258789062, 406.1250915527344, 353.5851135253906, -0.09600000083446503, 0.04800000041723251, 1.055999994277954, 0.0, 0.0, 0.0, 0.0, 0.0, 1.6202067158410928E9, 2021-05-05 11:25:15.841
90.0, 500.0133972167969, -1002.5867919921875, 388.7906494140625, 340.1401672363281, -0.09600000083446503, 0.04800000041723251, 1.055999994277954, 0.0, 0.0, 0.0, 0.0, 0.0, 1.6202067158410928E9, 2021-05-05 11:25:15.841
91.0, 504.557373046875, -1002.6615600585938, 390.6119689941406, 339.77740478515625, -0.09600000083446503, 0.04800000041723251, 1.055999994277954, 0.0, 0.0, 0.0, 0.0, 0.0, 1.6202067158418808E9, 2021-05-05 11:25:15.841
91.0, 523.4288940429688, -980.798095703125, 409.32269287109375, 353.6673889160156, -0.09600000083446503, 0.04800000041723251, 1.055999994277954, 0.0, 0.0, 0.0, 0.0, 0.0, 1.6202067158418808E9, 2021-05-05 11:25:15.841
92.0, 525.0932006835938, -985.3607788085938, 403.8138427734375, 355.6457824707031, -0.09600000083446503, 0.04800000041723251, 1.055999994277954, 0.0, 0.0, 0.0, 0.0, 0.0, 1.6202067158426213E9, 2021-05-05 11:25:15.842
92.0, 503.2521667480469, -1001.8799438476562, 392.25006103515625, 341.606201171875, -0.09600000083446503, 0.04800000041723251, 1.055999994277954, 0.0, 0.0, 0.0, 0.0, 0.0, 1.6202067158426213E9, 2021-05-05 11:25:15.842
93.0, 497.9564514160156, -1004.7334594726562, 387.3133850097656, 334.5527648925781, -0.09600000083446503, 0.04800000041723251, 1.055999994277954, 0.0, 0.0, 0.0, 0.0, 0.0, 1.6202067158526764E9, 2021-05-05 11:25:15.852
93.0, 520.6202392578125, -988.67431640625, 404.5318908691406, 353.4916076660156, -0.09600000083446503, 0.04800000041723251, 1.055999994277954, 0.0, 0.0, 0.0, 0.0, 0.0, 1.6202067158526764E9, 2021-05-05 11:25:15.852
94.0, 512.8375244140625, -984.5081176757812, 406.1250915527344, 355.4438171386719, -0.09600000083446503, 0.04800000041723251, 1.055999994277954, 0.0, 0.0, 0.0, 0.0, 0.0, 1.6202067158535209E9, 2021-05-05 11:25:15.853
94.0, 498.465087890625, -1001.7752075195312, 387.53778076171875, 346.2548828125, -0.09600000083446503, 0.04800000041723251, 1.055999994277954, 0.0, 0.0, 0.0, 0.0, 0.0, 1.6202067158535209E9, 2021-05-05 11:25:15.853
95.0, 496.3408203125, -1001.6293334960938, 378.9472351074219, 335.843017578125, -0.09600000083446503, 0.04800000041723251, 1.055999994277954, 0.0, 0.0, 0.0, 0.0, 0.0, 1.6202067158683176E9, 2021-05-05 11:25:15.868
95.0, 515.6686401367188, -981.9874267578125, 394.4491271972656, 348.5250244140625, -0.09600000083446503, 0.04800000041723251, 1.055999994277954, 0.0, 0.0, 0.0, 0.0, 0.0, 1.6202067158683176E9, 2021-05-05 11:25:15.868
96.0, 522.4976806640625, -990.6976318359375, 399.2249755859375, 352.474365234375, -0.09600000083446503, 0.04800000041723251, 1.055999994277954, 0.0, 0.0, 0.0, 0.0, 0.0, 1.6202067158690383E9, 2021-05-05 11:25:15.869
96.0, 505.17071533203125, -1008.54443359375, 380.1327819824219, 337.5745849609375, -0.09600000083446503, 0.04800000041723251, 1.055999994277954, 0.0, 0.0, 0.0, 0.0, 0.0, 1.6202067158690383E9, 2021-05-05 11:25:15.869
97.0, 498.8652648925781, -1015.0406494140625, 377.3689880371094, 333.6327209472656, -0.09600000083446503, 0.04800000041723251, 1.055999994277954, 0.0, 0.0, 0.0, 0.0, 0.0, 1.620206715882002E9, 2021-05-05 11:25:15.882
97.0, 523.9151000976562, -997.205078125, 398.1029968261719, 346.16888427734375, -0.09600000083446503, 0.04800000041723251, 1.055999994277954, 0.0, 0.0, 0.0, 0.0, 0.0, 1.620206715882002E9, 2021-05-05 11:25:15.882
98.0, 520.7922973632812, -992.204833984375, 397.3550109863281, 345.6153869628906, -0.09600000083446503, 0.04800000041723251, 1.055999994277954, 0.0, 0.0, 0.0, 0.0, 0.0, 1.6202067158976412E9, 2021-05-05 11:25:15.897
98.0, 501.3634948730469, -1013.1482543945312, 374.9829406738281, 331.2466735839844, -0.09600000083446503, 0.04800000041723251, 1.055999994277954, 0.0, 0.0, 0.0, 0.0, 0.0, 1.6202067158976412E9, 2021-05-05 11:25:15.897
99.0, 494.92340087890625, -1009.3485107421875, 372.83624267578125, 328.23980712890625, -0.09600000083446503, 0.04800000041723251, 1.055999994277954, 0.0, 0.0, 0.0, 0.0, 0.0, 1.6202067158983676E9, 2021-05-05 11:25:15.898
99.0, 516.9776000976562, -988.9212036132812, 391.1505126953125, 345.14788818359375, -0.09600000083446503, 0.04800000041723251, 1.055999994277954, 0.0, 0.0, 0.0, 0.0, 0.0, 1.6202067158983676E9, 2021-05-05 11:25:15.898
100.0, 510.4589538574219, -1001.771484375, 391.8236999511719, 343.636962890625, -0.09600000083446503, 0.04800000041723251, 1.055999994277954, 0.0, 0.0, 0.0, 0.0, 0.0, 1.6202067159126573E9, 2021-05-05 11:25:15.912
100.0, 487.2715759277344, -1014.4048461914062, 371.7591552734375, 324.21942138671875, -0.09600000083446503, 0.04800000041723251, 1.055999994277954, 0.0, 0.0, 0.0, 0.0, 0.0, 1.6202067159126573E9, 2021-05-05 11:25:15.912
0.0, 485.92144775390625, -1008.19287109375, 370.1678161621094, 329.17852783203125, -0.09600000083446503, 0.04800000041723251, 1.055999994277954, 0.0, 0.0, 0.0, 0.0, 0.0, 1.6202067159134016E9, 2021-05-05 11:25:15.913
1.0, 515.7733154296875, -990.4956665039062, 387.1656494140625, 342.14849853515625, -0.09600000083446503, 0.04800000041723251, 1.055999994277954, 0.0, 0.0, 0.0, 0.0, 0.0, 1.620206715943041E9, 2021-05-05 11:25:15.943
1.0, 502.1675720214844, -983.2290649414062, 381.00604248046875, 337.87005615234375, -0.09600000083446503, 0.04800000041723251, 1.055999994277954, 0.0, 0.0, 0.0, 0.0, 0.0, 1.620206715943041E9, 2021-05-05 11:25:15.943
2.0, 491.0039978027344, -1004.5726318359375, 368.6793518066406, 332.462158203125, -0.09600000083446503, 0.04800000041723251, 1.055999994277954, 0.0, 0.0, 0.0, 0.0, 0.0, 1.6202067159437597E9, 2021-05-05 11:25:15.943
2.0, 492.38775634765625, -1015.9456787109375, 366.30450439453125, 322.54766845703125, -0.09600000083446503, 0.04800000041723251, 1.055999994277954, 0.0, 0.0, 0.0, 0.0, 0.0, 1.6202067159437597E9, 2021-05-05 11:25:15.943
3.0, 511.9736022949219, -994.9947509765625, 389.7312316894531, 341.6361083984375, -0.09600000083446503, 0.04800000041723251, 1.055999994277954, 0.0, 0.0, 0.0, 0.0, 0.0, 1.6202067159576457E9, 2021-05-05 11:25:15.957
3.0, 523.7655029296875, -980.1660766601562, 393.156982421875, 348.9176940917969, -0.09600000083446503, 0.04800000041723251, 1.055999994277954, 0.0, 0.0, 0.0, 0.0, 0.0, 1.6202067159576457E9, 2021-05-05 11:25:15.957
4.0, 516.2071533203125, -991.2062377929688, 387.8238830566406, 347.91168212890625, -0.09600000083446503, 0.04800000041723251, 1.055999994277954, 0.0, 0.0, 0.0, 0.0, 0.0, 1.6202067159583786E9, 2021-05-05 11:25:15.958
4.0, 527.9691772460938, -987.077392578125, 399.3465270996094, 360.50018310546875, -0.09600000083446503, 0.04800000041723251, 1.055999994277954, 0.0, 0.0, 0.0, 0.0, 0.0, 1.6202067159583786E9, 2021-05-05 11:25:15.958
5.0, 543.4411010742188, -969.2343139648438, 412.3314514160156, 367.7294006347656, -0.09600000083446503, 0.04800000041723251, 1.055999994277954, 0.0, 0.0, 0.0, 0.0, 0.0, 1.6202067159726412E9, 2021-05-05 11:25:15.972
5.0, 540.404296875, -971.4970092773438, 410.5811767578125, 367.381591796875, -0.09600000083446503, 0.04800000041723251, 1.055999994277954, 0.0, 0.0, 0.0, 0.0, 0.0, 1.6202067159726412E9, 2021-05-05 11:25:15.972
6.0, 520.321044921875, -989.811279296875, 389.9481506347656, 353.3121032714844, -0.09600000083446503, 0.04800000041723251, 1.055999994277954, 0.0, 0.0, 0.0, 0.0, 0.0, 1.6202067159733548E9, 2021-05-05 11:25:15.973
6.0, 512.6879272460938, -993.3641967773438, 382.09808349609375, 342.2008361816406, -0.09600000083446503, 0.04800000041723251, 1.055999994277954, 0.0, 0.0, 0.0, 0.0, 0.0, 1.6202067159733548E9, 2021-05-05 11:25:15.973
7.0, 531.0433349609375, -978.0231323242188, 398.931396484375, 354.0899963378906, -0.09600000083446503, 0.04800000041723251, 1.055999994277954, 0.0, 0.0, 0.0, 0.0, 0.0, 1.6202067159869552E9, 2021-05-05 11:25:15.986
7.0, 523.2531127929688, -983.0457763671875, 396.56402587890625, 352.9156494140625, -0.09600000083446503, 0.04800000041723251, 1.055999994277954, 0.0, 0.0, 0.0, 0.0, 0.0, 1.6202067159869552E9, 2021-05-05 11:25:15.986
8.0, 500.6903381347656, -994.3627319335938, 373.42901611328125, 335.9477233886719, -0.09600000083446503, 0.04800000041723251, 1.055999994277954, 0.0, 0.0, 0.0, 0.0, 0.0, 1.6202067160026991E9, 2021-05-05 11:25:16.002
8.0, 491.2994384765625, -994.5571899414062, 375.1007385253906, 331.3102722167969, -0.09600000083446503, 0.04800000041723251, 1.055999994277954, 0.0, 0.0, 0.0, 0.0, 0.0, 1.6202067160026991E9, 2021-05-05 11:25:16.002
9.0, 511.775390625, -984.6988525390625, 388.25396728515625, 348.0799560546875, -0.09600000083446503, 0.04800000041723251, 1.055999994277954, 0.0, 0.0, 0.0, 0.0, 0.0, 1.6202067160034554E9, 2021-05-05 11:25:16.003
9.0, 507.30621337890625, -984.7960815429688, 387.01605224609375, 342.4140319824219, -0.09600000083446503, 0.04800000041723251, 1.055999994277954, 0.0, 0.0, 0.0, 0.0, 0.0, 1.6202067160034554E9, 2021-05-05 11:25:16.003
10.0, 489.9381103515625, -1003.0317993164062, 369.4347839355469, 331.8861999511719, -0.09600000083446503, 0.04800000041723251, 1.055999994277954, 0.0, 0.0, 0.0, 0.0, 0.0, 1.62020671601698E9, 2021-05-05 11:25:16.016
10.0, 489.1564636230469, -1003.1514892578125, 368.82891845703125, 330.1209716796875, -0.09600000083446503, 0.04800000041723251, 1.055999994277954, 0.0, 0.0, 0.0, 0.0, 0.0, 1.62020671601698E9, 2021-05-05 11:25:16.016
11.0, 503.82061767578125, -990.5891723632812, 380.0972595214844, 341.5575866699219, -0.09600000083446503, 0.04800000041723251, 1.055999994277954, 0.0, 0.0, 0.0, 0.0, 0.0, 1.62020671604913E9, 2021-05-05 11:25:16.049
11.0, 503.3793029785156, -996.99560546875, 379.83544921875, 339.4744567871094, -0.09600000083446503, 0.04800000041723251, 1.055999994277954, 0.0, 0.0, 0.0, 0.0, 0.0, 1.62020671604913E9, 2021-05-05 11:25:16.049
12.0, 485.577392578125, -1016.2261962890625, 370.8484802246094, 325.8911437988281, -0.09600000083446503, 0.04800000041723251, 1.055999994277954, 0.0, 0.0, 0.0, 0.0, 0.0, 1.620206716049749E9, 2021-05-05 11:25:16.049
12.0, 495.14404296875, -1018.5187377929688, 368.26422119140625, 327.1440124511719, -0.09600000083446503, 0.04800000041723251, 1.055999994277954, 0.0, 0.0, 0.0, 0.0, 0.0, 1.620206716049749E9, 2021-05-05 11:25:16.049
13.0, 499.7216796875, -999.5686645507812, 382.81988525390625, 346.1763610839844, -0.09600000083446503, 0.04800000041723251, 1.055999994277954, 0.0, 0.0, 0.0, 0.0, 0.0, 1.6202067160504897E9, 2021-05-05 11:25:16.050
13.0, 494.556884765625, -1008.473388671875, 378.0178527832031, 337.9635314941406, -0.09600000083446503, 0.04800000041723251, 1.055999994277954, 0.0, 0.0, 0.0, 0.0, 0.0, 1.6202067160504897E9, 2021-05-05 11:25:16.050
14.0, 479.6459045410156, -1022.1015625, 354.5686950683594, 325.6143798828125, -0.09600000083446503, 0.04800000041723251, 1.055999994277954, 0.0, 0.0, 0.0, 0.0, 0.0, 1.6202067160512416E9, 2021-05-05 11:25:16.051
14.0, 474.85882568359375, -1015.2911987304688, 353.2373046875, 317.9924621582031, -0.09600000083446503, 0.04800000041723251, 1.055999994277954, 0.0, 0.0, 0.0, 0.0, 0.0, 1.6202067160512416E9, 2021-05-05 11:25:16.051
15.0, 492.8888854980469, -1003.4955444335938, 375.4822082519531, 328.729736328125, -0.09600000083446503, 0.04800000041723251, 1.055999994277954, 0.0, 0.0, 0.0, 0.0, 0.0, 1.6202067160620167E9, 2021-05-05 11:25:16.062
15.0, 489.463134765625, -1003.0355834960938, 372.5501403808594, 325.9734191894531, -0.09600000083446503, 0.04800000041723251, 1.055999994277954, 0.0, 0.0, 0.0, 0.0, 0.0, 1.6202067160620167E9, 2021-05-05 11:25:16.062
16.0, 471.1189270019531, -1018.5075073242188, 353.76837158203125, 315.7148742675781, -0.09600000083446503, 0.04800000041723251, 1.055999994277954, 0.0, 0.0, 0.0, 0.0, 0.0, 1.6202067160933752E9, 2021-05-05 11:25:16.093
16.0, 475.7638854980469, -1018.3242797851562, 355.3204040527344, 314.5330810546875, -0.09600000083446503, 0.04800000041723251, 1.055999994277954, 0.0, 0.0, 0.0, 0.0, 0.0, 1.6202067160933752E9, 2021-05-05 11:25:16.093
17.0, 491.70709228515625, -1000.6644897460938, 369.7863464355469, 327.4918212890625, -0.09600000083446503, 0.04800000041723251, 1.055999994277954, 0.0, 0.0, 0.0, 0.0, 0.0, 1.6202067160940375E9, 2021-05-05 11:25:16.094
17.0, 491.8267517089844, -999.7444458007812, 377.3446960449219, 327.3160400390625, -0.09600000083446503, 0.04800000041723251, 1.055999994277954, 0.0, 0.0, 0.0, 0.0, 0.0, 1.6202067160940375E9, 2021-05-05 11:25:16.094
18.0, 471.6761779785156, -1015.9569091796875, 368.5035705566406, 324.0249328613281, -0.09600000083446503, 0.04800000041723251, 1.055999994277954, 0.0, 0.0, 0.0, 0.0, 0.0, 1.6202067160947928E9, 2021-05-05 11:25:16.094
18.0, 474.5222473144531, -1027.0943603515625, 356.07586669921875, 313.74395751953125, -0.09600000083446503, 0.04800000041723251, 1.055999994277954, 0.0, 0.0, 0.0, 0.0, 0.0, 1.6202067160947928E9, 2021-05-05 11:25:16.094
19.0, 497.34686279296875, -995.903564453125, 383.2200622558594, 337.64190673828125, -0.09600000083446503, 0.04800000041723251, 1.055999994277954, 0.0, 0.0, 0.0, 0.0, 0.0, 1.6202067161069708E9, 2021-05-05 11:25:16.106
19.0, 499.8750305175781, -1001.644287109375, 381.97467041015625, 333.6589050292969, -0.09600000083446503, 0.04800000041723251, 1.055999994277954, 0.0, 0.0, 0.0, 0.0, 0.0, 1.6202067161069708E9, 2021-05-05 11:25:16.106
20.0, 470.236328125, -1023.1300659179688, 362.09710693359375, 324.986083984375, -0.09600000083446503, 0.04800000041723251, 1.040000081062317, 0.0, 0.0, 0.0, 0.0, 0.0, 1.6202067161227767E9, 2021-05-05 11:25:16.122
20.0, 478.3070373535156, -1024.0574951171875, 364.0381164550781, 321.9268493652344, -0.09600000083446503, 0.04800000041723251, 1.040000081062317, 0.0, 0.0, 0.0, 0.0, 0.0, 1.6202067161227767E9, 2021-05-05 11:25:16.122
21.0, 507.3435974121094, -1007.8562622070312, 381.8998718261719, 333.8197326660156, -0.09600000083446503, 0.04800000041723251, 1.040000081062317, 0.0, 0.0, 0.0, 0.0, 0.0, 1.6202067161235197E9, 2021-05-05 11:25:16.123
21.0, 497.94525146484375, -1014.2066650390625, 376.5705261230469, 327.9256591796875, -0.09600000083446503, 0.04800000041723251, 1.040000081062317, 0.0, 0.0, 0.0, 0.0, 0.0, 1.6202067161235197E9, 2021-05-05 11:25:16.123
22.0, 480.8015441894531, -1028.429443359375, 358.9406433105469, 313.5494689941406, -0.09600000083446503, 0.04800000041723251, 1.040000081062317, 0.0, 0.0, 0.0, 0.0, 0.0, 1.6202067161533523E9, 2021-05-05 11:25:16.153
22.0, 472.1025390625, -1029.91796875, 352.0891418457031, 306.9635009765625, -0.09600000083446503, 0.04800000041723251, 1.040000081062317, 0.0, 0.0, 0.0, 0.0, 0.0, 1.6202067161533523E9, 2021-05-05 11:25:16.153
23.0, 494.11932373046875, -1007.51220703125, 373.81048583984375, 323.70703125, -0.09600000083446503, 0.04800000041723251, 1.040000081062317, 0.0, 0.0, 0.0, 0.0, 0.0, 1.6202067161541264E9, 2021-05-05 11:25:16.154
23.0, 495.0692443847656, -1004.7745971679688, 373.6982727050781, 330.4313659667969, -0.09600000083446503, 0.04800000041723251, 1.040000081062317, 0.0, 0.0, 0.0, 0.0, 0.0, 1.6202067161541264E9, 2021-05-05 11:25:16.154
24.0, 475.16925048828125, -1024.251953125, 360.0887756347656, 319.9447021484375, -0.09600000083446503, 0.04800000041723251, 1.040000081062317, 0.0, 0.0, 0.0, 0.0, 0.0, 1.6202067161548648E9, 2021-05-05 11:25:16.154
24.0, 477.0429382324219, -1020.0147094726562, 359.587646484375, 317.0799255371094, -0.09600000083446503, 0.04800000041723251, 1.040000081062317, 0.0, 0.0, 0.0, 0.0, 0.0, 1.6202067161548648E9, 2021-05-05 11:25:16.154
25.0, 510.3018798828125, -996.7338256835938, 375.856201171875, 334.3769836425781, -0.09600000083446503, 0.04800000041723251, 1.040000081062317, 0.0, 0.0, 0.0, 0.0, 0.0, 1.620206716166936E9, 2021-05-05 11:25:16.166
25.0, 498.3902893066406, -998.6935424804688, 379.5699157714844, 330.83154296875, -0.09600000083446503, 0.04800000041723251, 1.040000081062317, 0.0, 0.0, 0.0, 0.0, 0.0, 1.620206716166936E9, 2021-05-05 11:25:16.166
26.0, 484.5115051269531, -1020.0034790039062, 356.90240478515625, 320.9357604980469, -0.09600000083446503, 0.04800000041723251, 1.040000081062317, 0.0, 0.0, 0.0, 0.0, 0.0, 1.6202067161826723E9, 2021-05-05 11:25:16.182
26.0, 482.7500305175781, -1017.19482421875, 366.1025390625, 316.9677429199219, -0.09600000083446503, 0.04800000041723251, 1.040000081062317, 0.0, 0.0, 0.0, 0.0, 0.0, 1.6202067161826723E9, 2021-05-05 11:25:16.182
27.0, 503.6336364746094, -1001.337646484375, 385.9202880859375, 338.3076171875, -0.09600000083446503, 0.04800000041723251, 1.040000081062317, 0.0, 0.0, 0.0, 0.0, 0.0, 1.62020671618338E9, 2021-05-05 11:25:16.183
27.0, 497.114990234375, -1002.7775268554688, 378.96405029296875, 339.0929870605469, -0.09600000083446503, 0.04800000041723251, 1.040000081062317, 0.0, 0.0, 0.0, 0.0, 0.0, 1.62020671618338E9, 2021-05-05 11:25:16.183
28.0, 479.96380615234375, -1014.1804809570312, 364.2699890136719, 320.1167297363281, -0.09600000083446503, 0.04800000041723251, 1.040000081062317, 0.0, 0.0, 0.0, 0.0, 0.0, 1.6202067161969705E9, 2021-05-05 11:25:16.196
28.0, 478.97271728515625, -1015.751220703125, 358.8209533691406, 319.9409484863281, -0.09600000083446503, 0.04800000041723251, 1.040000081062317, 0.0, 0.0, 0.0, 0.0, 0.0, 1.6202067161969705E9, 2021-05-05 11:25:16.196
29.0, 503.8019104003906, -997.7174072265625, 380.81158447265625, 333.2662353515625, -0.09600000083446503, 0.04800000041723251, 1.040000081062317, 0.0, 0.0, 0.0, 0.0, 0.0, 1.620206716212703E9, 2021-05-05 11:25:16.212
29.0, 504.1572265625, -1005.2608032226562, 376.361083984375, 329.15234375, -0.09600000083446503, 0.04800000041723251, 1.040000081062317, 0.0, 0.0, 0.0, 0.0, 0.0, 1.620206716212703E9, 2021-05-05 11:25:16.212
30.0, 479.79925537109375, -1017.3032836914062, 366.8355712890625, 327.00189208984375, -0.09600000083446503, 0.04800000041723251, 1.040000081062317, 0.0, 0.0, 0.0, 0.0, 0.0, 1.620206716213466E9, 2021-05-05 11:25:16.213
30.0, 476.4595031738281, -1014.7451782226562, 363.7314453125, 324.4737243652344, -0.09600000083446503, 0.04800000041723251, 1.040000081062317, 0.0, 0.0, 0.0, 0.0, 0.0, 1.620206716213466E9, 2021-05-05 11:25:16.213
31.0, 508.2598876953125, -998.603759765625, 387.7939758300781, 341.277099609375, -0.09600000083446503, 0.04800000041723251, 1.040000081062317, 0.0, 0.0, 0.0, 0.0, 0.0, 1.620206716227002E9, 2021-05-05 11:25:16.227
31.0, 504.51251220703125, -1002.6466064453125, 387.8463134765625, 339.62030029296875, -0.09600000083446503, 0.04800000041723251, 1.040000081062317, 0.0, 0.0, 0.0, 0.0, 0.0, 1.620206716227002E9, 2021-05-05 11:25:16.227
32.0, 475.1355895996094, -1020.6542358398438, 367.7294006347656, 327.6451416015625, -0.09600000083446503, 0.04800000041723251, 1.040000081062317, 0.0, 0.0, 0.0, 0.0, 0.0, 1.6202067162754376E9, 2021-05-05 11:25:16.275
32.0, 489.8595886230469, -1018.615966796875, 368.34649658203125, 323.8080139160156, -0.09600000083446503, 0.04800000041723251, 1.040000081062317, 0.0, 0.0, 0.0, 0.0, 0.0, 1.6202067162754376E9, 2021-05-05 11:25:16.275
33.0, 502.2498779296875, -999.576171875, 389.8060302734375, 340.7310791015625, -0.09600000083446503, 0.04800000041723251, 1.040000081062317, 0.0, 0.0, 0.0, 0.0, 0.0, 1.620206716276095E9, 2021-05-05 11:25:16.276
33.0, 497.18231201171875, -1001.2105102539062, 383.9718017578125, 338.96209716796875, -0.09600000083446503, 0.04800000041723251, 1.040000081062317, 0.0, 0.0, 0.0, 0.0, 0.0, 1.620206716276095E9, 2021-05-05 11:25:16.276
34.0, 486.47869873046875, -1018.5411987304688, 366.79815673828125, 329.0812683105469, -0.09600000083446503, 0.04800000041723251, 1.040000081062317, 0.0, 0.0, 0.0, 0.0, 0.0, 1.6202067162768376E9, 2021-05-05 11:25:16.276
34.0, 485.1323547363281, -1012.688232421875, 368.1669616699219, 327.0879211425781, -0.09600000083446503, 0.04800000041723251, 1.040000081062317, 0.0, 0.0, 0.0, 0.0, 0.0, 1.6202067162768376E9, 2021-05-05 11:25:16.276
35.0, 501.5093688964844, -992.029052734375, 379.7045593261719, 336.25439453125, -0.09600000083446503, 0.04800000041723251, 1.040000081062317, 0.0, 0.0, 0.0, 0.0, 0.0, 1.620206716277598E9, 2021-05-05 11:25:16.277
35.0, 499.919921875, -997.54541015625, 381.27532958984375, 337.6867980957031, -0.09600000083446503, 0.04800000041723251, 1.040000081062317, 0.0, 0.0, 0.0, 0.0, 0.0, 1.620206716277598E9, 2021-05-05 11:25:16.277
36.0, 487.2192077636719, -1013.6007690429688, 368.49981689453125, 330.3715515136719, -0.09600000083446503, 0.04800000041723251, 1.040000081062317, 0.0, 0.0, 0.0, 0.0, 0.0, 1.6202067162874207E9, 2021-05-05 11:25:16.287
36.0, 480.6145324707031, -1017.0003662109375, 358.6414489746094, 325.4573059082031, -0.09600000083446503, 0.04800000041723251, 1.040000081062317, 0.0, 0.0, 0.0, 0.0, 0.0, 1.6202067162874207E9, 2021-05-05 11:25:16.287
37.0, 500.7314758300781, -996.853515625, 381.4473571777344, 341.44537353515625, -0.09600000083446503, 0.04800000041723251, 1.040000081062317, 0.0, 0.0, 0.0, 0.0, 0.0, 1.620206716303363E9, 2021-05-05 11:25:16.303
37.0, 499.3177795410156, -998.4878540039062, 381.0135192871094, 342.1596984863281, -0.09600000083446503, 0.04800000041723251, 1.040000081062317, 0.0, 0.0, 0.0, 0.0, 0.0, 1.620206716303363E9, 2021-05-05 11:25:16.303
38.0, 489.9568176269531, -1006.4613037109375, 366.0651550292969, 324.91876220703125, -0.09600000083446503, 0.04800000041723251, 1.040000081062317, 0.0, 0.0, 0.0, 0.0, 0.0, 1.6202067163040884E9, 2021-05-05 11:25:16.304
38.0, 489.4294738769531, -1006.2182006835938, 365.82952880859375, 323.8529052734375, -0.09600000083446503, 0.04800000041723251, 1.040000081062317, 0.0, 0.0, 0.0, 0.0, 0.0, 1.6202067163040884E9, 2021-05-05 11:25:16.304
39.0, 516.4539794921875, -990.2001953125, 388.3549499511719, 339.410888671875, -0.09600000083446503, 0.04800000041723251, 1.040000081062317, 0.0, 0.0, 0.0, 0.0, 0.0, 1.6202067163048499E9, 2021-05-05 11:25:16.304
39.0, 508.1888122558594, -994.9013061523438, 381.39874267578125, 340.4169006347656, -0.09600000083446503, 0.04800000041723251, 1.040000081062317, 0.0, 0.0, 0.0, 0.0, 0.0, 1.6202067163048499E9, 2021-05-05 11:25:16.304
40.0, 491.4752197265625, -1009.7973022460938, 367.8490905761719, 331.4598388671875, -0.09600000083446503, 0.04800000041723251, 1.040000081062317, 0.0, 0.0, 0.0, 0.0, 0.0, 1.620206716316954E9, 2021-05-05 11:25:16.316
40.0, 496.763427734375, -1014.412353515625, 368.2455139160156, 328.9167175292969, -0.09600000083446503, 0.04800000041723251, 1.040000081062317, 0.0, 0.0, 0.0, 0.0, 0.0, 1.620206716316954E9, 2021-05-05 11:25:16.316
41.0, 516.2071533203125, -989.88232421875, 389.7162780761719, 341.4378967285156, -0.09600000083446503, 0.04800000041723251, 1.040000081062317, 0.0, 0.0, 0.0, 0.0, 0.0, 1.620206716332625E9, 2021-05-05 11:25:16.332
41.0, 508.4132080078125, -1002.9158935546875, 388.5382080078125, 344.37371826171875, -0.09600000083446503, 0.04800000041723251, 1.040000081062317, 0.0, 0.0, 0.0, 0.0, 0.0, 1.620206716332625E9, 2021-05-05 11:25:16.332
42.0, 493.1544189453125, -1013.3240356445312, 372.9390869140625, 331.2616271972656, -0.09600000083446503, 0.04800000041723251, 1.040000081062317, 0.0, 0.0, 0.0, 0.0, 0.0, 1.6202067163333468E9, 2021-05-05 11:25:16.333
42.0, 491.20220947265625, -1009.5504760742188, 370.02197265625, 331.3813171386719, -0.09600000083446503, 0.04800000041723251, 1.040000081062317, 0.0, 0.0, 0.0, 0.0, 0.0, 1.6202067163333468E9, 2021-05-05 11:25:16.333
43.0, 515.5825805664062, -994.4337768554688, 391.0215148925781, 345.13665771484375, -0.09600000083446503, 0.04800000041723251, 1.040000081062317, 0.0, 0.0, 0.0, 0.0, 0.0, 1.6202067163633475E9, 2021-05-05 11:25:16.363
43.0, 507.2501220703125, -994.3291015625, 389.001953125, 342.462646484375, -0.09600000083446503, 0.04800000041723251, 1.040000081062317, 0.0, 0.0, 0.0, 0.0, 0.0, 1.6202067163633475E9, 2021-05-05 11:25:16.363
44.0, 496.91302490234375, -1013.1257934570312, 367.8229064941406, 329.11492919921875, -0.09600000083446503, 0.04800000041723251, 1.040000081062317, 0.0, 0.0, 0.0, 0.0, 0.0, 1.6202067163640883E9, 2021-05-05 11:25:16.364
44.0, 497.07757568359375, -1008.7987670898438, 373.37664794921875, 326.3773193359375, -0.09600000083446503, 0.04800000041723251, 1.040000081062317, 0.0, 0.0, 0.0, 0.0, 0.0, 1.6202067163640883E9, 2021-05-05 11:25:16.364
45.0, 514.6364135742188, -997.7136840820312, 386.9113464355469, 344.56072998046875, -0.09600000083446503, 0.04800000041723251, 1.040000081062317, 0.0, 0.0, 0.0, 0.0, 0.0, 1.6202067163648195E9, 2021-05-05 11:25:16.364
45.0, 509.21728515625, -1001.8126220703125, 385.46026611328125, 344.9609069824219, -0.09600000083446503, 0.04800000041723251, 1.040000081062317, 0.0, 0.0, 0.0, 0.0, 0.0, 1.6202067163648195E9, 2021-05-05 11:25:16.364
46.0, 495.6302490234375, -1021.667724609375, 368.81024169921875, 335.85797119140625, -0.09600000083446503, 0.04800000041723251, 1.040000081062317, 0.0, 0.0, 0.0, 0.0, 0.0, 1.620206716376938E9, 2021-05-05 11:25:16.376
46.0, 496.07904052734375, -1019.4649658203125, 371.4505920410156, 337.4025573730469, -0.09600000083446503, 0.04800000041723251, 1.040000081062317, 0.0, 0.0, 0.0, 0.0, 0.0, 1.620206716376938E9, 2021-05-05 11:25:16.376
47.0, 518.2865600585938, -997.9754638671875, 388.0108947753906, 349.0186767578125, -0.09600000083446503, 0.04800000041723251, 1.040000081062317, 0.0, 0.0, 0.0, 0.0, 0.0, 1.6202067163927605E9, 2021-05-05 11:25:16.392
47.0, 512.2279052734375, -995.9297485351562, 387.40875244140625, 348.7643737792969, -0.09600000083446503, 0.04800000041723251, 1.040000081062317, 0.0, 0.0, 0.0, 0.0, 0.0, 1.6202067163927605E9, 2021-05-05 11:25:16.392
48.0, 495.4619445800781, -1008.5892944335938, 371.41693115234375, 338.45721435546875, -0.09600000083446503, 0.04800000041723251, 1.040000081062317, 0.0, 0.0, 0.0, 0.0, 0.0, 1.620206716393407E9, 2021-05-05 11:25:16.393
48.0, 499.29534912109375, -1013.6680908203125, 372.9503173828125, 337.8363952636719, -0.09600000083446503, 0.04800000041723251, 1.040000081062317, 0.0, 0.0, 0.0, 0.0, 0.0, 1.620206716393407E9, 2021-05-05 11:25:16.393
49.0, 507.0257263183594, -998.90673828125, 385.0152282714844, 347.53021240234375, -0.09600000083446503, 0.04800000041723251, 1.040000081062317, 0.0, 0.0, 0.0, 0.0, 0.0, 1.620206716423822E9, 2021-05-05 11:25:16.423
49.0, 516.5699462890625, -995.6530151367188, 382.7114562988281, 346.5765380859375, -0.09600000083446503, 0.04800000041723251, 1.040000081062317, 0.0, 0.0, 0.0, 0.0, 0.0, 1.620206716423822E9, 2021-05-05 11:25:16.423
50.0, 495.82098388671875, -1010.0478515625, 371.0093078613281, 337.0509948730469, -0.09600000083446503, 0.04800000041723251, 1.055999994277954, 0.0, 0.0, 0.0, 0.0, 0.0, 1.6202067164246662E9, 2021-05-05 11:25:16.424
50.0, 492.9711608886719, -1012.2431640625, 371.783447265625, 335.3456115722656, -0.09600000083446503, 0.04800000041723251, 1.055999994277954, 0.0, 0.0, 0.0, 0.0, 0.0, 1.6202067164246662E9, 2021-05-05 11:25:16.424
51.0, 514.075439453125, -997.8557739257812, 385.7220764160156, 343.2068786621094, -0.09600000083446503, 0.04800000041723251, 1.055999994277954, 0.0, 0.0, 0.0, 0.0, 0.0, 1.6202067164376628E9, 2021-05-05 11:25:16.437
51.0, 509.0714416503906, -999.5612182617188, 383.1116027832031, 340.11773681640625, -0.09600000083446503, 0.04800000041723251, 1.055999994277954, 0.0, 0.0, 0.0, 0.0, 0.0, 1.6202067164376628E9, 2021-05-05 11:25:16.437
52.0, 487.3089599609375, -1013.6905517578125, 371.68621826171875, 331.3139953613281, -0.09600000083446503, 0.04800000041723251, 1.055999994277954, 0.0, 0.0, 0.0, 0.0, 0.0, 1.6202067164383829E9, 2021-05-05 11:25:16.438
52.0, 494.9196472167969, -1012.370361328125, 370.6726989746094, 331.7291259765625, -0.09600000083446503, 0.04800000041723251, 1.055999994277954, 0.0, 0.0, 0.0, 0.0, 0.0, 1.6202067164383829E9, 2021-05-05 11:25:16.438
53.0, 510.1747131347656, -996.561767578125, 386.7542724609375, 344.2054443359375, -0.09600000083446503, 0.04800000041723251, 1.055999994277954, 0.0, 0.0, 0.0, 0.0, 0.0, 1.6202067164697115E9, 2021-05-05 11:25:16.469
53.0, 514.1614379882812, -994.026123046875, 393.81146240234375, 352.17889404296875, -0.09600000083446503, 0.04800000041723251, 1.055999994277954, 0.0, 0.0, 0.0, 0.0, 0.0, 1.6202067164697115E9, 2021-05-05 11:25:16.469
54.0, 491.2919616699219, -1019.8837890625, 369.8274841308594, 338.6404724121094, -0.09600000083446503, 0.04800000041723251, 1.055999994277954, 0.0, 0.0, 0.0, 0.0, 0.0, 1.6202067164704664E9, 2021-05-05 11:25:16.470
54.0, 498.0611877441406, -1019.0498046875, 373.59356689453125, 336.183349609375, -0.09600000083446503, 0.04800000041723251, 1.055999994277954, 0.0, 0.0, 0.0, 0.0, 0.0, 1.6202067164704664E9, 2021-05-05 11:25:16.470
55.0, 518.2005615234375, -1000.0211791992188, 387.4685974121094, 348.58111572265625, -0.09600000083446503, 0.04800000041723251, 1.055999994277954, 0.0, 0.0, 0.0, 0.0, 0.0, 1.6202067164711685E9, 2021-05-05 11:25:16.471
55.0, 519.6329345703125, -1009.2101440429688, 390.22491455078125, 353.9142150878906, -0.09600000083446503, 0.04800000041723251, 1.055999994277954, 0.0, 0.0, 0.0, 0.0, 0.0, 1.6202067164711685E9, 2021-05-05 11:25:16.471
56.0, 493.90240478515625, -1024.0911865234375, 374.91375732421875, 338.9658203125, -0.09600000083446503, 0.04800000041723251, 1.055999994277954, 0.0, 0.0, 0.0, 0.0, 0.0, 1.6202067164719064E9, 2021-05-05 11:25:16.471
56.0, 496.1239013671875, -1021.7238159179688, 375.7514953613281, 342.6571044921875, -0.09600000083446503, 0.04800000041723251, 1.055999994277954, 0.0, 0.0, 0.0, 0.0, 0.0, 1.6202067164719064E9, 2021-05-05 11:25:16.471
57.0, 511.92498779296875, -1003.2525024414062, 403.0789489746094, 358.1777038574219, -0.09600000083446503, 0.04800000041723251, 1.055999994277954, 0.0, 0.0, 0.0, 0.0, 0.0, 1.6202067164977255E9, 2021-05-05 11:25:16.497
57.0, 509.7558288574219, -1004.9354248046875, 392.465087890625, 351.71142578125, -0.09600000083446503, 0.04800000041723251, 1.055999994277954, 0.0, 0.0, 0.0, 0.0, 0.0, 1.6202067164977255E9, 2021-05-05 11:25:16.497
58.0, 486.48992919921875, -1023.5938110351562, 373.496337890625, 343.1395568847656, -0.09600000083446503, 0.04800000041723251, 1.055999994277954, 0.0, 0.0, 0.0, 0.0, 0.0, 1.6202067164984975E9, 2021-05-05 11:25:16.498
58.0, 489.145263671875, -1023.4666137695312, 376.7500305175781, 342.1559753417969, -0.09600000083446503, 0.04800000041723251, 1.055999994277954, 0.0, 0.0, 0.0, 0.0, 0.0, 1.6202067164984975E9, 2021-05-05 11:25:16.498
59.0, 507.0930480957031, -1001.2740478515625, 393.2168273925781, 348.02386474609375, -0.09600000083446503, 0.04800000041723251, 1.055999994277954, 0.0, 0.0, 0.0, 0.0, 0.0, 1.6202067165290885E9, 2021-05-05 11:25:16.529
59.0, 508.15142822265625, -1000.1782836914062, 389.6302490234375, 343.2480163574219, -0.09600000083446503, 0.04800000041723251, 1.055999994277954, 0.0, 0.0, 0.0, 0.0, 0.0, 1.6202067165290885E9, 2021-05-05 11:25:16.529
60.0, 491.22088623046875, -1018.86279296875, 371.5328674316406, 332.121826171875, -0.09600000083446503, 0.04800000041723251, 1.055999994277954, 0.0, 0.0, 0.0, 0.0, 0.0, 1.620206716530193E9, 2021-05-05 11:25:16.530
60.0, 492.279296875, -1022.6027221679688, 366.0651550292969, 325.8088684082031, -0.09600000083446503, 0.04800000041723251, 1.055999994277954, 0.0, 0.0, 0.0, 0.0, 0.0, 1.620206716530193E9, 2021-05-05 11:25:16.530
61.0, 514.9505615234375, -1000.5298461914062, 386.0848388671875, 340.10650634765625, -0.09600000083446503, 0.04800000041723251, 1.055999994277954, 0.0, 0.0, 0.0, 0.0, 0.0, 1.6202067165305097E9, 2021-05-05 11:25:16.530
61.0, 518.70166015625, -1005.750732421875, 382.9732360839844, 343.5322570800781, -0.09600000083446503, 0.04800000041723251, 1.055999994277954, 0.0, 0.0, 0.0, 0.0, 0.0, 1.6202067165305097E9, 2021-05-05 11:25:16.530
62.0, 502.1750793457031, -1020.2054443359375, 366.6298828125, 330.17333984375, -0.09600000083446503, 0.04800000041723251, 1.055999994277954, 0.0, 0.0, 0.0, 0.0, 0.0, 1.620206716531263E9, 2021-05-05 11:25:16.531
62.0, 496.6400146484375, -1014.0196533203125, 375.186767578125, 333.9132385253906, -0.09600000083446503, 0.04800000041723251, 1.055999994277954, 0.0, 0.0, 0.0, 0.0, 0.0, 1.620206716531263E9, 2021-05-05 11:25:16.531
63.0, 513.746337890625, -997.86328125, 393.0111389160156, 345.98187255859375, -0.09600000083446503, 0.04800000041723251, 1.055999994277954, 0.0, 0.0, 0.0, 0.0, 0.0, 1.6202067165419617E9, 2021-05-05 11:25:16.541
63.0, 519.6254272460938, -995.0433959960938, 393.6693420410156, 345.6565246582031, -0.09600000083446503, 0.04800000041723251, 1.055999994277954, 0.0, 0.0, 0.0, 0.0, 0.0, 1.6202067165419617E9, 2021-05-05 11:25:16.541
64.0, 497.97515869140625, -1007.6505737304688, 379.5587158203125, 339.2425842285156, -0.09600000083446503, 0.04800000041723251, 1.055999994277954, 0.0, 0.0, 0.0, 0.0, 0.0, 1.620206716557038E9, 2021-05-05 11:25:16.557
64.0, 494.4559020996094, -1011.5288696289062, 375.80010986328125, 341.7782287597656, -0.09600000083446503, 0.04800000041723251, 1.055999994277954, 0.0, 0.0, 0.0, 0.0, 0.0, 1.620206716557038E9, 2021-05-05 11:25:16.557
65.0, 506.8125305175781, -993.2594604492188, 398.591064453125, 355.1558532714844, -0.09600000083446503, 0.04800000041723251, 1.055999994277954, 0.0, 0.0, 0.0, 0.0, 0.0, 1.6202067165734181E9, 2021-05-05 11:25:16.573
65.0, 505.9598388671875, -996.150390625, 395.75994873046875, 355.24188232421875, -0.09600000083446503, 0.04800000041723251, 1.055999994277954, 0.0, 0.0, 0.0, 0.0, 0.0, 1.6202067165734181E9, 2021-05-05 11:25:16.573
66.0, 491.5574951171875, -1009.494384765625, 379.5138244628906, 339.16778564453125, -0.09600000083446503, 0.04800000041723251, 1.055999994277954, 0.0, 0.0, 0.0, 0.0, 0.0, 1.6202067165740848E9, 2021-05-05 11:25:16.574
66.0, 490.0615234375, -1012.9537963867188, 380.92376708984375, 339.5006408691406, -0.09600000083446503, 0.04800000041723251, 1.055999994277954, 0.0, 0.0, 0.0, 0.0, 0.0, 1.6202067165740848E9, 2021-05-05 11:25:16.574
67.0, 513.9669799804688, -986.8118896484375, 397.0950927734375, 347.0477600097656, -0.09600000083446503, 0.04800000041723251, 1.055999994277954, 0.0, 0.0, 0.0, 0.0, 0.0, 1.6202067165869792E9, 2021-05-05 11:25:16.586
67.0, 514.2213134765625, -994.2094116210938, 395.0419006347656, 349.5460205078125, -0.09600000083446503, 0.04800000041723251, 1.055999994277954, 0.0, 0.0, 0.0, 0.0, 0.0, 1.6202067165869792E9, 2021-05-05 11:25:16.586
68.0, 496.13885498046875, -1012.7330932617188, 372.81939697265625, 335.6448059082031, -0.09600000083446503, 0.04800000041723251, 1.055999994277954, 0.0, 0.0, 0.0, 0.0, 0.0, 1.6202067166026337E9, 2021-05-05 11:25:16.602
68.0, 491.2059326171875, -1016.1364135742188, 367.9762268066406, 329.915283203125, -0.09600000083446503, 0.04800000041723251, 1.055999994277954, 0.0, 0.0, 0.0, 0.0, 0.0, 1.6202067166026337E9, 2021-05-05 11:25:16.602
69.0, 517.2543334960938, -994.1869506835938, 386.9599609375, 344.1455993652344, -0.09600000083446503, 0.04800000041723251, 1.055999994277954, 0.0, 0.0, 0.0, 0.0, 0.0, 1.6202067166033545E9, 2021-05-05 11:25:16.603
69.0, 506.1318664550781, -996.9507446289062, 382.2402038574219, 341.86798095703125, -0.09600000083446503, 0.04800000041723251, 1.055999994277954, 0.0, 0.0, 0.0, 0.0, 0.0, 1.6202067166033545E9, 2021-05-05 11:25:16.603
70.0, 488.72637939453125, -1004.8456420898438, 368.22308349609375, 332.8398742675781, -0.09600000083446503, 0.04800000041723251, 1.040000081062317, 0.0, 0.0, 0.0, 0.0, 0.0, 1.620206716617087E9, 2021-05-05 11:25:16.617
70.0, 495.424560546875, -1007.6954956054688, 368.83642578125, 330.8502502441406, -0.09600000083446503, 0.04800000041723251, 1.040000081062317, 0.0, 0.0, 0.0, 0.0, 0.0, 1.620206716617087E9, 2021-05-05 11:25:16.617
71.0, 509.39306640625, -987.8440551757812, 390.7447509765625, 345.8360290527344, -0.09600000083446503, 0.04800000041723251, 1.040000081062317, 0.0, 0.0, 0.0, 0.0, 0.0, 1.6202067166334393E9, 2021-05-05 11:25:16.633
71.0, 504.063720703125, -998.1549682617188, 385.1348876953125, 337.9784851074219, -0.09600000083446503, 0.04800000041723251, 1.040000081062317, 0.0, 0.0, 0.0, 0.0, 0.0, 1.6202067166334393E9, 2021-05-05 11:25:16.633
72.0, 490.824462890625, -1014.6853637695312, 368.226806640625, 326.8597717285156, -0.09600000083446503, 0.04800000041723251, 1.040000081062317, 0.0, 0.0, 0.0, 0.0, 0.0, 1.6202067166340852E9, 2021-05-05 11:25:16.634
72.0, 497.6983947753906, -1005.4253540039062, 372.3219909667969, 333.2624816894531, -0.09600000083446503, 0.04800000041723251, 1.040000081062317, 0.0, 0.0, 0.0, 0.0, 0.0, 1.6202067166340852E9, 2021-05-05 11:25:16.634
73.0, 513.2451782226562, -989.7626342773438, 388.2203063964844, 338.038330078125, -0.09600000083446503, 0.04800000041723251, 1.040000081062317, 0.0, 0.0, 0.0, 0.0, 0.0, 1.6202067166469588E9, 2021-05-05 11:25:16.646
73.0, 513.5855102539062, -998.20361328125, 392.25567626953125, 342.9600524902344, -0.09600000083446503, 0.04800000041723251, 1.040000081062317, 0.0, 0.0, 0.0, 0.0, 0.0, 1.6202067166469588E9, 2021-05-05 11:25:16.646
74.0, 493.031005859375, -1018.86279296875, 370.11920166015625, 329.54876708984375, -0.09600000083446503, 0.04800000041723251, 1.040000081062317, 0.0, 0.0, 0.0, 0.0, 0.0, 1.620206716679011E9, 2021-05-05 11:25:16.679
74.0, 499.1831359863281, -1014.9658203125, 376.6715087890625, 332.04327392578125, -0.09600000083446503, 0.04800000041723251, 1.040000081062317, 0.0, 0.0, 0.0, 0.0, 0.0, 1.620206716679011E9, 2021-05-05 11:25:16.679
75.0, 518.7727661132812, -994.3477783203125, 390.9953308105469, 343.25177001953125, -0.09600000083446503, 0.04800000041723251, 1.040000081062317, 0.0, 0.0, 0.0, 0.0, 0.0, 1.6202067166797276E9, 2021-05-05 11:25:16.679
75.0, 511.43505859375, -996.9769287109375, 387.7752685546875, 343.78656005859375, -0.09600000083446503, 0.04800000041723251, 1.040000081062317, 0.0, 0.0, 0.0, 0.0, 0.0, 1.6202067166797276E9, 2021-05-05 11:25:16.679
76.0, 495.9369201660156, -1008.5294799804688, 378.3581848144531, 341.2696228027344, -0.09600000083446503, 0.04800000041723251, 1.040000081062317, 0.0, 0.0, 0.0, 0.0, 0.0, 1.6202067166804829E9, 2021-05-05 11:25:16.680
76.0, 491.7930908203125, -1007.4598388671875, 368.051025390625, 332.39483642578125, -0.09600000083446503, 0.04800000041723251, 1.040000081062317, 0.0, 0.0, 0.0, 0.0, 0.0, 1.6202067166804829E9, 2021-05-05 11:25:16.680
77.0, 519.90966796875, -993.4165649414062, 395.9992980957031, 349.50860595703125, -0.09600000083446503, 0.04800000041723251, 1.040000081062317, 0.0, 0.0, 0.0, 0.0, 0.0, 1.6202067166812377E9, 2021-05-05 11:25:16.681
77.0, 516.3193969726562, -994.95361328125, 393.07843017578125, 348.9364013671875, -0.09600000083446503, 0.04800000041723251, 1.040000081062317, 0.0, 0.0, 0.0, 0.0, 0.0, 1.6202067166812377E9, 2021-05-05 11:25:16.681
78.0, 491.7033386230469, -1014.64794921875, 369.67041015625, 332.0096130371094, -0.09600000083446503, 0.04800000041723251, 1.040000081062317, 0.0, 0.0, 0.0, 0.0, 0.0, 1.6202067167076623E9, 2021-05-05 11:25:16.707
