Sample Index, EXG Channel 0, EXG Channel 1, EXG Channel 2, EXG Channel 3, Accel Channel 0, Accel Channel 1, Accel Channel 2, Other, Other, Other, Other, Other, Timestamp, Timestamp (Formatted)
0.0, 369.8424377441406, -1328.51904296875, 444.7769470214844, 498.6595458984375, 0.0, 0.0, 0.0, 0.0, 0.0, 0.0, 0.0, 0.0, 1.6202133068829339E9, 2021-05-05 13:15:06.882
1.0, 369.93218994140625, -1315.934326171875, 448.9880676269531, 504.7032470703125, 0.0, 0.04800000041723251, 0.0, 0.0, 0.0, 0.0, 0.0, 0.0, 1.62021330689617E9, 2021-05-05 13:15:06.896
1.0, 376.86224365234375, -1311.79052734375, 459.02972412109375, 508.1850891113281, 0.0, 0.04800000041723251, 0.0, 0.0, 0.0, 0.0, 0.0, 0.0, 1.62021330689617E9, 2021-05-05 13:15:06.896
2.0, 381.59320068359375, -1304.0975341796875, 464.8003845214844, 519.7376098632812, -0.08000000566244125, 0.04800000041723251, 0.0, 0.0, 0.0, 0.0, 0.0, 0.0, 1.620213306913574E9, 2021-05-05 13:15:06.913
2.0, 364.6477355957031, -1318.2044677734375, 443.55401611328125, 503.1549072265625, -0.08000000566244125, 0.04800000041723251, 0.0, 0.0, 0.0, 0.0, 0.0, 0.0, 1.620213306913574E9, 2021-05-05 13:15:06.913
3.0, 371.38702392578125, -1311.7979736328125, 458.6557312011719, 508.8694763183594, -0.08000000566244125, 0.04800000041723251, 0.0, 0.0, 0.0, 0.0, 0.0, 0.0, 1.620213306914284E9, 2021-05-05 13:15:06.914
3.0, 364.5018615722656, -1312.4935302734375, 455.7984313964844, 508.4057312011719, -0.08000000566244125, 0.04800000041723251, 0.0, 0.0, 0.0, 0.0, 0.0, 0.0, 1.620213306914284E9, 2021-05-05 13:15:06.914
4.0, 365.5228576660156, -1306.3751220703125, 459.4336242675781, 508.8694763183594, -0.08000000566244125, 0.04800000041723251, 0.0, 0.0, 0.0, 0.0, 0.0, 0.0, 1.6202133069259465E9, 2021-05-05 13:15:06.925
4.0, 361.4613342285156, -1320.04443359375, 451.0225830078125, 506.8162841796875, -0.08000000566244125, 0.04800000041723251, 0.0, 0.0, 0.0, 0.0, 0.0, 0.0, 1.6202133069259465E9, 2021-05-05 13:15:06.925
5.0, 373.473876953125, -1316.0802001953125, 454.7886657714844, 508.4880065917969, -0.08000000566244125, 0.04800000041723251, 0.0, 0.0, 0.0, 0.0, 0.0, 0.0, 1.620213306941815E9, 2021-05-05 13:15:06.941
5.0, 383.9830017089844, -1306.382568359375, 469.6958923339844, 519.1915893554688, -0.08000000566244125, 0.04800000041723251, 0.0, 0.0, 0.0, 0.0, 0.0, 0.0, 1.620213306941815E9, 2021-05-05 13:15:06.941
6.0, 377.5167236328125, -1319.1207275390625, 456.4454345703125, 506.28521728515625, -0.08000000566244125, 0.04800000041723251, 0.0, 0.0, 0.0, 0.0, 0.0, 0.0, 1.6202133069424584E9, 2021-05-05 13:15:06.942
6.0, 374.9361877441406, -1322.3856201171875, 449.9080810546875, 513.1778564453125, -0.08000000566244125, 0.04800000041723251, 0.0, 0.0, 0.0, 0.0, 0.0, 0.0, 1.6202133069424584E9, 2021-05-05 13:15:06.942
7.0, 378.8967590332031, -1324.375244140625, 455.2935485839844, 501.9057922363281, -0.08000000566244125, 0.04800000041723251, 0.0, 0.0, 0.0, 0.0, 0.0, 0.0, 1.6202133069730563E9, 2021-05-05 13:15:06.973
7.0, 382.7563171386719, -1316.700927734375, 454.796142578125, 503.1997985839844, -0.08000000566244125, 0.04800000041723251, 0.0, 0.0, 0.0, 0.0, 0.0, 0.0, 1.6202133069730563E9, 2021-05-05 13:15:06.973
8.0, 386.6832275390625, -1313.563232421875, 464.291748046875, 512.033447265625, -0.08000000566244125, 0.04800000041723251, 0.0, 0.0, 0.0, 0.0, 0.0, 0.0, 1.620213306973827E9, 2021-05-05 13:15:06.973
8.0, 368.4811096191406, -1321.5291748046875, 453.77142333984375, 505.3913879394531, -0.08000000566244125, 0.04800000041723251, 0.0, 0.0, 0.0, 0.0, 0.0, 0.0, 1.620213306973827E9, 2021-05-05 13:15:06.973
9.0, 369.6741638183594, -1321.58154296875, 451.8715515136719, 501.3111572265625, -0.08000000566244125, 0.04800000041723251, 0.0, 0.0, 0.0, 0.0, 0.0, 0.0, 1.6202133069746072E9, 2021-05-05 13:15:06.974
9.0, 387.7416076660156, -1300.4698486328125, 467.0443115234375, 513.8622436523438, -0.08000000566244125, 0.04800000041723251, 0.0, 0.0, 0.0, 0.0, 0.0, 0.0, 1.6202133069746072E9, 2021-05-05 13:15:06.974
10.0, 384.0316162109375, -1318.974853515625, 456.58380126953125, 508.09906005859375, -0.08000000566244125, 0.04800000041723251, 1.040000081062317, 0.0, 0.0, 0.0, 0.0, 0.0, 1.6202133069859664E9, 2021-05-05 13:15:06.985
10.0, 371.125244140625, -1322.0452880859375, 443.84197998046875, 497.4515686035156, -0.08000000566244125, 0.04800000041723251, 1.040000081062317, 0.0, 0.0, 0.0, 0.0, 0.0, 1.6202133069859664E9, 2021-05-05 13:15:06.985
11.0, 380.3141784667969, -1311.0574951171875, 454.7213439941406, 511.0461120605469, -0.08000000566244125, 0.04800000041723251, 1.040000081062317, 0.0, 0.0, 0.0, 0.0, 0.0, 1.6202133070016668E9, 2021-05-05 13:15:07.001
11.0, 384.3944091796875, -1316.873046875, 461.82342529296875, 515.9005126953125, -0.08000000566244125, 0.04800000041723251, 1.040000081062317, 0.0, 0.0, 0.0, 0.0, 0.0, 1.6202133070016668E9, 2021-05-05 13:15:07.001
12.0, 381.64556884765625, -1320.0968017578125, 459.5869445800781, 518.5184326171875, -0.08000000566244125, 0.04800000041723251, 1.040000081062317, 0.0, 0.0, 0.0, 0.0, 0.0, 1.6202133070024693E9, 2021-05-05 13:15:07.002
12.0, 373.0812072753906, -1325.856201171875, 449.2835388183594, 513.0806274414062, -0.08000000566244125, 0.04800000041723251, 1.040000081062317, 0.0, 0.0, 0.0, 0.0, 0.0, 1.6202133070024693E9, 2021-05-05 13:15:07.002
13.0, 374.5958557128906, -1318.8065185546875, 449.0666198730469, 508.9592590332031, -0.08000000566244125, 0.04800000041723251, 1.040000081062317, 0.0, 0.0, 0.0, 0.0, 0.0, 1.6202133070329728E9, 2021-05-05 13:15:07.032
13.0, 393.3813781738281, -1314.165283203125, 452.8887939453125, 508.8919372558594, -0.08000000566244125, 0.04800000041723251, 1.040000081062317, 0.0, 0.0, 0.0, 0.0, 0.0, 1.6202133070329728E9, 2021-05-05 13:15:07.032
14.0, 369.7713928222656, -1320.6353759765625, 444.98638916015625, 502.01800537109375, -0.08000000566244125, 0.04800000041723251, 1.040000081062317, 0.0, 0.0, 0.0, 0.0, 0.0, 1.620213307033705E9, 2021-05-05 13:15:07.033
14.0, 368.7728271484375, -1327.8271484375, 448.8272705078125, 504.1572265625, -0.08000000566244125, 0.04800000041723251, 1.040000081062317, 0.0, 0.0, 0.0, 0.0, 0.0, 1.620213307033705E9, 2021-05-05 13:15:07.033
15.0, 370.422119140625, -1322.7633056640625, 446.0148620605469, 498.1210021972656, -0.08000000566244125, 0.04800000041723251, 1.040000081062317, 0.0, 0.0, 0.0, 0.0, 0.0, 1.620213307034468E9, 2021-05-05 13:15:07.034
15.0, 383.2574768066406, -1304.6173095703125, 460.230224609375, 513.83984375, -0.08000000566244125, 0.04800000041723251, 1.040000081062317, 0.0, 0.0, 0.0, 0.0, 0.0, 1.620213307034468E9, 2021-05-05 13:15:07.034
16.0, 373.98626708984375, -1323.31689453125, 447.91473388671875, 501.2138977050781, -0.08000000566244125, 0.04800000041723251, 1.040000081062317, 0.0, 0.0, 0.0, 0.0, 0.0, 1.620213307046075E9, 2021-05-05 13:15:07.046
16.0, 363.6790771484375, -1331.267822265625, 437.9404296875, 498.7007141113281, -0.08000000566244125, 0.04800000041723251, 1.040000081062317, 0.0, 0.0, 0.0, 0.0, 0.0, 1.620213307046075E9, 2021-05-05 13:15:07.046
17.0, 379.259521484375, -1317.6807861328125, 452.578369140625, 506.07952880859375, -0.08000000566244125, 0.04800000041723251, 1.040000081062317, 0.0, 0.0, 0.0, 0.0, 0.0, 1.620213307061634E9, 2021-05-05 13:15:07.061
17.0, 386.0511779785156, -1309.236083984375, 462.3357849121094, 515.051513671875, -0.08000000566244125, 0.04800000041723251, 1.040000081062317, 0.0, 0.0, 0.0, 0.0, 0.0, 1.620213307061634E9, 2021-05-05 13:15:07.061
18.0, 374.6744079589844, -1314.22509765625, 448.25506591796875, 506.7527160644531, -0.08000000566244125, 0.04800000041723251, 1.040000081062317, 0.0, 0.0, 0.0, 0.0, 0.0, 1.6202133070623791E9, 2021-05-05 13:15:07.062
18.0, 371.7460632324219, -1326.757568359375, 444.0514221191406, 503.6784973144531, -0.08000000566244125, 0.04800000041723251, 1.040000081062317, 0.0, 0.0, 0.0, 0.0, 0.0, 1.6202133070623791E9, 2021-05-05 13:15:07.062
19.0, 375.9571838378906, -1313.189208984375, 448.9918212890625, 501.25506591796875, -0.08000000566244125, 0.04800000041723251, 1.040000081062317, 0.0, 0.0, 0.0, 0.0, 0.0, 1.620213307092506E9, 2021-05-05 13:15:07.092
19.0, 381.6119079589844, -1305.7281494140625, 458.4874267578125, 508.4954833984375, -0.08000000566244125, 0.04800000041723251, 1.040000081062317, 0.0, 0.0, 0.0, 0.0, 0.0, 1.620213307092506E9, 2021-05-05 13:15:07.092
20.0, 374.3228454589844, -1317.8790283203125, 446.4262390136719, 499.6543884277344, -0.08000000566244125, 0.04800000041723251, 1.055999994277954, 0.0, 0.0, 0.0, 0.0, 0.0, 1.6202133070931664E9, 2021-05-05 13:15:07.093
20.0, 371.2187194824219, -1314.2662353515625, 451.0151062011719, 505.6494445800781, -0.08000000566244125, 0.04800000041723251, 1.055999994277954, 0.0, 0.0, 0.0, 0.0, 0.0, 1.6202133070931664E9, 2021-05-05 13:15:07.093
21.0, 376.1105041503906, -1316.461669921875, 452.17822265625, 504.3629150390625, -0.08000000566244125, 0.04800000041723251, 1.055999994277954, 0.0, 0.0, 0.0, 0.0, 0.0, 1.6202133070940075E9, 2021-05-05 13:15:07.094
21.0, 381.1070251464844, -1310.8779296875, 455.1028137207031, 502.9305114746094, -0.08000000566244125, 0.04800000041723251, 1.055999994277954, 0.0, 0.0, 0.0, 0.0, 0.0, 1.6202133070940075E9, 2021-05-05 13:15:07.094
22.0, 387.44989013671875, -1305.3914794921875, 467.4033508300781, 512.6355590820312, -0.08000000566244125, 0.04800000041723251, 1.055999994277954, 0.0, 0.0, 0.0, 0.0, 0.0, 1.620213307106085E9, 2021-05-05 13:15:07.106
22.0, 372.4154968261719, -1318.3951416015625, 455.29730224609375, 510.12982177734375, -0.08000000566244125, 0.04800000041723251, 1.055999994277954, 0.0, 0.0, 0.0, 0.0, 0.0, 1.620213307106085E9, 2021-05-05 13:15:07.106
23.0, 362.2541809082031, -1321.158935546875, 446.3739013671875, 504.0861511230469, -0.08000000566244125, 0.04800000041723251, 1.055999994277954, 0.0, 0.0, 0.0, 0.0, 0.0, 1.620213307121832E9, 2021-05-05 13:15:07.121
23.0, 373.6982727050781, -1312.2916259765625, 453.47222900390625, 508.0392150878906, -0.08000000566244125, 0.04800000041723251, 1.055999994277954, 0.0, 0.0, 0.0, 0.0, 0.0, 1.620213307121832E9, 2021-05-05 13:15:07.121
24.0, 377.9879455566406, -1311.805419921875, 458.1583251953125, 514.4194946289062, -0.08000000566244125, 0.04800000041723251, 1.055999994277954, 0.0, 0.0, 0.0, 0.0, 0.0, 1.6202133071224227E9, 2021-05-05 13:15:07.122
24.0, 371.8133850097656, -1320.3773193359375, 449.7360534667969, 505.29412841796875, -0.08000000566244125, 0.04800000041723251, 1.055999994277954, 0.0, 0.0, 0.0, 0.0, 0.0, 1.6202133071224227E9, 2021-05-05 13:15:07.122
25.0, 380.78912353515625, -1310.2010498046875, 460.15167236328125, 512.44482421875, -0.08000000566244125, 0.04800000041723251, 1.055999994277954, 0.0, 0.0, 0.0, 0.0, 0.0, 1.6202133071522343E9, 2021-05-05 13:15:07.152
25.0, 377.9842224121094, -1304.9951171875, 464.8302917480469, 509.72967529296875, -0.08000000566244125, 0.04800000041723251, 1.055999994277954, 0.0, 0.0, 0.0, 0.0, 0.0, 1.6202133071522343E9, 2021-05-05 13:15:07.152
26.0, 379.73822021484375, -1306.569580078125, 460.0993347167969, 514.5952758789062, -0.08000000566244125, 0.04800000041723251, 1.055999994277954, 0.0, 0.0, 0.0, 0.0, 0.0, 1.6202133071528978E9, 2021-05-05 13:15:07.152
26.0, 366.5849914550781, -1319.0758056640625, 446.3626708984375, 500.2826843261719, -0.08000000566244125, 0.04800000041723251, 1.055999994277954, 0.0, 0.0, 0.0, 0.0, 0.0, 1.6202133071528978E9, 2021-05-05 13:15:07.152
27.0, 375.3139343261719, -1312.8675537109375, 449.0142517089844, 502.5154113769531, -0.08000000566244125, 0.04800000041723251, 1.055999994277954, 0.0, 0.0, 0.0, 0.0, 0.0, 1.6202133071663857E9, 2021-05-05 13:15:07.166
27.0, 393.98724365234375, -1290.7161865234375, 471.4237365722656, 518.443603515625, -0.08000000566244125, 0.04800000041723251, 1.055999994277954, 0.0, 0.0, 0.0, 0.0, 0.0, 1.6202133071663857E9, 2021-05-05 13:15:07.166
28.0, 373.7132568359375, -1314.1129150390625, 439.5747375488281, 494.2801513671875, -0.08000000566244125, 0.04800000041723251, 1.055999994277954, 0.0, 0.0, 0.0, 0.0, 0.0, 1.6202133071824324E9, 2021-05-05 13:15:07.182
28.0, 373.29437255859375, -1311.6595458984375, 451.7256774902344, 504.8042297363281, -0.08000000566244125, 0.04800000041723251, 1.055999994277954, 0.0, 0.0, 0.0, 0.0, 0.0, 1.6202133071824324E9, 2021-05-05 13:15:07.182
29.0, 372.9278564453125, -1316.2596435546875, 454.2575988769531, 503.0950927734375, -0.08000000566244125, 0.04800000041723251, 1.055999994277954, 0.0, 0.0, 0.0, 0.0, 0.0, 1.6202133071832235E9, 2021-05-05 13:15:07.183
29.0, 385.6285705566406, -1298.7158203125, 463.28570556640625, 510.4589538574219, -0.08000000566244125, 0.04800000041723251, 1.055999994277954, 0.0, 0.0, 0.0, 0.0, 0.0, 1.6202133071832235E9, 2021-05-05 13:15:07.183
30.0, 371.0915832519531, -1297.062744140625, 461.1876220703125, 512.6729736328125, -0.08000000566244125, 0.04800000041723251, 1.055999994277954, 0.0, 0.0, 0.0, 0.0, 0.0, 1.620213307183797E9, 2021-05-05 13:15:07.183
30.0, 359.1575622558594, -1323.133544921875, 442.1627502441406, 497.7245788574219, -0.08000000566244125, 0.04800000041723251, 1.055999994277954, 0.0, 0.0, 0.0, 0.0, 0.0, 1.620213307183797E9, 2021-05-05 13:15:07.183
31.0, 373.23828125, -1309.6998291015625, 446.4075622558594, 500.4621887207031, -0.08000000566244125, 0.04800000041723251, 1.055999994277954, 0.0, 0.0, 0.0, 0.0, 0.0, 1.6202133072124195E9, 2021-05-05 13:15:07.212
31.0, 381.0845947265625, -1295.65283203125, 457.92645263671875, 504.7742919921875, -0.08000000566244125, 0.04800000041723251, 1.055999994277954, 0.0, 0.0, 0.0, 0.0, 0.0, 1.6202133072124195E9, 2021-05-05 13:15:07.212
32.0, 378.2908935546875, -1298.6859130859375, 456.4940490722656, 512.527099609375, -0.08000000566244125, 0.04800000041723251, 1.055999994277954, 0.0, 0.0, 0.0, 0.0, 0.0, 1.620213307213137E9, 2021-05-05 13:15:07.213
32.0, 347.54888916015625, -1315.911865234375, 430.69622802734375, 491.24334716796875, -0.08000000566244125, 0.04800000041723251, 1.055999994277954, 0.0, 0.0, 0.0, 0.0, 0.0, 1.620213307213137E9, 2021-05-05 13:15:07.213
33.0, 373.0213623046875, -1304.09375, 450.5177001953125, 505.8439025878906, -0.08000000566244125, 0.04800000041723251, 1.055999994277954, 0.0, 0.0, 0.0, 0.0, 0.0, 1.6202133072138207E9, 2021-05-05 13:15:07.213
33.0, 382.91339111328125, -1300.0958251953125, 454.7662353515625, 511.5659484863281, -0.08000000566244125, 0.04800000041723251, 1.055999994277954, 0.0, 0.0, 0.0, 0.0, 0.0, 1.6202133072138207E9, 2021-05-05 13:15:07.213
34.0, 381.5184020996094, -1302.893310546875, 455.05419921875, 514.7523803710938, -0.08000000566244125, 0.04800000041723251, 1.055999994277954, 0.0, 0.0, 0.0, 0.0, 0.0, 1.6202133072260053E9, 2021-05-05 13:15:07.226
34.0, 379.8130187988281, -1312.957275390625, 448.80108642578125, 508.4057312011719, -0.08000000566244125, 0.04800000041723251, 1.055999994277954, 0.0, 0.0, 0.0, 0.0, 0.0, 1.6202133072260053E9, 2021-05-05 13:15:07.226
35.0, 376.6789855957031, -1299.3216552734375, 455.5366516113281, 511.21441650390625, -0.08000000566244125, 0.04800000041723251, 1.055999994277954, 0.0, 0.0, 0.0, 0.0, 0.0, 1.6202133072416415E9, 2021-05-05 13:15:07.241
35.0, 393.38885498046875, -1297.62744140625, 468.1513366699219, 512.4822387695312, -0.08000000566244125, 0.04800000041723251, 1.055999994277954, 0.0, 0.0, 0.0, 0.0, 0.0, 1.6202133072416415E9, 2021-05-05 13:15:07.241
36.0, 391.4964599609375, -1285.64111328125, 474.6549987792969, 520.1265869140625, -0.08000000566244125, 0.04800000041723251, 1.055999994277954, 0.0, 0.0, 0.0, 0.0, 0.0, 1.6202133072423863E9, 2021-05-05 13:15:07.242
36.0, 376.90338134765625, -1300.608154296875, 460.3498840332031, 509.6099853515625, -0.08000000566244125, 0.04800000041723251, 1.055999994277954, 0.0, 0.0, 0.0, 0.0, 0.0, 1.6202133072423863E9, 2021-05-05 13:15:07.242
37.0, 384.083984375, -1295.735107421875, 458.3041687011719, 506.1393737792969, -0.08000000566244125, 0.04800000041723251, 1.055999994277954, 0.0, 0.0, 0.0, 0.0, 0.0, 1.6202133072721312E9, 2021-05-05 13:15:07.272
37.0, 386.9225769042969, -1281.8338623046875, 470.1184997558594, 511.8127746582031, -0.08000000566244125, 0.04800000041723251, 1.055999994277954, 0.0, 0.0, 0.0, 0.0, 0.0, 1.6202133072721312E9, 2021-05-05 13:15:07.272
38.0, 393.38885498046875, -1282.9146728515625, 469.3368835449219, 516.0875244140625, -0.08000000566244125, 0.04800000041723251, 1.055999994277954, 0.0, 0.0, 0.0, 0.0, 0.0, 1.6202133072728767E9, 2021-05-05 13:15:07.272
38.0, 383.0031433105469, -1287.260498046875, 465.0771179199219, 512.2055053710938, -0.08000000566244125, 0.04800000041723251, 1.055999994277954, 0.0, 0.0, 0.0, 0.0, 0.0, 1.6202133072728767E9, 2021-05-05 13:15:07.272
39.0, 390.4418029785156, -1274.0885009765625, 468.6599426269531, 520.4781494140625, -0.08000000566244125, 0.04800000041723251, 1.055999994277954, 0.0, 0.0, 0.0, 0.0, 0.0, 1.6202133072866707E9, 2021-05-05 13:15:07.286
39.0, 392.1023254394531, -1268.5909423828125, 465.0958251953125, 514.8346557617188, -0.08000000566244125, 0.04800000041723251, 1.055999994277954, 0.0, 0.0, 0.0, 0.0, 0.0, 1.6202133072866707E9, 2021-05-05 13:15:07.286
40.0, 384.2298278808594, -1266.1375732421875, 469.5799560546875, 520.4818725585938, -0.08000000566244125, 0.04800000041723251, 1.055999994277954, 0.0, 0.0, 0.0, 0.0, 0.0, 1.6202133072873917E9, 2021-05-05 13:15:07.287
40.0, 397.2521667480469, -1269.9073486328125, 467.0779724121094, 520.7735595703125, -0.08000000566244125, 0.04800000041723251, 1.055999994277954, 0.0, 0.0, 0.0, 0.0, 0.0, 1.6202133072873917E9, 2021-05-05 13:15:07.287
41.0, 382.5132141113281, -1268.1458740234375, 454.76995849609375, 513.5630493164062, -0.08000000566244125, 0.04800000041723251, 1.055999994277954, 0.0, 0.0, 0.0, 0.0, 0.0, 1.620213307301654E9, 2021-05-05 13:15:07.301
41.0, 393.5197448730469, -1258.7474365234375, 463.73077392578125, 519.3898315429688, -0.08000000566244125, 0.04800000041723251, 1.055999994277954, 0.0, 0.0, 0.0, 0.0, 0.0, 1.620213307301654E9, 2021-05-05 13:15:07.301
42.0, 393.9161682128906, -1252.7711181640625, 460.9407958984375, 520.3771362304688, -0.08000000566244125, 0.04800000041723251, 1.055999994277954, 0.0, 0.0, 0.0, 0.0, 0.0, 1.620213307302375E9, 2021-05-05 13:15:07.302
42.0, 373.9526062011719, -1267.2332763671875, 451.2731628417969, 511.7454833984375, -0.08000000566244125, 0.04800000041723251, 1.055999994277954, 0.0, 0.0, 0.0, 0.0, 0.0, 1.620213307302375E9, 2021-05-05 13:15:07.302
43.0, 392.4987487792969, -1256.66064453125, 465.6194152832031, 513.4844970703125, -0.08000000566244125, 0.04800000041723251, 1.055999994277954, 0.0, 0.0, 0.0, 0.0, 0.0, 1.6202133073160648E9, 2021-05-05 13:15:07.316
43.0, 388.56439208984375, -1248.9078369140625, 470.4962463378906, 512.5532836914062, -0.08000000566244125, 0.04800000041723251, 1.055999994277954, 0.0, 0.0, 0.0, 0.0, 0.0, 1.6202133073160648E9, 2021-05-05 13:15:07.316
44.0, 394.2939147949219, -1260.56884765625, 458.7118225097656, 511.3901672363281, -0.08000000566244125, 0.04800000041723251, 1.055999994277954, 0.0, 0.0, 0.0, 0.0, 0.0, 1.6202133073316593E9, 2021-05-05 13:15:07.331
44.0, 373.3953552246094, -1266.3619384765625, 452.5596923828125, 499.96478271484375, -0.08000000566244125, 0.04800000041723251, 1.055999994277954, 0.0, 0.0, 0.0, 0.0, 0.0, 1.6202133073316593E9, 2021-05-05 13:15:07.331
45.0, 384.0204162597656, -1258.04443359375, 448.71881103515625, 502.9417419433594, -0.08000000566244125, 0.04800000041723251, 1.055999994277954, 0.0, 0.0, 0.0, 0.0, 0.0, 1.620213307332334E9, 2021-05-05 13:15:07.332
45.0, 395.0718078613281, -1245.0855712890625, 454.7063903808594, 506.6853942871094, -0.08000000566244125, 0.04800000041723251, 1.055999994277954, 0.0, 0.0, 0.0, 0.0, 0.0, 1.620213307332334E9, 2021-05-05 13:15:07.332
46.0, 372.7820129394531, -1257.423583984375, 437.49163818359375, 497.5974426269531, -0.08000000566244125, 0.04800000041723251, 1.055999994277954, 0.0, 0.0, 0.0, 0.0, 0.0, 1.6202133073459563E9, 2021-05-05 13:15:07.345
46.0, 372.7745361328125, -1265.583984375, 431.1786804199219, 497.0663757324219, -0.08000000566244125, 0.04800000041723251, 1.055999994277954, 0.0, 0.0, 0.0, 0.0, 0.0, 1.6202133073459563E9, 2021-05-05 13:15:07.345
47.0, 374.15081787109375, -1254.4241943359375, 448.53179931640625, 501.4719543457031, -0.08000000566244125, 0.04800000041723251, 1.055999994277954, 0.0, 0.0, 0.0, 0.0, 0.0, 1.6202133073617568E9, 2021-05-05 13:15:07.361
47.0, 391.5787353515625, -1242.7332763671875, 466.48333740234375, 510.93389892578125, -0.08000000566244125, 0.04800000041723251, 1.055999994277954, 0.0, 0.0, 0.0, 0.0, 0.0, 1.6202133073617568E9, 2021-05-05 13:15:07.361
48.0, 382.3524169921875, -1255.7967529296875, 452.2679748535156, 504.8490905761719, -0.08000000566244125, 0.04800000041723251, 1.055999994277954, 0.0, 0.0, 0.0, 0.0, 0.0, 1.620213307362484E9, 2021-05-05 13:15:07.362
48.0, 364.9169921875, -1268.224365234375, 439.3802795410156, 497.6273498535156, -0.08000000566244125, 0.04800000041723251, 1.055999994277954, 0.0, 0.0, 0.0, 0.0, 0.0, 1.620213307362484E9, 2021-05-05 13:15:07.362
49.0, 382.53192138671875, -1264.2489013671875, 442.6526794433594, 503.2783508300781, -0.08000000566244125, 0.04800000041723251, 1.055999994277954, 0.0, 0.0, 0.0, 0.0, 0.0, 1.62021330739238E9, 2021-05-05 13:15:07.392
49.0, 375.5906677246094, -1255.0001220703125, 452.26422119140625, 507.35858154296875, -0.08000000566244125, 0.04800000041723251, 1.055999994277954, 0.0, 0.0, 0.0, 0.0, 0.0, 1.62021330739238E9, 2021-05-05 13:15:07.392
50.0, 371.5291442871094, -1261.75439453125, 451.1684265136719, 509.25469970703125, -0.08000000566244125, 0.04800000041723251, 1.055999994277954, 0.0, 0.0, 0.0, 0.0, 0.0, 1.620213307393113E9, 2021-05-05 13:15:07.393
50.0, 366.52142333984375, -1275.898681640625, 441.3811340332031, 505.45123291015625, -0.08000000566244125, 0.04800000041723251, 1.055999994277954, 0.0, 0.0, 0.0, 0.0, 0.0, 1.620213307393113E9, 2021-05-05 13:15:07.393
51.0, 367.2544250488281, -1275.8687744140625, 436.6015319824219, 502.5715026855469, -0.08000000566244125, 0.04800000041723251, 1.055999994277954, 0.0, 0.0, 0.0, 0.0, 0.0, 1.62021330739385E9, 2021-05-05 13:15:07.393
51.0, 369.8013000488281, -1261.343017578125, 452.0398254394531, 508.641357421875, -0.08000000566244125, 0.04800000041723251, 1.055999994277954, 0.0, 0.0, 0.0, 0.0, 0.0, 1.62021330739385E9, 2021-05-05 13:15:07.393
52.0, 378.227294921875, -1270.6851806640625, 452.3203430175781, 506.6292724609375, -0.08000000566244125, 0.04800000041723251, 1.055999994277954, 0.0, 0.0, 0.0, 0.0, 0.0, 1.6202133074059389E9, 2021-05-05 13:15:07.405
52.0, 355.7953796386719, -1291.8194580078125, 430.052978515625, 497.5338439941406, -0.08000000566244125, 0.04800000041723251, 1.055999994277954, 0.0, 0.0, 0.0, 0.0, 0.0, 1.6202133074059389E9, 2021-05-05 13:15:07.405
53.0, 371.7759704589844, -1285.536376953125, 435.1317443847656, 498.19580078125, -0.08000000566244125, 0.04800000041723251, 1.055999994277954, 0.0, 0.0, 0.0, 0.0, 0.0, 1.6202133074216924E9, 2021-05-05 13:15:07.421
53.0, 372.9989318847656, -1281.05224609375, 443.07904052734375, 498.5548400878906, -0.08000000566244125, 0.04800000041723251, 1.055999994277954, 0.0, 0.0, 0.0, 0.0, 0.0, 1.6202133074216924E9, 2021-05-05 13:15:07.421
54.0, 360.9078369140625, -1281.452392578125, 438.92401123046875, 501.80108642578125, -0.08000000566244125, 0.04800000041723251, 1.055999994277954, 0.0, 0.0, 0.0, 0.0, 0.0, 1.6202133074224265E9, 2021-05-05 13:15:07.422
54.0, 353.5738830566406, -1299.0748291015625, 426.51129150390625, 488.9395751953125, -0.08000000566244125, 0.04800000041723251, 1.055999994277954, 0.0, 0.0, 0.0, 0.0, 0.0, 1.6202133074224265E9, 2021-05-05 13:15:07.422
55.0, 363.7838134765625, -1297.8331298828125, 433.445068359375, 493.5695495605469, -0.08000000566244125, 0.04800000041723251, 1.055999994277954, 0.0, 0.0, 0.0, 0.0, 0.0, 1.6202133074359205E9, 2021-05-05 13:15:07.435
55.0, 376.7537841796875, -1291.7857666015625, 444.1598815917969, 496.9466857910156, -0.08000000566244125, 0.04800000041723251, 1.055999994277954, 0.0, 0.0, 0.0, 0.0, 0.0, 1.6202133074359205E9, 2021-05-05 13:15:07.435
56.0, 368.37640380859375, -1299.9013671875, 438.25457763671875, 492.701904296875, -0.08000000566244125, 0.04800000041723251, 1.055999994277954, 0.0, 0.0, 0.0, 0.0, 0.0, 1.6202133074516172E9, 2021-05-05 13:15:07.451
56.0, 375.26904296875, -1301.6666259765625, 439.84027099609375, 503.8393249511719, -0.08000000566244125, 0.04800000041723251, 1.055999994277954, 0.0, 0.0, 0.0, 0.0, 0.0, 1.6202133074516172E9, 2021-05-05 13:15:07.451
57.0, 368.8850402832031, -1298.7606201171875, 440.640625, 497.8143310546875, -0.08000000566244125, 0.04800000041723251, 1.055999994277954, 0.0, 0.0, 0.0, 0.0, 0.0, 1.6202133074525E9, 2021-05-05 13:15:07.452
57.0, 387.63690185546875, -1287.4998779296875, 457.2794494628906, 512.6954345703125, -0.08000000566244125, 0.04800000041723251, 1.055999994277954, 0.0, 0.0, 0.0, 0.0, 0.0, 1.6202133074525E9, 2021-05-05 13:15:07.452
58.0, 373.51129150390625, -1298.30810546875, 452.1856994628906, 506.0907287597656, -0.08000000566244125, 0.04800000041723251, 1.055999994277954, 0.0, 0.0, 0.0, 0.0, 0.0, 1.6202133074659357E9, 2021-05-05 13:15:07.465
58.0, 379.9813232421875, -1296.6363525390625, 449.6201171875, 506.84246826171875, -0.08000000566244125, 0.04800000041723251, 1.055999994277954, 0.0, 0.0, 0.0, 0.0, 0.0, 1.6202133074659357E9, 2021-05-05 13:15:07.465
59.0, 380.81158447265625, -1292.298095703125, 452.0548095703125, 505.49237060546875, -0.08000000566244125, 0.04800000041723251, 1.055999994277954, 0.0, 0.0, 0.0, 0.0, 0.0, 1.620213307481703E9, 2021-05-05 13:15:07.481
59.0, 396.5116882324219, -1280.5810546875, 471.0834045410156, 523.2344360351562, -0.08000000566244125, 0.04800000041723251, 1.055999994277954, 0.0, 0.0, 0.0, 0.0, 0.0, 1.620213307481703E9, 2021-05-05 13:15:07.481
60.0, 389.7237548828125, -1280.513671875, 467.1864318847656, 517.8153076171875, -0.08000000566244125, 0.04800000041723251, 1.055999994277954, 0.0, 0.0, 0.0, 0.0, 0.0, 1.6202133074824307E9, 2021-05-05 13:15:07.482
60.0, 381.466064453125, -1287.6082763671875, 464.961181640625, 514.920654296875, -0.08000000566244125, 0.04800000041723251, 1.055999994277954, 0.0, 0.0, 0.0, 0.0, 0.0, 1.6202133074824307E9, 2021-05-05 13:15:07.482
61.0, 383.5267333984375, -1279.2010498046875, 458.68939208984375, 511.27423095703125, -0.08000000566244125, 0.04800000041723251, 1.055999994277954, 0.0, 0.0, 0.0, 0.0, 0.0, 1.6202133074960017E9, 2021-05-05 13:15:07.496
61.0, 411.9911193847656, -1271.758544921875, 484.5993957519531, 527.3296508789062, -0.08000000566244125, 0.04800000041723251, 1.055999994277954, 0.0, 0.0, 0.0, 0.0, 0.0, 1.6202133074960017E9, 2021-05-05 13:15:07.496
62.0, 398.2021179199219, -1287.5484619140625, 466.9620361328125, 517.7479858398438, -0.08000000566244125, 0.04800000041723251, 1.055999994277954, 0.0, 0.0, 0.0, 0.0, 0.0, 1.620213307511782E9, 2021-05-05 13:15:07.511
62.0, 390.598876953125, -1284.8968505859375, 461.6438903808594, 518.0172729492188, -0.08000000566244125, 0.04800000041723251, 1.055999994277954, 0.0, 0.0, 0.0, 0.0, 0.0, 1.620213307511782E9, 2021-05-05 13:15:07.511
63.0, 386.5784912109375, -1290.630126953125, 456.8306579589844, 506.6479797363281, -0.08000000566244125, 0.04800000041723251, 1.055999994277954, 0.0, 0.0, 0.0, 0.0, 0.0, 1.620213307512409E9, 2021-05-05 13:15:07.512
63.0, 394.5556945800781, -1289.033203125, 461.18389892578125, 513.406005859375, -0.08000000566244125, 0.04800000041723251, 1.055999994277954, 0.0, 0.0, 0.0, 0.0, 0.0, 1.620213307512409E9, 2021-05-05 13:15:07.512
64.0, 379.3642272949219, -1296.1240234375, 464.8826599121094, 518.641845703125, -0.08000000566244125, 0.04800000041723251, 1.055999994277954, 0.0, 0.0, 0.0, 0.0, 0.0, 1.620213307526013E9, 2021-05-05 13:15:07.526
64.0, 375.24285888671875, -1311.7606201171875, 449.7547607421875, 511.57342529296875, -0.08000000566244125, 0.04800000041723251, 1.055999994277954, 0.0, 0.0, 0.0, 0.0, 0.0, 1.620213307526013E9, 2021-05-05 13:15:07.526
65.0, 375.48968505859375, -1310.1448974609375, 456.755859375, 510.83294677734375, -0.08000000566244125, 0.04800000041723251, 1.055999994277954, 0.0, 0.0, 0.0, 0.0, 0.0, 1.620213307542481E9, 2021-05-05 13:15:07.542
65.0, 387.9847106933594, -1301.4608154296875, 469.6809387207031, 512.2765502929688, -0.08000000566244125, 0.04800000041723251, 1.055999994277954, 0.0, 0.0, 0.0, 0.0, 0.0, 1.620213307542481E9, 2021-05-05 13:15:07.542
66.0, 381.4324035644531, -1301.853515625, 470.7692565917969, 525.3736572265625, -0.08000000566244125, 0.04800000041723251, 1.055999994277954, 0.0, 0.0, 0.0, 0.0, 0.0, 1.6202133075430772E9, 2021-05-05 13:15:07.543
66.0, 359.5278015136719, -1327.4344482421875, 435.8647766113281, 496.20245361328125, -0.08000000566244125, 0.04800000041723251, 1.055999994277954, 0.0, 0.0, 0.0, 0.0, 0.0, 1.6202133075430772E9, 2021-05-05 13:15:07.543
67.0, 369.576904296875, -1315.0404052734375, 447.2939147949219, 497.8143310546875, -0.08000000566244125, 0.04800000041723251, 1.055999994277954, 0.0, 0.0, 0.0, 0.0, 0.0, 1.6202133075560117E9, 2021-05-05 13:15:07.556
67.0, 375.3438415527344, -1305.406494140625, 453.04962158203125, 504.721923828125, -0.08000000566244125, 0.04800000041723251, 1.055999994277954, 0.0, 0.0, 0.0, 0.0, 0.0, 1.6202133075560117E9, 2021-05-05 13:15:07.556
68.0, 367.897705078125, -1312.882568359375, 444.7545166015625, 492.4513244628906, -0.08000000566244125, 0.04800000041723251, 1.055999994277954, 0.0, 0.0, 0.0, 0.0, 0.0, 1.6202133075715992E9, 2021-05-05 13:15:07.571
68.0, 358.3385009765625, -1320.773681640625, 438.5612487792969, 496.4418029785156, -0.08000000566244125, 0.04800000041723251, 1.055999994277954, 0.0, 0.0, 0.0, 0.0, 0.0, 1.6202133075715992E9, 2021-05-05 13:15:07.571
69.0, 366.0838623046875, -1315.5677490234375, 440.4461364746094, 495.764892578125, -0.08000000566244125, 0.04800000041723251, 1.055999994277954, 0.0, 0.0, 0.0, 0.0, 0.0, 1.6202133075723617E9, 2021-05-05 13:15:07.572
69.0, 380.2057189941406, -1304.232177734375, 451.58355712890625, 499.9012145996094, -0.08000000566244125, 0.04800000041723251, 1.055999994277954, 0.0, 0.0, 0.0, 0.0, 0.0, 1.6202133075723617E9, 2021-05-05 13:15:07.572
70.0, 375.515869140625, -1315.175048828125, 439.1521301269531, 491.5088806152344, -0.08000000566244125, 0.04800000041723251, 1.040000081062317, 0.0, 0.0, 0.0, 0.0, 0.0, 1.6202133075859363E9, 2021-05-05 13:15:07.585
70.0, 358.0281066894531, -1319.565673828125, 433.774169921875, 491.1236572265625, -0.08000000566244125, 0.04800000041723251, 1.040000081062317, 0.0, 0.0, 0.0, 0.0, 0.0, 1.6202133075859363E9, 2021-05-05 13:15:07.585
71.0, 363.3499755859375, -1313.8885498046875, 443.4044189453125, 497.50018310546875, -0.08000000566244125, 0.04800000041723251, 1.040000081062317, 0.0, 0.0, 0.0, 0.0, 0.0, 1.6202133076016617E9, 2021-05-05 13:15:07.601
71.0, 359.4978942871094, -1314.6627197265625, 443.7409973144531, 498.32672119140625, -0.08000000566244125, 0.04800000041723251, 1.040000081062317, 0.0, 0.0, 0.0, 0.0, 0.0, 1.6202133076016617E9, 2021-05-05 13:15:07.601
72.0, 354.47894287109375, -1317.3367919921875, 442.5143127441406, 495.6077880859375, -0.09600000083446503, 0.04800000041723251, 1.040000081062317, 0.0, 0.0, 0.0, 0.0, 0.0, 1.6202133076022947E9, 2021-05-05 13:15:07.602
72.0, 356.2853088378906, -1326.5406494140625, 433.9461975097656, 494.8635559082031, -0.09600000083446503, 0.04800000041723251, 1.040000081062317, 0.0, 0.0, 0.0, 0.0, 0.0, 1.6202133076022947E9, 2021-05-05 13:15:07.602
73.0, 358.3983459472656, -1325.1044921875, 431.743408203125, 488.3374328613281, -0.09600000083446503, 0.04800000041723251, 1.040000081062317, 0.0, 0.0, 0.0, 0.0, 0.0, 1.620213307616116E9, 2021-05-05 13:15:07.616
73.0, 360.5188903808594, -1314.939453125, 438.7931213378906, 495.0281066894531, -0.09600000083446503, 0.04800000041723251, 1.040000081062317, 0.0, 0.0, 0.0, 0.0, 0.0, 1.620213307616116E9, 2021-05-05 13:15:07.616
74.0, 353.319580078125, -1329.39794921875, 432.97381591796875, 493.69671630859375, -0.09600000083446503, 0.04800000041723251, 1.040000081062317, 0.0, 0.0, 0.0, 0.0, 0.0, 1.6202133076317885E9, 2021-05-05 13:15:07.631
74.0, 350.51837158203125, -1336.8927001953125, 426.3280334472656, 487.71661376953125, -0.09600000083446503, 0.04800000041723251, 1.040000081062317, 0.0, 0.0, 0.0, 0.0, 0.0, 1.6202133076317885E9, 2021-05-05 13:15:07.631
75.0, 353.7945251464844, -1325.18310546875, 439.11846923828125, 490.69732666015625, -0.09600000083446503, 0.04800000041723251, 1.040000081062317, 0.0, 0.0, 0.0, 0.0, 0.0, 1.6202133076323733E9, 2021-05-05 13:15:07.632
75.0, 357.01458740234375, -1316.9403076171875, 450.9365539550781, 498.90264892578125, -0.09600000083446503, 0.04800000041723251, 1.040000081062317, 0.0, 0.0, 0.0, 0.0, 0.0, 1.6202133076323733E9, 2021-05-05 13:15:07.632
76.0, 352.792236328125, -1330.8863525390625, 437.1064147949219, 489.0928955078125, -0.09600000083446503, 0.04800000041723251, 1.040000081062317, 0.0, 0.0, 0.0, 0.0, 0.0, 1.6202133076461406E9, 2021-05-05 13:15:07.646
76.0, 347.8368835449219, -1335.52392578125, 431.0552673339844, 484.1786804199219, -0.09600000083446503, 0.04800000041723251, 1.040000081062317, 0.0, 0.0, 0.0, 0.0, 0.0, 1.6202133076461406E9, 2021-05-05 13:15:07.646
77.0, 352.50799560546875, -1329.85791015625, 442.1590270996094, 493.7864685058594, -0.09600000083446503, 0.04800000041723251, 1.040000081062317, 0.0, 0.0, 0.0, 0.0, 0.0, 1.620213307678032E9, 2021-05-05 13:15:07.678
77.0, 359.1575622558594, -1329.083740234375, 436.9381103515625, 494.0856628417969, -0.09600000083446503, 0.04800000041723251, 1.040000081062317, 0.0, 0.0, 0.0, 0.0, 0.0, 1.620213307678032E9, 2021-05-05 13:15:07.678
78.0, 358.061767578125, -1338.755126953125, 433.4974060058594, 489.58282470703125, -0.09600000083446503, 0.04800000041723251, 1.040000081062317, 0.0, 0.0, 0.0, 0.0, 0.0, 1.620213307678841E9, 2021-05-05 13:15:07.678
78.0, 331.2055358886719, -1352.192626953125, 421.8887634277344, 483.97296142578125, -0.09600000083446503, 0.04800000041723251, 1.040000081062317, 0.0, 0.0, 0.0, 0.0, 0.0, 1.620213307678841E9, 2021-05-05 13:15:07.678
79.0, 343.2068786621094, -1347.0577392578125, 421.6045227050781, 480.12835693359375, -0.09600000083446503, 0.04800000041723251, 1.040000081062317, 0.0, 0.0, 0.0, 0.0, 0.0, 1.6202133076795216E9, 2021-05-05 13:15:07.679
79.0, 338.202880859375, -1343.3814697265625, 421.3427429199219, 480.49859619140625, -0.09600000083446503, 0.04800000041723251, 1.040000081062317, 0.0, 0.0, 0.0, 0.0, 0.0, 1.6202133076795216E9, 2021-05-05 13:15:07.679
80.0, 324.6532287597656, -1369.9234619140625, 397.6542053222656, 463.7214050292969, -0.09600000083446503, 0.04800000041723251, 1.040000081062317, 0.0, 0.0, 0.0, 0.0, 0.0, 1.6202133076802623E9, 2021-05-05 13:15:07.680
80.0, 316.49652099609375, -1379.7593994140625, 392.63525390625, 464.2262878417969, -0.09600000083446503, 0.04800000041723251, 1.040000081062317, 0.0, 0.0, 0.0, 0.0, 0.0, 1.6202133076802623E9, 2021-05-05 13:15:07.680
81.0, 305.9425048828125, -1367.1634521484375, 393.85821533203125, 459.8880310058594, -0.09600000083446503, 0.04800000041723251, 1.040000081062317, 0.0, 0.0, 0.0, 0.0, 0.0, 1.620213307690853E9, 2021-05-05 13:15:07.690
81.0, 319.74273681640625, -1364.422119140625, 396.1619873046875, 461.24560546875, -0.09600000083446503, 0.04800000041723251, 1.040000081062317, 0.0, 0.0, 0.0, 0.0, 0.0, 1.620213307690853E9, 2021-05-05 13:15:07.690
82.0, 316.5750427246094, -1367.3017578125, 402.5310363769531, 470.1091613769531, -0.08000000566244125, 0.04800000041723251, 1.040000081062317, 0.0, 0.0, 0.0, 0.0, 0.0, 1.6202133077059073E9, 2021-05-05 13:15:07.705
82.0, 322.7870178222656, -1361.5797119140625, 404.35986328125, 473.6246643066406, -0.08000000566244125, 0.04800000041723251, 1.040000081062317, 0.0, 0.0, 0.0, 0.0, 0.0, 1.6202133077059073E9, 2021-05-05 13:15:07.705
83.0, 329.6235656738281, -1360.8616943359375, 404.9544982910156, 468.20928955078125, -0.08000000566244125, 0.04800000041723251, 1.040000081062317, 0.0, 0.0, 0.0, 0.0, 0.0, 1.6202133077218058E9, 2021-05-05 13:15:07.721
83.0, 351.45709228515625, -1338.0445556640625, 423.39593505859375, 480.47991943359375, -0.08000000566244125, 0.04800000041723251, 1.040000081062317, 0.0, 0.0, 0.0, 0.0, 0.0, 1.6202133077218058E9, 2021-05-05 13:15:07.721
84.0, 348.63720703125, -1336.2830810546875, 422.98455810546875, 484.5152587890625, -0.08000000566244125, 0.04800000041723251, 1.040000081062317, 0.0, 0.0, 0.0, 0.0, 0.0, 1.6202133077223203E9, 2021-05-05 13:15:07.722
84.0, 337.8513488769531, -1347.745849609375, 412.98779296875, 481.0072326660156, -0.08000000566244125, 0.04800000041723251, 1.040000081062317, 0.0, 0.0, 0.0, 0.0, 0.0, 1.6202133077223203E9, 2021-05-05 13:15:07.722
85.0, 336.40399169921875, -1346.923095703125, 412.4492492675781, 474.5783386230469, -0.08000000566244125, 0.04800000041723251, 1.040000081062317, 0.0, 0.0, 0.0, 0.0, 0.0, 1.620213307735888E9, 2021-05-05 13:15:07.735
85.0, 347.57135009765625, -1330.9462890625, 424.18505859375, 486.66571044921875, -0.08000000566244125, 0.04800000041723251, 1.040000081062317, 0.0, 0.0, 0.0, 0.0, 0.0, 1.620213307735888E9, 2021-05-05 13:15:07.735
86.0, 346.512939453125, -1329.48388671875, 425.19110107421875, 486.66943359375, -0.08000000566244125, 0.04800000041723251, 1.040000081062317, 0.0, 0.0, 0.0, 0.0, 0.0, 1.620213307751794E9, 2021-05-05 13:15:07.751
86.0, 342.1410217285156, -1336.559814453125, 421.4811096191406, 484.4105529785156, -0.08000000566244125, 0.04800000041723251, 1.040000081062317, 0.0, 0.0, 0.0, 0.0, 0.0, 1.620213307751794E9, 2021-05-05 13:15:07.751
87.0, 348.1435546875, -1333.1153564453125, 423.11920166015625, 482.28253173828125, -0.08000000566244125, 0.04800000041723251, 1.040000081062317, 0.0, 0.0, 0.0, 0.0, 0.0, 1.6202133077525272E9, 2021-05-05 13:15:07.752
87.0, 362.81890869140625, -1316.125, 440.1357421875, 497.3842468261719, -0.08000000566244125, 0.04800000041723251, 1.040000081062317, 0.0, 0.0, 0.0, 0.0, 0.0, 1.6202133077525272E9, 2021-05-05 13:15:07.752
88.0, 351.11676025390625, -1325.3065185546875, 431.47412109375, 494.5456848144531, -0.08000000566244125, 0.04800000041723251, 1.040000081062317, 0.0, 0.0, 0.0, 0.0, 0.0, 1.620213307765979E9, 2021-05-05 13:15:07.765
88.0, 343.74169921875, -1328.82568359375, 425.1462097167969, 492.3316650390625, -0.08000000566244125, 0.04800000041723251, 1.040000081062317, 0.0, 0.0, 0.0, 0.0, 0.0, 1.620213307765979E9, 2021-05-05 13:15:07.765
89.0, 342.8740234375, -1331.6717529296875, 424.1925354003906, 485.8429260253906, -0.08000000566244125, 0.04800000041723251, 1.040000081062317, 0.0, 0.0, 0.0, 0.0, 0.0, 1.6202133077824616E9, 2021-05-05 13:15:07.782
89.0, 353.2746887207031, -1320.59423828125, 433.29547119140625, 488.6253967285156, -0.08000000566244125, 0.04800000041723251, 1.040000081062317, 0.0, 0.0, 0.0, 0.0, 0.0, 1.6202133077824616E9, 2021-05-05 13:15:07.782
90.0, 360.31317138671875, -1318.0772705078125, 431.9266662597656, 495.3086242675781, -0.08000000566244125, 0.04800000041723251, 1.055999994277954, 0.0, 0.0, 0.0, 0.0, 0.0, 1.620213307783126E9, 2021-05-05 13:15:07.783
90.0, 352.3060607910156, -1327.415771484375, 424.1888122558594, 488.99566650390625, -0.08000000566244125, 0.04800000041723251, 1.055999994277954, 0.0, 0.0, 0.0, 0.0, 0.0, 1.620213307783126E9, 2021-05-05 13:15:07.783
91.0, 368.1781921386719, -1313.8773193359375, 439.5859680175781, 497.71710205078125, -0.08000000566244125, 0.04800000041723251, 1.055999994277954, 0.0, 0.0, 0.0, 0.0, 0.0, 1.6202133077960184E9, 2021-05-05 13:15:07.796
91.0, 381.1332092285156, -1302.2911376953125, 453.4049072265625, 499.7964782714844, -0.08000000566244125, 0.04800000041723251, 1.055999994277954, 0.0, 0.0, 0.0, 0.0, 0.0, 1.6202133077960184E9, 2021-05-05 13:15:07.796
92.0, 368.00616455078125, -1300.50341796875, 447.64544677734375, 494.8635559082031, -0.08000000566244125, 0.04800000041723251, 1.055999994277954, 0.0, 0.0, 0.0, 0.0, 0.0, 1.6202133078116727E9, 2021-05-05 13:15:07.811
92.0, 358.6152648925781, -1306.4835205078125, 437.5028381347656, 490.65618896484375, -0.08000000566244125, 0.04800000041723251, 1.055999994277954, 0.0, 0.0, 0.0, 0.0, 0.0, 1.6202133078116727E9, 2021-05-05 13:15:07.811
93.0, 367.17962646484375, -1306.614501953125, 443.2996826171875, 494.7850341796875, -0.08000000566244125, 0.04800000041723251, 1.055999994277954, 0.0, 0.0, 0.0, 0.0, 0.0, 1.62021330781239E9, 2021-05-05 13:15:07.812
93.0, 387.5658264160156, -1287.073486328125, 463.8205261230469, 517.0860595703125, -0.08000000566244125, 0.04800000041723251, 1.055999994277954, 0.0, 0.0, 0.0, 0.0, 0.0, 1.62021330781239E9, 2021-05-05 13:15:07.812
94.0, 370.2463684082031, -1296.109130859375, 442.5965881347656, 503.76824951171875, -0.08000000566244125, 0.04800000041723251, 1.055999994277954, 0.0, 0.0, 0.0, 0.0, 0.0, 1.6202133078260489E9, 2021-05-05 13:15:07.826
94.0, 382.1130676269531, -1297.459228515625, 444.07757568359375, 502.0628662109375, -0.08000000566244125, 0.04800000041723251, 1.055999994277954, 0.0, 0.0, 0.0, 0.0, 0.0, 1.6202133078260489E9, 2021-05-05 13:15:07.826
95.0, 376.5817565917969, -1290.828369140625, 447.3948669433594, 506.5208435058594, -0.08000000566244125, 0.04800000041723251, 1.055999994277954, 0.0, 0.0, 0.0, 0.0, 0.0, 1.620213307858014E9, 2021-05-05 13:15:07.858
95.0, 380.6395263671875, -1290.4954833984375, 459.8300476074219, 509.0714416503906, -0.08000000566244125, 0.04800000041723251, 1.055999994277954, 0.0, 0.0, 0.0, 0.0, 0.0, 1.620213307858014E9, 2021-05-05 13:15:07.858
96.0, 379.8803405761719, -1289.433349609375, 455.1177673339844, 513.9520263671875, -0.08000000566244125, 0.04800000041723251, 1.055999994277954, 0.0, 0.0, 0.0, 0.0, 0.0, 1.6202133078587253E9, 2021-05-05 13:15:07.858
96.0, 369.3899230957031, -1299.467529296875, 442.0393371582031, 510.7731018066406, -0.08000000566244125, 0.04800000041723251, 1.055999994277954, 0.0, 0.0, 0.0, 0.0, 0.0, 1.6202133078587253E9, 2021-05-05 13:15:07.858
97.0, 370.3735046386719, -1294.302734375, 449.52288818359375, 506.46099853515625, -0.08000000566244125, 0.04800000041723251, 1.055999994277954, 0.0, 0.0, 0.0, 0.0, 0.0, 1.620213307859476E9, 2021-05-05 13:15:07.859
97.0, 383.2911376953125, -1274.7655029296875, 458.9100341796875, 515.5264892578125, -0.08000000566244125, 0.04800000041723251, 1.055999994277954, 0.0, 0.0, 0.0, 0.0, 0.0, 1.620213307859476E9, 2021-05-05 13:15:07.859
98.0, 381.619384765625, -1288.5955810546875, 454.1865539550781, 508.92559814453125, -0.08000000566244125, 0.04800000041723251, 1.055999994277954, 0.0, 0.0, 0.0, 0.0, 0.0, 1.620213307860226E9, 2021-05-05 13:15:07.860
98.0, 375.4373474121094, -1292.4776611328125, 440.5882568359375, 504.6807861328125, -0.08000000566244125, 0.04800000041723251, 1.055999994277954, 0.0, 0.0, 0.0, 0.0, 0.0, 1.620213307860226E9, 2021-05-05 13:15:07.860
99.0, 375.94970703125, -1276.545654296875, 457.0251159667969, 515.8444213867188, -0.08000000566244125, 0.04800000041723251, 1.055999994277954, 0.0, 0.0, 0.0, 0.0, 0.0, 1.6202133078709073E9, 2021-05-05 13:15:07.870
99.0, 377.96551513671875, -1279.85546875, 458.34906005859375, 507.5044250488281, -0.08000000566244125, 0.04800000041723251, 1.055999994277954, 0.0, 0.0, 0.0, 0.0, 0.0, 1.6202133078709073E9, 2021-05-05 13:15:07.870
100.0, 378.227294921875, -1286.5087890625, 453.5657043457031, 512.8225708007812, -0.08000000566244125, 0.04800000041723251, 1.040000081062317, 0.0, 0.0, 0.0, 0.0, 0.0, 1.6202133078865845E9, 2021-05-05 13:15:07.886
100.0, 360.7657165527344, -1296.097900390625, 446.497314453125, 501.5093688964844, -0.08000000566244125, 0.04800000041723251, 1.040000081062317, 0.0, 0.0, 0.0, 0.0, 0.0, 1.6202133078865845E9, 2021-05-05 13:15:07.886
0.0, 383.31170654296875, -1291.7259521484375, 450.0296325683594, 503.3119812011719, -0.08000000566244125, 0.04800000041723251, 1.040000081062317, 0.0, 0.0, 0.0, 0.0, 0.0, 1.6202133078873653E9, 2021-05-05 13:15:07.887
1.0, 380.46563720703125, -1286.310546875, 454.4913330078125, 500.6678771972656, -0.08000000566244125, 0.04800000041723251, 1.040000081062317, 0.0, 0.0, 0.0, 0.0, 0.0, 1.620213307900989E9, 2021-05-05 13:15:07.900
1.0, 381.1799621582031, -1289.0369873046875, 450.2764892578125, 502.6126403808594, -0.08000000566244125, 0.04800000041723251, 1.040000081062317, 0.0, 0.0, 0.0, 0.0, 0.0, 1.620213307900989E9, 2021-05-05 13:15:07.900
2.0, 376.1273498535156, -1286.030029296875, 450.3811950683594, 506.1580505371094, -0.08000000566244125, 0.04800000041723251, 1.040000081062317, 0.0, 0.0, 0.0, 0.0, 0.0, 1.6202133079166636E9, 2021-05-05 13:15:07.916
2.0, 376.7145080566406, -1287.215576171875, 451.0244445800781, 497.8330383300781, -0.08000000566244125, 0.04800000041723251, 1.040000081062317, 0.0, 0.0, 0.0, 0.0, 0.0, 1.6202133079166636E9, 2021-05-05 13:15:07.916
3.0, 389.0374755859375, -1280.345458984375, 461.2044677734375, 501.5355529785156, -0.08000000566244125, 0.04800000041723251, 1.040000081062317, 0.0, 0.0, 0.0, 0.0, 0.0, 1.620213307931593E9, 2021-05-05 13:15:07.931
3.0, 377.7467346191406, -1288.0794677734375, 463.7475891113281, 509.2098083496094, -0.08000000566244125, 0.04800000041723251, 1.040000081062317, 0.0, 0.0, 0.0, 0.0, 0.0, 1.620213307931593E9, 2021-05-05 13:15:07.931
4.0, 376.14605712890625, -1291.59130859375, 457.86846923828125, 506.9172668457031, -0.08000000566244125, 0.04800000041723251, 1.040000081062317, 0.0, 0.0, 0.0, 0.0, 0.0, 1.6202133079323056E9, 2021-05-05 13:15:07.932
4.0, 373.5243835449219, -1290.5889892578125, 449.9174499511719, 506.27398681640625, -0.08000000566244125, 0.04800000041723251, 1.040000081062317, 0.0, 0.0, 0.0, 0.0, 0.0, 1.6202133079323056E9, 2021-05-05 13:15:07.932
5.0, 384.1494445800781, -1276.040771484375, 460.9464111328125, 515.0926513671875, -0.08000000566244125, 0.04800000041723251, 1.040000081062317, 0.0, 0.0, 0.0, 0.0, 0.0, 1.6202133079465816E9, 2021-05-05 13:15:07.946
5.0, 376.36669921875, -1290.080322265625, 450.130615234375, 509.20233154296875, -0.08000000566244125, 0.04800000041723251, 1.040000081062317, 0.0, 0.0, 0.0, 0.0, 0.0, 1.6202133079465816E9, 2021-05-05 13:15:07.946
6.0, 379.2351989746094, -1297.6685791015625, 445.01068115234375, 505.15203857421875, -0.08000000566244125, 0.04800000041723251, 1.040000081062317, 0.0, 0.0, 0.0, 0.0, 0.0, 1.6202133079473495E9, 2021-05-05 13:15:07.947
6.0, 361.9157409667969, -1287.4549560546875, 451.1889953613281, 503.5924987792969, -0.08000000566244125, 0.04800000041723251, 1.040000081062317, 0.0, 0.0, 0.0, 0.0, 0.0, 1.6202133079473495E9, 2021-05-05 13:15:07.947
7.0, 379.47454833984375, -1283.0830078125, 458.9380798339844, 513.83984375, -0.08000000566244125, 0.04800000041723251, 1.040000081062317, 0.0, 0.0, 0.0, 0.0, 0.0, 1.620213307960916E9, 2021-05-05 13:15:07.960
7.0, 383.3191833496094, -1284.7659912109375, 453.4105224609375, 508.0467224121094, -0.08000000566244125, 0.04800000041723251, 1.040000081062317, 0.0, 0.0, 0.0, 0.0, 0.0, 1.620213307960916E9, 2021-05-05 13:15:07.960
8.0, 368.07159423828125, -1293.6893310546875, 437.2092590332031, 495.8321838378906, -0.08000000566244125, 0.04800000041723251, 1.040000081062317, 0.0, 0.0, 0.0, 0.0, 0.0, 1.6202133079766529E9, 2021-05-05 13:15:07.976
8.0, 378.43487548828125, -1286.710693359375, 456.750244140625, 509.4416809082031, -0.08000000566244125, 0.04800000041723251, 1.040000081062317, 0.0, 0.0, 0.0, 0.0, 0.0, 1.6202133079766529E9, 2021-05-05 13:15:07.976
9.0, 379.56805419921875, -1288.1505126953125, 457.326171875, 508.9742126464844, -0.08000000566244125, 0.04800000041723251, 1.040000081062317, 0.0, 0.0, 0.0, 0.0, 0.0, 1.6202133079773521E9, 2021-05-05 13:15:07.977
9.0, 373.03070068359375, -1285.603759765625, 441.5138854980469, 486.50115966796875, -0.08000000566244125, 0.04800000041723251, 1.040000081062317, 0.0, 0.0, 0.0, 0.0, 0.0, 1.6202133079773521E9, 2021-05-05 13:15:07.977
10.0, 372.2640380859375, -1285.667236328125, 457.8759460449219, 508.7049255371094, -0.08000000566244125, 0.04800000041723251, 1.055999994277954, 0.0, 0.0, 0.0, 0.0, 0.0, 1.620213307990985E9, 2021-05-05 13:15:07.990
10.0, 375.7346496582031, -1296.26611328125, 442.1197509765625, 491.76318359375, -0.08000000566244125, 0.04800000041723251, 1.055999994277954, 0.0, 0.0, 0.0, 0.0, 0.0, 1.620213307990985E9, 2021-05-05 13:15:07.990
11.0, 380.4618835449219, -1285.1063232421875, 455.8601379394531, 500.7464294433594, -0.08000000566244125, 0.04800000041723251, 1.055999994277954, 0.0, 0.0, 0.0, 0.0, 0.0, 1.6202133080065656E9, 2021-05-05 13:15:08.006
11.0, 382.20843505859375, -1281.8675537109375, 457.61041259765625, 514.0118408203125, -0.08000000566244125, 0.04800000041723251, 1.055999994277954, 0.0, 0.0, 0.0, 0.0, 0.0, 1.6202133080065656E9, 2021-05-05 13:15:08.006
12.0, 378.0608825683594, -1280.2294921875, 454.8802795410156, 514.498046875, -0.08000000566244125, 0.04800000041723251, 1.055999994277954, 0.0, 0.0, 0.0, 0.0, 0.0, 1.6202133080072885E9, 2021-05-05 13:15:08.007
12.0, 367.1702880859375, -1290.7535400390625, 445.3023986816406, 495.1328430175781, -0.08000000566244125, 0.04800000041723251, 1.055999994277954, 0.0, 0.0, 0.0, 0.0, 0.0, 1.6202133080072885E9, 2021-05-05 13:15:08.007
13.0, 394.3182067871094, -1278.9317626953125, 467.0312194824219, 517.1421508789062, -0.08000000566244125, 0.04800000041723251, 1.055999994277954, 0.0, 0.0, 0.0, 0.0, 0.0, 1.6202133080209184E9, 2021-05-05 13:15:08.020
13.0, 385.54815673828125, -1286.3516845703125, 461.0623474121094, 516.0426025390625, -0.08000000566244125, 0.04800000041723251, 1.055999994277954, 0.0, 0.0, 0.0, 0.0, 0.0, 1.6202133080209184E9, 2021-05-05 13:15:08.020
14.0, 365.16571044921875, -1309.337158203125, 431.831298828125, 486.4188537597656, -0.08000000566244125, 0.04800000041723251, 1.055999994277954, 0.0, 0.0, 0.0, 0.0, 0.0, 1.6202133080366163E9, 2021-05-05 13:15:08.036
14.0, 401.9064636230469, -1279.4254150390625, 471.4443054199219, 537.7041015625, -0.08000000566244125, 0.04800000041723251, 1.055999994277954, 0.0, 0.0, 0.0, 0.0, 0.0, 1.6202133080366163E9, 2021-05-05 13:15:08.036
15.0, 383.5510559082031, -1291.980224609375, 461.4550476074219, 507.1080017089844, -0.08000000566244125, 0.04800000041723251, 1.055999994277954, 0.0, 0.0, 0.0, 0.0, 0.0, 1.6202133080372856E9, 2021-05-05 13:15:08.037
15.0, 379.2464294433594, -1297.47412109375, 443.95977783203125, 497.45904541015625, -0.08000000566244125, 0.04800000041723251, 1.055999994277954, 0.0, 0.0, 0.0, 0.0, 0.0, 1.6202133080372856E9, 2021-05-05 13:15:08.037
16.0, 360.27764892578125, -1300.5782470703125, 426.9320068359375, 473.61346435546875, -0.08000000566244125, 0.04800000041723251, 1.055999994277954, 0.0, 0.0, 0.0, 0.0, 0.0, 1.6202133080511038E9, 2021-05-05 13:15:08.051
16.0, 391.191650390625, -1282.3948974609375, 460.70330810546875, 509.7745361328125, -0.08000000566244125, 0.04800000041723251, 1.055999994277954, 0.0, 0.0, 0.0, 0.0, 0.0, 1.6202133080511038E9, 2021-05-05 13:15:08.051
17.0, 414.9026184082031, -1240.4930419921875, 483.1202697753906, 540.9092407226562, -0.08000000566244125, 0.04800000041723251, 1.055999994277954, 0.0, 0.0, 0.0, 0.0, 0.0, 1.6202133080668027E9, 2021-05-05 13:15:08.066
17.0, 387.2012023925781, -1348.1385498046875, 473.44140625, 545.8571166992188, -0.08000000566244125, 0.04800000041723251, 1.055999994277954, 0.0, 0.0, 0.0, 0.0, 0.0, 1.6202133080668027E9, 2021-05-05 13:15:08.066
18.0, 369.4815368652344, -1304.924072265625, 417.93756103515625, 475.236572265625, -0.08000000566244125, 0.04800000041723251, 1.055999994277954, 0.0, 0.0, 0.0, 0.0, 0.0, 1.620213308067392E9, 2021-05-05 13:15:08.067
18.0, 400.88922119140625, -1302.3846435546875, 454.4315185546875, 498.1846008300781, -0.08000000566244125, 0.04800000041723251, 1.055999994277954, 0.0, 0.0, 0.0, 0.0, 0.0, 1.620213308067392E9, 2021-05-05 13:15:08.067
19.0, 370.3753967285156, -1293.285400390625, 435.15606689453125, 476.433349609375, -0.08000000566244125, 0.04800000041723251, 1.055999994277954, 0.0, 0.0, 0.0, 0.0, 0.0, 1.6202133080809991E9, 2021-05-05 13:15:08.080
19.0, 380.8022155761719, -1274.99365234375, 483.30352783203125, 556.800048828125, -0.08000000566244125, 0.04800000041723251, 1.055999994277954, 0.0, 0.0, 0.0, 0.0, 0.0, 1.6202133080809991E9, 2021-05-05 13:15:08.080
20.0, 387.40313720703125, -1341.5638427734375, 461.30169677734375, 524.098388671875, -0.08000000566244125, 0.04800000041723251, 1.055999994277954, 0.0, 0.0, 0.0, 0.0, 0.0, 1.6202133080966115E9, 2021-05-05 13:15:08.096
20.0, 380.93310546875, -1299.269287109375, 465.1612854003906, 512.6954345703125, -0.08000000566244125, 0.04800000041723251, 1.055999994277954, 0.0, 0.0, 0.0, 0.0, 0.0, 1.6202133080966115E9, 2021-05-05 13:15:08.096
21.0, 447.0433349609375, -1279.9415283203125, 492.1371765136719, 540.1948852539062, -0.08000000566244125, 0.04800000041723251, 1.055999994277954, 0.0, 0.0, 0.0, 0.0, 0.0, 1.6202133080973575E9, 2021-05-05 13:15:08.097
21.0, 354.36114501953125, -1283.62158203125, 465.04534912109375, 540.883056640625, -0.08000000566244125, 0.04800000041723251, 1.055999994277954, 0.0, 0.0, 0.0, 0.0, 0.0, 1.6202133080973575E9, 2021-05-05 13:15:08.097
22.0, 334.93609619140625, -1401.8958740234375, 422.5077209472656, 463.6204528808594, -0.08000000566244125, 0.04800000041723251, 1.055999994277954, 0.0, 0.0, 0.0, 0.0, 0.0, 1.6202133081109447E9, 2021-05-05 13:15:08.110
22.0, 397.70281982421875, -1307.6802978515625, 454.2332763671875, 498.52117919921875, -0.08000000566244125, 0.04800000041723251, 1.055999994277954, 0.0, 0.0, 0.0, 0.0, 0.0, 1.6202133081109447E9, 2021-05-05 13:15:08.110
23.0, 353.68048095703125, -1285.0726318359375, 438.0806579589844, 488.55059814453125, -0.08000000566244125, 0.04800000041723251, 1.055999994277954, 0.0, 0.0, 0.0, 0.0, 0.0, 1.6202133081437092E9, 2021-05-05 13:15:08.143
23.0, 388.3642883300781, -1264.9033203125, 463.5419006347656, 516.6484985351562, -0.08000000566244125, 0.04800000041723251, 1.055999994277954, 0.0, 0.0, 0.0, 0.0, 0.0, 1.6202133081437092E9, 2021-05-05 13:15:08.143
24.0, 400.6199645996094, -1280.03125, 478.5987243652344, 539.2337646484375, -0.08000000566244125, 0.04800000041723251, 1.055999994277954, 0.0, 0.0, 0.0, 0.0, 0.0, 1.6202133081444197E9, 2021-05-05 13:15:08.144
24.0, 468.8170166015625, -1423.074951171875, 526.7125244140625, 606.802490234375, -0.08000000566244125, 0.04800000041723251, 1.055999994277954, 0.0, 0.0, 0.0, 0.0, 0.0, 1.6202133081444197E9, 2021-05-05 13:15:08.144
25.0, 339.3828430175781, -1257.917236328125, 445.7773742675781, 490.2709655761719, -0.08000000566244125, 0.04800000041723251, 1.055999994277954, 0.0, 0.0, 0.0, 0.0, 0.0, 1.620213308145287E9, 2021-05-05 13:15:08.145
25.0, 389.93505859375, -1421.80712890625, 489.6426696777344, 542.9661254882812, -0.08000000566244125, 0.04800000041723251, 1.055999994277954, 0.0, 0.0, 0.0, 0.0, 0.0, 1.620213308145287E9, 2021-05-05 13:15:08.145
26.0, 375.3269958496094, -1255.9912109375, 434.0228576660156, 483.195068359375, -0.08000000566244125, 0.04800000041723251, 1.055999994277954, 0.0, 0.0, 0.0, 0.0, 0.0, 1.620213308145922E9, 2021-05-05 13:15:08.145
26.0, 459.1493835449219, -1386.805419921875, 525.9458618164062, 599.7640380859375, -0.08000000566244125, 0.04800000041723251, 1.055999994277954, 0.0, 0.0, 0.0, 0.0, 0.0, 1.620213308145922E9, 2021-05-05 13:15:08.145
27.0, 316.9209899902344, -1308.4881591796875, 434.43426513671875, 483.8832092285156, -0.08000000566244125, 0.04800000041723251, 1.055999994277954, 0.0, 0.0, 0.0, 0.0, 0.0, 1.6202133081560674E9, 2021-05-05 13:15:08.156
27.0, 387.9566650390625, -1341.1337890625, 465.6100769042969, 503.1062927246094, -0.08000000566244125, 0.04800000041723251, 1.055999994277954, 0.0, 0.0, 0.0, 0.0, 0.0, 1.6202133081560674E9, 2021-05-05 13:15:08.156
28.0, 360.79376220703125, -1354.518798828125, 437.2092590332031, 495.42828369140625, -0.08000000566244125, 0.04800000041723251, 1.055999994277954, 0.0, 0.0, 0.0, 0.0, 0.0, 1.620213308170932E9, 2021-05-05 13:15:08.170
28.0, 360.0644836425781, -1193.923828125, 450.23907470703125, 516.9439086914062, -0.08000000566244125, 0.04800000041723251, 1.055999994277954, 0.0, 0.0, 0.0, 0.0, 0.0, 1.620213308170932E9, 2021-05-05 13:15:08.170
29.0, 363.25836181640625, -1373.7344970703125, 478.2284851074219, 554.6084594726562, -0.08000000566244125, 0.04800000041723251, 1.055999994277954, 0.0, 0.0, 0.0, 0.0, 0.0, 1.6202133081866882E9, 2021-05-05 13:15:08.186
29.0, 451.0001525878906, -1350.4049072265625, 521.29345703125, 582.3360595703125, -0.08000000566244125, 0.04800000041723251, 1.055999994277954, 0.0, 0.0, 0.0, 0.0, 0.0, 1.6202133081866882E9, 2021-05-05 13:15:08.186
30.0, 356.447998046875, -1395.377197265625, 429.6546630859375, 464.43572998046875, -0.08000000566244125, 0.04800000041723251, 1.055999994277954, 0.0, 0.0, 0.0, 0.0, 0.0, 1.620213308187477E9, 2021-05-05 13:15:08.187
30.0, 399.6251525878906, -1309.0791015625, 485.8578796386719, 557.2151489257812, -0.08000000566244125, 0.04800000041723251, 1.055999994277954, 0.0, 0.0, 0.0, 0.0, 0.0, 1.620213308187477E9, 2021-05-05 13:15:08.187
31.0, 421.14453125, -1406.828857421875, 540.5614013671875, 575.0469970703125, -0.08000000566244125, 0.04800000041723251, 1.055999994277954, 0.0, 0.0, 0.0, 0.0, 0.0, 1.6202133082010014E9, 2021-05-05 13:15:08.201
31.0, 355.2961120605469, -1311.5997314453125, 433.10284423828125, 468.3514099121094, -0.08000000566244125, 0.04800000041723251, 1.055999994277954, 0.0, 0.0, 0.0, 0.0, 0.0, 1.6202133082010014E9, 2021-05-05 13:15:08.201
32.0, 455.8246154785156, -1374.47119140625, 505.8813171386719, 554.31298828125, -0.08000000566244125, 0.04800000041723251, 1.055999994277954, 0.0, 0.0, 0.0, 0.0, 0.0, 1.6202133082167351E9, 2021-05-05 13:15:08.216
32.0, 349.2486877441406, -1278.3109130859375, 441.0501403808594, 497.092529296875, -0.08000000566244125, 0.04800000041723251, 1.055999994277954, 0.0, 0.0, 0.0, 0.0, 0.0, 1.6202133082167351E9, 2021-05-05 13:15:08.216
33.0, 432.8691101074219, -1325.770263671875, 517.8713989257812, 564.7772216796875, -0.08000000566244125, 0.04800000041723251, 1.055999994277954, 0.0, 0.0, 0.0, 0.0, 0.0, 1.6202133082174947E9, 2021-05-05 13:15:08.217
33.0, 413.2533264160156, -1427.349609375, 476.7848815917969, 529.2332153320312, -0.08000000566244125, 0.04800000041723251, 1.055999994277954, 0.0, 0.0, 0.0, 0.0, 0.0, 1.6202133082174947E9, 2021-05-05 13:15:08.217
34.0, 392.4108581542969, -1299.3590087890625, 475.5581970214844, 537.7116088867188, -0.08000000566244125, 0.04800000041723251, 1.055999994277954, 0.0, 0.0, 0.0, 0.0, 0.0, 1.6202133082309713E9, 2021-05-05 13:15:08.230
34.0, 418.7210693359375, -1308.4058837890625, 508.7311096191406, 548.9537353515625, -0.08000000566244125, 0.04800000041723251, 1.055999994277954, 0.0, 0.0, 0.0, 0.0, 0.0, 1.6202133082309713E9, 2021-05-05 13:15:08.230
35.0, 330.4220275878906, -1314.5430908203125, 453.7508544921875, 493.13946533203125, -0.08000000566244125, 0.04800000041723251, 1.055999994277954, 0.0, 0.0, 0.0, 0.0, 0.0, 1.6202133082473824E9, 2021-05-05 13:15:08.247
35.0, 397.37371826171875, -1415.85693359375, 487.60443115234375, 556.2689819335938, -0.08000000566244125, 0.04800000041723251, 1.055999994277954, 0.0, 0.0, 0.0, 0.0, 0.0, 1.6202133082473824E9, 2021-05-05 13:15:08.247
36.0, 429.9519958496094, -1332.109375, 462.39373779296875, 516.5101318359375, -0.08000000566244125, 0.04800000041723251, 1.055999994277954, 0.0, 0.0, 0.0, 0.0, 0.0, 1.6202133082481525E9, 2021-05-05 13:15:08.248
36.0, 397.0932312011719, -1300.862548828125, 501.9432067871094, 548.572265625, -0.08000000566244125, 0.04800000041723251, 1.055999994277954, 0.0, 0.0, 0.0, 0.0, 0.0, 1.6202133082481525E9, 2021-05-05 13:15:08.248
37.0, 384.6580505371094, -1385.01025390625, 485.90277099609375, 543.8637084960938, -0.08000000566244125, 0.04800000041723251, 1.055999994277954, 0.0, 0.0, 0.0, 0.0, 0.0, 1.6202133082609472E9, 2021-05-05 13:15:08.260
37.0, 424.86572265625, -1287.1519775390625, 517.6881713867188, 559.829345703125, -0.08000000566244125, 0.04800000041723251, 1.055999994277954, 0.0, 0.0, 0.0, 0.0, 0.0, 1.6202133082609472E9, 2021-05-05 13:15:08.260
38.0, 425.793212890625, -1378.439208984375, 528.664794921875, 602.2921752929688, -0.08000000566244125, 0.04800000041723251, 1.055999994277954, 0.0, 0.0, 0.0, 0.0, 0.0, 1.620213308276598E9, 2021-05-05 13:15:08.276
38.0, 298.3486633300781, -1250.31396484375, 431.2029724121094, 463.9271240234375, -0.08000000566244125, 0.04800000041723251, 1.055999994277954, 0.0, 0.0, 0.0, 0.0, 0.0, 1.620213308276598E9, 2021-05-05 13:15:08.276
39.0, 454.5567932128906, -1427.0841064453125, 517.4151611328125, 560.94384765625, -0.08000000566244125, 0.04800000041723251, 1.055999994277954, 0.0, 0.0, 0.0, 0.0, 0.0, 1.6202133082773125E9, 2021-05-05 13:15:08.277
39.0, 372.26776123046875, -1348.392822265625, 503.8655090332031, 534.6822509765625, -0.08000000566244125, 0.04800000041723251, 1.055999994277954, 0.0, 0.0, 0.0, 0.0, 0.0, 1.6202133082773125E9, 2021-05-05 13:15:08.277
40.0, 414.89141845703125, -1332.2701416015625, 430.90753173828125, 481.58319091796875, -0.08000000566244125, 0.04800000041723251, 1.055999994277954, 0.0, 0.0, 0.0, 0.0, 0.0, 1.6202133082910316E9, 2021-05-05 13:15:08.291
40.0, 374.0180358886719, -1295.43212890625, 511.7679138183594, 559.2796020507812, -0.08000000566244125, 0.04800000041723251, 1.055999994277954, 0.0, 0.0, 0.0, 0.0, 0.0, 1.6202133082910316E9, 2021-05-05 13:15:08.291
41.0, 431.1038818359375, -1305.982421875, 485.6671447753906, 515.436767578125, -0.08000000566244125, 0.04800000041723251, 1.055999994277954, 0.0, 0.0, 0.0, 0.0, 0.0, 1.620213308306608E9, 2021-05-05 13:15:08.306
41.0, 528.072021484375, -1383.80224609375, 548.2655639648438, 602.4530029296875, -0.08000000566244125, 0.04800000041723251, 1.055999994277954, 0.0, 0.0, 0.0, 0.0, 0.0, 1.620213308306608E9, 2021-05-05 13:15:08.306
42.0, 326.7831115722656, -1283.329833984375, 424.26171875, 492.713134765625, -0.08000000566244125, 0.04800000041723251, 1.055999994277954, 0.0, 0.0, 0.0, 0.0, 0.0, 1.6202133083073251E9, 2021-05-05 13:15:08.307
42.0, 410.09686279296875, -1336.017578125, 468.6618347167969, 527.3558349609375, -0.08000000566244125, 0.04800000041723251, 1.055999994277954, 0.0, 0.0, 0.0, 0.0, 0.0, 1.6202133083073251E9, 2021-05-05 13:15:08.307
43.0, 400.9041748046875, -1343.5235595703125, 465.2884216308594, 512.0147705078125, -0.08000000566244125, 0.04800000041723251, 1.055999994277954, 0.0, 0.0, 0.0, 0.0, 0.0, 1.6202133083210757E9, 2021-05-05 13:15:08.321
43.0, 480.79217529296875, -1382.1754150390625, 518.5670776367188, 565.5588989257812, -0.08000000566244125, 0.04800000041723251, 1.055999994277954, 0.0, 0.0, 0.0, 0.0, 0.0, 1.6202133083210757E9, 2021-05-05 13:15:08.321
44.0, 344.2185363769531, -1299.4412841796875, 453.6797790527344, 501.7861022949219, -0.08000000566244125, 0.04800000041723251, 1.055999994277954, 0.0, 0.0, 0.0, 0.0, 0.0, 1.6202133083366804E9, 2021-05-05 13:15:08.336
44.0, 401.98876953125, -1303.143798828125, 487.98590087890625, 535.9351196289062, -0.08000000566244125, 0.04800000041723251, 1.055999994277954, 0.0, 0.0, 0.0, 0.0, 0.0, 1.6202133083366804E9, 2021-05-05 13:15:08.336
45.0, 454.6278381347656, -1268.5235595703125, 519.9246215820312, 558.8981323242188, -0.08000000566244125, 0.04800000041723251, 1.055999994277954, 0.0, 0.0, 0.0, 0.0, 0.0, 1.6202133083373451E9, 2021-05-05 13:15:08.337
45.0, 418.53033447265625, -1370.2001953125, 496.6026306152344, 574.9759521484375, -0.08000000566244125, 0.04800000041723251, 1.055999994277954, 0.0, 0.0, 0.0, 0.0, 0.0, 1.6202133083373451E9, 2021-05-05 13:15:08.337
46.0, 344.2783508300781, -1286.665771484375, 431.9621887207031, 471.8407287597656, -0.08000000566244125, 0.04800000041723251, 1.055999994277954, 0.0, 0.0, 0.0, 0.0, 0.0, 1.6202133083511531E9, 2021-05-05 13:15:08.351
46.0, 419.360595703125, -1308.1851806640625, 494.03704833984375, 544.5294189453125, -0.08000000566244125, 0.04800000041723251, 1.055999994277954, 0.0, 0.0, 0.0, 0.0, 0.0, 1.6202133083511531E9, 2021-05-05 13:15:08.351
47.0, 457.5412292480469, -1358.7935791015625, 483.4119873046875, 537.786376953125, -0.08000000566244125, 0.04800000041723251, 1.055999994277954, 0.0, 0.0, 0.0, 0.0, 0.0, 1.6202133083668234E9, 2021-05-05 13:15:08.366
47.0, 384.9273376464844, -1319.3936767578125, 478.5800476074219, 533.7211303710938, -0.08000000566244125, 0.04800000041723251, 1.055999994277954, 0.0, 0.0, 0.0, 0.0, 0.0, 1.6202133083668234E9, 2021-05-05 13:15:08.366
48.0, 401.69329833984375, -1325.16064453125, 478.8530578613281, 556.5980834960938, -0.08000000566244125, 0.04800000041723251, 1.055999994277954, 0.0, 0.0, 0.0, 0.0, 0.0, 1.6202133083675327E9, 2021-05-05 13:15:08.367
48.0, 399.44189453125, -1308.4395751953125, 453.4441833496094, 488.5431213378906, -0.08000000566244125, 0.04800000041723251, 1.055999994277954, 0.0, 0.0, 0.0, 0.0, 0.0, 1.6202133083675327E9, 2021-05-05 13:15:08.367
49.0, 363.34063720703125, -1332.1842041015625, 452.4605712890625, 516.02392578125, -0.08000000566244125, 0.04800000041723251, 1.055999994277954, 0.0, 0.0, 0.0, 0.0, 0.0, 1.6202133083809855E9, 2021-05-05 13:15:08.380
49.0, 390.16693115234375, -1264.645263671875, 425.09197998046875, 468.46734619140625, -0.08000000566244125, 0.04800000041723251, 1.055999994277954, 0.0, 0.0, 0.0, 0.0, 0.0, 1.6202133083809855E9, 2021-05-05 13:15:08.380
50.0, 460.1142883300781, -1395.212646484375, 509.2920837402344, 562.5220947265625, -0.08000000566244125, 0.04800000041723251, 1.040000081062317, 0.0, 0.0, 0.0, 0.0, 0.0, 1.6202133083968108E9, 2021-05-05 13:15:08.396
50.0, 393.7946472167969, -1318.578369140625, 482.62286376953125, 534.3793334960938, -0.08000000566244125, 0.04800000041723251, 1.040000081062317, 0.0, 0.0, 0.0, 0.0, 0.0, 1.6202133083968108E9, 2021-05-05 13:15:08.396
51.0, 417.52056884765625, -1417.5772705078125, 451.81732177734375, 510.5299987792969, -0.08000000566244125, 0.04800000041723251, 1.040000081062317, 0.0, 0.0, 0.0, 0.0, 0.0, 1.6202133083975015E9, 2021-05-05 13:15:08.397
51.0, 359.4960021972656, -1264.2152099609375, 412.6605529785156, 464.0056457519531, -0.08000000566244125, 0.04800000041723251, 1.040000081062317, 0.0, 0.0, 0.0, 0.0, 0.0, 1.6202133083975015E9, 2021-05-05 13:15:08.397
52.0, 430.3185119628906, -1305.9637451171875, 524.3713989257812, 599.0646362304688, -0.08000000566244125, 0.04800000041723251, 1.040000081062317, 0.0, 0.0, 0.0, 0.0, 0.0, 1.6202133084109857E9, 2021-05-05 13:15:08.410
52.0, 405.8221435546875, -1422.8580322265625, 426.24761962890625, 484.96405029296875, -0.08000000566244125, 0.04800000041723251, 1.040000081062317, 0.0, 0.0, 0.0, 0.0, 0.0, 1.6202133084109857E9, 2021-05-05 13:15:08.410
53.0, 395.2943420410156, -1295.08056640625, 481.17926025390625, 528.3543701171875, -0.08000000566244125, 0.04800000041723251, 1.040000081062317, 0.0, 0.0, 0.0, 0.0, 0.0, 1.620213308426676E9, 2021-05-05 13:15:08.426
53.0, 337.86444091796875, -1366.4117431640625, 462.3189392089844, 524.6555786132812, -0.08000000566244125, 0.04800000041723251, 1.040000081062317, 0.0, 0.0, 0.0, 0.0, 0.0, 1.620213308426676E9, 2021-05-05 13:15:08.426
54.0, 386.04180908203125, -1238.4173583984375, 448.6533508300781, 516.3605346679688, -0.08000000566244125, 0.04800000041723251, 1.040000081062317, 0.0, 0.0, 0.0, 0.0, 0.0, 1.6202133084274068E9, 2021-05-05 13:15:08.427
54.0, 463.7943420410156, -1395.1827392578125, 453.78076171875, 508.32720947265625, -0.08000000566244125, 0.04800000041723251, 1.040000081062317, 0.0, 0.0, 0.0, 0.0, 0.0, 1.6202133084274068E9, 2021-05-05 13:15:08.427
55.0, 363.8268127441406, -1305.163330078125, 444.367431640625, 481.6467590332031, -0.08000000566244125, 0.04800000041723251, 1.040000081062317, 0.0, 0.0, 0.0, 0.0, 0.0, 1.6202133084409661E9, 2021-05-05 13:15:08.440
55.0, 342.8385009765625, -1358.0904541015625, 446.4879455566406, 497.0027770996094, -0.08000000566244125, 0.04800000041723251, 1.040000081062317, 0.0, 0.0, 0.0, 0.0, 0.0, 1.6202133084409661E9, 2021-05-05 13:15:08.440
56.0, 392.8446960449219, -1368.2069091796875, 430.2605285644531, 503.8804626464844, -0.08000000566244125, 0.04800000041723251, 1.040000081062317, 0.0, 0.0, 0.0, 0.0, 0.0, 1.6202133084570868E9, 2021-05-05 13:15:08.457
56.0, 372.1630554199219, -1314.9432373046875, 412.06591796875, 469.73516845703125, -0.08000000566244125, 0.04800000041723251, 1.040000081062317, 0.0, 0.0, 0.0, 0.0, 0.0, 1.6202133084570868E9, 2021-05-05 13:15:08.457
57.0, 379.75506591796875, -1394.5694580078125, 421.4455871582031, 476.8858642578125, -0.08000000566244125, 0.04800000041723251, 1.040000081062317, 0.0, 0.0, 0.0, 0.0, 0.0, 1.6202133084716244E9, 2021-05-05 13:15:08.471
57.0, 356.8182373046875, -1330.115966796875, 427.80340576171875, 488.00457763671875, -0.08000000566244125, 0.04800000041723251, 1.040000081062317, 0.0, 0.0, 0.0, 0.0, 0.0, 1.6202133084716244E9, 2021-05-05 13:15:08.471
58.0, 347.56573486328125, -1314.6177978515625, 452.935546875, 517.5123901367188, -0.08000000566244125, 0.04800000041723251, 1.040000081062317, 0.0, 0.0, 0.0, 0.0, 0.0, 1.6202133084723215E9, 2021-05-05 13:15:08.472
58.0, 411.15899658203125, -1339.3759765625, 460.9837951660156, 546.5003662109375, -0.08000000566244125, 0.04800000041723251, 1.040000081062317, 0.0, 0.0, 0.0, 0.0, 0.0, 1.6202133084723215E9, 2021-05-05 13:15:08.472
59.0, 404.7001953125, -1332.9844970703125, 405.3228759765625, 477.9966125488281, -0.08000000566244125, 0.04800000041723251, 1.040000081062317, 0.0, 0.0, 0.0, 0.0, 0.0, 1.6202133084864683E9, 2021-05-05 13:15:08.486
59.0, 420.30303955078125, -1336.8590087890625, 432.6129150390625, 466.3356018066406, -0.08000000566244125, 0.04800000041723251, 1.040000081062317, 0.0, 0.0, 0.0, 0.0, 0.0, 1.6202133084864683E9, 2021-05-05 13:15:08.486
60.0, 340.9797668457031, -1306.7191162109375, 440.6537170410156, 522.7407836914062, -0.08000000566244125, 0.04800000041723251, 1.055999994277954, 0.0, 0.0, 0.0, 0.0, 0.0, 1.620213308501686E9, 2021-05-05 13:15:08.501
60.0, 363.11248779296875, -1347.790771484375, 403.4753723144531, 450.0595703125, -0.08000000566244125, 0.04800000041723251, 1.055999994277954, 0.0, 0.0, 0.0, 0.0, 0.0, 1.620213308501686E9, 2021-05-05 13:15:08.501
61.0, 405.67254638671875, -1390.6500244140625, 455.50860595703125, 501.92449951171875, -0.08000000566244125, 0.04800000041723251, 1.055999994277954, 0.0, 0.0, 0.0, 0.0, 0.0, 1.6202133085024335E9, 2021-05-05 13:15:08.502
61.0, 405.3097839355469, -1258.6839599609375, 444.0083923339844, 510.5487060546875, -0.08000000566244125, 0.04800000041723251, 1.055999994277954, 0.0, 0.0, 0.0, 0.0, 0.0, 1.6202133085024335E9, 2021-05-05 13:15:08.502
62.0, 338.95648193359375, -1338.1978759765625, 466.65350341796875, 529.5735473632812, -0.08000000566244125, 0.04800000041723251, 1.055999994277954, 0.0, 0.0, 0.0, 0.0, 0.0, 1.6202133085166576E9, 2021-05-05 13:15:08.516
62.0, 405.8371276855469, -1263.448486328125, 442.59844970703125, 502.021728515625, -0.08000000566244125, 0.04800000041723251, 1.055999994277954, 0.0, 0.0, 0.0, 0.0, 0.0, 1.6202133085166576E9, 2021-05-05 13:15:08.516
63.0, 448.9207763671875, -1350.6368408203125, 448.7057189941406, 496.9354553222656, -0.08000000566244125, 0.04800000041723251, 1.055999994277954, 0.0, 0.0, 0.0, 0.0, 0.0, 1.6202133085173943E9, 2021-05-05 13:15:08.517
63.0, 342.8572082519531, -1278.479248046875, 425.9446716308594, 477.6787109375, -0.08000000566244125, 0.04800000041723251, 1.055999994277954, 0.0, 0.0, 0.0, 0.0, 0.0, 1.6202133085173943E9, 2021-05-05 13:15:08.517
64.0, 369.75830078125, -1256.555908203125, 463.6279296875, 541.5973510742188, -0.08000000566244125, 0.04800000041723251, 1.055999994277954, 0.0, 0.0, 0.0, 0.0, 0.0, 1.620213308531137E9, 2021-05-05 13:15:08.531
64.0, 371.68060302734375, -1348.131103515625, 404.94140625, 446.1289367675781, -0.08000000566244125, 0.04800000041723251, 1.055999994277954, 0.0, 0.0, 0.0, 0.0, 0.0, 1.620213308531137E9, 2021-05-05 13:15:08.531
65.0, 358.04119873046875, -1280.3641357421875, 414.5417175292969, 459.0802001953125, -0.08000000566244125, 0.04800000041723251, 1.055999994277954, 0.0, 0.0, 0.0, 0.0, 0.0, 1.62021330854677E9, 2021-05-05 13:15:08.546
65.0, 464.3441162109375, -1450.0545654296875, 515.4105834960938, 597.7968139648438, -0.08000000566244125, 0.04800000041723251, 1.055999994277954, 0.0, 0.0, 0.0, 0.0, 0.0, 1.62021330854677E9, 2021-05-05 13:15:08.546
66.0, 374.0816345214844, -1647.9532470703125, 441.72332763671875, 480.3228454589844, -0.08000000566244125, 0.04800000041723251, 1.055999994277954, 0.0, 0.0, 0.0, 0.0, 0.0, 1.6202133085473862E9, 2021-05-05 13:15:08.547
66.0, 369.346923828125, -1844.327880859375, 402.6862487792969, 477.7086486816406, -0.08000000566244125, 0.04800000041723251, 1.055999994277954, 0.0, 0.0, 0.0, 0.0, 0.0, 1.6202133085473862E9, 2021-05-05 13:15:08.547
67.0, 397.2428283691406, -1814.7939453125, 478.64361572265625, 521.8282470703125, -0.08000000566244125, 0.04800000041723251, 1.055999994277954, 0.0, 0.0, 0.0, 0.0, 0.0, 1.6202133085610607E9, 2021-05-05 13:15:08.561
67.0, 440.80517578125, -1717.7659912109375, 465.3108825683594, 542.6819458007812, -0.08000000566244125, 0.04800000041723251, 1.055999994277954, 0.0, 0.0, 0.0, 0.0, 0.0, 1.6202133085610607E9, 2021-05-05 13:15:08.561
68.0, 417.2288513183594, -1868.094970703125, 463.8298645019531, 533.4443969726562, -0.08000000566244125, 0.04800000041723251, 1.055999994277954, 0.0, 0.0, 0.0, 0.0, 0.0, 1.6202133085766509E9, 2021-05-05 13:15:08.576
68.0, 331.12139892578125, -1685.636474609375, 401.4483337402344, 446.398193359375, -0.08000000566244125, 0.04800000041723251, 1.055999994277954, 0.0, 0.0, 0.0, 0.0, 0.0, 1.6202133085766509E9, 2021-05-05 13:15:08.576
69.0, 400.7882385253906, -1812.9351806640625, 447.5238952636719, 501.5916442871094, -0.08000000566244125, 0.04800000041723251, 1.055999994277954, 0.0, 0.0, 0.0, 0.0, 0.0, 1.6202133085772831E9, 2021-05-05 13:15:08.577
69.0, 431.8742980957031, -1782.0997314453125, 461.140869140625, 526.6452026367188, -0.08000000566244125, 0.04800000041723251, 1.055999994277954, 0.0, 0.0, 0.0, 0.0, 0.0, 1.6202133085772831E9, 2021-05-05 13:15:08.577
70.0, 353.9385070800781, -1906.02880859375, 445.39215087890625, 523.9487915039062, -0.08000000566244125, 0.04800000041723251, 1.055999994277954, 0.0, 0.0, 0.0, 0.0, 0.0, 1.6202133085909483E9, 2021-05-05 13:15:08.590
70.0, 388.5400695800781, -1745.310302734375, 442.2020263671875, 477.3271789550781, -0.08000000566244125, 0.04800000041723251, 1.055999994277954, 0.0, 0.0, 0.0, 0.0, 0.0, 1.6202133085909483E9, 2021-05-05 13:15:08.590
71.0, 387.1076965332031, -1748.3770751953125, 429.80426025390625, 495.8434143066406, -0.08000000566244125, 0.04800000041723251, 1.055999994277954, 0.0, 0.0, 0.0, 0.0, 0.0, 1.6202133086066844E9, 2021-05-05 13:15:08.606
71.0, 408.10723876953125, -1862.3916015625, 446.7908935546875, 495.3684387207031, -0.08000000566244125, 0.04800000041723251, 1.055999994277954, 0.0, 0.0, 0.0, 0.0, 0.0, 1.6202133086066844E9, 2021-05-05 13:15:08.606
72.0, 398.57421875, -1760.801025390625, 490.2859191894531, 559.7545776367188, -0.08000000566244125, 0.04800000041723251, 1.055999994277954, 0.0, 0.0, 0.0, 0.0, 0.0, 1.6202133086073823E9, 2021-05-05 13:15:08.607
72.0, 358.63958740234375, -1768.220947265625, 382.0756530761719, 453.0252990722656, -0.08000000566244125, 0.04800000041723251, 1.055999994277954, 0.0, 0.0, 0.0, 0.0, 0.0, 1.6202133086073823E9, 2021-05-05 13:15:08.607
73.0, 336.58538818359375, -1765.3748779296875, 411.4974670410156, 458.08538818359375, -0.08000000566244125, 0.04800000041723251, 1.055999994277954, 0.0, 0.0, 0.0, 0.0, 0.0, 1.620213308621091E9, 2021-05-05 13:15:08.621
73.0, 389.7069396972656, -1859.007080078125, 458.85205078125, 513.3984985351562, -0.08000000566244125, 0.04800000041723251, 1.055999994277954, 0.0, 0.0, 0.0, 0.0, 0.0, 1.620213308621091E9, 2021-05-05 13:15:08.621
74.0, 387.0889892578125, -1711.3482666015625, 438.45465087890625, 495.6900939941406, -0.08000000566244125, 0.04800000041723251, 1.055999994277954, 0.0, 0.0, 0.0, 0.0, 0.0, 1.62021330863669E9, 2021-05-05 13:15:08.636
74.0, 405.1414794921875, -1875.9862060546875, 461.9374694824219, 519.7114868164062, -0.08000000566244125, 0.04800000041723251, 1.055999994277954, 0.0, 0.0, 0.0, 0.0, 0.0, 1.62021330863669E9, 2021-05-05 13:15:08.636
75.0, 358.4450988769531, -1685.857177734375, 392.9325866699219, 459.15875244140625, -0.08000000566244125, 0.04800000041723251, 1.055999994277954, 0.0, 0.0, 0.0, 0.0, 0.0, 1.6202133086375024E9, 2021-05-05 13:15:08.637
75.0, 435.5506286621094, -1828.433349609375, 500.0133972167969, 557.7312622070312, -0.08000000566244125, 0.04800000041723251, 1.055999994277954, 0.0, 0.0, 0.0, 0.0, 0.0, 1.6202133086375024E9, 2021-05-05 13:15:08.637
76.0, 359.8101501464844, -1775.476318359375, 406.6393127441406, 469.05450439453125, -0.08000000566244125, 0.04800000041723251, 1.055999994277954, 0.0, 0.0, 0.0, 0.0, 0.0, 1.6202133086510036E9, 2021-05-05 13:15:08.651
76.0, 414.48748779296875, -1763.0150146484375, 463.698974609375, 543.572021484375, -0.08000000566244125, 0.04800000041723251, 1.055999994277954, 0.0, 0.0, 0.0, 0.0, 0.0, 1.6202133086510036E9, 2021-05-05 13:15:08.651
77.0, 386.8496398925781, -1793.5662841796875, 446.3271484375, 479.06622314453125, -0.08000000566244125, 0.04800000041723251, 1.055999994277954, 0.0, 0.0, 0.0, 0.0, 0.0, 1.6202133086667848E9, 2021-05-05 13:15:08.666
77.0, 381.9354248046875, -1745.392578125, 415.6936340332031, 465.0004577636719, -0.08000000566244125, 0.04800000041723251, 1.055999994277954, 0.0, 0.0, 0.0, 0.0, 0.0, 1.6202133086667848E9, 2021-05-05 13:15:08.666
78.0, 416.83990478515625, -1886.1512451171875, 461.5635070800781, 542.2667846679688, -0.08000000566244125, 0.04800000041723251, 1.055999994277954, 0.0, 0.0, 0.0, 0.0, 0.0, 1.6202133086674523E9, 2021-05-05 13:15:08.667
78.0, 363.49395751953125, -1688.864013671875, 443.11083984375, 522.9464721679688, -0.08000000566244125, 0.04800000041723251, 1.055999994277954, 0.0, 0.0, 0.0, 0.0, 0.0, 1.6202133086674523E9, 2021-05-05 13:15:08.667
79.0, 392.0668029785156, -1766.309814453125, 415.65997314453125, 462.56951904296875, -0.08000000566244125, 0.04800000041723251, 1.055999994277954, 0.0, 0.0, 0.0, 0.0, 0.0, 1.6202133086809428E9, 2021-05-05 13:15:08.680
79.0, 398.1329345703125, -1817.3857421875, 461.2643127441406, 519.0158081054688, -0.08000000566244125, 0.04800000041723251, 1.055999994277954, 0.0, 0.0, 0.0, 0.0, 0.0, 1.6202133086809428E9, 2021-05-05 13:15:08.680
80.0, 379.2875671386719, -1820.3887939453125, 430.3839416503906, 505.742919921875, -0.08000000566244125, 0.04800000041723251, 1.055999994277954, 0.0, 0.0, 0.0, 0.0, 0.0, 1.620213308696732E9, 2021-05-05 13:15:08.696
80.0, 367.0543518066406, -1724.2921142578125, 446.4430847167969, 501.9095458984375, -0.08000000566244125, 0.04800000041723251, 1.055999994277954, 0.0, 0.0, 0.0, 0.0, 0.0, 1.620213308696732E9, 2021-05-05 13:15:08.696
81.0, 353.9833984375, -1833.1829833984375, 395.28125, 456.7053527832031, -0.08000000566244125, 0.04800000041723251, 1.055999994277954, 0.0, 0.0, 0.0, 0.0, 0.0, 1.6202133086974697E9, 2021-05-05 13:15:08.697
81.0, 371.213134765625, -1773.2847900390625, 437.28033447265625, 485.9775695800781, -0.08000000566244125, 0.04800000041723251, 1.055999994277954, 0.0, 0.0, 0.0, 0.0, 0.0, 1.6202133086974697E9, 2021-05-05 13:15:08.697
82.0, 372.9933166503906, -1796.6329345703125, 440.2460632324219, 505.6905822753906, -0.08000000566244125, 0.04800000041723251, 1.055999994277954, 0.0, 0.0, 0.0, 0.0, 0.0, 1.6202133087443514E9, 2021-05-05 13:15:08.744
82.0, 412.7073059082031, -1758.231689453125, 459.5963134765625, 502.1339416503906, -0.08000000566244125, 0.04800000041723251, 1.055999994277954, 0.0, 0.0, 0.0, 0.0, 0.0, 1.6202133087443514E9, 2021-05-05 13:15:08.744
83.0, 379.4708251953125, -1785.4918212890625, 445.552978515625, 520.3995971679688, -0.08000000566244125, 0.04800000041723251, 1.055999994277954, 0.0, 0.0, 0.0, 0.0, 0.0, 1.620213308745056E9, 2021-05-05 13:15:08.745
83.0, 374.55657958984375, -1787.77685546875, 408.2063293457031, 457.6814880371094, -0.08000000566244125, 0.04800000041723251, 1.055999994277954, 0.0, 0.0, 0.0, 0.0, 0.0, 1.620213308745056E9, 2021-05-05 13:15:08.745
84.0, 395.15594482421875, -1735.287353515625, 427.65008544921875, 484.7508850097656, -0.08000000566244125, 0.04800000041723251, 1.055999994277954, 0.0, 0.0, 0.0, 0.0, 0.0, 1.620213308745798E9, 2021-05-05 13:15:08.745
84.0, 365.3863525390625, -1785.1103515625, 432.8934326171875, 501.868408203125, -0.08000000566244125, 0.04800000041723251, 1.055999994277954, 0.0, 0.0, 0.0, 0.0, 0.0, 1.620213308745798E9, 2021-05-05 13:15:08.745
85.0, 378.6143798828125, -1813.9599609375, 448.8927001953125, 494.227783203125, -0.08000000566244125, 0.04800000041723251, 1.055999994277954, 0.0, 0.0, 0.0, 0.0, 0.0, 1.6202133087465699E9, 2021-05-05 13:15:08.746
85.0, 421.18939208984375, -1731.9327392578125, 441.4278564453125, 484.8219299316406, -0.08000000566244125, 0.04800000041723251, 1.055999994277954, 0.0, 0.0, 0.0, 0.0, 0.0, 1.6202133087465699E9, 2021-05-05 13:15:08.746
86.0, 388.4390869140625, -1763.07861328125, 435.60858154296875, 501.3036804199219, -0.08000000566244125, 0.04800000041723251, 1.055999994277954, 0.0, 0.0, 0.0, 0.0, 0.0, 1.620213308756752E9, 2021-05-05 13:15:08.756
86.0, 353.067138671875, -1830.931640625, 421.0229797363281, 479.43646240234375, -0.08000000566244125, 0.04800000041723251, 1.055999994277954, 0.0, 0.0, 0.0, 0.0, 0.0, 1.620213308756752E9, 2021-05-05 13:15:08.756
87.0, 424.4954833984375, -1738.76171875, 476.57171630859375, 534.899169921875, -0.08000000566244125, 0.04800000041723251, 1.055999994277954, 0.0, 0.0, 0.0, 0.0, 0.0, 1.6202133087573476E9, 2021-05-05 13:15:08.757
87.0, 399.75604248046875, -1773.6588134765625, 468.54962158203125, 533.747314453125, -0.08000000566244125, 0.04800000041723251, 1.055999994277954, 0.0, 0.0, 0.0, 0.0, 0.0, 1.6202133087573476E9, 2021-05-05 13:15:08.757
88.0, 309.2355041503906, -1790.0469970703125, 380.8078308105469, 445.63525390625, -0.08000000566244125, 0.04800000041723251, 1.055999994277954, 0.0, 0.0, 0.0, 0.0, 0.0, 1.6202133087711537E9, 2021-05-05 13:15:08.771
88.0, 401.5736389160156, -1721.0272216796875, 444.17669677734375, 507.56427001953125, -0.08000000566244125, 0.04800000041723251, 1.055999994277954, 0.0, 0.0, 0.0, 0.0, 0.0, 1.6202133087711537E9, 2021-05-05 13:15:08.771
89.0, 398.2152099609375, -1813.4998779296875, 451.45452880859375, 508.9480285644531, -0.08000000566244125, 0.04800000041723251, 1.055999994277954, 0.0, 0.0, 0.0, 0.0, 0.0, 1.6202133087867537E9, 2021-05-05 13:15:08.786
89.0, 395.2382507324219, -1799.430419921875, 472.96270751953125, 528.4329223632812, -0.08000000566244125, 0.04800000041723251, 1.055999994277954, 0.0, 0.0, 0.0, 0.0, 0.0, 1.6202133087867537E9, 2021-05-05 13:15:08.786
90.0, 363.11248779296875, -1717.339599609375, 428.1886291503906, 476.4034118652344, -0.08000000566244125, 0.04800000041723251, 1.040000081062317, 0.0, 0.0, 0.0, 0.0, 0.0, 1.620213308787347E9, 2021-05-05 13:15:08.787
90.0, 323.9071350097656, -1791.251220703125, 403.55389404296875, 448.6496276855469, -0.08000000566244125, 0.04800000041723251, 1.040000081062317, 0.0, 0.0, 0.0, 0.0, 0.0, 1.620213308787347E9, 2021-05-05 13:15:08.787
91.0, 452.084716796875, -1778.300048828125, 507.68768310546875, 553.6921997070312, -0.08000000566244125, 0.04800000041723251, 1.040000081062317, 0.0, 0.0, 0.0, 0.0, 0.0, 1.6202133088009868E9, 2021-05-05 13:15:08.800
91.0, 440.1432189941406, -1729.9393310546875, 438.72393798828125, 481.0334167480469, -0.08000000566244125, 0.04800000041723251, 1.040000081062317, 0.0, 0.0, 0.0, 0.0, 0.0, 1.6202133088009868E9, 2021-05-05 13:15:08.800
92.0, 373.0793151855469, -1795.3763427734375, 443.4885559082031, 508.9629821777344, -0.08000000566244125, 0.04800000041723251, 1.040000081062317, 0.0, 0.0, 0.0, 0.0, 0.0, 1.620213308816687E9, 2021-05-05 13:15:08.816
92.0, 314.37786865234375, -1718.7047119140625, 413.2552185058594, 485.3268127441406, -0.08000000566244125, 0.04800000041723251, 1.040000081062317, 0.0, 0.0, 0.0, 0.0, 0.0, 1.620213308816687E9, 2021-05-05 13:15:08.816
93.0, 371.5833740234375, -1788.1097412109375, 471.8856201171875, 485.7943115234375, -0.08000000566244125, 0.04800000041723251, 1.040000081062317, 0.0, 0.0, 0.0, 0.0, 0.0, 1.6202133088174555E9, 2021-05-05 13:15:08.817
93.0, 396.6781005859375, -1766.321044921875, 414.8371887207031, 499.8787536621094, -0.08000000566244125, 0.04800000041723251, 1.040000081062317, 0.0, 0.0, 0.0, 0.0, 0.0, 1.6202133088174555E9, 2021-05-05 13:15:08.817
94.0, 391.3599548339844, -1732.1197509765625, 461.04364013671875, 510.08868408203125, -0.08000000566244125, 0.04800000041723251, 1.040000081062317, 0.0, 0.0, 0.0, 0.0, 0.0, 1.6202133088309996E9, 2021-05-05 13:15:08.830
94.0, 384.82635498046875, -1741.6414794921875, 441.28948974609375, 521.0316162109375, -0.08000000566244125, 0.04800000041723251, 1.040000081062317, 0.0, 0.0, 0.0, 0.0, 0.0, 1.6202133088309996E9, 2021-05-05 13:15:08.830
95.0, 424.93304443359375, -1787.8629150390625, 447.1087646484375, 486.13836669921875, -0.08000000566244125, 0.04800000041723251, 1.040000081062317, 0.0, 0.0, 0.0, 0.0, 0.0, 1.6202133088466516E9, 2021-05-05 13:15:08.846
95.0, 366.20166015625, -1792.4517822265625, 446.5141296386719, 493.40875244140625, -0.08000000566244125, 0.04800000041723251, 1.040000081062317, 0.0, 0.0, 0.0, 0.0, 0.0, 1.6202133088466516E9, 2021-05-05 13:15:08.846
96.0, 420.14971923828125, -1709.9271240234375, 476.081787109375, 549.0023803710938, -0.08000000566244125, 0.04800000041723251, 1.040000081062317, 0.0, 0.0, 0.0, 0.0, 0.0, 1.6202133088474064E9, 2021-05-05 13:15:08.847
96.0, 328.6343688964844, -1825.160888671875, 430.6307678222656, 487.6268615722656, -0.08000000566244125, 0.04800000041723251, 1.040000081062317, 0.0, 0.0, 0.0, 0.0, 0.0, 1.6202133088474064E9, 2021-05-05 13:15:08.847
97.0, 368.17633056640625, -1834.1927490234375, 455.9685974121094, 512.844970703125, -0.08000000566244125, 0.04800000041723251, 1.040000081062317, 0.0, 0.0, 0.0, 0.0, 0.0, 1.6202133088610065E9, 2021-05-05 13:15:08.861
97.0, 376.5088195800781, -1697.723876953125, 465.6138000488281, 530.4898681640625, -0.08000000566244125, 0.04800000041723251, 1.040000081062317, 0.0, 0.0, 0.0, 0.0, 0.0, 1.6202133088610065E9, 2021-05-05 13:15:08.861
98.0, 365.0086364746094, -1829.1888427734375, 466.9564208984375, 519.9395751953125, -0.08000000566244125, 0.04800000041723251, 1.040000081062317, 0.0, 0.0, 0.0, 0.0, 0.0, 1.6202133088766053E9, 2021-05-05 13:15:08.876
98.0, 401.5063171386719, -1762.248291015625, 451.9594421386719, 493.02728271484375, -0.08000000566244125, 0.04800000041723251, 1.040000081062317, 0.0, 0.0, 0.0, 0.0, 0.0, 1.6202133088766053E9, 2021-05-05 13:15:08.876
99.0, 354.4247131347656, -1771.0296630859375, 410.2184143066406, 469.989501953125, -0.08000000566244125, 0.04800000041723251, 1.040000081062317, 0.0, 0.0, 0.0, 0.0, 0.0, 1.620213308877314E9, 2021-05-05 13:15:08.877
99.0, 417.4756774902344, -1727.3251953125, 463.7999572753906, 518.8961791992188, -0.08000000566244125, 0.04800000041723251, 1.040000081062317, 0.0, 0.0, 0.0, 0.0, 0.0, 1.620213308877314E9, 2021-05-05 13:15:08.877
100.0, 300.6374816894531, -1765.8199462890625, 410.3979187011719, 473.5162048339844, -0.08000000566244125, 0.04800000041723251, 1.040000081062317, 0.0, 0.0, 0.0, 0.0, 0.0, 1.6202133088916695E9, 2021-05-05 13:15:08.891
100.0, 398.3460998535156, -1767.177490234375, 412.18560791015625, 450.5420227050781, -0.08000000566244125, 0.04800000041723251, 1.040000081062317, 0.0, 0.0, 0.0, 0.0, 0.0, 1.6202133088916695E9, 2021-05-05 13:15:08.891
0.0, 349.9592590332031, -1261.8272705078125, 471.1918640136719, 524.8295288085938, -0.08000000566244125, 0.04800000041723251, 1.040000081062317, 0.0, 0.0, 0.0, 0.0, 0.0, 1.6202133088923488E9, 2021-05-05 13:15:08.892
1.0, 405.88946533203125, -1335.944580078125, 434.8699645996094, 495.0973205566406, -0.08000000566244125, 0.04800000041723251, 1.040000081062317, 0.0, 0.0, 0.0, 0.0, 0.0, 1.6202133089059935E9, 2021-05-05 13:15:08.905
1.0, 370.8092041015625, -1432.2432861328125, 456.31829833984375, 501.1746520996094, -0.08000000566244125, 0.04800000041723251, 1.040000081062317, 0.0, 0.0, 0.0, 0.0, 0.0, 1.6202133089059935E9, 2021-05-05 13:15:08.905
2.0, 357.3642578125, -1656.3026123046875, 401.79052734375, 469.45281982421875, -0.08000000566244125, 0.04800000041723251, 1.040000081062317, 0.0, 0.0, 0.0, 0.0, 0.0, 1.620213308921899E9, 2021-05-05 13:15:08.921
2.0, 406.66363525390625, -1765.79931640625, 448.2176513671875, 504.58917236328125, -0.08000000566244125, 0.04800000041723251, 1.040000081062317, 0.0, 0.0, 0.0, 0.0, 0.0, 1.620213308921899E9, 2021-05-05 13:15:08.921
3.0, 363.5912170410156, -1724.3238525390625, 410.05572509765625, 483.2642517089844, -0.08000000566244125, 0.04800000041723251, 1.040000081062317, 0.0, 0.0, 0.0, 0.0, 0.0, 1.6202133089224586E9, 2021-05-05 13:15:08.922
3.0, 368.5914611816406, -1793.51953125, 436.82965087890625, 513.8641357421875, -0.08000000566244125, 0.04800000041723251, 1.040000081062317, 0.0, 0.0, 0.0, 0.0, 0.0, 1.6202133089224586E9, 2021-05-05 13:15:08.922
4.0, 346.8289794921875, -1794.9332275390625, 404.86846923828125, 447.7165222167969, -0.08000000566244125, 0.04800000041723251, 1.040000081062317, 0.0, 0.0, 0.0, 0.0, 0.0, 1.6202133089360952E9, 2021-05-05 13:15:08.936
4.0, 433.4525451660156, -1719.6976318359375, 454.0930480957031, 502.3377380371094, -0.08000000566244125, 0.04800000041723251, 1.040000081062317, 0.0, 0.0, 0.0, 0.0, 0.0, 1.6202133089360952E9, 2021-05-05 13:15:08.936
5.0, 349.25616455078125, -1789.6038818359375, 436.32476806640625, 495.5348815917969, -0.08000000566244125, 0.04800000041723251, 1.040000081062317, 0.0, 0.0, 0.0, 0.0, 0.0, 1.6202133089515111E9, 2021-05-05 13:15:08.951
5.0, 371.3963623046875, -1859.1173095703125, 511.264892578125, 597.4620971679688, -0.08000000566244125, 0.04800000041723251, 1.040000081062317, 0.0, 0.0, 0.0, 0.0, 0.0, 1.6202133089515111E9, 2021-05-05 13:15:08.951
6.0, 337.48297119140625, -1800.22509765625, 398.3086853027344, 468.2298583984375, -0.08000000566244125, 0.04800000041723251, 1.040000081062317, 0.0, 0.0, 0.0, 0.0, 0.0, 1.620213308966401E9, 2021-05-05 13:15:08.966
6.0, 375.65985107421875, -1745.4168701171875, 400.4965515136719, 452.0921936035156, -0.08000000566244125, 0.04800000041723251, 1.040000081062317, 0.0, 0.0, 0.0, 0.0, 0.0, 1.620213308966401E9, 2021-05-05 13:15:08.966
7.0, 362.704833984375, -1749.3662109375, 412.55023193359375, 479.879638671875, -0.08000000566244125, 0.04800000041723251, 1.040000081062317, 0.0, 0.0, 0.0, 0.0, 0.0, 1.6202133089825788E9, 2021-05-05 13:15:08.982
7.0, 334.6967468261719, -1736.7216796875, 407.8716125488281, 468.3832092285156, -0.08000000566244125, 0.04800000041723251, 1.040000081062317, 0.0, 0.0, 0.0, 0.0, 0.0, 1.6202133089825788E9, 2021-05-05 13:15:08.982
8.0, 401.8728332519531, -1768.623046875, 415.4150085449219, 471.97723388671875, -0.08000000566244125, 0.04800000041723251, 1.040000081062317, 0.0, 0.0, 0.0, 0.0, 0.0, 1.6202133089831548E9, 2021-05-05 13:15:08.983
8.0, 364.55609130859375, -1795.0977783203125, 446.1233215332031, 494.8429870605469, -0.08000000566244125, 0.04800000041723251, 1.040000081062317, 0.0, 0.0, 0.0, 0.0, 0.0, 1.6202133089831548E9, 2021-05-05 13:15:08.983
9.0, 344.2110290527344, -1777.452880859375, 412.5128479003906, 460.2937927246094, -0.08000000566244125, 0.04800000041723251, 1.040000081062317, 0.0, 0.0, 0.0, 0.0, 0.0, 1.6202133089838796E9, 2021-05-05 13:15:08.983
9.0, 375.6075134277344, -1769.681396484375, 436.1938781738281, 499.9554443359375, -0.08000000566244125, 0.04800000041723251, 1.040000081062317, 0.0, 0.0, 0.0, 0.0, 0.0, 1.6202133089838796E9, 2021-05-05 13:15:08.983
10.0, 340.5384521484375, -1788.0667724609375, 418.0628356933594, 477.6357116699219, -0.08000000566244125, 0.04800000041723251, 1.055999994277954, 0.0, 0.0, 0.0, 0.0, 0.0, 1.6202133089959087E9, 2021-05-05 13:15:08.995
10.0, 406.9441223144531, -1804.4998779296875, 457.1597595214844, 545.361572265625, -0.08000000566244125, 0.04800000041723251, 1.055999994277954, 0.0, 0.0, 0.0, 0.0, 0.0, 1.6202133089959087E9, 2021-05-05 13:15:08.995
11.0, 349.73486328125, -1852.4677734375, 404.2850646972656, 451.49755859375, -0.08000000566244125, 0.04800000041723251, 1.055999994277954, 0.0, 0.0, 0.0, 0.0, 0.0, 1.62021330901164E9, 2021-05-05 13:15:09.011
11.0, 320.5748596191406, -1718.1717529296875, 393.6076354980469, 466.25146484375, -0.08000000566244125, 0.04800000041723251, 1.055999994277954, 0.0, 0.0, 0.0, 0.0, 0.0, 1.62021330901164E9, 2021-05-05 13:15:09.011
12.0, 360.42724609375, -1749.740234375, 439.690673828125, 487.4454650878906, -0.08000000566244125, 0.04800000041723251, 1.055999994277954, 0.0, 0.0, 0.0, 0.0, 0.0, 1.6202133090123572E9, 2021-05-05 13:15:09.012
12.0, 425.3780822753906, -1752.3992919921875, 441.3212890625, 492.8421325683594, -0.08000000566244125, 0.04800000041723251, 1.055999994277954, 0.0, 0.0, 0.0, 0.0, 0.0, 1.6202133090123572E9, 2021-05-05 13:15:09.012
13.0, 326.24456787109375, -1789.3494873046875, 408.5859375, 468.62628173828125, -0.08000000566244125, 0.04800000041723251, 1.055999994277954, 0.0, 0.0, 0.0, 0.0, 0.0, 1.6202133090259428E9, 2021-05-05 13:15:09.025
13.0, 354.9632568359375, -1774.56201171875, 439.9936218261719, 490.9161071777344, -0.08000000566244125, 0.04800000041723251, 1.055999994277954, 0.0, 0.0, 0.0, 0.0, 0.0, 1.6202133090259428E9, 2021-05-05 13:15:09.025
14.0, 346.8065185546875, -1758.9366455078125, 415.957275390625, 491.7463684082031, -0.08000000566244125, 0.04800000041723251, 1.055999994277954, 0.0, 0.0, 0.0, 0.0, 0.0, 1.6202133090416055E9, 2021-05-05 13:15:09.041
14.0, 361.25750732421875, -1736.4486083984375, 422.2141418457031, 482.09368896484375, -0.08000000566244125, 0.04800000041723251, 1.055999994277954, 0.0, 0.0, 0.0, 0.0, 0.0, 1.6202133090416055E9, 2021-05-05 13:15:09.041
15.0, 378.20672607421875, -1726.6949462890625, 428.3176574707031, 511.2686462402344, -0.08000000566244125, 0.04800000041723251, 1.055999994277954, 0.0, 0.0, 0.0, 0.0, 0.0, 1.620213309042336E9, 2021-05-05 13:15:09.042
15.0, 330.1639709472656, -1840.245849609375, 396.85760498046875, 472.5531921386719, -0.08000000566244125, 0.04800000041723251, 1.055999994277954, 0.0, 0.0, 0.0, 0.0, 0.0, 1.620213309042336E9, 2021-05-05 13:15:09.042
16.0, 362.6113586425781, -1757.474365234375, 427.6295166015625, 490.407470703125, -0.08000000566244125, 0.04800000041723251, 1.055999994277954, 0.0, 0.0, 0.0, 0.0, 0.0, 1.620213309055945E9, 2021-05-05 13:15:09.055
16.0, 366.459716796875, -1793.3399658203125, 448.5804443359375, 512.3195190429688, -0.08000000566244125, 0.04800000041723251, 1.055999994277954, 0.0, 0.0, 0.0, 0.0, 0.0, 1.620213309055945E9, 2021-05-05 13:15:09.055
17.0, 346.7130432128906, -1776.6114501953125, 409.6368408203125, 454.72882080078125, -0.08000000566244125, 0.04800000041723251, 1.055999994277954, 0.0, 0.0, 0.0, 0.0, 0.0, 1.6202133090720904E9, 2021-05-05 13:15:09.072
17.0, 334.1993408203125, -1789.342041015625, 438.856689453125, 502.0871887207031, -0.08000000566244125, 0.04800000041723251, 1.055999994277954, 0.0, 0.0, 0.0, 0.0, 0.0, 1.6202133090720904E9, 2021-05-05 13:15:09.072
18.0, 388.6372985839844, -1784.622314453125, 421.0061340332031, 465.31646728515625, -0.08000000566244125, 0.04800000041723251, 1.055999994277954, 0.0, 0.0, 0.0, 0.0, 0.0, 1.6202133090867906E9, 2021-05-05 13:15:09.086
18.0, 400.84808349609375, -1702.8792724609375, 423.773681640625, 484.3263854980469, -0.08000000566244125, 0.04800000041723251, 1.055999994277954, 0.0, 0.0, 0.0, 0.0, 0.0, 1.6202133090867906E9, 2021-05-05 13:15:09.086
19.0, 307.0326843261719, -1778.9974365234375, 387.6761474609375, 439.0549011230469, -0.08000000566244125, 0.04800000041723251, 1.055999994277954, 0.0, 0.0, 0.0, 0.0, 0.0, 1.6202133090874524E9, 2021-05-05 13:15:09.087
19.0, 336.4170837402344, -1854.19189453125, 443.7110900878906, 513.8154907226562, -0.08000000566244125, 0.04800000041723251, 1.055999994277954, 0.0, 0.0, 0.0, 0.0, 0.0, 1.6202133090874524E9, 2021-05-05 13:15:09.087
20.0, 330.59405517578125, -1755.466064453125, 350.8007507324219, 403.1181945800781, -0.08000000566244125, 0.04800000041723251, 1.055999994277954, 0.0, 0.0, 0.0, 0.0, 0.0, 1.6202133091017592E9, 2021-05-05 13:15:09.101
20.0, 377.8290100097656, -1766.4388427734375, 426.4215087890625, 492.4980773925781, -0.08000000566244125, 0.04800000041723251, 1.055999994277954, 0.0, 0.0, 0.0, 0.0, 0.0, 1.6202133091017592E9, 2021-05-05 13:15:09.101
21.0, 353.74029541015625, -1758.682373046875, 406.3831481933594, 462.3769226074219, -0.08000000566244125, 0.04800000041723251, 1.055999994277954, 0.0, 0.0, 0.0, 0.0, 0.0, 1.6202133091024818E9, 2021-05-05 13:15:09.102
21.0, 312.3994445800781, -1797.782958984375, 404.0681457519531, 476.5399169921875, -0.08000000566244125, 0.04800000041723251, 1.055999994277954, 0.0, 0.0, 0.0, 0.0, 0.0, 1.6202133091024818E9, 2021-05-05 13:15:09.102
22.0, 402.00372314453125, -1783.9827880859375, 431.5190124511719, 489.386474609375, -0.08000000566244125, 0.04800000041723251, 1.055999994277954, 0.0, 0.0, 0.0, 0.0, 0.0, 1.6202133091161995E9, 2021-05-05 13:15:09.116
22.0, 350.1499938964844, -1808.5726318359375, 436.68756103515625, 487.7297058105469, -0.08000000566244125, 0.04800000041723251, 1.055999994277954, 0.0, 0.0, 0.0, 0.0, 0.0, 1.6202133091161995E9, 2021-05-05 13:15:09.116
23.0, 378.89862060546875, -1695.30224609375, 411.79852294921875, 456.3743896484375, -0.08000000566244125, 0.04800000041723251, 1.055999994277954, 0.0, 0.0, 0.0, 0.0, 0.0, 1.620213309131868E9, 2021-05-05 13:15:09.131
23.0, 365.0796813964844, -1801.504150390625, 430.79345703125, 489.1920166015625, -0.08000000566244125, 0.04800000041723251, 1.055999994277954, 0.0, 0.0, 0.0, 0.0, 0.0, 1.620213309131868E9, 2021-05-05 13:15:09.131
24.0, 362.7235412597656, -1823.898681640625, 419.02398681640625, 490.6767578125, -0.08000000566244125, 0.04800000041723251, 1.055999994277954, 0.0, 0.0, 0.0, 0.0, 0.0, 1.6202133091323972E9, 2021-05-05 13:15:09.132
24.0, 361.2799377441406, -1707.3597412109375, 431.2347717285156, 483.1258850097656, -0.08000000566244125, 0.04800000041723251, 1.055999994277954, 0.0, 0.0, 0.0, 0.0, 0.0, 1.6202133091323972E9, 2021-05-05 13:15:09.132
25.0, 360.9844970703125, -1709.667236328125, 457.8291931152344, 516.4296875, -0.08000000566244125, 0.04800000041723251, 1.055999994277954, 0.0, 0.0, 0.0, 0.0, 0.0, 1.6202133091459303E9, 2021-05-05 13:15:09.145
25.0, 394.8979187011719, -1812.9969482421875, 417.2886962890625, 470.1184997558594, -0.08000000566244125, 0.04800000041723251, 1.055999994277954, 0.0, 0.0, 0.0, 0.0, 0.0, 1.6202133091459303E9, 2021-05-05 13:15:09.145
26.0, 317.71759033203125, -1742.0548095703125, 432.01641845703125, 482.9014892578125, -0.08000000566244125, 0.04800000041723251, 1.055999994277954, 0.0, 0.0, 0.0, 0.0, 0.0, 1.6202133091617663E9, 2021-05-05 13:15:09.161
26.0, 371.7591552734375, -1772.29931640625, 472.942138671875, 539.6282958984375, -0.08000000566244125, 0.04800000041723251, 1.055999994277954, 0.0, 0.0, 0.0, 0.0, 0.0, 1.6202133091617663E9, 2021-05-05 13:15:09.161
27.0, 367.91827392578125, -1754.97607421875, 452.9075012207031, 510.7787170410156, -0.08000000566244125, 0.04800000041723251, 1.055999994277954, 0.0, 0.0, 0.0, 0.0, 0.0, 1.6202133091624825E9, 2021-05-05 13:15:09.162
27.0, 383.2817687988281, -1791.5784912109375, 424.5777587890625, 482.2806701660156, -0.08000000566244125, 0.04800000041723251, 1.055999994277954, 0.0, 0.0, 0.0, 0.0, 0.0, 1.6202133091624825E9, 2021-05-05 13:15:09.162
28.0, 334.09088134765625, -1744.3023681640625, 430.96551513671875, 487.2248229980469, -0.08000000566244125, 0.04800000041723251, 1.055999994277954, 0.0, 0.0, 0.0, 0.0, 0.0, 1.6202133091923225E9, 2021-05-05 13:15:09.192
28.0, 373.8310546875, -1743.97705078125, 460.7276306152344, 522.4060668945312, -0.08000000566244125, 0.04800000041723251, 1.055999994277954, 0.0, 0.0, 0.0, 0.0, 0.0, 1.6202133091923225E9, 2021-05-05 13:15:09.192
29.0, 395.5748291015625, -1705.7327880859375, 442.3123474121094, 493.15631103515625, -0.08000000566244125, 0.04800000041723251, 1.055999994277954, 0.0, 0.0, 0.0, 0.0, 0.0, 1.6202133091930444E9, 2021-05-05 13:15:09.193
29.0, 337.87939453125, -1800.7899169921875, 417.5953674316406, 465.75030517578125, -0.08000000566244125, 0.04800000041723251, 1.055999994277954, 0.0, 0.0, 0.0, 0.0, 0.0, 1.6202133091930444E9, 2021-05-05 13:15:09.193
30.0, 361.24627685546875, -1767.923583984375, 442.27496337890625, 503.2427978515625, -0.08000000566244125, 0.04800000041723251, 1.055999994277954, 0.0, 0.0, 0.0, 0.0, 0.0, 1.6202133091937823E9, 2021-05-05 13:15:09.193
30.0, 401.8541259765625, -1769.55419921875, 431.7845458984375, 476.47259521484375, -0.08000000566244125, 0.04800000041723251, 1.055999994277954, 0.0, 0.0, 0.0, 0.0, 0.0, 1.6202133091937823E9, 2021-05-05 13:15:09.193
31.0, 373.49072265625, -1788.28369140625, 454.5418395996094, 515.326416015625, -0.08000000566244125, 0.04800000041723251, 1.055999994277954, 0.0, 0.0, 0.0, 0.0, 0.0, 1.620213309206068E9, 2021-05-05 13:15:09.206
31.0, 355.7037658691406, -1700.7325439453125, 428.527099609375, 495.08233642578125, -0.08000000566244125, 0.04800000041723251, 1.055999994277954, 0.0, 0.0, 0.0, 0.0, 0.0, 1.620213309206068E9, 2021-05-05 13:15:09.206
32.0, 353.01849365234375, -1773.051025390625, 455.62640380859375, 513.1759643554688, -0.09600000083446503, 0.04800000041723251, 1.055999994277954, 0.0, 0.0, 0.0, 0.0, 0.0, 1.6202133092381725E9, 2021-05-05 13:15:09.238
32.0, 403.85870361328125, -1741.074951171875, 459.94598388671875, 498.2612609863281, -0.09600000083446503, 0.04800000041723251, 1.055999994277954, 0.0, 0.0, 0.0, 0.0, 0.0, 1.6202133092381725E9, 2021-05-05 13:15:09.238
33.0, 332.80059814453125, -1786.006103515625, 411.2225646972656, 481.5326843261719, -0.09600000083446503, 0.04800000041723251, 1.055999994277954, 0.0, 0.0, 0.0, 0.0, 0.0, 1.6202133092388792E9, 2021-05-05 13:15:09.238
33.0, 352.01995849609375, -1728.7818603515625, 448.25506591796875, 505.3558654785156, -0.09600000083446503, 0.04800000041723251, 1.055999994277954, 0.0, 0.0, 0.0, 0.0, 0.0, 1.6202133092388792E9, 2021-05-05 13:15:09.238
34.0, 379.25390625, -1783.709716796875, 459.6355895996094, 541.0868530273438, -0.09600000083446503, 0.04800000041723251, 1.055999994277954, 0.0, 0.0, 0.0, 0.0, 0.0, 1.6202133092394884E9, 2021-05-05 13:15:09.239
34.0, 423.78863525390625, -1751.2586669921875, 451.6583557128906, 484.9210510253906, -0.09600000083446503, 0.04800000041723251, 1.055999994277954, 0.0, 0.0, 0.0, 0.0, 0.0, 1.6202133092394884E9, 2021-05-05 13:15:09.239
35.0, 319.991455078125, -1782.7523193359375, 432.5138244628906, 495.6882019042969, -0.09600000083446503, 0.04800000041723251, 1.055999994277954, 0.0, 0.0, 0.0, 0.0, 0.0, 1.6202133092402666E9, 2021-05-05 13:15:09.240
35.0, 351.2944030761719, -1734.66845703125, 449.69866943359375, 505.9018859863281, -0.09600000083446503, 0.04800000041723251, 1.055999994277954, 0.0, 0.0, 0.0, 0.0, 0.0, 1.6202133092402666E9, 2021-05-05 13:15:09.240
36.0, 372.0284118652344, -1739.89306640625, 446.8600769042969, 497.8910217285156, -0.09600000083446503, 0.04800000041723251, 1.055999994277954, 0.0, 0.0, 0.0, 0.0, 0.0, 1.6202133092510874E9, 2021-05-05 13:15:09.251
36.0, 379.8335876464844, -1730.1805419921875, 464.2281799316406, 526.12353515625, -0.09600000083446503, 0.04800000041723251, 1.055999994277954, 0.0, 0.0, 0.0, 0.0, 0.0, 1.6202133092510874E9, 2021-05-05 13:15:09.251
37.0, 380.087890625, -1787.1429443359375, 475.5638122558594, 523.57666015625, -0.09600000083446503, 0.04800000041723251, 1.055999994277954, 0.0, 0.0, 0.0, 0.0, 0.0, 1.620213309265982E9, 2021-05-05 13:15:09.265
37.0, 376.284423828125, -1759.30322265625, 426.9825134277344, 479.2812805175781, -0.09600000083446503, 0.04800000041723251, 1.055999994277954, 0.0, 0.0, 0.0, 0.0, 0.0, 1.620213309265982E9, 2021-05-05 13:15:09.265
38.0, 369.0327453613281, -1770.0516357421875, 459.22418212890625, 508.7105407714844, -0.09600000083446503, 0.04800000041723251, 1.055999994277954, 0.0, 0.0, 0.0, 0.0, 0.0, 1.6202133092816424E9, 2021-05-05 13:15:09.281
38.0, 378.22918701171875, -1739.526611328125, 451.8752746582031, 499.1513671875, -0.09600000083446503, 0.04800000041723251, 1.055999994277954, 0.0, 0.0, 0.0, 0.0, 0.0, 1.6202133092816424E9, 2021-05-05 13:15:09.281
39.0, 394.32196044921875, -1771.8505859375, 450.79071044921875, 497.3188171386719, -0.09600000083446503, 0.04800000041723251, 1.055999994277954, 0.0, 0.0, 0.0, 0.0, 0.0, 1.6202133092823727E9, 2021-05-05 13:15:09.282
39.0, 378.303955078125, -1806.751220703125, 453.9584045410156, 502.4200439453125, -0.09600000083446503, 0.04800000041723251, 1.055999994277954, 0.0, 0.0, 0.0, 0.0, 0.0, 1.6202133092823727E9, 2021-05-05 13:15:09.282
40.0, 335.1081237792969, -1713.6988525390625, 428.6205749511719, 474.4754943847656, -0.09600000083446503, 0.04800000041723251, 1.040000081062317, 0.0, 0.0, 0.0, 0.0, 0.0, 1.620213309312057E9, 2021-05-05 13:15:09.312
40.0, 411.37591552734375, -1742.9486083984375, 485.2950134277344, 553.58935546875, -0.09600000083446503, 0.04800000041723251, 1.040000081062317, 0.0, 0.0, 0.0, 0.0, 0.0, 1.620213309312057E9, 2021-05-05 13:15:09.312
41.0, 343.6201477050781, -1727.4093017578125, 415.2279968261719, 454.04815673828125, -0.09600000083446503, 0.04800000041723251, 1.040000081062317, 0.0, 0.0, 0.0, 0.0, 0.0, 1.6202133093127613E9, 2021-05-05 13:15:09.312
41.0, 343.6911926269531, -1804.4400634765625, 427.9660949707031, 486.0429992675781, -0.09600000083446503, 0.04800000041723251, 1.040000081062317, 0.0, 0.0, 0.0, 0.0, 0.0, 1.6202133093127613E9, 2021-05-05 13:15:09.312
42.0, 371.5609436035156, -1765.642333984375, 450.8393249511719, 508.44500732421875, -0.08000000566244125, 0.04800000041723251, 1.040000081062317, 0.0, 0.0, 0.0, 0.0, 0.0, 1.6202133093266127E9, 2021-05-05 13:15:09.326
42.0, 404.1092834472656, -1746.9727783203125, 464.5198974609375, 527.3950805664062, -0.08000000566244125, 0.04800000041723251, 1.040000081062317, 0.0, 0.0, 0.0, 0.0, 0.0, 1.6202133093266127E9, 2021-05-05 13:15:09.326
43.0, 354.3686218261719, -1785.994873046875, 468.4018859863281, 535.2152099609375, -0.08000000566244125, 0.04800000041723251, 1.040000081062317, 0.0, 0.0, 0.0, 0.0, 0.0, 1.6202133093274193E9, 2021-05-05 13:15:09.327
43.0, 395.1634521484375, -1795.5465087890625, 454.7737121582031, 504.7724304199219, -0.08000000566244125, 0.04800000041723251, 1.040000081062317, 0.0, 0.0, 0.0, 0.0, 0.0, 1.6202133093274193E9, 2021-05-05 13:15:09.327
44.0, 335.01837158203125, -1747.1895751953125, 427.01617431640625, 480.582763671875, -0.08000000566244125, 0.04800000041723251, 1.040000081062317, 0.0, 0.0, 0.0, 0.0, 0.0, 1.6202133093416855E9, 2021-05-05 13:15:09.341
44.0, 330.9605712890625, -1730.3675537109375, 436.00689697265625, 494.0800476074219, -0.08000000566244125, 0.04800000041723251, 1.040000081062317, 0.0, 0.0, 0.0, 0.0, 0.0, 1.6202133093416855E9, 2021-05-05 13:15:09.341
45.0, 368.6961669921875, -1780.130615234375, 441.1941223144531, 495.0187683105469, -0.08000000566244125, 0.04800000041723251, 1.040000081062317, 0.0, 0.0, 0.0, 0.0, 0.0, 1.6202133093424048E9, 2021-05-05 13:15:09.342
45.0, 344.2746276855469, -1774.9957275390625, 454.6614990234375, 514.716796875, -0.08000000566244125, 0.04800000041723251, 1.040000081062317, 0.0, 0.0, 0.0, 0.0, 0.0, 1.6202133093424048E9, 2021-05-05 13:15:09.342
46.0, 356.096435546875, -1749.2279052734375, 441.8897399902344, 501.1708984375, -0.08000000566244125, 0.04800000041723251, 1.040000081062317, 0.0, 0.0, 0.0, 0.0, 0.0, 1.6202133093560207E9, 2021-05-05 13:15:09.356
46.0, 380.9144287109375, -1757.2574462890625, 450.0763854980469, 505.61016845703125, -0.08000000566244125, 0.04800000041723251, 1.040000081062317, 0.0, 0.0, 0.0, 0.0, 0.0, 1.6202133093560207E9, 2021-05-05 13:15:09.356
47.0, 356.7172546386719, -1751.1912841796875, 440.6107177734375, 501.6533508300781, -0.08000000566244125, 0.04800000041723251, 1.040000081062317, 0.0, 0.0, 0.0, 0.0, 0.0, 1.62021330937172E9, 2021-05-05 13:15:09.371
47.0, 371.9012756347656, -1783.1600341796875, 445.7156677246094, 506.1337585449219, -0.08000000566244125, 0.04800000041723251, 1.040000081062317, 0.0, 0.0, 0.0, 0.0, 0.0, 1.62021330937172E9, 2021-05-05 13:15:09.371
48.0, 339.2706298828125, -1749.5233154296875, 414.89141845703125, 487.61376953125, -0.08000000566244125, 0.04800000041723251, 1.040000081062317, 0.0, 0.0, 0.0, 0.0, 0.0, 1.6202133093724575E9, 2021-05-05 13:15:09.372
48.0, 336.4133605957031, -1820.8619384765625, 431.7396545410156, 481.8019714355469, -0.08000000566244125, 0.04800000041723251, 1.040000081062317, 0.0, 0.0, 0.0, 0.0, 0.0, 1.6202133093724575E9, 2021-05-05 13:15:09.372
49.0, 388.7981262207031, -1767.9947509765625, 466.7974853515625, 524.0852661132812, -0.08000000566244125, 0.04800000041723251, 1.040000081062317, 0.0, 0.0, 0.0, 0.0, 0.0, 1.62021330938597E9, 2021-05-05 13:15:09.385
49.0, 362.2298889160156, -1741.2955322265625, 429.1778259277344, 489.0349426269531, -0.08000000566244125, 0.04800000041723251, 1.040000081062317, 0.0, 0.0, 0.0, 0.0, 0.0, 1.62021330938597E9, 2021-05-05 13:15:09.385
50.0, 364.67950439453125, -1757.3734130859375, 433.8975830078125, 479.84600830078125, -0.08000000566244125, 0.04800000041723251, 1.040000081062317, 0.0, 0.0, 0.0, 0.0, 0.0, 1.6202133094016795E9, 2021-05-05 13:15:09.401
50.0, 326.6708984375, -1772.7481689453125, 445.1135559082031, 503.1493225097656, -0.08000000566244125, 0.04800000041723251, 1.040000081062317, 0.0, 0.0, 0.0, 0.0, 0.0, 1.6202133094016795E9, 2021-05-05 13:15:09.401
51.0, 347.1244201660156, -1731.3399658203125, 436.8334045410156, 482.6097717285156, -0.08000000566244125, 0.04800000041723251, 1.040000081062317, 0.0, 0.0, 0.0, 0.0, 0.0, 1.6202133094023423E9, 2021-05-05 13:15:09.402
51.0, 388.24462890625, -1763.45068359375, 463.7532043457031, 538.4390258789062, -0.08000000566244125, 0.04800000041723251, 1.040000081062317, 0.0, 0.0, 0.0, 0.0, 0.0, 1.6202133094023423E9, 2021-05-05 13:15:09.402
52.0, 328.9111022949219, -1816.6507568359375, 427.999755859375, 504.31988525390625, -0.08000000566244125, 0.04800000041723251, 1.040000081062317, 0.0, 0.0, 0.0, 0.0, 0.0, 1.6202133094159453E9, 2021-05-05 13:15:09.415
52.0, 351.0176696777344, -1698.6494140625, 432.8017883300781, 481.68603515625, -0.08000000566244125, 0.04800000041723251, 1.040000081062317, 0.0, 0.0, 0.0, 0.0, 0.0, 1.6202133094159453E9, 2021-05-05 13:15:09.415
53.0, 332.88287353515625, -1755.72412109375, 439.5335998535156, 490.3775634765625, -0.08000000566244125, 0.04800000041723251, 1.040000081062317, 0.0, 0.0, 0.0, 0.0, 0.0, 1.6202133094317803E9, 2021-05-05 13:15:09.431
53.0, 335.9944763183594, -1832.5677490234375, 431.2721862792969, 502.6593933105469, -0.08000000566244125, 0.04800000041723251, 1.040000081062317, 0.0, 0.0, 0.0, 0.0, 0.0, 1.6202133094317803E9, 2021-05-05 13:15:09.431
54.0, 396.3714294433594, -1758.4879150390625, 442.36846923828125, 499.97412109375, -0.08000000566244125, 0.04800000041723251, 1.040000081062317, 0.0, 0.0, 0.0, 0.0, 0.0, 1.6202133094325368E9, 2021-05-05 13:15:09.432
54.0, 360.56561279296875, -1773.5372314453125, 433.5497741699219, 489.0910339355469, -0.08000000566244125, 0.04800000041723251, 1.040000081062317, 0.0, 0.0, 0.0, 0.0, 0.0, 1.6202133094325368E9, 2021-05-05 13:15:09.432
55.0, 358.1907958984375, -1738.273681640625, 468.4093933105469, 523.6215209960938, -0.08000000566244125, 0.04800000041723251, 1.040000081062317, 0.0, 0.0, 0.0, 0.0, 0.0, 1.620213309445931E9, 2021-05-05 13:15:09.445
55.0, 387.6088562011719, -1756.73388671875, 453.4535217285156, 519.7955932617188, -0.08000000566244125, 0.04800000041723251, 1.040000081062317, 0.0, 0.0, 0.0, 0.0, 0.0, 1.620213309445931E9, 2021-05-05 13:15:09.445
56.0, 356.7023010253906, -1818.146728515625, 421.0921630859375, 478.9147644042969, -0.08000000566244125, 0.04800000041723251, 1.040000081062317, 0.0, 0.0, 0.0, 0.0, 0.0, 1.620213309478001E9, 2021-05-05 13:15:09.478
56.0, 332.18353271484375, -1715.28076171875, 425.9390869140625, 477.8526306152344, -0.08000000566244125, 0.04800000041723251, 1.040000081062317, 0.0, 0.0, 0.0, 0.0, 0.0, 1.620213309478001E9, 2021-05-05 13:15:09.478
57.0, 328.4698181152344, -1793.28759765625, 426.4963073730469, 485.1192626953125, -0.08000000566244125, 0.04800000041723251, 1.040000081062317, 0.0, 0.0, 0.0, 0.0, 0.0, 1.6202133094787092E9, 2021-05-05 13:15:09.478
57.0, 396.0871887207031, -1803.67333984375, 488.5038757324219, 552.9984130859375, -0.08000000566244125, 0.04800000041723251, 1.040000081062317, 0.0, 0.0, 0.0, 0.0, 0.0, 1.6202133094787092E9, 2021-05-05 13:15:09.478
58.0, 307.3505859375, -1735.255615234375, 423.4819641113281, 479.1354064941406, -0.08000000566244125, 0.04800000041723251, 1.040000081062317, 0.0, 0.0, 0.0, 0.0, 0.0, 1.6202133094794495E9, 2021-05-05 13:15:09.479
58.0, 357.3941955566406, -1760.46630859375, 442.72747802734375, 500.3069763183594, -0.08000000566244125, 0.04800000041723251, 1.040000081062317, 0.0, 0.0, 0.0, 0.0, 0.0, 1.6202133094794495E9, 2021-05-05 13:15:09.479
59.0, 402.658203125, -1807.4918212890625, 433.74798583984375, 484.292724609375, -0.08000000566244125, 0.04800000041723251, 1.040000081062317, 0.0, 0.0, 0.0, 0.0, 0.0, 1.6202133094801838E9, 2021-05-05 13:15:09.480
59.0, 344.1773681640625, -1774.8985595703125, 435.5094909667969, 490.1793518066406, -0.08000000566244125, 0.04800000041723251, 1.040000081062317, 0.0, 0.0, 0.0, 0.0, 0.0, 1.6202133094801838E9, 2021-05-05 13:15:09.480
60.0, 337.2847595214844, -1782.4755859375, 434.04718017578125, 511.67254638671875, -0.08000000566244125, 0.04800000041723251, 1.055999994277954, 0.0, 0.0, 0.0, 0.0, 0.0, 1.6202133094909675E9, 2021-05-05 13:15:09.490
60.0, 336.95562744140625, -1745.6038818359375, 415.50848388671875, 470.9898986816406, -0.08000000566244125, 0.04800000041723251, 1.055999994277954, 0.0, 0.0, 0.0, 0.0, 0.0, 1.6202133094909675E9, 2021-05-05 13:15:09.490
61.0, 362.6636962890625, -1736.3775634765625, 463.33807373046875, 527.8475952148438, -0.08000000566244125, 0.04800000041723251, 1.055999994277954, 0.0, 0.0, 0.0, 0.0, 0.0, 1.6202133095061104E9, 2021-05-05 13:15:09.506
61.0, 365.8276672363281, -1884.95263671875, 443.7222900390625, 507.9737854003906, -0.08000000566244125, 0.04800000041723251, 1.055999994277954, 0.0, 0.0, 0.0, 0.0, 0.0, 1.6202133095061104E9, 2021-05-05 13:15:09.506
62.0, 329.9844665527344, -1710.2581787109375, 421.0585021972656, 490.55706787109375, -0.08000000566244125, 0.04800000041723251, 1.055999994277954, 0.0, 0.0, 0.0, 0.0, 0.0, 1.6202133095225372E9, 2021-05-05 13:15:09.522
62.0, 397.6990966796875, -1765.761962890625, 465.2790832519531, 534.8486938476562, -0.08000000566244125, 0.04800000041723251, 1.055999994277954, 0.0, 0.0, 0.0, 0.0, 0.0, 1.6202133095225372E9, 2021-05-05 13:15:09.522
63.0, 350.9615478515625, -1722.027587890625, 433.5198669433594, 484.644287109375, -0.08000000566244125, 0.04800000041723251, 1.055999994277954, 0.0, 0.0, 0.0, 0.0, 0.0, 1.6202133095232382E9, 2021-05-05 13:15:09.523
63.0, 358.7555236816406, -1761.9771728515625, 417.2849426269531, 489.5024108886719, -0.08000000566244125, 0.04800000041723251, 1.055999994277954, 0.0, 0.0, 0.0, 0.0, 0.0, 1.6202133095232382E9, 2021-05-05 13:15:09.523
64.0, 342.0306701660156, -1773.1707763671875, 432.4726867675781, 499.1476135253906, -0.08000000566244125, 0.04800000041723251, 1.055999994277954, 0.0, 0.0, 0.0, 0.0, 0.0, 1.620213309536128E9, 2021-05-05 13:15:09.536
64.0, 356.5639343261719, -1837.7999267578125, 439.9188232421875, 500.32568359375, -0.08000000566244125, 0.04800000041723251, 1.055999994277954, 0.0, 0.0, 0.0, 0.0, 0.0, 1.620213309536128E9, 2021-05-05 13:15:09.536
65.0, 343.60516357421875, -1751.0977783203125, 433.093505859375, 477.75164794921875, -0.08000000566244125, 0.04800000041723251, 1.055999994277954, 0.0, 0.0, 0.0, 0.0, 0.0, 1.6202133095518236E9, 2021-05-05 13:15:09.551
65.0, 339.2781066894531, -1771.0389404296875, 414.7380676269531, 482.3741760253906, -0.08000000566244125, 0.04800000041723251, 1.055999994277954, 0.0, 0.0, 0.0, 0.0, 0.0, 1.6202133095518236E9, 2021-05-05 13:15:09.551
66.0, 384.1307373046875, -1812.267578125, 457.5150451660156, 531.5576171875, -0.08000000566244125, 0.04800000041723251, 1.055999994277954, 0.0, 0.0, 0.0, 0.0, 0.0, 1.6202133095524864E9, 2021-05-05 13:15:09.552
66.0, 330.7249755859375, -1691.7642822265625, 425.52020263671875, 480.73236083984375, -0.08000000566244125, 0.04800000041723251, 1.055999994277954, 0.0, 0.0, 0.0, 0.0, 0.0, 1.6202133095524864E9, 2021-05-05 13:15:09.552
67.0, 341.96710205078125, -1767.40380859375, 413.3767395019531, 482.34423828125, -0.08000000566244125, 0.04800000041723251, 1.055999994277954, 0.0, 0.0, 0.0, 0.0, 0.0, 1.6202133095660987E9, 2021-05-05 13:15:09.566
67.0, 335.02960205078125, -1733.8194580078125, 442.04681396484375, 509.6754455566406, -0.08000000566244125, 0.04800000041723251, 1.055999994277954, 0.0, 0.0, 0.0, 0.0, 0.0, 1.6202133095660987E9, 2021-05-05 13:15:09.566
68.0, 375.6261901855469, -1807.7386474609375, 428.7215576171875, 508.13458251953125, -0.08000000566244125, 0.04800000041723251, 1.055999994277954, 0.0, 0.0, 0.0, 0.0, 0.0, 1.6202133095816655E9, 2021-05-05 13:15:09.581
68.0, 349.1925964355469, -1766.1434326171875, 440.95477294921875, 495.9574890136719, -0.08000000566244125, 0.04800000041723251, 1.055999994277954, 0.0, 0.0, 0.0, 0.0, 0.0, 1.6202133095816655E9, 2021-05-05 13:15:09.581
69.0, 403.0097351074219, -1890.7943115234375, 461.9692687988281, 512.637451171875, -0.08000000566244125, 0.04800000041723251, 1.055999994277954, 0.0, 0.0, 0.0, 0.0, 0.0, 1.6202133095823789E9, 2021-05-05 13:15:09.582
69.0, 304.6578674316406, -1712.3375244140625, 393.31591796875, 471.5396728515625, -0.08000000566244125, 0.04800000041723251, 1.055999994277954, 0.0, 0.0, 0.0, 0.0, 0.0, 1.6202133095823789E9, 2021-05-05 13:15:09.582
70.0, 335.6279602050781, -1757.6463623046875, 418.7322998046875, 490.85626220703125, -0.08000000566244125, 0.04800000041723251, 1.055999994277954, 0.0, 0.0, 0.0, 0.0, 0.0, 1.6202133095959253E9, 2021-05-05 13:15:09.595
70.0, 396.31158447265625, -1746.2733154296875, 449.4106750488281, 494.3680114746094, -0.08000000566244125, 0.04800000041723251, 1.055999994277954, 0.0, 0.0, 0.0, 0.0, 0.0, 1.6202133095959253E9, 2021-05-05 13:15:09.595
71.0, 323.4321594238281, -1714.3944091796875, 406.0727233886719, 473.10296630859375, -0.08000000566244125, 0.04800000041723251, 1.055999994277954, 0.0, 0.0, 0.0, 0.0, 0.0, 1.620213309611634E9, 2021-05-05 13:15:09.611
71.0, 347.808837890625, -1810.3453369140625, 421.24176025390625, 487.4828796386719, -0.08000000566244125, 0.04800000041723251, 1.055999994277954, 0.0, 0.0, 0.0, 0.0, 0.0, 1.620213309611634E9, 2021-05-05 13:15:09.611
72.0, 308.53240966796875, -1766.8353271484375, 410.3511657714844, 478.3313293457031, -0.08000000566244125, 0.04800000041723251, 1.055999994277954, 0.0, 0.0, 0.0, 0.0, 0.0, 1.6202133096124208E9, 2021-05-05 13:15:09.612
72.0, 395.1409912109375, -1776.8843994140625, 453.8761291503906, 517.4207763671875, -0.08000000566244125, 0.04800000041723251, 1.055999994277954, 0.0, 0.0, 0.0, 0.0, 0.0, 1.6202133096124208E9, 2021-05-05 13:15:09.612
73.0, 327.7666931152344, -1762.205322265625, 419.196044921875, 487.5950622558594, -0.08000000566244125, 0.04800000041723251, 1.055999994277954, 0.0, 0.0, 0.0, 0.0, 0.0, 1.6202133096259503E9, 2021-05-05 13:15:09.625
73.0, 362.7459716796875, -1821.8155517578125, 437.4878845214844, 506.5002746582031, -0.08000000566244125, 0.04800000041723251, 1.055999994277954, 0.0, 0.0, 0.0, 0.0, 0.0, 1.6202133096259503E9, 2021-05-05 13:15:09.625
74.0, 351.4440002441406, -1811.2578125, 433.84521484375, 497.0345764160156, -0.08000000566244125, 0.04800000041723251, 1.055999994277954, 0.0, 0.0, 0.0, 0.0, 0.0, 1.6202133096728945E9, 2021-05-05 13:15:09.672
74.0, 405.35467529296875, -1774.4908447265625, 448.1353759765625, 499.6749572753906, -0.08000000566244125, 0.04800000041723251, 1.055999994277954, 0.0, 0.0, 0.0, 0.0, 0.0, 1.6202133096728945E9, 2021-05-05 13:15:09.672
75.0, 322.24285888671875, -1775.87841796875, 425.01531982421875, 492.5392150878906, -0.08000000566244125, 0.04800000041723251, 1.055999994277954, 0.0, 0.0, 0.0, 0.0, 0.0, 1.6202133096736577E9, 2021-05-05 13:15:09.673
75.0, 313.00531005859375, -1800.7899169921875, 416.51080322265625, 476.4352111816406, -0.08000000566244125, 0.04800000041723251, 1.055999994277954, 0.0, 0.0, 0.0, 0.0, 0.0, 1.6202133096736577E9, 2021-05-05 13:15:09.673
76.0, 361.706298828125, -1805.588134765625, 456.10137939453125, 521.7440795898438, -0.08000000566244125, 0.04800000041723251, 1.055999994277954, 0.0, 0.0, 0.0, 0.0, 0.0, 1.6202133096742444E9, 2021-05-05 13:15:09.674
76.0, 347.18426513671875, -1718.7252197265625, 414.1770935058594, 468.2522888183594, -0.08000000566244125, 0.04800000041723251, 1.055999994277954, 0.0, 0.0, 0.0, 0.0, 0.0, 1.6202133096742444E9, 2021-05-05 13:15:09.674
77.0, 342.0269470214844, -1801.866943359375, 435.3860778808594, 493.5602111816406, -0.08000000566244125, 0.04800000041723251, 1.055999994277954, 0.0, 0.0, 0.0, 0.0, 0.0, 1.6202133096882133E9, 2021-05-05 13:15:09.688
77.0, 352.2742614746094, -1735.981201171875, 429.72760009765625, 487.8306884765625, -0.08000000566244125, 0.04800000041723251, 1.055999994277954, 0.0, 0.0, 0.0, 0.0, 0.0, 1.6202133096882133E9, 2021-05-05 13:15:09.688
