Sample Index, EXG Channel 0, EXG Channel 1, EXG Channel 2, EXG Channel 3, Accel Channel 0, Accel Channel 1, Accel Channel 2, Other, Other, Other, Other, Other, Timestamp, Timestamp (Formatted)
0.0, 557.6920166015625, -729.059814453125, 379.3698425292969, 153.9324188232422, 0.0, 0.0, 0.0, 0.0, 0.0, 0.0, 0.0, 0.0, 1.6202164440600476E9, 2021-05-05 14:07:24.060
1.0, 589.5111083984375, -711.1456909179688, 390.6044921875, 178.46615600585938, 0.0, 0.06400000303983688, 0.0, 0.0, 0.0, 0.0, 0.0, 0.0, 1.6202164440733154E9, 2021-05-05 14:07:24.073
1.0, 500.7183837890625, -788.4756469726562, 333.6346130371094, 84.6021499633789, 0.0, 0.06400000303983688, 0.0, 0.0, 0.0, 0.0, 0.0, 0.0, 1.6202164440733154E9, 2021-05-05 14:07:24.073
2.0, 536.3782958984375, -749.7714233398438, 367.304931640625, 118.32482147216797, -0.14400000870227814, 0.06400000303983688, 0.0, 0.0, 0.0, 0.0, 0.0, 0.0, 1.6202164440900764E9, 2021-05-05 14:07:24.090
2.0, 565.3700561523438, -724.09326171875, 374.35089111328125, 143.46817016601562, -0.14400000870227814, 0.06400000303983688, 0.0, 0.0, 0.0, 0.0, 0.0, 0.0, 1.6202164440900764E9, 2021-05-05 14:07:24.090
3.0, 590.6181030273438, -717.48486328125, 387.32086181640625, 177.4152374267578, -0.14400000870227814, 0.06400000303983688, 0.0, 0.0, 0.0, 0.0, 0.0, 0.0, 1.6202164440907388E9, 2021-05-05 14:07:24.090
3.0, 500.2135009765625, -792.1295166015625, 330.41455078125, 75.11402130126953, -0.14400000870227814, 0.06400000303983688, 0.0, 0.0, 0.0, 0.0, 0.0, 0.0, 1.6202164440907388E9, 2021-05-05 14:07:24.090
4.0, 540.7352905273438, -743.1031494140625, 365.27789306640625, 115.57225799560547, -0.14400000870227814, 0.06400000303983688, 0.0, 0.0, 0.0, 0.0, 0.0, 0.0, 1.6202164441032388E9, 2021-05-05 14:07:24.103
4.0, 562.8418579101562, -719.9906005859375, 386.21759033203125, 152.03628540039062, -0.14400000870227814, 0.06400000303983688, 0.0, 0.0, 0.0, 0.0, 0.0, 0.0, 1.6202164441032388E9, 2021-05-05 14:07:24.103
5.0, 585.4533081054688, -718.9022827148438, 394.8605041503906, 164.71080017089844, -0.14400000870227814, 0.06400000303983688, 0.0, 0.0, 0.0, 0.0, 0.0, 0.0, 1.6202164441189795E9, 2021-05-05 14:07:24.118
5.0, 504.09552001953125, -779.249267578125, 344.3980407714844, 79.28775024414062, -0.14400000870227814, 0.06400000303983688, 0.0, 0.0, 0.0, 0.0, 0.0, 0.0, 1.6202164441189795E9, 2021-05-05 14:07:24.118
6.0, 535.1404418945312, -736.2366943359375, 379.94580078125, 121.3990249633789, -0.14400000870227814, 0.06400000303983688, 0.0, 0.0, 0.0, 0.0, 0.0, 0.0, 1.620216444119688E9, 2021-05-05 14:07:24.119
6.0, 562.9241333007812, -722.4102783203125, 392.1715087890625, 149.3846893310547, -0.14400000870227814, 0.06400000303983688, 0.0, 0.0, 0.0, 0.0, 0.0, 0.0, 1.620216444119688E9, 2021-05-05 14:07:24.119
7.0, 589.6494750976562, -718.588134765625, 406.3195495605469, 179.93594360351562, -0.14400000870227814, 0.06400000303983688, 0.0, 0.0, 0.0, 0.0, 0.0, 0.0, 1.6202164441503253E9, 2021-05-05 14:07:24.150
7.0, 508.2729797363281, -777.1511840820312, 354.97821044921875, 90.29053497314453, -0.14400000870227814, 0.06400000303983688, 0.0, 0.0, 0.0, 0.0, 0.0, 0.0, 1.6202164441503253E9, 2021-05-05 14:07:24.150
8.0, 541.4945068359375, -735.1782836914062, 383.20697021484375, 124.4283447265625, -0.14400000870227814, 0.06400000303983688, 0.0, 0.0, 0.0, 0.0, 0.0, 0.0, 1.6202164441510422E9, 2021-05-05 14:07:24.151
8.0, 565.3775024414062, -722.2307739257812, 388.9178161621094, 146.5087127685547, -0.14400000870227814, 0.06400000303983688, 0.0, 0.0, 0.0, 0.0, 0.0, 0.0, 1.6202164441510422E9, 2021-05-05 14:07:24.151
9.0, 582.9887084960938, -713.9094848632812, 394.8343200683594, 173.87356567382812, -0.14400000870227814, 0.06400000303983688, 0.0, 0.0, 0.0, 0.0, 0.0, 0.0, 1.620216444151774E9, 2021-05-05 14:07:24.151
9.0, 504.1329040527344, -776.4743041992188, 346.85888671875, 92.49333953857422, -0.14400000870227814, 0.06400000303983688, 0.0, 0.0, 0.0, 0.0, 0.0, 0.0, 1.620216444151774E9, 2021-05-05 14:07:24.151
10.0, 534.9309692382812, -739.2921752929688, 374.56781005859375, 131.0816192626953, -0.14400000870227814, 0.06400000303983688, 1.040000081062317, 0.0, 0.0, 0.0, 0.0, 0.0, 1.6202164441632397E9, 2021-05-05 14:07:24.163
10.0, 552.1943359375, -730.4360961914062, 373.068115234375, 148.2066192626953, -0.14400000870227814, 0.06400000303983688, 1.040000081062317, 0.0, 0.0, 0.0, 0.0, 0.0, 1.6202164441632397E9, 2021-05-05 14:07:24.163
11.0, 576.4176635742188, -722.473876953125, 388.5400695800781, 175.855712890625, -0.14400000870227814, 0.06400000303983688, 1.040000081062317, 0.0, 0.0, 0.0, 0.0, 0.0, 1.6202164441788592E9, 2021-05-05 14:07:24.178
11.0, 501.4476623535156, -775.2476196289062, 339.6184387207031, 93.90327453613281, -0.14400000870227814, 0.06400000303983688, 1.040000081062317, 0.0, 0.0, 0.0, 0.0, 0.0, 1.6202164441788592E9, 2021-05-05 14:07:24.178
12.0, 531.6959838867188, -750.6390380859375, 363.4827575683594, 123.0071792602539, -0.14400000870227814, 0.06400000303983688, 1.040000081062317, 0.0, 0.0, 0.0, 0.0, 0.0, 1.6202164441795805E9, 2021-05-05 14:07:24.179
12.0, 549.5577392578125, -728.3941650390625, 374.0554504394531, 142.50328063964844, -0.14400000870227814, 0.06400000303983688, 1.040000081062317, 0.0, 0.0, 0.0, 0.0, 0.0, 1.6202164441795805E9, 2021-05-05 14:07:24.179
13.0, 576.8851928710938, -718.6778564453125, 388.4540710449219, 166.92108154296875, -0.14400000870227814, 0.06400000303983688, 1.040000081062317, 0.0, 0.0, 0.0, 0.0, 0.0, 1.6202164442095604E9, 2021-05-05 14:07:24.209
13.0, 501.9749755859375, -776.2985229492188, 341.4771728515625, 91.76031494140625, -0.14400000870227814, 0.06400000303983688, 1.040000081062317, 0.0, 0.0, 0.0, 0.0, 0.0, 1.6202164442095604E9, 2021-05-05 14:07:24.209
14.0, 525.11376953125, -738.0243530273438, 362.1887512207031, 117.56188201904297, -0.14400000870227814, 0.06400000303983688, 1.040000081062317, 0.0, 0.0, 0.0, 0.0, 0.0, 1.6202164442102833E9, 2021-05-05 14:07:24.210
14.0, 548.6077880859375, -729.0261840820312, 373.6178894042969, 146.05618286132812, -0.14400000870227814, 0.06400000303983688, 1.040000081062317, 0.0, 0.0, 0.0, 0.0, 0.0, 1.6202164442102833E9, 2021-05-05 14:07:24.210
15.0, 576.3765258789062, -717.7503662109375, 389.26934814453125, 163.813232421875, -0.14400000870227814, 0.06400000303983688, 1.040000081062317, 0.0, 0.0, 0.0, 0.0, 0.0, 1.6202164442111104E9, 2021-05-05 14:07:24.211
15.0, 503.964599609375, -772.8428344726562, 341.67913818359375, 88.70855712890625, -0.14400000870227814, 0.06400000303983688, 1.040000081062317, 0.0, 0.0, 0.0, 0.0, 0.0, 1.6202164442111104E9, 2021-05-05 14:07:24.211
16.0, 519.6123657226562, -737.96826171875, 359.9635009765625, 101.1063232421875, -0.14400000870227814, 0.06400000303983688, 1.040000081062317, 0.0, 0.0, 0.0, 0.0, 0.0, 1.6202164442232416E9, 2021-05-05 14:07:24.223
16.0, 546.9622192382812, -718.0794677734375, 380.54791259765625, 134.90005493164062, -0.14400000870227814, 0.06400000303983688, 1.040000081062317, 0.0, 0.0, 0.0, 0.0, 0.0, 1.6202164442232416E9, 2021-05-05 14:07:24.223
17.0, 569.0164184570312, -718.2103881835938, 384.7627868652344, 154.09323120117188, -0.14400000870227814, 0.06400000303983688, 1.040000081062317, 0.0, 0.0, 0.0, 0.0, 0.0, 1.6202164442388065E9, 2021-05-05 14:07:24.238
17.0, 507.69329833984375, -774.002197265625, 353.02972412109375, 80.60419464111328, -0.14400000870227814, 0.06400000303983688, 1.040000081062317, 0.0, 0.0, 0.0, 0.0, 0.0, 1.6202164442388065E9, 2021-05-05 14:07:24.238
18.0, 536.359619140625, -737.8485717773438, 377.97113037109375, 111.09185791015625, -0.14400000870227814, 0.06400000303983688, 1.040000081062317, 0.0, 0.0, 0.0, 0.0, 0.0, 1.620216444239628E9, 2021-05-05 14:07:24.239
18.0, 559.5357666015625, -720.1289672851562, 388.338134765625, 134.7691650390625, -0.14400000870227814, 0.06400000303983688, 1.040000081062317, 0.0, 0.0, 0.0, 0.0, 0.0, 1.620216444239628E9, 2021-05-05 14:07:24.239
19.0, 587.4429321289062, -715.6710205078125, 403.9073181152344, 166.6106719970703, -0.14400000870227814, 0.06400000303983688, 1.040000081062317, 0.0, 0.0, 0.0, 0.0, 0.0, 1.620216444269522E9, 2021-05-05 14:07:24.269
19.0, 513.778076171875, -770.5652465820312, 358.9237976074219, 92.68781280517578, -0.14400000870227814, 0.06400000303983688, 1.040000081062317, 0.0, 0.0, 0.0, 0.0, 0.0, 1.620216444269522E9, 2021-05-05 14:07:24.269
20.0, 532.8665771484375, -737.0856323242188, 378.91357421875, 117.57310485839844, -0.14400000870227814, 0.06400000303983688, 1.040000081062317, 0.0, 0.0, 0.0, 0.0, 0.0, 1.6202164442702332E9, 2021-05-05 14:07:24.270
20.0, 553.1741943359375, -722.451416015625, 388.2333984375, 147.22303771972656, -0.14400000870227814, 0.06400000303983688, 1.040000081062317, 0.0, 0.0, 0.0, 0.0, 0.0, 1.6202164442702332E9, 2021-05-05 14:07:24.270
21.0, 578.448486328125, -709.3019409179688, 398.12542724609375, 172.0671844482422, -0.14400000870227814, 0.06400000303983688, 1.040000081062317, 0.0, 0.0, 0.0, 0.0, 0.0, 1.6202164442709904E9, 2021-05-05 14:07:24.270
21.0, 513.0114135742188, -763.1116333007812, 358.8527526855469, 98.61555480957031, -0.14400000870227814, 0.06400000303983688, 1.040000081062317, 0.0, 0.0, 0.0, 0.0, 0.0, 1.6202164442709904E9, 2021-05-05 14:07:24.270
22.0, 532.6421508789062, -750.0892944335938, 370.0986328125, 107.75960540771484, -0.14400000870227814, 0.06400000303983688, 1.040000081062317, 0.0, 0.0, 0.0, 0.0, 0.0, 1.6202164442831547E9, 2021-05-05 14:07:24.283
22.0, 561.2860717773438, -719.8671875, 382.7095642089844, 142.86978149414062, -0.14400000870227814, 0.06400000303983688, 1.040000081062317, 0.0, 0.0, 0.0, 0.0, 0.0, 1.6202164442831547E9, 2021-05-05 14:07:24.283
23.0, 579.0543212890625, -718.1243896484375, 384.9123840332031, 159.21688842773438, -0.14400000870227814, 0.06400000303983688, 1.040000081062317, 0.0, 0.0, 0.0, 0.0, 0.0, 1.6202164442992327E9, 2021-05-05 14:07:24.299
23.0, 507.96630859375, -766.9786987304688, 345.41156005859375, 78.12464141845703, -0.14400000870227814, 0.06400000303983688, 1.040000081062317, 0.0, 0.0, 0.0, 0.0, 0.0, 1.6202164442992327E9, 2021-05-05 14:07:24.299
24.0, 528.1355590820312, -736.7565307617188, 372.63427734375, 107.67359161376953, -0.14400000870227814, 0.06400000303983688, 1.040000081062317, 0.0, 0.0, 0.0, 0.0, 0.0, 1.6202164443153741E9, 2021-05-05 14:07:24.315
24.0, 554.3148803710938, -717.1707153320312, 380.2337646484375, 141.4972381591797, -0.14400000870227814, 0.06400000303983688, 1.040000081062317, 0.0, 0.0, 0.0, 0.0, 0.0, 1.6202164443153741E9, 2021-05-05 14:07:24.315
25.0, 576.8141479492188, -716.4675903320312, 392.5716857910156, 163.02037048339844, -0.14400000870227814, 0.06400000303983688, 1.040000081062317, 0.0, 0.0, 0.0, 0.0, 0.0, 1.620216444316048E9, 2021-05-05 14:07:24.316
25.0, 501.9749755859375, -757.1689453125, 352.85394287109375, 93.61156463623047, -0.14400000870227814, 0.06400000303983688, 1.040000081062317, 0.0, 0.0, 0.0, 0.0, 0.0, 1.620216444316048E9, 2021-05-05 14:07:24.316
26.0, 523.7486572265625, -731.617919921875, 371.6581726074219, 111.73138427734375, -0.14400000870227814, 0.06400000303983688, 1.040000081062317, 0.0, 0.0, 0.0, 0.0, 0.0, 1.6202164443167622E9, 2021-05-05 14:07:24.316
26.0, 553.3275756835938, -717.4736328125, 377.37274169921875, 140.2032470703125, -0.14400000870227814, 0.06400000303983688, 1.040000081062317, 0.0, 0.0, 0.0, 0.0, 0.0, 1.6202164443167622E9, 2021-05-05 14:07:24.316
27.0, 575.1236572265625, -702.637451171875, 392.2986755371094, 163.297119140625, -0.14400000870227814, 0.06400000303983688, 1.040000081062317, 0.0, 0.0, 0.0, 0.0, 0.0, 1.6202164443283665E9, 2021-05-05 14:07:24.328
27.0, 518.6661376953125, -757.7710571289062, 356.13385009765625, 102.62472534179688, -0.14400000870227814, 0.06400000303983688, 1.040000081062317, 0.0, 0.0, 0.0, 0.0, 0.0, 1.6202164443283665E9, 2021-05-05 14:07:24.328
28.0, 529.9569091796875, -727.8630981445312, 368.0192565917969, 113.43303680419922, -0.14400000870227814, 0.06400000303983688, 1.040000081062317, 0.0, 0.0, 0.0, 0.0, 0.0, 1.620216444343242E9, 2021-05-05 14:07:24.343
28.0, 551.3566284179688, -714.0516357421875, 376.9351806640625, 134.0062255859375, -0.14400000870227814, 0.06400000303983688, 1.040000081062317, 0.0, 0.0, 0.0, 0.0, 0.0, 1.620216444343242E9, 2021-05-05 14:07:24.343
29.0, 570.1907348632812, -704.9786376953125, 384.9123840332031, 159.16453552246094, -0.14400000870227814, 0.06400000303983688, 1.040000081062317, 0.0, 0.0, 0.0, 0.0, 0.0, 1.6202164443590105E9, 2021-05-05 14:07:24.359
29.0, 524.152587890625, -746.7570190429688, 356.025390625, 106.70869445800781, -0.14400000870227814, 0.06400000303983688, 1.040000081062317, 0.0, 0.0, 0.0, 0.0, 0.0, 1.6202164443590105E9, 2021-05-05 14:07:24.359
30.0, 524.3021850585938, -723.6631469726562, 364.4364318847656, 117.56562805175781, -0.14400000870227814, 0.06400000303983688, 1.040000081062317, 0.0, 0.0, 0.0, 0.0, 0.0, 1.6202164443596375E9, 2021-05-05 14:07:24.359
30.0, 543.0390625, -706.0744018554688, 374.6239013671875, 138.69979858398438, -0.14400000870227814, 0.06400000303983688, 1.040000081062317, 0.0, 0.0, 0.0, 0.0, 0.0, 1.6202164443596375E9, 2021-05-05 14:07:24.359
31.0, 566.5817260742188, -697.603515625, 386.37841796875, 155.9706573486328, -0.14400000870227814, 0.06400000303983688, 1.040000081062317, 0.0, 0.0, 0.0, 0.0, 0.0, 1.6202164443731527E9, 2021-05-05 14:07:24.373
31.0, 518.224853515625, -740.0364379882812, 360.861083984375, 107.94286346435547, -0.14400000870227814, 0.06400000303983688, 1.040000081062317, 0.0, 0.0, 0.0, 0.0, 0.0, 1.6202164443731527E9, 2021-05-05 14:07:24.373
32.0, 524.8070678710938, -734.2732543945312, 362.3944396972656, 104.8163070678711, -0.14400000870227814, 0.06400000303983688, 1.040000081062317, 0.0, 0.0, 0.0, 0.0, 0.0, 1.620216444389007E9, 2021-05-05 14:07:24.389
32.0, 535.8211059570312, -710.4837646484375, 367.39093017578125, 123.85614013671875, -0.14400000870227814, 0.06400000303983688, 1.040000081062317, 0.0, 0.0, 0.0, 0.0, 0.0, 1.620216444389007E9, 2021-05-05 14:07:24.389
33.0, 548.7611083984375, -712.144287109375, 369.3955383300781, 128.882568359375, -0.14400000870227814, 0.06400000303983688, 1.040000081062317, 0.0, 0.0, 0.0, 0.0, 0.0, 1.6202164443896425E9, 2021-05-05 14:07:24.389
33.0, 522.005859375, -731.7039184570312, 359.59326171875, 106.40202331542969, -0.14400000870227814, 0.06400000303983688, 1.040000081062317, 0.0, 0.0, 0.0, 0.0, 0.0, 1.6202164443896425E9, 2021-05-05 14:07:24.389
34.0, 524.635009765625, -724.5382690429688, 369.3431701660156, 104.52833557128906, -0.14400000870227814, 0.06400000303983688, 1.040000081062317, 0.0, 0.0, 0.0, 0.0, 0.0, 1.620216444403221E9, 2021-05-05 14:07:24.403
34.0, 530.8582153320312, -712.4135131835938, 367.809814453125, 115.23941040039062, -0.14400000870227814, 0.06400000303983688, 1.040000081062317, 0.0, 0.0, 0.0, 0.0, 0.0, 1.620216444403221E9, 2021-05-05 14:07:24.403
35.0, 549.0790405273438, -697.5960693359375, 375.00164794921875, 139.8068084716797, -0.14400000870227814, 0.06400000303983688, 1.040000081062317, 0.0, 0.0, 0.0, 0.0, 0.0, 1.620216444418943E9, 2021-05-05 14:07:24.418
35.0, 529.433349609375, -738.1178588867188, 364.5635681152344, 107.48285675048828, -0.14400000870227814, 0.06400000303983688, 1.040000081062317, 0.0, 0.0, 0.0, 0.0, 0.0, 1.620216444418943E9, 2021-05-05 14:07:24.418
36.0, 524.4630126953125, -731.3262329101562, 367.6938781738281, 112.11285400390625, -0.14400000870227814, 0.06400000303983688, 1.040000081062317, 0.0, 0.0, 0.0, 0.0, 0.0, 1.6202164444197E9, 2021-05-05 14:07:24.419
36.0, 537.9266357421875, -723.203125, 365.1881408691406, 123.60182189941406, -0.14400000870227814, 0.06400000303983688, 1.040000081062317, 0.0, 0.0, 0.0, 0.0, 0.0, 1.6202164444197E9, 2021-05-05 14:07:24.419
37.0, 561.7610473632812, -718.8349609375, 377.2829895019531, 144.3919219970703, -0.14400000870227814, 0.06400000303983688, 1.040000081062317, 0.0, 0.0, 0.0, 0.0, 0.0, 1.620216444433153E9, 2021-05-05 14:07:24.433
37.0, 536.59521484375, -743.4397583007812, 367.3572692871094, 119.36451721191406, -0.14400000870227814, 0.06400000303983688, 1.040000081062317, 0.0, 0.0, 0.0, 0.0, 0.0, 1.620216444433153E9, 2021-05-05 14:07:24.433
38.0, 533.5210571289062, -732.451904296875, 365.74163818359375, 118.13783264160156, -0.14400000870227814, 0.06400000303983688, 1.040000081062317, 0.0, 0.0, 0.0, 0.0, 0.0, 1.6202164444489374E9, 2021-05-05 14:07:24.448
38.0, 539.2206420898438, -715.5550537109375, 364.8179016113281, 129.81005859375, -0.14400000870227814, 0.06400000303983688, 1.040000081062317, 0.0, 0.0, 0.0, 0.0, 0.0, 1.6202164444489374E9, 2021-05-05 14:07:24.448
39.0, 555.4592895507812, -714.9791259765625, 369.0327453613281, 142.98947143554688, -0.14400000870227814, 0.06400000303983688, 1.040000081062317, 0.0, 0.0, 0.0, 0.0, 0.0, 1.6202164444496632E9, 2021-05-05 14:07:24.449
39.0, 533.0348510742188, -740.1336669921875, 364.13348388671875, 118.7661361694336, -0.14400000870227814, 0.06400000303983688, 1.040000081062317, 0.0, 0.0, 0.0, 0.0, 0.0, 1.6202164444496632E9, 2021-05-05 14:07:24.449
40.0, 531.85302734375, -735.46630859375, 368.98040771484375, 114.37174987792969, -0.14400000870227814, 0.06400000303983688, 1.040000081062317, 0.0, 0.0, 0.0, 0.0, 0.0, 1.6202164444632237E9, 2021-05-05 14:07:24.463
40.0, 534.7477416992188, -723.4500122070312, 366.9720764160156, 127.74563598632812, -0.14400000870227814, 0.06400000303983688, 1.040000081062317, 0.0, 0.0, 0.0, 0.0, 0.0, 1.6202164444632237E9, 2021-05-05 14:07:24.463
41.0, 556.8692626953125, -718.2328491210938, 372.4510192871094, 138.34451293945312, -0.14400000870227814, 0.06400000303983688, 1.040000081062317, 0.0, 0.0, 0.0, 0.0, 0.0, 1.620216444478878E9, 2021-05-05 14:07:24.478
41.0, 532.2905883789062, -735.7280883789062, 366.53076171875, 115.19452667236328, -0.14400000870227814, 0.06400000303983688, 1.040000081062317, 0.0, 0.0, 0.0, 0.0, 0.0, 1.620216444478878E9, 2021-05-05 14:07:24.478
42.0, 523.1241455078125, -729.8078002929688, 372.05084228515625, 102.77432250976562, -0.14400000870227814, 0.06400000303983688, 1.040000081062317, 0.0, 0.0, 0.0, 0.0, 0.0, 1.6202164444796543E9, 2021-05-05 14:07:24.479
42.0, 537.1076049804688, -714.5602416992188, 373.924560546875, 116.35763549804688, -0.14400000870227814, 0.06400000303983688, 1.040000081062317, 0.0, 0.0, 0.0, 0.0, 0.0, 1.6202164444796543E9, 2021-05-05 14:07:24.479
43.0, 551.8502807617188, -719.5380249023438, 377.2007141113281, 131.68374633789062, -0.14400000870227814, 0.06400000303983688, 1.040000081062317, 0.0, 0.0, 0.0, 0.0, 0.0, 1.6202164444933307E9, 2021-05-05 14:07:24.493
43.0, 527.0734252929688, -736.82763671875, 371.62823486328125, 106.05795288085938, -0.14400000870227814, 0.06400000303983688, 1.040000081062317, 0.0, 0.0, 0.0, 0.0, 0.0, 1.6202164444933307E9, 2021-05-05 14:07:24.493
44.0, 523.6028442382812, -725.794921875, 374.51544189453125, 104.66670989990234, -0.14400000870227814, 0.06400000303983688, 1.040000081062317, 0.0, 0.0, 0.0, 0.0, 0.0, 1.6202164445094635E9, 2021-05-05 14:07:24.509
44.0, 536.2698364257812, -722.8328857421875, 374.2349548339844, 108.78433990478516, -0.14400000870227814, 0.06400000303983688, 1.040000081062317, 0.0, 0.0, 0.0, 0.0, 0.0, 1.6202164445094635E9, 2021-05-05 14:07:24.509
45.0, 558.0211181640625, -714.866943359375, 381.0976867675781, 133.10116577148438, -0.14400000870227814, 0.06400000303983688, 1.040000081062317, 0.0, 0.0, 0.0, 0.0, 0.0, 1.6202164445238504E9, 2021-05-05 14:07:24.523
45.0, 534.9197387695312, -733.3607177734375, 373.7599792480469, 109.33784484863281, -0.14400000870227814, 0.06400000303983688, 1.040000081062317, 0.0, 0.0, 0.0, 0.0, 0.0, 1.6202164445238504E9, 2021-05-05 14:07:24.523
46.0, 536.1539306640625, -730.8848876953125, 380.67132568359375, 113.18246459960938, -0.14400000870227814, 0.06400000303983688, 1.040000081062317, 0.0, 0.0, 0.0, 0.0, 0.0, 1.6202164445246284E9, 2021-05-05 14:07:24.524
46.0, 547.3511962890625, -724.44482421875, 373.99560546875, 125.81210327148438, -0.14400000870227814, 0.06400000303983688, 1.040000081062317, 0.0, 0.0, 0.0, 0.0, 0.0, 1.6202164445246284E9, 2021-05-05 14:07:24.524
47.0, 563.9451293945312, -718.5507202148438, 378.8836669921875, 148.11312866210938, -0.14400000870227814, 0.06400000303983688, 1.040000081062317, 0.0, 0.0, 0.0, 0.0, 0.0, 1.6202164445388677E9, 2021-05-05 14:07:24.538
47.0, 540.8512573242188, -745.515380859375, 369.57879638671875, 120.55380249023438, -0.14400000870227814, 0.06400000303983688, 1.040000081062317, 0.0, 0.0, 0.0, 0.0, 0.0, 1.6202164445388677E9, 2021-05-05 14:07:24.538
48.0, 535.5704956054688, -736.2890625, 373.1429138183594, 119.716064453125, -0.14400000870227814, 0.06400000303983688, 1.040000081062317, 0.0, 0.0, 0.0, 0.0, 0.0, 1.6202164445397227E9, 2021-05-05 14:07:24.539
48.0, 550.8517456054688, -726.59521484375, 374.1526794433594, 135.44235229492188, -0.14400000870227814, 0.06400000303983688, 1.040000081062317, 0.0, 0.0, 0.0, 0.0, 0.0, 1.6202164445397227E9, 2021-05-05 14:07:24.539
49.0, 564.7379760742188, -725.0394287109375, 376.9463806152344, 150.4617919921875, -0.14400000870227814, 0.06400000303983688, 1.040000081062317, 0.0, 0.0, 0.0, 0.0, 0.0, 1.620216444569523E9, 2021-05-05 14:07:24.569
49.0, 542.6651000976562, -741.8801879882812, 369.06268310546875, 126.95651245117188, -0.14400000870227814, 0.06400000303983688, 1.040000081062317, 0.0, 0.0, 0.0, 0.0, 0.0, 1.620216444569523E9, 2021-05-05 14:07:24.569
50.0, 536.2511596679688, -740.4291381835938, 368.98040771484375, 116.60820770263672, -0.14400000870227814, 0.06400000303983688, 1.055999994277954, 0.0, 0.0, 0.0, 0.0, 0.0, 1.62021644457027E9, 2021-05-05 14:07:24.570
50.0, 543.4766235351562, -726.3222045898438, 370.9812316894531, 121.02129364013672, -0.14400000870227814, 0.06400000303983688, 1.055999994277954, 0.0, 0.0, 0.0, 0.0, 0.0, 1.62021644457027E9, 2021-05-05 14:07:24.570
51.0, 563.2644653320312, -719.3248901367188, 381.366943359375, 142.84735107421875, -0.14400000870227814, 0.06400000303983688, 1.055999994277954, 0.0, 0.0, 0.0, 0.0, 0.0, 1.6202164445709734E9, 2021-05-05 14:07:24.570
51.0, 533.9623413085938, -748.6082763671875, 369.8854675292969, 111.95203399658203, -0.14400000870227814, 0.06400000303983688, 1.055999994277954, 0.0, 0.0, 0.0, 0.0, 0.0, 1.6202164445709734E9, 2021-05-05 14:07:24.570
52.0, 529.1565551757812, -738.2861938476562, 366.13433837890625, 107.31455993652344, -0.14400000870227814, 0.06400000303983688, 1.055999994277954, 0.0, 0.0, 0.0, 0.0, 0.0, 1.6202164445833151E9, 2021-05-05 14:07:24.583
52.0, 538.379150390625, -723.0460815429688, 371.8638610839844, 117.1056137084961, -0.14400000870227814, 0.06400000303983688, 1.055999994277954, 0.0, 0.0, 0.0, 0.0, 0.0, 1.6202164445833151E9, 2021-05-05 14:07:24.583
53.0, 559.8349609375, -712.21533203125, 378.7452697753906, 133.8865509033203, -0.14400000870227814, 0.06400000303983688, 1.055999994277954, 0.0, 0.0, 0.0, 0.0, 0.0, 1.6202164445989697E9, 2021-05-05 14:07:24.598
53.0, 530.4281616210938, -737.6466674804688, 366.613037109375, 112.41577911376953, -0.14400000870227814, 0.06400000303983688, 1.055999994277954, 0.0, 0.0, 0.0, 0.0, 0.0, 1.6202164445989697E9, 2021-05-05 14:07:24.598
54.0, 528.8611450195312, -736.700439453125, 371.13458251953125, 116.74284362792969, -0.14400000870227814, 0.06400000303983688, 1.055999994277954, 0.0, 0.0, 0.0, 0.0, 0.0, 1.6202164445995967E9, 2021-05-05 14:07:24.599
54.0, 541.1953125, -719.48193359375, 372.1181640625, 122.46863555908203, -0.14400000870227814, 0.06400000303983688, 1.055999994277954, 0.0, 0.0, 0.0, 0.0, 0.0, 1.6202164445995967E9, 2021-05-05 14:07:24.599
55.0, 564.846435546875, -722.8441162109375, 380.368408203125, 141.19430541992188, -0.14400000870227814, 0.06400000303983688, 1.055999994277954, 0.0, 0.0, 0.0, 0.0, 0.0, 1.620216444613356E9, 2021-05-05 14:07:24.613
55.0, 541.3561401367188, -744.0905151367188, 378.0234680175781, 120.6959228515625, -0.14400000870227814, 0.06400000303983688, 1.055999994277954, 0.0, 0.0, 0.0, 0.0, 0.0, 1.620216444613356E9, 2021-05-05 14:07:24.613
56.0, 543.9478759765625, -740.3281860351562, 375.7608337402344, 116.74284362792969, -0.14400000870227814, 0.06400000303983688, 1.055999994277954, 0.0, 0.0, 0.0, 0.0, 0.0, 1.6202164446293347E9, 2021-05-05 14:07:24.629
56.0, 548.5255126953125, -726.3222045898438, 371.882568359375, 122.82018280029297, -0.14400000870227814, 0.06400000303983688, 1.055999994277954, 0.0, 0.0, 0.0, 0.0, 0.0, 1.6202164446293347E9, 2021-05-05 14:07:24.629
57.0, 564.2742309570312, -720.970458984375, 379.59423828125, 144.79957580566406, -0.14400000870227814, 0.06400000303983688, 1.055999994277954, 0.0, 0.0, 0.0, 0.0, 0.0, 1.620216444643845E9, 2021-05-05 14:07:24.643
57.0, 539.5497436523438, -744.9244995117188, 366.1717224121094, 114.53630828857422, -0.14400000870227814, 0.06400000303983688, 1.055999994277954, 0.0, 0.0, 0.0, 0.0, 0.0, 1.620216444643845E9, 2021-05-05 14:07:24.643
58.0, 531.841796875, -729.8938598632812, 369.7956848144531, 120.6772232055664, -0.14400000870227814, 0.06400000303983688, 1.055999994277954, 0.0, 0.0, 0.0, 0.0, 0.0, 1.6202164446445537E9, 2021-05-05 14:07:24.644
58.0, 533.0161743164062, -729.36279296875, 368.4830017089844, 128.22433471679688, -0.14400000870227814, 0.06400000303983688, 1.055999994277954, 0.0, 0.0, 0.0, 0.0, 0.0, 1.6202164446445537E9, 2021-05-05 14:07:24.644
59.0, 555.1414184570312, -721.4865112304688, 377.4737243652344, 147.099609375, -0.14400000870227814, 0.06400000303983688, 1.055999994277954, 0.0, 0.0, 0.0, 0.0, 0.0, 1.6202164446760037E9, 2021-05-05 14:07:24.676
59.0, 528.6329956054688, -748.4811401367188, 374.4144592285156, 127.40904235839844, -0.14400000870227814, 0.06400000303983688, 1.055999994277954, 0.0, 0.0, 0.0, 0.0, 0.0, 1.6202164446760037E9, 2021-05-05 14:07:24.676
60.0, 522.5556640625, -738.4395141601562, 373.8086242675781, 121.08113098144531, -0.14400000870227814, 0.06400000303983688, 1.055999994277954, 0.0, 0.0, 0.0, 0.0, 0.0, 1.6202164446766503E9, 2021-05-05 14:07:24.676
60.0, 531.3855590820312, -729.587158203125, 366.7289733886719, 126.57130432128906, -0.14400000870227814, 0.06400000303983688, 1.055999994277954, 0.0, 0.0, 0.0, 0.0, 0.0, 1.6202164446766503E9, 2021-05-05 14:07:24.676
61.0, 556.1773681640625, -723.5210571289062, 374.57904052734375, 144.49290466308594, -0.14400000870227814, 0.06400000303983688, 1.055999994277954, 0.0, 0.0, 0.0, 0.0, 0.0, 1.6202164446774125E9, 2021-05-05 14:07:24.677
61.0, 533.6033325195312, -749.8985595703125, 367.37225341796875, 116.29032135009766, -0.14400000870227814, 0.06400000303983688, 1.055999994277954, 0.0, 0.0, 0.0, 0.0, 0.0, 1.6202164446774125E9, 2021-05-05 14:07:24.677
62.0, 531.9989013671875, -739.6848754882812, 375.5289611816406, 112.43074035644531, -0.14400000870227814, 0.06400000303983688, 1.055999994277954, 0.0, 0.0, 0.0, 0.0, 0.0, 1.620216444678164E9, 2021-05-05 14:07:24.678
62.0, 540.67919921875, -728.9924926757812, 374.13397216796875, 119.76094818115234, -0.14400000870227814, 0.06400000303983688, 1.055999994277954, 0.0, 0.0, 0.0, 0.0, 0.0, 1.620216444678164E9, 2021-05-05 14:07:24.678
63.0, 555.5341186523438, -722.4290161132812, 377.2119140625, 132.1400146484375, -0.14400000870227814, 0.06400000303983688, 1.055999994277954, 0.0, 0.0, 0.0, 0.0, 0.0, 1.6202164446882665E9, 2021-05-05 14:07:24.688
63.0, 527.2230224609375, -742.4299926757812, 364.8590393066406, 103.57839965820312, -0.14400000870227814, 0.06400000303983688, 1.055999994277954, 0.0, 0.0, 0.0, 0.0, 0.0, 1.6202164446882665E9, 2021-05-05 14:07:24.688
64.0, 533.835205078125, -733.56640625, 374.0292663574219, 108.94889831542969, -0.14400000870227814, 0.06400000303983688, 1.055999994277954, 0.0, 0.0, 0.0, 0.0, 0.0, 1.6202164447031474E9, 2021-05-05 14:07:24.703
64.0, 540.31640625, -737.6466674804688, 370.4763488769531, 121.0549545288086, -0.14400000870227814, 0.06400000303983688, 1.055999994277954, 0.0, 0.0, 0.0, 0.0, 0.0, 1.6202164447031474E9, 2021-05-05 14:07:24.703
65.0, 557.32177734375, -733.2672119140625, 383.75299072265625, 144.62379455566406, -0.14400000870227814, 0.06400000303983688, 1.055999994277954, 0.0, 0.0, 0.0, 0.0, 0.0, 1.62021644475006E9, 2021-05-05 14:07:24.750
65.0, 543.0428466796875, -736.6144409179688, 380.1589660644531, 122.06472778320312, -0.14400000870227814, 0.06400000303983688, 1.055999994277954, 0.0, 0.0, 0.0, 0.0, 0.0, 1.62021644475006E9, 2021-05-05 14:07:24.750
66.0, 542.298583984375, -752.5651245117188, 378.0384521484375, 115.33290100097656, -0.14400000870227814, 0.06400000303983688, 1.055999994277954, 0.0, 0.0, 0.0, 0.0, 0.0, 1.6202164447507894E9, 2021-05-05 14:07:24.750
66.0, 554.023193359375, -733.1063842773438, 380.3122863769531, 130.0643768310547, -0.14400000870227814, 0.06400000303983688, 1.055999994277954, 0.0, 0.0, 0.0, 0.0, 0.0, 1.6202164447507894E9, 2021-05-05 14:07:24.750
67.0, 571.2454223632812, -735.2418823242188, 384.6318664550781, 148.5843505859375, -0.14400000870227814, 0.06400000303983688, 1.055999994277954, 0.0, 0.0, 0.0, 0.0, 0.0, 1.6202164447515128E9, 2021-05-05 14:07:24.751
67.0, 545.1072387695312, -753.8815307617188, 377.5223388671875, 124.36476135253906, -0.14400000870227814, 0.06400000303983688, 1.055999994277954, 0.0, 0.0, 0.0, 0.0, 0.0, 1.6202164447515128E9, 2021-05-05 14:07:24.751
68.0, 543.9927368164062, -750.620361328125, 381.13507080078125, 121.31300354003906, -0.14400000870227814, 0.06400000303983688, 1.055999994277954, 0.0, 0.0, 0.0, 0.0, 0.0, 1.6202164447653487E9, 2021-05-05 14:07:24.765
68.0, 547.8560791015625, -734.2844848632812, 375.6785583496094, 132.4803466796875, -0.14400000870227814, 0.06400000303983688, 1.055999994277954, 0.0, 0.0, 0.0, 0.0, 0.0, 1.6202164447653487E9, 2021-05-05 14:07:24.765
69.0, 562.4716186523438, -732.792236328125, 381.22857666015625, 145.84300231933594, -0.14400000870227814, 0.06400000303983688, 1.055999994277954, 0.0, 0.0, 0.0, 0.0, 0.0, 1.620216444765952E9, 2021-05-05 14:07:24.765
69.0, 528.4160766601562, -750.1005249023438, 370.2332763671875, 118.34352111816406, -0.14400000870227814, 0.06400000303983688, 1.055999994277954, 0.0, 0.0, 0.0, 0.0, 0.0, 1.620216444765952E9, 2021-05-05 14:07:24.765
70.0, 528.8984985351562, -746.0763549804688, 376.5761413574219, 116.72040557861328, -0.14400000870227814, 0.06400000303983688, 1.055999994277954, 0.0, 0.0, 0.0, 0.0, 0.0, 1.6202164447666593E9, 2021-05-05 14:07:24.766
70.0, 537.369384765625, -733.22607421875, 375.57757568359375, 127.90644836425781, -0.14400000870227814, 0.06400000303983688, 1.055999994277954, 0.0, 0.0, 0.0, 0.0, 0.0, 1.6202164447666593E9, 2021-05-05 14:07:24.766
71.0, 558.013671875, -726.9281005859375, 376.04132080078125, 142.9034423828125, -0.14400000870227814, 0.06400000303983688, 1.055999994277954, 0.0, 0.0, 0.0, 0.0, 0.0, 1.6202164447673886E9, 2021-05-05 14:07:24.767
71.0, 540.4660034179688, -749.0496215820312, 365.954833984375, 112.61773681640625, -0.14400000870227814, 0.06400000303983688, 1.055999994277954, 0.0, 0.0, 0.0, 0.0, 0.0, 1.6202164447673886E9, 2021-05-05 14:07:24.767
72.0, 535.8696899414062, -739.1351318359375, 374.4930114746094, 111.49576568603516, -0.14400000870227814, 0.06400000303983688, 1.055999994277954, 0.0, 0.0, 0.0, 0.0, 0.0, 1.6202164447783647E9, 2021-05-05 14:07:24.778
72.0, 541.3860473632812, -724.998291015625, 373.7188415527344, 129.23037719726562, -0.14400000870227814, 0.06400000303983688, 1.055999994277954, 0.0, 0.0, 0.0, 0.0, 0.0, 1.6202164447783647E9, 2021-05-05 14:07:24.778
73.0, 563.6983032226562, -720.1102294921875, 378.7565002441406, 147.84385681152344, -0.14400000870227814, 0.06400000303983688, 1.055999994277954, 0.0, 0.0, 0.0, 0.0, 0.0, 1.6202164447932825E9, 2021-05-05 14:07:24.793
73.0, 543.0428466796875, -733.693603515625, 380.1739196777344, 126.24219512939453, -0.14400000870227814, 0.06400000303983688, 1.055999994277954, 0.0, 0.0, 0.0, 0.0, 0.0, 1.6202164447932825E9, 2021-05-05 14:07:24.793
74.0, 538.5624389648438, -739.1949462890625, 386.7112731933594, 132.62246704101562, -0.14400000870227814, 0.06400000303983688, 1.055999994277954, 0.0, 0.0, 0.0, 0.0, 0.0, 1.620216444808976E9, 2021-05-05 14:07:24.808
74.0, 549.2734985351562, -731.8198852539062, 385.3648986816406, 129.90354919433594, -0.14400000870227814, 0.06400000303983688, 1.055999994277954, 0.0, 0.0, 0.0, 0.0, 0.0, 1.620216444808976E9, 2021-05-05 14:07:24.808
75.0, 564.8427124023438, -726.3745727539062, 390.57830810546875, 157.0739288330078, -0.14400000870227814, 0.06400000303983688, 1.055999994277954, 0.0, 0.0, 0.0, 0.0, 0.0, 1.6202164448096378E9, 2021-05-05 14:07:24.809
75.0, 542.5491333007812, -744.7188110351562, 384.2354431152344, 135.490966796875, -0.14400000870227814, 0.06400000303983688, 1.055999994277954, 0.0, 0.0, 0.0, 0.0, 0.0, 1.6202164448096378E9, 2021-05-05 14:07:24.809
76.0, 543.2933959960938, -738.84716796875, 386.5653991699219, 134.9711151123047, -0.14400000870227814, 0.06400000303983688, 1.055999994277954, 0.0, 0.0, 0.0, 0.0, 0.0, 1.6202164448231897E9, 2021-05-05 14:07:24.823
76.0, 551.816650390625, -727.556396484375, 380.9518127441406, 139.6011199951172, -0.14400000870227814, 0.06400000303983688, 1.055999994277954, 0.0, 0.0, 0.0, 0.0, 0.0, 1.6202164448231897E9, 2021-05-05 14:07:24.823
77.0, 560.8596801757812, -731.5020141601562, 380.9742736816406, 151.04147338867188, -0.14400000870227814, 0.06400000303983688, 1.055999994277954, 0.0, 0.0, 0.0, 0.0, 0.0, 1.6202164448395493E9, 2021-05-05 14:07:24.839
77.0, 552.8413696289062, -742.3739013671875, 381.63623046875, 143.16897583007812, -0.14400000870227814, 0.06400000303983688, 1.055999994277954, 0.0, 0.0, 0.0, 0.0, 0.0, 1.6202164448395493E9, 2021-05-05 14:07:24.839
78.0, 544.3218994140625, -741.72314453125, 379.8634948730469, 130.9918670654297, -0.14400000870227814, 0.06400000303983688, 1.055999994277954, 0.0, 0.0, 0.0, 0.0, 0.0, 1.6202164448402126E9, 2021-05-05 14:07:24.840
78.0, 548.260009765625, -732.8932495117188, 376.7705993652344, 139.07379150390625, -0.14400000870227814, 0.06400000303983688, 1.055999994277954, 0.0, 0.0, 0.0, 0.0, 0.0, 1.6202164448402126E9, 2021-05-05 14:07:24.840
79.0, 555.7472534179688, -727.3619384765625, 379.6989440917969, 150.22616577148438, -0.14400000870227814, 0.06400000303983688, 1.055999994277954, 0.0, 0.0, 0.0, 0.0, 0.0, 1.620216444853218E9, 2021-05-05 14:07:24.853
79.0, 545.7879028320312, -740.6834716796875, 377.3876953125, 126.07015991210938, -0.14400000870227814, 0.06400000303983688, 1.055999994277954, 0.0, 0.0, 0.0, 0.0, 0.0, 1.620216444853218E9, 2021-05-05 14:07:24.853
80.0, 537.8555908203125, -736.1058349609375, 373.88714599609375, 120.00029754638672, -0.14400000870227814, 0.06400000303983688, 1.040000081062317, 0.0, 0.0, 0.0, 0.0, 0.0, 1.6202164448688474E9, 2021-05-05 14:07:24.868
80.0, 543.3494873046875, -726.5054931640625, 371.86761474609375, 134.41761779785156, -0.14400000870227814, 0.06400000303983688, 1.040000081062317, 0.0, 0.0, 0.0, 0.0, 0.0, 1.6202164448688474E9, 2021-05-05 14:07:24.868
81.0, 558.6270141601562, -720.6749877929688, 378.0159912109375, 140.2892608642578, -0.14400000870227814, 0.06400000303983688, 1.040000081062317, 0.0, 0.0, 0.0, 0.0, 0.0, 1.620216444869546E9, 2021-05-05 14:07:24.869
81.0, 546.2329711914062, -733.858154296875, 376.284423828125, 124.89956665039062, -0.14400000870227814, 0.06400000303983688, 1.040000081062317, 0.0, 0.0, 0.0, 0.0, 0.0, 1.620216444869546E9, 2021-05-05 14:07:24.869
82.0, 539.5310668945312, -731.9619750976562, 380.8283996582031, 116.31649780273438, -0.14400000870227814, 0.06400000303983688, 1.040000081062317, 0.0, 0.0, 0.0, 0.0, 0.0, 1.6202164448832674E9, 2021-05-05 14:07:24.883
82.0, 548.424560546875, -719.98681640625, 379.9046325683594, 129.6791534423828, -0.14400000870227814, 0.06400000303983688, 1.040000081062317, 0.0, 0.0, 0.0, 0.0, 0.0, 1.6202164448832674E9, 2021-05-05 14:07:24.883
83.0, 570.0261840820312, -721.2471923828125, 383.6221008300781, 139.7843780517578, -0.14400000870227814, 0.06400000303983688, 1.040000081062317, 0.0, 0.0, 0.0, 0.0, 0.0, 1.6202164448989058E9, 2021-05-05 14:07:24.898
83.0, 548.8171997070312, -739.6848754882812, 380.2113342285156, 127.56611633300781, -0.14400000870227814, 0.06400000303983688, 1.040000081062317, 0.0, 0.0, 0.0, 0.0, 0.0, 1.6202164448989058E9, 2021-05-05 14:07:24.898
84.0, 538.0164184570312, -740.9938354492188, 384.29156494140625, 122.1208267211914, -0.14400000870227814, 0.06400000303983688, 1.040000081062317, 0.0, 0.0, 0.0, 0.0, 0.0, 1.620216444899614E9, 2021-05-05 14:07:24.899
84.0, 547.0444946289062, -721.4865112304688, 379.8934326171875, 142.42848205566406, -0.14400000870227814, 0.06400000303983688, 1.040000081062317, 0.0, 0.0, 0.0, 0.0, 0.0, 1.620216444899614E9, 2021-05-05 14:07:24.899
85.0, 559.236572265625, -720.3458862304688, 381.68109130859375, 148.01214599609375, -0.14400000870227814, 0.06400000303983688, 1.040000081062317, 0.0, 0.0, 0.0, 0.0, 0.0, 1.620216444913254E9, 2021-05-05 14:07:24.913
85.0, 544.0638427734375, -743.4995727539062, 382.3094177246094, 135.4348602294922, -0.14400000870227814, 0.06400000303983688, 1.040000081062317, 0.0, 0.0, 0.0, 0.0, 0.0, 1.620216444913254E9, 2021-05-05 14:07:24.913
86.0, 536.6737670898438, -730.7053833007812, 383.4613037109375, 135.46478271484375, -0.14400000870227814, 0.06400000303983688, 1.040000081062317, 0.0, 0.0, 0.0, 0.0, 0.0, 1.6202164449290118E9, 2021-05-05 14:07:24.929
86.0, 538.9962768554688, -720.6862182617188, 377.63079833984375, 140.33787536621094, -0.14400000870227814, 0.06400000303983688, 1.040000081062317, 0.0, 0.0, 0.0, 0.0, 0.0, 1.6202164449290118E9, 2021-05-05 14:07:24.929
87.0, 548.2449951171875, -728.3717041015625, 380.08416748046875, 146.3516387939453, -0.14400000870227814, 0.06400000303983688, 1.040000081062317, 0.0, 0.0, 0.0, 0.0, 0.0, 1.6202164449297569E9, 2021-05-05 14:07:24.929
87.0, 533.307861328125, -736.0684204101562, 381.6324768066406, 127.69327545166016, -0.14400000870227814, 0.06400000303983688, 1.040000081062317, 0.0, 0.0, 0.0, 0.0, 0.0, 1.6202164449297569E9, 2021-05-05 14:07:24.929
88.0, 530.3346557617188, -731.3037719726562, 379.9644775390625, 124.89582824707031, -0.14400000870227814, 0.06400000303983688, 1.040000081062317, 0.0, 0.0, 0.0, 0.0, 0.0, 1.6202164449432218E9, 2021-05-05 14:07:24.943
88.0, 538.6895751953125, -723.3826904296875, 376.6584167480469, 130.03445434570312, -0.14400000870227814, 0.06400000303983688, 1.040000081062317, 0.0, 0.0, 0.0, 0.0, 0.0, 1.6202164449432218E9, 2021-05-05 14:07:24.943
89.0, 553.1704711914062, -717.5596313476562, 377.6756591796875, 142.6192169189453, -0.14400000870227814, 0.06400000303983688, 1.040000081062317, 0.0, 0.0, 0.0, 0.0, 0.0, 1.620216444958891E9, 2021-05-05 14:07:24.958
89.0, 535.0880737304688, -737.8298950195312, 374.9754638671875, 124.97810363769531, -0.14400000870227814, 0.06400000303983688, 1.040000081062317, 0.0, 0.0, 0.0, 0.0, 0.0, 1.620216444958891E9, 2021-05-05 14:07:24.958
90.0, 526.3554077148438, -723.3115844726562, 379.62042236328125, 120.80437469482422, -0.14400000870227814, 0.06400000303983688, 1.055999994277954, 0.0, 0.0, 0.0, 0.0, 0.0, 1.6202164449596553E9, 2021-05-05 14:07:24.959
90.0, 539.7330322265625, -728.17724609375, 377.3241271972656, 132.3157958984375, -0.14400000870227814, 0.06400000303983688, 1.055999994277954, 0.0, 0.0, 0.0, 0.0, 0.0, 1.6202164449596553E9, 2021-05-05 14:07:24.959
91.0, 556.9215698242188, -716.4376831054688, 390.6942443847656, 152.7393798828125, -0.14400000870227814, 0.06400000303983688, 1.055999994277954, 0.0, 0.0, 0.0, 0.0, 0.0, 1.620216444973154E9, 2021-05-05 14:07:24.973
91.0, 541.935791015625, -735.4475708007812, 385.6566162109375, 128.8264617919922, -0.14400000870227814, 0.06400000303983688, 1.055999994277954, 0.0, 0.0, 0.0, 0.0, 0.0, 1.620216444973154E9, 2021-05-05 14:07:24.973
92.0, 536.0118408203125, -724.1680297851562, 389.1908264160156, 127.31180572509766, -0.14400000870227814, 0.06400000303983688, 1.055999994277954, 0.0, 0.0, 0.0, 0.0, 0.0, 1.6202164449888632E9, 2021-05-05 14:07:24.988
92.0, 551.89892578125, -726.9243774414062, 389.44512939453125, 132.42050170898438, -0.14400000870227814, 0.06400000303983688, 1.055999994277954, 0.0, 0.0, 0.0, 0.0, 0.0, 1.6202164449888632E9, 2021-05-05 14:07:24.988
93.0, 571.488525390625, -718.1692504882812, 394.9764404296875, 157.0253143310547, -0.14400000870227814, 0.06400000303983688, 1.055999994277954, 0.0, 0.0, 0.0, 0.0, 0.0, 1.620216444989628E9, 2021-05-05 14:07:24.989
93.0, 565.8711547851562, -725.7687377929688, 402.3814392089844, 144.54151916503906, -0.14400000870227814, 0.06400000303983688, 1.055999994277954, 0.0, 0.0, 0.0, 0.0, 0.0, 1.620216444989628E9, 2021-05-05 14:07:24.989
94.0, 551.4725341796875, -726.0230102539062, 402.1944580078125, 141.53089904785156, -0.14400000870227814, 0.06400000303983688, 1.055999994277954, 0.0, 0.0, 0.0, 0.0, 0.0, 1.6202164450196652E9, 2021-05-05 14:07:25.019
94.0, 560.0070190429688, -707.7162475585938, 396.1395568847656, 152.37661743164062, -0.14400000870227814, 0.06400000303983688, 1.055999994277954, 0.0, 0.0, 0.0, 0.0, 0.0, 1.6202164450196652E9, 2021-05-05 14:07:25.019
95.0, 576.8365478515625, -718.80126953125, 400.56011962890625, 161.4458770751953, -0.14400000870227814, 0.06400000303983688, 1.055999994277954, 0.0, 0.0, 0.0, 0.0, 0.0, 1.6202164450204132E9, 2021-05-05 14:07:25.020
95.0, 563.8553466796875, -719.2874755859375, 403.61187744140625, 150.00552368164062, -0.14400000870227814, 0.06400000303983688, 1.055999994277954, 0.0, 0.0, 0.0, 0.0, 0.0, 1.6202164450204132E9, 2021-05-05 14:07:25.020
96.0, 559.6068115234375, -729.1571044921875, 397.4298095703125, 142.1143341064453, -0.14400000870227814, 0.06400000303983688, 1.055999994277954, 0.0, 0.0, 0.0, 0.0, 0.0, 1.6202164450212011E9, 2021-05-05 14:07:25.021
96.0, 554.9431762695312, -726.2249755859375, 389.0299987792969, 142.72767639160156, -0.14400000870227814, 0.06400000303983688, 1.055999994277954, 0.0, 0.0, 0.0, 0.0, 0.0, 1.6202164450212011E9, 2021-05-05 14:07:25.021
97.0, 553.4060668945312, -724.351318359375, 379.74755859375, 148.98826599121094, -0.14400000870227814, 0.06400000303983688, 1.055999994277954, 0.0, 0.0, 0.0, 0.0, 0.0, 1.6202164450331967E9, 2021-05-05 14:07:25.033
97.0, 527.7391357421875, -749.16552734375, 373.9918518066406, 120.60616302490234, -0.14400000870227814, 0.06400000303983688, 1.055999994277954, 0.0, 0.0, 0.0, 0.0, 0.0, 1.6202164450331967E9, 2021-05-05 14:07:25.033
98.0, 510.1803283691406, -754.3490600585938, 369.5600891113281, 108.1672592163086, -0.14400000870227814, 0.06400000303983688, 1.055999994277954, 0.0, 0.0, 0.0, 0.0, 0.0, 1.6202164450489275E9, 2021-05-05 14:07:25.048
98.0, 519.739501953125, -747.486328125, 372.32012939453125, 119.65996551513672, -0.14400000870227814, 0.06400000303983688, 1.055999994277954, 0.0, 0.0, 0.0, 0.0, 0.0, 1.6202164450489275E9, 2021-05-05 14:07:25.048
99.0, 526.852783203125, -738.379638671875, 368.24737548828125, 128.52352905273438, -0.14400000870227814, 0.06400000303983688, 1.055999994277954, 0.0, 0.0, 0.0, 0.0, 0.0, 1.6202164450497165E9, 2021-05-05 14:07:25.049
99.0, 512.8394165039062, -762.991943359375, 365.7379150390625, 112.3222885131836, -0.14400000870227814, 0.06400000303983688, 1.055999994277954, 0.0, 0.0, 0.0, 0.0, 0.0, 1.6202164450497165E9, 2021-05-05 14:07:25.049
100.0, 506.5451354980469, -749.8499145507812, 365.62945556640625, 100.06289672851562, -0.14400000870227814, 0.06400000303983688, 1.040000081062317, 0.0, 0.0, 0.0, 0.0, 0.0, 1.6202164450638268E9, 2021-05-05 14:07:25.063
100.0, 516.1380004882812, -742.6954956054688, 368.32965087890625, 116.46609497070312, -0.14400000870227814, 0.06400000303983688, 1.040000081062317, 0.0, 0.0, 0.0, 0.0, 0.0, 1.6202164450638268E9, 2021-05-05 14:07:25.063
0.0, 538.3399047851562, -729.6133422851562, 373.88714599609375, 121.42520141601562, -0.14400000870227814, 0.06400000303983688, 1.040000081062317, 0.0, 0.0, 0.0, 0.0, 0.0, 1.6202164450645285E9, 2021-05-05 14:07:25.064
1.0, 518.959716796875, -747.3142700195312, 369.5488586425781, 94.82703399658203, -0.14400000870227814, 0.06400000303983688, 1.040000081062317, 0.0, 0.0, 0.0, 0.0, 0.0, 1.6202164450781536E9, 2021-05-05 14:07:25.078
1.0, 514.3596801757812, -750.784912109375, 376.10491943359375, 101.33071899414062, -0.14400000870227814, 0.06400000303983688, 1.040000081062317, 0.0, 0.0, 0.0, 0.0, 0.0, 1.6202164450781536E9, 2021-05-05 14:07:25.078
2.0, 528.9639892578125, -730.3351440429688, 380.21881103515625, 119.891845703125, -0.14400000870227814, 0.06400000303983688, 1.040000081062317, 0.0, 0.0, 0.0, 0.0, 0.0, 1.620216445093855E9, 2021-05-05 14:07:25.093
2.0, 540.838134765625, -742.1868896484375, 376.2395324707031, 131.30227661132812, -0.14400000870227814, 0.06400000303983688, 1.040000081062317, 0.0, 0.0, 0.0, 0.0, 0.0, 1.620216445093855E9, 2021-05-05 14:07:25.093
3.0, 528.07763671875, -749.5731811523438, 381.2098693847656, 113.33206176757812, -0.14400000870227814, 0.06400000303983688, 1.040000081062317, 0.0, 0.0, 0.0, 0.0, 0.0, 1.6202164450945735E9, 2021-05-05 14:07:25.094
3.0, 522.9689331054688, -750.5194091796875, 379.74383544921875, 108.07002258300781, -0.14400000870227814, 0.06400000303983688, 1.040000081062317, 0.0, 0.0, 0.0, 0.0, 0.0, 1.6202164450945735E9, 2021-05-05 14:07:25.094
4.0, 531.7464599609375, -741.5211791992188, 375.9366149902344, 102.90522003173828, -0.14400000870227814, 0.06400000303983688, 1.040000081062317, 0.0, 0.0, 0.0, 0.0, 0.0, 1.6202164451081357E9, 2021-05-05 14:07:25.108
4.0, 546.84814453125, -734.0488891601562, 375.2970886230469, 122.49855041503906, -0.14400000870227814, 0.06400000303983688, 1.040000081062317, 0.0, 0.0, 0.0, 0.0, 0.0, 1.6202164451081357E9, 2021-05-05 14:07:25.108
5.0, 530.7890625, -750.6839599609375, 367.9930725097656, 101.57381439208984, -0.14400000870227814, 0.06400000303983688, 1.040000081062317, 0.0, 0.0, 0.0, 0.0, 0.0, 1.6202164451239345E9, 2021-05-05 14:07:25.123
5.0, 511.7791442871094, -751.4319458007812, 365.3676452636719, 91.97722625732422, -0.14400000870227814, 0.06400000303983688, 1.040000081062317, 0.0, 0.0, 0.0, 0.0, 0.0, 1.6202164451239345E9, 2021-05-05 14:07:25.123
6.0, 512.8338012695312, -742.792724609375, 361.2088928222656, 102.9500961303711, -0.14400000870227814, 0.06400000303983688, 1.040000081062317, 0.0, 0.0, 0.0, 0.0, 0.0, 1.620216445124624E9, 2021-05-05 14:07:25.124
6.0, 533.923095703125, -734.74072265625, 364.5, 125.69990539550781, -0.14400000870227814, 0.06400000303983688, 1.040000081062317, 0.0, 0.0, 0.0, 0.0, 0.0, 1.620216445124624E9, 2021-05-05 14:07:25.124
7.0, 519.40478515625, -753.002685546875, 355.0268249511719, 103.38018798828125, -0.14400000870227814, 0.06400000303983688, 1.040000081062317, 0.0, 0.0, 0.0, 0.0, 0.0, 1.6202164451545184E9, 2021-05-05 14:07:25.154
7.0, 507.1229553222656, -757.0604858398438, 352.8016052246094, 95.56753540039062, -0.14400000870227814, 0.06400000303983688, 1.040000081062317, 0.0, 0.0, 0.0, 0.0, 0.0, 1.6202164451545184E9, 2021-05-05 14:07:25.154
8.0, 519.5169677734375, -738.29736328125, 350.49407958984375, 97.27666473388672, -0.14400000870227814, 0.06400000303983688, 1.040000081062317, 0.0, 0.0, 0.0, 0.0, 0.0, 1.6202164451552868E9, 2021-05-05 14:07:25.155
8.0, 534.5476684570312, -727.8892211914062, 362.6861572265625, 119.16255950927734, -0.14400000870227814, 0.06400000303983688, 1.040000081062317, 0.0, 0.0, 0.0, 0.0, 0.0, 1.6202164451552868E9, 2021-05-05 14:07:25.155
9.0, 517.2767944335938, -746.3681030273438, 365.4499206542969, 103.12586975097656, -0.14400000870227814, 0.06400000303983688, 1.040000081062317, 0.0, 0.0, 0.0, 0.0, 0.0, 1.6202164451560645E9, 2021-05-05 14:07:25.156
9.0, 511.71929931640625, -747.2619018554688, 361.63897705078125, 95.97144317626953, -0.14400000870227814, 0.06400000303983688, 1.040000081062317, 0.0, 0.0, 0.0, 0.0, 0.0, 1.6202164451560645E9, 2021-05-05 14:07:25.156
10.0, 521.09521484375, -724.8150634765625, 367.2189025878906, 108.99751281738281, -0.14400000870227814, 0.06400000303983688, 1.055999994277954, 0.0, 0.0, 0.0, 0.0, 0.0, 1.6202164451682255E9, 2021-05-05 14:07:25.168
10.0, 539.95556640625, -735.1782836914062, 368.24737548828125, 124.90330505371094, -0.14400000870227814, 0.06400000303983688, 1.055999994277954, 0.0, 0.0, 0.0, 0.0, 0.0, 1.6202164451682255E9, 2021-05-05 14:07:25.168
11.0, 525.5269775390625, -751.312255859375, 371.4823913574219, 109.06857299804688, -0.14400000870227814, 0.06400000303983688, 1.055999994277954, 0.0, 0.0, 0.0, 0.0, 0.0, 1.6202164451839552E9, 2021-05-05 14:07:25.183
11.0, 523.9973754882812, -746.30078125, 371.42254638671875, 107.4491958618164, -0.14400000870227814, 0.06400000303983688, 1.055999994277954, 0.0, 0.0, 0.0, 0.0, 0.0, 1.6202164451839552E9, 2021-05-05 14:07:25.183
12.0, 527.3071899414062, -733.8843383789062, 371.2617492675781, 111.76878356933594, -0.14400000870227814, 0.06400000303983688, 1.055999994277954, 0.0, 0.0, 0.0, 0.0, 0.0, 1.6202164451845834E9, 2021-05-05 14:07:25.184
12.0, 551.5791625976562, -731.3336791992188, 383.1097412109375, 141.23545837402344, -0.14400000870227814, 0.06400000303983688, 1.055999994277954, 0.0, 0.0, 0.0, 0.0, 0.0, 1.6202164451845834E9, 2021-05-05 14:07:25.184
13.0, 541.62353515625, -752.6922607421875, 378.2030029296875, 114.88785552978516, -0.14400000870227814, 0.06400000303983688, 1.055999994277954, 0.0, 0.0, 0.0, 0.0, 0.0, 1.6202164451981733E9, 2021-05-05 14:07:25.198
13.0, 530.6469116210938, -755.396240234375, 372.9110412597656, 112.73741149902344, -0.14400000870227814, 0.06400000303983688, 1.055999994277954, 0.0, 0.0, 0.0, 0.0, 0.0, 1.6202164451981733E9, 2021-05-05 14:07:25.198
14.0, 537.5582885742188, -738.753662109375, 371.1121520996094, 115.28428649902344, -0.14400000870227814, 0.06400000303983688, 1.055999994277954, 0.0, 0.0, 0.0, 0.0, 0.0, 1.6202164452138476E9, 2021-05-05 14:07:25.213
14.0, 554.6010131835938, -733.5739135742188, 380.70123291015625, 139.15232849121094, -0.14400000870227814, 0.06400000303983688, 1.055999994277954, 0.0, 0.0, 0.0, 0.0, 0.0, 1.6202164452138476E9, 2021-05-05 14:07:25.213
15.0, 538.4633178710938, -744.9319458007812, 380.4768371582031, 113.45173645019531, -0.14400000870227814, 0.06400000303983688, 1.055999994277954, 0.0, 0.0, 0.0, 0.0, 0.0, 1.6202164452145948E9, 2021-05-05 14:07:25.214
15.0, 529.4950561523438, -748.13330078125, 378.5208740234375, 110.78144836425781, -0.14400000870227814, 0.06400000303983688, 1.055999994277954, 0.0, 0.0, 0.0, 0.0, 0.0, 1.6202164452145948E9, 2021-05-05 14:07:25.214
16.0, 535.437744140625, -729.0224609375, 376.56866455078125, 118.025634765625, -0.14400000870227814, 0.06400000303983688, 1.055999994277954, 0.0, 0.0, 0.0, 0.0, 0.0, 1.620216445228204E9, 2021-05-05 14:07:25.228
16.0, 552.0167236328125, -729.8863525390625, 381.4380187988281, 137.95556640625, -0.14400000870227814, 0.06400000303983688, 1.055999994277954, 0.0, 0.0, 0.0, 0.0, 0.0, 1.620216445228204E9, 2021-05-05 14:07:25.228
17.0, 535.5574340820312, -750.467041015625, 378.8649597167969, 118.47441864013672, -0.14400000870227814, 0.06400000303983688, 1.055999994277954, 0.0, 0.0, 0.0, 0.0, 0.0, 1.6202164452438622E9, 2021-05-05 14:07:25.243
17.0, 524.2891235351562, -741.0611572265625, 375.3905944824219, 108.81426239013672, -0.14400000870227814, 0.06400000303983688, 1.055999994277954, 0.0, 0.0, 0.0, 0.0, 0.0, 1.6202164452438622E9, 2021-05-05 14:07:25.243
18.0, 525.1978759765625, -735.0025634765625, 376.2657165527344, 125.08656311035156, -0.14400000870227814, 0.06400000303983688, 1.055999994277954, 0.0, 0.0, 0.0, 0.0, 0.0, 1.6202164452446454E9, 2021-05-05 14:07:25.244
18.0, 545.9506225585938, -721.3331909179688, 377.7504577636719, 133.63597106933594, -0.14400000870227814, 0.06400000303983688, 1.055999994277954, 0.0, 0.0, 0.0, 0.0, 0.0, 1.6202164452446454E9, 2021-05-05 14:07:25.244
19.0, 533.3508911132812, -730.0546264648438, 385.81744384765625, 126.63862609863281, -0.14400000870227814, 0.06400000303983688, 1.055999994277954, 0.0, 0.0, 0.0, 0.0, 0.0, 1.6202164452582345E9, 2021-05-05 14:07:25.258
19.0, 522.4528198242188, -749.412353515625, 372.9409484863281, 106.35714721679688, -0.14400000870227814, 0.06400000303983688, 1.055999994277954, 0.0, 0.0, 0.0, 0.0, 0.0, 1.6202164452582345E9, 2021-05-05 14:07:25.258
20.0, 530.09716796875, -730.0134887695312, 379.44464111328125, 116.10332489013672, -0.14400000870227814, 0.06400000303983688, 1.040000081062317, 0.0, 0.0, 0.0, 0.0, 0.0, 1.6202164452738705E9, 2021-05-05 14:07:25.273
20.0, 546.5676879882812, -717.555908203125, 388.656005859375, 135.47225952148438, -0.14400000870227814, 0.06400000303983688, 1.040000081062317, 0.0, 0.0, 0.0, 0.0, 0.0, 1.6202164452738705E9, 2021-05-05 14:07:25.273
21.0, 531.5108642578125, -745.0703735351562, 381.9541015625, 115.4151840209961, -0.14400000870227814, 0.06400000303983688, 1.040000081062317, 0.0, 0.0, 0.0, 0.0, 0.0, 1.6202164452745616E9, 2021-05-05 14:07:25.274
21.0, 527.6886596679688, -748.0398559570312, 376.800537109375, 105.13045501708984, -0.14400000870227814, 0.06400000303983688, 1.040000081062317, 0.0, 0.0, 0.0, 0.0, 0.0, 1.6202164452745616E9, 2021-05-05 14:07:25.274
22.0, 533.032958984375, -734.822998046875, 376.0563049316406, 101.95528411865234, -0.14400000870227814, 0.06400000303983688, 1.040000081062317, 0.0, 0.0, 0.0, 0.0, 0.0, 1.6202164452882524E9, 2021-05-05 14:07:25.288
22.0, 554.4364013671875, -725.8211059570312, 380.5030212402344, 126.64236450195312, -0.14400000870227814, 0.06400000303983688, 1.040000081062317, 0.0, 0.0, 0.0, 0.0, 0.0, 1.6202164452882524E9, 2021-05-05 14:07:25.288
23.0, 536.1969604492188, -737.074462890625, 378.3675537109375, 108.18595886230469, -0.14400000870227814, 0.06400000303983688, 1.040000081062317, 0.0, 0.0, 0.0, 0.0, 0.0, 1.620216445320306E9, 2021-05-05 14:07:25.320
23.0, 523.6046752929688, -745.2722778320312, 373.7188415527344, 101.09884643554688, -0.14400000870227814, 0.06400000303983688, 1.040000081062317, 0.0, 0.0, 0.0, 0.0, 0.0, 1.620216445320306E9, 2021-05-05 14:07:25.320
24.0, 529.7007446289062, -735.5784912109375, 370.5623779296875, 107.0265884399414, -0.14400000870227814, 0.06400000303983688, 1.040000081062317, 0.0, 0.0, 0.0, 0.0, 0.0, 1.620216445321077E9, 2021-05-05 14:07:25.321
24.0, 553.2620849609375, -730.712890625, 378.9322814941406, 129.16305541992188, -0.14400000870227814, 0.06400000303983688, 1.040000081062317, 0.0, 0.0, 0.0, 0.0, 0.0, 1.620216445321077E9, 2021-05-05 14:07:25.321
25.0, 541.7394409179688, -742.568359375, 383.079833984375, 114.64476013183594, -0.14400000870227814, 0.06400000303983688, 1.040000081062317, 0.0, 0.0, 0.0, 0.0, 0.0, 1.6202164453217971E9, 2021-05-05 14:07:25.321
25.0, 522.2844848632812, -744.7711791992188, 375.36065673828125, 107.39683532714844, -0.14400000870227814, 0.06400000303983688, 1.040000081062317, 0.0, 0.0, 0.0, 0.0, 0.0, 1.6202164453217971E9, 2021-05-05 14:07:25.321
26.0, 532.1466064453125, -740.444091796875, 370.3267517089844, 115.31794738769531, -0.14400000870227814, 0.06400000303983688, 1.040000081062317, 0.0, 0.0, 0.0, 0.0, 0.0, 1.6202164453225808E9, 2021-05-05 14:07:25.322
26.0, 547.9327392578125, -733.3382568359375, 378.83502197265625, 140.93626403808594, -0.14400000870227814, 0.06400000303983688, 1.040000081062317, 0.0, 0.0, 0.0, 0.0, 0.0, 1.6202164453225808E9, 2021-05-05 14:07:25.322
27.0, 536.0735473632812, -745.0665893554688, 375.8094482421875, 125.34835815429688, -0.14400000870227814, 0.06400000303983688, 1.040000081062317, 0.0, 0.0, 0.0, 0.0, 0.0, 1.6202164453333106E9, 2021-05-05 14:07:25.333
27.0, 523.2344360351562, -749.6965942382812, 376.89404296875, 111.61544799804688, -0.14400000870227814, 0.06400000303983688, 1.040000081062317, 0.0, 0.0, 0.0, 0.0, 0.0, 1.6202164453333106E9, 2021-05-05 14:07:25.333
28.0, 535.4639282226562, -734.2769775390625, 380.15521240234375, 126.27584838867188, -0.14400000870227814, 0.06400000303983688, 1.040000081062317, 0.0, 0.0, 0.0, 0.0, 0.0, 1.6202164453481755E9, 2021-05-05 14:07:25.348
28.0, 556.7214965820312, -722.5524291992188, 384.9011535644531, 132.4840850830078, -0.14400000870227814, 0.06400000303983688, 1.040000081062317, 0.0, 0.0, 0.0, 0.0, 0.0, 1.6202164453481755E9, 2021-05-05 14:07:25.348
29.0, 544.9034423828125, -750.5941772460938, 392.81103515625, 115.02622985839844, -0.14400000870227814, 0.06400000303983688, 1.040000081062317, 0.0, 0.0, 0.0, 0.0, 0.0, 1.6202164453639524E9, 2021-05-05 14:07:25.363
29.0, 534.7271728515625, -749.3375854492188, 382.99755859375, 106.89195251464844, -0.14400000870227814, 0.06400000303983688, 1.040000081062317, 0.0, 0.0, 0.0, 0.0, 0.0, 1.6202164453639524E9, 2021-05-05 14:07:25.363
30.0, 543.759033203125, -735.327880859375, 380.9443359375, 115.57225799560547, -0.14400000870227814, 0.06400000303983688, 1.040000081062317, 0.0, 0.0, 0.0, 0.0, 0.0, 1.6202164453646567E9, 2021-05-05 14:07:25.364
30.0, 560.9364013671875, -729.703125, 383.7567443847656, 129.5669708251953, -0.14400000870227814, 0.06400000303983688, 1.040000081062317, 0.0, 0.0, 0.0, 0.0, 0.0, 1.6202164453646567E9, 2021-05-05 14:07:25.364
31.0, 543.1082763671875, -744.5093383789062, 381.5763854980469, 113.33580017089844, -0.14400000870227814, 0.06400000303983688, 1.040000081062317, 0.0, 0.0, 0.0, 0.0, 0.0, 1.6202164453781168E9, 2021-05-05 14:07:25.378
31.0, 525.4522094726562, -746.394287109375, 376.7519226074219, 100.03297424316406, -0.14400000870227814, 0.06400000303983688, 1.040000081062317, 0.0, 0.0, 0.0, 0.0, 0.0, 1.6202164453781168E9, 2021-05-05 14:07:25.378
32.0, 534.3643798828125, -741.5922241210938, 372.8063049316406, 110.1568832397461, -0.14400000870227814, 0.06400000303983688, 1.040000081062317, 0.0, 0.0, 0.0, 0.0, 0.0, 1.620216445393991E9, 2021-05-05 14:07:25.393
32.0, 549.43994140625, -733.77587890625, 382.7806396484375, 128.05978393554688, -0.14400000870227814, 0.06400000303983688, 1.040000081062317, 0.0, 0.0, 0.0, 0.0, 0.0, 1.620216445393991E9, 2021-05-05 14:07:25.393
33.0, 541.2457885742188, -746.7271118164062, 380.8209228515625, 117.16545867919922, -0.14400000870227814, 0.06400000303983688, 1.040000081062317, 0.0, 0.0, 0.0, 0.0, 0.0, 1.620216445394621E9, 2021-05-05 14:07:25.394
33.0, 524.7902221679688, -744.45703125, 375.0502624511719, 104.16556549072266, -0.14400000870227814, 0.06400000303983688, 1.040000081062317, 0.0, 0.0, 0.0, 0.0, 0.0, 1.620216445394621E9, 2021-05-05 14:07:25.394
34.0, 529.6782836914062, -730.2117309570312, 373.3486022949219, 113.5527114868164, -0.14400000870227814, 0.06400000303983688, 1.040000081062317, 0.0, 0.0, 0.0, 0.0, 0.0, 1.6202164454081683E9, 2021-05-05 14:07:25.408
34.0, 555.203125, -732.3883666992188, 379.5830078125, 132.74588012695312, -0.14400000870227814, 0.06400000303983688, 1.040000081062317, 0.0, 0.0, 0.0, 0.0, 0.0, 1.6202164454081683E9, 2021-05-05 14:07:25.408
35.0, 548.1047973632812, -739.1500854492188, 382.6833801269531, 117.09813690185547, -0.14400000870227814, 0.06400000303983688, 1.040000081062317, 0.0, 0.0, 0.0, 0.0, 0.0, 1.620216445423878E9, 2021-05-05 14:07:25.423
35.0, 535.602294921875, -740.619873046875, 381.1949157714844, 111.76129913330078, -0.14400000870227814, 0.06400000303983688, 1.040000081062317, 0.0, 0.0, 0.0, 0.0, 0.0, 1.620216445423878E9, 2021-05-05 14:07:25.423
36.0, 539.0317993164062, -731.7525634765625, 378.58819580078125, 123.22783660888672, -0.14400000870227814, 0.06400000303983688, 1.040000081062317, 0.0, 0.0, 0.0, 0.0, 0.0, 1.6202164454246356E9, 2021-05-05 14:07:25.424
36.0, 552.6151123046875, -720.7385864257812, 385.16668701171875, 149.0106964111328, -0.14400000870227814, 0.06400000303983688, 1.040000081062317, 0.0, 0.0, 0.0, 0.0, 0.0, 1.6202164454246356E9, 2021-05-05 14:07:25.424
37.0, 544.9969482421875, -739.7709350585938, 382.14483642578125, 126.76577758789062, -0.14400000870227814, 0.06400000303983688, 1.040000081062317, 0.0, 0.0, 0.0, 0.0, 0.0, 1.6202164454381533E9, 2021-05-05 14:07:25.438
37.0, 536.2792358398438, -740.3281860351562, 381.3295593261719, 119.87688446044922, -0.14400000870227814, 0.06400000303983688, 1.040000081062317, 0.0, 0.0, 0.0, 0.0, 0.0, 1.6202164454381533E9, 2021-05-05 14:07:25.438
38.0, 540.8980102539062, -721.991455078125, 388.6372985839844, 129.6043701171875, -0.14400000870227814, 0.06400000303983688, 1.040000081062317, 0.0, 0.0, 0.0, 0.0, 0.0, 1.6202164454539711E9, 2021-05-05 14:07:25.453
38.0, 561.0298461914062, -717.3764038085938, 400.51898193359375, 149.8671417236328, -0.14400000870227814, 0.06400000303983688, 1.040000081062317, 0.0, 0.0, 0.0, 0.0, 0.0, 1.6202164454539711E9, 2021-05-05 14:07:25.453
39.0, 550.169189453125, -735.6495361328125, 400.30206298828125, 126.70967864990234, -0.14400000870227814, 0.06400000303983688, 1.040000081062317, 0.0, 0.0, 0.0, 0.0, 0.0, 1.6202164454545724E9, 2021-05-05 14:07:25.454
39.0, 542.7978515625, -737.732666015625, 403.1593322753906, 118.63150024414062, -0.14400000870227814, 0.06400000303983688, 1.040000081062317, 0.0, 0.0, 0.0, 0.0, 0.0, 1.6202164454545724E9, 2021-05-05 14:07:25.454
40.0, 552.0914916992188, -723.1058959960938, 397.8860778808594, 123.28018951416016, -0.14400000870227814, 0.06400000303983688, 1.040000081062317, 0.0, 0.0, 0.0, 0.0, 0.0, 1.6202164454682257E9, 2021-05-05 14:07:25.468
40.0, 565.7197265625, -722.9002075195312, 400.4404296875, 146.2095184326172, -0.14400000870227814, 0.06400000303983688, 1.040000081062317, 0.0, 0.0, 0.0, 0.0, 0.0, 1.6202164454682257E9, 2021-05-05 14:07:25.468
41.0, 547.5213623046875, -739.5577392578125, 394.770751953125, 122.09838104248047, -0.14400000870227814, 0.06400000303983688, 1.040000081062317, 0.0, 0.0, 0.0, 0.0, 0.0, 1.6202164454838843E9, 2021-05-05 14:07:25.483
41.0, 534.1400146484375, -741.3641357421875, 391.7489013671875, 111.09559631347656, -0.14400000870227814, 0.06400000303983688, 1.040000081062317, 0.0, 0.0, 0.0, 0.0, 0.0, 1.6202164454838843E9, 2021-05-05 14:07:25.483
42.0, 537.1094970703125, -732.0106201171875, 388.81683349609375, 120.3742904663086, -0.14400000870227814, 0.06400000303983688, 1.040000081062317, 0.0, 0.0, 0.0, 0.0, 0.0, 1.620216445484598E9, 2021-05-05 14:07:25.484
42.0, 553.6734619140625, -729.6806640625, 389.160888671875, 137.0617218017578, -0.14400000870227814, 0.06400000303983688, 1.040000081062317, 0.0, 0.0, 0.0, 0.0, 0.0, 1.620216445484598E9, 2021-05-05 14:07:25.484
43.0, 535.7032470703125, -741.9886474609375, 383.738037109375, 114.18101501464844, -0.14400000870227814, 0.06400000303983688, 1.040000081062317, 0.0, 0.0, 0.0, 0.0, 0.0, 1.620216445498204E9, 2021-05-05 14:07:25.498
43.0, 519.9994506835938, -746.1773681640625, 377.16705322265625, 101.14372253417969, -0.14400000870227814, 0.06400000303983688, 1.040000081062317, 0.0, 0.0, 0.0, 0.0, 0.0, 1.620216445498204E9, 2021-05-05 14:07:25.498
44.0, 522.6510009765625, -736.053466796875, 372.5445251464844, 109.17328643798828, -0.14400000870227814, 0.06400000303983688, 1.040000081062317, 0.0, 0.0, 0.0, 0.0, 0.0, 1.62021644551391E9, 2021-05-05 14:07:25.513
44.0, 541.9451904296875, -727.6237182617188, 376.86785888671875, 133.69955444335938, -0.14400000870227814, 0.06400000303983688, 1.040000081062317, 0.0, 0.0, 0.0, 0.0, 0.0, 1.62021644551391E9, 2021-05-05 14:07:25.513
45.0, 530.6469116210938, -746.734619140625, 376.10491943359375, 117.97327423095703, -0.14400000870227814, 0.06400000303983688, 1.040000081062317, 0.0, 0.0, 0.0, 0.0, 0.0, 1.6202164455146804E9, 2021-05-05 14:07:25.514
45.0, 524.4498901367188, -741.6259155273438, 372.0994873046875, 118.10417175292969, -0.14400000870227814, 0.06400000303983688, 1.040000081062317, 0.0, 0.0, 0.0, 0.0, 0.0, 1.6202164455146804E9, 2021-05-05 14:07:25.514
46.0, 536.7542114257812, -742.5421752929688, 367.4171142578125, 117.54692840576172, -0.14400000870227814, 0.06400000303983688, 1.040000081062317, 0.0, 0.0, 0.0, 0.0, 0.0, 1.6202164455281742E9, 2021-05-05 14:07:25.528
46.0, 557.3796997070312, -726.9168701171875, 382.7619323730469, 143.7037811279297, -0.14400000870227814, 0.06400000303983688, 1.040000081062317, 0.0, 0.0, 0.0, 0.0, 0.0, 1.6202164455281742E9, 2021-05-05 14:07:25.528
47.0, 550.7713012695312, -736.6967163085938, 385.088134765625, 134.3465576171875, -0.14400000870227814, 0.06400000303983688, 1.040000081062317, 0.0, 0.0, 0.0, 0.0, 0.0, 1.6202164455436687E9, 2021-05-05 14:07:25.543
47.0, 547.491455078125, -741.4202270507812, 387.3021545410156, 126.41796875, -0.14400000870227814, 0.06400000303983688, 1.040000081062317, 0.0, 0.0, 0.0, 0.0, 0.0, 1.6202164455436687E9, 2021-05-05 14:07:25.543
48.0, 552.7235717773438, -728.2071533203125, 383.28924560546875, 135.54705810546875, -0.14400000870227814, 0.06400000303983688, 1.040000081062317, 0.0, 0.0, 0.0, 0.0, 0.0, 1.620216445558884E9, 2021-05-05 14:07:25.558
48.0, 564.0629272460938, -723.9473876953125, 387.8631591796875, 151.4752960205078, -0.14400000870227814, 0.06400000303983688, 1.040000081062317, 0.0, 0.0, 0.0, 0.0, 0.0, 1.620216445558884E9, 2021-05-05 14:07:25.558
49.0, 547.7420043945312, -738.3011474609375, 382.5001525878906, 133.19467163085938, -0.14400000870227814, 0.06400000303983688, 1.040000081062317, 0.0, 0.0, 0.0, 0.0, 0.0, 1.6202164455596273E9, 2021-05-05 14:07:25.559
49.0, 535.568603515625, -738.084228515625, 384.0148010253906, 121.77301025390625, -0.14400000870227814, 0.06400000303983688, 1.040000081062317, 0.0, 0.0, 0.0, 0.0, 0.0, 1.6202164455596273E9, 2021-05-05 14:07:25.559
50.0, 538.0294799804688, -739.8606567382812, 378.75274658203125, 121.12226867675781, -0.14400000870227814, 0.06400000303983688, 1.055999994277954, 0.0, 0.0, 0.0, 0.0, 0.0, 1.6202164455902464E9, 2021-05-05 14:07:25.590
50.0, 552.3121948242188, -727.4217529296875, 382.40289306640625, 140.9586944580078, -0.14400000870227814, 0.06400000303983688, 1.055999994277954, 0.0, 0.0, 0.0, 0.0, 0.0, 1.6202164455902464E9, 2021-05-05 14:07:25.590
51.0, 532.1279296875, -744.6140747070312, 381.707275390625, 119.36825561523438, -0.14400000870227814, 0.06400000303983688, 1.055999994277954, 0.0, 0.0, 0.0, 0.0, 0.0, 1.6202164455909815E9, 2021-05-05 14:07:25.590
51.0, 523.208251953125, -748.5335083007812, 381.4080810546875, 113.30587768554688, -0.14400000870227814, 0.06400000303983688, 1.055999994277954, 0.0, 0.0, 0.0, 0.0, 0.0, 1.6202164455909815E9, 2021-05-05 14:07:25.590
52.0, 524.1170654296875, -724.7066040039062, 374.3359375, 115.63209533691406, -0.14400000870227814, 0.06400000303983688, 1.055999994277954, 0.0, 0.0, 0.0, 0.0, 0.0, 1.6202164455917192E9, 2021-05-05 14:07:25.591
52.0, 539.25244140625, -723.2854614257812, 379.0856018066406, 140.4126739501953, -0.14400000870227814, 0.06400000303983688, 1.055999994277954, 0.0, 0.0, 0.0, 0.0, 0.0, 1.6202164455917192E9, 2021-05-05 14:07:25.591
53.0, 527.72607421875, -739.0902709960938, 374.5304260253906, 113.72848510742188, -0.14400000870227814, 0.06400000303983688, 1.055999994277954, 0.0, 0.0, 0.0, 0.0, 0.0, 1.620216445592484E9, 2021-05-05 14:07:25.592
53.0, 516.2520751953125, -732.0143432617188, 372.40240478515625, 95.7844467163086, -0.14400000870227814, 0.06400000303983688, 1.055999994277954, 0.0, 0.0, 0.0, 0.0, 0.0, 1.620216445592484E9, 2021-05-05 14:07:25.592
54.0, 521.4168701171875, -736.382568359375, 370.99993896484375, 112.11659240722656, -0.14400000870227814, 0.06400000303983688, 1.055999994277954, 0.0, 0.0, 0.0, 0.0, 0.0, 1.6202164456032305E9, 2021-05-05 14:07:25.603
54.0, 539.3421630859375, -727.1151123046875, 373.2925109863281, 129.7539520263672, -0.14400000870227814, 0.06400000303983688, 1.055999994277954, 0.0, 0.0, 0.0, 0.0, 0.0, 1.6202164456032305E9, 2021-05-05 14:07:25.603
55.0, 527.9542236328125, -743.3275756835938, 377.3128967285156, 119.85444641113281, -0.14400000870227814, 0.06400000303983688, 1.055999994277954, 0.0, 0.0, 0.0, 0.0, 0.0, 1.62021644561818E9, 2021-05-05 14:07:25.618
55.0, 523.7094116210938, -744.2587890625, 372.1742858886719, 111.46958923339844, -0.14400000870227814, 0.06400000303983688, 1.055999994277954, 0.0, 0.0, 0.0, 0.0, 0.0, 1.62021644561818E9, 2021-05-05 14:07:25.618
56.0, 525.4447021484375, -739.1351318359375, 367.1702880859375, 117.23277282714844, -0.14400000870227814, 0.06400000303983688, 1.055999994277954, 0.0, 0.0, 0.0, 0.0, 0.0, 1.620216445650208E9, 2021-05-05 14:07:25.650
56.0, 547.9402465820312, -731.113037109375, 379.57928466796875, 143.51304626464844, -0.14400000870227814, 0.06400000303983688, 1.055999994277954, 0.0, 0.0, 0.0, 0.0, 0.0, 1.620216445650208E9, 2021-05-05 14:07:25.650
57.0, 535.9912719726562, -751.7984008789062, 378.04217529296875, 123.81874084472656, -0.14400000870227814, 0.06400000303983688, 1.055999994277954, 0.0, 0.0, 0.0, 0.0, 0.0, 1.6202164456509664E9, 2021-05-05 14:07:25.650
57.0, 536.6157836914062, -739.1875, 388.2371520996094, 122.52099609375, -0.14400000870227814, 0.06400000303983688, 1.055999994277954, 0.0, 0.0, 0.0, 0.0, 0.0, 1.6202164456509664E9, 2021-05-05 14:07:25.650
58.0, 532.7899169921875, -739.2249145507812, 379.4595947265625, 115.89762878417969, -0.14400000870227814, 0.06400000303983688, 1.055999994277954, 0.0, 0.0, 0.0, 0.0, 0.0, 1.6202164456516752E9, 2021-05-05 14:07:25.651
58.0, 557.6041259765625, -727.8443603515625, 384.4523620605469, 144.23484802246094, -0.14400000870227814, 0.06400000303983688, 1.055999994277954, 0.0, 0.0, 0.0, 0.0, 0.0, 1.6202164456516752E9, 2021-05-05 14:07:25.651
59.0, 549.9747314453125, -746.3045043945312, 391.4010925292969, 131.7959442138672, -0.14400000870227814, 0.06400000303983688, 1.055999994277954, 0.0, 0.0, 0.0, 0.0, 0.0, 1.6202164456524122E9, 2021-05-05 14:07:25.652
59.0, 540.1724243164062, -746.8842163085938, 388.0987548828125, 116.90740203857422, -0.14400000870227814, 0.06400000303983688, 1.055999994277954, 0.0, 0.0, 0.0, 0.0, 0.0, 1.6202164456524122E9, 2021-05-05 14:07:25.652
60.0, 539.9293823242188, -734.3480834960938, 385.6940002441406, 126.24593353271484, -0.14400000870227814, 0.06400000303983688, 1.055999994277954, 0.0, 0.0, 0.0, 0.0, 0.0, 1.620216445663104E9, 2021-05-05 14:07:25.663
60.0, 551.2462768554688, -734.6771850585938, 383.4986877441406, 135.00477600097656, -0.14400000870227814, 0.06400000303983688, 1.055999994277954, 0.0, 0.0, 0.0, 0.0, 0.0, 1.620216445663104E9, 2021-05-05 14:07:25.663
61.0, 546.3732299804688, -751.7684936523438, 383.8203125, 123.58312225341797, -0.14400000870227814, 0.06400000303983688, 1.055999994277954, 0.0, 0.0, 0.0, 0.0, 0.0, 1.6202164456781132E9, 2021-05-05 14:07:25.678
61.0, 534.66357421875, -744.0531005859375, 380.20758056640625, 112.2848892211914, -0.14400000870227814, 0.06400000303983688, 1.055999994277954, 0.0, 0.0, 0.0, 0.0, 0.0, 1.6202164456781132E9, 2021-05-05 14:07:25.678
62.0, 540.26220703125, -727.5003051757812, 380.6638488769531, 121.6047134399414, -0.14400000870227814, 0.06400000303983688, 1.055999994277954, 0.0, 0.0, 0.0, 0.0, 0.0, 1.62021644569384E9, 2021-05-05 14:07:25.693
62.0, 555.6781005859375, -721.1649169921875, 380.4432067871094, 138.29214477539062, -0.14400000870227814, 0.06400000303983688, 1.055999994277954, 0.0, 0.0, 0.0, 0.0, 0.0, 1.62021644569384E9, 2021-05-05 14:07:25.693
63.0, 543.4860229492188, -730.9335327148438, 384.74407958984375, 124.58168029785156, -0.14400000870227814, 0.06400000303983688, 1.055999994277954, 0.0, 0.0, 0.0, 0.0, 0.0, 1.6202164456945672E9, 2021-05-05 14:07:25.694
63.0, 527.621337890625, -733.3831787109375, 382.54876708984375, 114.36801147460938, -0.14400000870227814, 0.06400000303983688, 1.055999994277954, 0.0, 0.0, 0.0, 0.0, 0.0, 1.6202164456945672E9, 2021-05-05 14:07:25.694
64.0, 535.5536499023438, -717.6680908203125, 378.502197265625, 118.39962005615234, -0.14400000870227814, 0.06400000303983688, 1.055999994277954, 0.0, 0.0, 0.0, 0.0, 0.0, 1.620216445708114E9, 2021-05-05 14:07:25.708
64.0, 548.4937133789062, -714.3582763671875, 374.2461853027344, 134.7242889404297, -0.14400000870227814, 0.06400000303983688, 1.055999994277954, 0.0, 0.0, 0.0, 0.0, 0.0, 1.620216445708114E9, 2021-05-05 14:07:25.708
65.0, 529.0088500976562, -736.3040161132812, 374.87823486328125, 118.27994537353516, -0.14400000870227814, 0.06400000303983688, 1.055999994277954, 0.0, 0.0, 0.0, 0.0, 0.0, 1.6202164457239678E9, 2021-05-05 14:07:25.723
65.0, 508.79095458984375, -745.2498779296875, 365.6331787109375, 93.51058959960938, -0.14400000870227814, 0.06400000303983688, 1.055999994277954, 0.0, 0.0, 0.0, 0.0, 0.0, 1.6202164457239678E9, 2021-05-05 14:07:25.723
66.0, 525.7850341796875, -725.0020751953125, 369.3955383300781, 106.19632720947266, -0.14400000870227814, 0.06400000303983688, 1.055999994277954, 0.0, 0.0, 0.0, 0.0, 0.0, 1.6202164457245944E9, 2021-05-05 14:07:25.724
66.0, 533.8632202148438, -732.2125854492188, 373.64404296875, 119.21865844726562, -0.14400000870227814, 0.06400000303983688, 1.055999994277954, 0.0, 0.0, 0.0, 0.0, 0.0, 1.6202164457245944E9, 2021-05-05 14:07:25.724
67.0, 527.4306030273438, -745.9267578125, 370.27813720703125, 110.30648040771484, -0.14400000870227814, 0.06400000303983688, 1.055999994277954, 0.0, 0.0, 0.0, 0.0, 0.0, 1.6202164457382252E9, 2021-05-05 14:07:25.738
67.0, 512.1942749023438, -747.9052124023438, 366.6616516113281, 98.7127914428711, -0.14400000870227814, 0.06400000303983688, 1.055999994277954, 0.0, 0.0, 0.0, 0.0, 0.0, 1.6202164457382252E9, 2021-05-05 14:07:25.738
68.0, 520.74365234375, -737.7177124023438, 367.7051086425781, 114.92899322509766, -0.14400000870227814, 0.06400000303983688, 1.055999994277954, 0.0, 0.0, 0.0, 0.0, 0.0, 1.6202164457539713E9, 2021-05-05 14:07:25.753
68.0, 537.8424682617188, -726.5802612304688, 369.6012268066406, 121.70195770263672, -0.14400000870227814, 0.06400000303983688, 1.055999994277954, 0.0, 0.0, 0.0, 0.0, 0.0, 1.6202164457539713E9, 2021-05-05 14:07:25.753
69.0, 527.9205322265625, -752.08642578125, 370.3492126464844, 105.01825714111328, -0.14400000870227814, 0.06400000303983688, 1.055999994277954, 0.0, 0.0, 0.0, 0.0, 0.0, 1.6202164457545748E9, 2021-05-05 14:07:25.754
69.0, 519.58056640625, -746.2633666992188, 373.902099609375, 104.09076690673828, -0.14400000870227814, 0.06400000303983688, 1.055999994277954, 0.0, 0.0, 0.0, 0.0, 0.0, 1.6202164457545748E9, 2021-05-05 14:07:25.754
70.0, 529.4912719726562, -744.023193359375, 372.40240478515625, 111.04698181152344, -0.14400000870227814, 0.06400000303983688, 1.055999994277954, 0.0, 0.0, 0.0, 0.0, 0.0, 1.6202164457845025E9, 2021-05-05 14:07:25.784
70.0, 546.1113891601562, -739.0042114257812, 383.0723571777344, 128.62451171875, -0.14400000870227814, 0.06400000303983688, 1.055999994277954, 0.0, 0.0, 0.0, 0.0, 0.0, 1.6202164457845025E9, 2021-05-05 14:07:25.784
71.0, 534.1474609375, -751.2636108398438, 381.17620849609375, 114.18849182128906, -0.14400000870227814, 0.06400000303983688, 1.055999994277954, 0.0, 0.0, 0.0, 0.0, 0.0, 1.6202164457852347E9, 2021-05-05 14:07:25.785
71.0, 523.4775390625, -756.49951171875, 376.12359619140625, 103.3353042602539, -0.14400000870227814, 0.06400000303983688, 1.055999994277954, 0.0, 0.0, 0.0, 0.0, 0.0, 1.6202164457852347E9, 2021-05-05 14:07:25.785
72.0, 529.4052734375, -750.85595703125, 373.1017761230469, 107.60253143310547, -0.14400000870227814, 0.06400000303983688, 1.055999994277954, 0.0, 0.0, 0.0, 0.0, 0.0, 1.6202164457860587E9, 2021-05-05 14:07:25.786
72.0, 542.8128051757812, -738.4282836914062, 378.9098205566406, 125.94673919677734, -0.14400000870227814, 0.06400000303983688, 1.055999994277954, 0.0, 0.0, 0.0, 0.0, 0.0, 1.6202164457860587E9, 2021-05-05 14:07:25.786
73.0, 531.7352294921875, -749.2889404296875, 379.75506591796875, 107.51651763916016, -0.14400000870227814, 0.06400000303983688, 1.055999994277954, 0.0, 0.0, 0.0, 0.0, 0.0, 1.6202164457981973E9, 2021-05-05 14:07:25.798
73.0, 513.4620971679688, -755.385009765625, 371.58709716796875, 88.16627502441406, -0.14400000870227814, 0.06400000303983688, 1.055999994277954, 0.0, 0.0, 0.0, 0.0, 0.0, 1.6202164457981973E9, 2021-05-05 14:07:25.798
74.0, 520.2051391601562, -741.0275268554688, 366.85986328125, 103.83271026611328, -0.14400000870227814, 0.06400000303983688, 1.055999994277954, 0.0, 0.0, 0.0, 0.0, 0.0, 1.6202164458138216E9, 2021-05-05 14:07:25.813
74.0, 538.2875366210938, -729.4039306640625, 369.1262512207031, 117.72270202636719, -0.14400000870227814, 0.06400000303983688, 1.055999994277954, 0.0, 0.0, 0.0, 0.0, 0.0, 1.6202164458138216E9, 2021-05-05 14:07:25.813
75.0, 523.1558837890625, -743.2303466796875, 370.7381591796875, 106.87325286865234, -0.14400000870227814, 0.06400000303983688, 1.055999994277954, 0.0, 0.0, 0.0, 0.0, 0.0, 1.620216445814544E9, 2021-05-05 14:07:25.814
75.0, 508.74981689453125, -747.239501953125, 367.9444580078125, 105.45208740234375, -0.14400000870227814, 0.06400000303983688, 1.055999994277954, 0.0, 0.0, 0.0, 0.0, 0.0, 1.620216445814544E9, 2021-05-05 14:07:25.814
76.0, 518.02099609375, -738.3946533203125, 368.37078857421875, 105.71388244628906, -0.14400000870227814, 0.06400000303983688, 1.055999994277954, 0.0, 0.0, 0.0, 0.0, 0.0, 1.6202164458282447E9, 2021-05-05 14:07:25.828
76.0, 542.068603515625, -738.215087890625, 372.4697265625, 128.19442749023438, -0.14400000870227814, 0.06400000303983688, 1.055999994277954, 0.0, 0.0, 0.0, 0.0, 0.0, 1.6202164458282447E9, 2021-05-05 14:07:25.828
77.0, 532.7824096679688, -746.6224365234375, 377.07354736328125, 118.05554962158203, -0.14400000870227814, 0.06400000303983688, 1.055999994277954, 0.0, 0.0, 0.0, 0.0, 0.0, 1.6202164458438623E9, 2021-05-05 14:07:25.843
77.0, 520.6464233398438, -750.1790771484375, 371.2617492675781, 105.59794616699219, -0.14400000870227814, 0.06400000303983688, 1.055999994277954, 0.0, 0.0, 0.0, 0.0, 0.0, 1.6202164458438623E9, 2021-05-05 14:07:25.843
78.0, 532.2849731445312, -736.2479248046875, 371.6170349121094, 116.55585479736328, -0.14400000870227814, 0.06400000303983688, 1.055999994277954, 0.0, 0.0, 0.0, 0.0, 0.0, 1.6202164458445792E9, 2021-05-05 14:07:25.844
78.0, 545.239990234375, -736.2105102539062, 374.18634033203125, 132.7758026123047, -0.14400000870227814, 0.06400000303983688, 1.055999994277954, 0.0, 0.0, 0.0, 0.0, 0.0, 1.6202164458445792E9, 2021-05-05 14:07:25.844
79.0, 532.0045166015625, -747.0113525390625, 372.739013671875, 109.55850219726562, -0.14400000870227814, 0.06400000303983688, 1.055999994277954, 0.0, 0.0, 0.0, 0.0, 0.0, 1.6202164458582487E9, 2021-05-05 14:07:25.858
79.0, 517.0224609375, -753.23828125, 367.9444580078125, 99.879638671875, -0.14400000870227814, 0.06400000303983688, 1.055999994277954, 0.0, 0.0, 0.0, 0.0, 0.0, 1.6202164458582487E9, 2021-05-05 14:07:25.858
80.0, 530.1644897460938, -741.3416748046875, 371.96856689453125, 113.98654174804688, -0.14400000870227814, 0.06400000303983688, 1.055999994277954, 0.0, 0.0, 0.0, 0.0, 0.0, 1.6202164458738217E9, 2021-05-05 14:07:25.873
80.0, 546.36572265625, -733.6973266601562, 380.8022155761719, 137.39083862304688, -0.14400000870227814, 0.06400000303983688, 1.055999994277954, 0.0, 0.0, 0.0, 0.0, 0.0, 1.6202164458738217E9, 2021-05-05 14:07:25.873
81.0, 529.1060791015625, -753.3692016601562, 380.6937561035156, 114.85045623779297, -0.14400000870227814, 0.06400000303983688, 1.055999994277954, 0.0, 0.0, 0.0, 0.0, 0.0, 1.6202164458745413E9, 2021-05-05 14:07:25.874
81.0, 518.9373168945312, -752.1986083984375, 379.6129455566406, 99.37474822998047, -0.14400000870227814, 0.06400000303983688, 1.055999994277954, 0.0, 0.0, 0.0, 0.0, 0.0, 1.6202164458745413E9, 2021-05-05 14:07:25.874
82.0, 528.73583984375, -735.6046752929688, 384.078369140625, 112.37838745117188, -0.14400000870227814, 0.06400000303983688, 1.055999994277954, 0.0, 0.0, 0.0, 0.0, 0.0, 1.620216445904457E9, 2021-05-05 14:07:25.904
82.0, 546.904296875, -731.7376098632812, 387.6499938964844, 128.09344482421875, -0.14400000870227814, 0.06400000303983688, 1.055999994277954, 0.0, 0.0, 0.0, 0.0, 0.0, 1.620216445904457E9, 2021-05-05 14:07:25.904
83.0, 534.3045654296875, -747.1011352539062, 381.1500244140625, 113.68360900878906, -0.14400000870227814, 0.06400000303983688, 1.055999994277954, 0.0, 0.0, 0.0, 0.0, 0.0, 1.6202164459051616E9, 2021-05-05 14:07:25.905
83.0, 514.849609375, -741.4837646484375, 386.9954833984375, 108.15977478027344, -0.14400000870227814, 0.06400000303983688, 1.055999994277954, 0.0, 0.0, 0.0, 0.0, 0.0, 1.6202164459051616E9, 2021-05-05 14:07:25.905
84.0, 527.1351318359375, -741.8502807617188, 379.7625427246094, 114.88411712646484, -0.14400000870227814, 0.06400000303983688, 1.055999994277954, 0.0, 0.0, 0.0, 0.0, 0.0, 1.62021644591896E9, 2021-05-05 14:07:25.918
84.0, 542.6968994140625, -737.3436889648438, 387.5976257324219, 134.82525634765625, -0.14400000870227814, 0.06400000303983688, 1.055999994277954, 0.0, 0.0, 0.0, 0.0, 0.0, 1.62021644591896E9, 2021-05-05 14:07:25.918
85.0, 539.9630126953125, -744.92822265625, 386.625244140625, 116.93732452392578, -0.14400000870227814, 0.06400000303983688, 1.055999994277954, 0.0, 0.0, 0.0, 0.0, 0.0, 1.620216445919701E9, 2021-05-05 14:07:25.919
85.0, 521.5888671875, -748.2941284179688, 384.7814636230469, 112.18765258789062, -0.14400000870227814, 0.06400000303983688, 1.055999994277954, 0.0, 0.0, 0.0, 0.0, 0.0, 1.620216445919701E9, 2021-05-05 14:07:25.919
86.0, 532.0755615234375, -744.0680541992188, 380.2449645996094, 121.40276336669922, -0.14400000870227814, 0.06400000303983688, 1.055999994277954, 0.0, 0.0, 0.0, 0.0, 0.0, 1.6202164459339411E9, 2021-05-05 14:07:25.933
86.0, 551.8297119140625, -731.0382690429688, 385.7762756347656, 145.5475616455078, -0.14400000870227814, 0.06400000303983688, 1.055999994277954, 0.0, 0.0, 0.0, 0.0, 0.0, 1.6202164459339411E9, 2021-05-05 14:07:25.933
87.0, 537.1580810546875, -748.9972534179688, 382.5562438964844, 125.08282470703125, -0.14400000870227814, 0.06400000303983688, 1.055999994277954, 0.0, 0.0, 0.0, 0.0, 0.0, 1.620216445934656E9, 2021-05-05 14:07:25.934
87.0, 525.1043701171875, -751.1065673828125, 382.5973815917969, 111.83983612060547, -0.14400000870227814, 0.06400000303983688, 1.055999994277954, 0.0, 0.0, 0.0, 0.0, 0.0, 1.620216445934656E9, 2021-05-05 14:07:25.934
88.0, 533.6463012695312, -744.6514892578125, 378.4984436035156, 116.29405975341797, -0.14400000870227814, 0.06400000303983688, 1.055999994277954, 0.0, 0.0, 0.0, 0.0, 0.0, 1.6202164459481266E9, 2021-05-05 14:07:25.948
88.0, 552.5103759765625, -728.764404296875, 385.357421875, 136.53065490722656, -0.14400000870227814, 0.06400000303983688, 1.055999994277954, 0.0, 0.0, 0.0, 0.0, 0.0, 1.6202164459481266E9, 2021-05-05 14:07:25.948
89.0, 538.3623657226562, -740.7993774414062, 385.5406799316406, 128.2056427001953, -0.14400000870227814, 0.06400000303983688, 1.055999994277954, 0.0, 0.0, 0.0, 0.0, 0.0, 1.6202164459638784E9, 2021-05-05 14:07:25.963
89.0, 531.387451171875, -752.2471923828125, 389.0823669433594, 119.51411437988281, -0.14400000870227814, 0.06400000303983688, 1.055999994277954, 0.0, 0.0, 0.0, 0.0, 0.0, 1.6202164459638784E9, 2021-05-05 14:07:25.963
90.0, 535.9987182617188, -736.14697265625, 384.60943603515625, 130.5767364501953, -0.14400000870227814, 0.06400000303983688, 1.040000081062317, 0.0, 0.0, 0.0, 0.0, 0.0, 1.6202164459647076E9, 2021-05-05 14:07:25.964
90.0, 551.190185546875, -727.6423950195312, 385.0657043457031, 144.76217651367188, -0.14400000870227814, 0.06400000303983688, 1.040000081062317, 0.0, 0.0, 0.0, 0.0, 0.0, 1.6202164459647076E9, 2021-05-05 14:07:25.964
91.0, 538.2688598632812, -742.2691650390625, 384.0185241699219, 124.26378631591797, -0.14400000870227814, 0.06400000303983688, 1.040000081062317, 0.0, 0.0, 0.0, 0.0, 0.0, 1.6202164459781306E9, 2021-05-05 14:07:25.978
91.0, 522.198486328125, -742.310302734375, 376.87158203125, 107.37439727783203, -0.14400000870227814, 0.06400000303983688, 1.040000081062317, 0.0, 0.0, 0.0, 0.0, 0.0, 1.6202164459781306E9, 2021-05-05 14:07:25.978
92.0, 528.9789428710938, -722.3990478515625, 376.71826171875, 115.63583374023438, -0.14400000870227814, 0.06400000303983688, 1.040000081062317, 0.0, 0.0, 0.0, 0.0, 0.0, 1.620216445993994E9, 2021-05-05 14:07:25.993
92.0, 545.1614990234375, -724.3325805664062, 384.6805114746094, 134.07354736328125, -0.14400000870227814, 0.06400000303983688, 1.040000081062317, 0.0, 0.0, 0.0, 0.0, 0.0, 1.620216445993994E9, 2021-05-05 14:07:25.993
93.0, 532.46826171875, -738.4058227539062, 380.42449951171875, 111.11803436279297, -0.14400000870227814, 0.06400000303983688, 1.040000081062317, 0.0, 0.0, 0.0, 0.0, 0.0, 1.6202164459945955E9, 2021-05-05 14:07:25.994
93.0, 518.0360107421875, -740.9153442382812, 379.5830078125, 104.08702850341797, -0.14400000870227814, 0.06400000303983688, 1.040000081062317, 0.0, 0.0, 0.0, 0.0, 0.0, 1.6202164459945955E9, 2021-05-05 14:07:25.994
94.0, 526.8509521484375, -733.4654541015625, 379.8485412597656, 116.83260345458984, -0.14400000870227814, 0.06400000303983688, 1.040000081062317, 0.0, 0.0, 0.0, 0.0, 0.0, 1.6202164460081456E9, 2021-05-05 14:07:26.008
94.0, 546.4442749023438, -725.9108276367188, 385.17791748046875, 132.47286987304688, -0.14400000870227814, 0.06400000303983688, 1.040000081062317, 0.0, 0.0, 0.0, 0.0, 0.0, 1.6202164460081456E9, 2021-05-05 14:07:26.008
95.0, 536.5746459960938, -738.1328125, 387.5976257324219, 125.92056274414062, -0.14400000870227814, 0.06400000303983688, 1.040000081062317, 0.0, 0.0, 0.0, 0.0, 0.0, 1.620216446023922E9, 2021-05-05 14:07:26.023
95.0, 519.7526245117188, -742.0709228515625, 379.45587158203125, 103.92620849609375, -0.14400000870227814, 0.06400000303983688, 1.040000081062317, 0.0, 0.0, 0.0, 0.0, 0.0, 1.620216446023922E9, 2021-05-05 14:07:26.023
96.0, 524.9884643554688, -724.77392578125, 383.5248718261719, 114.85045623779297, -0.14400000870227814, 0.06400000303983688, 1.040000081062317, 0.0, 0.0, 0.0, 0.0, 0.0, 1.620216446024629E9, 2021-05-05 14:07:26.024
96.0, 554.7730102539062, -719.35107421875, 384.4934997558594, 140.64828491210938, -0.14400000870227814, 0.06400000303983688, 1.040000081062317, 0.0, 0.0, 0.0, 0.0, 0.0, 1.620216446024629E9, 2021-05-05 14:07:26.024
97.0, 535.965087890625, -741.0761108398438, 382.0700378417969, 122.0235824584961, -0.14400000870227814, 0.06400000303983688, 1.040000081062317, 0.0, 0.0, 0.0, 0.0, 0.0, 1.6202164460383153E9, 2021-05-05 14:07:26.038
97.0, 530.2879028320312, -747.1646728515625, 385.4696044921875, 115.8003921508789, -0.14400000870227814, 0.06400000303983688, 1.040000081062317, 0.0, 0.0, 0.0, 0.0, 0.0, 1.6202164460383153E9, 2021-05-05 14:07:26.038
98.0, 539.0729370117188, -731.9432983398438, 386.44573974609375, 132.75335693359375, -0.14400000870227814, 0.06400000303983688, 1.040000081062317, 0.0, 0.0, 0.0, 0.0, 0.0, 1.620216446054011E9, 2021-05-05 14:07:26.054
98.0, 553.2957763671875, -722.5524291992188, 386.7299499511719, 153.5584259033203, -0.14400000870227814, 0.06400000303983688, 1.040000081062317, 0.0, 0.0, 0.0, 0.0, 0.0, 1.620216446054011E9, 2021-05-05 14:07:26.054
99.0, 540.8980102539062, -741.992431640625, 389.5086975097656, 127.51375579833984, -0.14400000870227814, 0.06400000303983688, 1.040000081062317, 0.0, 0.0, 0.0, 0.0, 0.0, 1.6202164460546134E9, 2021-05-05 14:07:26.054
99.0, 527.6250610351562, -737.239013671875, 388.0726013183594, 122.6444091796875, -0.14400000870227814, 0.06400000303983688, 1.040000081062317, 0.0, 0.0, 0.0, 0.0, 0.0, 1.6202164460546134E9, 2021-05-05 14:07:26.054
100.0, 531.5258178710938, -730.8363037109375, 379.5418701171875, 127.61847686767578, -0.14400000870227814, 0.06400000303983688, 1.055999994277954, 0.0, 0.0, 0.0, 0.0, 0.0, 1.62021644606896E9, 2021-05-05 14:07:26.068
100.0, 550.2066040039062, -727.5302124023438, 386.7000427246094, 148.34500122070312, -0.14400000870227814, 0.06400000303983688, 1.055999994277954, 0.0, 0.0, 0.0, 0.0, 0.0, 1.62021644606896E9, 2021-05-05 14:07:26.068
0.0, 532.9282836914062, -744.1316528320312, 385.5556335449219, 129.2976837158203, -0.14400000870227814, 0.06400000303983688, 1.055999994277954, 0.0, 0.0, 0.0, 0.0, 0.0, 1.620216446069774E9, 2021-05-05 14:07:26.069
1.0, 524.3302612304688, -742.3514404296875, 386.449462890625, 116.78398895263672, -0.14400000870227814, 0.06400000303983688, 1.055999994277954, 0.0, 0.0, 0.0, 0.0, 0.0, 1.6202164460832562E9, 2021-05-05 14:07:26.083
1.0, 527.6063842773438, -740.9190673828125, 382.96014404296875, 121.3765869140625, -0.14400000870227814, 0.06400000303983688, 1.055999994277954, 0.0, 0.0, 0.0, 0.0, 0.0, 1.6202164460832562E9, 2021-05-05 14:07:26.083
2.0, 541.8030395507812, -726.1502075195312, 388.24462890625, 139.24581909179688, -0.14400000870227814, 0.06400000303983688, 1.055999994277954, 0.0, 0.0, 0.0, 0.0, 0.0, 1.6202164460989294E9, 2021-05-05 14:07:26.098
2.0, 523.7505493164062, -740.66845703125, 377.50738525390625, 114.51012420654297, -0.14400000870227814, 0.06400000303983688, 1.055999994277954, 0.0, 0.0, 0.0, 0.0, 0.0, 1.6202164460989294E9, 2021-05-05 14:07:26.098
3.0, 511.857666015625, -749.2964477539062, 369.59747314453125, 96.97373962402344, -0.14400000870227814, 0.06400000303983688, 1.055999994277954, 0.0, 0.0, 0.0, 0.0, 0.0, 1.620216446099619E9, 2021-05-05 14:07:26.099
3.0, 526.1216430664062, -730.279052734375, 376.74444580078125, 111.2825927734375, -0.14400000870227814, 0.06400000303983688, 1.055999994277954, 0.0, 0.0, 0.0, 0.0, 0.0, 1.620216446099619E9, 2021-05-05 14:07:26.099
4.0, 545.404541015625, -724.0670776367188, 376.60980224609375, 125.90186309814453, -0.14400000870227814, 0.06400000303983688, 1.055999994277954, 0.0, 0.0, 0.0, 0.0, 0.0, 1.6202164461131747E9, 2021-05-05 14:07:26.113
4.0, 526.7686767578125, -745.2760620117188, 375.8206787109375, 104.07954406738281, -0.14400000870227814, 0.06400000303983688, 1.055999994277954, 0.0, 0.0, 0.0, 0.0, 0.0, 1.6202164461131747E9, 2021-05-05 14:07:26.113
5.0, 523.4625854492188, -750.5829467773438, 379.60546875, 92.41854095458984, -0.14400000870227814, 0.06400000303983688, 1.055999994277954, 0.0, 0.0, 0.0, 0.0, 0.0, 1.62021644612931E9, 2021-05-05 14:07:26.129
5.0, 526.2749633789062, -732.8184204101562, 379.25390625, 107.49781799316406, -0.14400000870227814, 0.06400000303983688, 1.055999994277954, 0.0, 0.0, 0.0, 0.0, 0.0, 1.62021644612931E9, 2021-05-05 14:07:26.129
6.0, 546.118896484375, -723.4799194335938, 379.77374267578125, 129.12191772460938, -0.14400000870227814, 0.06400000303983688, 1.055999994277954, 0.0, 0.0, 0.0, 0.0, 0.0, 1.6202164461442544E9, 2021-05-05 14:07:26.144
6.0, 533.2686157226562, -729.8601684570312, 383.6258544921875, 126.26089477539062, -0.14400000870227814, 0.06400000303983688, 1.055999994277954, 0.0, 0.0, 0.0, 0.0, 0.0, 1.6202164461442544E9, 2021-05-05 14:07:26.144
7.0, 527.1912841796875, -747.250732421875, 373.8011169433594, 110.1568832397461, -0.14400000870227814, 0.06400000303983688, 1.055999994277954, 0.0, 0.0, 0.0, 0.0, 0.0, 1.6202164461596203E9, 2021-05-05 14:07:26.159
7.0, 534.4653930664062, -734.45654296875, 381.59881591796875, 125.40071868896484, -0.14400000870227814, 0.06400000303983688, 1.055999994277954, 0.0, 0.0, 0.0, 0.0, 0.0, 1.6202164461596203E9, 2021-05-05 14:07:26.159
8.0, 551.6277465820312, -729.2655029296875, 389.7630310058594, 156.03797912597656, -0.14400000870227814, 0.06400000303983688, 1.055999994277954, 0.0, 0.0, 0.0, 0.0, 0.0, 1.6202164461603577E9, 2021-05-05 14:07:26.160
8.0, 540.9578247070312, -742.7890014648438, 381.3594665527344, 129.06956481933594, -0.14400000870227814, 0.06400000303983688, 1.055999994277954, 0.0, 0.0, 0.0, 0.0, 0.0, 1.6202164461603577E9, 2021-05-05 14:07:26.160
9.0, 531.6005859375, -740.7096557617188, 382.5450134277344, 123.05205535888672, -0.14400000870227814, 0.06400000303983688, 1.055999994277954, 0.0, 0.0, 0.0, 0.0, 0.0, 1.6202164461610527E9, 2021-05-05 14:07:26.161
9.0, 540.2173461914062, -737.0444946289062, 381.6062927246094, 137.9593048095703, -0.14400000870227814, 0.06400000303983688, 1.055999994277954, 0.0, 0.0, 0.0, 0.0, 0.0, 1.6202164461610527E9, 2021-05-05 14:07:26.161
10.0, 559.2945556640625, -722.1484985351562, 388.73455810546875, 154.02964782714844, -0.14400000870227814, 0.06400000303983688, 1.055999994277954, 0.0, 0.0, 0.0, 0.0, 0.0, 1.6202164461731987E9, 2021-05-05 14:07:26.173
10.0, 542.9699096679688, -739.411865234375, 390.0921325683594, 138.73345947265625, -0.14400000870227814, 0.06400000303983688, 1.055999994277954, 0.0, 0.0, 0.0, 0.0, 0.0, 1.6202164461731987E9, 2021-05-05 14:07:26.173
11.0, 531.2415771484375, -744.4981689453125, 387.9005432128906, 124.75745391845703, -0.14400000870227814, 0.06400000303983688, 1.055999994277954, 0.0, 0.0, 0.0, 0.0, 0.0, 1.6202164461890025E9, 2021-05-05 14:07:26.189
11.0, 536.469970703125, -728.7494506835938, 384.8338317871094, 128.31784057617188, -0.14400000870227814, 0.06400000303983688, 1.055999994277954, 0.0, 0.0, 0.0, 0.0, 0.0, 1.6202164461890025E9, 2021-05-05 14:07:26.189
12.0, 553.0377197265625, -714.010498046875, 387.4891662597656, 149.41835021972656, -0.14400000870227814, 0.06400000303983688, 1.055999994277954, 0.0, 0.0, 0.0, 0.0, 0.0, 1.6202164461896367E9, 2021-05-05 14:07:26.189
12.0, 538.54931640625, -728.3455200195312, 385.11431884765625, 129.54078674316406, -0.14400000870227814, 0.06400000303983688, 1.055999994277954, 0.0, 0.0, 0.0, 0.0, 0.0, 1.6202164461896367E9, 2021-05-05 14:07:26.189
13.0, 529.4950561523438, -731.6029663085938, 388.31195068359375, 117.4048080444336, -0.14400000870227814, 0.06400000303983688, 1.055999994277954, 0.0, 0.0, 0.0, 0.0, 0.0, 1.6202164462031903E9, 2021-05-05 14:07:26.203
13.0, 537.5358276367188, -726.5503540039062, 384.583251953125, 129.19671630859375, -0.14400000870227814, 0.06400000303983688, 1.055999994277954, 0.0, 0.0, 0.0, 0.0, 0.0, 1.6202164462031903E9, 2021-05-05 14:07:26.203
14.0, 552.6936645507812, -717.918701171875, 385.72393798828125, 143.61402893066406, -0.14400000870227814, 0.06400000303983688, 1.055999994277954, 0.0, 0.0, 0.0, 0.0, 0.0, 1.6202164462188075E9, 2021-05-05 14:07:26.218
14.0, 536.8963012695312, -733.6187744140625, 392.0293884277344, 126.58626556396484, -0.14400000870227814, 0.06400000303983688, 1.055999994277954, 0.0, 0.0, 0.0, 0.0, 0.0, 1.6202164462188075E9, 2021-05-05 14:07:26.218
15.0, 530.7105102539062, -735.1221923828125, 389.0374755859375, 112.73367309570312, -0.14400000870227814, 0.06400000303983688, 1.055999994277954, 0.0, 0.0, 0.0, 0.0, 0.0, 1.6202164462195625E9, 2021-05-05 14:07:26.219
15.0, 545.0567626953125, -724.0969848632812, 391.28515625, 128.1532745361328, -0.14400000870227814, 0.06400000303983688, 1.055999994277954, 0.0, 0.0, 0.0, 0.0, 0.0, 1.6202164462195625E9, 2021-05-05 14:07:26.219
16.0, 561.2094116210938, -720.3757934570312, 400.1748962402344, 146.91261291503906, -0.14400000870227814, 0.06400000303983688, 1.055999994277954, 0.0, 0.0, 0.0, 0.0, 0.0, 1.6202164462649612E9, 2021-05-05 14:07:26.264
16.0, 547.869140625, -728.7568969726562, 392.7773742675781, 133.0263671875, -0.14400000870227814, 0.06400000303983688, 1.055999994277954, 0.0, 0.0, 0.0, 0.0, 0.0, 1.6202164462649612E9, 2021-05-05 14:07:26.264
17.0, 539.7610473632812, -743.1218872070312, 388.5961608886719, 117.80497741699219, -0.14400000870227814, 0.06400000303983688, 1.055999994277954, 0.0, 0.0, 0.0, 0.0, 0.0, 1.6202164462657382E9, 2021-05-05 14:07:26.265
17.0, 545.3821411132812, -739.0191650390625, 388.820556640625, 125.16136169433594, -0.14400000870227814, 0.06400000303983688, 1.055999994277954, 0.0, 0.0, 0.0, 0.0, 0.0, 1.6202164462657382E9, 2021-05-05 14:07:26.265
18.0, 569.1080322265625, -725.7650146484375, 391.77508544921875, 146.95001220703125, -0.14400000870227814, 0.06400000303983688, 1.055999994277954, 0.0, 0.0, 0.0, 0.0, 0.0, 1.6202164462665005E9, 2021-05-05 14:07:26.266
18.0, 553.1461791992188, -741.476318359375, 389.6433410644531, 128.68809509277344, -0.14400000870227814, 0.06400000303983688, 1.055999994277954, 0.0, 0.0, 0.0, 0.0, 0.0, 1.6202164462665005E9, 2021-05-05 14:07:26.266
19.0, 540.44921875, -747.875244140625, 390.2566833496094, 114.7756576538086, -0.14400000870227814, 0.06400000303983688, 1.055999994277954, 0.0, 0.0, 0.0, 0.0, 0.0, 1.6202164462795413E9, 2021-05-05 14:07:26.279
19.0, 542.9063110351562, -738.237548828125, 380.615234375, 123.1492919921875, -0.14400000870227814, 0.06400000303983688, 1.055999994277954, 0.0, 0.0, 0.0, 0.0, 0.0, 1.6202164462795413E9, 2021-05-05 14:07:26.279
20.0, 561.0822143554688, -724.1979370117188, 388.7944030761719, 144.4854278564453, -0.14400000870227814, 0.06400000303983688, 1.040000081062317, 0.0, 0.0, 0.0, 0.0, 0.0, 1.6202164462802453E9, 2021-05-05 14:07:26.280
20.0, 540.8456420898438, -741.5324096679688, 383.4874572753906, 130.068115234375, -0.14400000870227814, 0.06400000303983688, 1.040000081062317, 0.0, 0.0, 0.0, 0.0, 0.0, 1.6202164462802453E9, 2021-05-05 14:07:26.280
21.0, 530.60205078125, -745.4031982421875, 381.21734619140625, 117.47586822509766, -0.14400000870227814, 0.06400000303983688, 1.040000081062317, 0.0, 0.0, 0.0, 0.0, 0.0, 1.6202164462811077E9, 2021-05-05 14:07:26.281
21.0, 528.489013671875, -727.0814208984375, 376.2507629394531, 119.73102569580078, -0.14400000870227814, 0.06400000303983688, 1.040000081062317, 0.0, 0.0, 0.0, 0.0, 0.0, 1.6202164462811077E9, 2021-05-05 14:07:26.281
22.0, 552.787109375, -726.6213989257812, 390.38385009765625, 142.00587463378906, -0.14400000870227814, 0.06400000303983688, 1.040000081062317, 0.0, 0.0, 0.0, 0.0, 0.0, 1.6202164462931328E9, 2021-05-05 14:07:26.293
22.0, 539.0691528320312, -739.3221435546875, 391.3188171386719, 127.00513458251953, -0.14400000870227814, 0.06400000303983688, 1.040000081062317, 0.0, 0.0, 0.0, 0.0, 0.0, 1.6202164462931328E9, 2021-05-05 14:07:26.293
23.0, 526.3497924804688, -736.2217407226562, 388.24835205078125, 117.19537353515625, -0.14400000870227814, 0.06400000303983688, 1.040000081062317, 0.0, 0.0, 0.0, 0.0, 0.0, 1.6202164463086085E9, 2021-05-05 14:07:26.308
23.0, 534.9963989257812, -724.6542358398438, 385.11431884765625, 117.80123901367188, -0.14400000870227814, 0.06400000303983688, 1.040000081062317, 0.0, 0.0, 0.0, 0.0, 0.0, 1.6202164463086085E9, 2021-05-05 14:07:26.308
24.0, 551.3846435546875, -720.1214599609375, 392.2425842285156, 141.14195251464844, -0.14400000870227814, 0.06400000303983688, 1.040000081062317, 0.0, 0.0, 0.0, 0.0, 0.0, 1.620216446323956E9, 2021-05-05 14:07:26.323
24.0, 548.8602294921875, -732.2686767578125, 394.1312255859375, 127.43148040771484, -0.14400000870227814, 0.06400000303983688, 1.040000081062317, 0.0, 0.0, 0.0, 0.0, 0.0, 1.620216446323956E9, 2021-05-05 14:07:26.323
25.0, 530.8040161132812, -741.9138793945312, 387.56768798828125, 106.35714721679688, -0.14400000870227814, 0.06400000303983688, 1.040000081062317, 0.0, 0.0, 0.0, 0.0, 0.0, 1.6202164463246224E9, 2021-05-05 14:07:26.324
25.0, 537.139404296875, -725.2750854492188, 386.96185302734375, 111.92585754394531, -0.14400000870227814, 0.06400000303983688, 1.040000081062317, 0.0, 0.0, 0.0, 0.0, 0.0, 1.6202164463246224E9, 2021-05-05 14:07:26.324
26.0, 558.90185546875, -704.1483764648438, 403.7165832519531, 136.78123474121094, -0.14400000870227814, 0.06400000303983688, 1.040000081062317, 0.0, 0.0, 0.0, 0.0, 0.0, 1.6202164463389103E9, 2021-05-05 14:07:26.338
26.0, 540.0565185546875, -730.7913818359375, 395.29058837890625, 123.84117889404297, -0.14400000870227814, 0.06400000303983688, 1.040000081062317, 0.0, 0.0, 0.0, 0.0, 0.0, 1.6202164463389103E9, 2021-05-05 14:07:26.338
27.0, 530.9947509765625, -725.3947143554688, 391.2664489746094, 116.95976257324219, -0.14400000870227814, 0.06400000303983688, 1.040000081062317, 0.0, 0.0, 0.0, 0.0, 0.0, 1.6202164463397229E9, 2021-05-05 14:07:26.339
27.0, 541.14111328125, -705.2067260742188, 396.0834655761719, 127.61847686767578, -0.14400000870227814, 0.06400000303983688, 1.040000081062317, 0.0, 0.0, 0.0, 0.0, 0.0, 1.6202164463397229E9, 2021-05-05 14:07:26.339
28.0, 557.4657592773438, -692.5509643554688, 398.7911376953125, 145.6634979248047, -0.14400000870227814, 0.06400000303983688, 1.040000081062317, 0.0, 0.0, 0.0, 0.0, 0.0, 1.6202164463692715E9, 2021-05-05 14:07:26.369
28.0, 533.2236938476562, -724.4148559570312, 385.21905517578125, 120.45282745361328, -0.14400000870227814, 0.06400000303983688, 1.040000081062317, 0.0, 0.0, 0.0, 0.0, 0.0, 1.6202164463692715E9, 2021-05-05 14:07:26.369
29.0, 517.433837890625, -723.0947265625, 381.82696533203125, 110.49347686767578, -0.14400000870227814, 0.06400000303983688, 1.040000081062317, 0.0, 0.0, 0.0, 0.0, 0.0, 1.6202164463700635E9, 2021-05-05 14:07:26.370
29.0, 520.2425537109375, -722.4102783203125, 375.9627990722656, 111.23771667480469, -0.14400000870227814, 0.06400000303983688, 1.040000081062317, 0.0, 0.0, 0.0, 0.0, 0.0, 1.6202164463700635E9, 2021-05-05 14:07:26.370
30.0, 540.4342651367188, -705.6966552734375, 377.20819091796875, 132.13253784179688, -0.14400000870227814, 0.06400000303983688, 1.040000081062317, 0.0, 0.0, 0.0, 0.0, 0.0, 1.6202164463838503E9, 2021-05-05 14:07:26.383
30.0, 520.1714477539062, -734.4639892578125, 373.0868225097656, 114.97761535644531, -0.14400000870227814, 0.06400000303983688, 1.040000081062317, 0.0, 0.0, 0.0, 0.0, 0.0, 1.6202164463838503E9, 2021-05-05 14:07:26.383
31.0, 500.0956726074219, -737.6653442382812, 365.8575744628906, 95.20476531982422, -0.14400000870227814, 0.06400000303983688, 1.040000081062317, 0.0, 0.0, 0.0, 0.0, 0.0, 1.620216446384576E9, 2021-05-05 14:07:26.384
31.0, 506.55450439453125, -722.0886840820312, 366.62799072265625, 101.93658447265625, -0.14400000870227814, 0.06400000303983688, 1.040000081062317, 0.0, 0.0, 0.0, 0.0, 0.0, 1.620216446384576E9, 2021-05-05 14:07:26.384
32.0, 527.8345336914062, -719.399658203125, 367.7275390625, 122.5396957397461, -0.14400000870227814, 0.06400000303983688, 1.040000081062317, 0.0, 0.0, 0.0, 0.0, 0.0, 1.6202164463988187E9, 2021-05-05 14:07:26.398
32.0, 514.8308715820312, -733.4804077148438, 372.0845031738281, 113.13384246826172, -0.14400000870227814, 0.06400000303983688, 1.040000081062317, 0.0, 0.0, 0.0, 0.0, 0.0, 1.6202164463988187E9, 2021-05-05 14:07:26.398
33.0, 500.4771423339844, -735.8814086914062, 368.6026611328125, 88.84319305419922, -0.14400000870227814, 0.06400000303983688, 1.040000081062317, 0.0, 0.0, 0.0, 0.0, 0.0, 1.6202164463995795E9, 2021-05-05 14:07:26.399
33.0, 509.8194274902344, -723.3527221679688, 368.1015319824219, 100.39200592041016, -0.14400000870227814, 0.06400000303983688, 1.040000081062317, 0.0, 0.0, 0.0, 0.0, 0.0, 1.6202164463995795E9, 2021-05-05 14:07:26.399
34.0, 544.5967407226562, -718.4273071289062, 380.8844909667969, 123.35124969482422, -0.14400000870227814, 0.06400000303983688, 1.040000081062317, 0.0, 0.0, 0.0, 0.0, 0.0, 1.620216446413142E9, 2021-05-05 14:07:26.413
34.0, 526.7611694335938, -734.56494140625, 376.8416748046875, 107.4865951538086, -0.14400000870227814, 0.06400000303983688, 1.040000081062317, 0.0, 0.0, 0.0, 0.0, 0.0, 1.620216446413142E9, 2021-05-05 14:07:26.413
35.0, 518.8139038085938, -733.9515991210938, 379.77374267578125, 97.49358367919922, -0.14400000870227814, 0.06400000303983688, 1.040000081062317, 0.0, 0.0, 0.0, 0.0, 0.0, 1.620216446428928E9, 2021-05-05 14:07:26.428
35.0, 523.1671142578125, -734.7744140625, 374.5229187011719, 94.46426391601562, -0.14400000870227814, 0.06400000303983688, 1.040000081062317, 0.0, 0.0, 0.0, 0.0, 0.0, 1.620216446428928E9, 2021-05-05 14:07:26.428
36.0, 549.5371704101562, -725.6602783203125, 387.8033142089844, 129.6081085205078, -0.14400000870227814, 0.06400000303983688, 1.040000081062317, 0.0, 0.0, 0.0, 0.0, 0.0, 1.620216446429674E9, 2021-05-05 14:07:26.429
36.0, 527.2510986328125, -740.1710815429688, 381.4155578613281, 110.82632446289062, -0.14400000870227814, 0.06400000303983688, 1.040000081062317, 0.0, 0.0, 0.0, 0.0, 0.0, 1.620216446429674E9, 2021-05-05 14:07:26.429
37.0, 514.7598266601562, -741.5398559570312, 384.44488525390625, 101.8917007446289, -0.14400000870227814, 0.06400000303983688, 1.040000081062317, 0.0, 0.0, 0.0, 0.0, 0.0, 1.6202164464432244E9, 2021-05-05 14:07:26.443
37.0, 522.6472778320312, -731.3786010742188, 380.8919677734375, 111.91463470458984, -0.14400000870227814, 0.06400000303983688, 1.040000081062317, 0.0, 0.0, 0.0, 0.0, 0.0, 1.6202164464432244E9, 2021-05-05 14:07:26.443
38.0, 542.9549560546875, -720.0055541992188, 385.5930480957031, 135.3189239501953, -0.14400000870227814, 0.06400000303983688, 1.040000081062317, 0.0, 0.0, 0.0, 0.0, 0.0, 1.620216446458999E9, 2021-05-05 14:07:26.458
38.0, 530.3701782226562, -736.45361328125, 386.1502685546875, 125.85698699951172, -0.14400000870227814, 0.06400000303983688, 1.040000081062317, 0.0, 0.0, 0.0, 0.0, 0.0, 1.620216446458999E9, 2021-05-05 14:07:26.458
39.0, 512.6991577148438, -743.72021484375, 376.95013427734375, 107.67733001708984, -0.14400000870227814, 0.06400000303983688, 1.040000081062317, 0.0, 0.0, 0.0, 0.0, 0.0, 1.620216446459688E9, 2021-05-05 14:07:26.459
39.0, 524.382568359375, -733.0914306640625, 377.56719970703125, 115.77046966552734, -0.14400000870227814, 0.06400000303983688, 1.040000081062317, 0.0, 0.0, 0.0, 0.0, 0.0, 1.620216446459688E9, 2021-05-05 14:07:26.459
40.0, 536.3577270507812, -713.9393920898438, 383.33038330078125, 142.00213623046875, -0.14400000870227814, 0.06400000303983688, 1.055999994277954, 0.0, 0.0, 0.0, 0.0, 0.0, 1.6202164464732172E9, 2021-05-05 14:07:26.473
40.0, 523.3466186523438, -750.3884887695312, 379.2202453613281, 117.05326080322266, -0.14400000870227814, 0.06400000303983688, 1.055999994277954, 0.0, 0.0, 0.0, 0.0, 0.0, 1.6202164464732172E9, 2021-05-05 14:07:26.473
41.0, 507.6839294433594, -746.2745971679688, 381.86810302734375, 108.5113296508789, -0.14400000870227814, 0.06400000303983688, 1.055999994277954, 0.0, 0.0, 0.0, 0.0, 0.0, 1.620216446488925E9, 2021-05-05 14:07:26.488
41.0, 519.4608764648438, -733.8095092773438, 380.77978515625, 118.37718200683594, -0.14400000870227814, 0.06400000303983688, 1.055999994277954, 0.0, 0.0, 0.0, 0.0, 0.0, 1.620216446488925E9, 2021-05-05 14:07:26.488
42.0, 537.7490234375, -717.6718139648438, 386.0455627441406, 134.12216186523438, -0.14400000870227814, 0.06400000303983688, 1.055999994277954, 0.0, 0.0, 0.0, 0.0, 0.0, 1.6202164464896622E9, 2021-05-05 14:07:26.489
42.0, 529.2482299804688, -729.8265380859375, 382.5001525878906, 118.05554962158203, -0.14400000870227814, 0.06400000303983688, 1.055999994277954, 0.0, 0.0, 0.0, 0.0, 0.0, 1.6202164464896622E9, 2021-05-05 14:07:26.489
43.0, 514.7373657226562, -743.7913208007812, 381.0191345214844, 102.426513671875, -0.14400000870227814, 0.06400000303983688, 1.055999994277954, 0.0, 0.0, 0.0, 0.0, 0.0, 1.6202164465032628E9, 2021-05-05 14:07:26.503
43.0, 523.0362548828125, -729.0448608398438, 381.883056640625, 113.38815307617188, -0.14400000870227814, 0.06400000303983688, 1.055999994277954, 0.0, 0.0, 0.0, 0.0, 0.0, 1.6202164465032628E9, 2021-05-05 14:07:26.503
44.0, 552.4991455078125, -722.3355102539062, 393.2822570800781, 133.67710876464844, -0.14400000870227814, 0.06400000303983688, 1.055999994277954, 0.0, 0.0, 0.0, 0.0, 0.0, 1.620216446535258E9, 2021-05-05 14:07:26.535
44.0, 540.59130859375, -735.7991333007812, 392.3697204589844, 114.2745132446289, -0.14400000870227814, 0.06400000303983688, 1.055999994277954, 0.0, 0.0, 0.0, 0.0, 0.0, 1.620216446535258E9, 2021-05-05 14:07:26.535
45.0, 523.1746215820312, -741.5099487304688, 390.193115234375, 96.65584564208984, -0.14400000870227814, 0.06400000303983688, 1.055999994277954, 0.0, 0.0, 0.0, 0.0, 0.0, 1.62021644653601E9, 2021-05-05 14:07:26.536
45.0, 533.7622680664062, -733.21484375, 388.54754638671875, 104.18800354003906, -0.14400000870227814, 0.06400000303983688, 1.055999994277954, 0.0, 0.0, 0.0, 0.0, 0.0, 1.62021644653601E9, 2021-05-05 14:07:26.536
46.0, 556.3961181640625, -716.8191528320312, 394.7782287597656, 126.73211669921875, -0.14400000870227814, 0.06400000303983688, 1.055999994277954, 0.0, 0.0, 0.0, 0.0, 0.0, 1.62021644653676E9, 2021-05-05 14:07:26.536
46.0, 540.0078735351562, -735.4475708007812, 398.7013854980469, 119.211181640625, -0.14400000870227814, 0.06400000303983688, 1.055999994277954, 0.0, 0.0, 0.0, 0.0, 0.0, 1.62021644653676E9, 2021-05-05 14:07:26.536
47.0, 524.2442016601562, -741.5847778320312, 386.5242614746094, 102.29561614990234, -0.14400000870227814, 0.06400000303983688, 1.055999994277954, 0.0, 0.0, 0.0, 0.0, 0.0, 1.6202164465374901E9, 2021-05-05 14:07:26.537
47.0, 530.7404174804688, -734.62109375, 388.6597595214844, 113.19741821289062, -0.14400000870227814, 0.06400000303983688, 1.055999994277954, 0.0, 0.0, 0.0, 0.0, 0.0, 1.6202164465374901E9, 2021-05-05 14:07:26.537
48.0, 552.914306640625, -721.1461791992188, 393.97039794921875, 138.38938903808594, -0.14400000870227814, 0.06400000303983688, 1.055999994277954, 0.0, 0.0, 0.0, 0.0, 0.0, 1.6202164465802174E9, 2021-05-05 14:07:26.580
48.0, 533.4144287109375, -737.5980224609375, 391.2440185546875, 119.9329833984375, -0.14400000870227814, 0.06400000303983688, 1.055999994277954, 0.0, 0.0, 0.0, 0.0, 0.0, 1.6202164465802174E9, 2021-05-05 14:07:26.580
49.0, 514.7747802734375, -739.2660522460938, 382.0064697265625, 112.07545471191406, -0.14400000870227814, 0.06400000303983688, 1.055999994277954, 0.0, 0.0, 0.0, 0.0, 0.0, 1.6202164465809555E9, 2021-05-05 14:07:26.580
49.0, 517.1309204101562, -733.8880615234375, 373.35235595703125, 109.62207794189453, -0.14400000870227814, 0.06400000303983688, 1.055999994277954, 0.0, 0.0, 0.0, 0.0, 0.0, 1.6202164465809555E9, 2021-05-05 14:07:26.580
50.0, 537.4011840820312, -724.8636474609375, 382.0924987792969, 137.8209228515625, -0.14400000870227814, 0.06400000303983688, 1.055999994277954, 0.0, 0.0, 0.0, 0.0, 0.0, 1.620216446581708E9, 2021-05-05 14:07:26.581
50.0, 524.229248046875, -733.1475219726562, 382.5711975097656, 121.37284088134766, -0.14400000870227814, 0.06400000303983688, 1.055999994277954, 0.0, 0.0, 0.0, 0.0, 0.0, 1.620216446581708E9, 2021-05-05 14:07:26.581
51.0, 505.929931640625, -741.4014892578125, 380.38336181640625, 108.11489868164062, -0.14400000870227814, 0.06400000303983688, 1.055999994277954, 0.0, 0.0, 0.0, 0.0, 0.0, 1.6202164465824263E9, 2021-05-05 14:07:26.582
51.0, 514.3558959960938, -738.9930419921875, 375.45416259765625, 102.77058410644531, -0.14400000870227814, 0.06400000303983688, 1.055999994277954, 0.0, 0.0, 0.0, 0.0, 0.0, 1.6202164465824263E9, 2021-05-05 14:07:26.582
52.0, 540.1201171875, -725.6265869140625, 380.7723083496094, 127.34172058105469, -0.14400000870227814, 0.06400000303983688, 1.055999994277954, 0.0, 0.0, 0.0, 0.0, 0.0, 1.6202164465933473E9, 2021-05-05 14:07:26.593
52.0, 530.201904296875, -737.7962646484375, 378.5508117675781, 111.3012924194336, -0.14400000870227814, 0.06400000303983688, 1.055999994277954, 0.0, 0.0, 0.0, 0.0, 0.0, 1.6202164465933473E9, 2021-05-05 14:07:26.593
53.0, 515.8967895507812, -745.9903564453125, 377.6233215332031, 92.70651245117188, -0.14400000870227814, 0.06400000303983688, 1.055999994277954, 0.0, 0.0, 0.0, 0.0, 0.0, 1.6202164466092727E9, 2021-05-05 14:07:26.609
53.0, 532.3223876953125, -733.7197265625, 381.0602722167969, 99.61784362792969, -0.14400000870227814, 0.06400000303983688, 1.055999994277954, 0.0, 0.0, 0.0, 0.0, 0.0, 1.6202164466092727E9, 2021-05-05 14:07:26.609
54.0, 551.8895263671875, -720.0728759765625, 392.8297424316406, 123.67662048339844, -0.14400000870227814, 0.06400000303983688, 1.055999994277954, 0.0, 0.0, 0.0, 0.0, 0.0, 1.620216446640319E9, 2021-05-05 14:07:26.640
54.0, 547.6522216796875, -737.46337890625, 396.6706237792969, 115.68819427490234, -0.14400000870227814, 0.06400000303983688, 1.055999994277954, 0.0, 0.0, 0.0, 0.0, 0.0, 1.620216446640319E9, 2021-05-05 14:07:26.640
55.0, 535.1310424804688, -745.5452880859375, 388.57373046875, 101.16242218017578, -0.14400000870227814, 0.06400000303983688, 1.055999994277954, 0.0, 0.0, 0.0, 0.0, 0.0, 1.6202164466410103E9, 2021-05-05 14:07:26.641
55.0, 542.775390625, -730.4922485351562, 389.9126281738281, 116.14446258544922, -0.14400000870227814, 0.06400000303983688, 1.055999994277954, 0.0, 0.0, 0.0, 0.0, 0.0, 1.6202164466410103E9, 2021-05-05 14:07:26.641
56.0, 553.6846923828125, -727.8181762695312, 386.9730529785156, 129.39866638183594, -0.14400000870227814, 0.06400000303983688, 1.055999994277954, 0.0, 0.0, 0.0, 0.0, 0.0, 1.620216446641842E9, 2021-05-05 14:07:26.641
56.0, 548.2394409179688, -735.7692260742188, 389.6994323730469, 127.91767120361328, -0.14400000870227814, 0.06400000303983688, 1.055999994277954, 0.0, 0.0, 0.0, 0.0, 0.0, 1.620216446641842E9, 2021-05-05 14:07:26.641
57.0, 528.455322265625, -752.7034912109375, 387.23486328125, 107.26968383789062, -0.14400000870227814, 0.06400000303983688, 1.055999994277954, 0.0, 0.0, 0.0, 0.0, 0.0, 1.6202164466426287E9, 2021-05-05 14:07:26.642
57.0, 529.04248046875, -739.5128784179688, 377.4774475097656, 119.42809295654297, -0.14400000870227814, 0.06400000303983688, 1.055999994277954, 0.0, 0.0, 0.0, 0.0, 0.0, 1.6202164466426287E9, 2021-05-05 14:07:26.642
58.0, 553.078857421875, -729.3291015625, 388.7906494140625, 138.98403930664062, -0.14400000870227814, 0.06400000303983688, 1.055999994277954, 0.0, 0.0, 0.0, 0.0, 0.0, 1.6202164466532006E9, 2021-05-05 14:07:26.653
58.0, 543.31396484375, -743.6005859375, 391.0158996582031, 127.67457580566406, -0.14400000870227814, 0.06400000303983688, 1.055999994277954, 0.0, 0.0, 0.0, 0.0, 0.0, 1.6202164466532006E9, 2021-05-05 14:07:26.653
59.0, 515.0590209960938, -747.8416137695312, 387.141357421875, 106.97422790527344, -0.14400000870227814, 0.06400000303983688, 1.055999994277954, 0.0, 0.0, 0.0, 0.0, 0.0, 1.620216446685258E9, 2021-05-05 14:07:26.685
59.0, 521.9030151367188, -740.761962890625, 386.2550048828125, 116.12950134277344, -0.14400000870227814, 0.06400000303983688, 1.055999994277954, 0.0, 0.0, 0.0, 0.0, 0.0, 1.620216446685258E9, 2021-05-05 14:07:26.685
60.0, 544.69775390625, -728.7830810546875, 388.5625305175781, 132.21107482910156, -0.14400000870227814, 0.06400000303983688, 1.040000081062317, 0.0, 0.0, 0.0, 0.0, 0.0, 1.6202164466859443E9, 2021-05-05 14:07:26.685
60.0, 527.8157958984375, -745.0665893554688, 390.3501892089844, 116.1369857788086, -0.14400000870227814, 0.06400000303983688, 1.040000081062317, 0.0, 0.0, 0.0, 0.0, 0.0, 1.6202164466859443E9, 2021-05-05 14:07:26.685
61.0, 520.8745727539062, -745.6537475585938, 390.7167053222656, 113.78832244873047, -0.14400000870227814, 0.06400000303983688, 1.040000081062317, 0.0, 0.0, 0.0, 0.0, 0.0, 1.6202164466867561E9, 2021-05-05 14:07:26.686
61.0, 519.546875, -740.0139770507812, 383.61090087890625, 108.96011352539062, -0.14400000870227814, 0.06400000303983688, 1.040000081062317, 0.0, 0.0, 0.0, 0.0, 0.0, 1.6202164466867561E9, 2021-05-05 14:07:26.686
62.0, 548.7705078125, -726.13525390625, 390.368896484375, 131.49301147460938, -0.14400000870227814, 0.06400000303983688, 1.040000081062317, 0.0, 0.0, 0.0, 0.0, 0.0, 1.6202164466874585E9, 2021-05-05 14:07:26.687
62.0, 540.2322998046875, -734.2283935546875, 392.15283203125, 123.5494613647461, -0.14400000870227814, 0.06400000303983688, 1.040000081062317, 0.0, 0.0, 0.0, 0.0, 0.0, 1.6202164466874585E9, 2021-05-05 14:07:26.687
63.0, 523.384033203125, -748.776611328125, 390.63067626953125, 103.189453125, -0.14400000870227814, 0.06400000303983688, 1.040000081062317, 0.0, 0.0, 0.0, 0.0, 0.0, 1.6202164467300951E9, 2021-05-05 14:07:26.730
63.0, 533.1825561523438, -727.4927978515625, 389.2356872558594, 107.96903991699219, -0.14400000870227814, 0.06400000303983688, 1.040000081062317, 0.0, 0.0, 0.0, 0.0, 0.0, 1.6202164467300951E9, 2021-05-05 14:07:26.730
64.0, 560.12109375, -727.78076171875, 396.6182556152344, 132.33074951171875, -0.14400000870227814, 0.06400000303983688, 1.040000081062317, 0.0, 0.0, 0.0, 0.0, 0.0, 1.6202164467307403E9, 2021-05-05 14:07:26.730
64.0, 549.9111328125, -740.1785888671875, 396.1246032714844, 123.79255676269531, -0.14400000870227814, 0.06400000303983688, 1.040000081062317, 0.0, 0.0, 0.0, 0.0, 0.0, 1.6202164467307403E9, 2021-05-05 14:07:26.730
65.0, 533.1190185546875, -740.1448974609375, 394.5762634277344, 107.19488525390625, -0.14400000870227814, 0.06400000303983688, 1.040000081062317, 0.0, 0.0, 0.0, 0.0, 0.0, 1.620216446731491E9, 2021-05-05 14:07:26.731
65.0, 540.8568725585938, -732.9867553710938, 394.14617919921875, 112.68879699707031, -0.14400000870227814, 0.06400000303983688, 1.040000081062317, 0.0, 0.0, 0.0, 0.0, 0.0, 1.620216446731491E9, 2021-05-05 14:07:26.731
66.0, 562.4061279296875, -720.2149658203125, 398.1590881347656, 141.91236877441406, -0.14400000870227814, 0.06400000303983688, 1.040000081062317, 0.0, 0.0, 0.0, 0.0, 0.0, 1.6202164467438912E9, 2021-05-05 14:07:26.743
66.0, 547.656005859375, -738.0468139648438, 394.01904296875, 129.65672302246094, -0.14400000870227814, 0.06400000303983688, 1.040000081062317, 0.0, 0.0, 0.0, 0.0, 0.0, 1.6202164467438912E9, 2021-05-05 14:07:26.743
67.0, 533.6612548828125, -737.3960571289062, 394.2434387207031, 119.48793029785156, -0.14400000870227814, 0.06400000303983688, 1.040000081062317, 0.0, 0.0, 0.0, 0.0, 0.0, 1.620216446744573E9, 2021-05-05 14:07:26.744
67.0, 534.6149291992188, -739.411865234375, 385.181640625, 121.64585876464844, -0.14400000870227814, 0.06400000303983688, 1.040000081062317, 0.0, 0.0, 0.0, 0.0, 0.0, 1.620216446744573E9, 2021-05-05 14:07:26.744
68.0, 559.3207397460938, -724.6841430664062, 395.3280029296875, 141.5907440185547, -0.14400000870227814, 0.06400000303983688, 1.040000081062317, 0.0, 0.0, 0.0, 0.0, 0.0, 1.6202164467588851E9, 2021-05-05 14:07:26.758
68.0, 548.5573120117188, -728.7232666015625, 395.8515930175781, 123.29515075683594, -0.14400000870227814, 0.06400000303983688, 1.040000081062317, 0.0, 0.0, 0.0, 0.0, 0.0, 1.6202164467588851E9, 2021-05-05 14:07:26.758
69.0, 531.1630249023438, -743.8997802734375, 389.9275817871094, 109.43134307861328, -0.14400000870227814, 0.06400000303983688, 1.040000081062317, 0.0, 0.0, 0.0, 0.0, 0.0, 1.6202164467596333E9, 2021-05-05 14:07:26.759
69.0, 543.1045532226562, -731.8460693359375, 391.6965637207031, 123.88605499267578, -0.14400000870227814, 0.06400000303983688, 1.040000081062317, 0.0, 0.0, 0.0, 0.0, 0.0, 1.6202164467596333E9, 2021-05-05 14:07:26.759
70.0, 564.1377563476562, -718.5507202148438, 397.20916748046875, 136.9794464111328, -0.14400000870227814, 0.06400000303983688, 1.055999994277954, 0.0, 0.0, 0.0, 0.0, 0.0, 1.6202164467733233E9, 2021-05-05 14:07:26.773
70.0, 551.1228637695312, -733.1251220703125, 395.3466796875, 131.32098388671875, -0.14400000870227814, 0.06400000303983688, 1.055999994277954, 0.0, 0.0, 0.0, 0.0, 0.0, 1.6202164467733233E9, 2021-05-05 14:07:26.773
71.0, 531.2078857421875, -741.113525390625, 388.2782897949219, 109.034912109375, -0.14400000870227814, 0.06400000303983688, 1.055999994277954, 0.0, 0.0, 0.0, 0.0, 0.0, 1.6202164467888556E9, 2021-05-05 14:07:26.788
71.0, 540.5988159179688, -715.1062622070312, 391.707763671875, 116.15193939208984, -0.14400000870227814, 0.06400000303983688, 1.055999994277954, 0.0, 0.0, 0.0, 0.0, 0.0, 1.6202164467888556E9, 2021-05-05 14:07:26.788
72.0, 552.4767456054688, -707.4955444335938, 395.55987548828125, 131.8969268798828, -0.14400000870227814, 0.06400000303983688, 1.055999994277954, 0.0, 0.0, 0.0, 0.0, 0.0, 1.6202164467896037E9, 2021-05-05 14:07:26.789
72.0, 548.05615234375, -723.0797119140625, 401.24078369140625, 129.03964233398438, -0.14400000870227814, 0.06400000303983688, 1.055999994277954, 0.0, 0.0, 0.0, 0.0, 0.0, 1.6202164467896037E9, 2021-05-05 14:07:26.789
73.0, 526.5741577148438, -732.616455078125, 392.915771484375, 106.07291412353516, -0.14400000870227814, 0.06400000303983688, 1.055999994277954, 0.0, 0.0, 0.0, 0.0, 0.0, 1.6202164468032708E9, 2021-05-05 14:07:26.803
73.0, 537.0982666015625, -720.3645629882812, 394.2845764160156, 118.57540130615234, -0.14400000870227814, 0.06400000303983688, 1.055999994277954, 0.0, 0.0, 0.0, 0.0, 0.0, 1.6202164468032708E9, 2021-05-05 14:07:26.803
74.0, 559.5077514648438, -709.6721801757812, 398.1815490722656, 127.56985473632812, -0.14400000870227814, 0.06400000303983688, 1.055999994277954, 0.0, 0.0, 0.0, 0.0, 0.0, 1.620216446819565E9, 2021-05-05 14:07:26.819
74.0, 553.34814453125, -724.2989501953125, 400.45538330078125, 127.57733917236328, -0.14400000870227814, 0.06400000303983688, 1.055999994277954, 0.0, 0.0, 0.0, 0.0, 0.0, 1.620216446819565E9, 2021-05-05 14:07:26.819
75.0, 533.0180053710938, -741.0275268554688, 388.28948974609375, 99.23263549804688, -0.14400000870227814, 0.06400000303983688, 1.055999994277954, 0.0, 0.0, 0.0, 0.0, 0.0, 1.6202164468203552E9, 2021-05-05 14:07:26.820
75.0, 543.1307373046875, -727.6012573242188, 390.9485778808594, 106.31600952148438, -0.14400000870227814, 0.06400000303983688, 1.055999994277954, 0.0, 0.0, 0.0, 0.0, 0.0, 1.6202164468203552E9, 2021-05-05 14:07:26.820
76.0, 561.8563842773438, -719.6988525390625, 391.6853332519531, 136.1342315673828, -0.14400000870227814, 0.06400000303983688, 1.055999994277954, 0.0, 0.0, 0.0, 0.0, 0.0, 1.6202164468495312E9, 2021-05-05 14:07:26.849
76.0, 550.5020751953125, -726.9991455078125, 390.35394287109375, 127.18464660644531, -0.14400000870227814, 0.06400000303983688, 1.055999994277954, 0.0, 0.0, 0.0, 0.0, 0.0, 1.6202164468495312E9, 2021-05-05 14:07:26.849
77.0, 530.3178100585938, -727.0552368164062, 386.09417724609375, 111.57430267333984, -0.14400000870227814, 0.06400000303983688, 1.055999994277954, 0.0, 0.0, 0.0, 0.0, 0.0, 1.620216446850208E9, 2021-05-05 14:07:26.850
77.0, 529.356689453125, -718.80126953125, 386.5841064453125, 115.42639923095703, -0.14400000870227814, 0.06400000303983688, 1.055999994277954, 0.0, 0.0, 0.0, 0.0, 0.0, 1.620216446850208E9, 2021-05-05 14:07:26.850
78.0, 547.7420043945312, -714.2760009765625, 387.9005432128906, 133.9613494873047, -0.14400000870227814, 0.06400000303983688, 1.055999994277954, 0.0, 0.0, 0.0, 0.0, 0.0, 1.6202164468509684E9, 2021-05-05 14:07:26.850
