Sample Index, EXG Channel 0, EXG Channel 1, EXG Channel 2, EXG Channel 3, Accel Channel 0, Accel Channel 1, Accel Channel 2, Other, Other, Other, Other, Other, Timestamp, Timestamp (Formatted)
0.0, 338.6778564453125, -1054.4871826171875, 493.4872741699219, 204.19667053222656, 0.0, 0.0, 0.0, 0.0, 0.0, 0.0, 0.0, 0.0, 1.620220062614247E9, 2021-05-05 15:07:42.614
1.0, 377.0604553222656, -1012.9930419921875, 529.3641357421875, 239.26571655273438, 0.0, 0.08000000566244125, 0.0, 0.0, 0.0, 0.0, 0.0, 0.0, 1.620220062627782E9, 2021-05-05 15:07:42.627
1.0, 399.69805908203125, -989.7383422851562, 543.3812866210938, 260.2989196777344, 0.0, 0.08000000566244125, 0.0, 0.0, 0.0, 0.0, 0.0, 0.0, 1.620220062627782E9, 2021-05-05 15:07:42.627
2.0, 339.059326171875, -1060.4486083984375, 494.51202392578125, 193.650146484375, -0.14400000870227814, 0.08000000566244125, 0.0, 0.0, 0.0, 0.0, 0.0, 0.0, 1.6202200626447845E9, 2021-05-05 15:07:42.644
2.0, 362.9460754394531, -1039.3182373046875, 515.3619384765625, 210.1094512939453, -0.14400000870227814, 0.08000000566244125, 0.0, 0.0, 0.0, 0.0, 0.0, 0.0, 1.6202200626447845E9, 2021-05-05 15:07:42.644
3.0, 392.80169677734375, -1012.9032592773438, 539.8358764648438, 243.86578369140625, -0.14400000870227814, 0.08000000566244125, 0.0, 0.0, 0.0, 0.0, 0.0, 0.0, 1.6202200626582775E9, 2021-05-05 15:07:42.658
3.0, 413.6441650390625, -987.6439819335938, 550.9807739257812, 268.9792175292969, -0.14400000870227814, 0.08000000566244125, 0.0, 0.0, 0.0, 0.0, 0.0, 0.0, 1.6202200626582775E9, 2021-05-05 15:07:42.658
4.0, 358.5890808105469, -1069.9554443359375, 504.8603210449219, 199.06552124023438, -0.14400000870227814, 0.08000000566244125, 0.0, 0.0, 0.0, 0.0, 0.0, 0.0, 1.6202200626588457E9, 2021-05-05 15:07:42.658
4.0, 374.8240051269531, -1047.718017578125, 515.6985473632812, 216.8936309814453, -0.14400000870227814, 0.08000000566244125, 0.0, 0.0, 0.0, 0.0, 0.0, 0.0, 1.6202200626588457E9, 2021-05-05 15:07:42.658
5.0, 385.0039978027344, -1022.0922241210938, 536.0211791992188, 249.84962463378906, -0.14400000870227814, 0.08000000566244125, 0.0, 0.0, 0.0, 0.0, 0.0, 0.0, 1.6202200626730824E9, 2021-05-05 15:07:42.673
5.0, 407.4546203613281, -994.1551513671875, 550.25146484375, 257.80438232421875, -0.14400000870227814, 0.08000000566244125, 0.0, 0.0, 0.0, 0.0, 0.0, 0.0, 1.6202200626730824E9, 2021-05-05 15:07:42.673
6.0, 334.79583740234375, -1075.842041015625, 492.94873046875, 190.7779083251953, -0.14400000870227814, 0.08000000566244125, 0.0, 0.0, 0.0, 0.0, 0.0, 0.0, 1.620220062673904E9, 2021-05-05 15:07:42.673
6.0, 354.4303283691406, -1051.81689453125, 504.4002990722656, 209.49984741210938, -0.14400000870227814, 0.08000000566244125, 0.0, 0.0, 0.0, 0.0, 0.0, 0.0, 1.620220062673904E9, 2021-05-05 15:07:42.673
7.0, 383.0330810546875, -1016.5833740234375, 527.116455078125, 236.67770385742188, -0.14400000870227814, 0.08000000566244125, 0.0, 0.0, 0.0, 0.0, 0.0, 0.0, 1.6202200627042167E9, 2021-05-05 15:07:42.704
7.0, 416.737060546875, -996.989990234375, 543.31396484375, 251.23338317871094, -0.14400000870227814, 0.08000000566244125, 0.0, 0.0, 0.0, 0.0, 0.0, 0.0, 1.6202200627042167E9, 2021-05-05 15:07:42.704
8.0, 338.5918273925781, -1072.2928466796875, 490.34576416015625, 180.15658569335938, -0.14400000870227814, 0.08000000566244125, 0.0, 0.0, 0.0, 0.0, 0.0, 0.0, 1.6202200627049215E9, 2021-05-05 15:07:42.704
8.0, 346.3521423339844, -1047.0335693359375, 493.7303771972656, 196.1521453857422, -0.14400000870227814, 0.08000000566244125, 0.0, 0.0, 0.0, 0.0, 0.0, 0.0, 1.6202200627049215E9, 2021-05-05 15:07:42.704
9.0, 373.4402160644531, -1016.7516479492188, 520.4444580078125, 225.05783081054688, -0.14400000870227814, 0.08000000566244125, 0.0, 0.0, 0.0, 0.0, 0.0, 0.0, 1.6202200627180994E9, 2021-05-05 15:07:42.718
9.0, 412.5221862792969, -988.560302734375, 539.5441284179688, 245.09620666503906, -0.14400000870227814, 0.08000000566244125, 0.0, 0.0, 0.0, 0.0, 0.0, 0.0, 1.6202200627180994E9, 2021-05-05 15:07:42.718
10.0, 325.1094970703125, -1060.5196533203125, 490.37567138671875, 190.762939453125, -0.14400000870227814, 0.08000000566244125, 1.040000081062317, 0.0, 0.0, 0.0, 0.0, 0.0, 1.6202200627187939E9, 2021-05-05 15:07:42.718
10.0, 338.9583435058594, -1046.203369140625, 494.908447265625, 199.25999450683594, -0.14400000870227814, 0.08000000566244125, 1.040000081062317, 0.0, 0.0, 0.0, 0.0, 0.0, 1.6202200627187939E9, 2021-05-05 15:07:42.718
11.0, 377.8084411621094, -1020.30078125, 521.2261352539062, 238.4204864501953, -0.14400000870227814, 0.08000000566244125, 1.040000081062317, 0.0, 0.0, 0.0, 0.0, 0.0, 1.6202200627479804E9, 2021-05-05 15:07:42.747
11.0, 409.5414733886719, -1004.1743774414062, 540.2472534179688, 259.6332092285156, -0.14400000870227814, 0.08000000566244125, 1.040000081062317, 0.0, 0.0, 0.0, 0.0, 0.0, 1.6202200627479804E9, 2021-05-05 15:07:42.747
12.0, 331.0148010253906, -1066.2454833984375, 494.40728759765625, 195.68466186523438, -0.14400000870227814, 0.08000000566244125, 1.040000081062317, 0.0, 0.0, 0.0, 0.0, 0.0, 1.6202200627651658E9, 2021-05-05 15:07:42.765
12.0, 354.3069152832031, -1057.389404296875, 506.16180419921875, 217.6827392578125, -0.14400000870227814, 0.08000000566244125, 1.040000081062317, 0.0, 0.0, 0.0, 0.0, 0.0, 1.6202200627651658E9, 2021-05-05 15:07:42.765
13.0, 396.197509765625, -1020.4429321289062, 537.7714233398438, 247.75901794433594, -0.14400000870227814, 0.08000000566244125, 1.040000081062317, 0.0, 0.0, 0.0, 0.0, 0.0, 1.62022006276588E9, 2021-05-05 15:07:42.765
13.0, 434.66986083984375, -1003.0785522460938, 559.5039672851562, 280.90576171875, -0.14400000870227814, 0.08000000566244125, 1.040000081062317, 0.0, 0.0, 0.0, 0.0, 0.0, 1.62022006276588E9, 2021-05-05 15:07:42.765
14.0, 336.80792236328125, -1073.2054443359375, 508.2935485839844, 207.1773681640625, -0.14400000870227814, 0.08000000566244125, 1.040000081062317, 0.0, 0.0, 0.0, 0.0, 0.0, 1.6202200627665515E9, 2021-05-05 15:07:42.766
14.0, 367.1011047363281, -1064.843017578125, 519.838623046875, 224.03309631347656, -0.14400000870227814, 0.08000000566244125, 1.040000081062317, 0.0, 0.0, 0.0, 0.0, 0.0, 1.6202200627665515E9, 2021-05-05 15:07:42.766
15.0, 399.84765625, -1030.2264404296875, 542.1770629882812, 256.88812255859375, -0.14400000870227814, 0.08000000566244125, 1.040000081062317, 0.0, 0.0, 0.0, 0.0, 0.0, 1.6202200627672975E9, 2021-05-05 15:07:42.767
15.0, 428.8431091308594, -1009.7094116210938, 563.5206298828125, 280.2438049316406, -0.14400000870227814, 0.08000000566244125, 1.040000081062317, 0.0, 0.0, 0.0, 0.0, 0.0, 1.6202200627672975E9, 2021-05-05 15:07:42.767
16.0, 341.7109069824219, -1081.41455078125, 510.7207336425781, 210.67044067382812, -0.14400000870227814, 0.08000000566244125, 1.040000081062317, 0.0, 0.0, 0.0, 0.0, 0.0, 1.6202200627773988E9, 2021-05-05 15:07:42.777
16.0, 364.1764831542969, -1062.1241455078125, 516.446533203125, 219.10391235351562, -0.14400000870227814, 0.08000000566244125, 1.040000081062317, 0.0, 0.0, 0.0, 0.0, 0.0, 1.6202200627773988E9, 2021-05-05 15:07:42.777
17.0, 392.54364013671875, -1036.3861083984375, 538.1528930664062, 240.7541961669922, -0.14400000870227814, 0.08000000566244125, 1.040000081062317, 0.0, 0.0, 0.0, 0.0, 0.0, 1.6202200627931488E9, 2021-05-05 15:07:42.793
17.0, 418.158203125, -1000.6364135742188, 555.779052734375, 265.73297119140625, -0.14400000870227814, 0.08000000566244125, 1.040000081062317, 0.0, 0.0, 0.0, 0.0, 0.0, 1.6202200627931488E9, 2021-05-05 15:07:42.793
18.0, 342.42523193359375, -1077.7457275390625, 505.8177185058594, 198.97203063964844, -0.14400000870227814, 0.08000000566244125, 1.040000081062317, 0.0, 0.0, 0.0, 0.0, 0.0, 1.6202200627938964E9, 2021-05-05 15:07:42.793
18.0, 364.4345397949219, -1063.317138671875, 513.8697509765625, 202.4276885986328, -0.14400000870227814, 0.08000000566244125, 1.040000081062317, 0.0, 0.0, 0.0, 0.0, 0.0, 1.6202200627938964E9, 2021-05-05 15:07:42.793
19.0, 374.670654296875, -1026.0677490234375, 537.3488159179688, 236.6702117919922, -0.14400000870227814, 0.08000000566244125, 1.040000081062317, 0.0, 0.0, 0.0, 0.0, 0.0, 1.6202200628073485E9, 2021-05-05 15:07:42.807
19.0, 412.29779052734375, -1003.9312744140625, 554.3915405273438, 255.78111267089844, -0.14400000870227814, 0.08000000566244125, 1.040000081062317, 0.0, 0.0, 0.0, 0.0, 0.0, 1.6202200628073485E9, 2021-05-05 15:07:42.807
20.0, 340.95172119140625, -1069.349609375, 500.9895324707031, 191.443603515625, -0.14400000870227814, 0.08000000566244125, 1.040000081062317, 0.0, 0.0, 0.0, 0.0, 0.0, 1.6202200628230968E9, 2021-05-05 15:07:42.823
20.0, 357.4708557128906, -1055.6466064453125, 511.93994140625, 206.1713409423828, -0.14400000870227814, 0.08000000566244125, 1.040000081062317, 0.0, 0.0, 0.0, 0.0, 0.0, 1.6202200628230968E9, 2021-05-05 15:07:42.823
21.0, 399.91497802734375, -1021.426513671875, 544.735107421875, 239.75936889648438, -0.14400000870227814, 0.08000000566244125, 1.040000081062317, 0.0, 0.0, 0.0, 0.0, 0.0, 1.6202200628237977E9, 2021-05-05 15:07:42.823
21.0, 417.59722900390625, -1000.96923828125, 563.4645385742188, 268.276123046875, -0.14400000870227814, 0.08000000566244125, 1.040000081062317, 0.0, 0.0, 0.0, 0.0, 0.0, 1.6202200628237977E9, 2021-05-05 15:07:42.823
22.0, 342.82916259765625, -1075.9766845703125, 507.3810119628906, 206.68370056152344, -0.1600000113248825, 0.08000000566244125, 1.040000081062317, 0.0, 0.0, 0.0, 0.0, 0.0, 1.6202200628538675E9, 2021-05-05 15:07:42.853
22.0, 379.6708984375, -1057.41552734375, 518.4959716796875, 222.71665954589844, -0.1600000113248825, 0.08000000566244125, 1.040000081062317, 0.0, 0.0, 0.0, 0.0, 0.0, 1.6202200628538675E9, 2021-05-05 15:07:42.853
23.0, 389.60406494140625, -1025.805908203125, 548.9201049804688, 257.50518798828125, -0.1600000113248825, 0.08000000566244125, 1.040000081062317, 0.0, 0.0, 0.0, 0.0, 0.0, 1.6202200628544662E9, 2021-05-05 15:07:42.854
23.0, 414.4706726074219, -1006.9343872070312, 558.3521118164062, 281.492919921875, -0.1600000113248825, 0.08000000566244125, 1.040000081062317, 0.0, 0.0, 0.0, 0.0, 0.0, 1.6202200628544662E9, 2021-05-05 15:07:42.854
24.0, 348.2370300292969, -1084.0885009765625, 509.9727478027344, 211.6764678955078, -0.1600000113248825, 0.08000000566244125, 1.040000081062317, 0.0, 0.0, 0.0, 0.0, 0.0, 1.6202200628551886E9, 2021-05-05 15:07:42.855
24.0, 368.84014892578125, -1057.7857666015625, 525.33251953125, 231.1650848388672, -0.1600000113248825, 0.08000000566244125, 1.040000081062317, 0.0, 0.0, 0.0, 0.0, 0.0, 1.6202200628551886E9, 2021-05-05 15:07:42.855
25.0, 390.85321044921875, -1028.3154296875, 540.1986083984375, 258.5823059082031, -0.1600000113248825, 0.08000000566244125, 1.040000081062317, 0.0, 0.0, 0.0, 0.0, 0.0, 1.6202200628673975E9, 2021-05-05 15:07:42.867
25.0, 425.7203063964844, -1011.8785400390625, 556.1007080078125, 275.1500549316406, -0.1600000113248825, 0.08000000566244125, 1.040000081062317, 0.0, 0.0, 0.0, 0.0, 0.0, 1.6202200628673975E9, 2021-05-05 15:07:42.867
26.0, 330.4837341308594, -1080.4271240234375, 502.0404357910156, 203.93487548828125, -0.1600000113248825, 0.08000000566244125, 1.040000081062317, 0.0, 0.0, 0.0, 0.0, 0.0, 1.6202200628830345E9, 2021-05-05 15:07:42.883
26.0, 377.0492248535156, -1059.5997314453125, 521.3046264648438, 216.7552490234375, -0.1600000113248825, 0.08000000566244125, 1.040000081062317, 0.0, 0.0, 0.0, 0.0, 0.0, 1.6202200628830345E9, 2021-05-05 15:07:42.883
27.0, 381.3089904785156, -1030.30126953125, 533.934326171875, 241.69664001464844, -0.1600000113248825, 0.08000000566244125, 1.040000081062317, 0.0, 0.0, 0.0, 0.0, 0.0, 1.6202200628838046E9, 2021-05-05 15:07:42.883
27.0, 413.4048156738281, -998.94970703125, 553.078857421875, 262.677490234375, -0.1600000113248825, 0.08000000566244125, 1.040000081062317, 0.0, 0.0, 0.0, 0.0, 0.0, 1.6202200628838046E9, 2021-05-05 15:07:42.883
28.0, 337.6456604003906, -1058.2906494140625, 511.6033630371094, 195.86416625976562, -0.1600000113248825, 0.08000000566244125, 1.040000081062317, 0.0, 0.0, 0.0, 0.0, 0.0, 1.6202200628975244E9, 2021-05-05 15:07:42.897
28.0, 358.86956787109375, -1047.6094970703125, 510.4364929199219, 193.81471252441406, -0.1600000113248825, 0.08000000566244125, 1.040000081062317, 0.0, 0.0, 0.0, 0.0, 0.0, 1.6202200628975244E9, 2021-05-05 15:07:42.897
29.0, 375.8973388671875, -1009.2718505859375, 536.282958984375, 224.73619079589844, -0.1600000113248825, 0.08000000566244125, 1.040000081062317, 0.0, 0.0, 0.0, 0.0, 0.0, 1.6202200629131038E9, 2021-05-05 15:07:42.913
29.0, 417.1185302734375, -986.75390625, 557.8173217773438, 251.43161010742188, -0.1600000113248825, 0.08000000566244125, 1.040000081062317, 0.0, 0.0, 0.0, 0.0, 0.0, 1.6202200629131038E9, 2021-05-05 15:07:42.913
30.0, 330.85400390625, -1052.9239501953125, 502.56402587890625, 185.0521240234375, -0.1600000113248825, 0.08000000566244125, 1.040000081062317, 0.0, 0.0, 0.0, 0.0, 0.0, 1.6202200629138021E9, 2021-05-05 15:07:42.913
30.0, 350.6604919433594, -1035.982177734375, 509.4790954589844, 202.57728576660156, -0.1600000113248825, 0.08000000566244125, 1.040000081062317, 0.0, 0.0, 0.0, 0.0, 0.0, 1.6202200629138021E9, 2021-05-05 15:07:42.913
31.0, 378.81072998046875, -1006.9456176757812, 530.145751953125, 236.99932861328125, -0.1600000113248825, 0.08000000566244125, 1.040000081062317, 0.0, 0.0, 0.0, 0.0, 0.0, 1.62022006292756E9, 2021-05-05 15:07:42.927
31.0, 425.53704833984375, -988.5452880859375, 546.8032836914062, 265.9573669433594, -0.1600000113248825, 0.08000000566244125, 1.040000081062317, 0.0, 0.0, 0.0, 0.0, 0.0, 1.62022006292756E9, 2021-05-05 15:07:42.927
32.0, 337.885009765625, -1066.2940673828125, 496.752197265625, 207.51022338867188, -0.1600000113248825, 0.08000000566244125, 1.040000081062317, 0.0, 0.0, 0.0, 0.0, 0.0, 1.6202200629430711E9, 2021-05-05 15:07:42.943
32.0, 360.8629455566406, -1049.5767822265625, 511.57342529296875, 231.79339599609375, -0.1600000113248825, 0.08000000566244125, 1.040000081062317, 0.0, 0.0, 0.0, 0.0, 0.0, 1.6202200629430711E9, 2021-05-05 15:07:42.943
33.0, 392.2294921875, -1016.3701782226562, 531.4622192382812, 260.1642761230469, -0.1600000113248825, 0.08000000566244125, 1.040000081062317, 0.0, 0.0, 0.0, 0.0, 0.0, 1.620220062943762E9, 2021-05-05 15:07:42.943
33.0, 430.0286560058594, -997.8912963867188, 544.076904296875, 272.8911437988281, -0.1600000113248825, 0.08000000566244125, 1.040000081062317, 0.0, 0.0, 0.0, 0.0, 0.0, 1.620220062943762E9, 2021-05-05 15:07:42.943
34.0, 330.9699401855469, -1063.4144287109375, 493.4124755859375, 215.7492218017578, -0.1600000113248825, 0.08000000566244125, 1.040000081062317, 0.0, 0.0, 0.0, 0.0, 0.0, 1.6202200629573677E9, 2021-05-05 15:07:42.957
34.0, 352.02557373046875, -1049.011962890625, 499.8600769042969, 221.7255859375, -0.1600000113248825, 0.08000000566244125, 1.040000081062317, 0.0, 0.0, 0.0, 0.0, 0.0, 1.6202200629573677E9, 2021-05-05 15:07:42.957
35.0, 396.4256591796875, -1011.6691284179688, 529.9064331054688, 256.4281005859375, -0.1600000113248825, 0.08000000566244125, 1.040000081062317, 0.0, 0.0, 0.0, 0.0, 0.0, 1.620220063004171E9, 2021-05-05 15:07:43.004
35.0, 404.9638366699219, -988.0553588867188, 539.1140747070312, 268.264892578125, -0.1600000113248825, 0.08000000566244125, 1.040000081062317, 0.0, 0.0, 0.0, 0.0, 0.0, 1.620220063004171E9, 2021-05-05 15:07:43.004
36.0, 340.20001220703125, -1050.1041259765625, 499.95355224609375, 206.5341033935547, -0.1600000113248825, 0.08000000566244125, 1.040000081062317, 0.0, 0.0, 0.0, 0.0, 0.0, 1.6202200630049427E9, 2021-05-05 15:07:43.004
36.0, 348.6671447753906, -1039.4864501953125, 507.34735107421875, 214.91148376464844, -0.1600000113248825, 0.08000000566244125, 1.040000081062317, 0.0, 0.0, 0.0, 0.0, 0.0, 1.6202200630049427E9, 2021-05-05 15:07:43.004
37.0, 385.70709228515625, -1001.1151123046875, 524.5059814453125, 235.3201141357422, -0.1600000113248825, 0.08000000566244125, 1.040000081062317, 0.0, 0.0, 0.0, 0.0, 0.0, 1.6202200630056615E9, 2021-05-05 15:07:43.005
37.0, 405.8277587890625, -978.8178100585938, 543.242919921875, 258.53741455078125, -0.1600000113248825, 0.08000000566244125, 1.040000081062317, 0.0, 0.0, 0.0, 0.0, 0.0, 1.6202200630056615E9, 2021-05-05 15:07:43.005
38.0, 319.7315368652344, -1050.7958984375, 489.7025146484375, 184.835205078125, -0.1600000113248825, 0.08000000566244125, 1.040000081062317, 0.0, 0.0, 0.0, 0.0, 0.0, 1.6202200630194085E9, 2021-05-05 15:07:43.019
38.0, 357.2688903808594, -1023.2515869140625, 507.1753234863281, 198.01087951660156, -0.1600000113248825, 0.08000000566244125, 1.040000081062317, 0.0, 0.0, 0.0, 0.0, 0.0, 1.6202200630194085E9, 2021-05-05 15:07:43.019
39.0, 370.99432373046875, -995.39306640625, 526.5330200195312, 227.6495819091797, -0.1600000113248825, 0.08000000566244125, 1.040000081062317, 0.0, 0.0, 0.0, 0.0, 0.0, 1.62022006302012E9, 2021-05-05 15:07:43.020
39.0, 402.4693298339844, -971.719482421875, 544.3723754882812, 249.36343383789062, -0.1600000113248825, 0.08000000566244125, 1.040000081062317, 0.0, 0.0, 0.0, 0.0, 0.0, 1.62022006302012E9, 2021-05-05 15:07:43.020
40.0, 342.6645812988281, -1043.117919921875, 497.1336669921875, 186.20401000976562, -0.1600000113248825, 0.08000000566244125, 1.040000081062317, 0.0, 0.0, 0.0, 0.0, 0.0, 1.6202200630208657E9, 2021-05-05 15:07:43.020
40.0, 351.8161315917969, -1027.5599365234375, 503.52142333984375, 202.14720153808594, -0.1600000113248825, 0.08000000566244125, 1.040000081062317, 0.0, 0.0, 0.0, 0.0, 0.0, 1.6202200630208657E9, 2021-05-05 15:07:43.020
41.0, 386.1745910644531, -1001.227294921875, 534.1998291015625, 239.23953247070312, -0.1600000113248825, 0.08000000566244125, 1.040000081062317, 0.0, 0.0, 0.0, 0.0, 0.0, 1.6202200630216484E9, 2021-05-05 15:07:43.021
41.0, 413.1056213378906, -973.8811645507812, 546.7023315429688, 259.098388671875, -0.1600000113248825, 0.08000000566244125, 1.040000081062317, 0.0, 0.0, 0.0, 0.0, 0.0, 1.6202200630216484E9, 2021-05-05 15:07:43.021
42.0, 341.265869140625, -1036.6553955078125, 501.0082092285156, 196.72061157226562, -0.1600000113248825, 0.08000000566244125, 1.040000081062317, 0.0, 0.0, 0.0, 0.0, 0.0, 1.6202200630480304E9, 2021-05-05 15:07:43.048
42.0, 348.6708679199219, -1019.3695678710938, 504.4563903808594, 210.07579040527344, -0.1600000113248825, 0.08000000566244125, 1.040000081062317, 0.0, 0.0, 0.0, 0.0, 0.0, 1.6202200630480304E9, 2021-05-05 15:07:43.048
43.0, 388.8448791503906, -987.3036499023438, 541.694580078125, 248.40228271484375, -0.1600000113248825, 0.08000000566244125, 1.040000081062317, 0.0, 0.0, 0.0, 0.0, 0.0, 1.620220063048775E9, 2021-05-05 15:07:43.048
43.0, 415.6300354003906, -974.804931640625, 551.0293579101562, 269.2335205078125, -0.1600000113248825, 0.08000000566244125, 1.040000081062317, 0.0, 0.0, 0.0, 0.0, 0.0, 1.620220063048775E9, 2021-05-05 15:07:43.048
44.0, 327.71246337890625, -1038.7646484375, 494.3399658203125, 208.72569274902344, -0.1600000113248825, 0.08000000566244125, 1.040000081062317, 0.0, 0.0, 0.0, 0.0, 0.0, 1.6202200630630198E9, 2021-05-05 15:07:43.063
44.0, 365.37701416015625, -1024.324951171875, 513.45458984375, 222.75405883789062, -0.1600000113248825, 0.08000000566244125, 1.040000081062317, 0.0, 0.0, 0.0, 0.0, 0.0, 1.6202200630630198E9, 2021-05-05 15:07:43.063
45.0, 380.3515625, -1007.27099609375, 529.9288940429688, 244.76336669921875, -0.1600000113248825, 0.08000000566244125, 1.040000081062317, 0.0, 0.0, 0.0, 0.0, 0.0, 1.6202200630637708E9, 2021-05-05 15:07:43.063
45.0, 406.1867980957031, -982.4904174804688, 541.4552612304688, 266.2565612792969, -0.1600000113248825, 0.08000000566244125, 1.040000081062317, 0.0, 0.0, 0.0, 0.0, 0.0, 1.6202200630637708E9, 2021-05-05 15:07:43.063
46.0, 327.7872619628906, -1048.1368408203125, 494.5157470703125, 194.70480346679688, -0.1600000113248825, 0.08000000566244125, 1.040000081062317, 0.0, 0.0, 0.0, 0.0, 0.0, 1.620220063077389E9, 2021-05-05 15:07:43.077
46.0, 347.4404602050781, -1030.794921875, 503.6747741699219, 206.81085205078125, -0.1600000113248825, 0.08000000566244125, 1.040000081062317, 0.0, 0.0, 0.0, 0.0, 0.0, 1.620220063077389E9, 2021-05-05 15:07:43.077
47.0, 397.4466552734375, -1003.56103515625, 529.839111328125, 237.50794982910156, -0.1600000113248825, 0.08000000566244125, 1.040000081062317, 0.0, 0.0, 0.0, 0.0, 0.0, 1.6202200630942025E9, 2021-05-05 15:07:43.094
47.0, 400.98834228515625, -973.0060424804688, 548.0748291015625, 257.4004821777344, -0.1600000113248825, 0.08000000566244125, 1.040000081062317, 0.0, 0.0, 0.0, 0.0, 0.0, 1.6202200630942025E9, 2021-05-05 15:07:43.094
48.0, 329.4365539550781, -1045.3992919921875, 499.9273986816406, 188.45916748046875, -0.1600000113248825, 0.08000000566244125, 1.040000081062317, 0.0, 0.0, 0.0, 0.0, 0.0, 1.620220063108036E9, 2021-05-05 15:07:43.108
48.0, 339.2575378417969, -1021.426513671875, 512.7290649414062, 201.72833251953125, -0.1600000113248825, 0.08000000566244125, 1.040000081062317, 0.0, 0.0, 0.0, 0.0, 0.0, 1.620220063108036E9, 2021-05-05 15:07:43.108
49.0, 379.237060546875, -988.4031982421875, 533.2349243164062, 238.7309112548828, -0.1600000113248825, 0.08000000566244125, 1.040000081062317, 0.0, 0.0, 0.0, 0.0, 0.0, 1.620220063108784E9, 2021-05-05 15:07:43.108
49.0, 412.92236328125, -971.038818359375, 561.96484375, 255.31361389160156, -0.1600000113248825, 0.08000000566244125, 1.040000081062317, 0.0, 0.0, 0.0, 0.0, 0.0, 1.620220063108784E9, 2021-05-05 15:07:43.108
50.0, 347.9191589355469, -1046.027587890625, 511.4163513183594, 194.09893798828125, -0.1600000113248825, 0.08000000566244125, 1.040000081062317, 0.0, 0.0, 0.0, 0.0, 0.0, 1.620220063123034E9, 2021-05-05 15:07:43.123
50.0, 354.69586181640625, -1022.9448852539062, 517.938720703125, 206.88565063476562, -0.1600000113248825, 0.08000000566244125, 1.040000081062317, 0.0, 0.0, 0.0, 0.0, 0.0, 1.620220063123034E9, 2021-05-05 15:07:43.123
51.0, 385.85296630859375, -1004.4361572265625, 540.9952392578125, 244.46043395996094, -0.1600000113248825, 0.08000000566244125, 1.040000081062317, 0.0, 0.0, 0.0, 0.0, 0.0, 1.6202200631237595E9, 2021-05-05 15:07:43.123
51.0, 416.83428955078125, -976.0989379882812, 562.4734497070312, 272.77520751953125, -0.1600000113248825, 0.08000000566244125, 1.040000081062317, 0.0, 0.0, 0.0, 0.0, 0.0, 1.6202200631237595E9, 2021-05-05 15:07:43.123
52.0, 343.21063232421875, -1061.4583740234375, 506.0870056152344, 203.08218383789062, -0.14400000870227814, 0.08000000566244125, 1.040000081062317, 0.0, 0.0, 0.0, 0.0, 0.0, 1.620220063137446E9, 2021-05-05 15:07:43.137
52.0, 347.35443115234375, -1043.6826171875, 512.0783081054688, 219.36196899414062, -0.14400000870227814, 0.08000000566244125, 1.040000081062317, 0.0, 0.0, 0.0, 0.0, 0.0, 1.620220063137446E9, 2021-05-05 15:07:43.137
53.0, 396.4144287109375, -1018.198974609375, 537.5994262695312, 248.8136749267578, -0.14400000870227814, 0.08000000566244125, 1.040000081062317, 0.0, 0.0, 0.0, 0.0, 0.0, 1.6202200631537592E9, 2021-05-05 15:07:43.153
53.0, 414.2724609375, -991.8663330078125, 543.4037475585938, 265.7479553222656, -0.14400000870227814, 0.08000000566244125, 1.040000081062317, 0.0, 0.0, 0.0, 0.0, 0.0, 1.6202200631537592E9, 2021-05-05 15:07:43.153
54.0, 335.65228271484375, -1069.3197021484375, 495.5292663574219, 205.97311401367188, -0.14400000870227814, 0.08000000566244125, 1.040000081062317, 0.0, 0.0, 0.0, 0.0, 0.0, 1.6202200631545076E9, 2021-05-05 15:07:43.154
54.0, 353.25225830078125, -1053.1109619140625, 502.0142517089844, 213.61000061035156, -0.14400000870227814, 0.08000000566244125, 1.040000081062317, 0.0, 0.0, 0.0, 0.0, 0.0, 1.6202200631545076E9, 2021-05-05 15:07:43.154
55.0, 390.7372741699219, -1018.913330078125, 528.4964599609375, 248.03952026367188, -0.14400000870227814, 0.08000000566244125, 1.040000081062317, 0.0, 0.0, 0.0, 0.0, 0.0, 1.6202200631674018E9, 2021-05-05 15:07:43.167
55.0, 414.5492248535156, -1000.8795166015625, 538.3174438476562, 264.4015808105469, -0.14400000870227814, 0.08000000566244125, 1.040000081062317, 0.0, 0.0, 0.0, 0.0, 0.0, 1.6202200631674018E9, 2021-05-05 15:07:43.167
56.0, 339.5343017578125, -1071.8814697265625, 489.0143737792969, 195.29196166992188, -0.14400000870227814, 0.08000000566244125, 1.040000081062317, 0.0, 0.0, 0.0, 0.0, 0.0, 1.6202200631830575E9, 2021-05-05 15:07:43.183
56.0, 333.9693298339844, -1068.4520263671875, 491.19097900390625, 199.60032653808594, -0.14400000870227814, 0.08000000566244125, 1.040000081062317, 0.0, 0.0, 0.0, 0.0, 0.0, 1.6202200631830575E9, 2021-05-05 15:07:43.183
57.0, 381.3426513671875, -1028.65576171875, 528.8555297851562, 232.7769775390625, -0.14400000870227814, 0.08000000566244125, 1.040000081062317, 0.0, 0.0, 0.0, 0.0, 0.0, 1.6202200631837392E9, 2021-05-05 15:07:43.183
57.0, 423.45391845703125, -1005.6702880859375, 548.4039916992188, 256.7721862792969, -0.14400000870227814, 0.08000000566244125, 1.040000081062317, 0.0, 0.0, 0.0, 0.0, 0.0, 1.6202200631837392E9, 2021-05-05 15:07:43.183
58.0, 352.4706115722656, -1072.34521484375, 493.62939453125, 181.25611877441406, -0.14400000870227814, 0.08000000566244125, 1.040000081062317, 0.0, 0.0, 0.0, 0.0, 0.0, 1.6202200631974523E9, 2021-05-05 15:07:43.197
58.0, 345.43585205078125, -1058.5487060546875, 504.4414367675781, 187.1801300048828, -0.14400000870227814, 0.08000000566244125, 1.040000081062317, 0.0, 0.0, 0.0, 0.0, 0.0, 1.6202200631974523E9, 2021-05-05 15:07:43.197
59.0, 383.6277160644531, -1016.9685668945312, 534.6261596679688, 221.0486602783203, -0.14400000870227814, 0.08000000566244125, 1.040000081062317, 0.0, 0.0, 0.0, 0.0, 0.0, 1.6202200632138517E9, 2021-05-05 15:07:43.213
59.0, 416.34063720703125, -996.6047973632812, 557.57421875, 242.25015258789062, -0.14400000870227814, 0.08000000566244125, 1.040000081062317, 0.0, 0.0, 0.0, 0.0, 0.0, 1.6202200632138517E9, 2021-05-05 15:07:43.213
60.0, 349.75543212890625, -1077.9775390625, 504.8902282714844, 184.6295166015625, -0.14400000870227814, 0.08000000566244125, 1.040000081062317, 0.0, 0.0, 0.0, 0.0, 0.0, 1.6202200632145307E9, 2021-05-05 15:07:43.214
60.0, 350.092041015625, -1061.14794921875, 515.3021240234375, 200.12765502929688, -0.14400000870227814, 0.08000000566244125, 1.040000081062317, 0.0, 0.0, 0.0, 0.0, 0.0, 1.6202200632145307E9, 2021-05-05 15:07:43.214
61.0, 390.8719177246094, -1029.7552490234375, 542.2742919921875, 243.77603149414062, -0.14400000870227814, 0.06400000303983688, 1.040000081062317, 0.0, 0.0, 0.0, 0.0, 0.0, 1.6202200632275572E9, 2021-05-05 15:07:43.227
61.0, 420.3984069824219, -1021.36669921875, 552.4617309570312, 273.5680847167969, -0.14400000870227814, 0.06400000303983688, 1.040000081062317, 0.0, 0.0, 0.0, 0.0, 0.0, 1.6202200632275572E9, 2021-05-05 15:07:43.227
62.0, 359.4866638183594, -1088.718505859375, 506.1543273925781, 212.3982696533203, -0.1600000113248825, 0.06400000303983688, 1.040000081062317, 0.0, 0.0, 0.0, 0.0, 0.0, 1.620220063243104E9, 2021-05-05 15:07:43.243
62.0, 351.6964416503906, -1076.0589599609375, 507.6689758300781, 219.60879516601562, -0.1600000113248825, 0.06400000303983688, 1.040000081062317, 0.0, 0.0, 0.0, 0.0, 0.0, 1.620220063243104E9, 2021-05-05 15:07:43.243
63.0, 383.81097412109375, -1041.932373046875, 532.7674560546875, 256.63006591796875, -0.1600000113248825, 0.06400000303983688, 1.040000081062317, 0.0, 0.0, 0.0, 0.0, 0.0, 1.6202200632438064E9, 2021-05-05 15:07:43.243
63.0, 403.3818664550781, -1019.6837158203125, 542.15087890625, 269.3045959472656, -0.1600000113248825, 0.06400000303983688, 1.040000081062317, 0.0, 0.0, 0.0, 0.0, 0.0, 1.6202200632438064E9, 2021-05-05 15:07:43.243
64.0, 346.0566711425781, -1093.0830078125, 497.2720642089844, 203.47860717773438, -0.1600000113248825, 0.06400000303983688, 1.040000081062317, 0.0, 0.0, 0.0, 0.0, 0.0, 1.6202200632573807E9, 2021-05-05 15:07:43.257
64.0, 349.751708984375, -1078.0748291015625, 495.39837646484375, 206.48922729492188, -0.1600000113248825, 0.06400000303983688, 1.040000081062317, 0.0, 0.0, 0.0, 0.0, 0.0, 1.6202200632573807E9, 2021-05-05 15:07:43.257
65.0, 381.63433837890625, -1050.055419921875, 523.9038696289062, 238.4616241455078, -0.1600000113248825, 0.06400000303983688, 1.040000081062317, 0.0, 0.0, 0.0, 0.0, 0.0, 1.620220063273098E9, 2021-05-05 15:07:43.273
65.0, 414.5230407714844, -1017.727783203125, 544.8734741210938, 263.3880615234375, -0.1600000113248825, 0.06400000303983688, 1.040000081062317, 0.0, 0.0, 0.0, 0.0, 0.0, 1.620220063273098E9, 2021-05-05 15:07:43.273
66.0, 345.4208984375, -1089.3431396484375, 500.26397705078125, 191.38751220703125, -0.1600000113248825, 0.06400000303983688, 1.040000081062317, 0.0, 0.0, 0.0, 0.0, 0.0, 1.6202200632738323E9, 2021-05-05 15:07:43.273
66.0, 350.2341613769531, -1081.72119140625, 502.021728515625, 194.94789123535156, -0.1600000113248825, 0.06400000303983688, 1.040000081062317, 0.0, 0.0, 0.0, 0.0, 0.0, 1.6202200632738323E9, 2021-05-05 15:07:43.273
67.0, 377.8944396972656, -1038.259765625, 524.685546875, 231.91680908203125, -0.1600000113248825, 0.06400000303983688, 1.040000081062317, 0.0, 0.0, 0.0, 0.0, 0.0, 1.6202200632874005E9, 2021-05-05 15:07:43.287
67.0, 414.4183044433594, -1011.3662109375, 544.8323364257812, 248.91465759277344, -0.1600000113248825, 0.06400000303983688, 1.040000081062317, 0.0, 0.0, 0.0, 0.0, 0.0, 1.6202200632874005E9, 2021-05-05 15:07:43.287
68.0, 346.80841064453125, -1076.6611328125, 504.7668151855469, 184.37893676757812, -0.1600000113248825, 0.06400000303983688, 1.040000081062317, 0.0, 0.0, 0.0, 0.0, 0.0, 1.6202200633031273E9, 2021-05-05 15:07:43.303
68.0, 360.6722106933594, -1063.2310791015625, 505.084716796875, 189.18470764160156, -0.1600000113248825, 0.06400000303983688, 1.040000081062317, 0.0, 0.0, 0.0, 0.0, 0.0, 1.6202200633031273E9, 2021-05-05 15:07:43.303
69.0, 392.734375, -1024.384765625, 539.42822265625, 228.36390686035156, -0.1600000113248825, 0.06400000303983688, 1.040000081062317, 0.0, 0.0, 0.0, 0.0, 0.0, 1.6202200633038552E9, 2021-05-05 15:07:43.303
69.0, 415.9292297363281, -1005.9620361328125, 559.40673828125, 255.71005249023438, -0.1600000113248825, 0.06400000303983688, 1.040000081062317, 0.0, 0.0, 0.0, 0.0, 0.0, 1.6202200633038552E9, 2021-05-05 15:07:43.303
70.0, 352.4444274902344, -1072.1395263671875, 521.6375122070312, 202.36785888671875, -0.1600000113248825, 0.06400000303983688, 1.040000081062317, 0.0, 0.0, 0.0, 0.0, 0.0, 1.6202200633173497E9, 2021-05-05 15:07:43.317
70.0, 361.3416442871094, -1068.7698974609375, 515.33203125, 215.92124938964844, -0.1600000113248825, 0.06400000303983688, 1.040000081062317, 0.0, 0.0, 0.0, 0.0, 0.0, 1.6202200633173497E9, 2021-05-05 15:07:43.317
71.0, 412.59698486328125, -1042.1043701171875, 549.1332397460938, 253.32398986816406, -0.1600000113248825, 0.08000000566244125, 1.040000081062317, 0.0, 0.0, 0.0, 0.0, 0.0, 1.6202200633331504E9, 2021-05-05 15:07:43.333
71.0, 409.4966125488281, -1019.923095703125, 549.1893310546875, 274.72369384765625, -0.1600000113248825, 0.08000000566244125, 1.040000081062317, 0.0, 0.0, 0.0, 0.0, 0.0, 1.6202200633331504E9, 2021-05-05 15:07:43.333
72.0, 362.2541809082031, -1088.6549072265625, 508.2823181152344, 221.456298828125, -0.14400000870227814, 0.08000000566244125, 1.040000081062317, 0.0, 0.0, 0.0, 0.0, 0.0, 1.6202200633339932E9, 2021-05-05 15:07:43.333
72.0, 365.27227783203125, -1082.2933349609375, 514.1651611328125, 225.67491149902344, -0.14400000870227814, 0.08000000566244125, 1.040000081062317, 0.0, 0.0, 0.0, 0.0, 0.0, 1.6202200633339932E9, 2021-05-05 15:07:43.333
73.0, 385.55377197265625, -1048.9820556640625, 529.356689453125, 251.00900268554688, -0.14400000870227814, 0.08000000566244125, 1.040000081062317, 0.0, 0.0, 0.0, 0.0, 0.0, 1.6202200633473704E9, 2021-05-05 15:07:43.347
73.0, 391.279541015625, -1038.3197021484375, 530.8526000976562, 261.41339111328125, -0.14400000870227814, 0.08000000566244125, 1.040000081062317, 0.0, 0.0, 0.0, 0.0, 0.0, 1.6202200633473704E9, 2021-05-05 15:07:43.347
74.0, 386.27557373046875, -1050.560302734375, 525.1156005859375, 244.9989776611328, -0.14400000870227814, 0.08000000566244125, 1.040000081062317, 0.0, 0.0, 0.0, 0.0, 0.0, 1.6202200633632088E9, 2021-05-05 15:07:43.363
74.0, 349.7330017089844, -1059.4500732421875, 515.0702514648438, 240.00247192382812, -0.14400000870227814, 0.08000000566244125, 1.040000081062317, 0.0, 0.0, 0.0, 0.0, 0.0, 1.6202200633632088E9, 2021-05-05 15:07:43.363
75.0, 362.8675231933594, -1050.4368896484375, 523.1895751953125, 239.42279052734375, -0.14400000870227814, 0.08000000566244125, 1.040000081062317, 0.0, 0.0, 0.0, 0.0, 0.0, 1.6202200633638332E9, 2021-05-05 15:07:43.363
75.0, 397.405517578125, -1034.2618408203125, 534.0240478515625, 251.92152404785156, -0.14400000870227814, 0.08000000566244125, 1.040000081062317, 0.0, 0.0, 0.0, 0.0, 0.0, 1.6202200633638332E9, 2021-05-05 15:07:43.363
76.0, 371.125244140625, -1041.0086669921875, 528.2197265625, 237.46307373046875, -0.14400000870227814, 0.08000000566244125, 1.040000081062317, 0.0, 0.0, 0.0, 0.0, 0.0, 1.6202200633774383E9, 2021-05-05 15:07:43.377
76.0, 360.8778991699219, -1051.626220703125, 528.4403686523438, 232.76576232910156, -0.14400000870227814, 0.08000000566244125, 1.040000081062317, 0.0, 0.0, 0.0, 0.0, 0.0, 1.6202200633774383E9, 2021-05-05 15:07:43.377
77.0, 377.8383483886719, -1036.7750244140625, 533.395751953125, 237.747314453125, -0.14400000870227814, 0.08000000566244125, 1.040000081062317, 0.0, 0.0, 0.0, 0.0, 0.0, 1.6202200633928647E9, 2021-05-05 15:07:43.392
77.0, 396.30224609375, -1026.5164794921875, 538.0145263671875, 246.16957092285156, -0.14400000870227814, 0.08000000566244125, 1.040000081062317, 0.0, 0.0, 0.0, 0.0, 0.0, 1.6202200633928647E9, 2021-05-05 15:07:43.392
78.0, 387.9996643066406, -1040.8365478515625, 535.7332153320312, 233.9363555908203, -0.14400000870227814, 0.08000000566244125, 1.040000081062317, 0.0, 0.0, 0.0, 0.0, 0.0, 1.6202200634080503E9, 2021-05-05 15:07:43.408
78.0, 400.5320739746094, -1047.9835205078125, 544.1890869140625, 238.35691833496094, -0.14400000870227814, 0.08000000566244125, 1.040000081062317, 0.0, 0.0, 0.0, 0.0, 0.0, 1.6202200634080503E9, 2021-05-05 15:07:43.408
79.0, 364.59161376953125, -1042.8150634765625, 532.77490234375, 236.71136474609375, -0.14400000870227814, 0.08000000566244125, 1.040000081062317, 0.0, 0.0, 0.0, 0.0, 0.0, 1.6202200634087532E9, 2021-05-05 15:07:43.408
79.0, 400.38995361328125, -1037.30615234375, 542.0760498046875, 246.56973266601562, -0.14400000870227814, 0.08000000566244125, 1.040000081062317, 0.0, 0.0, 0.0, 0.0, 0.0, 1.6202200634087532E9, 2021-05-05 15:07:43.408
80.0, 398.9800109863281, -1044.1875, 541.9227294921875, 242.93829345703125, -0.14400000870227814, 0.08000000566244125, 1.040000081062317, 0.0, 0.0, 0.0, 0.0, 0.0, 1.6202200634234629E9, 2021-05-05 15:07:43.423
80.0, 371.5815124511719, -1062.075439453125, 529.7119750976562, 237.6687774658203, -0.14400000870227814, 0.08000000566244125, 1.040000081062317, 0.0, 0.0, 0.0, 0.0, 0.0, 1.6202200634234629E9, 2021-05-05 15:07:43.423
81.0, 380.6694641113281, -1051.1773681640625, 529.1135864257812, 244.1761932373047, -0.14400000870227814, 0.08000000566244125, 1.040000081062317, 0.0, 0.0, 0.0, 0.0, 0.0, 1.620220063438089E9, 2021-05-05 15:07:43.438
81.0, 391.8031311035156, -1042.42236328125, 532.7075805664062, 251.45030212402344, -0.14400000870227814, 0.08000000566244125, 1.040000081062317, 0.0, 0.0, 0.0, 0.0, 0.0, 1.620220063438089E9, 2021-05-05 15:07:43.438
82.0, 375.0558776855469, -1048.08447265625, 521.8095703125, 244.13131713867188, -0.14400000870227814, 0.08000000566244125, 1.040000081062317, 0.0, 0.0, 0.0, 0.0, 0.0, 1.6202200634388316E9, 2021-05-05 15:07:43.438
82.0, 374.0760192871094, -1057.96533203125, 519.124267578125, 235.0620574951172, -0.14400000870227814, 0.08000000566244125, 1.040000081062317, 0.0, 0.0, 0.0, 0.0, 0.0, 1.6202200634388316E9, 2021-05-05 15:07:43.438
83.0, 391.0439453125, -1045.732177734375, 528.6460571289062, 244.7409210205078, -0.14400000870227814, 0.08000000566244125, 1.040000081062317, 0.0, 0.0, 0.0, 0.0, 0.0, 1.6202200634534767E9, 2021-05-05 15:07:43.453
83.0, 374.1732482910156, -1032.6611328125, 527.7896118164062, 251.16607666015625, -0.14400000870227814, 0.08000000566244125, 1.040000081062317, 0.0, 0.0, 0.0, 0.0, 0.0, 1.6202200634534767E9, 2021-05-05 15:07:43.453
84.0, 380.38897705078125, -1054.4984130859375, 518.2603759765625, 240.43629455566406, -0.14400000870227814, 0.08000000566244125, 1.040000081062317, 0.0, 0.0, 0.0, 0.0, 0.0, 1.6202200634685037E9, 2021-05-05 15:07:43.468
84.0, 366.26708984375, -1044.453125, 524.16943359375, 237.64633178710938, -0.14400000870227814, 0.08000000566244125, 1.040000081062317, 0.0, 0.0, 0.0, 0.0, 0.0, 1.6202200634685037E9, 2021-05-05 15:07:43.468
85.0, 380.50115966796875, -1036.95458984375, 527.7821655273438, 247.4934844970703, -0.14400000870227814, 0.08000000566244125, 1.040000081062317, 0.0, 0.0, 0.0, 0.0, 0.0, 1.6202200634838502E9, 2021-05-05 15:07:43.483
85.0, 389.4656982421875, -1029.6954345703125, 533.593994140625, 246.29298400878906, -0.14400000870227814, 0.08000000566244125, 1.040000081062317, 0.0, 0.0, 0.0, 0.0, 0.0, 1.6202200634838502E9, 2021-05-05 15:07:43.483
86.0, 376.35736083984375, -1033.9215087890625, 526.3983764648438, 245.58987426757812, -0.14400000870227814, 0.08000000566244125, 1.040000081062317, 0.0, 0.0, 0.0, 0.0, 0.0, 1.620220063484497E9, 2021-05-05 15:07:43.484
86.0, 375.89361572265625, -1037.4893798828125, 530.3178100585938, 243.14772033691406, -0.14400000870227814, 0.08000000566244125, 1.040000081062317, 0.0, 0.0, 0.0, 0.0, 0.0, 1.620220063484497E9, 2021-05-05 15:07:43.484
87.0, 377.0455017089844, -1032.8631591796875, 531.7352294921875, 242.46331787109375, -0.14400000870227814, 0.08000000566244125, 1.040000081062317, 0.0, 0.0, 0.0, 0.0, 0.0, 1.6202200634852705E9, 2021-05-05 15:07:43.485
87.0, 409.9865417480469, -1026.2808837890625, 533.7622680664062, 243.86952209472656, -0.14400000870227814, 0.08000000566244125, 1.040000081062317, 0.0, 0.0, 0.0, 0.0, 0.0, 1.6202200634852705E9, 2021-05-05 15:07:43.485
88.0, 361.9250793457031, -1030.417236328125, 527.7896118164062, 246.29672241210938, -0.14400000870227814, 0.08000000566244125, 1.040000081062317, 0.0, 0.0, 0.0, 0.0, 0.0, 1.6202200634974494E9, 2021-05-05 15:07:43.497
88.0, 362.4037780761719, -1029.84130859375, 530.8787841796875, 245.76939392089844, -0.14400000870227814, 0.08000000566244125, 1.040000081062317, 0.0, 0.0, 0.0, 0.0, 0.0, 1.6202200634974494E9, 2021-05-05 15:07:43.497
89.0, 374.1433410644531, -1026.0302734375, 532.5468139648438, 254.3973388671875, -0.14400000870227814, 0.08000000566244125, 1.040000081062317, 0.0, 0.0, 0.0, 0.0, 0.0, 1.620220063513141E9, 2021-05-05 15:07:43.513
89.0, 392.42022705078125, -1017.5482177734375, 541.42529296875, 257.9315490722656, -0.14400000870227814, 0.08000000566244125, 1.040000081062317, 0.0, 0.0, 0.0, 0.0, 0.0, 1.620220063513141E9, 2021-05-05 15:07:43.513
90.0, 369.6517028808594, -1032.5115966796875, 526.435791015625, 246.33412170410156, -0.14400000870227814, 0.08000000566244125, 1.040000081062317, 0.0, 0.0, 0.0, 0.0, 0.0, 1.6202200635138605E9, 2021-05-05 15:07:43.513
90.0, 378.1786804199219, -1034.43017578125, 529.94384765625, 245.82550048828125, -0.14400000870227814, 0.08000000566244125, 1.040000081062317, 0.0, 0.0, 0.0, 0.0, 0.0, 1.6202200635138605E9, 2021-05-05 15:07:43.513
91.0, 384.86187744140625, -1037.0517578125, 526.447021484375, 251.62234497070312, -0.14400000870227814, 0.08000000566244125, 1.040000081062317, 0.0, 0.0, 0.0, 0.0, 0.0, 1.6202200635275211E9, 2021-05-05 15:07:43.527
91.0, 381.8363037109375, -1028.4276123046875, 527.5128784179688, 251.9065704345703, -0.14400000870227814, 0.08000000566244125, 1.040000081062317, 0.0, 0.0, 0.0, 0.0, 0.0, 1.6202200635275211E9, 2021-05-05 15:07:43.527
92.0, 380.67694091796875, -1034.265625, 524.2853393554688, 243.52545166015625, -0.14400000870227814, 0.08000000566244125, 1.040000081062317, 0.0, 0.0, 0.0, 0.0, 0.0, 1.620220063543136E9, 2021-05-05 15:07:43.543
92.0, 378.9490966796875, -1038.8507080078125, 529.0986328125, 240.17823791503906, -0.14400000870227814, 0.08000000566244125, 1.040000081062317, 0.0, 0.0, 0.0, 0.0, 0.0, 1.620220063543136E9, 2021-05-05 15:07:43.543
93.0, 387.79022216796875, -1028.1322021484375, 527.8233032226562, 244.84564208984375, -0.14400000870227814, 0.08000000566244125, 1.040000081062317, 0.0, 0.0, 0.0, 0.0, 0.0, 1.6202200635438907E9, 2021-05-05 15:07:43.543
93.0, 376.9071044921875, -1023.995849609375, 521.79833984375, 240.6195526123047, -0.14400000870227814, 0.08000000566244125, 1.040000081062317, 0.0, 0.0, 0.0, 0.0, 0.0, 1.6202200635438907E9, 2021-05-05 15:07:43.543
94.0, 366.05767822265625, -1027.058837890625, 522.28076171875, 239.75936889648438, -0.14400000870227814, 0.08000000566244125, 1.040000081062317, 0.0, 0.0, 0.0, 0.0, 0.0, 1.620220063573849E9, 2021-05-05 15:07:43.573
94.0, 375.23162841796875, -1039.924072265625, 523.1671142578125, 236.78240966796875, -0.14400000870227814, 0.08000000566244125, 1.040000081062317, 0.0, 0.0, 0.0, 0.0, 0.0, 1.620220063573849E9, 2021-05-05 15:07:43.573
95.0, 379.2146301269531, -1032.4891357421875, 530.6656494140625, 240.57093811035156, -0.14400000870227814, 0.08000000566244125, 1.040000081062317, 0.0, 0.0, 0.0, 0.0, 0.0, 1.6202200635745227E9, 2021-05-05 15:07:43.574
95.0, 389.4544677734375, -1025.7049560546875, 539.1738891601562, 246.0199737548828, -0.14400000870227814, 0.08000000566244125, 1.040000081062317, 0.0, 0.0, 0.0, 0.0, 0.0, 1.6202200635745227E9, 2021-05-05 15:07:43.574
96.0, 380.8153076171875, -1034.4862060546875, 522.1835327148438, 242.7438201904297, -0.14400000870227814, 0.08000000566244125, 1.040000081062317, 0.0, 0.0, 0.0, 0.0, 0.0, 1.620220063575329E9, 2021-05-05 15:07:43.575
96.0, 380.87890625, -1034.5947265625, 526.129150390625, 238.4541473388672, -0.14400000870227814, 0.08000000566244125, 1.040000081062317, 0.0, 0.0, 0.0, 0.0, 0.0, 1.620220063575329E9, 2021-05-05 15:07:43.575
97.0, 379.4315490722656, -1031.0792236328125, 527.5540161132812, 242.42218017578125, -0.14400000870227814, 0.08000000566244125, 1.040000081062317, 0.0, 0.0, 0.0, 0.0, 0.0, 1.6202200635873632E9, 2021-05-05 15:07:43.587
97.0, 383.1041259765625, -1026.849365234375, 523.2643432617188, 243.39456176757812, -0.14400000870227814, 0.08000000566244125, 1.040000081062317, 0.0, 0.0, 0.0, 0.0, 0.0, 1.6202200635873632E9, 2021-05-05 15:07:43.587
98.0, 370.938232421875, -1026.8531494140625, 529.9288940429688, 241.7303009033203, -0.14400000870227814, 0.08000000566244125, 1.040000081062317, 0.0, 0.0, 0.0, 0.0, 0.0, 1.62022006360306E9, 2021-05-05 15:07:43.603
98.0, 375.7327880859375, -1036.004638671875, 526.0618286132812, 236.0419158935547, -0.14400000870227814, 0.08000000566244125, 1.040000081062317, 0.0, 0.0, 0.0, 0.0, 0.0, 1.62022006360306E9, 2021-05-05 15:07:43.603
99.0, 378.22357177734375, -1029.8375244140625, 530.332763671875, 240.63450622558594, -0.14400000870227814, 0.08000000566244125, 1.040000081062317, 0.0, 0.0, 0.0, 0.0, 0.0, 1.6202200636037877E9, 2021-05-05 15:07:43.603
99.0, 394.19293212890625, -1031.70751953125, 528.4366455078125, 247.0297393798828, -0.14400000870227814, 0.08000000566244125, 1.040000081062317, 0.0, 0.0, 0.0, 0.0, 0.0, 1.6202200636037877E9, 2021-05-05 15:07:43.603
100.0, 383.496826171875, -1037.3023681640625, 527.5764770507812, 242.5343780517578, -0.14400000870227814, 0.08000000566244125, 1.040000081062317, 0.0, 0.0, 0.0, 0.0, 0.0, 1.6202200636181133E9, 2021-05-05 15:07:43.618
100.0, 363.5033264160156, -1044.0491943359375, 526.705078125, 228.76780700683594, -0.14400000870227814, 0.08000000566244125, 1.040000081062317, 0.0, 0.0, 0.0, 0.0, 0.0, 1.6202200636181133E9, 2021-05-05 15:07:43.618
0.0, 386.36907958984375, -1037.4688720703125, 522.6061401367188, 232.6217803955078, -0.14400000870227814, 0.08000000566244125, 1.040000081062317, 0.0, 0.0, 0.0, 0.0, 0.0, 1.6202200636188464E9, 2021-05-05 15:07:43.618
1.0, 394.1966857910156, -1027.75634765625, 530.706787109375, 247.14755249023438, -0.14400000870227814, 0.06400000303983688, 1.040000081062317, 0.0, 0.0, 0.0, 0.0, 0.0, 1.6202200636325166E9, 2021-05-05 15:07:43.632
1.0, 388.0408020019531, -1039.847412109375, 529.850341796875, 236.14102172851562, -0.14400000870227814, 0.06400000303983688, 1.040000081062317, 0.0, 0.0, 0.0, 0.0, 0.0, 1.6202200636325166E9, 2021-05-05 15:07:43.632
2.0, 380.3814697265625, -1035.542724609375, 527.3670043945312, 232.79006958007812, -0.14400000870227814, 0.06400000303983688, 1.040000081062317, 0.0, 0.0, 0.0, 0.0, 0.0, 1.6202200636480393E9, 2021-05-05 15:07:43.648
2.0, 387.24420166015625, -1039.177978515625, 530.3103637695312, 236.31680297851562, -0.14400000870227814, 0.06400000303983688, 1.040000081062317, 0.0, 0.0, 0.0, 0.0, 0.0, 1.6202200636480393E9, 2021-05-05 15:07:43.648
3.0, 407.12176513671875, -1038.3887939453125, 525.930908203125, 239.29376220703125, -0.14400000870227814, 0.06400000303983688, 1.040000081062317, 0.0, 0.0, 0.0, 0.0, 0.0, 1.6202200636487577E9, 2021-05-05 15:07:43.648
3.0, 383.73992919921875, -1036.3656005859375, 531.3948974609375, 239.24139404296875, -0.14400000870227814, 0.06400000303983688, 1.040000081062317, 0.0, 0.0, 0.0, 0.0, 0.0, 1.6202200636487577E9, 2021-05-05 15:07:43.648
4.0, 378.2460021972656, -1044.3240966796875, 530.2579956054688, 236.9002227783203, -0.14400000870227814, 0.06400000303983688, 1.040000081062317, 0.0, 0.0, 0.0, 0.0, 0.0, 1.620220063679412E9, 2021-05-05 15:07:43.679
4.0, 376.0282287597656, -1043.08984375, 528.5338745117188, 231.4736328125, -0.14400000870227814, 0.06400000303983688, 1.040000081062317, 0.0, 0.0, 0.0, 0.0, 0.0, 1.620220063679412E9, 2021-05-05 15:07:43.679
5.0, 395.26629638671875, -1029.44677734375, 531.0733032226562, 245.1654052734375, -0.14400000870227814, 0.06400000303983688, 1.040000081062317, 0.0, 0.0, 0.0, 0.0, 0.0, 1.6202200636801329E9, 2021-05-05 15:07:43.680
5.0, 384.846923828125, -1038.2093505859375, 528.9639892578125, 242.2819366455078, -0.14400000870227814, 0.06400000303983688, 1.040000081062317, 0.0, 0.0, 0.0, 0.0, 0.0, 1.6202200636801329E9, 2021-05-05 15:07:43.680
6.0, 368.08843994140625, -1052.7425537109375, 530.8451538085938, 234.84327697753906, -0.14400000870227814, 0.06400000303983688, 1.040000081062317, 0.0, 0.0, 0.0, 0.0, 0.0, 1.6202200636808848E9, 2021-05-05 15:07:43.680
6.0, 376.2040100097656, -1045.0758056640625, 529.5960083007812, 239.24888610839844, -0.14400000870227814, 0.06400000303983688, 1.040000081062317, 0.0, 0.0, 0.0, 0.0, 0.0, 1.6202200636808848E9, 2021-05-05 15:07:43.680
7.0, 388.55316162109375, -1043.9163818359375, 527.0715942382812, 239.58546447753906, -0.14400000870227814, 0.06400000303983688, 1.040000081062317, 0.0, 0.0, 0.0, 0.0, 0.0, 1.620220063692446E9, 2021-05-05 15:07:43.692
7.0, 380.6844177246094, -1054.533935546875, 525.1380615234375, 238.14935302734375, -0.14400000870227814, 0.06400000303983688, 1.040000081062317, 0.0, 0.0, 0.0, 0.0, 0.0, 1.620220063692446E9, 2021-05-05 15:07:43.692
8.0, 372.0190734863281, -1055.083740234375, 532.2662963867188, 232.50958251953125, -0.14400000870227814, 0.06400000303983688, 1.040000081062317, 0.0, 0.0, 0.0, 0.0, 0.0, 1.6202200637243843E9, 2021-05-05 15:07:43.724
8.0, 393.67681884765625, -1050.966064453125, 529.56982421875, 238.31390380859375, -0.14400000870227814, 0.06400000303983688, 1.040000081062317, 0.0, 0.0, 0.0, 0.0, 0.0, 1.6202200637243843E9, 2021-05-05 15:07:43.724
9.0, 371.20751953125, -1043.953857421875, 526.6040649414062, 238.27650451660156, -0.14400000870227814, 0.06400000303983688, 1.040000081062317, 0.0, 0.0, 0.0, 0.0, 0.0, 1.6202200637251258E9, 2021-05-05 15:07:43.725
9.0, 363.6267395019531, -1056.2991943359375, 521.540283203125, 230.42271423339844, -0.14400000870227814, 0.06400000303983688, 1.040000081062317, 0.0, 0.0, 0.0, 0.0, 0.0, 1.6202200637251258E9, 2021-05-05 15:07:43.725
10.0, 371.5141906738281, -1051.59814453125, 526.2039184570312, 229.11375427246094, -0.14400000870227814, 0.06400000303983688, 1.040000081062317, 0.0, 0.0, 0.0, 0.0, 0.0, 1.6202200637258885E9, 2021-05-05 15:07:43.725
10.0, 378.11883544921875, -1050.39013671875, 521.1700439453125, 224.04244995117188, -0.14400000870227814, 0.06400000303983688, 1.040000081062317, 0.0, 0.0, 0.0, 0.0, 0.0, 1.6202200637258885E9, 2021-05-05 15:07:43.725
11.0, 372.5127258300781, -1044.249267578125, 522.3555908203125, 229.67098999023438, -0.14400000870227814, 0.08000000566244125, 1.040000081062317, 0.0, 0.0, 0.0, 0.0, 0.0, 1.620220063726643E9, 2021-05-05 15:07:43.726
11.0, 371.4206848144531, -1043.265625, 523.6495971679688, 228.4069061279297, -0.14400000870227814, 0.08000000566244125, 1.040000081062317, 0.0, 0.0, 0.0, 0.0, 0.0, 1.620220063726643E9, 2021-05-05 15:07:43.726
12.0, 377.3858337402344, -1052.701416015625, 521.2335815429688, 226.87728881835938, -0.14400000870227814, 0.08000000566244125, 1.040000081062317, 0.0, 0.0, 0.0, 0.0, 0.0, 1.6202200637373984E9, 2021-05-05 15:07:43.737
12.0, 370.2052307128906, -1048.4603271484375, 518.323974609375, 233.65773010253906, -0.14400000870227814, 0.08000000566244125, 1.040000081062317, 0.0, 0.0, 0.0, 0.0, 0.0, 1.6202200637373984E9, 2021-05-05 15:07:43.737
13.0, 376.0544128417969, -1034.01318359375, 523.4700317382812, 228.21243286132812, -0.14400000870227814, 0.08000000566244125, 1.040000081062317, 0.0, 0.0, 0.0, 0.0, 0.0, 1.6202200637523558E9, 2021-05-05 15:07:43.752
13.0, 378.814453125, -1040.0679931640625, 523.5186767578125, 227.04933166503906, -0.14400000870227814, 0.08000000566244125, 1.040000081062317, 0.0, 0.0, 0.0, 0.0, 0.0, 1.6202200637523558E9, 2021-05-05 15:07:43.752
14.0, 373.4477233886719, -1051.66552734375, 520.706298828125, 221.60403442382812, -0.14400000870227814, 0.08000000566244125, 1.040000081062317, 0.0, 0.0, 0.0, 0.0, 0.0, 1.6202200637680736E9, 2021-05-05 15:07:43.768
14.0, 378.1936340332031, -1045.6890869140625, 524.0347900390625, 223.328125, -0.14400000870227814, 0.08000000566244125, 1.040000081062317, 0.0, 0.0, 0.0, 0.0, 0.0, 1.6202200637680736E9, 2021-05-05 15:07:43.768
15.0, 394.70904541015625, -1039.2303466796875, 518.5969848632812, 224.58847045898438, -0.14400000870227814, 0.08000000566244125, 1.040000081062317, 0.0, 0.0, 0.0, 0.0, 0.0, 1.6202200637687638E9, 2021-05-05 15:07:43.768
15.0, 366.6410827636719, -1045.62548828125, 524.1282958984375, 228.57894897460938, -0.14400000870227814, 0.08000000566244125, 1.040000081062317, 0.0, 0.0, 0.0, 0.0, 0.0, 1.6202200637687638E9, 2021-05-05 15:07:43.768
16.0, 367.7144470214844, -1053.0567626953125, 524.6444091796875, 225.60946655273438, -0.14400000870227814, 0.08000000566244125, 1.040000081062317, 0.0, 0.0, 0.0, 0.0, 0.0, 1.6202200637988465E9, 2021-05-05 15:07:43.798
16.0, 376.80987548828125, -1046.1566162109375, 524.767822265625, 233.30992126464844, -0.14400000870227814, 0.08000000566244125, 1.040000081062317, 0.0, 0.0, 0.0, 0.0, 0.0, 1.6202200637988465E9, 2021-05-05 15:07:43.798
17.0, 383.7099914550781, -1045.7115478515625, 522.2134399414062, 232.8648681640625, -0.14400000870227814, 0.08000000566244125, 1.040000081062317, 0.0, 0.0, 0.0, 0.0, 0.0, 1.6202200637995536E9, 2021-05-05 15:07:43.799
17.0, 384.36822509765625, -1056.16455078125, 520.7623901367188, 227.73373413085938, -0.14400000870227814, 0.08000000566244125, 1.040000081062317, 0.0, 0.0, 0.0, 0.0, 0.0, 1.6202200637995536E9, 2021-05-05 15:07:43.799
18.0, 374.4313049316406, -1064.5867919921875, 521.2223510742188, 217.49761962890625, -0.14400000870227814, 0.08000000566244125, 1.040000081062317, 0.0, 0.0, 0.0, 0.0, 0.0, 1.6202200638003187E9, 2021-05-05 15:07:43.800
18.0, 379.1734924316406, -1056.0, 519.3300170898438, 217.9015350341797, -0.14400000870227814, 0.08000000566244125, 1.040000081062317, 0.0, 0.0, 0.0, 0.0, 0.0, 1.6202200638003187E9, 2021-05-05 15:07:43.800
19.0, 381.8849182128906, -1052.678955078125, 522.011474609375, 227.47567749023438, -0.14400000870227814, 0.08000000566244125, 1.040000081062317, 0.0, 0.0, 0.0, 0.0, 0.0, 1.620220063812348E9, 2021-05-05 15:07:43.812
19.0, 374.00494384765625, -1051.33642578125, 524.1956176757812, 222.7708740234375, -0.14400000870227814, 0.08000000566244125, 1.040000081062317, 0.0, 0.0, 0.0, 0.0, 0.0, 1.620220063812348E9, 2021-05-05 15:07:43.812
20.0, 367.28436279296875, -1057.94482421875, 526.5966186523438, 226.33126831054688, -0.14400000870227814, 0.08000000566244125, 1.040000081062317, 0.0, 0.0, 0.0, 0.0, 0.0, 1.620220063828017E9, 2021-05-05 15:07:43.828
20.0, 365.9080810546875, -1050.6668701171875, 521.3682250976562, 220.29881286621094, -0.14400000870227814, 0.08000000566244125, 1.040000081062317, 0.0, 0.0, 0.0, 0.0, 0.0, 1.620220063828017E9, 2021-05-05 15:07:43.828
21.0, 384.5664367675781, -1041.395751953125, 525.601806640625, 226.81370544433594, -0.14400000870227814, 0.08000000566244125, 1.040000081062317, 0.0, 0.0, 0.0, 0.0, 0.0, 1.62022006382873E9, 2021-05-05 15:07:43.828
21.0, 372.9577941894531, -1047.16259765625, 517.1720581054688, 229.1773223876953, -0.14400000870227814, 0.08000000566244125, 1.040000081062317, 0.0, 0.0, 0.0, 0.0, 0.0, 1.62022006382873E9, 2021-05-05 15:07:43.828
22.0, 367.35540771484375, -1049.0625, 516.2333374023438, 221.31231689453125, -0.14400000870227814, 0.08000000566244125, 1.040000081062317, 0.0, 0.0, 0.0, 0.0, 0.0, 1.6202200638424735E9, 2021-05-05 15:07:43.842
22.0, 373.660888671875, -1043.8304443359375, 517.5310668945312, 218.51113891601562, -0.14400000870227814, 0.08000000566244125, 1.040000081062317, 0.0, 0.0, 0.0, 0.0, 0.0, 1.6202200638424735E9, 2021-05-05 15:07:43.842
23.0, 385.8193054199219, -1033.7364501953125, 521.44677734375, 219.66676330566406, -0.14400000870227814, 0.08000000566244125, 1.040000081062317, 0.0, 0.0, 0.0, 0.0, 0.0, 1.6202200638580391E9, 2021-05-05 15:07:43.858
23.0, 355.9748840332031, -1034.7012939453125, 518.7578125, 219.24041748046875, -0.14400000870227814, 0.08000000566244125, 1.040000081062317, 0.0, 0.0, 0.0, 0.0, 0.0, 1.6202200638580391E9, 2021-05-05 15:07:43.858
24.0, 367.4451599121094, -1040.5130615234375, 519.943359375, 218.37649536132812, -0.14400000870227814, 0.08000000566244125, 1.040000081062317, 0.0, 0.0, 0.0, 0.0, 0.0, 1.620220063858738E9, 2021-05-05 15:07:43.858
24.0, 378.76959228515625, -1035.4979248046875, 526.1441040039062, 227.3447723388672, -0.14400000870227814, 0.08000000566244125, 1.040000081062317, 0.0, 0.0, 0.0, 0.0, 0.0, 1.620220063858738E9, 2021-05-05 15:07:43.858
25.0, 368.6793518066406, -1034.47314453125, 520.3060913085938, 225.66555786132812, -0.14400000870227814, 0.08000000566244125, 1.040000081062317, 0.0, 0.0, 0.0, 0.0, 0.0, 1.620220063872326E9, 2021-05-05 15:07:43.872
25.0, 378.7209777832031, -1038.9498291015625, 518.6493530273438, 224.71188354492188, -0.14400000870227814, 0.08000000566244125, 1.040000081062317, 0.0, 0.0, 0.0, 0.0, 0.0, 1.620220063872326E9, 2021-05-05 15:07:43.872
26.0, 361.4613342285156, -1043.3629150390625, 522.28076171875, 217.24705505371094, -0.14400000870227814, 0.08000000566244125, 1.040000081062317, 0.0, 0.0, 0.0, 0.0, 0.0, 1.620220063888058E9, 2021-05-05 15:07:43.888
26.0, 376.6266174316406, -1041.14892578125, 529.4576416015625, 226.9371337890625, -0.14400000870227814, 0.08000000566244125, 1.040000081062317, 0.0, 0.0, 0.0, 0.0, 0.0, 1.620220063888058E9, 2021-05-05 15:07:43.888
27.0, 370.8372497558594, -1027.090576171875, 524.5321655273438, 232.1056671142578, -0.14400000870227814, 0.08000000566244125, 1.040000081062317, 0.0, 0.0, 0.0, 0.0, 0.0, 1.6202200638887737E9, 2021-05-05 15:07:43.888
27.0, 378.3432312011719, -1031.1558837890625, 521.846923828125, 225.04473876953125, -0.14400000870227814, 0.08000000566244125, 1.040000081062317, 0.0, 0.0, 0.0, 0.0, 0.0, 1.6202200638887737E9, 2021-05-05 15:07:43.888
28.0, 388.27642822265625, -1036.904052734375, 524.6107177734375, 216.44296264648438, -0.14400000870227814, 0.08000000566244125, 1.040000081062317, 0.0, 0.0, 0.0, 0.0, 0.0, 1.620220063902413E9, 2021-05-05 15:07:43.902
28.0, 357.3736267089844, -1033.826171875, 524.218017578125, 225.45986938476562, -0.14400000870227814, 0.08000000566244125, 1.040000081062317, 0.0, 0.0, 0.0, 0.0, 0.0, 1.620220063902413E9, 2021-05-05 15:07:43.902
29.0, 380.4974365234375, -1032.9996337890625, 523.982421875, 228.17129516601562, -0.14400000870227814, 0.08000000566244125, 1.040000081062317, 0.0, 0.0, 0.0, 0.0, 0.0, 1.6202200639177487E9, 2021-05-05 15:07:43.917
29.0, 370.2201843261719, -1026.96337890625, 524.9921875, 224.71188354492188, -0.14400000870227814, 0.08000000566244125, 1.040000081062317, 0.0, 0.0, 0.0, 0.0, 0.0, 1.6202200639177487E9, 2021-05-05 15:07:43.917
30.0, 369.8050537109375, -1020.7551879882812, 522.8641967773438, 220.62417602539062, -0.14400000870227814, 0.08000000566244125, 1.040000081062317, 0.0, 0.0, 0.0, 0.0, 0.0, 1.6202200639335172E9, 2021-05-05 15:07:43.933
30.0, 373.3168029785156, -1031.1259765625, 524.087158203125, 226.52947998046875, -0.14400000870227814, 0.08000000566244125, 1.040000081062317, 0.0, 0.0, 0.0, 0.0, 0.0, 1.6202200639335172E9, 2021-05-05 15:07:43.933
31.0, 390.1650695800781, -1012.7742309570312, 529.7119750976562, 224.7754669189453, -0.14400000870227814, 0.08000000566244125, 1.040000081062317, 0.0, 0.0, 0.0, 0.0, 0.0, 1.6202200639487865E9, 2021-05-05 15:07:43.948
31.0, 379.0238952636719, -1023.6760864257812, 527.1463623046875, 220.72889709472656, -0.14400000870227814, 0.08000000566244125, 1.040000081062317, 0.0, 0.0, 0.0, 0.0, 0.0, 1.6202200639487865E9, 2021-05-05 15:07:43.948
32.0, 373.3804016113281, -1024.85791015625, 530.7105102539062, 221.39459228515625, -0.14400000870227814, 0.08000000566244125, 1.040000081062317, 0.0, 0.0, 0.0, 0.0, 0.0, 1.62022006394945E9, 2021-05-05 15:07:43.949
32.0, 377.29608154296875, -1014.9321899414062, 531.4808959960938, 214.7974090576172, -0.14400000870227814, 0.08000000566244125, 1.040000081062317, 0.0, 0.0, 0.0, 0.0, 0.0, 1.62022006394945E9, 2021-05-05 15:07:43.949
33.0, 369.939697265625, -1006.1995239257812, 537.2890014648438, 226.99696350097656, -0.14400000870227814, 0.08000000566244125, 1.040000081062317, 0.0, 0.0, 0.0, 0.0, 0.0, 1.6202200639502017E9, 2021-05-05 15:07:43.950
33.0, 376.8996276855469, -1008.824951171875, 541.4365234375, 228.8818817138672, -0.14400000870227814, 0.08000000566244125, 1.040000081062317, 0.0, 0.0, 0.0, 0.0, 0.0, 1.6202200639502017E9, 2021-05-05 15:07:43.950
34.0, 372.464111328125, -1019.6107788085938, 532.011962890625, 217.1834716796875, -0.14400000870227814, 0.08000000566244125, 1.040000081062317, 0.0, 0.0, 0.0, 0.0, 0.0, 1.6202200639623332E9, 2021-05-05 15:07:43.962
34.0, 374.9736022949219, -1018.956298828125, 533.3097534179688, 223.5076446533203, -0.14400000870227814, 0.08000000566244125, 1.040000081062317, 0.0, 0.0, 0.0, 0.0, 0.0, 1.6202200639623332E9, 2021-05-05 15:07:43.962
35.0, 389.3310546875, -1010.833251953125, 528.6498413085938, 225.89369201660156, -0.14400000870227814, 0.08000000566244125, 1.040000081062317, 0.0, 0.0, 0.0, 0.0, 0.0, 1.6202200639780717E9, 2021-05-05 15:07:43.978
35.0, 378.3170471191406, -1030.5986328125, 526.8397216796875, 215.84832763671875, -0.14400000870227814, 0.08000000566244125, 1.040000081062317, 0.0, 0.0, 0.0, 0.0, 0.0, 1.6202200639780717E9, 2021-05-05 15:07:43.978
36.0, 366.64483642578125, -1025.31787109375, 531.1256103515625, 224.20700073242188, -0.14400000870227814, 0.08000000566244125, 1.040000081062317, 0.0, 0.0, 0.0, 0.0, 0.0, 1.620220063978777E9, 2021-05-05 15:07:43.978
36.0, 364.0418701171875, -1014.6404418945312, 519.2140502929688, 221.6414337158203, -0.14400000870227814, 0.08000000566244125, 1.040000081062317, 0.0, 0.0, 0.0, 0.0, 0.0, 1.620220063978777E9, 2021-05-05 15:07:43.978
37.0, 375.9833679199219, -1007.934814453125, 525.1941528320312, 225.9123992919922, -0.14400000870227814, 0.08000000566244125, 1.040000081062317, 0.0, 0.0, 0.0, 0.0, 0.0, 1.6202200639923725E9, 2021-05-05 15:07:43.992
37.0, 382.1542053222656, -1022.2623901367188, 522.890380859375, 228.13389587402344, -0.14400000870227814, 0.08000000566244125, 1.040000081062317, 0.0, 0.0, 0.0, 0.0, 0.0, 1.6202200639923725E9, 2021-05-05 15:07:43.992
38.0, 382.95452880859375, -1030.045166015625, 529.9176635742188, 226.8810272216797, -0.14400000870227814, 0.08000000566244125, 1.040000081062317, 0.0, 0.0, 0.0, 0.0, 0.0, 1.620220064040748E9, 2021-05-05 15:07:44.040
38.0, 362.6880187988281, -1020.5420532226562, 524.0497436523438, 224.78294372558594, -0.14400000870227814, 0.08000000566244125, 1.040000081062317, 0.0, 0.0, 0.0, 0.0, 0.0, 1.620220064040748E9, 2021-05-05 15:07:44.040
39.0, 377.2661437988281, -1015.8410034179688, 522.1199340820312, 228.90057373046875, -0.14400000870227814, 0.08000000566244125, 1.040000081062317, 0.0, 0.0, 0.0, 0.0, 0.0, 1.6202200640415628E9, 2021-05-05 15:07:44.041
39.0, 368.6494140625, -1019.0647583007812, 521.3084106445312, 224.595947265625, -0.14400000870227814, 0.08000000566244125, 1.040000081062317, 0.0, 0.0, 0.0, 0.0, 0.0, 1.6202200640415628E9, 2021-05-05 15:07:44.041
40.0, 365.70611572265625, -1022.1015625, 526.2450561523438, 225.4486541748047, -0.14400000870227814, 0.08000000566244125, 1.040000081062317, 0.0, 0.0, 0.0, 0.0, 0.0, 1.6202200640422037E9, 2021-05-05 15:07:44.042
40.0, 364.13909912109375, -1025.4412841796875, 522.2134399414062, 226.4584197998047, -0.14400000870227814, 0.08000000566244125, 1.040000081062317, 0.0, 0.0, 0.0, 0.0, 0.0, 1.6202200640422037E9, 2021-05-05 15:07:44.042
41.0, 371.959228515625, -1007.9759521484375, 525.2951049804688, 228.60511779785156, -0.14400000870227814, 0.08000000566244125, 1.040000081062317, 0.0, 0.0, 0.0, 0.0, 0.0, 1.62022006404295E9, 2021-05-05 15:07:44.042
41.0, 376.0656433105469, -1023.4778442382812, 524.8949584960938, 224.6408233642578, -0.14400000870227814, 0.08000000566244125, 1.040000081062317, 0.0, 0.0, 0.0, 0.0, 0.0, 1.62022006404295E9, 2021-05-05 15:07:44.042
42.0, 355.5560302734375, -1026.32763671875, 525.17919921875, 222.58763122558594, -0.14400000870227814, 0.08000000566244125, 1.040000081062317, 0.0, 0.0, 0.0, 0.0, 0.0, 1.6202200640530522E9, 2021-05-05 15:07:44.053
42.0, 359.9691162109375, -1024.5736083984375, 529.4015502929688, 223.86666870117188, -0.14400000870227814, 0.08000000566244125, 1.040000081062317, 0.0, 0.0, 0.0, 0.0, 0.0, 1.6202200640530522E9, 2021-05-05 15:07:44.053
43.0, 388.00714111328125, -1015.1341552734375, 535.9800415039062, 226.3761444091797, -0.14400000870227814, 0.08000000566244125, 1.040000081062317, 0.0, 0.0, 0.0, 0.0, 0.0, 1.6202200640537393E9, 2021-05-05 15:07:44.053
43.0, 368.6082763671875, -1022.3222045898438, 536.1333618164062, 225.0970916748047, -0.14400000870227814, 0.08000000566244125, 1.040000081062317, 0.0, 0.0, 0.0, 0.0, 0.0, 1.6202200640537393E9, 2021-05-05 15:07:44.053
44.0, 380.8153076171875, -1025.47119140625, 535.5536499023438, 218.85147094726562, -0.14400000870227814, 0.08000000566244125, 1.040000081062317, 0.0, 0.0, 0.0, 0.0, 0.0, 1.6202200640843997E9, 2021-05-05 15:07:44.084
44.0, 364.5243225097656, -1012.359130859375, 539.21875, 225.16067504882812, -0.14400000870227814, 0.08000000566244125, 1.040000081062317, 0.0, 0.0, 0.0, 0.0, 0.0, 1.6202200640843997E9, 2021-05-05 15:07:44.084
45.0, 392.1846008300781, -1012.9724731445312, 542.3453369140625, 229.75701904296875, -0.14400000870227814, 0.08000000566244125, 1.040000081062317, 0.0, 0.0, 0.0, 0.0, 0.0, 1.620220064085119E9, 2021-05-05 15:07:44.085
45.0, 385.0002746582031, -1026.653076171875, 539.8695068359375, 230.43768310546875, -0.14400000870227814, 0.08000000566244125, 1.040000081062317, 0.0, 0.0, 0.0, 0.0, 0.0, 1.620220064085119E9, 2021-05-05 15:07:44.085
46.0, 387.5807800292969, -1030.7481689453125, 541.2457885742188, 231.6755828857422, -0.14400000870227814, 0.08000000566244125, 1.040000081062317, 0.0, 0.0, 0.0, 0.0, 0.0, 1.620220064085974E9, 2021-05-05 15:07:44.085
46.0, 391.724609375, -1032.158203125, 541.212158203125, 235.90167236328125, -0.14400000870227814, 0.08000000566244125, 1.040000081062317, 0.0, 0.0, 0.0, 0.0, 0.0, 1.620220064085974E9, 2021-05-05 15:07:44.085
47.0, 390.3296203613281, -1017.3930053710938, 538.7288208007812, 239.58172607421875, -0.14400000870227814, 0.08000000566244125, 1.040000081062317, 0.0, 0.0, 0.0, 0.0, 0.0, 1.6202200640866177E9, 2021-05-05 15:07:44.086
47.0, 392.6221923828125, -1034.7574462890625, 537.3712768554688, 243.5460205078125, -0.14400000870227814, 0.08000000566244125, 1.040000081062317, 0.0, 0.0, 0.0, 0.0, 0.0, 1.6202200640866177E9, 2021-05-05 15:07:44.086
48.0, 386.93377685546875, -1041.691162109375, 535.8603515625, 239.16285705566406, -0.14400000870227814, 0.08000000566244125, 1.040000081062317, 0.0, 0.0, 0.0, 0.0, 0.0, 1.6202200640974562E9, 2021-05-05 15:07:44.097
48.0, 382.72265625, -1030.0975341796875, 530.3515014648438, 244.42115783691406, -0.14400000870227814, 0.08000000566244125, 1.040000081062317, 0.0, 0.0, 0.0, 0.0, 0.0, 1.6202200640974562E9, 2021-05-05 15:07:44.097
49.0, 393.1233215332031, -1031.219482421875, 533.6276245117188, 245.35614013671875, -0.14400000870227814, 0.08000000566244125, 1.040000081062317, 0.0, 0.0, 0.0, 0.0, 0.0, 1.6202200641124089E9, 2021-05-05 15:07:44.112
49.0, 406.46356201171875, -1036.23095703125, 534.9253540039062, 248.56871032714844, -0.14400000870227814, 0.08000000566244125, 1.040000081062317, 0.0, 0.0, 0.0, 0.0, 0.0, 1.6202200641124089E9, 2021-05-05 15:07:44.112
50.0, 370.1266784667969, -1038.95361328125, 533.6724853515625, 242.90650939941406, -0.14400000870227814, 0.08000000566244125, 1.040000081062317, 0.0, 0.0, 0.0, 0.0, 0.0, 1.6202200641281748E9, 2021-05-05 15:07:44.128
50.0, 355.103515625, -1034.439453125, 524.6331787109375, 236.66835021972656, -0.14400000870227814, 0.08000000566244125, 1.040000081062317, 0.0, 0.0, 0.0, 0.0, 0.0, 1.6202200641281748E9, 2021-05-05 15:07:44.128
51.0, 377.4568786621094, -1024.7120361328125, 529.3192749023438, 244.4473419189453, -0.14400000870227814, 0.06400000303983688, 1.040000081062317, 0.0, 0.0, 0.0, 0.0, 0.0, 1.620220064128794E9, 2021-05-05 15:07:44.128
51.0, 378.7957763671875, -1029.155029296875, 521.9142456054688, 236.70574951171875, -0.14400000870227814, 0.06400000303983688, 1.040000081062317, 0.0, 0.0, 0.0, 0.0, 0.0, 1.620220064128794E9, 2021-05-05 15:07:44.128
52.0, 366.73834228515625, -1040.385986328125, 517.220703125, 226.39859008789062, -0.14400000870227814, 0.06400000303983688, 1.040000081062317, 0.0, 0.0, 0.0, 0.0, 0.0, 1.620220064159454E9, 2021-05-05 15:07:44.159
52.0, 368.9299011230469, -1036.387939453125, 517.609619140625, 228.10023498535156, -0.14400000870227814, 0.06400000303983688, 1.040000081062317, 0.0, 0.0, 0.0, 0.0, 0.0, 1.620220064159454E9, 2021-05-05 15:07:44.159
53.0, 381.04718017578125, -1031.2530517578125, 514.6251831054688, 222.13136291503906, -0.14400000870227814, 0.06400000303983688, 1.040000081062317, 0.0, 0.0, 0.0, 0.0, 0.0, 1.620220064160194E9, 2021-05-05 15:07:44.160
53.0, 369.7713928222656, -1026.89990234375, 512.889892578125, 214.36732482910156, -0.14400000870227814, 0.06400000303983688, 1.040000081062317, 0.0, 0.0, 0.0, 0.0, 0.0, 1.620220064160194E9, 2021-05-05 15:07:44.160
54.0, 363.6117858886719, -1038.7030029296875, 512.736572265625, 220.55685424804688, -0.14400000870227814, 0.06400000303983688, 1.040000081062317, 0.0, 0.0, 0.0, 0.0, 0.0, 1.6202200641609523E9, 2021-05-05 15:07:44.160
54.0, 365.20123291015625, -1029.1363525390625, 507.5156555175781, 215.3546600341797, -0.14400000870227814, 0.06400000303983688, 1.040000081062317, 0.0, 0.0, 0.0, 0.0, 0.0, 1.6202200641609523E9, 2021-05-05 15:07:44.160
55.0, 373.4327392578125, -1029.3157958984375, 513.7575073242188, 223.07754516601562, -0.14400000870227814, 0.06400000303983688, 1.040000081062317, 0.0, 0.0, 0.0, 0.0, 0.0, 1.6202200641725E9, 2021-05-05 15:07:44.172
55.0, 365.2049560546875, -1031.900146484375, 511.76416015625, 224.0050506591797, -0.14400000870227814, 0.06400000303983688, 1.040000081062317, 0.0, 0.0, 0.0, 0.0, 0.0, 1.6202200641725E9, 2021-05-05 15:07:44.172
56.0, 355.3914794921875, -1038.1943359375, 512.3475952148438, 220.30255126953125, -0.14400000870227814, 0.06400000303983688, 1.040000081062317, 0.0, 0.0, 0.0, 0.0, 0.0, 1.6202200641880972E9, 2021-05-05 15:07:44.188
56.0, 363.836181640625, -1038.9385986328125, 508.7273864746094, 220.0706787109375, -0.14400000870227814, 0.06400000303983688, 1.040000081062317, 0.0, 0.0, 0.0, 0.0, 0.0, 1.6202200641880972E9, 2021-05-05 15:07:44.188
57.0, 374.7155456542969, -1030.0263671875, 517.0224609375, 229.91783142089844, -0.14400000870227814, 0.06400000303983688, 1.040000081062317, 0.0, 0.0, 0.0, 0.0, 0.0, 1.6202200641887636E9, 2021-05-05 15:07:44.188
57.0, 371.2486572265625, -1040.6663818359375, 516.2857055664062, 232.6554412841797, -0.14400000870227814, 0.06400000303983688, 1.040000081062317, 0.0, 0.0, 0.0, 0.0, 0.0, 1.6202200641887636E9, 2021-05-05 15:07:44.188
58.0, 363.1255798339844, -1043.4189453125, 514.28857421875, 221.4993133544922, -0.14400000870227814, 0.06400000303983688, 1.040000081062317, 0.0, 0.0, 0.0, 0.0, 0.0, 1.6202200642025173E9, 2021-05-05 15:07:44.202
58.0, 358.46942138671875, -1029.6898193359375, 507.93450927734375, 222.83445739746094, -0.14400000870227814, 0.06400000303983688, 1.040000081062317, 0.0, 0.0, 0.0, 0.0, 0.0, 1.6202200642025173E9, 2021-05-05 15:07:44.202
59.0, 371.31597900390625, -1026.98583984375, 514.8196411132812, 226.1592254638672, -0.14400000870227814, 0.06400000303983688, 1.040000081062317, 0.0, 0.0, 0.0, 0.0, 0.0, 1.6202200642181664E9, 2021-05-05 15:07:44.218
59.0, 367.5648498535156, -1029.5888671875, 513.4583740234375, 223.50390625, -0.14400000870227814, 0.06400000303983688, 1.040000081062317, 0.0, 0.0, 0.0, 0.0, 0.0, 1.6202200642181664E9, 2021-05-05 15:07:44.218
60.0, 360.3019714355469, -1029.7235107421875, 508.8956604003906, 212.34030151367188, -0.14400000870227814, 0.06400000303983688, 1.040000081062317, 0.0, 0.0, 0.0, 0.0, 0.0, 1.6202200642188897E9, 2021-05-05 15:07:44.218
60.0, 357.06695556640625, -1030.351806640625, 510.81048583984375, 216.49533081054688, -0.14400000870227814, 0.06400000303983688, 1.040000081062317, 0.0, 0.0, 0.0, 0.0, 0.0, 1.6202200642188897E9, 2021-05-05 15:07:44.218
61.0, 355.4139099121094, -1023.9677734375, 511.66693115234375, 220.46336364746094, -0.14400000870227814, 0.08000000566244125, 1.040000081062317, 0.0, 0.0, 0.0, 0.0, 0.0, 1.6202200642324593E9, 2021-05-05 15:07:44.232
61.0, 366.1361999511719, -1027.2476806640625, 513.1591796875, 217.7444610595703, -0.14400000870227814, 0.08000000566244125, 1.040000081062317, 0.0, 0.0, 0.0, 0.0, 0.0, 1.6202200642324593E9, 2021-05-05 15:07:44.232
62.0, 347.95654296875, -1024.1734619140625, 503.7757568359375, 211.2482452392578, -0.1600000113248825, 0.08000000566244125, 1.040000081062317, 0.0, 0.0, 0.0, 0.0, 0.0, 1.620220064248234E9, 2021-05-05 15:07:44.248
62.0, 342.43646240234375, -1027.0943603515625, 500.91845703125, 209.7560272216797, -0.1600000113248825, 0.08000000566244125, 1.040000081062317, 0.0, 0.0, 0.0, 0.0, 0.0, 1.620220064248234E9, 2021-05-05 15:07:44.248
63.0, 366.48028564453125, -1015.7549438476562, 508.2935485839844, 219.98838806152344, -0.1600000113248825, 0.08000000566244125, 1.040000081062317, 0.0, 0.0, 0.0, 0.0, 0.0, 1.6202200642489803E9, 2021-05-05 15:07:44.248
63.0, 371.2374267578125, -1023.82568359375, 509.1424865722656, 214.99937438964844, -0.1600000113248825, 0.08000000566244125, 1.040000081062317, 0.0, 0.0, 0.0, 0.0, 0.0, 1.6202200642489803E9, 2021-05-05 15:07:44.248
64.0, 361.4052429199219, -1034.2337646484375, 506.7340087890625, 207.95713806152344, -0.1600000113248825, 0.08000000566244125, 1.040000081062317, 0.0, 0.0, 0.0, 0.0, 0.0, 1.620220064262444E9, 2021-05-05 15:07:44.262
64.0, 365.3583068847656, -1041.08154296875, 507.8971252441406, 211.3267822265625, -0.1600000113248825, 0.08000000566244125, 1.040000081062317, 0.0, 0.0, 0.0, 0.0, 0.0, 1.620220064262444E9, 2021-05-05 15:07:44.262
65.0, 374.5434875488281, -1023.7545776367188, 505.425048828125, 210.40676879882812, -0.1600000113248825, 0.08000000566244125, 1.040000081062317, 0.0, 0.0, 0.0, 0.0, 0.0, 1.6202200642781708E9, 2021-05-05 15:07:44.278
65.0, 372.9054260253906, -1026.6605224609375, 506.0458679199219, 214.51318359375, -0.1600000113248825, 0.08000000566244125, 1.040000081062317, 0.0, 0.0, 0.0, 0.0, 0.0, 1.6202200642781708E9, 2021-05-05 15:07:44.278
66.0, 356.0683898925781, -1018.0400390625, 504.4227600097656, 206.64068603515625, -0.1600000113248825, 0.08000000566244125, 1.040000081062317, 0.0, 0.0, 0.0, 0.0, 0.0, 1.6202200642788916E9, 2021-05-05 15:07:44.278
66.0, 342.7730407714844, -1027.1802978515625, 498.19207763671875, 214.4608154296875, -0.1600000113248825, 0.08000000566244125, 1.040000081062317, 0.0, 0.0, 0.0, 0.0, 0.0, 1.6202200642788916E9, 2021-05-05 15:07:44.278
67.0, 357.5082702636719, -1020.5233154296875, 499.8862609863281, 220.11929321289062, -0.1600000113248825, 0.08000000566244125, 1.040000081062317, 0.0, 0.0, 0.0, 0.0, 0.0, 1.620220064308833E9, 2021-05-05 15:07:44.308
67.0, 367.4264831542969, -1023.0477905273438, 509.0564880371094, 218.5410614013672, -0.1600000113248825, 0.08000000566244125, 1.040000081062317, 0.0, 0.0, 0.0, 0.0, 0.0, 1.620220064308833E9, 2021-05-05 15:07:44.308
68.0, 351.86474609375, -1025.0860595703125, 506.3301086425781, 220.63165283203125, -0.1600000113248825, 0.08000000566244125, 1.040000081062317, 0.0, 0.0, 0.0, 0.0, 0.0, 1.6202200643095891E9, 2021-05-05 15:07:44.309
68.0, 360.85546875, -1025.1607666015625, 510.4888610839844, 212.9461669921875, -0.1600000113248825, 0.08000000566244125, 1.040000081062317, 0.0, 0.0, 0.0, 0.0, 0.0, 1.6202200643095891E9, 2021-05-05 15:07:44.309
69.0, 359.1463317871094, -1019.1769409179688, 501.61407470703125, 219.01976013183594, -0.1600000113248825, 0.08000000566244125, 1.040000081062317, 0.0, 0.0, 0.0, 0.0, 0.0, 1.6202200643103068E9, 2021-05-05 15:07:44.310
69.0, 361.4875183105469, -1027.9993896484375, 508.5403747558594, 219.23667907714844, -0.1600000113248825, 0.08000000566244125, 1.040000081062317, 0.0, 0.0, 0.0, 0.0, 0.0, 1.6202200643103068E9, 2021-05-05 15:07:44.310
70.0, 362.3476867675781, -1036.7545166015625, 513.6041870117188, 216.626220703125, -0.1600000113248825, 0.08000000566244125, 1.055999994277954, 0.0, 0.0, 0.0, 0.0, 0.0, 1.620220064322326E9, 2021-05-05 15:07:44.322
70.0, 356.87994384765625, -1039.3162841796875, 504.9986877441406, 216.99273681640625, -0.1600000113248825, 0.08000000566244125, 1.055999994277954, 0.0, 0.0, 0.0, 0.0, 0.0, 1.620220064322326E9, 2021-05-05 15:07:44.322
71.0, 375.7327880859375, -1020.92724609375, 510.08868408203125, 221.64517211914062, -0.1600000113248825, 0.08000000566244125, 1.055999994277954, 0.0, 0.0, 0.0, 0.0, 0.0, 1.620220064338146E9, 2021-05-05 15:07:44.338
71.0, 369.1767578125, -1020.844970703125, 507.94573974609375, 216.6224822998047, -0.1600000113248825, 0.08000000566244125, 1.055999994277954, 0.0, 0.0, 0.0, 0.0, 0.0, 1.620220064338146E9, 2021-05-05 15:07:44.338
72.0, 361.8128662109375, -1035.9093017578125, 506.2665100097656, 213.05462646484375, -0.1600000113248825, 0.08000000566244125, 1.055999994277954, 0.0, 0.0, 0.0, 0.0, 0.0, 1.6202200643389173E9, 2021-05-05 15:07:44.338
72.0, 371.3683166503906, -1020.9908447265625, 515.6648559570312, 219.56951904296875, -0.1600000113248825, 0.08000000566244125, 1.055999994277954, 0.0, 0.0, 0.0, 0.0, 0.0, 1.6202200643389173E9, 2021-05-05 15:07:44.338
73.0, 373.6982727050781, -1026.136962890625, 513.98193359375, 225.3701171875, -0.1600000113248825, 0.08000000566244125, 1.055999994277954, 0.0, 0.0, 0.0, 0.0, 0.0, 1.6202200643524287E9, 2021-05-05 15:07:44.352
73.0, 374.9698486328125, -1030.6771240234375, 517.8564453125, 211.30435180664062, -0.1600000113248825, 0.08000000566244125, 1.055999994277954, 0.0, 0.0, 0.0, 0.0, 0.0, 1.6202200643524287E9, 2021-05-05 15:07:44.352
74.0, 366.2484130859375, -1043.205810546875, 512.0371704101562, 211.3641815185547, -0.1600000113248825, 0.08000000566244125, 1.055999994277954, 0.0, 0.0, 0.0, 0.0, 0.0, 1.620220064368131E9, 2021-05-05 15:07:44.368
74.0, 377.57281494140625, -1043.79296875, 510.09991455078125, 213.6305694580078, -0.1600000113248825, 0.08000000566244125, 1.055999994277954, 0.0, 0.0, 0.0, 0.0, 0.0, 1.620220064368131E9, 2021-05-05 15:07:44.368
75.0, 382.69647216796875, -1029.8505859375, 510.7955322265625, 222.31460571289062, -0.1600000113248825, 0.08000000566244125, 1.055999994277954, 0.0, 0.0, 0.0, 0.0, 0.0, 1.6202200643688676E9, 2021-05-05 15:07:44.368
75.0, 372.4678649902344, -1050.7230224609375, 504.8565673828125, 217.0189208984375, -0.1600000113248825, 0.08000000566244125, 1.055999994277954, 0.0, 0.0, 0.0, 0.0, 0.0, 1.6202200643688676E9, 2021-05-05 15:07:44.368
76.0, 384.6487121582031, -1051.916015625, 510.167236328125, 214.78993225097656, -0.1600000113248825, 0.08000000566244125, 1.055999994277954, 0.0, 0.0, 0.0, 0.0, 0.0, 1.62022006438246E9, 2021-05-05 15:07:44.382
76.0, 367.7144470214844, -1037.498779296875, 504.4115295410156, 218.56723022460938, -0.1600000113248825, 0.08000000566244125, 1.055999994277954, 0.0, 0.0, 0.0, 0.0, 0.0, 1.62022006438246E9, 2021-05-05 15:07:44.382
77.0, 369.34130859375, -1018.9338989257812, 512.5308227539062, 231.32029724121094, -0.1600000113248825, 0.08000000566244125, 1.055999994277954, 0.0, 0.0, 0.0, 0.0, 0.0, 1.6202200643984663E9, 2021-05-05 15:07:44.398
77.0, 350.74652099609375, -1031.8851318359375, 509.1948547363281, 221.33102416992188, -0.1600000113248825, 0.08000000566244125, 1.055999994277954, 0.0, 0.0, 0.0, 0.0, 0.0, 1.6202200643984663E9, 2021-05-05 15:07:44.398
78.0, 346.2436828613281, -1034.3160400390625, 511.2218933105469, 222.3482666015625, -0.1600000113248825, 0.08000000566244125, 1.055999994277954, 0.0, 0.0, 0.0, 0.0, 0.0, 1.6202200644130924E9, 2021-05-05 15:07:44.413
78.0, 362.81890869140625, -1030.198486328125, 516.6260375976562, 229.19602966308594, -0.1600000113248825, 0.08000000566244125, 1.055999994277954, 0.0, 0.0, 0.0, 0.0, 0.0, 1.6202200644130924E9, 2021-05-05 15:07:44.413
79.0, 377.6363830566406, -1022.8383178710938, 512.9347534179688, 234.11026000976562, -0.1600000113248825, 0.08000000566244125, 1.055999994277954, 0.0, 0.0, 0.0, 0.0, 0.0, 1.6202200644139888E9, 2021-05-05 15:07:44.413
79.0, 368.896240234375, -1026.4510498046875, 514.075439453125, 227.62527465820312, -0.1600000113248825, 0.08000000566244125, 1.055999994277954, 0.0, 0.0, 0.0, 0.0, 0.0, 1.6202200644139888E9, 2021-05-05 15:07:44.413
80.0, 365.9566955566406, -1033.182861328125, 512.7515258789062, 223.96017456054688, -0.1600000113248825, 0.08000000566244125, 1.055999994277954, 0.0, 0.0, 0.0, 0.0, 0.0, 1.6202200644280858E9, 2021-05-05 15:07:44.428
80.0, 386.85150146484375, -1034.6563720703125, 515.15625, 230.48629760742188, -0.1600000113248825, 0.08000000566244125, 1.055999994277954, 0.0, 0.0, 0.0, 0.0, 0.0, 1.6202200644280858E9, 2021-05-05 15:07:44.428
81.0, 379.3904113769531, -1037.685791015625, 506.3861999511719, 224.10601806640625, -0.1600000113248825, 0.08000000566244125, 1.055999994277954, 0.0, 0.0, 0.0, 0.0, 0.0, 1.6202200644287934E9, 2021-05-05 15:07:44.428
81.0, 374.599609375, -1038.7740478515625, 518.5184326171875, 234.45059204101562, -0.1600000113248825, 0.08000000566244125, 1.055999994277954, 0.0, 0.0, 0.0, 0.0, 0.0, 1.6202200644287934E9, 2021-05-05 15:07:44.428
82.0, 375.3475646972656, -1046.83349609375, 517.5422973632812, 234.79466247558594, -0.14400000870227814, 0.08000000566244125, 1.055999994277954, 0.0, 0.0, 0.0, 0.0, 0.0, 1.620220064442351E9, 2021-05-05 15:07:44.442
82.0, 378.04779052734375, -1035.6923828125, 517.314208984375, 229.87669372558594, -0.14400000870227814, 0.08000000566244125, 1.055999994277954, 0.0, 0.0, 0.0, 0.0, 0.0, 1.620220064442351E9, 2021-05-05 15:07:44.442
83.0, 380.47125244140625, -1033.46337890625, 518.828857421875, 225.58702087402344, -0.14400000870227814, 0.08000000566244125, 1.055999994277954, 0.0, 0.0, 0.0, 0.0, 0.0, 1.6202200644580612E9, 2021-05-05 15:07:44.458
83.0, 387.3451843261719, -1043.5499267578125, 516.1211547851562, 225.7366180419922, -0.14400000870227814, 0.08000000566244125, 1.055999994277954, 0.0, 0.0, 0.0, 0.0, 0.0, 1.6202200644580612E9, 2021-05-05 15:07:44.458
84.0, 370.6726989746094, -1043.265625, 508.5553283691406, 218.09600830078125, -0.14400000870227814, 0.08000000566244125, 1.055999994277954, 0.0, 0.0, 0.0, 0.0, 0.0, 1.6202200644587932E9, 2021-05-05 15:07:44.458
84.0, 371.73858642578125, -1036.986328125, 507.1566162109375, 225.276611328125, -0.14400000870227814, 0.08000000566244125, 1.055999994277954, 0.0, 0.0, 0.0, 0.0, 0.0, 1.6202200644587932E9, 2021-05-05 15:07:44.458
85.0, 377.46063232421875, -1026.0994873046875, 509.1836242675781, 229.19229125976562, -0.14400000870227814, 0.08000000566244125, 1.055999994277954, 0.0, 0.0, 0.0, 0.0, 0.0, 1.6202200644725137E9, 2021-05-05 15:07:44.472
85.0, 384.62628173828125, -1028.2125244140625, 515.919189453125, 230.07864379882812, -0.14400000870227814, 0.08000000566244125, 1.055999994277954, 0.0, 0.0, 0.0, 0.0, 0.0, 1.6202200644725137E9, 2021-05-05 15:07:44.472
86.0, 368.9299011230469, -1033.8187255859375, 517.9275512695312, 228.06283569335938, -0.14400000870227814, 0.08000000566244125, 1.055999994277954, 0.0, 0.0, 0.0, 0.0, 0.0, 1.6202200644881492E9, 2021-05-05 15:07:44.488
86.0, 367.9388427734375, -1039.2490234375, 526.5255737304688, 229.13992309570312, -0.14400000870227814, 0.08000000566244125, 1.055999994277954, 0.0, 0.0, 0.0, 0.0, 0.0, 1.6202200644881492E9, 2021-05-05 15:07:44.488
87.0, 385.1461181640625, -1025.9873046875, 526.8845825195312, 231.74290466308594, -0.14400000870227814, 0.08000000566244125, 1.055999994277954, 0.0, 0.0, 0.0, 0.0, 0.0, 1.620220064488844E9, 2021-05-05 15:07:44.488
87.0, 372.3182678222656, -1030.3704833984375, 519.3262329101562, 227.34103393554688, -0.14400000870227814, 0.08000000566244125, 1.055999994277954, 0.0, 0.0, 0.0, 0.0, 0.0, 1.620220064488844E9, 2021-05-05 15:07:44.488
88.0, 362.4337158203125, -1034.9818115234375, 520.26123046875, 228.844482421875, -0.14400000870227814, 0.08000000566244125, 1.055999994277954, 0.0, 0.0, 0.0, 0.0, 0.0, 1.620220064502458E9, 2021-05-05 15:07:44.502
88.0, 377.62518310546875, -1031.821533203125, 516.8840942382812, 235.06393432617188, -0.14400000870227814, 0.08000000566244125, 1.055999994277954, 0.0, 0.0, 0.0, 0.0, 0.0, 1.620220064502458E9, 2021-05-05 15:07:44.502
89.0, 373.7095031738281, -1026.750244140625, 519.300048828125, 238.14561462402344, -0.14400000870227814, 0.08000000566244125, 1.055999994277954, 0.0, 0.0, 0.0, 0.0, 0.0, 1.6202200645181437E9, 2021-05-05 15:07:44.518
89.0, 372.5538635253906, -1033.5494384765625, 523.1521606445312, 237.71925354003906, -0.14400000870227814, 0.08000000566244125, 1.055999994277954, 0.0, 0.0, 0.0, 0.0, 0.0, 1.6202200645181437E9, 2021-05-05 15:07:44.518
90.0, 372.475341796875, -1047.4617919921875, 524.087158203125, 236.75062561035156, -0.14400000870227814, 0.08000000566244125, 1.040000081062317, 0.0, 0.0, 0.0, 0.0, 0.0, 1.6202200645188887E9, 2021-05-05 15:07:44.518
90.0, 376.52191162109375, -1041.0255126953125, 522.8380126953125, 231.98599243164062, -0.14400000870227814, 0.08000000566244125, 1.040000081062317, 0.0, 0.0, 0.0, 0.0, 0.0, 1.6202200645188887E9, 2021-05-05 15:07:44.518
91.0, 387.97723388671875, -1044.9710693359375, 522.6286010742188, 239.41343688964844, -0.14400000870227814, 0.08000000566244125, 1.040000081062317, 0.0, 0.0, 0.0, 0.0, 0.0, 1.6202200645324917E9, 2021-05-05 15:07:44.532
91.0, 388.2053527832031, -1043.239501953125, 523.0137939453125, 237.37144470214844, -0.14400000870227814, 0.08000000566244125, 1.040000081062317, 0.0, 0.0, 0.0, 0.0, 0.0, 1.6202200645324917E9, 2021-05-05 15:07:44.532
92.0, 380.81158447265625, -1048.5389404296875, 515.3582153320312, 225.54214477539062, -0.1600000113248825, 0.08000000566244125, 1.040000081062317, 0.0, 0.0, 0.0, 0.0, 0.0, 1.62022006454817E9, 2021-05-05 15:07:44.548
92.0, 385.44903564453125, -1045.109375, 522.9427490234375, 237.61080932617188, -0.1600000113248825, 0.08000000566244125, 1.040000081062317, 0.0, 0.0, 0.0, 0.0, 0.0, 1.62022006454817E9, 2021-05-05 15:07:44.548
93.0, 387.6929931640625, -1041.8408203125, 518.4099731445312, 241.92291259765625, -0.1600000113248825, 0.08000000566244125, 1.040000081062317, 0.0, 0.0, 0.0, 0.0, 0.0, 1.6202200645488677E9, 2021-05-05 15:07:44.548
93.0, 382.1542053222656, -1048.0078125, 515.096435546875, 238.5420379638672, -0.1600000113248825, 0.08000000566244125, 1.040000081062317, 0.0, 0.0, 0.0, 0.0, 0.0, 1.6202200645488677E9, 2021-05-05 15:07:44.548
94.0, 376.5181579589844, -1043.4788818359375, 511.9025573730469, 235.82687377929688, -0.1600000113248825, 0.08000000566244125, 1.040000081062317, 0.0, 0.0, 0.0, 0.0, 0.0, 1.6202200645624323E9, 2021-05-05 15:07:44.562
94.0, 370.5455627441406, -1041.6275634765625, 509.28460693359375, 234.3645782470703, -0.1600000113248825, 0.08000000566244125, 1.040000081062317, 0.0, 0.0, 0.0, 0.0, 0.0, 1.6202200645624323E9, 2021-05-05 15:07:44.562
95.0, 383.3621826171875, -1021.8397827148438, 509.92413330078125, 245.27012634277344, -0.1600000113248825, 0.08000000566244125, 1.040000081062317, 0.0, 0.0, 0.0, 0.0, 0.0, 1.6202200645780954E9, 2021-05-05 15:07:44.578
95.0, 375.50091552734375, -1046.72509765625, 509.2696533203125, 240.2100372314453, -0.1600000113248825, 0.08000000566244125, 1.040000081062317, 0.0, 0.0, 0.0, 0.0, 0.0, 1.6202200645780954E9, 2021-05-05 15:07:44.578
96.0, 364.3709716796875, -1035.138916015625, 519.3673706054688, 251.23526000976562, -0.1600000113248825, 0.08000000566244125, 1.040000081062317, 0.0, 0.0, 0.0, 0.0, 0.0, 1.6202200645788884E9, 2021-05-05 15:07:44.578
96.0, 360.0177307128906, -1030.10498046875, 514.4344482421875, 237.5285186767578, -0.1600000113248825, 0.08000000566244125, 1.040000081062317, 0.0, 0.0, 0.0, 0.0, 0.0, 1.6202200645788884E9, 2021-05-05 15:07:44.578
97.0, 378.63494873046875, -1023.4965209960938, 515.414306640625, 230.33670043945312, -0.1600000113248825, 0.08000000566244125, 1.040000081062317, 0.0, 0.0, 0.0, 0.0, 0.0, 1.6202200645924237E9, 2021-05-05 15:07:44.592
97.0, 380.53857421875, -1016.8619384765625, 535.063720703125, 268.6183166503906, -0.1600000113248825, 0.08000000566244125, 1.040000081062317, 0.0, 0.0, 0.0, 0.0, 0.0, 1.6202200645924237E9, 2021-05-05 15:07:44.592
98.0, 372.980224609375, -1034.345947265625, 519.9246215820312, 230.30677795410156, -0.1600000113248825, 0.08000000566244125, 1.040000081062317, 0.0, 0.0, 0.0, 0.0, 0.0, 1.620220064624177E9, 2021-05-05 15:07:44.624
98.0, 383.9718017578125, -1038.3851318359375, 521.716064453125, 234.11399841308594, -0.1600000113248825, 0.08000000566244125, 1.040000081062317, 0.0, 0.0, 0.0, 0.0, 0.0, 1.620220064624177E9, 2021-05-05 15:07:44.624
99.0, 384.31585693359375, -1029.5439453125, 531.024658203125, 251.3549346923828, -0.1600000113248825, 0.08000000566244125, 1.040000081062317, 0.0, 0.0, 0.0, 0.0, 0.0, 1.6202200646249132E9, 2021-05-05 15:07:44.624
99.0, 389.9369201660156, -1051.811279296875, 520.0330810546875, 238.4597625732422, -0.1600000113248825, 0.08000000566244125, 1.040000081062317, 0.0, 0.0, 0.0, 0.0, 0.0, 1.6202200646249132E9, 2021-05-05 15:07:44.624
100.0, 377.6588439941406, -1054.3057861328125, 519.767578125, 233.0406494140625, -0.1600000113248825, 0.08000000566244125, 1.040000081062317, 0.0, 0.0, 0.0, 0.0, 0.0, 1.6202200646257527E9, 2021-05-05 15:07:44.625
100.0, 378.67608642578125, -1045.69287109375, 520.7174682617188, 244.11822509765625, -0.1600000113248825, 0.08000000566244125, 1.040000081062317, 0.0, 0.0, 0.0, 0.0, 0.0, 1.6202200646257527E9, 2021-05-05 15:07:44.625
0.0, 398.81732177734375, -1038.256103515625, 526.9126586914062, 253.5540008544922, -0.1600000113248825, 0.08000000566244125, 1.040000081062317, 0.0, 0.0, 0.0, 0.0, 0.0, 1.620220064638167E9, 2021-05-05 15:07:44.638
1.0, 397.9085388183594, -1048.3013916015625, 526.6732788085938, 251.732666015625, -0.1600000113248825, 0.08000000566244125, 1.040000081062317, 0.0, 0.0, 0.0, 0.0, 0.0, 1.6202200646387923E9, 2021-05-05 15:07:44.638
1.0, 411.7274475097656, -1054.0496826171875, 525.06884765625, 247.52902221679688, -0.1600000113248825, 0.08000000566244125, 1.040000081062317, 0.0, 0.0, 0.0, 0.0, 0.0, 1.6202200646387923E9, 2021-05-05 15:07:44.638
2.0, 396.3415222167969, -1057.1239013671875, 523.142822265625, 246.83340454101562, -0.14400000870227814, 0.08000000566244125, 1.040000081062317, 0.0, 0.0, 0.0, 0.0, 0.0, 1.6202200646530726E9, 2021-05-05 15:07:44.653
2.0, 382.552490234375, -1046.15478515625, 523.8758544921875, 248.44903564453125, -0.14400000870227814, 0.08000000566244125, 1.040000081062317, 0.0, 0.0, 0.0, 0.0, 0.0, 1.6202200646530726E9, 2021-05-05 15:07:44.653
3.0, 396.18817138671875, -1050.6201171875, 523.845947265625, 244.67547607421875, -0.14400000870227814, 0.08000000566244125, 1.040000081062317, 0.0, 0.0, 0.0, 0.0, 0.0, 1.6202200646538181E9, 2021-05-05 15:07:44.653
3.0, 385.6640930175781, -1051.9852294921875, 523.2662353515625, 237.64071655273438, -0.14400000870227814, 0.08000000566244125, 1.040000081062317, 0.0, 0.0, 0.0, 0.0, 0.0, 1.6202200646538181E9, 2021-05-05 15:07:44.653
4.0, 384.5084533691406, -1049.4234619140625, 531.4603271484375, 258.1316223144531, -0.14400000870227814, 0.08000000566244125, 1.040000081062317, 0.0, 0.0, 0.0, 0.0, 0.0, 1.6202200646838694E9, 2021-05-05 15:07:44.683
4.0, 384.7627868652344, -1051.155029296875, 519.33935546875, 227.44949340820312, -0.14400000870227814, 0.08000000566244125, 1.040000081062317, 0.0, 0.0, 0.0, 0.0, 0.0, 1.6202200646838694E9, 2021-05-05 15:07:44.683
5.0, 392.37347412109375, -1040.8515625, 527.1370239257812, 237.6145477294922, -0.14400000870227814, 0.08000000566244125, 1.040000081062317, 0.0, 0.0, 0.0, 0.0, 0.0, 1.6202200646845827E9, 2021-05-05 15:07:44.684
5.0, 377.5971374511719, -1041.461181640625, 527.5521850585938, 226.462158203125, -0.14400000870227814, 0.08000000566244125, 1.040000081062317, 0.0, 0.0, 0.0, 0.0, 0.0, 1.6202200646845827E9, 2021-05-05 15:07:44.684
6.0, 369.1262512207031, -1050.2349853515625, 520.9325561523438, 228.65374755859375, -0.14400000870227814, 0.08000000566244125, 1.040000081062317, 0.0, 0.0, 0.0, 0.0, 0.0, 1.6202200646853275E9, 2021-05-05 15:07:44.685
6.0, 377.3241271972656, -1040.144775390625, 521.9609985351562, 232.2777099609375, -0.14400000870227814, 0.08000000566244125, 1.040000081062317, 0.0, 0.0, 0.0, 0.0, 0.0, 1.6202200646853275E9, 2021-05-05 15:07:44.685
7.0, 385.3050537109375, -1038.4617919921875, 535.8622436523438, 242.33055114746094, -0.14400000870227814, 0.08000000566244125, 1.040000081062317, 0.0, 0.0, 0.0, 0.0, 0.0, 1.620220064697386E9, 2021-05-05 15:07:44.697
7.0, 361.75115966796875, -1036.991943359375, 523.8197631835938, 227.8608856201172, -0.14400000870227814, 0.08000000566244125, 1.040000081062317, 0.0, 0.0, 0.0, 0.0, 0.0, 1.620220064697386E9, 2021-05-05 15:07:44.697
8.0, 366.1792297363281, -1048.3575439453125, 516.8934326171875, 222.7035675048828, -0.14400000870227814, 0.08000000566244125, 1.040000081062317, 0.0, 0.0, 0.0, 0.0, 0.0, 1.6202200647131672E9, 2021-05-05 15:07:44.713
8.0, 380.1215515136719, -1035.26416015625, 517.5591430664062, 228.49667358398438, -0.14400000870227814, 0.08000000566244125, 1.040000081062317, 0.0, 0.0, 0.0, 0.0, 0.0, 1.6202200647131672E9, 2021-05-05 15:07:44.713
9.0, 386.32232666015625, -1031.823486328125, 528.4572143554688, 234.39822387695312, -0.14400000870227814, 0.08000000566244125, 1.040000081062317, 0.0, 0.0, 0.0, 0.0, 0.0, 1.62022006471388E9, 2021-05-05 15:07:44.713
9.0, 383.2967224121094, -1058.541259765625, 522.637939453125, 219.42367553710938, -0.14400000870227814, 0.08000000566244125, 1.040000081062317, 0.0, 0.0, 0.0, 0.0, 0.0, 1.62022006471388E9, 2021-05-05 15:07:44.713
10.0, 380.8695373535156, -1053.1370849609375, 519.6422729492188, 222.85316467285156, -0.14400000870227814, 0.08000000566244125, 1.055999994277954, 0.0, 0.0, 0.0, 0.0, 0.0, 1.6202200647273855E9, 2021-05-05 15:07:44.727
10.0, 387.1338806152344, -1042.09326171875, 523.2699584960938, 235.64735412597656, -0.14400000870227814, 0.08000000566244125, 1.055999994277954, 0.0, 0.0, 0.0, 0.0, 0.0, 1.6202200647273855E9, 2021-05-05 15:07:44.727
11.0, 388.4129333496094, -1050.911865234375, 525.4353637695312, 233.7474822998047, -0.14400000870227814, 0.08000000566244125, 1.055999994277954, 0.0, 0.0, 0.0, 0.0, 0.0, 1.6202200647432103E9, 2021-05-05 15:07:44.743
11.0, 381.0602722167969, -1050.814697265625, 524.4854125976562, 230.47506713867188, -0.14400000870227814, 0.08000000566244125, 1.055999994277954, 0.0, 0.0, 0.0, 0.0, 0.0, 1.6202200647432103E9, 2021-05-05 15:07:44.743
12.0, 370.5511474609375, -1050.055419921875, 524.9080200195312, 241.6536407470703, -0.1600000113248825, 0.08000000566244125, 1.055999994277954, 0.0, 0.0, 0.0, 0.0, 0.0, 1.6202200647439384E9, 2021-05-05 15:07:44.743
12.0, 383.913818359375, -1045.95654296875, 516.0631713867188, 235.2471923828125, -0.1600000113248825, 0.08000000566244125, 1.055999994277954, 0.0, 0.0, 0.0, 0.0, 0.0, 1.6202200647439384E9, 2021-05-05 15:07:44.743
13.0, 374.01055908203125, -1047.916259765625, 520.513671875, 242.9027557373047, -0.1600000113248825, 0.08000000566244125, 1.055999994277954, 0.0, 0.0, 0.0, 0.0, 0.0, 1.6202200647574422E9, 2021-05-05 15:07:44.757
13.0, 362.14385986328125, -1047.6768798828125, 521.9535522460938, 242.62974548339844, -0.1600000113248825, 0.08000000566244125, 1.055999994277954, 0.0, 0.0, 0.0, 0.0, 0.0, 1.6202200647574422E9, 2021-05-05 15:07:44.757
14.0, 362.05035400390625, -1048.140625, 515.6331176757812, 232.1879425048828, -0.1600000113248825, 0.08000000566244125, 1.055999994277954, 0.0, 0.0, 0.0, 0.0, 0.0, 1.6202200647732913E9, 2021-05-05 15:07:44.773
14.0, 380.5292053222656, -1037.5716552734375, 522.6453857421875, 247.10267639160156, -0.1600000113248825, 0.08000000566244125, 1.055999994277954, 0.0, 0.0, 0.0, 0.0, 0.0, 1.6202200647732913E9, 2021-05-05 15:07:44.773
15.0, 371.72174072265625, -1038.083984375, 517.8433837890625, 233.44454956054688, -0.1600000113248825, 0.08000000566244125, 1.055999994277954, 0.0, 0.0, 0.0, 0.0, 0.0, 1.620220064773862E9, 2021-05-05 15:07:44.773
15.0, 369.30950927734375, -1046.5623779296875, 511.2013244628906, 226.473388671875, -0.1600000113248825, 0.08000000566244125, 1.055999994277954, 0.0, 0.0, 0.0, 0.0, 0.0, 1.620220064773862E9, 2021-05-05 15:07:44.773
16.0, 382.50762939453125, -1045.3431396484375, 514.0286865234375, 229.349365234375, -0.1600000113248825, 0.08000000566244125, 1.055999994277954, 0.0, 0.0, 0.0, 0.0, 0.0, 1.6202200647874396E9, 2021-05-05 15:07:44.787
16.0, 369.9041442871094, -1036.0831298828125, 504.1740417480469, 214.70018005371094, -0.1600000113248825, 0.08000000566244125, 1.055999994277954, 0.0, 0.0, 0.0, 0.0, 0.0, 1.6202200647874396E9, 2021-05-05 15:07:44.787
17.0, 384.83758544921875, -1033.5625, 505.04168701171875, 221.44322204589844, -0.1600000113248825, 0.08000000566244125, 1.055999994277954, 0.0, 0.0, 0.0, 0.0, 0.0, 1.6202200648031857E9, 2021-05-05 15:07:44.803
17.0, 364.46258544921875, -1049.2364501953125, 505.9617004394531, 219.853759765625, -0.1600000113248825, 0.08000000566244125, 1.055999994277954, 0.0, 0.0, 0.0, 0.0, 0.0, 1.6202200648031857E9, 2021-05-05 15:07:44.803
18.0, 372.9334716796875, -1047.366455078125, 514.6831665039062, 237.79031372070312, -0.1600000113248825, 0.08000000566244125, 1.055999994277954, 0.0, 0.0, 0.0, 0.0, 0.0, 1.6202200648038466E9, 2021-05-05 15:07:44.803
18.0, 371.6207580566406, -1042.7027587890625, 502.5957946777344, 223.42910766601562, -0.1600000113248825, 0.08000000566244125, 1.055999994277954, 0.0, 0.0, 0.0, 0.0, 0.0, 1.6202200648038466E9, 2021-05-05 15:07:44.803
19.0, 371.1083984375, -1048.5482177734375, 505.85699462890625, 229.37554931640625, -0.1600000113248825, 0.08000000566244125, 1.055999994277954, 0.0, 0.0, 0.0, 0.0, 0.0, 1.6202200648174124E9, 2021-05-05 15:07:44.817
19.0, 365.5135192871094, -1049.617919921875, 510.677734375, 228.9678955078125, -0.1600000113248825, 0.08000000566244125, 1.055999994277954, 0.0, 0.0, 0.0, 0.0, 0.0, 1.6202200648174124E9, 2021-05-05 15:07:44.817
20.0, 369.06640625, -1045.197265625, 517.226318359375, 236.06622314453125, -0.1600000113248825, 0.08000000566244125, 1.040000081062317, 0.0, 0.0, 0.0, 0.0, 0.0, 1.6202200648331034E9, 2021-05-05 15:07:44.833
20.0, 382.10369873046875, -1044.9915771484375, 517.1627197265625, 239.0992889404297, -0.1600000113248825, 0.08000000566244125, 1.040000081062317, 0.0, 0.0, 0.0, 0.0, 0.0, 1.6202200648331034E9, 2021-05-05 15:07:44.833
21.0, 375.5027770996094, -1055.078125, 518.1724853515625, 237.0198974609375, -0.1600000113248825, 0.08000000566244125, 1.040000081062317, 0.0, 0.0, 0.0, 0.0, 0.0, 1.6202200648339071E9, 2021-05-05 15:07:44.833
21.0, 376.5723876953125, -1067.7900390625, 521.1681518554688, 235.28085327148438, -0.1600000113248825, 0.08000000566244125, 1.040000081062317, 0.0, 0.0, 0.0, 0.0, 0.0, 1.6202200648339071E9, 2021-05-05 15:07:44.833
22.0, 364.5523681640625, -1068.5604248046875, 503.9272155761719, 216.8880157470703, -0.1600000113248825, 0.08000000566244125, 1.040000081062317, 0.0, 0.0, 0.0, 0.0, 0.0, 1.6202200648474107E9, 2021-05-05 15:07:44.847
22.0, 388.54754638671875, -1051.098876953125, 517.0430297851562, 237.74169921875, -0.1600000113248825, 0.08000000566244125, 1.040000081062317, 0.0, 0.0, 0.0, 0.0, 0.0, 1.6202200648474107E9, 2021-05-05 15:07:44.847
23.0, 377.8851013183594, -1054.45361328125, 510.1803283691406, 225.26539611816406, -0.1600000113248825, 0.08000000566244125, 1.040000081062317, 0.0, 0.0, 0.0, 0.0, 0.0, 1.6202200648630872E9, 2021-05-05 15:07:44.863
23.0, 367.5592346191406, -1059.551025390625, 513.6658935546875, 232.7788543701172, -0.1600000113248825, 0.08000000566244125, 1.040000081062317, 0.0, 0.0, 0.0, 0.0, 0.0, 1.6202200648630872E9, 2021-05-05 15:07:44.863
24.0, 371.7366943359375, -1054.150634765625, 513.53125, 230.84906005859375, -0.1600000113248825, 0.08000000566244125, 1.040000081062317, 0.0, 0.0, 0.0, 0.0, 0.0, 1.620220064863799E9, 2021-05-05 15:07:44.863
24.0, 382.4328308105469, -1048.67919921875, 516.4895629882812, 237.67437744140625, -0.1600000113248825, 0.08000000566244125, 1.040000081062317, 0.0, 0.0, 0.0, 0.0, 0.0, 1.620220064863799E9, 2021-05-05 15:07:44.863
25.0, 378.03094482421875, -1050.0106201171875, 518.3145751953125, 238.19422912597656, -0.1600000113248825, 0.08000000566244125, 1.040000081062317, 0.0, 0.0, 0.0, 0.0, 0.0, 1.6202200648773773E9, 2021-05-05 15:07:44.877
25.0, 372.39117431640625, -1058.9564208984375, 520.2069702148438, 230.95751953125, -0.1600000113248825, 0.08000000566244125, 1.040000081062317, 0.0, 0.0, 0.0, 0.0, 0.0, 1.6202200648773773E9, 2021-05-05 15:07:44.877
26.0, 379.3960266113281, -1051.0166015625, 513.3031616210938, 231.0472869873047, -0.1600000113248825, 0.08000000566244125, 1.040000081062317, 0.0, 0.0, 0.0, 0.0, 0.0, 1.6202200648930585E9, 2021-05-05 15:07:44.893
26.0, 377.5746765136719, -1043.2039794921875, 511.85205078125, 231.27540588378906, -0.1600000113248825, 0.08000000566244125, 1.040000081062317, 0.0, 0.0, 0.0, 0.0, 0.0, 1.6202200648930585E9, 2021-05-05 15:07:44.893
27.0, 366.6878356933594, -1045.653564453125, 505.65130615234375, 223.44032287597656, -0.1600000113248825, 0.08000000566244125, 1.040000081062317, 0.0, 0.0, 0.0, 0.0, 0.0, 1.6202200648937893E9, 2021-05-05 15:07:44.893
27.0, 363.2508850097656, -1051.9591064453125, 506.5002746582031, 225.13075256347656, -0.1600000113248825, 0.08000000566244125, 1.040000081062317, 0.0, 0.0, 0.0, 0.0, 0.0, 1.6202200648937893E9, 2021-05-05 15:07:44.893
28.0, 370.08367919921875, -1047.587158203125, 508.79656982421875, 229.1361846923828, -0.1600000113248825, 0.08000000566244125, 1.040000081062317, 0.0, 0.0, 0.0, 0.0, 0.0, 1.620220064923795E9, 2021-05-05 15:07:44.923
28.0, 376.20587158203125, -1043.4058837890625, 497.861083984375, 226.82119750976562, -0.1600000113248825, 0.08000000566244125, 1.040000081062317, 0.0, 0.0, 0.0, 0.0, 0.0, 1.620220064923795E9, 2021-05-05 15:07:44.923
29.0, 365.56585693359375, -1048.28271484375, 503.57940673828125, 225.16067504882812, -0.1600000113248825, 0.08000000566244125, 1.040000081062317, 0.0, 0.0, 0.0, 0.0, 0.0, 1.6202200649244835E9, 2021-05-05 15:07:44.924
29.0, 378.21795654296875, -1047.2056884765625, 517.1178588867188, 232.5282745361328, -0.1600000113248825, 0.08000000566244125, 1.040000081062317, 0.0, 0.0, 0.0, 0.0, 0.0, 1.6202200649244835E9, 2021-05-05 15:07:44.924
30.0, 375.4803466796875, -1050.2012939453125, 515.853759765625, 238.5869140625, -0.1600000113248825, 0.08000000566244125, 1.040000081062317, 0.0, 0.0, 0.0, 0.0, 0.0, 1.620220064925225E9, 2021-05-05 15:07:44.925
30.0, 389.3666076660156, -1041.0909423828125, 522.8436279296875, 239.5667724609375, -0.1600000113248825, 0.08000000566244125, 1.040000081062317, 0.0, 0.0, 0.0, 0.0, 0.0, 1.620220064925225E9, 2021-05-05 15:07:44.925
31.0, 389.8453063964844, -1043.75, 528.3861694335938, 239.81735229492188, -0.1600000113248825, 0.08000000566244125, 1.040000081062317, 0.0, 0.0, 0.0, 0.0, 0.0, 1.6202200649375014E9, 2021-05-05 15:07:44.937
31.0, 380.345947265625, -1048.177978515625, 535.0731201171875, 235.7483367919922, -0.1600000113248825, 0.08000000566244125, 1.040000081062317, 0.0, 0.0, 0.0, 0.0, 0.0, 1.6202200649375014E9, 2021-05-05 15:07:44.937
32.0, 372.6866455078125, -1054.5208740234375, 529.4968872070312, 236.802978515625, -0.1600000113248825, 0.08000000566244125, 1.040000081062317, 0.0, 0.0, 0.0, 0.0, 0.0, 1.620220064970163E9, 2021-05-05 15:07:44.970
32.0, 375.03155517578125, -1037.6912841796875, 531.5314331054688, 241.2572021484375, -0.1600000113248825, 0.08000000566244125, 1.040000081062317, 0.0, 0.0, 0.0, 0.0, 0.0, 1.620220064970163E9, 2021-05-05 15:07:44.970
33.0, 379.1267395019531, -1049.1915283203125, 530.618896484375, 242.25201416015625, -0.1600000113248825, 0.08000000566244125, 1.040000081062317, 0.0, 0.0, 0.0, 0.0, 0.0, 1.6202200649709222E9, 2021-05-05 15:07:44.970
33.0, 376.1011657714844, -1045.619873046875, 534.7439575195312, 247.52154541015625, -0.1600000113248825, 0.08000000566244125, 1.040000081062317, 0.0, 0.0, 0.0, 0.0, 0.0, 1.6202200649709222E9, 2021-05-05 15:07:44.970
34.0, 374.34716796875, -1050.115234375, 530.3907470703125, 239.61912536621094, -0.1600000113248825, 0.08000000566244125, 1.040000081062317, 0.0, 0.0, 0.0, 0.0, 0.0, 1.6202200649716365E9, 2021-05-05 15:07:44.971
34.0, 387.7696533203125, -1040.8441162109375, 538.0537719726562, 247.82821655273438, -0.1600000113248825, 0.08000000566244125, 1.040000081062317, 0.0, 0.0, 0.0, 0.0, 0.0, 1.6202200649716365E9, 2021-05-05 15:07:44.971
35.0, 390.2566833496094, -1046.3978271484375, 531.617431640625, 238.1680450439453, -0.1600000113248825, 0.08000000566244125, 1.040000081062317, 0.0, 0.0, 0.0, 0.0, 0.0, 1.6202200649723687E9, 2021-05-05 15:07:44.972
35.0, 382.18597412109375, -1054.3226318359375, 528.707763671875, 233.21641540527344, -0.1600000113248825, 0.08000000566244125, 1.040000081062317, 0.0, 0.0, 0.0, 0.0, 0.0, 1.6202200649723687E9, 2021-05-05 15:07:44.972
36.0, 383.6894226074219, -1051.2784423828125, 523.6552124023438, 227.13160705566406, -0.1600000113248825, 0.08000000566244125, 1.040000081062317, 0.0, 0.0, 0.0, 0.0, 0.0, 1.620220064998064E9, 2021-05-05 15:07:44.998
36.0, 393.925537109375, -1040.0811767578125, 526.08984375, 243.8003387451172, -0.1600000113248825, 0.08000000566244125, 1.040000081062317, 0.0, 0.0, 0.0, 0.0, 0.0, 1.620220064998064E9, 2021-05-05 15:07:44.998
37.0, 385.263916015625, -1052.074951171875, 517.2225341796875, 230.92759704589844, -0.1600000113248825, 0.08000000566244125, 1.040000081062317, 0.0, 0.0, 0.0, 0.0, 0.0, 1.620220064998841E9, 2021-05-05 15:07:44.998
37.0, 381.2397766113281, -1057.13134765625, 519.7058715820312, 231.12582397460938, -0.1600000113248825, 0.08000000566244125, 1.040000081062317, 0.0, 0.0, 0.0, 0.0, 0.0, 1.620220064998841E9, 2021-05-05 15:07:44.998
38.0, 385.5519104003906, -1039.7669677734375, 526.1571655273438, 244.67173767089844, -0.1600000113248825, 0.08000000566244125, 1.040000081062317, 0.0, 0.0, 0.0, 0.0, 0.0, 1.62022006501304E9, 2021-05-05 15:07:45.013
38.0, 379.2875671386719, -1041.625732421875, 518.3519897460938, 232.59185791015625, -0.1600000113248825, 0.08000000566244125, 1.040000081062317, 0.0, 0.0, 0.0, 0.0, 0.0, 1.62022006501304E9, 2021-05-05 15:07:45.013
39.0, 379.96075439453125, -1047.2916259765625, 517.6189575195312, 227.63275146484375, -0.1600000113248825, 0.08000000566244125, 1.040000081062317, 0.0, 0.0, 0.0, 0.0, 0.0, 1.6202200650138028E9, 2021-05-05 15:07:45.013
39.0, 370.345458984375, -1047.4300537109375, 515.8238525390625, 228.57521057128906, -0.1600000113248825, 0.08000000566244125, 1.040000081062317, 0.0, 0.0, 0.0, 0.0, 0.0, 1.6202200650138028E9, 2021-05-05 15:07:45.013
40.0, 379.3436584472656, -1039.1424560546875, 524.5901489257812, 231.82891845703125, -0.1600000113248825, 0.08000000566244125, 1.040000081062317, 0.0, 0.0, 0.0, 0.0, 0.0, 1.6202200650273538E9, 2021-05-05 15:07:45.027
40.0, 387.8556823730469, -1037.9344482421875, 518.3445434570312, 228.13015747070312, -0.1600000113248825, 0.08000000566244125, 1.040000081062317, 0.0, 0.0, 0.0, 0.0, 0.0, 1.6202200650273538E9, 2021-05-05 15:07:45.027
41.0, 387.23486328125, -1037.2799072265625, 518.916748046875, 224.58473205566406, -0.1600000113248825, 0.08000000566244125, 1.040000081062317, 0.0, 0.0, 0.0, 0.0, 0.0, 1.6202200650430827E9, 2021-05-05 15:07:45.043
41.0, 362.9853515625, -1048.5445556640625, 514.5335693359375, 220.4895477294922, -0.1600000113248825, 0.08000000566244125, 1.040000081062317, 0.0, 0.0, 0.0, 0.0, 0.0, 1.6202200650430827E9, 2021-05-05 15:07:45.043
42.0, 361.119140625, -1041.0833740234375, 518.752197265625, 224.6034393310547, -0.14400000870227814, 0.08000000566244125, 1.040000081062317, 0.0, 0.0, 0.0, 0.0, 0.0, 1.6202200650437768E9, 2021-05-05 15:07:45.043
42.0, 371.29913330078125, -1038.091552734375, 521.71044921875, 232.6217803955078, -0.14400000870227814, 0.08000000566244125, 1.040000081062317, 0.0, 0.0, 0.0, 0.0, 0.0, 1.6202200650437768E9, 2021-05-05 15:07:45.043
43.0, 363.9539794921875, -1041.7491455078125, 515.5770263671875, 226.87728881835938, -0.14400000870227814, 0.08000000566244125, 1.040000081062317, 0.0, 0.0, 0.0, 0.0, 0.0, 1.6202200650573852E9, 2021-05-05 15:07:45.057
43.0, 364.8291015625, -1049.385986328125, 520.0349731445312, 228.3695068359375, -0.14400000870227814, 0.08000000566244125, 1.040000081062317, 0.0, 0.0, 0.0, 0.0, 0.0, 1.6202200650573852E9, 2021-05-05 15:07:45.057
44.0, 368.138916015625, -1051.0838623046875, 518.669921875, 232.154296875, -0.14400000870227814, 0.08000000566244125, 1.040000081062317, 0.0, 0.0, 0.0, 0.0, 0.0, 1.6202200650891948E9, 2021-05-05 15:07:45.089
44.0, 381.93914794921875, -1046.685791015625, 518.8381958007812, 232.2664794921875, -0.14400000870227814, 0.08000000566244125, 1.040000081062317, 0.0, 0.0, 0.0, 0.0, 0.0, 1.6202200650891948E9, 2021-05-05 15:07:45.089
45.0, 374.29852294921875, -1055.5830078125, 519.0252075195312, 227.7860870361328, -0.14400000870227814, 0.08000000566244125, 1.040000081062317, 0.0, 0.0, 0.0, 0.0, 0.0, 1.6202200650898886E9, 2021-05-05 15:07:45.089
45.0, 362.7871398925781, -1059.80908203125, 510.6739807128906, 221.00564575195312, -0.14400000870227814, 0.08000000566244125, 1.040000081062317, 0.0, 0.0, 0.0, 0.0, 0.0, 1.6202200650898886E9, 2021-05-05 15:07:45.089
46.0, 372.9334716796875, -1054.8836669921875, 519.7095947265625, 231.82144165039062, -0.14400000870227814, 0.08000000566244125, 1.040000081062317, 0.0, 0.0, 0.0, 0.0, 0.0, 1.6202200650906684E9, 2021-05-05 15:07:45.090
46.0, 377.5634765625, -1051.5963134765625, 514.5485229492188, 228.93797302246094, -0.14400000870227814, 0.08000000566244125, 1.040000081062317, 0.0, 0.0, 0.0, 0.0, 0.0, 1.6202200650906684E9, 2021-05-05 15:07:45.090
47.0, 370.1510009765625, -1059.891357421875, 507.708251953125, 224.58099365234375, -0.14400000870227814, 0.08000000566244125, 1.040000081062317, 0.0, 0.0, 0.0, 0.0, 0.0, 1.6202200651031153E9, 2021-05-05 15:07:45.103
47.0, 368.8233337402344, -1061.6080322265625, 518.8606567382812, 230.84906005859375, -0.14400000870227814, 0.08000000566244125, 1.040000081062317, 0.0, 0.0, 0.0, 0.0, 0.0, 1.6202200651031153E9, 2021-05-05 15:07:45.103
48.0, 376.4078369140625, -1059.1695556640625, 512.3756713867188, 225.10458374023438, -0.14400000870227814, 0.08000000566244125, 1.040000081062317, 0.0, 0.0, 0.0, 0.0, 0.0, 1.620220065103888E9, 2021-05-05 15:07:45.103
48.0, 370.532470703125, -1053.350341796875, 506.335693359375, 224.87644958496094, -0.14400000870227814, 0.08000000566244125, 1.040000081062317, 0.0, 0.0, 0.0, 0.0, 0.0, 1.620220065103888E9, 2021-05-05 15:07:45.103
49.0, 380.6339416503906, -1052.4190673828125, 509.5557556152344, 229.3119659423828, -0.14400000870227814, 0.08000000566244125, 1.040000081062317, 0.0, 0.0, 0.0, 0.0, 0.0, 1.620220065117382E9, 2021-05-05 15:07:45.117
49.0, 372.7053527832031, -1059.21826171875, 508.6170349121094, 217.8903045654297, -0.14400000870227814, 0.08000000566244125, 1.040000081062317, 0.0, 0.0, 0.0, 0.0, 0.0, 1.620220065117382E9, 2021-05-05 15:07:45.117
50.0, 376.7556457519531, -1047.8675537109375, 513.7481689453125, 224.91758728027344, -0.14400000870227814, 0.08000000566244125, 1.040000081062317, 0.0, 0.0, 0.0, 0.0, 0.0, 1.6202200651330807E9, 2021-05-05 15:07:45.133
50.0, 383.1022644042969, -1040.9525146484375, 521.441162109375, 229.73831176757812, -0.14400000870227814, 0.08000000566244125, 1.040000081062317, 0.0, 0.0, 0.0, 0.0, 0.0, 1.6202200651330807E9, 2021-05-05 15:07:45.133
51.0, 379.0706481933594, -1045.9527587890625, 520.9100952148438, 224.62213134765625, -0.14400000870227814, 0.08000000566244125, 1.040000081062317, 0.0, 0.0, 0.0, 0.0, 0.0, 1.6202200651338441E9, 2021-05-05 15:07:45.133
51.0, 376.5798645019531, -1047.5572509765625, 531.968994140625, 231.86257934570312, -0.14400000870227814, 0.08000000566244125, 1.040000081062317, 0.0, 0.0, 0.0, 0.0, 0.0, 1.6202200651338441E9, 2021-05-05 15:07:45.133
52.0, 375.88800048828125, -1044.28857421875, 524.317138671875, 231.6419219970703, -0.1600000113248825, 0.08000000566244125, 1.040000081062317, 0.0, 0.0, 0.0, 0.0, 0.0, 1.6202200651473646E9, 2021-05-05 15:07:45.147
52.0, 386.56915283203125, -1033.7344970703125, 531.3294677734375, 236.87030029296875, -0.1600000113248825, 0.08000000566244125, 1.040000081062317, 0.0, 0.0, 0.0, 0.0, 0.0, 1.6202200651473646E9, 2021-05-05 15:07:45.147
53.0, 377.9262390136719, -1038.2073974609375, 531.0826416015625, 232.72274780273438, -0.1600000113248825, 0.08000000566244125, 1.040000081062317, 0.0, 0.0, 0.0, 0.0, 0.0, 1.6202200651630921E9, 2021-05-05 15:07:45.163
53.0, 377.27923583984375, -1045.0103759765625, 532.0475463867188, 238.37001037597656, -0.1600000113248825, 0.08000000566244125, 1.040000081062317, 0.0, 0.0, 0.0, 0.0, 0.0, 1.6202200651630921E9, 2021-05-05 15:07:45.163
54.0, 379.5343933105469, -1053.4400634765625, 527.8700561523438, 239.83978271484375, -0.1600000113248825, 0.08000000566244125, 1.040000081062317, 0.0, 0.0, 0.0, 0.0, 0.0, 1.6202200651638064E9, 2021-05-05 15:07:45.163
54.0, 390.862548828125, -1044.06787109375, 533.4163208007812, 240.5840301513672, -0.1600000113248825, 0.08000000566244125, 1.040000081062317, 0.0, 0.0, 0.0, 0.0, 0.0, 1.6202200651638064E9, 2021-05-05 15:07:45.163
55.0, 388.8130798339844, -1041.6817626953125, 532.8889770507812, 239.66775512695312, -0.1600000113248825, 0.08000000566244125, 1.040000081062317, 0.0, 0.0, 0.0, 0.0, 0.0, 1.6202200651773608E9, 2021-05-05 15:07:45.177
55.0, 378.6368103027344, -1059.7978515625, 523.7412109375, 227.318603515625, -0.1600000113248825, 0.08000000566244125, 1.040000081062317, 0.0, 0.0, 0.0, 0.0, 0.0, 1.6202200651773608E9, 2021-05-05 15:07:45.177
56.0, 382.5038757324219, -1052.273193359375, 522.5182495117188, 233.74000549316406, -0.1600000113248825, 0.08000000566244125, 1.040000081062317, 0.0, 0.0, 0.0, 0.0, 0.0, 1.6202200651937509E9, 2021-05-05 15:07:45.193
56.0, 386.4307861328125, -1044.8719482421875, 522.263916015625, 234.59645080566406, -0.1600000113248825, 0.08000000566244125, 1.040000081062317, 0.0, 0.0, 0.0, 0.0, 0.0, 1.6202200651937509E9, 2021-05-05 15:07:45.193
57.0, 384.6131896972656, -1049.9993896484375, 524.0142211914062, 239.525634765625, -0.1600000113248825, 0.08000000566244125, 1.040000081062317, 0.0, 0.0, 0.0, 0.0, 0.0, 1.6202200651944509E9, 2021-05-05 15:07:45.194
57.0, 372.0284118652344, -1052.8641357421875, 521.88623046875, 228.7509765625, -0.1600000113248825, 0.08000000566244125, 1.040000081062317, 0.0, 0.0, 0.0, 0.0, 0.0, 1.6202200651944509E9, 2021-05-05 15:07:45.194
58.0, 369.90789794921875, -1049.056884765625, 517.3347778320312, 219.41993713378906, -0.1600000113248825, 0.08000000566244125, 1.040000081062317, 0.0, 0.0, 0.0, 0.0, 0.0, 1.620220065207491E9, 2021-05-05 15:07:45.207
58.0, 379.6129455566406, -1038.6151123046875, 520.5548095703125, 224.33041381835938, -0.1600000113248825, 0.08000000566244125, 1.040000081062317, 0.0, 0.0, 0.0, 0.0, 0.0, 1.620220065207491E9, 2021-05-05 15:07:45.207
59.0, 375.5513916015625, -1040.9263916015625, 521.3214721679688, 217.37420654296875, -0.1600000113248825, 0.08000000566244125, 1.040000081062317, 0.0, 0.0, 0.0, 0.0, 0.0, 1.6202200652235E9, 2021-05-05 15:07:45.223
59.0, 367.19647216796875, -1044.2099609375, 521.6618041992188, 220.44091796875, -0.1600000113248825, 0.08000000566244125, 1.040000081062317, 0.0, 0.0, 0.0, 0.0, 0.0, 1.6202200652235E9, 2021-05-05 15:07:45.223
60.0, 366.71026611328125, -1039.243408203125, 522.5257568359375, 223.64601135253906, -0.1600000113248825, 0.08000000566244125, 1.040000081062317, 0.0, 0.0, 0.0, 0.0, 0.0, 1.6202200652381072E9, 2021-05-05 15:07:45.238
60.0, 370.99993896484375, -1029.5084228515625, 517.2001342773438, 218.6270751953125, -0.1600000113248825, 0.08000000566244125, 1.040000081062317, 0.0, 0.0, 0.0, 0.0, 0.0, 1.6202200652381072E9, 2021-05-05 15:07:45.238
61.0, 370.30059814453125, -1034.5498046875, 519.3318481445312, 225.54588317871094, -0.1600000113248825, 0.08000000566244125, 1.040000081062317, 0.0, 0.0, 0.0, 0.0, 0.0, 1.6202200652388442E9, 2021-05-05 15:07:45.238
61.0, 366.62799072265625, -1038.7646484375, 515.184326171875, 230.22824096679688, -0.1600000113248825, 0.08000000566244125, 1.040000081062317, 0.0, 0.0, 0.0, 0.0, 0.0, 1.6202200652388442E9, 2021-05-05 15:07:45.238
62.0, 368.8270568847656, -1039.88671875, 515.10205078125, 232.69284057617188, -0.1600000113248825, 0.08000000566244125, 1.040000081062317, 0.0, 0.0, 0.0, 0.0, 0.0, 1.620220065253308E9, 2021-05-05 15:07:45.253
62.0, 383.3902282714844, -1033.7308349609375, 518.9765625, 240.0753936767578, -0.1600000113248825, 0.08000000566244125, 1.040000081062317, 0.0, 0.0, 0.0, 0.0, 0.0, 1.620220065253308E9, 2021-05-05 15:07:45.253
63.0, 377.2605285644531, -1040.1671142578125, 515.2927856445312, 234.92181396484375, -0.1600000113248825, 0.08000000566244125, 1.040000081062317, 0.0, 0.0, 0.0, 0.0, 0.0, 1.6202200652538514E9, 2021-05-05 15:07:45.253
63.0, 375.1512451171875, -1042.7139892578125, 522.9183959960938, 235.03775024414062, -0.1600000113248825, 0.08000000566244125, 1.040000081062317, 0.0, 0.0, 0.0, 0.0, 0.0, 1.6202200652538514E9, 2021-05-05 15:07:45.253
64.0, 375.3232727050781, -1039.7445068359375, 520.3827514648438, 237.1171417236328, -0.1600000113248825, 0.08000000566244125, 1.040000081062317, 0.0, 0.0, 0.0, 0.0, 0.0, 1.6202200652674348E9, 2021-05-05 15:07:45.267
64.0, 392.6053466796875, -1037.1378173828125, 526.62841796875, 244.57449340820312, -0.1600000113248825, 0.08000000566244125, 1.040000081062317, 0.0, 0.0, 0.0, 0.0, 0.0, 1.6202200652674348E9, 2021-05-05 15:07:45.267
65.0, 387.3545227050781, -1041.85009765625, 527.7055053710938, 239.42091369628906, -0.1600000113248825, 0.08000000566244125, 1.040000081062317, 0.0, 0.0, 0.0, 0.0, 0.0, 1.6202200652831483E9, 2021-05-05 15:07:45.283
65.0, 386.7598876953125, -1042.908447265625, 531.5613403320312, 236.32427978515625, -0.1600000113248825, 0.08000000566244125, 1.040000081062317, 0.0, 0.0, 0.0, 0.0, 0.0, 1.6202200652831483E9, 2021-05-05 15:07:45.283
66.0, 388.2408752441406, -1038.3233642578125, 532.896484375, 239.15538024902344, -0.1600000113248825, 0.08000000566244125, 1.040000081062317, 0.0, 0.0, 0.0, 0.0, 0.0, 1.6202200652839012E9, 2021-05-05 15:07:45.283
66.0, 403.2266540527344, -1027.223388671875, 534.9235229492188, 248.65472412109375, -0.1600000113248825, 0.08000000566244125, 1.040000081062317, 0.0, 0.0, 0.0, 0.0, 0.0, 1.6202200652839012E9, 2021-05-05 15:07:45.283
67.0, 399.7186279296875, -1034.0748291015625, 538.9775390625, 241.87803649902344, -0.1600000113248825, 0.08000000566244125, 1.040000081062317, 0.0, 0.0, 0.0, 0.0, 0.0, 1.6202200652974637E9, 2021-05-05 15:07:45.297
67.0, 385.7426452636719, -1038.2747802734375, 535.7986450195312, 235.84182739257812, -0.1600000113248825, 0.08000000566244125, 1.040000081062317, 0.0, 0.0, 0.0, 0.0, 0.0, 1.6202200652974637E9, 2021-05-05 15:07:45.297
68.0, 378.3600769042969, -1035.8250732421875, 533.846435546875, 239.62286376953125, -0.1600000113248825, 0.08000000566244125, 1.040000081062317, 0.0, 0.0, 0.0, 0.0, 0.0, 1.6202200653131368E9, 2021-05-05 15:07:45.313
68.0, 393.39447021484375, -1033.480224609375, 533.5397338867188, 245.0419921875, -0.1600000113248825, 0.08000000566244125, 1.040000081062317, 0.0, 0.0, 0.0, 0.0, 0.0, 1.6202200653131368E9, 2021-05-05 15:07:45.313
69.0, 386.801025390625, -1032.0703125, 535.1591186523438, 248.75570678710938, -0.1600000113248825, 0.08000000566244125, 1.040000081062317, 0.0, 0.0, 0.0, 0.0, 0.0, 1.620220065314008E9, 2021-05-05 15:07:45.314
69.0, 375.91790771484375, -1033.8765869140625, 532.02880859375, 241.00289916992188, -0.1600000113248825, 0.08000000566244125, 1.040000081062317, 0.0, 0.0, 0.0, 0.0, 0.0, 1.620220065314008E9, 2021-05-05 15:07:45.314
70.0, 379.2202453613281, -1037.0517578125, 531.980224609375, 239.31619262695312, -0.1600000113248825, 0.08000000566244125, 1.055999994277954, 0.0, 0.0, 0.0, 0.0, 0.0, 1.6202200653274004E9, 2021-05-05 15:07:45.327
70.0, 387.5751953125, -1031.6925048828125, 532.7954711914062, 246.82217407226562, -0.1600000113248825, 0.08000000566244125, 1.055999994277954, 0.0, 0.0, 0.0, 0.0, 0.0, 1.6202200653274004E9, 2021-05-05 15:07:45.327
71.0, 391.9321594238281, -1040.701904296875, 538.1585083007812, 248.2620391845703, -0.1600000113248825, 0.08000000566244125, 1.055999994277954, 0.0, 0.0, 0.0, 0.0, 0.0, 1.6202200653430915E9, 2021-05-05 15:07:45.343
71.0, 377.0959777832031, -1047.3626708984375, 534.2952270507812, 235.56134033203125, -0.1600000113248825, 0.08000000566244125, 1.055999994277954, 0.0, 0.0, 0.0, 0.0, 0.0, 1.6202200653430915E9, 2021-05-05 15:07:45.343
72.0, 376.59857177734375, -1037.91943359375, 537.216064453125, 246.57908630371094, -0.14400000870227814, 0.08000000566244125, 1.055999994277954, 0.0, 0.0, 0.0, 0.0, 0.0, 1.620220065343886E9, 2021-05-05 15:07:45.343
72.0, 387.6761474609375, -1037.94189453125, 532.4663696289062, 246.69876098632812, -0.14400000870227814, 0.08000000566244125, 1.055999994277954, 0.0, 0.0, 0.0, 0.0, 0.0, 1.620220065343886E9, 2021-05-05 15:07:45.343
73.0, 386.66265869140625, -1041.4425048828125, 532.264404296875, 241.65737915039062, -0.14400000870227814, 0.08000000566244125, 1.055999994277954, 0.0, 0.0, 0.0, 0.0, 0.0, 1.6202200653574905E9, 2021-05-05 15:07:45.357
73.0, 374.7061767578125, -1046.98876953125, 528.7750854492188, 231.74664306640625, -0.14400000870227814, 0.08000000566244125, 1.055999994277954, 0.0, 0.0, 0.0, 0.0, 0.0, 1.6202200653574905E9, 2021-05-05 15:07:45.357
74.0, 370.4726257324219, -1049.28125, 521.4898071289062, 225.56085205078125, -0.14400000870227814, 0.08000000566244125, 1.055999994277954, 0.0, 0.0, 0.0, 0.0, 0.0, 1.6202200653731468E9, 2021-05-05 15:07:45.373
74.0, 383.18829345703125, -1041.218017578125, 520.057373046875, 224.99612426757812, -0.14400000870227814, 0.08000000566244125, 1.055999994277954, 0.0, 0.0, 0.0, 0.0, 0.0, 1.6202200653731468E9, 2021-05-05 15:07:45.373
75.0, 378.5395812988281, -1043.503173828125, 519.5076293945312, 221.5479278564453, -0.14400000870227814, 0.08000000566244125, 1.055999994277954, 0.0, 0.0, 0.0, 0.0, 0.0, 1.6202200653738325E9, 2021-05-05 15:07:45.373
75.0, 369.7246398925781, -1051.4241943359375, 521.7890014648438, 215.82962036132812, -0.14400000870227814, 0.08000000566244125, 1.055999994277954, 0.0, 0.0, 0.0, 0.0, 0.0, 1.6202200653738325E9, 2021-05-05 15:07:45.373
76.0, 373.9582214355469, -1046.0013427734375, 515.3974609375, 216.65988159179688, -0.14400000870227814, 0.08000000566244125, 1.055999994277954, 0.0, 0.0, 0.0, 0.0, 0.0, 1.6202200653874772E9, 2021-05-05 15:07:45.387
76.0, 378.23291015625, -1041.87255859375, 512.7645874023438, 216.37191772460938, -0.14400000870227814, 0.08000000566244125, 1.055999994277954, 0.0, 0.0, 0.0, 0.0, 0.0, 1.6202200653874772E9, 2021-05-05 15:07:45.387
77.0, 365.7079772949219, -1039.490234375, 513.1235961914062, 216.1624755859375, -0.14400000870227814, 0.08000000566244125, 1.055999994277954, 0.0, 0.0, 0.0, 0.0, 0.0, 1.6202200654037967E9, 2021-05-05 15:07:45.403
77.0, 355.3372497558594, -1053.799072265625, 505.0155334472656, 211.46890258789062, -0.14400000870227814, 0.08000000566244125, 1.055999994277954, 0.0, 0.0, 0.0, 0.0, 0.0, 1.6202200654037967E9, 2021-05-05 15:07:45.403
78.0, 350.3856201171875, -1043.7349853515625, 506.698486328125, 219.84254455566406, -0.14400000870227814, 0.08000000566244125, 1.055999994277954, 0.0, 0.0, 0.0, 0.0, 0.0, 1.6202200654045548E9, 2021-05-05 15:07:45.404
