Sample Index, EXG Channel 0, EXG Channel 1, EXG Channel 2, EXG Channel 3, Accel Channel 0, Accel Channel 1, Accel Channel 2, Other, Other, Other, Other, Other, Timestamp, Timestamp (Formatted)
0.0, 515.7976684570312, -768.431640625, 413.5730895996094, 153.4256591796875, 0.0, 0.0, 0.0, 0.0, 0.0, 0.0, 0.0, 0.0, 1.6202152643151224E9, 2021-05-05 13:47:44.315
1.0, 495.4114685058594, -787.1723022460938, 397.6448669433594, 123.28954315185547, 0.0, 0.06400000303983688, 0.0, 0.0, 0.0, 0.0, 0.0, 0.0, 1.6202152643593223E9, 2021-05-05 13:47:44.359
1.0, 500.92779541015625, -779.0641479492188, 402.147705078125, 123.64482879638672, 0.0, 0.06400000303983688, 0.0, 0.0, 0.0, 0.0, 0.0, 0.0, 1.6202152643593223E9, 2021-05-05 13:47:44.359
2.0, 502.3377380371094, -765.3200073242188, 402.6824951171875, 140.2836456298828, -0.14400000870227814, 0.06400000303983688, 0.0, 0.0, 0.0, 0.0, 0.0, 0.0, 1.6202152643765535E9, 2021-05-05 13:47:44.376
2.0, 520.6595458984375, -761.0565795898438, 414.0667724609375, 161.29440307617188, -0.14400000870227814, 0.06400000303983688, 0.0, 0.0, 0.0, 0.0, 0.0, 0.0, 1.6202152643765535E9, 2021-05-05 13:47:44.376
3.0, 490.912353515625, -785.7586059570312, 400.9284973144531, 122.56400299072266, -0.14400000870227814, 0.06400000303983688, 0.0, 0.0, 0.0, 0.0, 0.0, 0.0, 1.620215264377179E9, 2021-05-05 13:47:44.377
3.0, 492.24749755859375, -779.1688842773438, 403.83441162109375, 127.10424041748047, -0.14400000870227814, 0.06400000303983688, 0.0, 0.0, 0.0, 0.0, 0.0, 0.0, 1.620215264377179E9, 2021-05-05 13:47:44.377
4.0, 502.03106689453125, -767.4180908203125, 407.29754638671875, 146.3385467529297, -0.14400000870227814, 0.06400000303983688, 0.0, 0.0, 0.0, 0.0, 0.0, 0.0, 1.620215264377998E9, 2021-05-05 13:47:44.377
4.0, 512.9403686523438, -761.587646484375, 417.7842102050781, 164.25640869140625, -0.14400000870227814, 0.06400000303983688, 0.0, 0.0, 0.0, 0.0, 0.0, 0.0, 1.620215264377998E9, 2021-05-05 13:47:44.377
5.0, 489.3789978027344, -796.5855712890625, 395.5467834472656, 127.27627563476562, -0.14400000870227814, 0.06400000303983688, 0.0, 0.0, 0.0, 0.0, 0.0, 0.0, 1.6202152643786075E9, 2021-05-05 13:47:44.378
5.0, 493.0440979003906, -784.2327270507812, 402.4693298339844, 124.54988861083984, -0.14400000870227814, 0.06400000303983688, 0.0, 0.0, 0.0, 0.0, 0.0, 0.0, 1.6202152643786075E9, 2021-05-05 13:47:44.378
6.0, 505.40447998046875, -765.181640625, 408.6439208984375, 147.25482177734375, -0.14400000870227814, 0.06400000303983688, 0.0, 0.0, 0.0, 0.0, 0.0, 0.0, 1.6202152643894083E9, 2021-05-05 13:47:44.389
6.0, 514.6719360351562, -764.6468505859375, 414.29864501953125, 167.09498596191406, -0.14400000870227814, 0.06400000303983688, 0.0, 0.0, 0.0, 0.0, 0.0, 0.0, 1.6202152643894083E9, 2021-05-05 13:47:44.389
7.0, 481.2185363769531, -797.9581298828125, 385.5574951171875, 120.59681701660156, -0.14400000870227814, 0.06400000303983688, 0.0, 0.0, 0.0, 0.0, 0.0, 0.0, 1.6202152644051871E9, 2021-05-05 13:47:44.405
7.0, 498.99053955078125, -778.4882202148438, 401.983154296875, 129.1387481689453, -0.14400000870227814, 0.06400000303983688, 0.0, 0.0, 0.0, 0.0, 0.0, 0.0, 1.6202152644051871E9, 2021-05-05 13:47:44.405
8.0, 503.3288269042969, -756.460205078125, 403.6137390136719, 145.64292907714844, -0.14400000870227814, 0.06400000303983688, 0.0, 0.0, 0.0, 0.0, 0.0, 0.0, 1.6202152644059913E9, 2021-05-05 13:47:44.405
8.0, 519.458984375, -756.8453979492188, 416.6435546875, 163.5458221435547, -0.14400000870227814, 0.06400000303983688, 0.0, 0.0, 0.0, 0.0, 0.0, 0.0, 1.6202152644059913E9, 2021-05-05 13:47:44.405
9.0, 485.489501953125, -793.0888061523438, 395.13165283203125, 129.86428833007812, -0.14400000870227814, 0.06400000303983688, 0.0, 0.0, 0.0, 0.0, 0.0, 0.0, 1.6202152644067016E9, 2021-05-05 13:47:44.406
9.0, 484.6629943847656, -783.1331787109375, 398.4339904785156, 127.59416961669922, -0.14400000870227814, 0.06400000303983688, 0.0, 0.0, 0.0, 0.0, 0.0, 0.0, 1.6202152644067016E9, 2021-05-05 13:47:44.406
10.0, 497.2253112792969, -761.9915161132812, 405.67816162109375, 151.24903869628906, -0.14400000870227814, 0.06400000303983688, 1.040000081062317, 0.0, 0.0, 0.0, 0.0, 0.0, 1.620215264450868E9, 2021-05-05 13:47:44.450
10.0, 515.93603515625, -760.4918212890625, 413.47210693359375, 168.807861328125, -0.14400000870227814, 0.06400000303983688, 1.040000081062317, 0.0, 0.0, 0.0, 0.0, 0.0, 1.620215264450868E9, 2021-05-05 13:47:44.450
11.0, 480.2386779785156, -792.3258666992188, 388.1754455566406, 121.74122619628906, -0.14400000870227814, 0.04800000041723251, 1.040000081062317, 0.0, 0.0, 0.0, 0.0, 0.0, 1.6202152644515605E9, 2021-05-05 13:47:44.451
11.0, 484.0047607421875, -777.1343994140625, 397.1698913574219, 125.75039672851562, -0.14400000870227814, 0.04800000041723251, 1.040000081062317, 0.0, 0.0, 0.0, 0.0, 0.0, 1.6202152644515605E9, 2021-05-05 13:47:44.451
12.0, 500.82684326171875, -764.4374389648438, 408.4344787597656, 148.126220703125, -0.14400000870227814, 0.04800000041723251, 1.040000081062317, 0.0, 0.0, 0.0, 0.0, 0.0, 1.6202152644523144E9, 2021-05-05 13:47:44.452
12.0, 517.5404663085938, -753.7974243164062, 415.529052734375, 165.83837890625, -0.14400000870227814, 0.04800000041723251, 1.040000081062317, 0.0, 0.0, 0.0, 0.0, 0.0, 1.6202152644523144E9, 2021-05-05 13:47:44.452
13.0, 479.4981689453125, -793.5525512695312, 385.6622314453125, 118.85028076171875, -0.14400000870227814, 0.04800000041723251, 1.040000081062317, 0.0, 0.0, 0.0, 0.0, 0.0, 1.6202152644530656E9, 2021-05-05 13:47:44.453
13.0, 482.2432556152344, -769.4974975585938, 400.6704406738281, 128.54783630371094, -0.14400000870227814, 0.04800000041723251, 1.040000081062317, 0.0, 0.0, 0.0, 0.0, 0.0, 1.6202152644530656E9, 2021-05-05 13:47:44.453
14.0, 509.83251953125, -759.040771484375, 407.28631591796875, 153.62387084960938, -0.14400000870227814, 0.04800000041723251, 1.040000081062317, 0.0, 0.0, 0.0, 0.0, 0.0, 1.6202152644637823E9, 2021-05-05 13:47:44.463
14.0, 506.52642822265625, -760.9967041015625, 411.7704772949219, 168.09353637695312, -0.14400000870227814, 0.04800000041723251, 1.040000081062317, 0.0, 0.0, 0.0, 0.0, 0.0, 1.6202152644637823E9, 2021-05-05 13:47:44.463
15.0, 475.9190979003906, -790.1716918945312, 396.4593200683594, 127.62782287597656, -0.14400000870227814, 0.04800000041723251, 1.040000081062317, 0.0, 0.0, 0.0, 0.0, 0.0, 1.6202152644645936E9, 2021-05-05 13:47:44.464
15.0, 489.3378601074219, -778.9556884765625, 403.0789489746094, 132.20919799804688, -0.14400000870227814, 0.04800000041723251, 1.040000081062317, 0.0, 0.0, 0.0, 0.0, 0.0, 1.6202152644645936E9, 2021-05-05 13:47:44.464
16.0, 497.39361572265625, -763.573486328125, 403.2509765625, 146.05056762695312, -0.14400000870227814, 0.04800000041723251, 1.040000081062317, 0.0, 0.0, 0.0, 0.0, 0.0, 1.6202152644781072E9, 2021-05-05 13:47:44.478
16.0, 520.67822265625, -752.6941528320312, 415.529052734375, 167.446533203125, -0.14400000870227814, 0.04800000041723251, 1.040000081062317, 0.0, 0.0, 0.0, 0.0, 0.0, 1.6202152644781072E9, 2021-05-05 13:47:44.478
17.0, 475.3468933105469, -791.7760620117188, 388.8897705078125, 116.3108901977539, -0.14400000870227814, 0.04800000041723251, 1.040000081062317, 0.0, 0.0, 0.0, 0.0, 0.0, 1.6202152644938889E9, 2021-05-05 13:47:44.493
17.0, 482.9725646972656, -775.814208984375, 393.1607360839844, 119.11207580566406, -0.14400000870227814, 0.04800000041723251, 1.040000081062317, 0.0, 0.0, 0.0, 0.0, 0.0, 1.6202152644938889E9, 2021-05-05 13:47:44.493
18.0, 506.5600891113281, -758.2815551757812, 406.24664306640625, 147.51287841796875, -0.14400000870227814, 0.04800000041723251, 1.040000081062317, 0.0, 0.0, 0.0, 0.0, 0.0, 1.620215264494578E9, 2021-05-05 13:47:44.494
18.0, 521.1157836914062, -756.273193359375, 415.6300354003906, 165.95057678222656, -0.14400000870227814, 0.04800000041723251, 1.040000081062317, 0.0, 0.0, 0.0, 0.0, 0.0, 1.620215264494578E9, 2021-05-05 13:47:44.494
19.0, 474.3819885253906, -796.802490234375, 391.2122497558594, 113.18433380126953, -0.14400000870227814, 0.04800000041723251, 1.040000081062317, 0.0, 0.0, 0.0, 0.0, 0.0, 1.6202152645081427E9, 2021-05-05 13:47:44.508
19.0, 487.83441162109375, -776.6406860351562, 403.25469970703125, 125.59706115722656, -0.14400000870227814, 0.04800000041723251, 1.040000081062317, 0.0, 0.0, 0.0, 0.0, 0.0, 1.6202152645081427E9, 2021-05-05 13:47:44.508
20.0, 499.5328369140625, -757.2081909179688, 406.9347839355469, 149.27810668945312, -0.14400000870227814, 0.04800000041723251, 1.055999994277954, 0.0, 0.0, 0.0, 0.0, 0.0, 1.620215264539562E9, 2021-05-05 13:47:44.539
20.0, 521.9647216796875, -758.3825073242188, 412.16314697265625, 168.74053955078125, -0.14400000870227814, 0.04800000041723251, 1.055999994277954, 0.0, 0.0, 0.0, 0.0, 0.0, 1.620215264539562E9, 2021-05-05 13:47:44.539
21.0, 476.1659240722656, -795.0596923828125, 386.7617492675781, 124.29557800292969, -0.14400000870227814, 0.06400000303983688, 1.055999994277954, 0.0, 0.0, 0.0, 0.0, 0.0, 1.6202152645558434E9, 2021-05-05 13:47:44.555
21.0, 492.965576171875, -778.7200927734375, 404.6721496582031, 128.64508056640625, -0.14400000870227814, 0.06400000303983688, 1.055999994277954, 0.0, 0.0, 0.0, 0.0, 0.0, 1.6202152645558434E9, 2021-05-05 13:47:44.555
22.0, 499.40191650390625, -757.5896606445312, 406.8936462402344, 148.74703979492188, -0.14400000870227814, 0.06400000303983688, 1.055999994277954, 0.0, 0.0, 0.0, 0.0, 0.0, 1.6202152645565708E9, 2021-05-05 13:47:44.556
22.0, 514.7803955078125, -746.4185791015625, 415.1064453125, 162.47247314453125, -0.14400000870227814, 0.06400000303983688, 1.055999994277954, 0.0, 0.0, 0.0, 0.0, 0.0, 1.6202152645565708E9, 2021-05-05 13:47:44.556
23.0, 483.1595458984375, -784.760009765625, 390.7223205566406, 116.66617584228516, -0.14400000870227814, 0.06400000303983688, 1.055999994277954, 0.0, 0.0, 0.0, 0.0, 0.0, 1.6202152645573342E9, 2021-05-05 13:47:44.557
23.0, 489.5285949707031, -772.1790161132812, 397.87298583984375, 122.46302032470703, -0.14400000870227814, 0.06400000303983688, 1.055999994277954, 0.0, 0.0, 0.0, 0.0, 0.0, 1.6202152645573342E9, 2021-05-05 13:47:44.557
24.0, 503.74395751953125, -754.253662109375, 410.44281005859375, 148.9340362548828, -0.14400000870227814, 0.06400000303983688, 1.055999994277954, 0.0, 0.0, 0.0, 0.0, 0.0, 1.6202152645581236E9, 2021-05-05 13:47:44.558
24.0, 515.9996337890625, -747.5480346679688, 421.6849365234375, 163.78517150878906, -0.14400000870227814, 0.06400000303983688, 1.055999994277954, 0.0, 0.0, 0.0, 0.0, 0.0, 1.6202152645581236E9, 2021-05-05 13:47:44.558
25.0, 481.2297668457031, -795.5720825195312, 395.3597717285156, 117.95270538330078, -0.14400000870227814, 0.06400000303983688, 1.055999994277954, 0.0, 0.0, 0.0, 0.0, 0.0, 1.6202152645681417E9, 2021-05-05 13:47:44.568
25.0, 485.3324279785156, -780.4254760742188, 401.736328125, 129.89047241210938, -0.14400000870227814, 0.06400000303983688, 1.055999994277954, 0.0, 0.0, 0.0, 0.0, 0.0, 1.6202152645681417E9, 2021-05-05 13:47:44.568
26.0, 502.7828063964844, -755.0091552734375, 413.7264404296875, 152.7075958251953, -0.14400000870227814, 0.06400000303983688, 1.055999994277954, 0.0, 0.0, 0.0, 0.0, 0.0, 1.620215264583778E9, 2021-05-05 13:47:44.583
26.0, 516.7251586914062, -754.287353515625, 421.5316162109375, 163.94973754882812, -0.14400000870227814, 0.06400000303983688, 1.055999994277954, 0.0, 0.0, 0.0, 0.0, 0.0, 1.620215264583778E9, 2021-05-05 13:47:44.583
27.0, 487.43798828125, -784.8086547851562, 402.3608703613281, 127.38847351074219, -0.14400000870227814, 0.06400000303983688, 1.055999994277954, 0.0, 0.0, 0.0, 0.0, 0.0, 1.6202152645844965E9, 2021-05-05 13:47:44.584
27.0, 491.5631103515625, -774.606201171875, 401.96820068359375, 126.928466796875, -0.14400000870227814, 0.06400000303983688, 1.055999994277954, 0.0, 0.0, 0.0, 0.0, 0.0, 1.6202152645844965E9, 2021-05-05 13:47:44.584
28.0, 508.6843566894531, -752.6043701171875, 412.4847717285156, 154.8542938232422, -0.14400000870227814, 0.06400000303983688, 1.055999994277954, 0.0, 0.0, 0.0, 0.0, 0.0, 1.6202152645982163E9, 2021-05-05 13:47:44.598
28.0, 518.5240478515625, -754.16015625, 419.13433837890625, 167.03515625, -0.14400000870227814, 0.06400000303983688, 1.055999994277954, 0.0, 0.0, 0.0, 0.0, 0.0, 1.6202152645982163E9, 2021-05-05 13:47:44.598
29.0, 482.75189208984375, -800.9613037109375, 393.168212890625, 124.2581787109375, -0.14400000870227814, 0.06400000303983688, 1.055999994277954, 0.0, 0.0, 0.0, 0.0, 0.0, 1.6202152646294904E9, 2021-05-05 13:47:44.629
29.0, 489.4089050292969, -780.9827270507812, 395.7524719238281, 123.68597412109375, -0.14400000870227814, 0.06400000303983688, 1.055999994277954, 0.0, 0.0, 0.0, 0.0, 0.0, 1.6202152646294904E9, 2021-05-05 13:47:44.629
30.0, 511.8296203613281, -749.5264282226562, 411.4488220214844, 152.75621032714844, -0.14400000870227814, 0.06400000303983688, 1.040000081062317, 0.0, 0.0, 0.0, 0.0, 0.0, 1.620215264630198E9, 2021-05-05 13:47:44.630
30.0, 522.3873291015625, -754.3060302734375, 415.29718017578125, 159.4468994140625, -0.14400000870227814, 0.06400000303983688, 1.040000081062317, 0.0, 0.0, 0.0, 0.0, 0.0, 1.620215264630198E9, 2021-05-05 13:47:44.630
31.0, 485.4558410644531, -794.337890625, 390.445556640625, 117.47026062011719, -0.14400000870227814, 0.06400000303983688, 1.040000081062317, 0.0, 0.0, 0.0, 0.0, 0.0, 1.620215264630934E9, 2021-05-05 13:47:44.630
31.0, 494.0501403808594, -771.62548828125, 395.4121398925781, 123.1324691772461, -0.14400000870227814, 0.06400000303983688, 1.040000081062317, 0.0, 0.0, 0.0, 0.0, 0.0, 1.620215264630934E9, 2021-05-05 13:47:44.630
32.0, 506.2646484375, -757.1969604492188, 401.8858947753906, 149.67079162597656, -0.14400000870227814, 0.06400000303983688, 1.040000081062317, 0.0, 0.0, 0.0, 0.0, 0.0, 1.6202152646435878E9, 2021-05-05 13:47:44.643
32.0, 514.679443359375, -757.7579345703125, 409.1824645996094, 158.19029235839844, -0.14400000870227814, 0.06400000303983688, 1.040000081062317, 0.0, 0.0, 0.0, 0.0, 0.0, 1.6202152646435878E9, 2021-05-05 13:47:44.643
33.0, 490.16064453125, -786.671142578125, 396.5079345703125, 129.30703735351562, -0.14400000870227814, 0.06400000303983688, 1.040000081062317, 0.0, 0.0, 0.0, 0.0, 0.0, 1.6202152646591787E9, 2021-05-05 13:47:44.659
33.0, 490.81512451171875, -775.1634521484375, 397.84307861328125, 125.75039672851562, -0.14400000870227814, 0.06400000303983688, 1.040000081062317, 0.0, 0.0, 0.0, 0.0, 0.0, 1.6202152646591787E9, 2021-05-05 13:47:44.659
34.0, 503.22412109375, -754.9791870117188, 405.8389892578125, 147.29969787597656, -0.14400000870227814, 0.06400000303983688, 1.040000081062317, 0.0, 0.0, 0.0, 0.0, 0.0, 1.620215264674509E9, 2021-05-05 13:47:44.674
34.0, 517.4993286132812, -749.0925903320312, 408.3858642578125, 159.52169799804688, -0.14400000870227814, 0.06400000303983688, 1.040000081062317, 0.0, 0.0, 0.0, 0.0, 0.0, 1.620215264674509E9, 2021-05-05 13:47:44.674
35.0, 482.95758056640625, -786.5477294921875, 384.353271484375, 115.14778137207031, -0.14400000870227814, 0.06400000303983688, 1.040000081062317, 0.0, 0.0, 0.0, 0.0, 0.0, 1.6202152646752653E9, 2021-05-05 13:47:44.675
35.0, 480.994140625, -773.2299194335938, 388.38861083984375, 120.77632904052734, -0.14400000870227814, 0.06400000303983688, 1.040000081062317, 0.0, 0.0, 0.0, 0.0, 0.0, 1.6202152646752653E9, 2021-05-05 13:47:44.675
36.0, 506.5862731933594, -749.9639892578125, 399.589599609375, 148.95648193359375, -0.14400000870227814, 0.06400000303983688, 1.040000081062317, 0.0, 0.0, 0.0, 0.0, 0.0, 1.6202152646758993E9, 2021-05-05 13:47:44.675
36.0, 511.84832763671875, -747.6939086914062, 407.0955810546875, 158.95323181152344, -0.14400000870227814, 0.06400000303983688, 1.040000081062317, 0.0, 0.0, 0.0, 0.0, 0.0, 1.6202152646758993E9, 2021-05-05 13:47:44.675
37.0, 478.8324890136719, -781.3267822265625, 384.7122802734375, 119.62069702148438, -0.14400000870227814, 0.06400000303983688, 1.040000081062317, 0.0, 0.0, 0.0, 0.0, 0.0, 1.6202152646882467E9, 2021-05-05 13:47:44.688
37.0, 486.3160095214844, -765.7164916992188, 389.6863708496094, 120.06948852539062, -0.14400000870227814, 0.06400000303983688, 1.040000081062317, 0.0, 0.0, 0.0, 0.0, 0.0, 1.6202152646882467E9, 2021-05-05 13:47:44.688
38.0, 503.06329345703125, -751.4786376953125, 398.9276428222656, 144.83885192871094, -0.14400000870227814, 0.06400000303983688, 1.040000081062317, 0.0, 0.0, 0.0, 0.0, 0.0, 1.6202152647035778E9, 2021-05-05 13:47:44.703
38.0, 508.40386962890625, -752.4024047851562, 404.11114501953125, 156.24928283691406, -0.14400000870227814, 0.06400000303983688, 1.040000081062317, 0.0, 0.0, 0.0, 0.0, 0.0, 1.6202152647035778E9, 2021-05-05 13:47:44.703
39.0, 481.1175537109375, -783.3089599609375, 387.1581726074219, 125.32030487060547, -0.14400000870227814, 0.06400000303983688, 1.040000081062317, 0.0, 0.0, 0.0, 0.0, 0.0, 1.620215264718789E9, 2021-05-05 13:47:44.718
39.0, 488.5113525390625, -769.3404541015625, 397.4017639160156, 123.34564208984375, -0.14400000870227814, 0.06400000303983688, 1.040000081062317, 0.0, 0.0, 0.0, 0.0, 0.0, 1.620215264718789E9, 2021-05-05 13:47:44.718
40.0, 506.3132629394531, -752.9783935546875, 403.6810607910156, 148.01028442382812, -0.14400000870227814, 0.06400000303983688, 1.040000081062317, 0.0, 0.0, 0.0, 0.0, 0.0, 1.6202152647195053E9, 2021-05-05 13:47:44.719
40.0, 514.7317504882812, -741.059326171875, 411.7181091308594, 162.2368621826172, -0.14400000870227814, 0.06400000303983688, 1.040000081062317, 0.0, 0.0, 0.0, 0.0, 0.0, 1.6202152647195053E9, 2021-05-05 13:47:44.719
41.0, 478.25653076171875, -781.9027709960938, 388.0445251464844, 117.1748046875, -0.14400000870227814, 0.06400000303983688, 1.040000081062317, 0.0, 0.0, 0.0, 0.0, 0.0, 1.6202152647338512E9, 2021-05-05 13:47:44.733
41.0, 486.64886474609375, -770.039794921875, 395.74871826171875, 123.83182525634766, -0.14400000870227814, 0.06400000303983688, 1.040000081062317, 0.0, 0.0, 0.0, 0.0, 0.0, 1.6202152647338512E9, 2021-05-05 13:47:44.733
42.0, 504.3647766113281, -750.13232421875, 411.6806945800781, 148.18978881835938, -0.14400000870227814, 0.06400000303983688, 1.040000081062317, 0.0, 0.0, 0.0, 0.0, 0.0, 1.620215264734574E9, 2021-05-05 13:47:44.734
42.0, 504.04315185546875, -747.2039794921875, 411.0374450683594, 154.54388427734375, -0.14400000870227814, 0.06400000303983688, 1.040000081062317, 0.0, 0.0, 0.0, 0.0, 0.0, 1.620215264734574E9, 2021-05-05 13:47:44.734
43.0, 485.9158630371094, -773.1364135742188, 397.9477844238281, 127.87091827392578, -0.14400000870227814, 0.06400000303983688, 1.040000081062317, 0.0, 0.0, 0.0, 0.0, 0.0, 1.620215264748078E9, 2021-05-05 13:47:44.748
43.0, 488.7095642089844, -770.3502197265625, 404.2008972167969, 126.55447387695312, -0.14400000870227814, 0.06400000303983688, 1.040000081062317, 0.0, 0.0, 0.0, 0.0, 0.0, 1.620215264748078E9, 2021-05-05 13:47:44.748
44.0, 502.8127136230469, -753.4346313476562, 407.3835754394531, 144.46859741210938, -0.14400000870227814, 0.06400000303983688, 1.040000081062317, 0.0, 0.0, 0.0, 0.0, 0.0, 1.620215264764176E9, 2021-05-05 13:47:44.764
44.0, 512.7459106445312, -750.7269287109375, 411.972412109375, 154.33445739746094, -0.14400000870227814, 0.06400000303983688, 1.040000081062317, 0.0, 0.0, 0.0, 0.0, 0.0, 1.620215264764176E9, 2021-05-05 13:47:44.764
45.0, 487.366943359375, -781.3193359375, 399.36895751953125, 123.02774810791016, -0.14400000870227814, 0.06400000303983688, 1.040000081062317, 0.0, 0.0, 0.0, 0.0, 0.0, 1.62021526477914E9, 2021-05-05 13:47:44.779
45.0, 489.386474609375, -769.336669921875, 395.33734130859375, 122.8332748413086, -0.14400000870227814, 0.06400000303983688, 1.040000081062317, 0.0, 0.0, 0.0, 0.0, 0.0, 1.62021526477914E9, 2021-05-05 13:47:44.779
46.0, 501.3691101074219, -740.5282592773438, 401.7475280761719, 144.32273864746094, -0.14400000870227814, 0.06400000303983688, 1.040000081062317, 0.0, 0.0, 0.0, 0.0, 0.0, 1.6202152648111892E9, 2021-05-05 13:47:44.811
46.0, 511.111572265625, -750.1734619140625, 408.1988525390625, 162.3266143798828, -0.14400000870227814, 0.06400000303983688, 1.040000081062317, 0.0, 0.0, 0.0, 0.0, 0.0, 1.6202152648111892E9, 2021-05-05 13:47:44.811
47.0, 486.8470764160156, -778.0132446289062, 391.3094787597656, 127.58294677734375, -0.14400000870227814, 0.06400000303983688, 1.040000081062317, 0.0, 0.0, 0.0, 0.0, 0.0, 1.620215264812019E9, 2021-05-05 13:47:44.812
47.0, 480.9417724609375, -767.481689453125, 393.05975341796875, 128.30101013183594, -0.14400000870227814, 0.06400000303983688, 1.040000081062317, 0.0, 0.0, 0.0, 0.0, 0.0, 1.620215264812019E9, 2021-05-05 13:47:44.812
48.0, 500.0451965332031, -749.6311645507812, 403.6399230957031, 146.36473083496094, -0.14400000870227814, 0.06400000303983688, 1.040000081062317, 0.0, 0.0, 0.0, 0.0, 0.0, 1.620215264812656E9, 2021-05-05 13:47:44.812
48.0, 500.7819519042969, -744.9301147460938, 411.7779541015625, 161.74319458007812, -0.14400000870227814, 0.06400000303983688, 1.040000081062317, 0.0, 0.0, 0.0, 0.0, 0.0, 1.620215264812656E9, 2021-05-05 13:47:44.812
49.0, 478.92596435546875, -782.1832275390625, 393.6207275390625, 122.51164245605469, -0.14400000870227814, 0.06400000303983688, 1.040000081062317, 0.0, 0.0, 0.0, 0.0, 0.0, 1.620215264813431E9, 2021-05-05 13:47:44.813
49.0, 484.7677001953125, -775.3654174804688, 392.74560546875, 125.30160522460938, -0.14400000870227814, 0.06400000303983688, 1.040000081062317, 0.0, 0.0, 0.0, 0.0, 0.0, 1.620215264813431E9, 2021-05-05 13:47:44.813
50.0, 501.1933288574219, -747.1029663085938, 402.51422119140625, 145.93089294433594, -0.14400000870227814, 0.06400000303983688, 1.040000081062317, 0.0, 0.0, 0.0, 0.0, 0.0, 1.620215264839456E9, 2021-05-05 13:47:44.839
50.0, 504.9743957519531, -740.2440185546875, 411.2431335449219, 152.65524291992188, -0.14400000870227814, 0.06400000303983688, 1.040000081062317, 0.0, 0.0, 0.0, 0.0, 0.0, 1.620215264839456E9, 2021-05-05 13:47:44.839
51.0, 483.963623046875, -773.2112426757812, 392.5249328613281, 120.72770690917969, -0.14400000870227814, 0.06400000303983688, 1.040000081062317, 0.0, 0.0, 0.0, 0.0, 0.0, 1.6202152648402784E9, 2021-05-05 13:47:44.840
51.0, 490.72161865234375, -765.768798828125, 395.34857177734375, 112.98986053466797, -0.14400000870227814, 0.06400000303983688, 1.040000081062317, 0.0, 0.0, 0.0, 0.0, 0.0, 1.6202152648402784E9, 2021-05-05 13:47:44.840
52.0, 497.4309997558594, -740.9097290039062, 402.2524108886719, 131.21812438964844, -0.14400000870227814, 0.06400000303983688, 1.040000081062317, 0.0, 0.0, 0.0, 0.0, 0.0, 1.62021526484103E9, 2021-05-05 13:47:44.841
52.0, 504.38720703125, -743.2733154296875, 409.9827880859375, 150.1607208251953, -0.14400000870227814, 0.06400000303983688, 1.040000081062317, 0.0, 0.0, 0.0, 0.0, 0.0, 1.62021526484103E9, 2021-05-05 13:47:44.841
53.0, 478.035888671875, -779.8233642578125, 391.1187438964844, 112.26057434082031, -0.14400000870227814, 0.06400000303983688, 1.040000081062317, 0.0, 0.0, 0.0, 0.0, 0.0, 1.6202152648539352E9, 2021-05-05 13:47:44.853
53.0, 488.9414367675781, -766.9244384765625, 394.8548889160156, 117.67969512939453, -0.14400000870227814, 0.06400000303983688, 1.040000081062317, 0.0, 0.0, 0.0, 0.0, 0.0, 1.6202152648539352E9, 2021-05-05 13:47:44.853
54.0, 507.3604431152344, -737.0912475585938, 404.694580078125, 148.1673583984375, -0.14400000870227814, 0.06400000303983688, 1.040000081062317, 0.0, 0.0, 0.0, 0.0, 0.0, 1.6202152648546443E9, 2021-05-05 13:47:44.854
54.0, 509.069580078125, -742.244873046875, 414.7735900878906, 161.41781616210938, -0.14400000870227814, 0.06400000303983688, 1.040000081062317, 0.0, 0.0, 0.0, 0.0, 0.0, 1.6202152648546443E9, 2021-05-05 13:47:44.854
55.0, 480.9604797363281, -780.3469848632812, 392.734375, 119.29158782958984, -0.14400000870227814, 0.06400000303983688, 1.040000081062317, 0.0, 0.0, 0.0, 0.0, 0.0, 1.6202152649135349E9, 2021-05-05 13:47:44.913
55.0, 490.8375549316406, -755.9927368164062, 400.4871826171875, 125.32405090332031, -0.14400000870227814, 0.06400000303983688, 1.040000081062317, 0.0, 0.0, 0.0, 0.0, 0.0, 1.6202152649135349E9, 2021-05-05 13:47:44.913
56.0, 505.3072204589844, -745.2330322265625, 407.6939697265625, 142.59117126464844, -0.14400000870227814, 0.06400000303983688, 1.040000081062317, 0.0, 0.0, 0.0, 0.0, 0.0, 1.620215264946504E9, 2021-05-05 13:47:44.946
56.0, 516.8934326171875, -747.3797607421875, 417.73187255859375, 161.42530822753906, -0.14400000870227814, 0.06400000303983688, 1.040000081062317, 0.0, 0.0, 0.0, 0.0, 0.0, 1.620215264946504E9, 2021-05-05 13:47:44.946
57.0, 494.1735534667969, -779.6139526367188, 403.8605651855469, 125.83641052246094, -0.14400000870227814, 0.06400000303983688, 1.040000081062317, 0.0, 0.0, 0.0, 0.0, 0.0, 1.6202152649472115E9, 2021-05-05 13:47:44.947
57.0, 491.7089538574219, -763.5548095703125, 403.44171142578125, 122.92677307128906, -0.14400000870227814, 0.06400000303983688, 1.040000081062317, 0.0, 0.0, 0.0, 0.0, 0.0, 1.6202152649472115E9, 2021-05-05 13:47:44.947
58.0, 508.8526611328125, -749.9939575195312, 412.0210266113281, 150.59080505371094, -0.14400000870227814, 0.06400000303983688, 1.040000081062317, 0.0, 0.0, 0.0, 0.0, 0.0, 1.6202152649480414E9, 2021-05-05 13:47:44.948
58.0, 519.9564208984375, -750.9700317382812, 410.6746826171875, 159.34591674804688, -0.14400000870227814, 0.06400000303983688, 1.040000081062317, 0.0, 0.0, 0.0, 0.0, 0.0, 1.6202152649480414E9, 2021-05-05 13:47:44.948
59.0, 497.5506896972656, -771.412353515625, 395.7375183105469, 118.95125579833984, -0.14400000870227814, 0.06400000303983688, 1.040000081062317, 0.0, 0.0, 0.0, 0.0, 0.0, 1.620215264948732E9, 2021-05-05 13:47:44.948
59.0, 484.7564697265625, -770.896240234375, 396.291015625, 114.8448486328125, -0.14400000870227814, 0.06400000303983688, 1.040000081062317, 0.0, 0.0, 0.0, 0.0, 0.0, 1.620215264948732E9, 2021-05-05 13:47:44.948
60.0, 509.9335021972656, -751.7479248046875, 410.27825927734375, 142.11619567871094, -0.14400000870227814, 0.06400000303983688, 1.040000081062317, 0.0, 0.0, 0.0, 0.0, 0.0, 1.6202152649600708E9, 2021-05-05 13:47:44.960
60.0, 521.8263549804688, -749.6909790039062, 417.417724609375, 152.58792114257812, -0.14400000870227814, 0.06400000303983688, 1.040000081062317, 0.0, 0.0, 0.0, 0.0, 0.0, 1.6202152649600708E9, 2021-05-05 13:47:44.960
61.0, 484.6517639160156, -777.39990234375, 394.1293640136719, 114.47459411621094, -0.14400000870227814, 0.06400000303983688, 1.040000081062317, 0.0, 0.0, 0.0, 0.0, 0.0, 1.6202152649606955E9, 2021-05-05 13:47:44.960
61.0, 484.7228088378906, -767.844482421875, 400.0645751953125, 118.69320678710938, -0.14400000870227814, 0.06400000303983688, 1.040000081062317, 0.0, 0.0, 0.0, 0.0, 0.0, 1.6202152649606955E9, 2021-05-05 13:47:44.960
62.0, 501.5299377441406, -741.8746337890625, 410.18475341796875, 142.92027282714844, -0.14400000870227814, 0.06400000303983688, 1.040000081062317, 0.0, 0.0, 0.0, 0.0, 0.0, 1.62021526496148E9, 2021-05-05 13:47:44.961
62.0, 506.4104919433594, -750.180908203125, 411.8302917480469, 151.58187866210938, -0.14400000870227814, 0.06400000303983688, 1.040000081062317, 0.0, 0.0, 0.0, 0.0, 0.0, 1.62021526496148E9, 2021-05-05 13:47:44.961
64.0, 522.1554565429688, -727.9696655273438, 427.9866638183594, 175.2143096923828, -0.14400000870227814, 0.06400000303983688, 1.040000081062317, 0.0, 0.0, 0.0, 0.0, 0.0, 1.620215265004235E9, 2021-05-05 13:47:45.004
64.0, 542.7698364257812, -730.2285766601562, 438.7089538574219, 193.42388916015625, -0.14400000870227814, 0.06400000303983688, 1.040000081062317, 0.0, 0.0, 0.0, 0.0, 0.0, 1.620215265004235E9, 2021-05-05 13:47:45.004
65.0, 503.03338623046875, -774.5388793945312, 407.9707336425781, 141.70480346679688, -0.14400000870227814, 0.06400000303983688, 1.040000081062317, 0.0, 0.0, 0.0, 0.0, 0.0, 1.6202152650214992E9, 2021-05-05 13:47:45.021
65.0, 508.3028869628906, -754.7361450195312, 408.51300048828125, 148.19728088378906, -0.14400000870227814, 0.06400000303983688, 1.040000081062317, 0.0, 0.0, 0.0, 0.0, 0.0, 1.6202152650214992E9, 2021-05-05 13:47:45.021
66.0, 521.2915649414062, -718.8817138671875, 415.7123107910156, 167.35678100585938, -0.14400000870227814, 0.06400000303983688, 1.040000081062317, 0.0, 0.0, 0.0, 0.0, 0.0, 1.620215265022277E9, 2021-05-05 13:47:45.022
66.0, 536.0043334960938, -728.149169921875, 410.9813537597656, 180.685791015625, -0.14400000870227814, 0.06400000303983688, 1.040000081062317, 0.0, 0.0, 0.0, 0.0, 0.0, 1.620215265022277E9, 2021-05-05 13:47:45.022
67.0, 497.68157958984375, -748.9429931640625, 393.0410461425781, 141.74220275878906, -0.14400000870227814, 0.06400000303983688, 1.040000081062317, 0.0, 0.0, 0.0, 0.0, 0.0, 1.6202152650230947E9, 2021-05-05 13:47:45.023
67.0, 512.0802001953125, -741.859619140625, 401.36981201171875, 144.88746643066406, -0.14400000870227814, 0.06400000303983688, 1.040000081062317, 0.0, 0.0, 0.0, 0.0, 0.0, 1.6202152650230947E9, 2021-05-05 13:47:45.023
68.0, 529.773681640625, -725.5985717773438, 414.2275695800781, 169.46234130859375, -0.14400000870227814, 0.06400000303983688, 1.040000081062317, 0.0, 0.0, 0.0, 0.0, 0.0, 1.620215265023679E9, 2021-05-05 13:47:45.023
68.0, 529.2537841796875, -729.862060546875, 416.24713134765625, 174.2718505859375, -0.14400000870227814, 0.06400000303983688, 1.040000081062317, 0.0, 0.0, 0.0, 0.0, 0.0, 1.620215265023679E9, 2021-05-05 13:47:45.023
69.0, 506.71343994140625, -752.798828125, 403.8456115722656, 146.70506286621094, -0.14400000870227814, 0.06400000303983688, 1.040000081062317, 0.0, 0.0, 0.0, 0.0, 0.0, 1.620215265035149E9, 2021-05-05 13:47:45.035
69.0, 506.3506774902344, -748.6326293945312, 402.3533935546875, 136.09121704101562, -0.14400000870227814, 0.06400000303983688, 1.040000081062317, 0.0, 0.0, 0.0, 0.0, 0.0, 1.620215265035149E9, 2021-05-05 13:47:45.035
70.0, 512.3120727539062, -721.9072875976562, 403.6100158691406, 145.30259704589844, -0.14400000870227814, 0.06400000303983688, 1.040000081062317, 0.0, 0.0, 0.0, 0.0, 0.0, 1.6202152650359404E9, 2021-05-05 13:47:45.035
70.0, 526.3217163085938, -717.808349609375, 418.31903076171875, 156.91123962402344, -0.14400000870227814, 0.06400000303983688, 1.040000081062317, 0.0, 0.0, 0.0, 0.0, 0.0, 1.6202152650359404E9, 2021-05-05 13:47:45.035
72.0, 545.9038696289062, -707.314208984375, 424.1944274902344, 185.15496826171875, -0.14400000870227814, 0.06400000303983688, 1.040000081062317, 0.0, 0.0, 0.0, 0.0, 0.0, 1.620215265036684E9, 2021-05-05 13:47:45.036
72.0, 545.5560302734375, -705.0066528320312, 431.0047607421875, 202.79981994628906, -0.14400000870227814, 0.06400000303983688, 1.040000081062317, 0.0, 0.0, 0.0, 0.0, 0.0, 1.620215265036684E9, 2021-05-05 13:47:45.036
73.0, 523.0867309570312, -732.4650268554688, 418.9548034667969, 173.44534301757812, -0.14400000870227814, 0.06400000303983688, 1.040000081062317, 0.0, 0.0, 0.0, 0.0, 0.0, 1.620215265064592E9, 2021-05-05 13:47:45.064
73.0, 526.0599365234375, -732.8277587890625, 419.85614013671875, 181.54969787597656, -0.14400000870227814, 0.06400000303983688, 1.040000081062317, 0.0, 0.0, 0.0, 0.0, 0.0, 1.620215265064592E9, 2021-05-05 13:47:45.064
74.0, 545.0773315429688, -707.3366088867188, 439.9954833984375, 204.53138732910156, -0.14400000870227814, 0.06400000303983688, 1.040000081062317, 0.0, 0.0, 0.0, 0.0, 0.0, 1.6202152650653656E9, 2021-05-05 13:47:45.065
74.0, 562.6697998046875, -718.7844848632812, 437.4673156738281, 216.41305541992188, -0.14400000870227814, 0.06400000303983688, 1.040000081062317, 0.0, 0.0, 0.0, 0.0, 0.0, 1.6202152650653656E9, 2021-05-05 13:47:45.065
75.0, 534.5009155273438, -742.0952758789062, 423.498779296875, 178.81210327148438, -0.14400000870227814, 0.06400000303983688, 1.040000081062317, 0.0, 0.0, 0.0, 0.0, 0.0, 1.6202152650659375E9, 2021-05-05 13:47:45.065
75.0, 530.5515747070312, -731.3841552734375, 423.36041259765625, 188.40867614746094, -0.14400000870227814, 0.06400000303983688, 1.040000081062317, 0.0, 0.0, 0.0, 0.0, 0.0, 1.6202152650659375E9, 2021-05-05 13:47:45.065
76.0, 553.1106567382812, -703.8622436523438, 424.32904052734375, 207.83746337890625, -0.14400000870227814, 0.06400000303983688, 1.040000081062317, 0.0, 0.0, 0.0, 0.0, 0.0, 1.620215265094488E9, 2021-05-05 13:47:45.094
76.0, 552.6917724609375, -707.8414916992188, 424.366455078125, 210.6947479248047, -0.14400000870227814, 0.06400000303983688, 1.040000081062317, 0.0, 0.0, 0.0, 0.0, 0.0, 1.620215265094488E9, 2021-05-05 13:47:45.094
77.0, 524.89306640625, -725.9239501953125, 413.06072998046875, 170.5506591796875, -0.14400000870227814, 0.06400000303983688, 1.040000081062317, 0.0, 0.0, 0.0, 0.0, 0.0, 1.6202152650952644E9, 2021-05-05 13:47:45.095
77.0, 529.3323364257812, -708.5333862304688, 411.99859619140625, 174.99365234375, -0.14400000870227814, 0.06400000303983688, 1.040000081062317, 0.0, 0.0, 0.0, 0.0, 0.0, 1.6202152650952644E9, 2021-05-05 13:47:45.095
78.0, 542.2574462890625, -694.1497192382812, 432.8111572265625, 196.64019775390625, -0.14400000870227814, 0.06400000303983688, 1.040000081062317, 0.0, 0.0, 0.0, 0.0, 0.0, 1.6202152650959609E9, 2021-05-05 13:47:45.095
78.0, 553.824951171875, -691.9955444335938, 444.1804504394531, 203.09152221679688, -0.14400000870227814, 0.06400000303983688, 1.040000081062317, 0.0, 0.0, 0.0, 0.0, 0.0, 1.6202152650959609E9, 2021-05-05 13:47:45.095
79.0, 532.8889770507812, -727.9397583007812, 423.4314880371094, 164.1516876220703, -0.14400000870227814, 0.06400000303983688, 1.040000081062317, 0.0, 0.0, 0.0, 0.0, 0.0, 1.6202152651243188E9, 2021-05-05 13:47:45.124
79.0, 538.6895751953125, -724.263427734375, 428.3681335449219, 159.96673583984375, -0.14400000870227814, 0.06400000303983688, 1.040000081062317, 0.0, 0.0, 0.0, 0.0, 0.0, 1.6202152651243188E9, 2021-05-05 13:47:45.124
80.0, 556.0464477539062, -710.683837890625, 436.6856689453125, 171.2574920654297, -0.14400000870227814, 0.06400000303983688, 1.055999994277954, 0.0, 0.0, 0.0, 0.0, 0.0, 1.6202152651251087E9, 2021-05-05 13:47:45.125
80.0, 555.5116577148438, -702.2279052734375, 440.87811279296875, 190.181396484375, -0.14400000870227814, 0.06400000303983688, 1.055999994277954, 0.0, 0.0, 0.0, 0.0, 0.0, 1.6202152651251087E9, 2021-05-05 13:47:45.125
81.0, 528.9209594726562, -750.6521606445312, 427.4294128417969, 153.07785034179688, -0.14400000870227814, 0.06400000303983688, 1.055999994277954, 0.0, 0.0, 0.0, 0.0, 0.0, 1.620215265138757E9, 2021-05-05 13:47:45.138
81.0, 538.9251708984375, -730.0004272460938, 428.0278015136719, 153.09280395507812, -0.14400000870227814, 0.06400000303983688, 1.055999994277954, 0.0, 0.0, 0.0, 0.0, 0.0, 1.620215265138757E9, 2021-05-05 13:47:45.138
82.0, 553.8399047851562, -705.7471923828125, 441.3792419433594, 175.88375854492188, -0.14400000870227814, 0.06400000303983688, 1.055999994277954, 0.0, 0.0, 0.0, 0.0, 0.0, 1.6202152651395624E9, 2021-05-05 13:47:45.139
82.0, 568.096435546875, -712.067626953125, 439.7149963378906, 184.9604949951172, -0.14400000870227814, 0.06400000303983688, 1.055999994277954, 0.0, 0.0, 0.0, 0.0, 0.0, 1.6202152651395624E9, 2021-05-05 13:47:45.139
83.0, 534.5682373046875, -750.730712890625, 421.3520812988281, 153.4256591796875, -0.14400000870227814, 0.06400000303983688, 1.055999994277954, 0.0, 0.0, 0.0, 0.0, 0.0, 1.620215265153782E9, 2021-05-05 13:47:45.153
83.0, 536.6588134765625, -739.5072631835938, 427.4294128417969, 150.60203552246094, -0.14400000870227814, 0.06400000303983688, 1.055999994277954, 0.0, 0.0, 0.0, 0.0, 0.0, 1.620215265153782E9, 2021-05-05 13:47:45.153
84.0, 557.8528442382812, -718.806884765625, 441.1211853027344, 188.73779296875, -0.14400000870227814, 0.06400000303983688, 1.055999994277954, 0.0, 0.0, 0.0, 0.0, 0.0, 1.6202152651546085E9, 2021-05-05 13:47:45.154
84.0, 574.0391235351562, -722.326171875, 443.95977783203125, 209.5503387451172, -0.14400000870227814, 0.06400000303983688, 1.055999994277954, 0.0, 0.0, 0.0, 0.0, 0.0, 1.6202152651546085E9, 2021-05-05 13:47:45.154
85.0, 535.9818725585938, -751.400146484375, 420.8733825683594, 172.34580993652344, -0.14400000870227814, 0.06400000303983688, 1.055999994277954, 0.0, 0.0, 0.0, 0.0, 0.0, 1.6202152651842604E9, 2021-05-05 13:47:45.184
85.0, 538.1771850585938, -733.7814331054688, 423.1098327636719, 181.11587524414062, -0.14400000870227814, 0.06400000303983688, 1.055999994277954, 0.0, 0.0, 0.0, 0.0, 0.0, 1.6202152651842604E9, 2021-05-05 13:47:45.184
86.0, 546.0160522460938, -712.4041748046875, 422.2234802246094, 200.49603271484375, -0.14400000870227814, 0.06400000303983688, 1.055999994277954, 0.0, 0.0, 0.0, 0.0, 0.0, 1.6202152651849484E9, 2021-05-05 13:47:45.184
86.0, 550.2346801757812, -710.41455078125, 426.3074645996094, 208.83975219726562, -0.14400000870227814, 0.06400000303983688, 1.055999994277954, 0.0, 0.0, 0.0, 0.0, 0.0, 1.6202152651849484E9, 2021-05-05 13:47:45.184
87.0, 521.594482421875, -726.6307983398438, 401.796142578125, 175.48731994628906, -0.14400000870227814, 0.06400000303983688, 1.055999994277954, 0.0, 0.0, 0.0, 0.0, 0.0, 1.6202152651987956E9, 2021-05-05 13:47:45.198
87.0, 532.451416015625, -713.9151000976562, 408.0268249511719, 177.36476135253906, -0.14400000870227814, 0.06400000303983688, 1.055999994277954, 0.0, 0.0, 0.0, 0.0, 0.0, 1.6202152651987956E9, 2021-05-05 13:47:45.198
88.0, 542.4780883789062, -693.9777221679688, 418.0160827636719, 197.2909393310547, -0.14400000870227814, 0.06400000303983688, 1.055999994277954, 0.0, 0.0, 0.0, 0.0, 0.0, 1.6202152651995044E9, 2021-05-05 13:47:45.199
88.0, 554.236328125, -695.5447387695312, 428.0427551269531, 212.74795532226562, -0.14400000870227814, 0.06400000303983688, 1.055999994277954, 0.0, 0.0, 0.0, 0.0, 0.0, 1.6202152651995044E9, 2021-05-05 13:47:45.199
89.0, 515.853759765625, -723.8819580078125, 403.6548767089844, 166.12261962890625, -0.14400000870227814, 0.06400000303983688, 1.055999994277954, 0.0, 0.0, 0.0, 0.0, 0.0, 1.6202152652142277E9, 2021-05-05 13:47:45.214
89.0, 521.1906127929688, -722.4869384765625, 409.61627197265625, 167.99256896972656, -0.14400000870227814, 0.06400000303983688, 1.055999994277954, 0.0, 0.0, 0.0, 0.0, 0.0, 1.6202152652142277E9, 2021-05-05 13:47:45.214
90.0, 538.8279418945312, -695.9710693359375, 420.36102294921875, 184.8333282470703, -0.14400000870227814, 0.06400000303983688, 1.055999994277954, 0.0, 0.0, 0.0, 0.0, 0.0, 1.6202152652288148E9, 2021-05-05 13:47:45.228
90.0, 547.3324584960938, -696.2029418945312, 427.76226806640625, 196.61776733398438, -0.14400000870227814, 0.06400000303983688, 1.055999994277954, 0.0, 0.0, 0.0, 0.0, 0.0, 1.6202152652288148E9, 2021-05-05 13:47:45.228
91.0, 525.6709594726562, -737.6597290039062, 413.4347229003906, 155.00015258789062, -0.14400000870227814, 0.06400000303983688, 1.055999994277954, 0.0, 0.0, 0.0, 0.0, 0.0, 1.6202152652295606E9, 2021-05-05 13:47:45.229
91.0, 530.3570556640625, -725.5125122070312, 419.3100891113281, 150.94236755371094, -0.14400000870227814, 0.06400000303983688, 1.055999994277954, 0.0, 0.0, 0.0, 0.0, 0.0, 1.6202152652295606E9, 2021-05-05 13:47:45.229
92.0, 552.4823608398438, -713.7431030273438, 421.82330322265625, 178.12770080566406, -0.14400000870227814, 0.06400000303983688, 1.055999994277954, 0.0, 0.0, 0.0, 0.0, 0.0, 1.6202152652436378E9, 2021-05-05 13:47:45.243
92.0, 565.6729736328125, -724.8880004882812, 432.0444641113281, 188.00103759765625, -0.14400000870227814, 0.06400000303983688, 1.055999994277954, 0.0, 0.0, 0.0, 0.0, 0.0, 1.6202152652436378E9, 2021-05-05 13:47:45.243
93.0, 544.1461181640625, -747.2413330078125, 424.5945739746094, 157.25904846191406, -0.14400000870227814, 0.06400000303983688, 1.055999994277954, 0.0, 0.0, 0.0, 0.0, 0.0, 1.620215265275342E9, 2021-05-05 13:47:45.275
93.0, 544.9838256835938, -742.9554443359375, 430.02490234375, 156.97108459472656, -0.14400000870227814, 0.06400000303983688, 1.055999994277954, 0.0, 0.0, 0.0, 0.0, 0.0, 1.620215265275342E9, 2021-05-05 13:47:45.275
94.0, 561.39453125, -727.139404296875, 433.1365051269531, 170.89846801757812, -0.14400000870227814, 0.06400000303983688, 1.055999994277954, 0.0, 0.0, 0.0, 0.0, 0.0, 1.6202152652760468E9, 2021-05-05 13:47:45.276
94.0, 579.3048706054688, -715.5942993164062, 456.8100891113281, 197.5976104736328, -0.14400000870227814, 0.06400000303983688, 1.055999994277954, 0.0, 0.0, 0.0, 0.0, 0.0, 1.6202152652760468E9, 2021-05-05 13:47:45.276
95.0, 538.214599609375, -754.14892578125, 426.8647155761719, 148.01402282714844, -0.14400000870227814, 0.06400000303983688, 1.055999994277954, 0.0, 0.0, 0.0, 0.0, 0.0, 1.620215265276744E9, 2021-05-05 13:47:45.276
95.0, 546.62939453125, -736.8855590820312, 434.46417236328125, 155.4601593017578, -0.14400000870227814, 0.06400000303983688, 1.055999994277954, 0.0, 0.0, 0.0, 0.0, 0.0, 1.620215265276744E9, 2021-05-05 13:47:45.276
96.0, 560.9307861328125, -711.6524658203125, 440.5826416015625, 185.52896118164062, -0.14400000870227814, 0.06400000303983688, 1.055999994277954, 0.0, 0.0, 0.0, 0.0, 0.0, 1.62021526527748E9, 2021-05-05 13:47:45.277
96.0, 561.6151733398438, -710.2276000976562, 440.728515625, 206.2068634033203, -0.14400000870227814, 0.06400000303983688, 1.055999994277954, 0.0, 0.0, 0.0, 0.0, 0.0, 1.62021526527748E9, 2021-05-05 13:47:45.277
97.0, 534.833740234375, -741.1378173828125, 418.3863525390625, 165.0380401611328, -0.14400000870227814, 0.06400000303983688, 1.055999994277954, 0.0, 0.0, 0.0, 0.0, 0.0, 1.6202152652880642E9, 2021-05-05 13:47:45.288
97.0, 531.5725708007812, -719.8952026367188, 413.4646301269531, 174.76927185058594, -0.14400000870227814, 0.06400000303983688, 1.055999994277954, 0.0, 0.0, 0.0, 0.0, 0.0, 1.6202152652880642E9, 2021-05-05 13:47:45.288
98.0, 543.472900390625, -702.5121459960938, 419.6878356933594, 197.66493225097656, -0.14400000870227814, 0.06400000303983688, 1.055999994277954, 0.0, 0.0, 0.0, 0.0, 0.0, 1.620215265303482E9, 2021-05-05 13:47:45.303
98.0, 550.8704223632812, -685.5816040039062, 428.2110595703125, 210.07766723632812, -0.14400000870227814, 0.06400000303983688, 1.055999994277954, 0.0, 0.0, 0.0, 0.0, 0.0, 1.620215265303482E9, 2021-05-05 13:47:45.303
99.0, 520.431396484375, -714.6107177734375, 409.5639343261719, 170.95831298828125, -0.14400000870227814, 0.06400000303983688, 1.055999994277954, 0.0, 0.0, 0.0, 0.0, 0.0, 1.6202152653194656E9, 2021-05-05 13:47:45.319
99.0, 520.0424194335938, -712.0900268554688, 412.30902099609375, 176.437255859375, -0.14400000870227814, 0.06400000303983688, 1.055999994277954, 0.0, 0.0, 0.0, 0.0, 0.0, 1.6202152653194656E9, 2021-05-05 13:47:45.319
100.0, 538.6334838867188, -685.6676635742188, 428.2409973144531, 203.22242736816406, -0.14400000870227814, 0.06400000303983688, 1.055999994277954, 0.0, 0.0, 0.0, 0.0, 0.0, 1.6202152653201635E9, 2021-05-05 13:47:45.320
100.0, 542.7361450195312, -689.7254638671875, 436.1059875488281, 214.5094451904297, -0.14400000870227814, 0.06400000303983688, 1.055999994277954, 0.0, 0.0, 0.0, 0.0, 0.0, 1.6202152653201635E9, 2021-05-05 13:47:45.320
0.0, 480.7865905761719, -767.603271484375, 389.5666809082031, 119.54964447021484, -0.14400000870227814, 0.06400000303983688, 1.055999994277954, 0.0, 0.0, 0.0, 0.0, 0.0, 1.6202152653210027E9, 2021-05-05 13:47:45.321
1.0, 486.14959716796875, -752.9166870117188, 396.8482666015625, 121.6888656616211, -0.14400000870227814, 0.06400000303983688, 1.055999994277954, 0.0, 0.0, 0.0, 0.0, 0.0, 1.6202152653330748E9, 2021-05-05 13:47:45.333
1.0, 495.8172302246094, -737.5643920898438, 399.2530212402344, 140.1041259765625, -0.14400000870227814, 0.06400000303983688, 1.055999994277954, 0.0, 0.0, 0.0, 0.0, 0.0, 1.6202152653330748E9, 2021-05-05 13:47:45.333
2.0, 510.7880554199219, -747.4937744140625, 409.436767578125, 155.05999755859375, -0.14400000870227814, 0.06400000303983688, 1.055999994277954, 0.0, 0.0, 0.0, 0.0, 0.0, 1.6202152653635042E9, 2021-05-05 13:47:45.363
2.0, 475.7638854980469, -768.4110717773438, 384.0765075683594, 109.72866821289062, -0.14400000870227814, 0.06400000303983688, 1.055999994277954, 0.0, 0.0, 0.0, 0.0, 0.0, 1.6202152653635042E9, 2021-05-05 13:47:45.363
3.0, 490.824462890625, -768.7700805664062, 392.91015625, 118.6408462524414, -0.14400000870227814, 0.06400000303983688, 1.055999994277954, 0.0, 0.0, 0.0, 0.0, 0.0, 1.6202152653805146E9, 2021-05-05 13:47:45.380
3.0, 514.722412109375, -746.9515380859375, 405.61083984375, 146.5853729248047, -0.14400000870227814, 0.06400000303983688, 1.055999994277954, 0.0, 0.0, 0.0, 0.0, 0.0, 1.6202152653805146E9, 2021-05-05 13:47:45.380
4.0, 514.6962280273438, -757.5952758789062, 409.2834167480469, 149.31924438476562, -0.14400000870227814, 0.06400000303983688, 1.055999994277954, 0.0, 0.0, 0.0, 0.0, 0.0, 1.620215265381315E9, 2021-05-05 13:47:45.381
4.0, 485.7643737792969, -784.14111328125, 396.9380187988281, 110.55144500732422, -0.14400000870227814, 0.06400000303983688, 1.055999994277954, 0.0, 0.0, 0.0, 0.0, 0.0, 1.620215265381315E9, 2021-05-05 13:47:45.381
5.0, 493.94354248046875, -772.7942504882812, 402.1140441894531, 111.33682250976562, -0.14400000870227814, 0.06400000303983688, 1.055999994277954, 0.0, 0.0, 0.0, 0.0, 0.0, 1.6202152653820117E9, 2021-05-05 13:47:45.382
5.0, 514.8645629882812, -738.906982421875, 411.1197204589844, 141.2971649169922, -0.14400000870227814, 0.06400000303983688, 1.055999994277954, 0.0, 0.0, 0.0, 0.0, 0.0, 1.6202152653820117E9, 2021-05-05 13:47:45.382
6.0, 522.3779907226562, -744.412109375, 410.5475158691406, 155.3292694091797, -0.14400000870227814, 0.06400000303983688, 1.055999994277954, 0.0, 0.0, 0.0, 0.0, 0.0, 1.6202152653938005E9, 2021-05-05 13:47:45.393
6.0, 485.9962463378906, -765.022705078125, 391.631103515625, 117.65351104736328, -0.14400000870227814, 0.06400000303983688, 1.055999994277954, 0.0, 0.0, 0.0, 0.0, 0.0, 1.6202152653938005E9, 2021-05-05 13:47:45.393
7.0, 485.3604736328125, -761.795166015625, 387.2404479980469, 118.9811782836914, -0.14400000870227814, 0.06400000303983688, 1.055999994277954, 0.0, 0.0, 0.0, 0.0, 0.0, 1.6202152653946345E9, 2021-05-05 13:47:45.394
7.0, 497.0663757324219, -738.9219360351562, 391.7545166015625, 136.37171936035156, -0.14400000870227814, 0.06400000303983688, 1.055999994277954, 0.0, 0.0, 0.0, 0.0, 0.0, 1.6202152653946345E9, 2021-05-05 13:47:45.394
8.0, 507.39971923828125, -725.63037109375, 402.4281921386719, 154.88421630859375, -0.14400000870227814, 0.06400000303983688, 1.055999994277954, 0.0, 0.0, 0.0, 0.0, 0.0, 1.6202152654085147E9, 2021-05-05 13:47:45.408
8.0, 475.3786926269531, -761.3576049804688, 381.2192077636719, 113.09083557128906, -0.14400000870227814, 0.06400000303983688, 1.055999994277954, 0.0, 0.0, 0.0, 0.0, 0.0, 1.6202152654085147E9, 2021-05-05 13:47:45.408
9.0, 481.8225402832031, -747.5274658203125, 388.79998779296875, 117.4926986694336, -0.14400000870227814, 0.06400000303983688, 1.055999994277954, 0.0, 0.0, 0.0, 0.0, 0.0, 1.6202152654238107E9, 2021-05-05 13:47:45.423
9.0, 495.9406433105469, -733.7646484375, 401.7886657714844, 137.774169921875, -0.14400000870227814, 0.06400000303983688, 1.055999994277954, 0.0, 0.0, 0.0, 0.0, 0.0, 1.6202152654238107E9, 2021-05-05 13:47:45.423
10.0, 506.094482421875, -737.50830078125, 408.6813049316406, 156.27171325683594, -0.14400000870227814, 0.06400000303983688, 1.040000081062317, 0.0, 0.0, 0.0, 0.0, 0.0, 1.6202152654245777E9, 2021-05-05 13:47:45.424
10.0, 479.286865234375, -757.8046875, 384.8170166015625, 116.96537017822266, -0.14400000870227814, 0.06400000303983688, 1.040000081062317, 0.0, 0.0, 0.0, 0.0, 0.0, 1.6202152654245777E9, 2021-05-05 13:47:45.424
11.0, 488.8535461425781, -743.5744018554688, 394.58563232421875, 114.77005004882812, -0.14400000870227814, 0.06400000303983688, 1.040000081062317, 0.0, 0.0, 0.0, 0.0, 0.0, 1.6202152654685035E9, 2021-05-05 13:47:45.468
11.0, 503.8505554199219, -730.5146484375, 403.81195068359375, 139.14671325683594, -0.14400000870227814, 0.06400000303983688, 1.040000081062317, 0.0, 0.0, 0.0, 0.0, 0.0, 1.6202152654685035E9, 2021-05-05 13:47:45.468
12.0, 510.89276123046875, -729.0075073242188, 412.2753601074219, 150.05599975585938, -0.14400000870227814, 0.06400000303983688, 1.040000081062317, 0.0, 0.0, 0.0, 0.0, 0.0, 1.6202152654858084E9, 2021-05-05 13:47:45.485
12.0, 485.1734924316406, -762.240234375, 395.3223876953125, 117.35432434082031, -0.14400000870227814, 0.06400000303983688, 1.040000081062317, 0.0, 0.0, 0.0, 0.0, 0.0, 1.6202152654858084E9, 2021-05-05 13:47:45.485
13.0, 483.60272216796875, -762.4571533203125, 394.96710205078125, 114.00711059570312, -0.14400000870227814, 0.06400000303983688, 1.040000081062317, 0.0, 0.0, 0.0, 0.0, 0.0, 1.62021526548652E9, 2021-05-05 13:47:45.486
13.0, 505.2156066894531, -724.2578125, 407.12176513671875, 147.9467010498047, -0.14400000870227814, 0.06400000303983688, 1.040000081062317, 0.0, 0.0, 0.0, 0.0, 0.0, 1.62021526548652E9, 2021-05-05 13:47:45.486
14.0, 506.8648986816406, -729.2056884765625, 408.15399169921875, 151.2228546142578, -0.14400000870227814, 0.06400000303983688, 1.040000081062317, 0.0, 0.0, 0.0, 0.0, 0.0, 1.620215265487268E9, 2021-05-05 13:47:45.487
14.0, 482.514404296875, -755.2466430664062, 392.2070617675781, 119.12703704833984, -0.14400000870227814, 0.06400000303983688, 1.040000081062317, 0.0, 0.0, 0.0, 0.0, 0.0, 1.620215265487268E9, 2021-05-05 13:47:45.487
15.0, 491.73699951171875, -759.094970703125, 398.86407470703125, 119.40752410888672, -0.14400000870227814, 0.06400000303983688, 1.040000081062317, 0.0, 0.0, 0.0, 0.0, 0.0, 1.620215265488032E9, 2021-05-05 13:47:45.488
15.0, 501.1278991699219, -736.569580078125, 404.99749755859375, 144.50225830078125, -0.14400000870227814, 0.06400000303983688, 1.040000081062317, 0.0, 0.0, 0.0, 0.0, 0.0, 1.620215265488032E9, 2021-05-05 13:47:45.488
16.0, 519.8311157226562, -727.1375122070312, 413.5169982910156, 155.2133331298828, -0.14400000870227814, 0.06400000303983688, 1.040000081062317, 0.0, 0.0, 0.0, 0.0, 0.0, 1.62021526549944E9, 2021-05-05 13:47:45.499
16.0, 482.8061218261719, -759.0650634765625, 396.3097229003906, 120.43973541259766, -0.14400000870227814, 0.06400000303983688, 1.040000081062317, 0.0, 0.0, 0.0, 0.0, 0.0, 1.62021526549944E9, 2021-05-05 13:47:45.499
17.0, 482.1628723144531, -752.26220703125, 386.9300537109375, 111.7332534790039, -0.14400000870227814, 0.06400000303983688, 1.040000081062317, 0.0, 0.0, 0.0, 0.0, 0.0, 1.6202152655001752E9, 2021-05-05 13:47:45.500
17.0, 502.0441589355469, -727.1151123046875, 394.7015686035156, 140.38088989257812, -0.14400000870227814, 0.06400000303983688, 1.040000081062317, 0.0, 0.0, 0.0, 0.0, 0.0, 1.6202152655001752E9, 2021-05-05 13:47:45.500
18.0, 513.4284057617188, -734.78564453125, 410.9588928222656, 158.7213592529297, -0.14400000870227814, 0.06400000303983688, 1.040000081062317, 0.0, 0.0, 0.0, 0.0, 0.0, 1.6202152655009882E9, 2021-05-05 13:47:45.500
18.0, 479.48883056640625, -756.10302734375, 386.51116943359375, 120.61551666259766, -0.14400000870227814, 0.06400000303983688, 1.040000081062317, 0.0, 0.0, 0.0, 0.0, 0.0, 1.6202152655009882E9, 2021-05-05 13:47:45.500
19.0, 478.0639343261719, -749.0271606445312, 387.27410888671875, 124.94631958007812, -0.14400000870227814, 0.06400000303983688, 1.040000081062317, 0.0, 0.0, 0.0, 0.0, 0.0, 1.6202152655130408E9, 2021-05-05 13:47:45.513
19.0, 495.8808288574219, -728.214599609375, 398.0973815917969, 142.84547424316406, -0.14400000870227814, 0.06400000303983688, 1.040000081062317, 0.0, 0.0, 0.0, 0.0, 0.0, 1.6202152655130408E9, 2021-05-05 13:47:45.513
20.0, 514.0267944335938, -734.576171875, 413.2290344238281, 163.62435913085938, -0.14400000870227814, 0.06400000303983688, 1.040000081062317, 0.0, 0.0, 0.0, 0.0, 0.0, 1.6202152655293224E9, 2021-05-05 13:47:45.529
20.0, 484.59381103515625, -770.5577392578125, 396.6014404296875, 125.59332275390625, -0.14400000870227814, 0.06400000303983688, 1.040000081062317, 0.0, 0.0, 0.0, 0.0, 0.0, 1.6202152655293224E9, 2021-05-05 13:47:45.529
21.0, 483.1352233886719, -749.633056640625, 399.9486389160156, 127.14163970947266, -0.14400000870227814, 0.06400000303983688, 1.040000081062317, 0.0, 0.0, 0.0, 0.0, 0.0, 1.6202152655438604E9, 2021-05-05 13:47:45.543
21.0, 500.58935546875, -730.4360961914062, 406.8263244628906, 144.19932556152344, -0.14400000870227814, 0.06400000303983688, 1.040000081062317, 0.0, 0.0, 0.0, 0.0, 0.0, 1.6202152655438604E9, 2021-05-05 13:47:45.543
22.0, 509.9316101074219, -732.5192260742188, 415.0952453613281, 161.78807067871094, -0.14400000870227814, 0.06400000303983688, 1.040000081062317, 0.0, 0.0, 0.0, 0.0, 0.0, 1.620215265544592E9, 2021-05-05 13:47:45.544
22.0, 482.4358825683594, -763.4594116210938, 404.107421875, 128.16636657714844, -0.14400000870227814, 0.06400000303983688, 1.040000081062317, 0.0, 0.0, 0.0, 0.0, 0.0, 1.620215265544592E9, 2021-05-05 13:47:45.544
23.0, 491.7856140136719, -758.0103759765625, 406.10076904296875, 122.17131042480469, -0.14400000870227814, 0.06400000303983688, 1.040000081062317, 0.0, 0.0, 0.0, 0.0, 0.0, 1.620215265558843E9, 2021-05-05 13:47:45.558
23.0, 502.2348937988281, -736.5059814453125, 408.78228759765625, 146.85464477539062, -0.14400000870227814, 0.06400000303983688, 1.040000081062317, 0.0, 0.0, 0.0, 0.0, 0.0, 1.620215265558843E9, 2021-05-05 13:47:45.558
24.0, 514.1128540039062, -739.9803466796875, 423.10235595703125, 160.838134765625, -0.14400000870227814, 0.06400000303983688, 1.040000081062317, 0.0, 0.0, 0.0, 0.0, 0.0, 1.6202152655596306E9, 2021-05-05 13:47:45.559
24.0, 480.68560791015625, -774.3201293945312, 400.0047302246094, 116.92049407958984, -0.14400000870227814, 0.06400000303983688, 1.040000081062317, 0.0, 0.0, 0.0, 0.0, 0.0, 1.6202152655596306E9, 2021-05-05 13:47:45.559
25.0, 479.8890075683594, -757.404541015625, 405.0423889160156, 115.61526489257812, -0.14400000870227814, 0.06400000303983688, 1.040000081062317, 0.0, 0.0, 0.0, 0.0, 0.0, 1.620215265590178E9, 2021-05-05 13:47:45.590
25.0, 504.24322509765625, -741.7493286132812, 413.8012390136719, 146.6377410888672, -0.14400000870227814, 0.06400000303983688, 1.040000081062317, 0.0, 0.0, 0.0, 0.0, 0.0, 1.620215265590178E9, 2021-05-05 13:47:45.590
26.0, 507.2052307128906, -744.7449951171875, 415.9441833496094, 153.7211151123047, -0.14400000870227814, 0.06400000303983688, 1.040000081062317, 0.0, 0.0, 0.0, 0.0, 0.0, 1.6202152655909414E9, 2021-05-05 13:47:45.590
26.0, 476.1864929199219, -771.4740600585938, 397.13623046875, 120.89226531982422, -0.14400000870227814, 0.06400000303983688, 1.040000081062317, 0.0, 0.0, 0.0, 0.0, 0.0, 1.6202152655909414E9, 2021-05-05 13:47:45.590
27.0, 481.85992431640625, -762.662841796875, 399.96734619140625, 121.10543823242188, -0.14400000870227814, 0.06400000303983688, 1.040000081062317, 0.0, 0.0, 0.0, 0.0, 0.0, 1.620215265591746E9, 2021-05-05 13:47:45.591
27.0, 504.4563903808594, -742.4374389648438, 407.7687683105469, 151.29391479492188, -0.14400000870227814, 0.06400000303983688, 1.040000081062317, 0.0, 0.0, 0.0, 0.0, 0.0, 1.620215265591746E9, 2021-05-05 13:47:45.591
28.0, 504.6733093261719, -734.4378051757812, 405.39019775390625, 155.94635009765625, -0.14400000870227814, 0.06400000303983688, 1.040000081062317, 0.0, 0.0, 0.0, 0.0, 0.0, 1.6202152656031191E9, 2021-05-05 13:47:45.603
28.0, 479.81793212890625, -771.302001953125, 391.41046142578125, 126.08324432373047, -0.14400000870227814, 0.06400000303983688, 1.040000081062317, 0.0, 0.0, 0.0, 0.0, 0.0, 1.6202152656031191E9, 2021-05-05 13:47:45.603
29.0, 489.5042724609375, -759.5736694335938, 389.0543212890625, 122.89311218261719, -0.14400000870227814, 0.06400000303983688, 1.040000081062317, 0.0, 0.0, 0.0, 0.0, 0.0, 1.620215265618744E9, 2021-05-05 13:47:45.618
29.0, 496.423095703125, -737.9121704101562, 400.962158203125, 147.92425537109375, -0.14400000870227814, 0.06400000303983688, 1.040000081062317, 0.0, 0.0, 0.0, 0.0, 0.0, 1.620215265618744E9, 2021-05-05 13:47:45.618
30.0, 511.2293701171875, -745.2386474609375, 405.0947570800781, 156.14456176757812, -0.14400000870227814, 0.06400000303983688, 1.055999994277954, 0.0, 0.0, 0.0, 0.0, 0.0, 1.620215265619516E9, 2021-05-05 13:47:45.619
30.0, 490.71600341796875, -771.900390625, 389.9593811035156, 127.06684112548828, -0.14400000870227814, 0.06400000303983688, 1.055999994277954, 0.0, 0.0, 0.0, 0.0, 0.0, 1.620215265619516E9, 2021-05-05 13:47:45.619
31.0, 481.7552185058594, -750.3062133789062, 388.0033874511719, 120.80998992919922, -0.14400000870227814, 0.06400000303983688, 1.055999994277954, 0.0, 0.0, 0.0, 0.0, 0.0, 1.6202152656501231E9, 2021-05-05 13:47:45.650
31.0, 500.7202453613281, -735.0773315429688, 398.0562438964844, 146.69757080078125, -0.14400000870227814, 0.06400000303983688, 1.055999994277954, 0.0, 0.0, 0.0, 0.0, 0.0, 1.6202152656501231E9, 2021-05-05 13:47:45.650
32.0, 512.3363647460938, -727.80322265625, 403.8306579589844, 156.64944458007812, -0.14400000870227814, 0.06400000303983688, 1.055999994277954, 0.0, 0.0, 0.0, 0.0, 0.0, 1.6202152656508613E9, 2021-05-05 13:47:45.650
32.0, 485.6372375488281, -762.1504516601562, 386.9113464355469, 122.98661041259766, -0.14400000870227814, 0.06400000303983688, 1.055999994277954, 0.0, 0.0, 0.0, 0.0, 0.0, 1.6202152656508613E9, 2021-05-05 13:47:45.650
33.0, 477.6300964355469, -748.9673461914062, 394.4771728515625, 125.91495513916016, -0.14400000870227814, 0.06400000303983688, 1.055999994277954, 0.0, 0.0, 0.0, 0.0, 0.0, 1.620215265651592E9, 2021-05-05 13:47:45.651
33.0, 503.1324768066406, -731.7376098632812, 403.06024169921875, 154.98519897460938, -0.14400000870227814, 0.06400000303983688, 1.055999994277954, 0.0, 0.0, 0.0, 0.0, 0.0, 1.620215265651592E9, 2021-05-05 13:47:45.651
34.0, 512.0072631835938, -730.6231079101562, 412.9859313964844, 166.272216796875, -0.14400000870227814, 0.06400000303983688, 1.055999994277954, 0.0, 0.0, 0.0, 0.0, 0.0, 1.6202152656632707E9, 2021-05-05 13:47:45.663
34.0, 491.57244873046875, -766.2344360351562, 401.36981201171875, 131.52479553222656, -0.14400000870227814, 0.06400000303983688, 1.055999994277954, 0.0, 0.0, 0.0, 0.0, 0.0, 1.6202152656632707E9, 2021-05-05 13:47:45.663
35.0, 481.2278747558594, -759.4839477539062, 403.755859375, 127.8148193359375, -0.14400000870227814, 0.06400000303983688, 1.055999994277954, 0.0, 0.0, 0.0, 0.0, 0.0, 1.6202152656787448E9, 2021-05-05 13:47:45.678
35.0, 499.5346984863281, -731.2439575195312, 415.3719787597656, 152.43084716796875, -0.14400000870227814, 0.06400000303983688, 1.055999994277954, 0.0, 0.0, 0.0, 0.0, 0.0, 1.6202152656787448E9, 2021-05-05 13:47:45.678
36.0, 507.74005126953125, -726.0828857421875, 421.4717712402344, 159.3496551513672, -0.14400000870227814, 0.06400000303983688, 1.055999994277954, 0.0, 0.0, 0.0, 0.0, 0.0, 1.6202152656795309E9, 2021-05-05 13:47:45.679
36.0, 475.97332763671875, -758.9042358398438, 402.0729064941406, 122.9192886352539, -0.14400000870227814, 0.06400000303983688, 1.055999994277954, 0.0, 0.0, 0.0, 0.0, 0.0, 1.6202152656795309E9, 2021-05-05 13:47:45.679
37.0, 480.62200927734375, -757.3073120117188, 407.50323486328125, 130.81422424316406, -0.14400000870227814, 0.06400000303983688, 1.055999994277954, 0.0, 0.0, 0.0, 0.0, 0.0, 1.620215265709482E9, 2021-05-05 13:47:45.709
37.0, 504.68829345703125, -726.62890625, 418.1993408203125, 150.64317321777344, -0.14400000870227814, 0.06400000303983688, 1.055999994277954, 0.0, 0.0, 0.0, 0.0, 0.0, 1.620215265709482E9, 2021-05-05 13:47:45.709
38.0, 506.9434509277344, -735.1259765625, 419.964599609375, 161.84042358398438, -0.14400000870227814, 0.06400000303983688, 1.055999994277954, 0.0, 0.0, 0.0, 0.0, 0.0, 1.6202152657102015E9, 2021-05-05 13:47:45.710
38.0, 471.81829833984375, -759.00146484375, 395.8310241699219, 124.93509674072266, -0.14400000870227814, 0.06400000303983688, 1.055999994277954, 0.0, 0.0, 0.0, 0.0, 0.0, 1.6202152657102015E9, 2021-05-05 13:47:45.710
39.0, 486.2056884765625, -739.9653930664062, 398.95758056640625, 131.17324829101562, -0.14400000870227814, 0.06400000303983688, 1.055999994277954, 0.0, 0.0, 0.0, 0.0, 0.0, 1.6202152657110536E9, 2021-05-05 13:47:45.711
39.0, 502.5303649902344, -728.8017578125, 405.5360412597656, 157.9471893310547, -0.14400000870227814, 0.06400000303983688, 1.055999994277954, 0.0, 0.0, 0.0, 0.0, 0.0, 1.6202152657110536E9, 2021-05-05 13:47:45.711
40.0, 505.4175720214844, -731.73388671875, 408.3035888671875, 170.24398803710938, -0.14400000870227814, 0.06400000303983688, 1.040000081062317, 0.0, 0.0, 0.0, 0.0, 0.0, 1.6202152657395263E9, 2021-05-05 13:47:45.739
40.0, 473.9276123046875, -755.8001098632812, 393.35894775390625, 128.92556762695312, -0.14400000870227814, 0.06400000303983688, 1.040000081062317, 0.0, 0.0, 0.0, 0.0, 0.0, 1.6202152657395263E9, 2021-05-05 13:47:45.739
41.0, 483.4718322753906, -747.0899047851562, 394.9932861328125, 132.82254028320312, -0.14400000870227814, 0.06400000303983688, 1.040000081062317, 0.0, 0.0, 0.0, 0.0, 0.0, 1.620215265740268E9, 2021-05-05 13:47:45.740
41.0, 495.6414489746094, -734.5499877929688, 404.66839599609375, 158.62037658691406, -0.14400000870227814, 0.06400000303983688, 1.040000081062317, 0.0, 0.0, 0.0, 0.0, 0.0, 1.620215265740268E9, 2021-05-05 13:47:45.740
42.0, 516.00146484375, -714.1451416015625, 418.3414611816406, 171.870849609375, -0.14400000870227814, 0.06400000303983688, 1.040000081062317, 0.0, 0.0, 0.0, 0.0, 0.0, 1.6202152657410502E9, 2021-05-05 13:47:45.741
42.0, 485.72698974609375, -754.0087280273438, 398.2694396972656, 125.73543548583984, -0.14400000870227814, 0.06400000303983688, 1.040000081062317, 0.0, 0.0, 0.0, 0.0, 0.0, 1.6202152657410502E9, 2021-05-05 13:47:45.741
43.0, 490.2859191894531, -752.0975952148438, 401.61663818359375, 130.4065704345703, -0.14400000870227814, 0.06400000303983688, 1.040000081062317, 0.0, 0.0, 0.0, 0.0, 0.0, 1.6202152657695425E9, 2021-05-05 13:47:45.769
43.0, 510.9937438964844, -711.3850708007812, 406.8936462402344, 152.13165283203125, -0.14400000870227814, 0.06400000303983688, 1.040000081062317, 0.0, 0.0, 0.0, 0.0, 0.0, 1.6202152657695425E9, 2021-05-05 13:47:45.769
44.0, 516.3081665039062, -707.9406127929688, 412.9709777832031, 150.66934204101562, -0.14400000870227814, 0.06400000303983688, 1.040000081062317, 0.0, 0.0, 0.0, 0.0, 0.0, 1.620215265770208E9, 2021-05-05 13:47:45.770
44.0, 494.7289123535156, -738.7125244140625, 398.9949645996094, 113.36758422851562, -0.14400000870227814, 0.06400000303983688, 1.040000081062317, 0.0, 0.0, 0.0, 0.0, 0.0, 1.620215265770208E9, 2021-05-05 13:47:45.770
45.0, 500.836181640625, -729.620849609375, 394.19293212890625, 107.97090911865234, -0.14400000870227814, 0.06400000303983688, 1.040000081062317, 0.0, 0.0, 0.0, 0.0, 0.0, 1.620215265771016E9, 2021-05-05 13:47:45.771
45.0, 516.3455200195312, -696.41796875, 402.73114013671875, 137.1832733154297, -0.14400000870227814, 0.06400000303983688, 1.040000081062317, 0.0, 0.0, 0.0, 0.0, 0.0, 1.620215265771016E9, 2021-05-05 13:47:45.771
46.0, 518.443603515625, -707.1066284179688, 405.89508056640625, 135.17868041992188, -0.14400000870227814, 0.06400000303983688, 1.040000081062317, 0.0, 0.0, 0.0, 0.0, 0.0, 1.620215265783072E9, 2021-05-05 13:47:45.783
46.0, 484.95281982421875, -729.916259765625, 400.56573486328125, 106.58341217041016, -0.14400000870227814, 0.06400000303983688, 1.040000081062317, 0.0, 0.0, 0.0, 0.0, 0.0, 1.620215265783072E9, 2021-05-05 13:47:45.783
47.0, 482.9856262207031, -718.6180419921875, 403.89422607421875, 112.84774017333984, -0.14400000870227814, 0.06400000303983688, 1.040000081062317, 0.0, 0.0, 0.0, 0.0, 0.0, 1.620215265798913E9, 2021-05-05 13:47:45.798
47.0, 505.5148010253906, -692.3228149414062, 414.8783264160156, 142.7295379638672, -0.14400000870227814, 0.06400000303983688, 1.040000081062317, 0.0, 0.0, 0.0, 0.0, 0.0, 1.620215265798913E9, 2021-05-05 13:47:45.798
48.0, 521.8057861328125, -703.7369995117188, 421.995361328125, 157.5283203125, -0.14400000870227814, 0.06400000303983688, 1.040000081062317, 0.0, 0.0, 0.0, 0.0, 0.0, 1.6202152657994835E9, 2021-05-05 13:47:45.799
48.0, 486.8938293457031, -733.5402221679688, 408.2998352050781, 126.95464324951172, -0.14400000870227814, 0.06400000303983688, 1.040000081062317, 0.0, 0.0, 0.0, 0.0, 0.0, 1.6202152657994835E9, 2021-05-05 13:47:45.799
49.0, 494.7364196777344, -728.7157592773438, 407.28631591796875, 126.9097671508789, -0.14400000870227814, 0.06400000303983688, 1.040000081062317, 0.0, 0.0, 0.0, 0.0, 0.0, 1.6202152658292556E9, 2021-05-05 13:47:45.829
49.0, 504.91265869140625, -712.6342163085938, 413.61798095703125, 148.86297607421875, -0.14400000870227814, 0.06400000303983688, 1.040000081062317, 0.0, 0.0, 0.0, 0.0, 0.0, 1.6202152658292556E9, 2021-05-05 13:47:45.829
50.0, 517.5572509765625, -718.0532836914062, 421.0641174316406, 160.98399353027344, -0.14400000870227814, 0.06400000303983688, 1.040000081062317, 0.0, 0.0, 0.0, 0.0, 0.0, 1.620215265844251E9, 2021-05-05 13:47:45.844
50.0, 494.052001953125, -744.528076171875, 399.27545166015625, 124.59850311279297, -0.14400000870227814, 0.06400000303983688, 1.040000081062317, 0.0, 0.0, 0.0, 0.0, 0.0, 1.620215265844251E9, 2021-05-05 13:47:45.844
51.0, 484.720947265625, -739.2398681640625, 398.5199890136719, 126.37870025634766, -0.14400000870227814, 0.06400000303983688, 1.040000081062317, 0.0, 0.0, 0.0, 0.0, 0.0, 1.6202152658450425E9, 2021-05-05 13:47:45.845
51.0, 503.2783508300781, -734.4527587890625, 405.50238037109375, 147.05661010742188, -0.14400000870227814, 0.06400000303983688, 1.040000081062317, 0.0, 0.0, 0.0, 0.0, 0.0, 1.6202152658450425E9, 2021-05-05 13:47:45.845
52.0, 501.9618835449219, -719.4183959960938, 403.78204345703125, 158.91209411621094, -0.14400000870227814, 0.06400000303983688, 1.040000081062317, 0.0, 0.0, 0.0, 0.0, 0.0, 1.620215265860112E9, 2021-05-05 13:47:45.860
52.0, 492.0810852050781, -766.0100708007812, 394.27520751953125, 128.1925506591797, -0.14400000870227814, 0.06400000303983688, 1.040000081062317, 0.0, 0.0, 0.0, 0.0, 0.0, 1.620215265860112E9, 2021-05-05 13:47:45.860
53.0, 486.3590393066406, -752.2921142578125, 396.1077575683594, 128.73109436035156, -0.14400000870227814, 0.06400000303983688, 1.040000081062317, 0.0, 0.0, 0.0, 0.0, 0.0, 1.620215265860818E9, 2021-05-05 13:47:45.860
53.0, 501.2625427246094, -732.6763305664062, 395.68890380859375, 145.7850341796875, -0.14400000870227814, 0.06400000303983688, 1.040000081062317, 0.0, 0.0, 0.0, 0.0, 0.0, 1.620215265860818E9, 2021-05-05 13:47:45.860
54.0, 515.1226196289062, -731.4982299804688, 409.76214599609375, 156.3016357421875, -0.14400000870227814, 0.06400000303983688, 1.040000081062317, 0.0, 0.0, 0.0, 0.0, 0.0, 1.620215265861576E9, 2021-05-05 13:47:45.861
54.0, 483.1576843261719, -758.5863647460938, 387.23297119140625, 115.39087677001953, -0.14400000870227814, 0.06400000303983688, 1.040000081062317, 0.0, 0.0, 0.0, 0.0, 0.0, 1.620215265861576E9, 2021-05-05 13:47:45.861
55.0, 484.7620849609375, -758.0440673828125, 391.6086730957031, 114.20158386230469, -0.14400000870227814, 0.06400000303983688, 1.040000081062317, 0.0, 0.0, 0.0, 0.0, 0.0, 1.6202152658891673E9, 2021-05-05 13:47:45.889
55.0, 509.24346923828125, -736.5321655273438, 399.75042724609375, 143.51866149902344, -0.14400000870227814, 0.06400000303983688, 1.040000081062317, 0.0, 0.0, 0.0, 0.0, 0.0, 1.6202152658891673E9, 2021-05-05 13:47:45.889
56.0, 506.610595703125, -738.30859375, 404.27569580078125, 156.49237060546875, -0.14400000870227814, 0.06400000303983688, 1.040000081062317, 0.0, 0.0, 0.0, 0.0, 0.0, 1.6202152658899152E9, 2021-05-05 13:47:45.889
56.0, 480.88006591796875, -766.2119750976562, 392.7418518066406, 118.7418212890625, -0.14400000870227814, 0.06400000303983688, 1.040000081062317, 0.0, 0.0, 0.0, 0.0, 0.0, 1.6202152658899152E9, 2021-05-05 13:47:45.889
57.0, 489.58282470703125, -757.6588745117188, 390.4493103027344, 118.958740234375, -0.14400000870227814, 0.06400000303983688, 1.040000081062317, 0.0, 0.0, 0.0, 0.0, 0.0, 1.620215265920812E9, 2021-05-05 13:47:45.920
57.0, 494.48583984375, -740.7881469726562, 397.42047119140625, 144.32273864746094, -0.14400000870227814, 0.06400000303983688, 1.040000081062317, 0.0, 0.0, 0.0, 0.0, 0.0, 1.620215265920812E9, 2021-05-05 13:47:45.920
58.0, 501.5953674316406, -738.3834228515625, 400.73028564453125, 160.23974609375, -0.14400000870227814, 0.06400000303983688, 1.040000081062317, 0.0, 0.0, 0.0, 0.0, 0.0, 1.6202152659215195E9, 2021-05-05 13:47:45.921
58.0, 475.917236328125, -768.70654296875, 392.19207763671875, 130.03257751464844, -0.14400000870227814, 0.06400000303983688, 1.040000081062317, 0.0, 0.0, 0.0, 0.0, 0.0, 1.6202152659215195E9, 2021-05-05 13:47:45.921
59.0, 480.9548645019531, -759.8130493164062, 395.63653564453125, 130.66836547851562, -0.14400000870227814, 0.06400000303983688, 1.040000081062317, 0.0, 0.0, 0.0, 0.0, 0.0, 1.6202152659222863E9, 2021-05-05 13:47:45.922
59.0, 494.0108642578125, -732.990478515625, 406.8674621582031, 162.50987243652344, -0.14400000870227814, 0.06400000303983688, 1.040000081062317, 0.0, 0.0, 0.0, 0.0, 0.0, 1.6202152659222863E9, 2021-05-05 13:47:45.922
60.0, 505.59332275390625, -746.3643798828125, 405.0573425292969, 171.88580322265625, -0.14400000870227814, 0.06400000303983688, 1.040000081062317, 0.0, 0.0, 0.0, 0.0, 0.0, 1.620215265923021E9, 2021-05-05 13:47:45.923
60.0, 476.65771484375, -773.3589477539062, 387.9921875, 143.64207458496094, -0.14400000870227814, 0.06400000303983688, 1.040000081062317, 0.0, 0.0, 0.0, 0.0, 0.0, 1.620215265923021E9, 2021-05-05 13:47:45.923
61.0, 482.66400146484375, -766.0137939453125, 391.1486511230469, 149.0088348388672, -0.14400000870227814, 0.06400000303983688, 1.040000081062317, 0.0, 0.0, 0.0, 0.0, 0.0, 1.6202152659492292E9, 2021-05-05 13:47:45.949
61.0, 499.28411865234375, -746.1436767578125, 405.51361083984375, 170.9695281982422, -0.14400000870227814, 0.06400000303983688, 1.040000081062317, 0.0, 0.0, 0.0, 0.0, 0.0, 1.6202152659492292E9, 2021-05-05 13:47:45.949
62.0, 499.6094970703125, -749.8985595703125, 403.2210388183594, 176.22035217285156, -0.14400000870227814, 0.06400000303983688, 1.040000081062317, 0.0, 0.0, 0.0, 0.0, 0.0, 1.6202152659499123E9, 2021-05-05 13:47:45.949
62.0, 484.5040283203125, -778.3890991210938, 394.2265930175781, 144.59201049804688, -0.14400000870227814, 0.06400000303983688, 1.040000081062317, 0.0, 0.0, 0.0, 0.0, 0.0, 1.6202152659499123E9, 2021-05-05 13:47:45.949
63.0, 486.6058654785156, -764.9067993164062, 397.0202941894531, 146.0879669189453, -0.14400000870227814, 0.06400000303983688, 1.040000081062317, 0.0, 0.0, 0.0, 0.0, 0.0, 1.6202152659638953E9, 2021-05-05 13:47:45.963
63.0, 499.134521484375, -753.5411987304688, 404.5674133300781, 172.14759826660156, -0.14400000870227814, 0.06400000303983688, 1.040000081062317, 0.0, 0.0, 0.0, 0.0, 0.0, 1.6202152659638953E9, 2021-05-05 13:47:45.963
64.0, 500.7090148925781, -749.1804809570312, 413.1168212890625, 177.99679565429688, -0.14400000870227814, 0.06400000303983688, 1.040000081062317, 0.0, 0.0, 0.0, 0.0, 0.0, 1.6202152659646292E9, 2021-05-05 13:47:45.964
64.0, 483.3072814941406, -781.54931640625, 399.9187316894531, 136.7270050048828, -0.14400000870227814, 0.06400000303983688, 1.040000081062317, 0.0, 0.0, 0.0, 0.0, 0.0, 1.6202152659646292E9, 2021-05-05 13:47:45.964
65.0, 489.9306335449219, -765.7893676757812, 404.6309814453125, 138.89614868164062, -0.14400000870227814, 0.06400000303983688, 1.040000081062317, 0.0, 0.0, 0.0, 0.0, 0.0, 1.6202152659788628E9, 2021-05-05 13:47:45.978
65.0, 496.83074951171875, -757.1315307617188, 405.364013671875, 160.1649627685547, -0.14400000870227814, 0.06400000303983688, 1.040000081062317, 0.0, 0.0, 0.0, 0.0, 0.0, 1.6202152659788628E9, 2021-05-05 13:47:45.978
66.0, 501.8796081542969, -751.74609375, 406.8113708496094, 163.9684295654297, -0.14400000870227814, 0.06400000303983688, 1.040000081062317, 0.0, 0.0, 0.0, 0.0, 0.0, 1.6202152659796035E9, 2021-05-05 13:47:45.979
66.0, 481.83001708984375, -769.084228515625, 393.9498291015625, 128.6712646484375, -0.14400000870227814, 0.06400000303983688, 1.040000081062317, 0.0, 0.0, 0.0, 0.0, 0.0, 1.6202152659796035E9, 2021-05-05 13:47:45.979
67.0, 484.9602966308594, -771.5899658203125, 397.53265380859375, 126.34130096435547, -0.14400000870227814, 0.06400000303983688, 1.040000081062317, 0.0, 0.0, 0.0, 0.0, 0.0, 1.6202152660097675E9, 2021-05-05 13:47:46.009
67.0, 507.0032653808594, -742.3402099609375, 404.8965148925781, 140.0368194580078, -0.14400000870227814, 0.06400000303983688, 1.040000081062317, 0.0, 0.0, 0.0, 0.0, 0.0, 1.6202152660097675E9, 2021-05-05 13:47:46.009
68.0, 508.7049255371094, -746.1549072265625, 417.0699157714844, 155.7967529296875, -0.14400000870227814, 0.06400000303983688, 1.040000081062317, 0.0, 0.0, 0.0, 0.0, 0.0, 1.6202152660244358E9, 2021-05-05 13:47:46.024
68.0, 479.62347412109375, -779.013671875, 393.3290100097656, 119.84135437011719, -0.14400000870227814, 0.06400000303983688, 1.040000081062317, 0.0, 0.0, 0.0, 0.0, 0.0, 1.6202152660244358E9, 2021-05-05 13:47:46.024
69.0, 485.3829040527344, -767.5284423828125, 400.7228088378906, 131.14706420898438, -0.14400000870227814, 0.06400000303983688, 1.040000081062317, 0.0, 0.0, 0.0, 0.0, 0.0, 1.6202152660251334E9, 2021-05-05 13:47:46.025
69.0, 494.5381774902344, -744.4532470703125, 406.8674621582031, 152.71507263183594, -0.14400000870227814, 0.06400000303983688, 1.040000081062317, 0.0, 0.0, 0.0, 0.0, 0.0, 1.6202152660251334E9, 2021-05-05 13:47:46.025
70.0, 502.3545837402344, -744.6552124023438, 407.80242919921875, 166.6499481201172, -0.14400000870227814, 0.06400000303983688, 1.040000081062317, 0.0, 0.0, 0.0, 0.0, 0.0, 1.6202152660259175E9, 2021-05-05 13:47:46.025
70.0, 482.7388000488281, -772.8690185546875, 393.3701477050781, 141.65618896484375, -0.14400000870227814, 0.06400000303983688, 1.040000081062317, 0.0, 0.0, 0.0, 0.0, 0.0, 1.6202152660259175E9, 2021-05-05 13:47:46.025
71.0, 476.2762451171875, -768.8411254882812, 383.56787109375, 131.13584899902344, -0.14400000870227814, 0.06400000303983688, 1.040000081062317, 0.0, 0.0, 0.0, 0.0, 0.0, 1.6202152660387988E9, 2021-05-05 13:47:46.038
71.0, 498.7119140625, -748.0098876953125, 400.8798828125, 158.5455780029297, -0.14400000870227814, 0.06400000303983688, 1.040000081062317, 0.0, 0.0, 0.0, 0.0, 0.0, 1.6202152660387988E9, 2021-05-05 13:47:46.038
72.0, 507.60540771484375, -751.03173828125, 401.8934020996094, 172.46922302246094, -0.14400000870227814, 0.06400000303983688, 1.040000081062317, 0.0, 0.0, 0.0, 0.0, 0.0, 1.6202152660395613E9, 2021-05-05 13:47:46.039
72.0, 479.6571350097656, -778.2656860351562, 386.2157287597656, 132.175537109375, -0.14400000870227814, 0.06400000303983688, 1.040000081062317, 0.0, 0.0, 0.0, 0.0, 0.0, 1.6202152660395613E9, 2021-05-05 13:47:46.039
73.0, 478.2172546386719, -775.6589965820312, 380.70684814453125, 131.53976440429688, -0.14400000870227814, 0.06400000303983688, 1.040000081062317, 0.0, 0.0, 0.0, 0.0, 0.0, 1.620215266053057E9, 2021-05-05 13:47:46.053
73.0, 504.8790283203125, -747.84912109375, 402.6189270019531, 162.1844940185547, -0.14400000870227814, 0.06400000303983688, 1.040000081062317, 0.0, 0.0, 0.0, 0.0, 0.0, 1.620215266053057E9, 2021-05-05 13:47:46.053
74.0, 505.1183776855469, -752.3070678710938, 404.63848876953125, 172.57394409179688, -0.14400000870227814, 0.06400000303983688, 1.040000081062317, 0.0, 0.0, 0.0, 0.0, 0.0, 1.6202152660688696E9, 2021-05-05 13:47:46.068
74.0, 479.69451904296875, -783.26220703125, 390.7559814453125, 138.18556213378906, -0.14400000870227814, 0.06400000303983688, 1.040000081062317, 0.0, 0.0, 0.0, 0.0, 0.0, 1.6202152660688696E9, 2021-05-05 13:47:46.068
75.0, 488.2439270019531, -771.4515991210938, 401.2987365722656, 137.00001525878906, -0.14400000870227814, 0.06400000303983688, 1.040000081062317, 0.0, 0.0, 0.0, 0.0, 0.0, 1.6202152660695143E9, 2021-05-05 13:47:46.069
75.0, 495.6190185546875, -751.7535400390625, 405.2480773925781, 154.96649169921875, -0.14400000870227814, 0.06400000303983688, 1.040000081062317, 0.0, 0.0, 0.0, 0.0, 0.0, 1.6202152660695143E9, 2021-05-05 13:47:46.069
76.0, 508.58526611328125, -758.5264892578125, 406.1755676269531, 161.40660095214844, -0.14400000870227814, 0.06400000303983688, 1.040000081062317, 0.0, 0.0, 0.0, 0.0, 0.0, 1.6202152660992908E9, 2021-05-05 13:47:46.099
76.0, 483.2698669433594, -781.3436279296875, 391.2683410644531, 130.2644500732422, -0.14400000870227814, 0.06400000303983688, 1.040000081062317, 0.0, 0.0, 0.0, 0.0, 0.0, 1.6202152660992908E9, 2021-05-05 13:47:46.099
77.0, 490.7608947753906, -775.3598022460938, 398.9425964355469, 133.38352966308594, -0.14400000870227814, 0.06400000303983688, 1.040000081062317, 0.0, 0.0, 0.0, 0.0, 0.0, 1.6202152661315637E9, 2021-05-05 13:47:46.131
77.0, 498.68572998046875, -758.5078125, 404.178466796875, 149.75682067871094, -0.14400000870227814, 0.06400000303983688, 1.040000081062317, 0.0, 0.0, 0.0, 0.0, 0.0, 1.6202152661315637E9, 2021-05-05 13:47:46.131
78.0, 509.3332214355469, -754.5435180664062, 410.6746826171875, 168.39646911621094, -0.14400000870227814, 0.06400000303983688, 1.040000081062317, 0.0, 0.0, 0.0, 0.0, 0.0, 1.6202152661323397E9, 2021-05-05 13:47:46.132
78.0, 489.0592346191406, -782.3160400390625, 392.4314270019531, 128.42068481445312, -0.14400000870227814, 0.06400000303983688, 1.040000081062317, 0.0, 0.0, 0.0, 0.0, 0.0, 1.6202152661323397E9, 2021-05-05 13:47:46.132
79.0, 482.8360290527344, -773.168212890625, 394.7987976074219, 127.05936431884766, -0.14400000870227814, 0.06400000303983688, 1.040000081062317, 0.0, 0.0, 0.0, 0.0, 0.0, 1.620215266133064E9, 2021-05-05 13:47:46.133
79.0, 506.2926940917969, -754.6482543945312, 403.5613708496094, 158.5081787109375, -0.14400000870227814, 0.06400000303983688, 1.040000081062317, 0.0, 0.0, 0.0, 0.0, 0.0, 1.620215266133064E9, 2021-05-05 13:47:46.133
80.0, 508.4730529785156, -760.6283569335938, 406.2503662109375, 166.7808380126953, -0.14400000870227814, 0.06400000303983688, 1.055999994277954, 0.0, 0.0, 0.0, 0.0, 0.0, 1.6202152661338277E9, 2021-05-05 13:47:46.133
80.0, 487.0957946777344, -778.8977661132812, 390.1351318359375, 138.7166290283203, -0.14400000870227814, 0.06400000303983688, 1.055999994277954, 0.0, 0.0, 0.0, 0.0, 0.0, 1.6202152661338277E9, 2021-05-05 13:47:46.133
81.0, 479.9712829589844, -777.2671508789062, 389.5292663574219, 138.2753143310547, -0.14400000870227814, 0.06400000303983688, 1.055999994277954, 0.0, 0.0, 0.0, 0.0, 0.0, 1.6202152661445072E9, 2021-05-05 13:47:46.144
81.0, 493.1058044433594, -757.886962890625, 400.8798828125, 166.16749572753906, -0.14400000870227814, 0.06400000303983688, 1.055999994277954, 0.0, 0.0, 0.0, 0.0, 0.0, 1.6202152661445072E9, 2021-05-05 13:47:46.144
82.0, 503.9103698730469, -756.383544921875, 405.0722961425781, 174.1858367919922, -0.14400000870227814, 0.06400000303983688, 1.055999994277954, 0.0, 0.0, 0.0, 0.0, 0.0, 1.6202152661452537E9, 2021-05-05 13:47:46.145
82.0, 488.7749938964844, -777.6224365234375, 399.38018798828125, 138.01353454589844, -0.14400000870227814, 0.06400000303983688, 1.055999994277954, 0.0, 0.0, 0.0, 0.0, 0.0, 1.6202152661452537E9, 2021-05-05 13:47:46.145
83.0, 489.7025146484375, -770.1688232421875, 392.6221923828125, 136.47268676757812, -0.14400000870227814, 0.06400000303983688, 1.055999994277954, 0.0, 0.0, 0.0, 0.0, 0.0, 1.6202152661587844E9, 2021-05-05 13:47:46.158
83.0, 506.3749694824219, -756.1292114257812, 396.6201171875, 161.57864379882812, -0.14400000870227814, 0.06400000303983688, 1.055999994277954, 0.0, 0.0, 0.0, 0.0, 0.0, 1.6202152661587844E9, 2021-05-05 13:47:46.158
84.0, 520.0443115234375, -756.1629028320312, 405.67816162109375, 171.08546447753906, -0.14400000870227814, 0.06400000303983688, 1.055999994277954, 0.0, 0.0, 0.0, 0.0, 0.0, 1.6202152661595159E9, 2021-05-05 13:47:46.159
84.0, 485.08746337890625, -784.94140625, 390.2398681640625, 136.73822021484375, -0.14400000870227814, 0.06400000303983688, 1.055999994277954, 0.0, 0.0, 0.0, 0.0, 0.0, 1.6202152661595159E9, 2021-05-05 13:47:46.159
85.0, 489.0068664550781, -774.9820556640625, 395.7898864746094, 138.31271362304688, -0.14400000870227814, 0.06400000303983688, 1.055999994277954, 0.0, 0.0, 0.0, 0.0, 0.0, 1.6202152661732032E9, 2021-05-05 13:47:46.173
85.0, 502.24237060546875, -756.8323364257812, 401.22393798828125, 160.4716339111328, -0.14400000870227814, 0.06400000303983688, 1.055999994277954, 0.0, 0.0, 0.0, 0.0, 0.0, 1.6202152661732032E9, 2021-05-05 13:47:46.173
86.0, 513.536865234375, -751.1738891601562, 408.5616455078125, 176.4858856201172, -0.14400000870227814, 0.06400000303983688, 1.055999994277954, 0.0, 0.0, 0.0, 0.0, 0.0, 1.620215266204415E9, 2021-05-05 13:47:46.204
86.0, 486.2094421386719, -788.6887817382812, 392.5398864746094, 131.47991943359375, -0.14400000870227814, 0.06400000303983688, 1.055999994277954, 0.0, 0.0, 0.0, 0.0, 0.0, 1.620215266204415E9, 2021-05-05 13:47:46.204
87.0, 489.61273193359375, -770.85693359375, 394.3200988769531, 132.8524627685547, -0.14400000870227814, 0.06400000303983688, 1.055999994277954, 0.0, 0.0, 0.0, 0.0, 0.0, 1.6202152662052033E9, 2021-05-05 13:47:46.205
87.0, 500.3013916015625, -752.299560546875, 397.6560974121094, 150.2542266845703, -0.14400000870227814, 0.06400000303983688, 1.055999994277954, 0.0, 0.0, 0.0, 0.0, 0.0, 1.6202152662052033E9, 2021-05-05 13:47:46.205
88.0, 500.495849609375, -753.309326171875, 403.2846374511719, 155.36666870117188, -0.14400000870227814, 0.06400000303983688, 1.055999994277954, 0.0, 0.0, 0.0, 0.0, 0.0, 1.620215266205934E9, 2021-05-05 13:47:46.205
88.0, 489.0330505371094, -775.1915283203125, 392.99615478515625, 127.96441650390625, -0.14400000870227814, 0.06400000303983688, 1.055999994277954, 0.0, 0.0, 0.0, 0.0, 0.0, 1.620215266205934E9, 2021-05-05 13:47:46.205
89.0, 484.6611022949219, -767.8800048828125, 388.2053527832031, 127.3697738647461, -0.14400000870227814, 0.06400000303983688, 1.055999994277954, 0.0, 0.0, 0.0, 0.0, 0.0, 1.62021526621884E9, 2021-05-05 13:47:46.218
89.0, 493.1207580566406, -740.761962890625, 397.8655090332031, 143.11474609375, -0.14400000870227814, 0.06400000303983688, 1.055999994277954, 0.0, 0.0, 0.0, 0.0, 0.0, 1.62021526621884E9, 2021-05-05 13:47:46.218
90.0, 508.3758239746094, -742.7740478515625, 406.478515625, 164.33494567871094, -0.14400000870227814, 0.06400000303983688, 1.055999994277954, 0.0, 0.0, 0.0, 0.0, 0.0, 1.620215266219522E9, 2021-05-05 13:47:46.219
90.0, 485.6820983886719, -770.610107421875, 392.6857604980469, 133.85850524902344, -0.14400000870227814, 0.06400000303983688, 1.055999994277954, 0.0, 0.0, 0.0, 0.0, 0.0, 1.620215266219522E9, 2021-05-05 13:47:46.219
91.0, 484.32452392578125, -760.7293090820312, 384.54400634765625, 130.62722778320312, -0.14400000870227814, 0.06400000303983688, 1.055999994277954, 0.0, 0.0, 0.0, 0.0, 0.0, 1.6202152662331364E9, 2021-05-05 13:47:46.233
91.0, 497.3692932128906, -743.41357421875, 395.034423828125, 156.260498046875, -0.14400000870227814, 0.06400000303983688, 1.055999994277954, 0.0, 0.0, 0.0, 0.0, 0.0, 1.6202152662331364E9, 2021-05-05 13:47:46.233
92.0, 507.2725524902344, -732.6651000976562, 397.03900146484375, 165.26617431640625, -0.14400000870227814, 0.06400000303983688, 1.055999994277954, 0.0, 0.0, 0.0, 0.0, 0.0, 1.6202152662488031E9, 2021-05-05 13:47:46.248
92.0, 477.5440979003906, -774.5557250976562, 386.6757507324219, 131.6257781982422, -0.14400000870227814, 0.06400000303983688, 1.055999994277954, 0.0, 0.0, 0.0, 0.0, 0.0, 1.6202152662488031E9, 2021-05-05 13:47:46.248
93.0, 488.38604736328125, -765.187255859375, 388.9122009277344, 137.6470184326172, -0.14400000870227814, 0.06400000303983688, 1.055999994277954, 0.0, 0.0, 0.0, 0.0, 0.0, 1.6202152662495663E9, 2021-05-05 13:47:46.249
93.0, 502.1675720214844, -747.0076293945312, 396.6949157714844, 163.60940551757812, -0.14400000870227814, 0.06400000303983688, 1.055999994277954, 0.0, 0.0, 0.0, 0.0, 0.0, 1.6202152662495663E9, 2021-05-05 13:47:46.249
94.0, 502.2162170410156, -747.041259765625, 399.44000244140625, 171.4931182861328, -0.14400000870227814, 0.06400000303983688, 1.055999994277954, 0.0, 0.0, 0.0, 0.0, 0.0, 1.620215266263175E9, 2021-05-05 13:47:46.263
94.0, 488.9993896484375, -769.4432983398438, 388.3549499511719, 144.06468200683594, -0.14400000870227814, 0.06400000303983688, 1.055999994277954, 0.0, 0.0, 0.0, 0.0, 0.0, 1.620215266263175E9, 2021-05-05 13:47:46.263
95.0, 484.6461486816406, -762.7413940429688, 390.25482177734375, 142.8118133544922, -0.14400000870227814, 0.06400000303983688, 1.055999994277954, 0.0, 0.0, 0.0, 0.0, 0.0, 1.6202152663098536E9, 2021-05-05 13:47:46.309
95.0, 495.0954284667969, -749.6180419921875, 393.4337463378906, 158.467041015625, -0.14400000870227814, 0.06400000303983688, 1.055999994277954, 0.0, 0.0, 0.0, 0.0, 0.0, 1.6202152663098536E9, 2021-05-05 13:47:46.309
96.0, 506.61431884765625, -738.8770751953125, 403.2023620605469, 167.5363006591797, -0.14400000870227814, 0.06400000303983688, 1.055999994277954, 0.0, 0.0, 0.0, 0.0, 0.0, 1.620215266310564E9, 2021-05-05 13:47:46.310
96.0, 490.9591064453125, -770.479248046875, 392.54364013671875, 136.61854553222656, -0.14400000870227814, 0.06400000303983688, 1.055999994277954, 0.0, 0.0, 0.0, 0.0, 0.0, 1.620215266310564E9, 2021-05-05 13:47:46.310
97.0, 485.42779541015625, -764.3345947265625, 385.40789794921875, 130.7805633544922, -0.14400000870227814, 0.06400000303983688, 1.055999994277954, 0.0, 0.0, 0.0, 0.0, 0.0, 1.6202152663248897E9, 2021-05-05 13:47:46.324
97.0, 502.702392578125, -752.2584228515625, 392.74932861328125, 152.3261260986328, -0.14400000870227814, 0.06400000303983688, 1.055999994277954, 0.0, 0.0, 0.0, 0.0, 0.0, 1.6202152663248897E9, 2021-05-05 13:47:46.324
98.0, 502.76971435546875, -744.3148803710938, 396.7734680175781, 154.45787048339844, -0.14400000870227814, 0.06400000303983688, 1.055999994277954, 0.0, 0.0, 0.0, 0.0, 0.0, 1.6202152663256087E9, 2021-05-05 13:47:46.325
98.0, 480.8950500488281, -767.8575439453125, 381.61566162109375, 126.77513122558594, -0.14400000870227814, 0.06400000303983688, 1.055999994277954, 0.0, 0.0, 0.0, 0.0, 0.0, 1.6202152663256087E9, 2021-05-05 13:47:46.325
99.0, 478.4192199707031, -761.2753295898438, 386.5859680175781, 122.72855377197266, -0.14400000870227814, 0.06400000303983688, 1.055999994277954, 0.0, 0.0, 0.0, 0.0, 0.0, 1.6202152663263636E9, 2021-05-05 13:47:46.326
99.0, 484.8742980957031, -748.4512329101562, 388.2876281738281, 138.22296142578125, -0.14400000870227814, 0.06400000303983688, 1.055999994277954, 0.0, 0.0, 0.0, 0.0, 0.0, 1.6202152663263636E9, 2021-05-05 13:47:46.326
100.0, 500.71649169921875, -746.7084350585938, 394.3761901855469, 152.37100219726562, -0.14400000870227814, 0.06400000303983688, 1.055999994277954, 0.0, 0.0, 0.0, 0.0, 0.0, 1.6202152663399878E9, 2021-05-05 13:47:46.339
100.0, 493.2965393066406, -759.4652099609375, 393.67681884765625, 124.81542205810547, -0.14400000870227814, 0.06400000303983688, 1.055999994277954, 0.0, 0.0, 0.0, 0.0, 0.0, 1.6202152663399878E9, 2021-05-05 13:47:46.339
0.0, 487.5333557128906, -762.0419921875, 384.2261047363281, 119.97785949707031, -0.14400000870227814, 0.06400000303983688, 1.055999994277954, 0.0, 0.0, 0.0, 0.0, 0.0, 1.6202152663406289E9, 2021-05-05 13:47:46.340
1.0, 492.1558837890625, -747.557373046875, 392.6109619140625, 148.1654815673828, -0.14400000870227814, 0.06400000303983688, 1.055999994277954, 0.0, 0.0, 0.0, 0.0, 0.0, 1.6202152663551428E9, 2021-05-05 13:47:46.355
1.0, 499.1943664550781, -745.0142211914062, 395.8721618652344, 161.96945190429688, -0.14400000870227814, 0.06400000303983688, 1.055999994277954, 0.0, 0.0, 0.0, 0.0, 0.0, 1.6202152663551428E9, 2021-05-05 13:47:46.355
2.0, 486.78912353515625, -756.9968872070312, 395.62530517578125, 136.30999755859375, -0.14400000870227814, 0.06400000303983688, 1.055999994277954, 0.0, 0.0, 0.0, 0.0, 0.0, 1.6202152663558664E9, 2021-05-05 13:47:46.355
2.0, 486.91253662109375, -758.4629516601562, 392.2107849121094, 131.34341430664062, -0.14400000870227814, 0.06400000303983688, 1.055999994277954, 0.0, 0.0, 0.0, 0.0, 0.0, 1.6202152663558664E9, 2021-05-05 13:47:46.355
3.0, 499.8974609375, -744.8758544921875, 395.6103515625, 156.53912353515625, -0.14400000870227814, 0.06400000303983688, 1.055999994277954, 0.0, 0.0, 0.0, 0.0, 0.0, 1.6202152663566055E9, 2021-05-05 13:47:46.356
3.0, 506.7340087890625, -749.281494140625, 402.0317687988281, 160.5071563720703, -0.14400000870227814, 0.06400000303983688, 1.055999994277954, 0.0, 0.0, 0.0, 0.0, 0.0, 1.6202152663566055E9, 2021-05-05 13:47:46.356
4.0, 493.9884338378906, -772.0462646484375, 393.0634765625, 138.65866088867188, -0.14400000870227814, 0.06400000303983688, 1.055999994277954, 0.0, 0.0, 0.0, 0.0, 0.0, 1.620215266383506E9, 2021-05-05 13:47:46.383
4.0, 493.4835510253906, -757.7411499023438, 389.3385314941406, 132.79075622558594, -0.14400000870227814, 0.06400000303983688, 1.055999994277954, 0.0, 0.0, 0.0, 0.0, 0.0, 1.620215266383506E9, 2021-05-05 13:47:46.383
5.0, 497.52264404296875, -744.7337646484375, 392.2593994140625, 149.04061889648438, -0.14400000870227814, 0.06400000303983688, 1.055999994277954, 0.0, 0.0, 0.0, 0.0, 0.0, 1.6202152664300373E9, 2021-05-05 13:47:46.430
5.0, 511.0199279785156, -746.8093872070312, 398.7967529296875, 169.60260009765625, -0.14400000870227814, 0.06400000303983688, 1.055999994277954, 0.0, 0.0, 0.0, 0.0, 0.0, 1.6202152664300373E9, 2021-05-05 13:47:46.430
6.0, 494.3324890136719, -773.0896606445312, 386.51116943359375, 139.61233520507812, -0.14400000870227814, 0.06400000303983688, 1.055999994277954, 0.0, 0.0, 0.0, 0.0, 0.0, 1.6202152664307144E9, 2021-05-05 13:47:46.430
6.0, 491.1311340332031, -769.7312622070312, 378.9715270996094, 132.33448791503906, -0.14400000870227814, 0.06400000303983688, 1.055999994277954, 0.0, 0.0, 0.0, 0.0, 0.0, 1.6202152664307144E9, 2021-05-05 13:47:46.430
7.0, 502.9791564941406, -753.9264526367188, 387.61444091796875, 146.94253540039062, -0.14400000870227814, 0.06400000303983688, 1.055999994277954, 0.0, 0.0, 0.0, 0.0, 0.0, 1.6202152664313607E9, 2021-05-05 13:47:46.431
7.0, 508.4020080566406, -761.619384765625, 395.516845703125, 154.2802276611328, -0.14400000870227814, 0.06400000303983688, 1.055999994277954, 0.0, 0.0, 0.0, 0.0, 0.0, 1.6202152664313607E9, 2021-05-05 13:47:46.431
8.0, 489.0106201171875, -767.5882568359375, 387.0908508300781, 134.9486846923828, -0.14400000870227814, 0.06400000303983688, 1.055999994277954, 0.0, 0.0, 0.0, 0.0, 0.0, 1.6202152664458194E9, 2021-05-05 13:47:46.445
8.0, 481.1830139160156, -760.34033203125, 380.104736328125, 118.25003051757812, -0.14400000870227814, 0.06400000303983688, 1.055999994277954, 0.0, 0.0, 0.0, 0.0, 0.0, 1.6202152664458194E9, 2021-05-05 13:47:46.445
9.0, 503.79071044921875, -741.7044677734375, 393.56463623046875, 139.21217346191406, -0.14400000870227814, 0.06400000303983688, 1.055999994277954, 0.0, 0.0, 0.0, 0.0, 0.0, 1.6202152664465437E9, 2021-05-05 13:47:46.446
9.0, 510.1448059082031, -747.4826049804688, 399.5148010253906, 143.69630432128906, -0.14400000870227814, 0.06400000303983688, 1.055999994277954, 0.0, 0.0, 0.0, 0.0, 0.0, 1.6202152664465437E9, 2021-05-05 13:47:46.446
10.0, 494.2651672363281, -764.0877685546875, 388.1941223144531, 128.35897827148438, -0.14400000870227814, 0.06400000303983688, 1.040000081062317, 0.0, 0.0, 0.0, 0.0, 0.0, 1.6202152664472914E9, 2021-05-05 13:47:46.447
10.0, 493.5957336425781, -765.3667602539062, 391.6011962890625, 126.12999725341797, -0.14400000870227814, 0.06400000303983688, 1.040000081062317, 0.0, 0.0, 0.0, 0.0, 0.0, 1.6202152664472914E9, 2021-05-05 13:47:46.447
11.0, 503.5513610839844, -739.3109130859375, 392.45013427734375, 144.2647705078125, -0.14400000870227814, 0.06400000303983688, 1.040000081062317, 0.0, 0.0, 0.0, 0.0, 0.0, 1.6202152664758148E9, 2021-05-05 13:47:46.475
11.0, 501.1839904785156, -746.0726318359375, 393.2916259765625, 154.71778869628906, -0.14400000870227814, 0.06400000303983688, 1.040000081062317, 0.0, 0.0, 0.0, 0.0, 0.0, 1.6202152664758148E9, 2021-05-05 13:47:46.475
12.0, 487.8175964355469, -770.797119140625, 392.2070617675781, 135.82008361816406, -0.14400000870227814, 0.06400000303983688, 1.040000081062317, 0.0, 0.0, 0.0, 0.0, 0.0, 1.6202152664765303E9, 2021-05-05 13:47:46.476
12.0, 490.7197570800781, -758.6760864257812, 392.124755859375, 127.94758605957031, -0.14400000870227814, 0.06400000303983688, 1.040000081062317, 0.0, 0.0, 0.0, 0.0, 0.0, 1.6202152664765303E9, 2021-05-05 13:47:46.476
13.0, 508.6899719238281, -744.5953979492188, 398.404052734375, 153.8576202392578, -0.14400000870227814, 0.06400000303983688, 1.040000081062317, 0.0, 0.0, 0.0, 0.0, 0.0, 1.6202152664772832E9, 2021-05-05 13:47:46.477
13.0, 522.5463256835938, -746.4317016601562, 407.9632568359375, 168.1365509033203, -0.14400000870227814, 0.06400000303983688, 1.040000081062317, 0.0, 0.0, 0.0, 0.0, 0.0, 1.6202152664772832E9, 2021-05-05 13:47:46.477
14.0, 492.4775085449219, -770.9205322265625, 391.64605712890625, 140.42015075683594, -0.14400000870227814, 0.06400000303983688, 1.040000081062317, 0.0, 0.0, 0.0, 0.0, 0.0, 1.6202152664781194E9, 2021-05-05 13:47:46.478
14.0, 495.19268798828125, -764.7796020507812, 390.7784118652344, 138.74093627929688, -0.14400000870227814, 0.06400000303983688, 1.040000081062317, 0.0, 0.0, 0.0, 0.0, 0.0, 1.6202152664781194E9, 2021-05-05 13:47:46.478
15.0, 499.5870666503906, -755.8936157226562, 399.92620849609375, 158.22581481933594, -0.14400000870227814, 0.06400000303983688, 1.040000081062317, 0.0, 0.0, 0.0, 0.0, 0.0, 1.6202152664888096E9, 2021-05-05 13:47:46.488
15.0, 508.8657531738281, -755.9908447265625, 401.5792236328125, 175.1226806640625, -0.14400000870227814, 0.06400000303983688, 1.040000081062317, 0.0, 0.0, 0.0, 0.0, 0.0, 1.6202152664888096E9, 2021-05-05 13:47:46.488
16.0, 482.7350769042969, -762.804931640625, 393.64691162109375, 151.57254028320312, -0.14400000870227814, 0.06400000303983688, 1.040000081062317, 0.0, 0.0, 0.0, 0.0, 0.0, 1.620215266489509E9, 2021-05-05 13:47:46.489
16.0, 485.225830078125, -762.4534301757812, 394.36871337890625, 144.79957580566406, -0.14400000870227814, 0.06400000303983688, 1.040000081062317, 0.0, 0.0, 0.0, 0.0, 0.0, 1.620215266489509E9, 2021-05-05 13:47:46.489
17.0, 497.6834411621094, -742.8526000976562, 396.7061462402344, 151.91287231445312, -0.14400000870227814, 0.06400000303983688, 1.040000081062317, 0.0, 0.0, 0.0, 0.0, 0.0, 1.6202152665365536E9, 2021-05-05 13:47:46.536
17.0, 504.8042297363281, -755.8599853515625, 395.46075439453125, 157.9116668701172, -0.14400000870227814, 0.06400000303983688, 1.040000081062317, 0.0, 0.0, 0.0, 0.0, 0.0, 1.6202152665365536E9, 2021-05-05 13:47:46.536
18.0, 491.86041259765625, -771.4254150390625, 391.32818603515625, 138.3744354248047, -0.14400000870227814, 0.06400000303983688, 1.040000081062317, 0.0, 0.0, 0.0, 0.0, 0.0, 1.6202152665372229E9, 2021-05-05 13:47:46.537
18.0, 490.5402526855469, -763.9642944335938, 386.2680969238281, 127.89897155761719, -0.14400000870227814, 0.06400000303983688, 1.040000081062317, 0.0, 0.0, 0.0, 0.0, 0.0, 1.6202152665372229E9, 2021-05-05 13:47:46.537
19.0, 507.9569396972656, -750.9158325195312, 394.2415466308594, 146.8901824951172, -0.14400000870227814, 0.06400000303983688, 1.040000081062317, 0.0, 0.0, 0.0, 0.0, 0.0, 1.6202152665380025E9, 2021-05-05 13:47:46.538
19.0, 497.6946716308594, -740.1710815429688, 402.55908203125, 160.78016662597656, -0.14400000870227814, 0.06400000303983688, 1.040000081062317, 0.0, 0.0, 0.0, 0.0, 0.0, 1.6202152665380025E9, 2021-05-05 13:47:46.538
20.0, 489.8184509277344, -766.5560913085938, 389.7461853027344, 135.25535583496094, -0.14400000870227814, 0.06400000303983688, 1.055999994277954, 0.0, 0.0, 0.0, 0.0, 0.0, 1.6202152665387533E9, 2021-05-05 13:47:46.538
20.0, 483.7597961425781, -763.9119873046875, 385.85296630859375, 128.4973602294922, -0.14400000870227814, 0.06400000303983688, 1.055999994277954, 0.0, 0.0, 0.0, 0.0, 0.0, 1.6202152665387533E9, 2021-05-05 13:47:46.538
21.0, 495.084228515625, -745.4742431640625, 394.8511657714844, 145.31942749023438, -0.14400000870227814, 0.06400000303983688, 1.055999994277954, 0.0, 0.0, 0.0, 0.0, 0.0, 1.620215266581355E9, 2021-05-05 13:47:46.581
21.0, 510.65716552734375, -745.844482421875, 401.3211975097656, 158.9775390625, -0.14400000870227814, 0.06400000303983688, 1.055999994277954, 0.0, 0.0, 0.0, 0.0, 0.0, 1.620215266581355E9, 2021-05-05 13:47:46.581
22.0, 482.7537536621094, -765.3443603515625, 389.19268798828125, 137.95556640625, -0.14400000870227814, 0.06400000303983688, 1.055999994277954, 0.0, 0.0, 0.0, 0.0, 0.0, 1.6202152665821178E9, 2021-05-05 13:47:46.582
22.0, 487.6156311035156, -756.1068115234375, 391.71337890625, 134.1707763671875, -0.14400000870227814, 0.06400000303983688, 1.055999994277954, 0.0, 0.0, 0.0, 0.0, 0.0, 1.6202152665821178E9, 2021-05-05 13:47:46.582
23.0, 495.4619445800781, -747.4190063476562, 391.2982482910156, 147.7952423095703, -0.14400000870227814, 0.06400000303983688, 1.055999994277954, 0.0, 0.0, 0.0, 0.0, 0.0, 1.6202152665828907E9, 2021-05-05 13:47:46.582
23.0, 508.2411804199219, -746.3232421875, 402.55535888671875, 162.78475952148438, -0.14400000870227814, 0.06400000303983688, 1.055999994277954, 0.0, 0.0, 0.0, 0.0, 0.0, 1.6202152665828907E9, 2021-05-05 13:47:46.582
24.0, 481.9571533203125, -761.8325805664062, 397.7121887207031, 136.0482177734375, -0.14400000870227814, 0.06400000303983688, 1.055999994277954, 0.0, 0.0, 0.0, 0.0, 0.0, 1.6202152665836115E9, 2021-05-05 13:47:46.583
24.0, 494.10809326171875, -760.115966796875, 398.4638977050781, 138.07150268554688, -0.14400000870227814, 0.06400000303983688, 1.055999994277954, 0.0, 0.0, 0.0, 0.0, 0.0, 1.6202152665836115E9, 2021-05-05 13:47:46.583
25.0, 492.4139404296875, -744.6066284179688, 389.9107360839844, 152.84783935546875, -0.14400000870227814, 0.06400000303983688, 1.055999994277954, 0.0, 0.0, 0.0, 0.0, 0.0, 1.6202152665945718E9, 2021-05-05 13:47:46.594
25.0, 502.88189697265625, -746.7570190429688, 401.8260803222656, 169.34828186035156, -0.14400000870227814, 0.06400000303983688, 1.055999994277954, 0.0, 0.0, 0.0, 0.0, 0.0, 1.6202152665945718E9, 2021-05-05 13:47:46.594
26.0, 486.0299072265625, -770.57275390625, 390.72979736328125, 140.77169799804688, -0.14400000870227814, 0.06400000303983688, 1.055999994277954, 0.0, 0.0, 0.0, 0.0, 0.0, 1.6202152665953152E9, 2021-05-05 13:47:46.595
26.0, 486.0187072753906, -755.033447265625, 387.2666320800781, 133.5050811767578, -0.14400000870227814, 0.06400000303983688, 1.055999994277954, 0.0, 0.0, 0.0, 0.0, 0.0, 1.6202152665953152E9, 2021-05-05 13:47:46.595
27.0, 497.08880615234375, -743.0358276367188, 388.4521789550781, 146.37033081054688, -0.14400000870227814, 0.06400000303983688, 1.055999994277954, 0.0, 0.0, 0.0, 0.0, 0.0, 1.6202152665961196E9, 2021-05-05 13:47:46.596
27.0, 500.9109802246094, -742.25048828125, 389.7162780761719, 150.409423828125, -0.14400000870227814, 0.06400000303983688, 1.055999994277954, 0.0, 0.0, 0.0, 0.0, 0.0, 1.6202152665961196E9, 2021-05-05 13:47:46.596
28.0, 491.176025390625, -762.0943603515625, 379.3343200683594, 125.74478912353516, -0.14400000870227814, 0.06400000303983688, 1.055999994277954, 0.0, 0.0, 0.0, 0.0, 0.0, 1.6202152666081684E9, 2021-05-05 13:47:46.608
28.0, 487.88116455078125, -754.1845092773438, 382.2589111328125, 116.87374114990234, -0.14400000870227814, 0.06400000303983688, 1.055999994277954, 0.0, 0.0, 0.0, 0.0, 0.0, 1.6202152666081684E9, 2021-05-05 13:47:46.608
29.0, 498.4314270019531, -740.1299438476562, 384.517822265625, 136.14544677734375, -0.14400000870227814, 0.06400000303983688, 1.055999994277954, 0.0, 0.0, 0.0, 0.0, 0.0, 1.6202152666237493E9, 2021-05-05 13:47:46.623
29.0, 502.60888671875, -747.3629150390625, 391.6946716308594, 139.84420776367188, -0.14400000870227814, 0.06400000303983688, 1.055999994277954, 0.0, 0.0, 0.0, 0.0, 0.0, 1.6202152666237493E9, 2021-05-05 13:47:46.623
30.0, 488.09808349609375, -768.48583984375, 383.7885437011719, 111.00958251953125, -0.14400000870227814, 0.06400000303983688, 1.040000081062317, 0.0, 0.0, 0.0, 0.0, 0.0, 1.620215266624519E9, 2021-05-05 13:47:46.624
30.0, 491.9202575683594, -760.86767578125, 384.2896728515625, 110.97966003417969, -0.14400000870227814, 0.06400000303983688, 1.040000081062317, 0.0, 0.0, 0.0, 0.0, 0.0, 1.620215266624519E9, 2021-05-05 13:47:46.624
31.0, 496.7035827636719, -740.619873046875, 386.22320556640625, 133.56491088867188, -0.14400000870227814, 0.06400000303983688, 1.040000081062317, 0.0, 0.0, 0.0, 0.0, 0.0, 1.6202152666702006E9, 2021-05-05 13:47:46.670
31.0, 516.3941650390625, -738.8883056640625, 388.47088623046875, 151.02276611328125, -0.14400000870227814, 0.06400000303983688, 1.040000081062317, 0.0, 0.0, 0.0, 0.0, 0.0, 1.6202152666702006E9, 2021-05-05 13:47:46.670
32.0, 493.6069641113281, -759.446533203125, 382.3524169921875, 127.2856216430664, -0.14400000870227814, 0.06400000303983688, 1.040000081062317, 0.0, 0.0, 0.0, 0.0, 0.0, 1.6202152666708524E9, 2021-05-05 13:47:46.670
32.0, 484.8443603515625, -754.2144165039062, 380.6993713378906, 131.8931884765625, -0.14400000870227814, 0.06400000303983688, 1.040000081062317, 0.0, 0.0, 0.0, 0.0, 0.0, 1.6202152666708524E9, 2021-05-05 13:47:46.670
33.0, 503.4279479980469, -746.9215698242188, 390.84197998046875, 148.86859130859375, -0.14400000870227814, 0.06400000303983688, 1.040000081062317, 0.0, 0.0, 0.0, 0.0, 0.0, 1.620215266685813E9, 2021-05-05 13:47:46.685
33.0, 511.8090515136719, -745.30224609375, 396.53411865234375, 165.9674072265625, -0.14400000870227814, 0.06400000303983688, 1.040000081062317, 0.0, 0.0, 0.0, 0.0, 0.0, 1.620215266685813E9, 2021-05-05 13:47:46.685
34.0, 486.69189453125, -769.072998046875, 387.65557861328125, 141.10829162597656, -0.14400000870227814, 0.06400000303983688, 1.040000081062317, 0.0, 0.0, 0.0, 0.0, 0.0, 1.620215266686553E9, 2021-05-05 13:47:46.686
34.0, 491.1573181152344, -763.167724609375, 389.600341796875, 136.30999755859375, -0.14400000870227814, 0.06400000303983688, 1.040000081062317, 0.0, 0.0, 0.0, 0.0, 0.0, 1.620215266686553E9, 2021-05-05 13:47:46.686
35.0, 502.5976867675781, -736.887451171875, 395.4158935546875, 154.8636474609375, -0.14400000870227814, 0.06400000303983688, 1.040000081062317, 0.0, 0.0, 0.0, 0.0, 0.0, 1.620215266687272E9, 2021-05-05 13:47:46.687
35.0, 504.7144470214844, -746.394287109375, 397.2110290527344, 160.14064025878906, -0.14400000870227814, 0.06400000303983688, 1.040000081062317, 0.0, 0.0, 0.0, 0.0, 0.0, 1.620215266687272E9, 2021-05-05 13:47:46.687
36.0, 491.87164306640625, -760.6058959960938, 386.9225769042969, 140.13592529296875, -0.14400000870227814, 0.06400000303983688, 1.040000081062317, 0.0, 0.0, 0.0, 0.0, 0.0, 1.620215266688012E9, 2021-05-05 13:47:46.688
36.0, 486.2243957519531, -753.0213623046875, 388.14178466796875, 141.15316772460938, -0.14400000870227814, 0.06400000303983688, 1.040000081062317, 0.0, 0.0, 0.0, 0.0, 0.0, 1.620215266688012E9, 2021-05-05 13:47:46.688
37.0, 503.1437072753906, -751.1888427734375, 395.77490234375, 159.75543212890625, -0.14400000870227814, 0.06400000303983688, 1.040000081062317, 0.0, 0.0, 0.0, 0.0, 0.0, 1.6202152667142751E9, 2021-05-05 13:47:46.714
37.0, 506.20294189453125, -748.4512329101562, 398.908935546875, 171.09481811523438, -0.14400000870227814, 0.06400000303983688, 1.040000081062317, 0.0, 0.0, 0.0, 0.0, 0.0, 1.6202152667142751E9, 2021-05-05 13:47:46.714
38.0, 491.9501953125, -762.9620361328125, 390.6923828125, 138.5053253173828, -0.14400000870227814, 0.06400000303983688, 1.040000081062317, 0.0, 0.0, 0.0, 0.0, 0.0, 1.6202152667150176E9, 2021-05-05 13:47:46.715
38.0, 487.772705078125, -760.52734375, 388.0295715332031, 136.72886657714844, -0.14400000870227814, 0.06400000303983688, 1.040000081062317, 0.0, 0.0, 0.0, 0.0, 0.0, 1.6202152667150176E9, 2021-05-05 13:47:46.715
39.0, 499.2467346191406, -741.21826171875, 397.76080322265625, 150.89935302734375, -0.14400000870227814, 0.06400000303983688, 1.040000081062317, 0.0, 0.0, 0.0, 0.0, 0.0, 1.6202152667287645E9, 2021-05-05 13:47:46.728
39.0, 506.775146484375, -740.18603515625, 400.7901306152344, 160.33511352539062, -0.14400000870227814, 0.06400000303983688, 1.040000081062317, 0.0, 0.0, 0.0, 0.0, 0.0, 1.6202152667287645E9, 2021-05-05 13:47:46.728
40.0, 494.9046936035156, -762.3374633789062, 395.77117919921875, 137.83213806152344, -0.14400000870227814, 0.06400000303983688, 1.040000081062317, 0.0, 0.0, 0.0, 0.0, 0.0, 1.620215266729495E9, 2021-05-05 13:47:46.729
40.0, 486.8040771484375, -755.351318359375, 392.9213562011719, 129.45851135253906, -0.14400000870227814, 0.06400000303983688, 1.040000081062317, 0.0, 0.0, 0.0, 0.0, 0.0, 1.620215266729495E9, 2021-05-05 13:47:46.729
41.0, 496.1986999511719, -735.4513549804688, 393.145751953125, 143.19142150878906, -0.14400000870227814, 0.06400000303983688, 1.040000081062317, 0.0, 0.0, 0.0, 0.0, 0.0, 1.6202152667585523E9, 2021-05-05 13:47:46.758
41.0, 508.6338806152344, -743.4434814453125, 397.0315246582031, 153.4649200439453, -0.14400000870227814, 0.06400000303983688, 1.040000081062317, 0.0, 0.0, 0.0, 0.0, 0.0, 1.6202152667585523E9, 2021-05-05 13:47:46.758
42.0, 499.6581115722656, -766.7730102539062, 392.4351806640625, 135.40121459960938, -0.14400000870227814, 0.06400000303983688, 1.040000081062317, 0.0, 0.0, 0.0, 0.0, 0.0, 1.620215266774944E9, 2021-05-05 13:47:46.774
42.0, 491.0413818359375, -750.0406494140625, 392.4052734375, 131.56407165527344, -0.14400000870227814, 0.06400000303983688, 1.040000081062317, 0.0, 0.0, 0.0, 0.0, 0.0, 1.620215266774944E9, 2021-05-05 13:47:46.774
43.0, 492.4101867675781, -737.6092529296875, 392.5473937988281, 143.64395141601562, -0.14400000870227814, 0.06400000303983688, 1.040000081062317, 0.0, 0.0, 0.0, 0.0, 0.0, 1.6202152667755606E9, 2021-05-05 13:47:46.775
43.0, 514.8458251953125, -738.424560546875, 402.87322998046875, 156.75604248046875, -0.14400000870227814, 0.06400000303983688, 1.040000081062317, 0.0, 0.0, 0.0, 0.0, 0.0, 1.6202152667755606E9, 2021-05-05 13:47:46.775
44.0, 489.0891418457031, -753.5000610351562, 385.70709228515625, 133.8454132080078, -0.14400000870227814, 0.06400000303983688, 1.040000081062317, 0.0, 0.0, 0.0, 0.0, 0.0, 1.6202152668059232E9, 2021-05-05 13:47:46.805
44.0, 495.9705810546875, -757.81591796875, 388.5569152832031, 132.6897735595703, -0.14400000870227814, 0.06400000303983688, 1.040000081062317, 0.0, 0.0, 0.0, 0.0, 0.0, 1.6202152668059232E9, 2021-05-05 13:47:46.805
45.0, 503.8804626464844, -733.8506469726562, 390.67742919921875, 147.56710815429688, -0.14400000870227814, 0.06400000303983688, 1.040000081062317, 0.0, 0.0, 0.0, 0.0, 0.0, 1.6202152668066695E9, 2021-05-05 13:47:46.806
45.0, 513.3386840820312, -750.4932250976562, 402.0130615234375, 158.4988250732422, -0.14400000870227814, 0.06400000303983688, 1.040000081062317, 0.0, 0.0, 0.0, 0.0, 0.0, 1.6202152668066695E9, 2021-05-05 13:47:46.806
46.0, 488.9171142578125, -767.5733032226562, 387.7640380859375, 132.03155517578125, -0.14400000870227814, 0.06400000303983688, 1.040000081062317, 0.0, 0.0, 0.0, 0.0, 0.0, 1.6202152668072891E9, 2021-05-05 13:47:46.807
46.0, 490.9553527832031, -764.1475830078125, 393.4786071777344, 134.66818237304688, -0.14400000870227814, 0.06400000303983688, 1.040000081062317, 0.0, 0.0, 0.0, 0.0, 0.0, 1.6202152668072891E9, 2021-05-05 13:47:46.807
47.0, 502.6986389160156, -738.390869140625, 392.4277038574219, 151.79318237304688, -0.14400000870227814, 0.06400000303983688, 1.040000081062317, 0.0, 0.0, 0.0, 0.0, 0.0, 1.6202152668081388E9, 2021-05-05 13:47:46.808
47.0, 512.044677734375, -737.4821166992188, 399.0772399902344, 160.95968627929688, -0.14400000870227814, 0.06400000303983688, 1.040000081062317, 0.0, 0.0, 0.0, 0.0, 0.0, 1.6202152668081388E9, 2021-05-05 13:47:46.808
48.0, 489.7660827636719, -755.3551025390625, 385.7632141113281, 127.42400360107422, -0.14400000870227814, 0.06400000303983688, 1.040000081062317, 0.0, 0.0, 0.0, 0.0, 0.0, 1.6202152668188717E9, 2021-05-05 13:47:46.818
48.0, 487.6979064941406, -755.527099609375, 387.70794677734375, 125.6961669921875, -0.14400000870227814, 0.06400000303983688, 1.040000081062317, 0.0, 0.0, 0.0, 0.0, 0.0, 1.6202152668188717E9, 2021-05-05 13:47:46.818
49.0, 501.8235168457031, -742.321533203125, 393.6020202636719, 147.80645751953125, -0.14400000870227814, 0.06400000303983688, 1.040000081062317, 0.0, 0.0, 0.0, 0.0, 0.0, 1.6202152668195837E9, 2021-05-05 13:47:46.819
49.0, 513.5967407226562, -736.853759765625, 406.2428894042969, 159.0149383544922, -0.14400000870227814, 0.06400000303983688, 1.040000081062317, 0.0, 0.0, 0.0, 0.0, 0.0, 1.6202152668195837E9, 2021-05-05 13:47:46.819
50.0, 491.4677429199219, -771.9564819335938, 388.54193115234375, 128.38890075683594, -0.14400000870227814, 0.06400000303983688, 1.040000081062317, 0.0, 0.0, 0.0, 0.0, 0.0, 1.6202152668509152E9, 2021-05-05 13:47:46.850
50.0, 481.60186767578125, -759.2408447265625, 386.98614501953125, 126.64236450195312, -0.14400000870227814, 0.06400000303983688, 1.040000081062317, 0.0, 0.0, 0.0, 0.0, 0.0, 1.6202152668509152E9, 2021-05-05 13:47:46.850
51.0, 503.0240173339844, -747.0711669921875, 397.1773681640625, 147.8176727294922, -0.14400000870227814, 0.06400000303983688, 1.040000081062317, 0.0, 0.0, 0.0, 0.0, 0.0, 1.6202152668516903E9, 2021-05-05 13:47:46.851
51.0, 514.13525390625, -740.784423828125, 402.5179443359375, 159.1046905517578, -0.14400000870227814, 0.06400000303983688, 1.040000081062317, 0.0, 0.0, 0.0, 0.0, 0.0, 1.6202152668516903E9, 2021-05-05 13:47:46.851
52.0, 483.30352783203125, -773.42626953125, 393.2055969238281, 127.82042694091797, -0.14400000870227814, 0.06400000303983688, 1.040000081062317, 0.0, 0.0, 0.0, 0.0, 0.0, 1.6202152668525012E9, 2021-05-05 13:47:46.852
52.0, 493.49102783203125, -760.4188842773438, 394.03961181640625, 130.1466522216797, -0.14400000870227814, 0.06400000303983688, 1.040000081062317, 0.0, 0.0, 0.0, 0.0, 0.0, 1.6202152668525012E9, 2021-05-05 13:47:46.852
53.0, 500.49212646484375, -743.0470581054688, 397.2372131347656, 149.67266845703125, -0.14400000870227814, 0.06400000303983688, 1.040000081062317, 0.0, 0.0, 0.0, 0.0, 0.0, 1.6202152668531861E9, 2021-05-05 13:47:46.853
53.0, 507.4109191894531, -750.1790771484375, 399.9224548339844, 156.4306640625, -0.14400000870227814, 0.06400000303983688, 1.040000081062317, 0.0, 0.0, 0.0, 0.0, 0.0, 1.6202152668531861E9, 2021-05-05 13:47:46.853
54.0, 488.3337097167969, -764.1064453125, 390.8681640625, 132.29335021972656, -0.14400000870227814, 0.06400000303983688, 1.040000081062317, 0.0, 0.0, 0.0, 0.0, 0.0, 1.620215266863122E9, 2021-05-05 13:47:46.863
54.0, 491.6584777832031, -757.0567016601562, 392.476318359375, 127.4202651977539, -0.14400000870227814, 0.06400000303983688, 1.040000081062317, 0.0, 0.0, 0.0, 0.0, 0.0, 1.620215266863122E9, 2021-05-05 13:47:46.863
55.0, 499.13079833984375, -749.8013305664062, 395.5056457519531, 150.1251983642578, -0.14400000870227814, 0.06400000303983688, 1.040000081062317, 0.0, 0.0, 0.0, 0.0, 0.0, 1.6202152668782096E9, 2021-05-05 13:47:46.878
55.0, 501.4121398925781, -730.2977294921875, 396.86322021484375, 158.71200561523438, -0.14400000870227814, 0.06400000303983688, 1.040000081062317, 0.0, 0.0, 0.0, 0.0, 0.0, 1.6202152668782096E9, 2021-05-05 13:47:46.878
56.0, 480.2966613769531, -757.31103515625, 376.42840576171875, 127.54741668701172, -0.14400000870227814, 0.06400000303983688, 1.040000081062317, 0.0, 0.0, 0.0, 0.0, 0.0, 1.6202152668937764E9, 2021-05-05 13:47:46.893
56.0, 477.443115234375, -742.2803955078125, 378.3544616699219, 129.82501220703125, -0.14400000870227814, 0.06400000303983688, 1.040000081062317, 0.0, 0.0, 0.0, 0.0, 0.0, 1.6202152668937764E9, 2021-05-05 13:47:46.893
57.0, 499.42999267578125, -732.7997436523438, 388.8486328125, 151.82684326171875, -0.14400000870227814, 0.06400000303983688, 1.040000081062317, 0.0, 0.0, 0.0, 0.0, 0.0, 1.62021526689447E9, 2021-05-05 13:47:46.894
57.0, 503.3606262207031, -736.8088989257812, 395.77490234375, 158.44273376464844, -0.14400000870227814, 0.06400000303983688, 1.040000081062317, 0.0, 0.0, 0.0, 0.0, 0.0, 1.62021526689447E9, 2021-05-05 13:47:46.894
58.0, 483.4568786621094, -756.0693969726562, 386.78045654296875, 124.85842895507812, -0.14400000870227814, 0.06400000303983688, 1.040000081062317, 0.0, 0.0, 0.0, 0.0, 0.0, 1.6202152669080956E9, 2021-05-05 13:47:46.908
58.0, 492.0848083496094, -754.2443237304688, 389.84716796875, 125.15388488769531, -0.14400000870227814, 0.06400000303983688, 1.040000081062317, 0.0, 0.0, 0.0, 0.0, 0.0, 1.6202152669080956E9, 2021-05-05 13:47:46.908
59.0, 504.7107238769531, -733.6898193359375, 394.58563232421875, 143.8795623779297, -0.14400000870227814, 0.06400000303983688, 1.040000081062317, 0.0, 0.0, 0.0, 0.0, 0.0, 1.6202152669241884E9, 2021-05-05 13:47:46.924
59.0, 509.2920837402344, -737.5643920898438, 403.8157043457031, 152.28684997558594, -0.14400000870227814, 0.06400000303983688, 1.040000081062317, 0.0, 0.0, 0.0, 0.0, 0.0, 1.6202152669241884E9, 2021-05-05 13:47:46.924
60.0, 490.4242858886719, -755.2166748046875, 386.97491455078125, 122.71173095703125, -0.14400000870227814, 0.06400000303983688, 1.055999994277954, 0.0, 0.0, 0.0, 0.0, 0.0, 1.620215266938589E9, 2021-05-05 13:47:46.938
60.0, 491.6285400390625, -752.0228271484375, 393.72918701171875, 124.70135498046875, -0.14400000870227814, 0.06400000303983688, 1.055999994277954, 0.0, 0.0, 0.0, 0.0, 0.0, 1.620215266938589E9, 2021-05-05 13:47:46.938
61.0, 502.8706970214844, -732.4594116210938, 401.3623352050781, 149.24258422851562, -0.14400000870227814, 0.06400000303983688, 1.055999994277954, 0.0, 0.0, 0.0, 0.0, 0.0, 1.6202152669548724E9, 2021-05-05 13:47:46.954
61.0, 505.2305603027344, -735.0848388671875, 399.436279296875, 156.87571716308594, -0.14400000870227814, 0.06400000303983688, 1.055999994277954, 0.0, 0.0, 0.0, 0.0, 0.0, 1.6202152669548724E9, 2021-05-05 13:47:46.954
62.0, 482.7762145996094, -764.3569946289062, 384.0054626464844, 130.62161254882812, -0.14400000870227814, 0.06400000303983688, 1.055999994277954, 0.0, 0.0, 0.0, 0.0, 0.0, 1.6202152669556868E9, 2021-05-05 13:47:46.955
62.0, 483.7523193359375, -746.4690551757812, 385.6435241699219, 131.39202880859375, -0.14400000870227814, 0.06400000303983688, 1.055999994277954, 0.0, 0.0, 0.0, 0.0, 0.0, 1.6202152669556868E9, 2021-05-05 13:47:46.955
63.0, 501.528076171875, -731.5842895507812, 402.03924560546875, 158.7344512939453, -0.14400000870227814, 0.06400000303983688, 1.055999994277954, 0.0, 0.0, 0.0, 0.0, 0.0, 1.6202152669852347E9, 2021-05-05 13:47:46.985
63.0, 507.8447570800781, -743.3761596679688, 400.8611755371094, 166.9098663330078, -0.14400000870227814, 0.06400000303983688, 1.055999994277954, 0.0, 0.0, 0.0, 0.0, 0.0, 1.6202152669852347E9, 2021-05-05 13:47:46.985
64.0, 489.74737548828125, -756.701416015625, 397.24468994140625, 148.45346069335938, -0.14400000870227814, 0.06400000303983688, 1.055999994277954, 0.0, 0.0, 0.0, 0.0, 0.0, 1.620215266985999E9, 2021-05-05 13:47:46.985
64.0, 480.0311279296875, -751.1663818359375, 391.3917541503906, 141.3326873779297, -0.14400000870227814, 0.06400000303983688, 1.055999994277954, 0.0, 0.0, 0.0, 0.0, 0.0, 1.620215266985999E9, 2021-05-05 13:47:46.985
65.0, 494.1941223144531, -730.0247192382812, 396.5303649902344, 164.1797332763672, -0.14400000870227814, 0.06400000303983688, 1.055999994277954, 0.0, 0.0, 0.0, 0.0, 0.0, 1.620215266986836E9, 2021-05-05 13:47:46.986
65.0, 503.5924987792969, -745.4480590820312, 399.50360107421875, 173.16671752929688, -0.14400000870227814, 0.06400000303983688, 1.055999994277954, 0.0, 0.0, 0.0, 0.0, 0.0, 1.620215266986836E9, 2021-05-05 13:47:46.986
66.0, 491.0712890625, -758.9266967773438, 389.9743347167969, 144.59014892578125, -0.14400000870227814, 0.06400000303983688, 1.055999994277954, 0.0, 0.0, 0.0, 0.0, 0.0, 1.6202152669876063E9, 2021-05-05 13:47:46.987
66.0, 485.577392578125, -754.0760498046875, 390.8905944824219, 136.35862731933594, -0.14400000870227814, 0.06400000303983688, 1.055999994277954, 0.0, 0.0, 0.0, 0.0, 0.0, 1.6202152669876063E9, 2021-05-05 13:47:46.987
67.0, 501.44952392578125, -733.8207397460938, 390.2062072753906, 156.8495330810547, -0.14400000870227814, 0.06400000303983688, 1.055999994277954, 0.0, 0.0, 0.0, 0.0, 0.0, 1.6202152669981887E9, 2021-05-05 13:47:46.998
67.0, 509.0303039550781, -747.0375366210938, 395.4981689453125, 169.1986846923828, -0.14400000870227814, 0.06400000303983688, 1.055999994277954, 0.0, 0.0, 0.0, 0.0, 0.0, 1.6202152669981887E9, 2021-05-05 13:47:46.998
68.0, 482.8210754394531, -757.5653686523438, 378.82568359375, 137.12530517578125, -0.14400000870227814, 0.06400000303983688, 1.055999994277954, 0.0, 0.0, 0.0, 0.0, 0.0, 1.6202152670294569E9, 2021-05-05 13:47:47.029
68.0, 481.9609069824219, -754.9025268554688, 382.980712890625, 145.4091796875, -0.14400000870227814, 0.06400000303983688, 1.055999994277954, 0.0, 0.0, 0.0, 0.0, 0.0, 1.6202152670294569E9, 2021-05-05 13:47:47.029
69.0, 496.2248840332031, -740.3131713867188, 390.9167785644531, 158.40907287597656, -0.14400000870227814, 0.06400000303983688, 1.055999994277954, 0.0, 0.0, 0.0, 0.0, 0.0, 1.620215267030169E9, 2021-05-05 13:47:47.030
69.0, 498.9101257324219, -735.6981811523438, 395.011962890625, 164.4564971923828, -0.14400000870227814, 0.06400000303983688, 1.055999994277954, 0.0, 0.0, 0.0, 0.0, 0.0, 1.620215267030169E9, 2021-05-05 13:47:47.030
70.0, 481.72528076171875, -771.4104614257812, 386.51116943359375, 130.18031311035156, -0.14400000870227814, 0.06400000303983688, 1.040000081062317, 0.0, 0.0, 0.0, 0.0, 0.0, 1.6202152670310068E9, 2021-05-05 13:47:47.031
70.0, 492.4625549316406, -754.1433715820312, 391.4216613769531, 127.65213775634766, -0.14400000870227814, 0.06400000303983688, 1.040000081062317, 0.0, 0.0, 0.0, 0.0, 0.0, 1.6202152670310068E9, 2021-05-05 13:47:47.031
71.0, 499.6169738769531, -739.5913696289062, 393.22802734375, 146.90139770507812, -0.14400000870227814, 0.06400000303983688, 1.040000081062317, 0.0, 0.0, 0.0, 0.0, 0.0, 1.6202152670438886E9, 2021-05-05 13:47:47.043
71.0, 504.0151062011719, -740.0962524414062, 399.589599609375, 162.34718322753906, -0.14400000870227814, 0.06400000303983688, 1.040000081062317, 0.0, 0.0, 0.0, 0.0, 0.0, 1.6202152670438886E9, 2021-05-05 13:47:47.043
72.0, 486.3291015625, -769.9219970703125, 385.33685302734375, 133.72947692871094, -0.14400000870227814, 0.06400000303983688, 1.040000081062317, 0.0, 0.0, 0.0, 0.0, 0.0, 1.62021526704459E9, 2021-05-05 13:47:47.044
72.0, 487.25286865234375, -755.0596313476562, 384.2934265136719, 135.4124298095703, -0.14400000870227814, 0.06400000303983688, 1.040000081062317, 0.0, 0.0, 0.0, 0.0, 0.0, 1.62021526704459E9, 2021-05-05 13:47:47.044
73.0, 497.8143310546875, -741.37158203125, 393.86383056640625, 155.2077178955078, -0.14400000870227814, 0.06400000303983688, 1.040000081062317, 0.0, 0.0, 0.0, 0.0, 0.0, 1.6202152670581272E9, 2021-05-05 13:47:47.058
73.0, 497.9975891113281, -740.3319091796875, 398.1647033691406, 170.50390625, -0.14400000870227814, 0.06400000303983688, 1.040000081062317, 0.0, 0.0, 0.0, 0.0, 0.0, 1.6202152670581272E9, 2021-05-05 13:47:47.058
74.0, 475.3150939941406, -762.0419921875, 387.0497131347656, 141.4673309326172, -0.14400000870227814, 0.06400000303983688, 1.040000081062317, 0.0, 0.0, 0.0, 0.0, 0.0, 1.6202152670738685E9, 2021-05-05 13:47:47.073
74.0, 482.1628723144531, -751.663818359375, 386.29052734375, 146.10479736328125, -0.14400000870227814, 0.06400000303983688, 1.040000081062317, 0.0, 0.0, 0.0, 0.0, 0.0, 1.6202152670738685E9, 2021-05-05 13:47:47.073
75.0, 499.88250732421875, -738.3609619140625, 385.2358703613281, 161.9096221923828, -0.14400000870227814, 0.06400000303983688, 1.040000081062317, 0.0, 0.0, 0.0, 0.0, 0.0, 1.6202152670745783E9, 2021-05-05 13:47:47.074
75.0, 510.0438232421875, -742.8114624023438, 388.1978759765625, 165.39894104003906, -0.14400000870227814, 0.06400000303983688, 1.040000081062317, 0.0, 0.0, 0.0, 0.0, 0.0, 1.6202152670745783E9, 2021-05-05 13:47:47.074
76.0, 490.37567138671875, -773.4898681640625, 380.6956481933594, 134.27549743652344, -0.14400000870227814, 0.06400000303983688, 1.040000081062317, 0.0, 0.0, 0.0, 0.0, 0.0, 1.6202152670881236E9, 2021-05-05 13:47:47.088
76.0, 490.2073974609375, -760.9088134765625, 393.81146240234375, 132.46163940429688, -0.14400000870227814, 0.06400000303983688, 1.040000081062317, 0.0, 0.0, 0.0, 0.0, 0.0, 1.6202152670881236E9, 2021-05-05 13:47:47.088
77.0, 506.0870056152344, -751.2412109375, 395.3448181152344, 144.481689453125, -0.14400000870227814, 0.06400000303983688, 1.040000081062317, 0.0, 0.0, 0.0, 0.0, 0.0, 1.62021526711866E9, 2021-05-05 13:47:47.118
77.0, 508.20751953125, -750.4146728515625, 399.0361022949219, 153.01239013671875, -0.14400000870227814, 0.06400000303983688, 1.040000081062317, 0.0, 0.0, 0.0, 0.0, 0.0, 1.62021526711866E9, 2021-05-05 13:47:47.118
78.0, 497.4889831542969, -762.591796875, 389.6900939941406, 130.08680725097656, -0.14400000870227814, 0.06400000303983688, 1.040000081062317, 0.0, 0.0, 0.0, 0.0, 0.0, 1.6202152671515143E9, 2021-05-05 13:47:47.151
78.0, 497.8255615234375, -767.7715454101562, 382.8124084472656, 127.08367156982422, -0.14400000870227814, 0.06400000303983688, 1.040000081062317, 0.0, 0.0, 0.0, 0.0, 0.0, 1.6202152671515143E9, 2021-05-05 13:47:47.151
79.0, 505.83270263671875, -746.525146484375, 389.8247375488281, 142.32376098632812, -0.14400000870227814, 0.06400000303983688, 1.040000081062317, 0.0, 0.0, 0.0, 0.0, 0.0, 1.6202152671522222E9, 2021-05-05 13:47:47.152
79.0, 515.67236328125, -750.5194091796875, 399.15203857421875, 152.81044006347656, -0.14400000870227814, 0.06400000303983688, 1.040000081062317, 0.0, 0.0, 0.0, 0.0, 0.0, 1.6202152671522222E9, 2021-05-05 13:47:47.152
