Sample Index, EXG Channel 0, EXG Channel 1, EXG Channel 2, EXG Channel 3, Accel Channel 0, Accel Channel 1, Accel Channel 2, Other, Other, Other, Other, Other, Timestamp, Timestamp (Formatted)
0.0, 472.29888916015625, -737.4671020507812, 414.7231140136719, 162.71556091308594, 0.0, 0.0, 0.0, 0.0, 0.0, 0.0, 0.0, 0.0, 1.6202154898614423E9, 2021-05-05 13:51:29.861
1.0, 400.1300354003906, -811.326416015625, 351.002685546875, 63.90740966796875, 0.0, 0.06400000303983688, 0.0, 0.0, 0.0, 0.0, 0.0, 0.0, 1.6202154898748682E9, 2021-05-05 13:51:29.874
1.0, 428.1830139160156, -774.5033569335938, 378.4311218261719, 93.25814819335938, 0.0, 0.06400000303983688, 0.0, 0.0, 0.0, 0.0, 0.0, 0.0, 1.6202154898748682E9, 2021-05-05 13:51:29.874
2.0, 457.6908264160156, -744.6327514648438, 404.8984069824219, 135.35072326660156, -0.14400000870227814, 0.06400000303983688, 0.0, 0.0, 0.0, 0.0, 0.0, 0.0, 1.6202154899078343E9, 2021-05-05 13:51:29.907
2.0, 474.8121032714844, -739.15380859375, 407.66217041015625, 155.1160888671875, -0.14400000870227814, 0.06400000303983688, 0.0, 0.0, 0.0, 0.0, 0.0, 0.0, 1.6202154899078343E9, 2021-05-05 13:51:29.907
3.0, 399.0529479980469, -807.5753173828125, 349.0990905761719, 66.12142944335938, -0.14400000870227814, 0.06400000303983688, 0.0, 0.0, 0.0, 0.0, 0.0, 0.0, 1.620215489908523E9, 2021-05-05 13:51:29.908
3.0, 423.71759033203125, -766.1820678710938, 374.1676330566406, 103.67376708984375, -0.14400000870227814, 0.06400000303983688, 0.0, 0.0, 0.0, 0.0, 0.0, 0.0, 1.620215489908523E9, 2021-05-05 13:51:29.908
4.0, 454.6802062988281, -756.13671875, 401.91021728515625, 138.1519012451172, -0.14400000870227814, 0.06400000303983688, 0.0, 0.0, 0.0, 0.0, 0.0, 0.0, 1.620215489909285E9, 2021-05-05 13:51:29.909
4.0, 478.4958801269531, -744.9244995117188, 417.7748718261719, 160.5389404296875, -0.14400000870227814, 0.06400000303983688, 0.0, 0.0, 0.0, 0.0, 0.0, 0.0, 1.620215489909285E9, 2021-05-05 13:51:29.909
5.0, 406.1624755859375, -803.43896484375, 345.942626953125, 66.15509033203125, -0.14400000870227814, 0.06400000303983688, 0.0, 0.0, 0.0, 0.0, 0.0, 0.0, 1.6202154899366636E9, 2021-05-05 13:51:29.936
5.0, 435.88720703125, -763.7810668945312, 374.29852294921875, 94.5110092163086, -0.14400000870227814, 0.06400000303983688, 0.0, 0.0, 0.0, 0.0, 0.0, 0.0, 1.6202154899366636E9, 2021-05-05 13:51:29.936
6.0, 458.68939208984375, -738.6527099609375, 400.51898193359375, 138.16311645507812, -0.14400000870227814, 0.06400000303983688, 0.0, 0.0, 0.0, 0.0, 0.0, 0.0, 1.6202154899373791E9, 2021-05-05 13:51:29.937
6.0, 477.4150695800781, -731.5169677734375, 412.26226806640625, 168.91632080078125, -0.14400000870227814, 0.06400000303983688, 0.0, 0.0, 0.0, 0.0, 0.0, 0.0, 1.6202154899373791E9, 2021-05-05 13:51:29.937
7.0, 397.40362548828125, -806.5767211914062, 347.9247741699219, 73.43667602539062, -0.14400000870227814, 0.06400000303983688, 0.0, 0.0, 0.0, 0.0, 0.0, 0.0, 1.620215489938126E9, 2021-05-05 13:51:29.938
7.0, 444.4889831542969, -741.0499267578125, 387.1600646972656, 116.3482894897461, -0.14400000870227814, 0.06400000303983688, 0.0, 0.0, 0.0, 0.0, 0.0, 0.0, 1.620215489938126E9, 2021-05-05 13:51:29.938
8.0, 457.847900390625, -729.6956176757812, 407.1460876464844, 143.2493896484375, -0.14400000870227814, 0.06400000303983688, 0.0, 0.0, 0.0, 0.0, 0.0, 0.0, 1.6202154899388711E9, 2021-05-05 13:51:29.938
8.0, 483.30914306640625, -731.5618286132812, 418.7098388671875, 172.11767578125, -0.14400000870227814, 0.06400000303983688, 0.0, 0.0, 0.0, 0.0, 0.0, 0.0, 1.6202154899388711E9, 2021-05-05 13:51:29.938
9.0, 413.78814697265625, -796.9988403320312, 367.304931640625, 90.4943618774414, -0.14400000870227814, 0.06400000303983688, 0.0, 0.0, 0.0, 0.0, 0.0, 0.0, 1.6202154899666705E9, 2021-05-05 13:51:29.966
9.0, 455.5478515625, -756.3910522460938, 393.1813049316406, 123.90662384033203, -0.14400000870227814, 0.06400000303983688, 0.0, 0.0, 0.0, 0.0, 0.0, 0.0, 1.6202154899666705E9, 2021-05-05 13:51:29.966
10.0, 472.5494384765625, -737.4559326171875, 407.0413513183594, 154.87673950195312, -0.14400000870227814, 0.06400000303983688, 1.055999994277954, 0.0, 0.0, 0.0, 0.0, 0.0, 1.6202154899673975E9, 2021-05-05 13:51:29.967
10.0, 500.4977111816406, -705.91357421875, 438.9015808105469, 191.2285614013672, -0.14400000870227814, 0.06400000303983688, 1.055999994277954, 0.0, 0.0, 0.0, 0.0, 0.0, 1.6202154899673975E9, 2021-05-05 13:51:29.967
11.0, 411.4806213378906, -786.5757446289062, 368.7560119628906, 90.92444610595703, -0.14400000870227814, 0.06400000303983688, 1.055999994277954, 0.0, 0.0, 0.0, 0.0, 0.0, 1.6202154899681623E9, 2021-05-05 13:51:29.968
11.0, 446.7740478515625, -749.8349609375, 396.9249267578125, 134.64761352539062, -0.14400000870227814, 0.06400000303983688, 1.055999994277954, 0.0, 0.0, 0.0, 0.0, 0.0, 1.6202154899681623E9, 2021-05-05 13:51:29.968
12.0, 477.4973449707031, -725.701416015625, 416.06201171875, 161.94140625, -0.14400000870227814, 0.06400000303983688, 1.055999994277954, 0.0, 0.0, 0.0, 0.0, 0.0, 1.6202154899796188E9, 2021-05-05 13:51:29.979
12.0, 490.93853759765625, -719.2052001953125, 436.3958435058594, 190.16268920898438, -0.14400000870227814, 0.06400000303983688, 1.055999994277954, 0.0, 0.0, 0.0, 0.0, 0.0, 1.6202154899796188E9, 2021-05-05 13:51:29.979
13.0, 414.19580078125, -790.5325927734375, 367.19647216796875, 95.06077575683594, -0.14400000870227814, 0.06400000303983688, 1.055999994277954, 0.0, 0.0, 0.0, 0.0, 0.0, 1.6202154899946449E9, 2021-05-05 13:51:29.994
13.0, 449.87445068359375, -743.095703125, 400.4965515136719, 139.3411865234375, -0.14400000870227814, 0.06400000303983688, 1.055999994277954, 0.0, 0.0, 0.0, 0.0, 0.0, 1.6202154899946449E9, 2021-05-05 13:51:29.994
14.0, 472.3961181640625, -726.5054931640625, 416.21160888671875, 169.23046875, -0.14400000870227814, 0.06400000303983688, 1.055999994277954, 0.0, 0.0, 0.0, 0.0, 0.0, 1.6202154900102634E9, 2021-05-05 13:51:30.010
14.0, 481.427978515625, -728.4539794921875, 420.5050048828125, 184.30227661132812, -0.14400000870227814, 0.06400000303983688, 1.055999994277954, 0.0, 0.0, 0.0, 0.0, 0.0, 1.6202154900102634E9, 2021-05-05 13:51:30.010
15.0, 412.92047119140625, -791.1907958984375, 361.6015625, 100.29290008544922, -0.14400000870227814, 0.06400000303983688, 1.055999994277954, 0.0, 0.0, 0.0, 0.0, 0.0, 1.620215490011022E9, 2021-05-05 13:51:30.011
15.0, 448.07928466796875, -739.3483276367188, 395.71319580078125, 136.94017028808594, -0.14400000870227814, 0.06400000303983688, 1.055999994277954, 0.0, 0.0, 0.0, 0.0, 0.0, 1.620215490011022E9, 2021-05-05 13:51:30.011
16.0, 462.5489501953125, -719.4894409179688, 412.4043884277344, 159.7722625732422, -0.14400000870227814, 0.06400000303983688, 1.055999994277954, 0.0, 0.0, 0.0, 0.0, 0.0, 1.6202154900245485E9, 2021-05-05 13:51:30.024
16.0, 479.8684387207031, -725.1329345703125, 426.61224365234375, 185.48782348632812, -0.14400000870227814, 0.06400000303983688, 1.055999994277954, 0.0, 0.0, 0.0, 0.0, 0.0, 1.6202154900245485E9, 2021-05-05 13:51:30.024
17.0, 414.8016662597656, -791.4338989257812, 365.82391357421875, 96.08551025390625, -0.14400000870227814, 0.06400000303983688, 1.055999994277954, 0.0, 0.0, 0.0, 0.0, 0.0, 1.6202154900402627E9, 2021-05-05 13:51:30.040
17.0, 454.3959655761719, -733.9703369140625, 399.0379638671875, 143.9749298095703, -0.14400000870227814, 0.06400000303983688, 1.055999994277954, 0.0, 0.0, 0.0, 0.0, 0.0, 1.6202154900402627E9, 2021-05-05 13:51:30.040
18.0, 470.1559143066406, -735.679443359375, 416.27142333984375, 179.07388305664062, -0.14400000870227814, 0.06400000303983688, 1.055999994277954, 0.0, 0.0, 0.0, 0.0, 0.0, 1.6202154900410204E9, 2021-05-05 13:51:30.041
18.0, 484.1693115234375, -715.8579711914062, 430.9729919433594, 187.58590698242188, -0.14400000870227814, 0.06400000303983688, 1.055999994277954, 0.0, 0.0, 0.0, 0.0, 0.0, 1.6202154900410204E9, 2021-05-05 13:51:30.041
19.0, 408.8888854980469, -786.7814331054688, 362.2410888671875, 98.55010223388672, -0.14400000870227814, 0.06400000303983688, 1.055999994277954, 0.0, 0.0, 0.0, 0.0, 0.0, 1.6202154900545301E9, 2021-05-05 13:51:30.054
19.0, 448.3448181152344, -737.0482788085938, 398.5966796875, 141.2859344482422, -0.14400000870227814, 0.06400000303983688, 1.055999994277954, 0.0, 0.0, 0.0, 0.0, 0.0, 1.6202154900545301E9, 2021-05-05 13:51:30.054
20.0, 474.83453369140625, -722.3878784179688, 423.33612060546875, 180.1846466064453, -0.14400000870227814, 0.06400000303983688, 1.040000081062317, 0.0, 0.0, 0.0, 0.0, 0.0, 1.6202154900709116E9, 2021-05-05 13:51:30.070
20.0, 485.1903076171875, -700.2252197265625, 431.2497253417969, 190.8957061767578, -0.14400000870227814, 0.06400000303983688, 1.040000081062317, 0.0, 0.0, 0.0, 0.0, 0.0, 1.6202154900709116E9, 2021-05-05 13:51:30.070
21.0, 411.8097229003906, -797.8552856445312, 366.2240905761719, 99.52247619628906, -0.14400000870227814, 0.06400000303983688, 1.040000081062317, 0.0, 0.0, 0.0, 0.0, 0.0, 1.6202154900717697E9, 2021-05-05 13:51:30.071
21.0, 453.93597412109375, -741.5660400390625, 404.5842590332031, 141.10269165039062, -0.14400000870227814, 0.06400000303983688, 1.040000081062317, 0.0, 0.0, 0.0, 0.0, 0.0, 1.6202154900717697E9, 2021-05-05 13:51:30.071
22.0, 476.56610107421875, -717.802734375, 421.89251708984375, 170.6703338623047, -0.14400000870227814, 0.06400000303983688, 1.040000081062317, 0.0, 0.0, 0.0, 0.0, 0.0, 1.6202154900846024E9, 2021-05-05 13:51:30.084
22.0, 491.3573913574219, -717.2529907226562, 429.443359375, 190.3908233642578, -0.14400000870227814, 0.06400000303983688, 1.040000081062317, 0.0, 0.0, 0.0, 0.0, 0.0, 1.6202154900846024E9, 2021-05-05 13:51:30.084
23.0, 404.7263488769531, -787.955810546875, 360.7601013183594, 99.56361389160156, -0.14400000870227814, 0.06400000303983688, 1.040000081062317, 0.0, 0.0, 0.0, 0.0, 0.0, 1.6202154901003025E9, 2021-05-05 13:51:30.100
23.0, 453.8200378417969, -737.0220947265625, 392.3472900390625, 138.1294708251953, -0.14400000870227814, 0.06400000303983688, 1.040000081062317, 0.0, 0.0, 0.0, 0.0, 0.0, 1.6202154901003025E9, 2021-05-05 13:51:30.100
24.0, 480.3059997558594, -723.846435546875, 417.0643005371094, 167.72329711914062, -0.14400000870227814, 0.06400000303983688, 1.040000081062317, 0.0, 0.0, 0.0, 0.0, 0.0, 1.6202154901009867E9, 2021-05-05 13:51:30.100
24.0, 489.1920166015625, -712.3424682617188, 432.4427490234375, 194.0334930419922, -0.14400000870227814, 0.06400000303983688, 1.040000081062317, 0.0, 0.0, 0.0, 0.0, 0.0, 1.6202154901009867E9, 2021-05-05 13:51:30.100
25.0, 415.12701416015625, -786.1456909179688, 363.49395751953125, 93.10106658935547, -0.14400000870227814, 0.06400000303983688, 1.040000081062317, 0.0, 0.0, 0.0, 0.0, 0.0, 1.62021549013162E9, 2021-05-05 13:51:30.131
25.0, 447.6080627441406, -734.1909790039062, 399.3446350097656, 134.63265991210938, -0.14400000870227814, 0.06400000303983688, 1.040000081062317, 0.0, 0.0, 0.0, 0.0, 0.0, 1.62021549013162E9, 2021-05-05 13:51:30.131
26.0, 475.7134094238281, -716.2955322265625, 420.2507019042969, 167.4427947998047, -0.14400000870227814, 0.06400000303983688, 1.040000081062317, 0.0, 0.0, 0.0, 0.0, 0.0, 1.620215490132359E9, 2021-05-05 13:51:30.132
26.0, 489.5398254394531, -710.1995239257812, 428.7215576171875, 192.1672821044922, -0.14400000870227814, 0.06400000303983688, 1.040000081062317, 0.0, 0.0, 0.0, 0.0, 0.0, 1.620215490132359E9, 2021-05-05 13:51:30.132
27.0, 417.2288513183594, -799.8786010742188, 368.3072204589844, 95.22159576416016, -0.14400000870227814, 0.06400000303983688, 1.040000081062317, 0.0, 0.0, 0.0, 0.0, 0.0, 1.620215490133045E9, 2021-05-05 13:51:30.133
27.0, 449.69866943359375, -734.0750732421875, 397.9683532714844, 141.77586364746094, -0.14400000870227814, 0.06400000303983688, 1.040000081062317, 0.0, 0.0, 0.0, 0.0, 0.0, 1.620215490133045E9, 2021-05-05 13:51:30.133
28.0, 462.8668518066406, -720.8731689453125, 409.7490539550781, 166.84815979003906, -0.14400000870227814, 0.06400000303983688, 1.040000081062317, 0.0, 0.0, 0.0, 0.0, 0.0, 1.6202154901610436E9, 2021-05-05 13:51:30.161
28.0, 491.581787109375, -709.3468017578125, 425.73712158203125, 205.70571899414062, -0.14400000870227814, 0.06400000303983688, 1.040000081062317, 0.0, 0.0, 0.0, 0.0, 0.0, 1.6202154901610436E9, 2021-05-05 13:51:30.161
29.0, 413.9975891113281, -795.4505615234375, 357.37176513671875, 92.02771759033203, -0.14400000870227814, 0.06400000303983688, 1.040000081062317, 0.0, 0.0, 0.0, 0.0, 0.0, 1.6202154901616883E9, 2021-05-05 13:51:30.161
29.0, 459.9609375, -739.774658203125, 401.01263427734375, 139.50575256347656, -0.14400000870227814, 0.06400000303983688, 1.040000081062317, 0.0, 0.0, 0.0, 0.0, 0.0, 1.6202154901616883E9, 2021-05-05 13:51:30.161
30.0, 479.48321533203125, -707.8209228515625, 415.51971435546875, 175.90245056152344, -0.14400000870227814, 0.06400000303983688, 1.040000081062317, 0.0, 0.0, 0.0, 0.0, 0.0, 1.6202154901624908E9, 2021-05-05 13:51:30.162
30.0, 491.97076416015625, -721.1162719726562, 430.49053955078125, 192.78062438964844, -0.14400000870227814, 0.06400000303983688, 1.040000081062317, 0.0, 0.0, 0.0, 0.0, 0.0, 1.6202154901624908E9, 2021-05-05 13:51:30.162
31.0, 411.0580139160156, -798.8538208007812, 358.6732482910156, 88.14569854736328, -0.14400000870227814, 0.06400000303983688, 1.040000081062317, 0.0, 0.0, 0.0, 0.0, 0.0, 1.6202154901909056E9, 2021-05-05 13:51:30.190
31.0, 451.8603210449219, -734.3031616210938, 397.317626953125, 127.56798553466797, -0.14400000870227814, 0.06400000303983688, 1.040000081062317, 0.0, 0.0, 0.0, 0.0, 0.0, 1.6202154901909056E9, 2021-05-05 13:51:30.190
32.0, 472.9010009765625, -726.6513671875, 410.25018310546875, 157.3600311279297, -0.14400000870227814, 0.06400000303983688, 1.040000081062317, 0.0, 0.0, 0.0, 0.0, 0.0, 1.6202154901916077E9, 2021-05-05 13:51:30.191
32.0, 493.4667053222656, -712.2714233398438, 429.1553955078125, 192.35427856445312, -0.14400000870227814, 0.06400000303983688, 1.040000081062317, 0.0, 0.0, 0.0, 0.0, 0.0, 1.6202154901916077E9, 2021-05-05 13:51:30.191
33.0, 404.0943298339844, -794.7138061523438, 350.5314636230469, 88.45985412597656, -0.14400000870227814, 0.06400000303983688, 1.040000081062317, 0.0, 0.0, 0.0, 0.0, 0.0, 1.620215490192414E9, 2021-05-05 13:51:30.192
33.0, 459.5682678222656, -729.01123046875, 397.9795837402344, 133.54434204101562, -0.14400000870227814, 0.06400000303983688, 1.040000081062317, 0.0, 0.0, 0.0, 0.0, 0.0, 1.620215490192414E9, 2021-05-05 13:51:30.192
34.0, 468.3607482910156, -719.0668334960938, 415.06719970703125, 164.01705932617188, -0.14400000870227814, 0.06400000303983688, 1.040000081062317, 0.0, 0.0, 0.0, 0.0, 0.0, 1.6202154902046165E9, 2021-05-05 13:51:30.204
34.0, 488.76190185546875, -717.7691040039062, 428.53082275390625, 188.6106414794922, -0.14400000870227814, 0.06400000303983688, 1.040000081062317, 0.0, 0.0, 0.0, 0.0, 0.0, 1.6202154902046165E9, 2021-05-05 13:51:30.204
35.0, 408.34283447265625, -802.4628295898438, 352.0386657714844, 84.5553970336914, -0.14400000870227814, 0.06400000303983688, 1.040000081062317, 0.0, 0.0, 0.0, 0.0, 0.0, 1.620215490220178E9, 2021-05-05 13:51:30.220
35.0, 455.3234558105469, -743.6865844726562, 395.01385498046875, 129.14248657226562, -0.14400000870227814, 0.06400000303983688, 1.040000081062317, 0.0, 0.0, 0.0, 0.0, 0.0, 1.620215490220178E9, 2021-05-05 13:51:30.220
36.0, 479.4981689453125, -707.0767211914062, 420.1609191894531, 168.81907653808594, -0.14400000870227814, 0.06400000303983688, 1.040000081062317, 0.0, 0.0, 0.0, 0.0, 0.0, 1.6202154902208993E9, 2021-05-05 13:51:30.220
36.0, 494.6260681152344, -708.0228881835938, 432.50634765625, 192.62355041503906, -0.14400000870227814, 0.06400000303983688, 1.040000081062317, 0.0, 0.0, 0.0, 0.0, 0.0, 1.6202154902208993E9, 2021-05-05 13:51:30.220
37.0, 404.7525329589844, -793.9358520507812, 356.1413269042969, 85.51655578613281, -0.14400000870227814, 0.06400000303983688, 1.040000081062317, 0.0, 0.0, 0.0, 0.0, 0.0, 1.6202154902509308E9, 2021-05-05 13:51:30.250
37.0, 452.4998474121094, -724.2764892578125, 403.2004699707031, 140.76609802246094, -0.14400000870227814, 0.06400000303983688, 1.040000081062317, 0.0, 0.0, 0.0, 0.0, 0.0, 1.6202154902509308E9, 2021-05-05 13:51:30.250
38.0, 473.4881591796875, -729.4076538085938, 416.7276916503906, 168.97616577148438, -0.14400000870227814, 0.06400000303983688, 1.040000081062317, 0.0, 0.0, 0.0, 0.0, 0.0, 1.6202154902516046E9, 2021-05-05 13:51:30.251
38.0, 491.33123779296875, -714.175048828125, 431.9939880371094, 193.0947723388672, -0.14400000870227814, 0.06400000303983688, 1.040000081062317, 0.0, 0.0, 0.0, 0.0, 0.0, 1.6202154902516046E9, 2021-05-05 13:51:30.251
39.0, 418.2087097167969, -793.4646606445312, 369.30950927734375, 97.75724792480469, -0.14400000870227814, 0.06400000303983688, 1.040000081062317, 0.0, 0.0, 0.0, 0.0, 0.0, 1.6202154902523725E9, 2021-05-05 13:51:30.252
39.0, 463.9738464355469, -744.2176513671875, 403.34259033203125, 138.72036743164062, -0.14400000870227814, 0.06400000303983688, 1.040000081062317, 0.0, 0.0, 0.0, 0.0, 0.0, 1.6202154902523725E9, 2021-05-05 13:51:30.252
40.0, 474.8420104980469, -713.988037109375, 413.6198425292969, 162.30418395996094, -0.14400000870227814, 0.06400000303983688, 1.055999994277954, 0.0, 0.0, 0.0, 0.0, 0.0, 1.6202154902645926E9, 2021-05-05 13:51:30.264
40.0, 502.6593933105469, -713.341064453125, 430.1015930175781, 197.3919219970703, -0.14400000870227814, 0.06400000303983688, 1.055999994277954, 0.0, 0.0, 0.0, 0.0, 0.0, 1.6202154902645926E9, 2021-05-05 13:51:30.264
41.0, 412.0266418457031, -783.4791259765625, 357.56622314453125, 90.58786010742188, -0.14400000870227814, 0.06400000303983688, 1.055999994277954, 0.0, 0.0, 0.0, 0.0, 0.0, 1.6202154902802951E9, 2021-05-05 13:51:30.280
41.0, 454.70263671875, -755.844970703125, 399.1239929199219, 134.35964965820312, -0.14400000870227814, 0.06400000303983688, 1.055999994277954, 0.0, 0.0, 0.0, 0.0, 0.0, 1.6202154902802951E9, 2021-05-05 13:51:30.280
42.0, 483.0847473144531, -719.7325439453125, 415.12701416015625, 161.2607421875, -0.14400000870227814, 0.06400000303983688, 1.055999994277954, 0.0, 0.0, 0.0, 0.0, 0.0, 1.6202154902809207E9, 2021-05-05 13:51:30.280
42.0, 503.22412109375, -707.697509765625, 433.32537841796875, 200.697998046875, -0.14400000870227814, 0.06400000303983688, 1.055999994277954, 0.0, 0.0, 0.0, 0.0, 0.0, 1.6202154902809207E9, 2021-05-05 13:51:30.280
43.0, 411.9331359863281, -786.0035400390625, 366.0071716308594, 94.35393524169922, -0.14400000870227814, 0.06400000303983688, 1.055999994277954, 0.0, 0.0, 0.0, 0.0, 0.0, 1.6202154902945516E9, 2021-05-05 13:51:30.294
43.0, 454.3286437988281, -746.8243408203125, 399.9018859863281, 133.58547973632812, -0.14400000870227814, 0.06400000303983688, 1.055999994277954, 0.0, 0.0, 0.0, 0.0, 0.0, 1.6202154902945516E9, 2021-05-05 13:51:30.294
44.0, 476.0537414550781, -722.814208984375, 420.0599670410156, 174.9487762451172, -0.14400000870227814, 0.06400000303983688, 1.055999994277954, 0.0, 0.0, 0.0, 0.0, 0.0, 1.6202154903102295E9, 2021-05-05 13:51:30.310
44.0, 491.8585510253906, -695.9654541015625, 432.1248779296875, 189.86349487304688, -0.14400000870227814, 0.06400000303983688, 1.055999994277954, 0.0, 0.0, 0.0, 0.0, 0.0, 1.6202154903102295E9, 2021-05-05 13:51:30.310
45.0, 403.2079772949219, -802.10009765625, 365.7453918457031, 95.56566619873047, -0.14400000870227814, 0.06400000303983688, 1.055999994277954, 0.0, 0.0, 0.0, 0.0, 0.0, 1.620215490311025E9, 2021-05-05 13:51:30.311
45.0, 452.7616271972656, -741.4351806640625, 403.17431640625, 149.88397216796875, -0.14400000870227814, 0.06400000303983688, 1.055999994277954, 0.0, 0.0, 0.0, 0.0, 0.0, 1.620215490311025E9, 2021-05-05 13:51:30.311
46.0, 475.3843078613281, -713.060546875, 420.27685546875, 181.0709991455078, -0.14400000870227814, 0.06400000303983688, 1.055999994277954, 0.0, 0.0, 0.0, 0.0, 0.0, 1.6202154903245158E9, 2021-05-05 13:51:30.324
46.0, 487.50531005859375, -716.9837036132812, 432.7868347167969, 193.6595001220703, -0.14400000870227814, 0.06400000303983688, 1.055999994277954, 0.0, 0.0, 0.0, 0.0, 0.0, 1.6202154903245158E9, 2021-05-05 13:51:30.324
47.0, 411.0729675292969, -808.5289916992188, 367.4096374511719, 103.94303894042969, -0.14400000870227814, 0.06400000303983688, 1.055999994277954, 0.0, 0.0, 0.0, 0.0, 0.0, 1.6202154903402903E9, 2021-05-05 13:51:30.340
47.0, 453.4535217285156, -737.1791381835938, 409.3900146484375, 139.6927490234375, -0.14400000870227814, 0.06400000303983688, 1.055999994277954, 0.0, 0.0, 0.0, 0.0, 0.0, 1.6202154903402903E9, 2021-05-05 13:51:30.340
48.0, 463.6709289550781, -711.5645751953125, 416.77630615234375, 164.8660125732422, -0.14400000870227814, 0.06400000303983688, 1.055999994277954, 0.0, 0.0, 0.0, 0.0, 0.0, 1.6202154903410554E9, 2021-05-05 13:51:30.341
48.0, 487.6062927246094, -725.5742797851562, 432.8990173339844, 193.9998321533203, -0.14400000870227814, 0.06400000303983688, 1.055999994277954, 0.0, 0.0, 0.0, 0.0, 0.0, 1.6202154903410554E9, 2021-05-05 13:51:30.341
49.0, 420.1571960449219, -781.8971557617188, 373.1990051269531, 107.73529815673828, -0.14400000870227814, 0.06400000303983688, 1.055999994277954, 0.0, 0.0, 0.0, 0.0, 0.0, 1.6202154903545365E9, 2021-05-05 13:51:30.354
49.0, 448.1129455566406, -730.4810180664062, 406.390625, 153.8931427001953, -0.14400000870227814, 0.06400000303983688, 1.055999994277954, 0.0, 0.0, 0.0, 0.0, 0.0, 1.6202154903545365E9, 2021-05-05 13:51:30.354
50.0, 474.4642639160156, -724.9122924804688, 422.5395202636719, 167.35678100585938, -0.14400000870227814, 0.06400000303983688, 1.040000081062317, 0.0, 0.0, 0.0, 0.0, 0.0, 1.6202154903703272E9, 2021-05-05 13:51:30.370
50.0, 489.00128173828125, -722.720703125, 431.6424255371094, 184.47430419921875, -0.14400000870227814, 0.06400000303983688, 1.040000081062317, 0.0, 0.0, 0.0, 0.0, 0.0, 1.6202154903703272E9, 2021-05-05 13:51:30.370
51.0, 407.6509704589844, -766.9412841796875, 366.31011962890625, 95.15801239013672, -0.14400000870227814, 0.06400000303983688, 1.040000081062317, 0.0, 0.0, 0.0, 0.0, 0.0, 1.6202154903710032E9, 2021-05-05 13:51:30.371
51.0, 448.83099365234375, -751.301025390625, 408.9075622558594, 144.79396057128906, -0.14400000870227814, 0.06400000303983688, 1.040000081062317, 0.0, 0.0, 0.0, 0.0, 0.0, 1.6202154903710032E9, 2021-05-05 13:51:30.371
52.0, 471.333984375, -727.8780517578125, 426.4514465332031, 176.4933624267578, -0.14400000870227814, 0.06400000303983688, 1.040000081062317, 0.0, 0.0, 0.0, 0.0, 0.0, 1.6202154903846292E9, 2021-05-05 13:51:30.384
52.0, 486.75360107421875, -705.4498291015625, 436.7137145996094, 194.47853088378906, -0.14400000870227814, 0.06400000303983688, 1.040000081062317, 0.0, 0.0, 0.0, 0.0, 0.0, 1.6202154903846292E9, 2021-05-05 13:51:30.384
53.0, 407.3255920410156, -773.44873046875, 371.5497131347656, 105.27444458007812, -0.14400000870227814, 0.06400000303983688, 1.040000081062317, 0.0, 0.0, 0.0, 0.0, 0.0, 1.620215490400241E9, 2021-05-05 13:51:30.400
53.0, 452.35400390625, -736.569580078125, 408.30169677734375, 144.41249084472656, -0.14400000870227814, 0.06400000303983688, 1.040000081062317, 0.0, 0.0, 0.0, 0.0, 0.0, 1.620215490400241E9, 2021-05-05 13:51:30.400
54.0, 465.2379455566406, -706.2614135742188, 418.6500244140625, 174.33169555664062, -0.14400000870227814, 0.06400000303983688, 1.040000081062317, 0.0, 0.0, 0.0, 0.0, 0.0, 1.6202154904009268E9, 2021-05-05 13:51:30.400
54.0, 482.74066162109375, -728.5736694335938, 427.7230224609375, 184.37332153320312, -0.14400000870227814, 0.06400000303983688, 1.040000081062317, 0.0, 0.0, 0.0, 0.0, 0.0, 1.6202154904009268E9, 2021-05-05 13:51:30.400
55.0, 414.513671875, -789.5564575195312, 361.882080078125, 92.64854431152344, -0.14400000870227814, 0.06400000303983688, 1.040000081062317, 0.0, 0.0, 0.0, 0.0, 0.0, 1.6202154904145148E9, 2021-05-05 13:51:30.414
55.0, 453.2627868652344, -729.0186767578125, 407.3517761230469, 143.455078125, -0.14400000870227814, 0.06400000303983688, 1.040000081062317, 0.0, 0.0, 0.0, 0.0, 0.0, 1.6202154904145148E9, 2021-05-05 13:51:30.414
56.0, 475.3768005371094, -725.0132446289062, 429.8959045410156, 180.77928161621094, -0.14400000870227814, 0.06400000303983688, 1.040000081062317, 0.0, 0.0, 0.0, 0.0, 0.0, 1.620215490430154E9, 2021-05-05 13:51:30.430
56.0, 486.3870849609375, -719.4071655273438, 432.7232666015625, 199.41146850585938, -0.14400000870227814, 0.06400000303983688, 1.040000081062317, 0.0, 0.0, 0.0, 0.0, 0.0, 1.620215490430154E9, 2021-05-05 13:51:30.430
57.0, 403.409912109375, -776.1040649414062, 358.0037841796875, 97.22244262695312, -0.14400000870227814, 0.06400000303983688, 1.040000081062317, 0.0, 0.0, 0.0, 0.0, 0.0, 1.6202154904452984E9, 2021-05-05 13:51:30.445
57.0, 446.1046142578125, -737.3773803710938, 409.76025390625, 159.72738647460938, -0.14400000870227814, 0.06400000303983688, 1.040000081062317, 0.0, 0.0, 0.0, 0.0, 0.0, 1.6202154904452984E9, 2021-05-05 13:51:30.445
58.0, 474.0491638183594, -724.8001098632812, 417.4420166015625, 163.41867065429688, -0.14400000870227814, 0.06400000303983688, 1.040000081062317, 0.0, 0.0, 0.0, 0.0, 0.0, 1.6202154904460125E9, 2021-05-05 13:51:30.446
58.0, 481.0465087890625, -712.9408569335938, 428.3064270019531, 179.8443145751953, -0.14400000870227814, 0.06400000303983688, 1.040000081062317, 0.0, 0.0, 0.0, 0.0, 0.0, 1.6202154904460125E9, 2021-05-05 13:51:30.446
59.0, 403.5819396972656, -788.66259765625, 359.88494873046875, 87.95870971679688, -0.14400000870227814, 0.06400000303983688, 1.040000081062317, 0.0, 0.0, 0.0, 0.0, 0.0, 1.6202154904601865E9, 2021-05-05 13:51:30.460
59.0, 449.8557434082031, -737.534423828125, 404.9544982910156, 140.62771606445312, -0.14400000870227814, 0.06400000303983688, 1.040000081062317, 0.0, 0.0, 0.0, 0.0, 0.0, 1.6202154904601865E9, 2021-05-05 13:51:30.460
60.0, 476.6446533203125, -715.338134765625, 428.6392822265625, 177.22637939453125, -0.14400000870227814, 0.06400000303983688, 1.040000081062317, 0.0, 0.0, 0.0, 0.0, 0.0, 1.6202154904609587E9, 2021-05-05 13:51:30.460
60.0, 480.4930114746094, -722.8553466796875, 434.18182373046875, 193.1546173095703, -0.14400000870227814, 0.06400000303983688, 1.040000081062317, 0.0, 0.0, 0.0, 0.0, 0.0, 1.6202154904609587E9, 2021-05-05 13:51:30.460
61.0, 404.65155029296875, -778.789306640625, 363.4827575683594, 88.47107696533203, -0.14400000870227814, 0.06400000303983688, 1.040000081062317, 0.0, 0.0, 0.0, 0.0, 0.0, 1.6202154904746294E9, 2021-05-05 13:51:30.474
61.0, 450.3905334472656, -728.753173828125, 406.4205322265625, 144.33021545410156, -0.14400000870227814, 0.06400000303983688, 1.040000081062317, 0.0, 0.0, 0.0, 0.0, 0.0, 1.6202154904746294E9, 2021-05-05 13:51:30.474
62.0, 470.7692565917969, -720.772216796875, 415.287841796875, 166.3021240234375, -0.14400000870227814, 0.06400000303983688, 1.040000081062317, 0.0, 0.0, 0.0, 0.0, 0.0, 1.6202154904901867E9, 2021-05-05 13:51:30.490
62.0, 481.0838928222656, -711.605712890625, 419.5289001464844, 171.24253845214844, -0.14400000870227814, 0.06400000303983688, 1.040000081062317, 0.0, 0.0, 0.0, 0.0, 0.0, 1.6202154904901867E9, 2021-05-05 13:51:30.490
63.0, 413.750732421875, -779.8289794921875, 358.1159973144531, 92.05015563964844, -0.14400000870227814, 0.06400000303983688, 1.040000081062317, 0.0, 0.0, 0.0, 0.0, 0.0, 1.620215490490914E9, 2021-05-05 13:51:30.490
63.0, 456.322021484375, -745.27978515625, 396.7416687011719, 132.175537109375, -0.14400000870227814, 0.06400000303983688, 1.040000081062317, 0.0, 0.0, 0.0, 0.0, 0.0, 1.620215490490914E9, 2021-05-05 13:51:30.490
64.0, 472.35870361328125, -736.1357421875, 413.6609802246094, 169.97471618652344, -0.14400000870227814, 0.06400000303983688, 1.040000081062317, 0.0, 0.0, 0.0, 0.0, 0.0, 1.6202154905045664E9, 2021-05-05 13:51:30.504
64.0, 477.6618957519531, -715.360595703125, 415.0783996582031, 177.23385620117188, -0.14400000870227814, 0.06400000303983688, 1.040000081062317, 0.0, 0.0, 0.0, 0.0, 0.0, 1.6202154905045664E9, 2021-05-05 13:51:30.504
65.0, 422.4908752441406, -794.43701171875, 368.6475524902344, 113.61067962646484, -0.14400000870227814, 0.06400000303983688, 1.040000081062317, 0.0, 0.0, 0.0, 0.0, 0.0, 1.6202154905202346E9, 2021-05-05 13:51:30.520
65.0, 440.6817626953125, -730.2191772460938, 388.9440002441406, 128.48800659179688, -0.14400000870227814, 0.06400000303983688, 1.040000081062317, 0.0, 0.0, 0.0, 0.0, 0.0, 1.6202154905202346E9, 2021-05-05 13:51:30.520
66.0, 460.6490783691406, -727.4292602539062, 398.8547058105469, 141.74220275878906, -0.14400000870227814, 0.06400000303983688, 1.040000081062317, 0.0, 0.0, 0.0, 0.0, 0.0, 1.6202154905209048E9, 2021-05-05 13:51:30.520
66.0, 471.3414611816406, -719.6390380859375, 409.2740783691406, 160.31080627441406, -0.14400000870227814, 0.06400000303983688, 1.040000081062317, 0.0, 0.0, 0.0, 0.0, 0.0, 1.6202154905209048E9, 2021-05-05 13:51:30.520
67.0, 446.5571594238281, -773.8638305664062, 393.2897644042969, 129.0863800048828, -0.14400000870227814, 0.06400000303983688, 1.040000081062317, 0.0, 0.0, 0.0, 0.0, 0.0, 1.6202154905500011E9, 2021-05-05 13:51:30.550
67.0, 456.1537170410156, -734.9651489257812, 394.9128723144531, 127.8148193359375, -0.14400000870227814, 0.06400000303983688, 1.040000081062317, 0.0, 0.0, 0.0, 0.0, 0.0, 1.6202154905500011E9, 2021-05-05 13:51:30.550
68.0, 455.970458984375, -749.1356201171875, 395.6758117675781, 137.6058807373047, -0.14400000870227814, 0.06400000303983688, 1.040000081062317, 0.0, 0.0, 0.0, 0.0, 0.0, 1.6202154905663476E9, 2021-05-05 13:51:30.566
68.0, 465.74658203125, -733.177490234375, 402.893798828125, 156.07723999023438, -0.14400000870227814, 0.06400000303983688, 1.040000081062317, 0.0, 0.0, 0.0, 0.0, 0.0, 1.6202154905663476E9, 2021-05-05 13:51:30.566
69.0, 455.2898254394531, -748.15576171875, 399.6064453125, 150.64691162109375, -0.14400000870227814, 0.06400000303983688, 1.040000081062317, 0.0, 0.0, 0.0, 0.0, 0.0, 1.620215490567154E9, 2021-05-05 13:51:30.567
69.0, 451.8154296875, -751.607666015625, 396.9137268066406, 118.4014892578125, -0.14400000870227814, 0.06400000303983688, 1.040000081062317, 0.0, 0.0, 0.0, 0.0, 0.0, 1.620215490567154E9, 2021-05-05 13:51:30.567
70.0, 453.4123840332031, -732.56787109375, 401.1547546386719, 143.14466857910156, -0.14400000870227814, 0.06400000303983688, 1.040000081062317, 0.0, 0.0, 0.0, 0.0, 0.0, 1.6202154905678356E9, 2021-05-05 13:51:30.567
70.0, 460.80242919921875, -729.9835815429688, 401.2594909667969, 153.5453338623047, -0.14400000870227814, 0.06400000303983688, 1.040000081062317, 0.0, 0.0, 0.0, 0.0, 0.0, 1.6202154905678356E9, 2021-05-05 13:51:30.567
71.0, 454.38848876953125, -734.4078979492188, 395.8254089355469, 131.9698486328125, -0.14400000870227814, 0.06400000303983688, 1.040000081062317, 0.0, 0.0, 0.0, 0.0, 0.0, 1.6202154905802932E9, 2021-05-05 13:51:30.580
71.0, 455.7685241699219, -744.2213745117188, 398.2226867675781, 131.36398315429688, -0.14400000870227814, 0.06400000303983688, 1.040000081062317, 0.0, 0.0, 0.0, 0.0, 0.0, 1.6202154905802932E9, 2021-05-05 13:51:30.580
72.0, 451.3591613769531, -754.364013671875, 397.87860107421875, 143.42141723632812, -0.14400000870227814, 0.06400000303983688, 1.040000081062317, 0.0, 0.0, 0.0, 0.0, 0.0, 1.6202154905810392E9, 2021-05-05 13:51:30.581
72.0, 457.78057861328125, -732.3621826171875, 403.7390441894531, 153.384521484375, -0.14400000870227814, 0.06400000303983688, 1.040000081062317, 0.0, 0.0, 0.0, 0.0, 0.0, 1.6202154905810392E9, 2021-05-05 13:51:30.581
73.0, 453.7938537597656, -738.0281372070312, 409.48724365234375, 160.1125946044922, -0.14400000870227814, 0.06400000303983688, 1.040000081062317, 0.0, 0.0, 0.0, 0.0, 0.0, 1.6202154905945885E9, 2021-05-05 13:51:30.594
73.0, 455.2486572265625, -760.5797119140625, 404.5879821777344, 136.50634765625, -0.14400000870227814, 0.06400000303983688, 1.040000081062317, 0.0, 0.0, 0.0, 0.0, 0.0, 1.6202154905945885E9, 2021-05-05 13:51:30.594
74.0, 458.9923095703125, -719.246337890625, 404.1092834472656, 148.56004333496094, -0.14400000870227814, 0.06400000303983688, 1.040000081062317, 0.0, 0.0, 0.0, 0.0, 0.0, 1.6202154906103053E9, 2021-05-05 13:51:30.610
74.0, 460.1292419433594, -731.969482421875, 399.5204162597656, 159.08786010742188, -0.14400000870227814, 0.06400000303983688, 1.040000081062317, 0.0, 0.0, 0.0, 0.0, 0.0, 1.6202154906103053E9, 2021-05-05 13:51:30.610
75.0, 455.125244140625, -756.6378784179688, 406.6187438964844, 163.6879425048828, -0.14400000870227814, 0.06400000303983688, 1.040000081062317, 0.0, 0.0, 0.0, 0.0, 0.0, 1.6202154906110373E9, 2021-05-05 13:51:30.611
75.0, 459.4971923828125, -735.7991333007812, 406.89923095703125, 152.1615753173828, -0.14400000870227814, 0.06400000303983688, 1.040000081062317, 0.0, 0.0, 0.0, 0.0, 0.0, 1.6202154906110373E9, 2021-05-05 13:51:30.611
76.0, 457.96759033203125, -738.6302490234375, 407.8716125488281, 155.38909912109375, -0.14400000870227814, 0.06400000303983688, 1.040000081062317, 0.0, 0.0, 0.0, 0.0, 0.0, 1.6202154906245055E9, 2021-05-05 13:51:30.624
76.0, 469.66973876953125, -715.4503173828125, 417.4046325683594, 161.84791564941406, -0.14400000870227814, 0.06400000303983688, 1.040000081062317, 0.0, 0.0, 0.0, 0.0, 0.0, 1.6202154906245055E9, 2021-05-05 13:51:30.624
77.0, 468.5888977050781, -746.8804321289062, 421.896240234375, 165.756103515625, -0.14400000870227814, 0.06400000303983688, 1.040000081062317, 0.0, 0.0, 0.0, 0.0, 0.0, 1.6202154906402578E9, 2021-05-05 13:51:30.640
77.0, 459.7440185546875, -739.060302734375, 421.2903747558594, 156.1333465576172, -0.14400000870227814, 0.06400000303983688, 1.040000081062317, 0.0, 0.0, 0.0, 0.0, 0.0, 1.6202154906402578E9, 2021-05-05 13:51:30.640
78.0, 464.52362060546875, -735.6083984375, 418.4704895019531, 161.3168487548828, -0.14400000870227814, 0.06400000303983688, 1.040000081062317, 0.0, 0.0, 0.0, 0.0, 0.0, 1.6202154906410367E9, 2021-05-05 13:51:30.641
78.0, 473.4806823730469, -730.4249267578125, 414.3416442871094, 163.22793579101562, -0.14400000870227814, 0.06400000303983688, 1.040000081062317, 0.0, 0.0, 0.0, 0.0, 0.0, 1.6202154906410367E9, 2021-05-05 13:51:30.641
79.0, 464.1608581542969, -726.7485961914062, 421.49981689453125, 158.10801696777344, -0.14400000870227814, 0.06400000303983688, 1.040000081062317, 0.0, 0.0, 0.0, 0.0, 0.0, 1.620215490671692E9, 2021-05-05 13:51:30.671
79.0, 464.2319030761719, -742.5982666015625, 417.4607238769531, 154.1736297607422, -0.14400000870227814, 0.06400000303983688, 1.040000081062317, 0.0, 0.0, 0.0, 0.0, 0.0, 1.620215490671692E9, 2021-05-05 13:51:30.671
80.0, 466.93212890625, -720.794677734375, 416.0021667480469, 157.50962829589844, -0.14400000870227814, 0.06400000303983688, 1.040000081062317, 0.0, 0.0, 0.0, 0.0, 0.0, 1.6202154906723356E9, 2021-05-05 13:51:30.672
80.0, 469.8006286621094, -716.0711669921875, 422.31884765625, 173.44908142089844, -0.14400000870227814, 0.06400000303983688, 1.040000081062317, 0.0, 0.0, 0.0, 0.0, 0.0, 1.6202154906723356E9, 2021-05-05 13:51:30.672
81.0, 469.8978576660156, -749.1954345703125, 420.6620788574219, 159.88819885253906, -0.14400000870227814, 0.06400000303983688, 1.040000081062317, 0.0, 0.0, 0.0, 0.0, 0.0, 1.6202154906731603E9, 2021-05-05 13:51:30.673
81.0, 470.9412841796875, -736.3302001953125, 420.64337158203125, 150.55715942382812, -0.14400000870227814, 0.06400000303983688, 1.040000081062317, 0.0, 0.0, 0.0, 0.0, 0.0, 1.6202154906731603E9, 2021-05-05 13:51:30.673
82.0, 479.30743408203125, -726.733642578125, 429.1441650390625, 190.7311553955078, -0.14400000870227814, 0.06400000303983688, 1.040000081062317, 0.0, 0.0, 0.0, 0.0, 0.0, 1.62021549068461E9, 2021-05-05 13:51:30.684
82.0, 484.9247741699219, -723.0161743164062, 426.3429870605469, 186.55369567871094, -0.14400000870227814, 0.06400000303983688, 1.040000081062317, 0.0, 0.0, 0.0, 0.0, 0.0, 1.62021549068461E9, 2021-05-05 13:51:30.684
83.0, 477.57586669921875, -759.4390258789062, 416.802490234375, 160.84934997558594, -0.14400000870227814, 0.06400000303983688, 1.040000081062317, 0.0, 0.0, 0.0, 0.0, 0.0, 1.6202154907002711E9, 2021-05-05 13:51:30.700
83.0, 482.7705993652344, -734.8865966796875, 424.618896484375, 172.962890625, -0.14400000870227814, 0.06400000303983688, 1.040000081062317, 0.0, 0.0, 0.0, 0.0, 0.0, 1.6202154907002711E9, 2021-05-05 13:51:30.700
84.0, 475.500244140625, -717.731689453125, 418.7584533691406, 182.35752868652344, -0.14400000870227814, 0.06400000303983688, 1.040000081062317, 0.0, 0.0, 0.0, 0.0, 0.0, 1.6202154907010112E9, 2021-05-05 13:51:30.701
84.0, 485.9719543457031, -720.5440673828125, 424.49920654296875, 191.60255432128906, -0.14400000870227814, 0.06400000303983688, 1.040000081062317, 0.0, 0.0, 0.0, 0.0, 0.0, 1.6202154907010112E9, 2021-05-05 13:51:30.701
85.0, 478.88482666015625, -740.257080078125, 428.6991271972656, 193.1396484375, -0.14400000870227814, 0.06400000303983688, 1.040000081062317, 0.0, 0.0, 0.0, 0.0, 0.0, 1.6202154907146208E9, 2021-05-05 13:51:30.714
85.0, 482.41156005859375, -721.1275024414062, 436.7847900390625, 190.67880249023438, -0.14400000870227814, 0.06400000303983688, 1.040000081062317, 0.0, 0.0, 0.0, 0.0, 0.0, 1.6202154907146208E9, 2021-05-05 13:51:30.714
86.0, 476.5062561035156, -714.175048828125, 426.6010437011719, 185.41302490234375, -0.14400000870227814, 0.06400000303983688, 1.040000081062317, 0.0, 0.0, 0.0, 0.0, 0.0, 1.62021549073024E9, 2021-05-05 13:51:30.730
86.0, 486.36090087890625, -721.359375, 430.42694091796875, 192.53753662109375, -0.14400000870227814, 0.06400000303983688, 1.040000081062317, 0.0, 0.0, 0.0, 0.0, 0.0, 1.62021549073024E9, 2021-05-05 13:51:30.730
87.0, 474.6363220214844, -733.2709350585938, 422.99951171875, 182.12939453125, -0.14400000870227814, 0.06400000303983688, 1.040000081062317, 0.0, 0.0, 0.0, 0.0, 0.0, 1.6202154907310483E9, 2021-05-05 13:51:30.731
87.0, 472.7887878417969, -719.5230712890625, 422.23284912109375, 175.42001342773438, -0.14400000870227814, 0.06400000303983688, 1.040000081062317, 0.0, 0.0, 0.0, 0.0, 0.0, 1.6202154907310483E9, 2021-05-05 13:51:30.731
88.0, 471.60699462890625, -730.7652587890625, 417.834716796875, 163.48973083496094, -0.14400000870227814, 0.06400000303983688, 1.040000081062317, 0.0, 0.0, 0.0, 0.0, 0.0, 1.6202154907446227E9, 2021-05-05 13:51:30.744
88.0, 470.66455078125, -729.1495971679688, 415.6356506347656, 170.3898468017578, -0.14400000870227814, 0.06400000303983688, 1.040000081062317, 0.0, 0.0, 0.0, 0.0, 0.0, 1.6202154907446227E9, 2021-05-05 13:51:30.744
89.0, 463.93646240234375, -746.7645263671875, 417.50933837890625, 161.08497619628906, -0.14400000870227814, 0.06400000303983688, 1.040000081062317, 0.0, 0.0, 0.0, 0.0, 0.0, 1.6202154907601993E9, 2021-05-05 13:51:30.760
89.0, 464.61712646484375, -735.4774780273438, 419.56256103515625, 147.80831909179688, -0.14400000870227814, 0.06400000303983688, 1.040000081062317, 0.0, 0.0, 0.0, 0.0, 0.0, 1.6202154907601993E9, 2021-05-05 13:51:30.760
90.0, 464.5086669921875, -729.3889770507812, 418.1226806640625, 157.08702087402344, -0.14400000870227814, 0.06400000303983688, 1.040000081062317, 0.0, 0.0, 0.0, 0.0, 0.0, 1.6202154907609572E9, 2021-05-05 13:51:30.760
90.0, 469.2134704589844, -734.4078979492188, 411.5367126464844, 170.30007934570312, -0.14400000870227814, 0.06400000303983688, 1.040000081062317, 0.0, 0.0, 0.0, 0.0, 0.0, 1.6202154907609572E9, 2021-05-05 13:51:30.760
91.0, 462.0066833496094, -740.455322265625, 417.0268859863281, 155.7144775390625, -0.14400000870227814, 0.06400000303983688, 1.040000081062317, 0.0, 0.0, 0.0, 0.0, 0.0, 1.6202154907746336E9, 2021-05-05 13:51:30.774
91.0, 459.5046691894531, -748.1819458007812, 419.4765319824219, 143.94874572753906, -0.14400000870227814, 0.06400000303983688, 1.040000081062317, 0.0, 0.0, 0.0, 0.0, 0.0, 1.6202154907746336E9, 2021-05-05 13:51:30.774
92.0, 458.2368469238281, -743.4995727539062, 417.72625732421875, 165.44195556640625, -0.14400000870227814, 0.06400000303983688, 1.040000081062317, 0.0, 0.0, 0.0, 0.0, 0.0, 1.6202154908067138E9, 2021-05-05 13:51:30.806
92.0, 469.03021240234375, -740.1187133789062, 424.30474853515625, 177.50686645507812, -0.14400000870227814, 0.06400000303983688, 1.040000081062317, 0.0, 0.0, 0.0, 0.0, 0.0, 1.6202154908067138E9, 2021-05-05 13:51:30.806
93.0, 454.7774353027344, -754.1246337890625, 402.893798828125, 139.7189178466797, -0.14400000870227814, 0.06400000303983688, 1.040000081062317, 0.0, 0.0, 0.0, 0.0, 0.0, 1.620215490807408E9, 2021-05-05 13:51:30.807
93.0, 456.1761779785156, -766.8552856445312, 404.935791015625, 139.83859252929688, -0.14400000870227814, 0.06400000303983688, 1.040000081062317, 0.0, 0.0, 0.0, 0.0, 0.0, 1.620215490807408E9, 2021-05-05 13:51:30.807
94.0, 455.9629821777344, -731.5730590820312, 404.6029357910156, 147.2398681640625, -0.14400000870227814, 0.06400000303983688, 1.040000081062317, 0.0, 0.0, 0.0, 0.0, 0.0, 1.6202154908081753E9, 2021-05-05 13:51:30.808
94.0, 465.2828369140625, -750.68017578125, 410.4820556640625, 154.9066619873047, -0.14400000870227814, 0.06400000303983688, 1.040000081062317, 0.0, 0.0, 0.0, 0.0, 0.0, 1.6202154908081753E9, 2021-05-05 13:51:30.808
95.0, 460.0619201660156, -760.6507568359375, 413.6385498046875, 158.302490234375, -0.14400000870227814, 0.06400000303983688, 1.040000081062317, 0.0, 0.0, 0.0, 0.0, 0.0, 1.6202154908089004E9, 2021-05-05 13:51:30.808
95.0, 461.4120178222656, -749.7078247070312, 418.4854431152344, 152.41961669921875, -0.14400000870227814, 0.06400000303983688, 1.040000081062317, 0.0, 0.0, 0.0, 0.0, 0.0, 1.6202154908089004E9, 2021-05-05 13:51:30.808
96.0, 454.9794006347656, -764.7721557617188, 410.3175048828125, 148.54135131835938, -0.14400000870227814, 0.06400000303983688, 1.040000081062317, 0.0, 0.0, 0.0, 0.0, 0.0, 1.6202154908196263E9, 2021-05-05 13:51:30.819
96.0, 453.0458679199219, -752.980224609375, 411.36468505859375, 167.2969512939453, -0.14400000870227814, 0.06400000303983688, 1.040000081062317, 0.0, 0.0, 0.0, 0.0, 0.0, 1.6202154908196263E9, 2021-05-05 13:51:30.819
97.0, 451.56488037109375, -748.0772094726562, 411.7947692871094, 151.5444793701172, -0.14400000870227814, 0.06400000303983688, 1.040000081062317, 0.0, 0.0, 0.0, 0.0, 0.0, 1.6202154908345556E9, 2021-05-05 13:51:30.834
97.0, 440.91363525390625, -778.3068237304688, 403.750244140625, 131.2069091796875, -0.14400000870227814, 0.06400000303983688, 1.040000081062317, 0.0, 0.0, 0.0, 0.0, 0.0, 1.6202154908345556E9, 2021-05-05 13:51:30.834
98.0, 446.0036315917969, -754.0648193359375, 395.2457275390625, 127.99807739257812, -0.14400000870227814, 0.06400000303983688, 1.040000081062317, 0.0, 0.0, 0.0, 0.0, 0.0, 1.620215490850216E9, 2021-05-05 13:51:30.850
98.0, 450.9590148925781, -731.4683227539062, 399.87945556640625, 149.0948486328125, -0.14400000870227814, 0.06400000303983688, 1.040000081062317, 0.0, 0.0, 0.0, 0.0, 0.0, 1.620215490850216E9, 2021-05-05 13:51:30.850
99.0, 445.465087890625, -749.3787231445312, 397.22039794921875, 132.0895233154297, -0.14400000870227814, 0.06400000303983688, 1.040000081062317, 0.0, 0.0, 0.0, 0.0, 0.0, 1.6202154908509302E9, 2021-05-05 13:51:30.850
99.0, 444.08880615234375, -760.2991943359375, 394.3257141113281, 128.12149047851562, -0.14400000870227814, 0.06400000303983688, 1.040000081062317, 0.0, 0.0, 0.0, 0.0, 0.0, 1.6202154908509302E9, 2021-05-05 13:51:30.850
100.0, 462.54522705078125, -733.1475219726562, 403.3800048828125, 142.867919921875, -0.14400000870227814, 0.06400000303983688, 1.040000081062317, 0.0, 0.0, 0.0, 0.0, 0.0, 1.6202154908651948E9, 2021-05-05 13:51:30.865
100.0, 464.1683349609375, -721.4080200195312, 404.1728515625, 139.40476989746094, -0.14400000870227814, 0.06400000303983688, 1.040000081062317, 0.0, 0.0, 0.0, 0.0, 0.0, 1.6202154908651948E9, 2021-05-05 13:51:30.865
0.0, 454.1902770996094, -757.2044677734375, 406.14190673828125, 132.86929321289062, -0.14400000870227814, 0.06400000303983688, 1.040000081062317, 0.0, 0.0, 0.0, 0.0, 0.0, 1.620215490865964E9, 2021-05-05 13:51:30.865
1.0, 457.0064392089844, -740.1505126953125, 409.6910705566406, 133.78182983398438, -0.14400000870227814, 0.06400000303983688, 1.040000081062317, 0.0, 0.0, 0.0, 0.0, 0.0, 1.6202154908794985E9, 2021-05-05 13:51:30.879
1.0, 457.0887145996094, -722.11669921875, 409.0552978515625, 152.4888153076172, -0.14400000870227814, 0.06400000303983688, 1.040000081062317, 0.0, 0.0, 0.0, 0.0, 0.0, 1.6202154908794985E9, 2021-05-05 13:51:30.879
2.0, 462.4704284667969, -739.368896484375, 401.8559875488281, 149.3846893310547, -0.14400000870227814, 0.06400000303983688, 1.040000081062317, 0.0, 0.0, 0.0, 0.0, 0.0, 1.6202154908949664E9, 2021-05-05 13:51:30.894
2.0, 457.0774841308594, -729.0953369140625, 411.1496276855469, 155.4582977294922, -0.14400000870227814, 0.06400000303983688, 1.040000081062317, 0.0, 0.0, 0.0, 0.0, 0.0, 1.6202154908949664E9, 2021-05-05 13:51:30.894
3.0, 455.74981689453125, -760.9219360351562, 410.9850769042969, 155.77244567871094, -0.14400000870227814, 0.06400000303983688, 1.040000081062317, 0.0, 0.0, 0.0, 0.0, 0.0, 1.620215490910296E9, 2021-05-05 13:51:30.910
3.0, 461.59527587890625, -732.2855224609375, 412.72039794921875, 165.12966918945312, -0.14400000870227814, 0.06400000303983688, 1.040000081062317, 0.0, 0.0, 0.0, 0.0, 0.0, 1.620215490910296E9, 2021-05-05 13:51:30.910
4.0, 460.5181884765625, -742.716064453125, 405.9436950683594, 159.2767333984375, -0.14400000870227814, 0.06400000303983688, 1.040000081062317, 0.0, 0.0, 0.0, 0.0, 0.0, 1.6202154909110184E9, 2021-05-05 13:51:30.911
4.0, 460.28631591796875, -738.9051513671875, 412.4698181152344, 160.35755920410156, -0.14400000870227814, 0.06400000303983688, 1.040000081062317, 0.0, 0.0, 0.0, 0.0, 0.0, 1.6202154909110184E9, 2021-05-05 13:51:30.911
5.0, 457.9713134765625, -742.9180297851562, 410.6634521484375, 157.7059783935547, -0.14400000870227814, 0.06400000303983688, 1.040000081062317, 0.0, 0.0, 0.0, 0.0, 0.0, 1.6202154909252002E9, 2021-05-05 13:51:30.925
5.0, 454.9494934082031, -743.725830078125, 407.1591796875, 160.5894317626953, -0.14400000870227814, 0.06400000303983688, 1.040000081062317, 0.0, 0.0, 0.0, 0.0, 0.0, 1.6202154909252002E9, 2021-05-05 13:51:30.925
6.0, 459.2466125488281, -749.029052734375, 418.9510803222656, 185.06333923339844, -0.14400000870227814, 0.06400000303983688, 1.040000081062317, 0.0, 0.0, 0.0, 0.0, 0.0, 1.6202154909259264E9, 2021-05-05 13:51:30.925
6.0, 447.1854553222656, -716.3198852539062, 419.35498046875, 176.2633514404297, -0.14400000870227814, 0.06400000303983688, 1.040000081062317, 0.0, 0.0, 0.0, 0.0, 0.0, 1.6202154909259264E9, 2021-05-05 13:51:30.925
7.0, 452.9822998046875, -744.3280029296875, 418.8388671875, 169.68861389160156, -0.14400000870227814, 0.06400000303983688, 1.040000081062317, 0.0, 0.0, 0.0, 0.0, 0.0, 1.620215490939576E9, 2021-05-05 13:51:30.939
7.0, 447.836181640625, -728.0294799804688, 412.0995788574219, 169.98780822753906, -0.14400000870227814, 0.06400000303983688, 1.040000081062317, 0.0, 0.0, 0.0, 0.0, 0.0, 1.620215490939576E9, 2021-05-05 13:51:30.939
8.0, 458.5098571777344, -733.9909057617188, 421.632568359375, 185.9758758544922, -0.14400000870227814, 0.06400000303983688, 1.040000081062317, 0.0, 0.0, 0.0, 0.0, 0.0, 1.6202154909552183E9, 2021-05-05 13:51:30.955
8.0, 449.29473876953125, -729.3309936523438, 417.81414794921875, 178.83267211914062, -0.14400000870227814, 0.06400000303983688, 1.040000081062317, 0.0, 0.0, 0.0, 0.0, 0.0, 1.6202154909552183E9, 2021-05-05 13:51:30.955
9.0, 445.7306213378906, -744.3765869140625, 413.3861083984375, 157.85556030273438, -0.14400000870227814, 0.06400000303983688, 1.040000081062317, 0.0, 0.0, 0.0, 0.0, 0.0, 1.6202154909559836E9, 2021-05-05 13:51:30.955
9.0, 448.5617370605469, -731.634765625, 402.63763427734375, 149.1416015625, -0.14400000870227814, 0.06400000303983688, 1.040000081062317, 0.0, 0.0, 0.0, 0.0, 0.0, 1.6202154909559836E9, 2021-05-05 13:51:30.955
10.0, 455.1327209472656, -721.2415771484375, 401.75128173828125, 152.76930236816406, -0.14400000870227814, 0.06400000303983688, 1.040000081062317, 0.0, 0.0, 0.0, 0.0, 0.0, 1.6202154909696128E9, 2021-05-05 13:51:30.969
10.0, 446.7852783203125, -767.0441284179688, 400.53955078125, 140.30047607421875, -0.14400000870227814, 0.06400000303983688, 1.040000081062317, 0.0, 0.0, 0.0, 0.0, 0.0, 1.6202154909696128E9, 2021-05-05 13:51:30.969
11.0, 443.2473449707031, -746.953369140625, 390.81207275390625, 125.6737289428711, -0.14400000870227814, 0.06400000303983688, 1.040000081062317, 0.0, 0.0, 0.0, 0.0, 0.0, 1.6202154909852147E9, 2021-05-05 13:51:30.985
11.0, 449.3957214355469, -730.3968505859375, 393.2205505371094, 126.81066131591797, -0.14400000870227814, 0.06400000303983688, 1.040000081062317, 0.0, 0.0, 0.0, 0.0, 0.0, 1.6202154909852147E9, 2021-05-05 13:51:30.985
12.0, 449.71734619140625, -740.356201171875, 400.1244201660156, 148.8461456298828, -0.14400000870227814, 0.06400000303983688, 1.040000081062317, 0.0, 0.0, 0.0, 0.0, 0.0, 1.6202154909860137E9, 2021-05-05 13:51:30.986
12.0, 447.6529235839844, -755.977783203125, 396.3807678222656, 126.69097900390625, -0.14400000870227814, 0.06400000303983688, 1.040000081062317, 0.0, 0.0, 0.0, 0.0, 0.0, 1.6202154909860137E9, 2021-05-05 13:51:30.986
13.0, 441.8560791015625, -745.1544799804688, 404.0924377441406, 122.43497467041016, -0.14400000870227814, 0.06400000303983688, 1.040000081062317, 0.0, 0.0, 0.0, 0.0, 0.0, 1.620215490999668E9, 2021-05-05 13:51:30.999
13.0, 450.6186828613281, -738.172119140625, 406.1718444824219, 138.95037841796875, -0.14400000870227814, 0.06400000303983688, 1.040000081062317, 0.0, 0.0, 0.0, 0.0, 0.0, 1.620215490999668E9, 2021-05-05 13:51:30.999
14.0, 453.4123840332031, -746.7214965820312, 407.3648681640625, 152.58604431152344, -0.14400000870227814, 0.06400000303983688, 1.040000081062317, 0.0, 0.0, 0.0, 0.0, 0.0, 1.620215491015658E9, 2021-05-05 13:51:31.015
14.0, 449.5677490234375, -755.9815063476562, 407.98193359375, 154.9421844482422, -0.14400000870227814, 0.06400000303983688, 1.040000081062317, 0.0, 0.0, 0.0, 0.0, 0.0, 1.620215491015658E9, 2021-05-05 13:51:31.015
15.0, 448.3111572265625, -753.8236083984375, 399.01739501953125, 136.3922882080078, -0.14400000870227814, 0.06400000303983688, 1.040000081062317, 0.0, 0.0, 0.0, 0.0, 0.0, 1.6202154910302467E9, 2021-05-05 13:51:31.030
15.0, 448.7973327636719, -737.8018798828125, 405.60711669921875, 154.7439727783203, -0.14400000870227814, 0.06400000303983688, 1.040000081062317, 0.0, 0.0, 0.0, 0.0, 0.0, 1.6202154910302467E9, 2021-05-05 13:51:31.030
16.0, 457.8890380859375, -742.0279541015625, 408.3746337890625, 155.25633239746094, -0.14400000870227814, 0.06400000303983688, 1.040000081062317, 0.0, 0.0, 0.0, 0.0, 0.0, 1.6202154910310116E9, 2021-05-05 13:51:31.031
16.0, 454.3323974609375, -746.657958984375, 407.0133056640625, 148.86111450195312, -0.14400000870227814, 0.06400000303983688, 1.040000081062317, 0.0, 0.0, 0.0, 0.0, 0.0, 1.6202154910310116E9, 2021-05-05 13:51:31.031
17.0, 444.948974609375, -757.7056274414062, 393.8563537597656, 134.01370239257812, -0.14400000870227814, 0.06400000303983688, 1.040000081062317, 0.0, 0.0, 0.0, 0.0, 0.0, 1.620215491045394E9, 2021-05-05 13:51:31.045
17.0, 450.46160888671875, -731.3318481445312, 392.7942199707031, 136.3324432373047, -0.14400000870227814, 0.06400000303983688, 1.040000081062317, 0.0, 0.0, 0.0, 0.0, 0.0, 1.620215491045394E9, 2021-05-05 13:51:31.045
18.0, 457.6085510253906, -736.3470458984375, 399.4063415527344, 161.25140380859375, -0.14400000870227814, 0.06400000303983688, 1.040000081062317, 0.0, 0.0, 0.0, 0.0, 0.0, 1.6202154910461135E9, 2021-05-05 13:51:31.046
18.0, 439.89263916015625, -771.8910522460938, 387.7976989746094, 128.21311950683594, -0.14400000870227814, 0.06400000303983688, 1.040000081062317, 0.0, 0.0, 0.0, 0.0, 0.0, 1.6202154910461135E9, 2021-05-05 13:51:31.046
19.0, 439.3017272949219, -753.8273315429688, 395.18402099609375, 126.10755920410156, -0.14400000870227814, 0.06400000303983688, 1.040000081062317, 0.0, 0.0, 0.0, 0.0, 0.0, 1.6202154910595372E9, 2021-05-05 13:51:31.059
19.0, 445.476318359375, -745.8762817382812, 388.4783630371094, 135.34510803222656, -0.14400000870227814, 0.06400000303983688, 1.040000081062317, 0.0, 0.0, 0.0, 0.0, 0.0, 1.6202154910595372E9, 2021-05-05 13:51:31.059
20.0, 441.55316162109375, -726.0623168945312, 384.99652099609375, 137.4843292236328, -0.14400000870227814, 0.06400000303983688, 1.040000081062317, 0.0, 0.0, 0.0, 0.0, 0.0, 1.6202154910757675E9, 2021-05-05 13:51:31.075
20.0, 429.6976623535156, -767.8519287109375, 380.4413146972656, 127.64839172363281, -0.14400000870227814, 0.06400000303983688, 1.040000081062317, 0.0, 0.0, 0.0, 0.0, 0.0, 1.6202154910757675E9, 2021-05-05 13:51:31.075
21.0, 430.9767150878906, -734.01708984375, 379.7980651855469, 114.02020263671875, -0.14400000870227814, 0.06400000303983688, 1.040000081062317, 0.0, 0.0, 0.0, 0.0, 0.0, 1.6202154910902588E9, 2021-05-05 13:51:31.090
21.0, 433.2655334472656, -743.2957763671875, 376.9669494628906, 125.18379974365234, -0.14400000870227814, 0.06400000303983688, 1.040000081062317, 0.0, 0.0, 0.0, 0.0, 0.0, 1.6202154910902588E9, 2021-05-05 13:51:31.090
22.0, 443.774658203125, -719.9512939453125, 391.548828125, 141.28407287597656, -0.14400000870227814, 0.06400000303983688, 1.040000081062317, 0.0, 0.0, 0.0, 0.0, 0.0, 1.6202154910909636E9, 2021-05-05 13:51:31.090
22.0, 434.17059326171875, -768.7532958984375, 380.2468566894531, 125.27729797363281, -0.14400000870227814, 0.06400000303983688, 1.040000081062317, 0.0, 0.0, 0.0, 0.0, 0.0, 1.6202154910909636E9, 2021-05-05 13:51:31.090
23.0, 437.8656311035156, -732.6632080078125, 391.57501220703125, 127.10237121582031, -0.14400000870227814, 0.06400000303983688, 1.040000081062317, 0.0, 0.0, 0.0, 0.0, 0.0, 1.6202154911053512E9, 2021-05-05 13:51:31.105
23.0, 443.96539306640625, -750.4015502929688, 389.52178955078125, 138.79330444335938, -0.14400000870227814, 0.06400000303983688, 1.040000081062317, 0.0, 0.0, 0.0, 0.0, 0.0, 1.6202154911053512E9, 2021-05-05 13:51:31.105
24.0, 457.75067138671875, -742.0391845703125, 405.55474853515625, 160.52584838867188, -0.14400000870227814, 0.06400000303983688, 1.040000081062317, 0.0, 0.0, 0.0, 0.0, 0.0, 1.620215491106042E9, 2021-05-05 13:51:31.106
24.0, 453.7377624511719, -746.0034790039062, 398.9800109863281, 142.49954223632812, -0.14400000870227814, 0.06400000303983688, 1.040000081062317, 0.0, 0.0, 0.0, 0.0, 0.0, 1.620215491106042E9, 2021-05-05 13:51:31.106
25.0, 443.43060302734375, -753.984375, 402.4543762207031, 144.89306640625, -0.14400000870227814, 0.06400000303983688, 1.040000081062317, 0.0, 0.0, 0.0, 0.0, 0.0, 1.62021549113676E9, 2021-05-05 13:51:31.136
25.0, 446.9610595703125, -746.130615234375, 393.40380859375, 145.40170288085938, -0.14400000870227814, 0.06400000303983688, 1.040000081062317, 0.0, 0.0, 0.0, 0.0, 0.0, 1.62021549113676E9, 2021-05-05 13:51:31.136
26.0, 449.38824462890625, -728.4371337890625, 396.0928039550781, 165.31666564941406, -0.14400000870227814, 0.06400000303983688, 1.040000081062317, 0.0, 0.0, 0.0, 0.0, 0.0, 1.6202154911374269E9, 2021-05-05 13:51:31.137
26.0, 442.4844055175781, -753.3486328125, 397.2073059082031, 144.3507843017578, -0.14400000870227814, 0.06400000303983688, 1.040000081062317, 0.0, 0.0, 0.0, 0.0, 0.0, 1.6202154911374269E9, 2021-05-05 13:51:31.137
27.0, 438.4041748046875, -740.6553955078125, 401.52313232421875, 145.82431030273438, -0.14400000870227814, 0.06400000303983688, 1.040000081062317, 0.0, 0.0, 0.0, 0.0, 0.0, 1.6202154911381261E9, 2021-05-05 13:51:31.138
27.0, 447.4173278808594, -745.7154541015625, 402.8919372558594, 148.11312866210938, -0.14400000870227814, 0.06400000303983688, 1.040000081062317, 0.0, 0.0, 0.0, 0.0, 0.0, 1.6202154911381261E9, 2021-05-05 13:51:31.138
28.0, 449.89312744140625, -732.5136108398438, 404.4851379394531, 151.7258758544922, -0.14400000870227814, 0.06400000303983688, 1.040000081062317, 0.0, 0.0, 0.0, 0.0, 0.0, 1.6202154911496112E9, 2021-05-05 13:51:31.149
28.0, 443.3931884765625, -738.8751831054688, 404.05877685546875, 147.00238037109375, -0.14400000870227814, 0.06400000303983688, 1.040000081062317, 0.0, 0.0, 0.0, 0.0, 0.0, 1.6202154911496112E9, 2021-05-05 13:51:31.149
29.0, 444.1075134277344, -752.6006469726562, 406.1980285644531, 144.9005584716797, -0.14400000870227814, 0.06400000303983688, 1.040000081062317, 0.0, 0.0, 0.0, 0.0, 0.0, 1.6202154911653037E9, 2021-05-05 13:51:31.165
29.0, 450.3306884765625, -736.6686401367188, 404.1373291015625, 146.28431701660156, -0.14400000870227814, 0.06400000303983688, 1.040000081062317, 0.0, 0.0, 0.0, 0.0, 0.0, 1.6202154911653037E9, 2021-05-05 13:51:31.165
30.0, 456.44171142578125, -732.7081298828125, 408.2175598144531, 165.17080688476562, -0.14400000870227814, 0.06400000303983688, 1.055999994277954, 0.0, 0.0, 0.0, 0.0, 0.0, 1.6202154911660287E9, 2021-05-05 13:51:31.166
30.0, 447.2939147949219, -741.7437133789062, 398.30682373046875, 137.14773559570312, -0.14400000870227814, 0.06400000303983688, 1.055999994277954, 0.0, 0.0, 0.0, 0.0, 0.0, 1.6202154911660287E9, 2021-05-05 13:51:31.166
31.0, 447.43975830078125, -730.2958984375, 400.4909362792969, 143.0754852294922, -0.14400000870227814, 0.06400000303983688, 1.055999994277954, 0.0, 0.0, 0.0, 0.0, 0.0, 1.6202154911796236E9, 2021-05-05 13:51:31.179
31.0, 446.1943664550781, -723.889404296875, 390.7148132324219, 136.40350341796875, -0.14400000870227814, 0.06400000303983688, 1.055999994277954, 0.0, 0.0, 0.0, 0.0, 0.0, 1.6202154911796236E9, 2021-05-05 13:51:31.179
32.0, 450.6186828613281, -724.899169921875, 390.5802001953125, 139.66094970703125, -0.14400000870227814, 0.06400000303983688, 1.055999994277954, 0.0, 0.0, 0.0, 0.0, 0.0, 1.6202154911951797E9, 2021-05-05 13:51:31.195
32.0, 446.5272216796875, -691.505615234375, 395.4532775878906, 132.17367553710938, -0.14400000870227814, 0.06400000303983688, 1.055999994277954, 0.0, 0.0, 0.0, 0.0, 0.0, 1.6202154911951797E9, 2021-05-05 13:51:31.195
33.0, 443.4567565917969, -726.9112548828125, 393.5571594238281, 122.65563201904297, -0.14400000870227814, 0.06400000303983688, 1.055999994277954, 0.0, 0.0, 0.0, 0.0, 0.0, 1.6202154911959004E9, 2021-05-05 13:51:31.195
33.0, 449.63134765625, -705.2572631835938, 393.8825378417969, 125.68494415283203, -0.14400000870227814, 0.06400000303983688, 1.055999994277954, 0.0, 0.0, 0.0, 0.0, 0.0, 1.6202154911959004E9, 2021-05-05 13:51:31.195
34.0, 457.8965148925781, -712.6472778320312, 401.0930480957031, 141.84130859375, -0.14400000870227814, 0.06400000303983688, 1.055999994277954, 0.0, 0.0, 0.0, 0.0, 0.0, 1.6202154912259533E9, 2021-05-05 13:51:31.225
34.0, 452.4587097167969, -730.1126098632812, 395.6290588378906, 133.0712432861328, -0.14400000870227814, 0.06400000303983688, 1.055999994277954, 0.0, 0.0, 0.0, 0.0, 0.0, 1.6202154912259533E9, 2021-05-05 13:51:31.225
35.0, 451.17218017578125, -708.2491455078125, 404.8890380859375, 136.5418701171875, -0.14400000870227814, 0.06400000303983688, 1.055999994277954, 0.0, 0.0, 0.0, 0.0, 0.0, 1.6202154912265947E9, 2021-05-05 13:51:31.226
35.0, 461.63641357421875, -713.5448608398438, 401.807373046875, 145.78317260742188, -0.14400000870227814, 0.06400000303983688, 1.055999994277954, 0.0, 0.0, 0.0, 0.0, 0.0, 1.6202154912265947E9, 2021-05-05 13:51:31.226
36.0, 458.3453063964844, -713.6570434570312, 399.425048828125, 148.1355743408203, -0.14400000870227814, 0.06400000303983688, 1.055999994277954, 0.0, 0.0, 0.0, 0.0, 0.0, 1.6202154912273428E9, 2021-05-05 13:51:31.227
36.0, 453.4049072265625, -727.0047607421875, 407.559326171875, 155.02072143554688, -0.14400000870227814, 0.06400000303983688, 1.055999994277954, 0.0, 0.0, 0.0, 0.0, 0.0, 1.6202154912273428E9, 2021-05-05 13:51:31.227
37.0, 454.0107727050781, -715.0819702148438, 403.8568420410156, 144.16004943847656, -0.14400000870227814, 0.06400000303983688, 1.055999994277954, 0.0, 0.0, 0.0, 0.0, 0.0, 1.620215491239542E9, 2021-05-05 13:51:31.239
37.0, 457.1597595214844, -719.2482299804688, 404.859130859375, 154.3475341796875, -0.14400000870227814, 0.06400000303983688, 1.055999994277954, 0.0, 0.0, 0.0, 0.0, 0.0, 1.620215491239542E9, 2021-05-05 13:51:31.239
38.0, 462.1600036621094, -712.901611328125, 404.507568359375, 159.07852172851562, -0.14400000870227814, 0.06400000303983688, 1.055999994277954, 0.0, 0.0, 0.0, 0.0, 0.0, 1.6202154912552927E9, 2021-05-05 13:51:31.255
38.0, 452.02862548828125, -732.760498046875, 414.83343505859375, 161.6515655517578, -0.14400000870227814, 0.06400000303983688, 1.055999994277954, 0.0, 0.0, 0.0, 0.0, 0.0, 1.6202154912552927E9, 2021-05-05 13:51:31.255
39.0, 450.3306884765625, -739.7203979492188, 410.6447448730469, 153.35272216796875, -0.14400000870227814, 0.06400000303983688, 1.055999994277954, 0.0, 0.0, 0.0, 0.0, 0.0, 1.620215491255942E9, 2021-05-05 13:51:31.255
39.0, 452.2417907714844, -736.3208618164062, 392.66705322265625, 143.54296875, -0.14400000870227814, 0.06400000303983688, 1.055999994277954, 0.0, 0.0, 0.0, 0.0, 0.0, 1.620215491255942E9, 2021-05-05 13:51:31.255
40.0, 457.683349609375, -720.0597534179688, 400.1468505859375, 152.85531616210938, -0.14400000870227814, 0.06400000303983688, 1.040000081062317, 0.0, 0.0, 0.0, 0.0, 0.0, 1.6202154912697515E9, 2021-05-05 13:51:31.269
40.0, 459.5570373535156, -737.8729248046875, 404.3953857421875, 150.84326171875, -0.14400000870227814, 0.06400000303983688, 1.040000081062317, 0.0, 0.0, 0.0, 0.0, 0.0, 1.6202154912697515E9, 2021-05-05 13:51:31.269
41.0, 445.6632995605469, -729.6563720703125, 392.9176330566406, 138.037841796875, -0.14400000870227814, 0.06400000303983688, 1.040000081062317, 0.0, 0.0, 0.0, 0.0, 0.0, 1.6202154912852583E9, 2021-05-05 13:51:31.285
41.0, 453.28521728515625, -734.87353515625, 390.5203552246094, 133.17970275878906, -0.14400000870227814, 0.06400000303983688, 1.040000081062317, 0.0, 0.0, 0.0, 0.0, 0.0, 1.6202154912852583E9, 2021-05-05 13:51:31.285
42.0, 456.14251708984375, -719.5810546875, 394.7576599121094, 152.94508361816406, -0.14400000870227814, 0.06400000303983688, 1.040000081062317, 0.0, 0.0, 0.0, 0.0, 0.0, 1.620215491286081E9, 2021-05-05 13:51:31.286
42.0, 443.44927978515625, -722.2027587890625, 394.94091796875, 151.06016540527344, -0.14400000870227814, 0.06400000303983688, 1.040000081062317, 0.0, 0.0, 0.0, 0.0, 0.0, 1.620215491286081E9, 2021-05-05 13:51:31.286
43.0, 426.87030029296875, -752.3388671875, 369.0495910644531, 109.41264343261719, -0.14400000870227814, 0.06400000303983688, 1.040000081062317, 0.0, 0.0, 0.0, 0.0, 0.0, 1.620215491315956E9, 2021-05-05 13:51:31.315
43.0, 435.26263427734375, -735.4906005859375, 381.60443115234375, 129.0022430419922, -0.14400000870227814, 0.06400000303983688, 1.040000081062317, 0.0, 0.0, 0.0, 0.0, 0.0, 1.620215491315956E9, 2021-05-05 13:51:31.315
44.0, 437.18121337890625, -731.4664916992188, 378.82196044921875, 140.1097412109375, -0.14400000870227814, 0.06400000303983688, 1.040000081062317, 0.0, 0.0, 0.0, 0.0, 0.0, 1.6202154913166988E9, 2021-05-05 13:51:31.316
44.0, 436.7249450683594, -743.7632446289062, 387.66680908203125, 140.573486328125, -0.14400000870227814, 0.06400000303983688, 1.040000081062317, 0.0, 0.0, 0.0, 0.0, 0.0, 1.6202154913166988E9, 2021-05-05 13:51:31.316
45.0, 436.7137145996094, -746.1717529296875, 384.4280700683594, 130.913330078125, -0.14400000870227814, 0.06400000303983688, 1.040000081062317, 0.0, 0.0, 0.0, 0.0, 0.0, 1.62021549131732E9, 2021-05-05 13:51:31.317
45.0, 444.4478454589844, -736.73974609375, 391.8367919921875, 148.35247802734375, -0.14400000870227814, 0.06400000303983688, 1.040000081062317, 0.0, 0.0, 0.0, 0.0, 0.0, 1.62021549131732E9, 2021-05-05 13:51:31.317
46.0, 453.4123840332031, -734.615478515625, 400.5096130371094, 156.61392211914062, -0.14400000870227814, 0.06400000303983688, 1.040000081062317, 0.0, 0.0, 0.0, 0.0, 0.0, 1.6202154913295207E9, 2021-05-05 13:51:31.329
46.0, 446.2504577636719, -737.7644653320312, 403.6212158203125, 154.59437561035156, -0.14400000870227814, 0.06400000303983688, 1.040000081062317, 0.0, 0.0, 0.0, 0.0, 0.0, 1.6202154913295207E9, 2021-05-05 13:51:31.329
47.0, 441.7812805175781, -752.245361328125, 402.4281921386719, 148.9396514892578, -0.14400000870227814, 0.06400000303983688, 1.040000081062317, 0.0, 0.0, 0.0, 0.0, 0.0, 1.6202154913452773E9, 2021-05-05 13:51:31.345
47.0, 444.7919006347656, -729.8844604492188, 404.7992858886719, 162.7062225341797, -0.14400000870227814, 0.06400000303983688, 1.040000081062317, 0.0, 0.0, 0.0, 0.0, 0.0, 1.6202154913452773E9, 2021-05-05 13:51:31.345
48.0, 450.54388427734375, -744.544921875, 402.73114013671875, 173.42477416992188, -0.14400000870227814, 0.06400000303983688, 1.040000081062317, 0.0, 0.0, 0.0, 0.0, 0.0, 1.6202154913460252E9, 2021-05-05 13:51:31.346
48.0, 444.6909484863281, -747.0281982421875, 404.0887145996094, 147.71670532226562, -0.14400000870227814, 0.06400000303983688, 1.040000081062317, 0.0, 0.0, 0.0, 0.0, 0.0, 1.6202154913460252E9, 2021-05-05 13:51:31.346
49.0, 439.3279113769531, -751.482421875, 407.1703796386719, 143.18394470214844, -0.14400000870227814, 0.06400000303983688, 1.040000081062317, 0.0, 0.0, 0.0, 0.0, 0.0, 1.620215491359496E9, 2021-05-05 13:51:31.359
49.0, 448.2625427246094, -741.2687377929688, 406.889892578125, 152.90394592285156, -0.14400000870227814, 0.06400000303983688, 1.040000081062317, 0.0, 0.0, 0.0, 0.0, 0.0, 1.620215491359496E9, 2021-05-05 13:51:31.359
50.0, 452.4699401855469, -746.2652587890625, 405.693115234375, 151.3070068359375, -0.14400000870227814, 0.06400000303983688, 1.040000081062317, 0.0, 0.0, 0.0, 0.0, 0.0, 1.6202154913751855E9, 2021-05-05 13:51:31.375
50.0, 451.5199890136719, -748.0828247070312, 411.32916259765625, 151.606201171875, -0.14400000870227814, 0.06400000303983688, 1.040000081062317, 0.0, 0.0, 0.0, 0.0, 0.0, 1.6202154913751855E9, 2021-05-05 13:51:31.375
51.0, 450.3306884765625, -755.2110595703125, 406.302734375, 139.70582580566406, -0.14400000870227814, 0.06400000303983688, 1.040000081062317, 0.0, 0.0, 0.0, 0.0, 0.0, 1.620215491375975E9, 2021-05-05 13:51:31.375
51.0, 446.56463623046875, -732.8016357421875, 403.9914855957031, 152.84783935546875, -0.14400000870227814, 0.06400000303983688, 1.040000081062317, 0.0, 0.0, 0.0, 0.0, 0.0, 1.620215491375975E9, 2021-05-05 13:51:31.375
52.0, 460.054443359375, -741.2687377929688, 407.06939697265625, 164.22836303710938, -0.14400000870227814, 0.06400000303983688, 1.040000081062317, 0.0, 0.0, 0.0, 0.0, 0.0, 1.6202154913894951E9, 2021-05-05 13:51:31.389
52.0, 445.6446228027344, -757.7766723632812, 406.5719909667969, 154.1979522705078, -0.14400000870227814, 0.06400000303983688, 1.040000081062317, 0.0, 0.0, 0.0, 0.0, 0.0, 1.6202154913894951E9, 2021-05-05 13:51:31.389
53.0, 442.28619384765625, -746.6841430664062, 400.53955078125, 128.4861297607422, -0.14400000870227814, 0.06400000303983688, 1.040000081062317, 0.0, 0.0, 0.0, 0.0, 0.0, 1.6202154914053261E9, 2021-05-05 13:51:31.405
53.0, 444.4366149902344, -740.5843505859375, 397.13623046875, 140.88015747070312, -0.14400000870227814, 0.06400000303983688, 1.040000081062317, 0.0, 0.0, 0.0, 0.0, 0.0, 1.6202154914053261E9, 2021-05-05 13:51:31.405
54.0, 451.8079528808594, -742.2485961914062, 397.5513610839844, 141.88619995117188, -0.14400000870227814, 0.06400000303983688, 1.040000081062317, 0.0, 0.0, 0.0, 0.0, 0.0, 1.6202154914059165E9, 2021-05-05 13:51:31.405
54.0, 450.45037841796875, -737.3530883789062, 400.25531005859375, 134.92250061035156, -0.14400000870227814, 0.06400000303983688, 1.040000081062317, 0.0, 0.0, 0.0, 0.0, 0.0, 1.6202154914059165E9, 2021-05-05 13:51:31.405
55.0, 441.1866455078125, -744.9974365234375, 393.9535827636719, 127.74563598632812, -0.14400000870227814, 0.06400000303983688, 1.040000081062317, 0.0, 0.0, 0.0, 0.0, 0.0, 1.6202154914195344E9, 2021-05-05 13:51:31.419
55.0, 453.2889709472656, -737.1024780273438, 393.4150390625, 136.02203369140625, -0.14400000870227814, 0.06400000303983688, 1.040000081062317, 0.0, 0.0, 0.0, 0.0, 0.0, 1.6202154914195344E9, 2021-05-05 13:51:31.419
56.0, 460.12548828125, -729.0617065429688, 401.2688293457031, 149.3547821044922, -0.14400000870227814, 0.06400000303983688, 1.040000081062317, 0.0, 0.0, 0.0, 0.0, 0.0, 1.6202154914351983E9, 2021-05-05 13:51:31.435
56.0, 442.5853576660156, -749.1150512695312, 395.5692138671875, 133.90150451660156, -0.14400000870227814, 0.06400000303983688, 1.040000081062317, 0.0, 0.0, 0.0, 0.0, 0.0, 1.6202154914351983E9, 2021-05-05 13:51:31.435
57.0, 442.2038879394531, -745.4200439453125, 392.74932861328125, 129.23411560058594, -0.14400000870227814, 0.06400000303983688, 1.040000081062317, 0.0, 0.0, 0.0, 0.0, 0.0, 1.620215491435928E9, 2021-05-05 13:51:31.435
57.0, 449.3321533203125, -722.3523559570312, 400.8462219238281, 152.29808044433594, -0.14400000870227814, 0.06400000303983688, 1.040000081062317, 0.0, 0.0, 0.0, 0.0, 0.0, 1.620215491435928E9, 2021-05-05 13:51:31.435
58.0, 458.6445007324219, -747.0057373046875, 397.1437072753906, 148.5843505859375, -0.14400000870227814, 0.06400000303983688, 1.040000081062317, 0.0, 0.0, 0.0, 0.0, 0.0, 1.6202154914495149E9, 2021-05-05 13:51:31.449
58.0, 448.6851501464844, -738.7031860351562, 396.9529724121094, 143.46817016601562, -0.14400000870227814, 0.06400000303983688, 1.040000081062317, 0.0, 0.0, 0.0, 0.0, 0.0, 1.6202154914495149E9, 2021-05-05 13:51:31.449
59.0, 448.2999267578125, -756.03759765625, 401.0257263183594, 138.6661376953125, -0.14400000870227814, 0.06400000303983688, 1.040000081062317, 0.0, 0.0, 0.0, 0.0, 0.0, 1.6202154914651864E9, 2021-05-05 13:51:31.465
59.0, 451.62469482421875, -742.880615234375, 401.0893249511719, 151.35562133789062, -0.14400000870227814, 0.06400000303983688, 1.040000081062317, 0.0, 0.0, 0.0, 0.0, 0.0, 1.6202154914651864E9, 2021-05-05 13:51:31.465
60.0, 449.724853515625, -731.4552612304688, 402.1028137207031, 148.13931274414062, -0.14400000870227814, 0.06400000303983688, 1.055999994277954, 0.0, 0.0, 0.0, 0.0, 0.0, 1.6202154914659088E9, 2021-05-05 13:51:31.465
60.0, 457.09991455078125, -742.0952758789062, 402.46185302734375, 146.07113647460938, -0.14400000870227814, 0.06400000303983688, 1.055999994277954, 0.0, 0.0, 0.0, 0.0, 0.0, 1.6202154914659088E9, 2021-05-05 13:51:31.465
61.0, 446.42999267578125, -755.3681640625, 398.52374267578125, 137.3160400390625, -0.14400000870227814, 0.06400000303983688, 1.055999994277954, 0.0, 0.0, 0.0, 0.0, 0.0, 1.620215491479509E9, 2021-05-05 13:51:31.479
61.0, 454.0818176269531, -732.2406005859375, 405.06109619140625, 150.89935302734375, -0.14400000870227814, 0.06400000303983688, 1.055999994277954, 0.0, 0.0, 0.0, 0.0, 0.0, 1.620215491479509E9, 2021-05-05 13:51:31.479
62.0, 460.0133056640625, -736.2048950195312, 409.0029296875, 149.62405395507812, -0.14400000870227814, 0.06400000303983688, 1.055999994277954, 0.0, 0.0, 0.0, 0.0, 0.0, 1.6202154914956548E9, 2021-05-05 13:51:31.495
62.0, 453.4385681152344, -753.1915283203125, 403.6960144042969, 141.57203674316406, -0.14400000870227814, 0.06400000303983688, 1.055999994277954, 0.0, 0.0, 0.0, 0.0, 0.0, 1.6202154914956548E9, 2021-05-05 13:51:31.495
63.0, 451.6434020996094, -738.9425048828125, 407.054443359375, 144.7434844970703, -0.14400000870227814, 0.06400000303983688, 1.055999994277954, 0.0, 0.0, 0.0, 0.0, 0.0, 1.6202154915103078E9, 2021-05-05 13:51:31.510
63.0, 459.68792724609375, -738.2282104492188, 405.18450927734375, 143.25125122070312, -0.14400000870227814, 0.06400000303983688, 1.055999994277954, 0.0, 0.0, 0.0, 0.0, 0.0, 1.6202154915103078E9, 2021-05-05 13:51:31.510
64.0, 458.09100341796875, -744.6121826171875, 400.3263854980469, 148.09068298339844, -0.14400000870227814, 0.06400000303983688, 1.055999994277954, 0.0, 0.0, 0.0, 0.0, 0.0, 1.6202154915110302E9, 2021-05-05 13:51:31.511
64.0, 449.2835388183594, -745.1395263671875, 395.6103515625, 133.8379364013672, -0.14400000870227814, 0.06400000303983688, 1.055999994277954, 0.0, 0.0, 0.0, 0.0, 0.0, 1.6202154915110302E9, 2021-05-05 13:51:31.511
65.0, 440.8575439453125, -741.9082641601562, 399.9785461425781, 131.22373962402344, -0.14400000870227814, 0.06400000303983688, 1.055999994277954, 0.0, 0.0, 0.0, 0.0, 0.0, 1.620215491525274E9, 2021-05-05 13:51:31.525
65.0, 466.0794372558594, -728.4633178710938, 412.29779052734375, 163.1288299560547, -0.14400000870227814, 0.06400000303983688, 1.055999994277954, 0.0, 0.0, 0.0, 0.0, 0.0, 1.620215491525274E9, 2021-05-05 13:51:31.525
66.0, 456.7371520996094, -748.26611328125, 395.2288818359375, 139.88534545898438, -0.14400000870227814, 0.06400000303983688, 1.055999994277954, 0.0, 0.0, 0.0, 0.0, 0.0, 1.620215491525915E9, 2021-05-05 13:51:31.525
66.0, 454.38848876953125, -745.5285034179688, 397.9739685058594, 139.78811645507812, -0.14400000870227814, 0.06400000303983688, 1.055999994277954, 0.0, 0.0, 0.0, 0.0, 0.0, 1.620215491525915E9, 2021-05-05 13:51:31.525
67.0, 459.0745849609375, -747.293701171875, 405.5061340332031, 142.6117401123047, -0.14400000870227814, 0.06400000303983688, 1.055999994277954, 0.0, 0.0, 0.0, 0.0, 0.0, 1.620215491539648E9, 2021-05-05 13:51:31.539
67.0, 459.74029541015625, -721.4547729492188, 403.56512451171875, 147.38011169433594, -0.14400000870227814, 0.06400000303983688, 1.055999994277954, 0.0, 0.0, 0.0, 0.0, 0.0, 1.620215491539648E9, 2021-05-05 13:51:31.539
68.0, 464.6395568847656, -748.808349609375, 407.32745361328125, 152.20457458496094, -0.14400000870227814, 0.06400000303983688, 1.055999994277954, 0.0, 0.0, 0.0, 0.0, 0.0, 1.6202154915551622E9, 2021-05-05 13:51:31.555
68.0, 463.435302734375, -746.9234619140625, 405.704345703125, 140.3715362548828, -0.14400000870227814, 0.06400000303983688, 1.055999994277954, 0.0, 0.0, 0.0, 0.0, 0.0, 1.6202154915551622E9, 2021-05-05 13:51:31.555
69.0, 456.1799011230469, -740.9957275390625, 413.37115478515625, 151.72213745117188, -0.14400000870227814, 0.06400000303983688, 1.055999994277954, 0.0, 0.0, 0.0, 0.0, 0.0, 1.6202154915558488E9, 2021-05-05 13:51:31.555
69.0, 461.498046875, -734.2377319335938, 411.32916259765625, 154.0969696044922, -0.14400000870227814, 0.06400000303983688, 1.055999994277954, 0.0, 0.0, 0.0, 0.0, 0.0, 1.6202154915558488E9, 2021-05-05 13:51:31.555
70.0, 465.84381103515625, -721.10693359375, 415.7646789550781, 156.2922821044922, -0.14400000870227814, 0.06400000303983688, 1.055999994277954, 0.0, 0.0, 0.0, 0.0, 0.0, 1.6202154916031327E9, 2021-05-05 13:51:31.603
70.0, 459.27655029296875, -743.9577026367188, 412.0060729980469, 150.84326171875, -0.14400000870227814, 0.06400000303983688, 1.055999994277954, 0.0, 0.0, 0.0, 0.0, 0.0, 1.6202154916031327E9, 2021-05-05 13:51:31.603
71.0, 452.7466735839844, -734.8697509765625, 414.51556396484375, 137.91441345214844, -0.14400000870227814, 0.06400000303983688, 1.055999994277954, 0.0, 0.0, 0.0, 0.0, 0.0, 1.6202154916036475E9, 2021-05-05 13:51:31.603
71.0, 455.9293212890625, -734.2825927734375, 406.7702331542969, 158.01638793945312, -0.14400000870227814, 0.06400000303983688, 1.055999994277954, 0.0, 0.0, 0.0, 0.0, 0.0, 1.6202154916036475E9, 2021-05-05 13:51:31.603
72.0, 458.9287414550781, -741.8073120117188, 418.18438720703125, 167.1903533935547, -0.14400000870227814, 0.06400000303983688, 1.055999994277954, 0.0, 0.0, 0.0, 0.0, 0.0, 1.6202154916044116E9, 2021-05-05 13:51:31.604
72.0, 453.5619812011719, -731.2457885742188, 412.39129638671875, 153.39012145996094, -0.14400000870227814, 0.06400000303983688, 1.055999994277954, 0.0, 0.0, 0.0, 0.0, 0.0, 1.6202154916044116E9, 2021-05-05 13:51:31.604
73.0, 444.9901123046875, -751.80029296875, 407.77252197265625, 140.0312042236328, -0.14400000870227814, 0.06400000303983688, 1.055999994277954, 0.0, 0.0, 0.0, 0.0, 0.0, 1.6202154916051743E9, 2021-05-05 13:51:31.605
73.0, 455.53289794921875, -724.169921875, 412.9298400878906, 150.99659729003906, -0.14400000870227814, 0.06400000303983688, 1.055999994277954, 0.0, 0.0, 0.0, 0.0, 0.0, 1.6202154916051743E9, 2021-05-05 13:51:31.605
74.0, 462.8107604980469, -745.3564453125, 410.3717346191406, 150.89187622070312, -0.14400000870227814, 0.06400000303983688, 1.055999994277954, 0.0, 0.0, 0.0, 0.0, 0.0, 1.6202154916152008E9, 2021-05-05 13:51:31.615
74.0, 458.93621826171875, -735.8645629882812, 411.5423278808594, 139.8255157470703, -0.14400000870227814, 0.06400000303983688, 1.055999994277954, 0.0, 0.0, 0.0, 0.0, 0.0, 1.6202154916152008E9, 2021-05-05 13:51:31.615
75.0, 454.04815673828125, -739.06591796875, 415.18499755859375, 141.4261932373047, -0.14400000870227814, 0.06400000303983688, 1.055999994277954, 0.0, 0.0, 0.0, 0.0, 0.0, 1.6202154916160016E9, 2021-05-05 13:51:31.616
75.0, 458.28546142578125, -738.5909423828125, 408.5616455078125, 146.10479736328125, -0.14400000870227814, 0.06400000303983688, 1.055999994277954, 0.0, 0.0, 0.0, 0.0, 0.0, 1.6202154916160016E9, 2021-05-05 13:51:31.616
76.0, 454.5567932128906, -729.7610473632812, 408.9393615722656, 148.40858459472656, -0.14400000870227814, 0.06400000303983688, 1.055999994277954, 0.0, 0.0, 0.0, 0.0, 0.0, 1.6202154916295044E9, 2021-05-05 13:51:31.629
76.0, 448.9170227050781, -750.4688720703125, 399.9187316894531, 132.67855834960938, -0.14400000870227814, 0.06400000303983688, 1.055999994277954, 0.0, 0.0, 0.0, 0.0, 0.0, 1.6202154916295044E9, 2021-05-05 13:51:31.629
77.0, 444.7358093261719, -754.19384765625, 402.2337341308594, 144.04037475585938, -0.14400000870227814, 0.06400000303983688, 1.055999994277954, 0.0, 0.0, 0.0, 0.0, 0.0, 1.620215491645294E9, 2021-05-05 13:51:31.645
77.0, 442.16650390625, -735.6776123046875, 395.374755859375, 137.016845703125, -0.14400000870227814, 0.06400000303983688, 1.055999994277954, 0.0, 0.0, 0.0, 0.0, 0.0, 1.620215491645294E9, 2021-05-05 13:51:31.645
78.0, 450.887939453125, -752.0508422851562, 387.9884338378906, 137.11782836914062, -0.14400000870227814, 0.06400000303983688, 1.055999994277954, 0.0, 0.0, 0.0, 0.0, 0.0, 1.6202154916460292E9, 2021-05-05 13:51:31.646
78.0, 444.6497802734375, -750.225830078125, 389.36846923828125, 127.33050537109375, -0.14400000870227814, 0.06400000303983688, 1.055999994277954, 0.0, 0.0, 0.0, 0.0, 0.0, 1.6202154916460292E9, 2021-05-05 13:51:31.646
79.0, 444.18603515625, -738.7891845703125, 391.5899658203125, 126.19731140136719, -0.14400000870227814, 0.06400000303983688, 1.055999994277954, 0.0, 0.0, 0.0, 0.0, 0.0, 1.620215491659515E9, 2021-05-05 13:51:31.659
79.0, 443.6026306152344, -741.5043334960938, 387.6331481933594, 131.06666564941406, -0.14400000870227814, 0.06400000303983688, 1.055999994277954, 0.0, 0.0, 0.0, 0.0, 0.0, 1.620215491659515E9, 2021-05-05 13:51:31.659
80.0, 456.06024169921875, -757.4737548828125, 394.3836669921875, 143.01937866210938, -0.14400000870227814, 0.06400000303983688, 1.040000081062317, 0.0, 0.0, 0.0, 0.0, 0.0, 1.6202154916753063E9, 2021-05-05 13:51:31.675
80.0, 441.732666015625, -759.3960571289062, 390.610107421875, 129.0882568359375, -0.14400000870227814, 0.06400000303983688, 1.040000081062317, 0.0, 0.0, 0.0, 0.0, 0.0, 1.6202154916753063E9, 2021-05-05 13:51:31.675
81.0, 444.0962829589844, -749.4254760742188, 400.73028564453125, 136.8148956298828, -0.14400000870227814, 0.06400000303983688, 1.040000081062317, 0.0, 0.0, 0.0, 0.0, 0.0, 1.6202154916760125E9, 2021-05-05 13:51:31.676
81.0, 444.9676818847656, -745.0909423828125, 388.3025817871094, 131.242431640625, -0.14400000870227814, 0.06400000303983688, 1.040000081062317, 0.0, 0.0, 0.0, 0.0, 0.0, 1.6202154916760125E9, 2021-05-05 13:51:31.676
82.0, 446.7890319824219, -739.8849487304688, 390.3819885253906, 134.1670379638672, -0.14400000870227814, 0.06400000303983688, 1.040000081062317, 0.0, 0.0, 0.0, 0.0, 0.0, 1.620215491689577E9, 2021-05-05 13:51:31.689
82.0, 438.516357421875, -740.1766967773438, 395.9544372558594, 132.83189392089844, -0.14400000870227814, 0.06400000303983688, 1.040000081062317, 0.0, 0.0, 0.0, 0.0, 0.0, 1.620215491689577E9, 2021-05-05 13:51:31.689
83.0, 446.1233215332031, -749.8443603515625, 394.8773498535156, 127.71945190429688, -0.14400000870227814, 0.06400000303983688, 1.040000081062317, 0.0, 0.0, 0.0, 0.0, 0.0, 1.6202154917059205E9, 2021-05-05 13:51:31.705
83.0, 450.25592041015625, -739.3202514648438, 397.053955078125, 149.31362915039062, -0.14400000870227814, 0.06400000303983688, 1.040000081062317, 0.0, 0.0, 0.0, 0.0, 0.0, 1.6202154917059205E9, 2021-05-05 13:51:31.705
84.0, 447.0395812988281, -734.5967407226562, 387.7416076660156, 130.81234741210938, -0.14400000870227814, 0.06400000303983688, 1.040000081062317, 0.0, 0.0, 0.0, 0.0, 0.0, 1.6202154917066803E9, 2021-05-05 13:51:31.706
84.0, 441.5718688964844, -757.5784301757812, 393.9423522949219, 135.326416015625, -0.14400000870227814, 0.06400000303983688, 1.040000081062317, 0.0, 0.0, 0.0, 0.0, 0.0, 1.6202154917066803E9, 2021-05-05 13:51:31.706
85.0, 447.3500061035156, -744.0325317382812, 401.2575988769531, 134.72802734375, -0.14400000870227814, 0.06400000303983688, 1.040000081062317, 0.0, 0.0, 0.0, 0.0, 0.0, 1.6202154917194963E9, 2021-05-05 13:51:31.719
85.0, 445.5660705566406, -733.8487548828125, 394.94464111328125, 138.77459716796875, -0.14400000870227814, 0.06400000303983688, 1.040000081062317, 0.0, 0.0, 0.0, 0.0, 0.0, 1.6202154917194963E9, 2021-05-05 13:51:31.719
86.0, 452.8139953613281, -730.1500244140625, 396.72857666015625, 145.89910888671875, -0.14400000870227814, 0.06400000303983688, 1.040000081062317, 0.0, 0.0, 0.0, 0.0, 0.0, 1.6202154917352712E9, 2021-05-05 13:51:31.735
86.0, 448.7375183105469, -747.2974853515625, 398.5574035644531, 138.5389862060547, -0.14400000870227814, 0.06400000303983688, 1.040000081062317, 0.0, 0.0, 0.0, 0.0, 0.0, 1.6202154917352712E9, 2021-05-05 13:51:31.735
87.0, 441.8897399902344, -760.4357299804688, 401.818603515625, 138.4193115234375, -0.14400000870227814, 0.06400000303983688, 1.040000081062317, 0.0, 0.0, 0.0, 0.0, 0.0, 1.620215491736004E9, 2021-05-05 13:51:31.736
87.0, 451.9425964355469, -733.1456909179688, 397.83184814453125, 136.23146057128906, -0.14400000870227814, 0.06400000303983688, 1.040000081062317, 0.0, 0.0, 0.0, 0.0, 0.0, 1.620215491736004E9, 2021-05-05 13:51:31.736
88.0, 451.2993469238281, -731.8890991210938, 400.3562927246094, 136.336181640625, -0.14400000870227814, 0.06400000303983688, 1.040000081062317, 0.0, 0.0, 0.0, 0.0, 0.0, 1.6202154917823083E9, 2021-05-05 13:51:31.782
88.0, 447.8960266113281, -752.211669921875, 408.3858642578125, 136.7139129638672, -0.14400000870227814, 0.06400000303983688, 1.040000081062317, 0.0, 0.0, 0.0, 0.0, 0.0, 1.6202154917823083E9, 2021-05-05 13:51:31.782
89.0, 440.0048522949219, -740.7489013671875, 404.61602783203125, 132.24099731445312, -0.14400000870227814, 0.06400000303983688, 1.040000081062317, 0.0, 0.0, 0.0, 0.0, 0.0, 1.6202154917829783E9, 2021-05-05 13:51:31.782
89.0, 444.6834411621094, -738.748046875, 398.7481384277344, 127.9625473022461, -0.14400000870227814, 0.06400000303983688, 1.040000081062317, 0.0, 0.0, 0.0, 0.0, 0.0, 1.6202154917829783E9, 2021-05-05 13:51:31.782
90.0, 455.8994140625, -743.4939575195312, 404.44775390625, 146.26560974121094, -0.14400000870227814, 0.06400000303983688, 1.055999994277954, 0.0, 0.0, 0.0, 0.0, 0.0, 1.620215491783716E9, 2021-05-05 13:51:31.783
90.0, 448.9619140625, -760.0243530273438, 403.8867492675781, 123.22409057617188, -0.14400000870227814, 0.06400000303983688, 1.055999994277954, 0.0, 0.0, 0.0, 0.0, 0.0, 1.620215491783716E9, 2021-05-05 13:51:31.783
91.0, 442.45074462890625, -750.4501953125, 403.26593017578125, 135.2890167236328, -0.14400000870227814, 0.06400000303983688, 1.055999994277954, 0.0, 0.0, 0.0, 0.0, 0.0, 1.6202154917844634E9, 2021-05-05 13:51:31.784
91.0, 439.7879333496094, -737.5999145507812, 402.5890197753906, 134.11842346191406, -0.14400000870227814, 0.06400000303983688, 1.055999994277954, 0.0, 0.0, 0.0, 0.0, 0.0, 1.6202154917844634E9, 2021-05-05 13:51:31.784
92.0, 448.38970947265625, -736.3806762695312, 405.5585021972656, 148.40858459472656, -0.14400000870227814, 0.06400000303983688, 1.055999994277954, 0.0, 0.0, 0.0, 0.0, 0.0, 1.620215491795205E9, 2021-05-05 13:51:31.795
92.0, 430.7149353027344, -766.120361328125, 395.71881103515625, 127.03878784179688, -0.14400000870227814, 0.06400000303983688, 1.055999994277954, 0.0, 0.0, 0.0, 0.0, 0.0, 1.620215491795205E9, 2021-05-05 13:51:31.795
93.0, 435.55810546875, -746.7514038085938, 402.7273864746094, 127.83538818359375, -0.14400000870227814, 0.06400000303983688, 1.055999994277954, 0.0, 0.0, 0.0, 0.0, 0.0, 1.6202154917959037E9, 2021-05-05 13:51:31.795
93.0, 433.445068359375, -737.38671875, 397.85430908203125, 134.4849395751953, -0.14400000870227814, 0.06400000303983688, 1.055999994277954, 0.0, 0.0, 0.0, 0.0, 0.0, 1.6202154917959037E9, 2021-05-05 13:51:31.795
94.0, 438.4228515625, -753.66650390625, 399.600830078125, 145.3119354248047, -0.14400000870227814, 0.06400000303983688, 1.055999994277954, 0.0, 0.0, 0.0, 0.0, 0.0, 1.620215491809683E9, 2021-05-05 13:51:31.809
94.0, 438.8230285644531, -755.1138305664062, 403.2098388671875, 127.15098571777344, -0.14400000870227814, 0.06400000303983688, 1.055999994277954, 0.0, 0.0, 0.0, 0.0, 0.0, 1.620215491809683E9, 2021-05-05 13:51:31.809
95.0, 431.1412658691406, -744.6907348632812, 406.61688232421875, 136.4147186279297, -0.14400000870227814, 0.06400000303983688, 1.055999994277954, 0.0, 0.0, 0.0, 0.0, 0.0, 1.6202154918252182E9, 2021-05-05 13:51:31.825
95.0, 441.1679382324219, -740.9470825195312, 397.47283935546875, 127.82791137695312, -0.14400000870227814, 0.06400000303983688, 1.055999994277954, 0.0, 0.0, 0.0, 0.0, 0.0, 1.6202154918252182E9, 2021-05-05 13:51:31.825
96.0, 447.2714538574219, -733.7291259765625, 402.40948486328125, 141.54212951660156, -0.14400000870227814, 0.06400000303983688, 1.055999994277954, 0.0, 0.0, 0.0, 0.0, 0.0, 1.6202154918259702E9, 2021-05-05 13:51:31.825
96.0, 434.85125732421875, -758.677978515625, 397.2746276855469, 124.69761657714844, -0.14400000870227814, 0.06400000303983688, 1.055999994277954, 0.0, 0.0, 0.0, 0.0, 0.0, 1.6202154918259702E9, 2021-05-05 13:51:31.825
97.0, 440.9622497558594, -750.9139404296875, 404.42529296875, 128.89752197265625, -0.14400000870227814, 0.06400000303983688, 1.055999994277954, 0.0, 0.0, 0.0, 0.0, 0.0, 1.6202154918396392E9, 2021-05-05 13:51:31.839
97.0, 445.2369689941406, -737.8467407226562, 402.9480285644531, 138.90174865722656, -0.14400000870227814, 0.06400000303983688, 1.055999994277954, 0.0, 0.0, 0.0, 0.0, 0.0, 1.6202154918396392E9, 2021-05-05 13:51:31.839
98.0, 437.2784423828125, -740.9658203125, 391.619873046875, 144.481689453125, -0.14400000870227814, 0.06400000303983688, 1.055999994277954, 0.0, 0.0, 0.0, 0.0, 0.0, 1.6202154918716605E9, 2021-05-05 13:51:31.871
98.0, 436.0704650878906, -760.5404663085938, 392.476318359375, 122.96977996826172, -0.14400000870227814, 0.06400000303983688, 1.055999994277954, 0.0, 0.0, 0.0, 0.0, 0.0, 1.6202154918716605E9, 2021-05-05 13:51:31.871
99.0, 435.4159851074219, -749.41796875, 398.1609802246094, 128.76663208007812, -0.14400000870227814, 0.06400000303983688, 1.055999994277954, 0.0, 0.0, 0.0, 0.0, 0.0, 1.6202154918724008E9, 2021-05-05 13:51:31.872
99.0, 443.2174072265625, -735.5990600585938, 399.095947265625, 140.7043914794922, -0.14400000870227814, 0.06400000303983688, 1.055999994277954, 0.0, 0.0, 0.0, 0.0, 0.0, 1.6202154918724008E9, 2021-05-05 13:51:31.872
100.0, 445.629638671875, -746.0296630859375, 396.724853515625, 134.75794982910156, -0.14400000870227814, 0.06400000303983688, 1.040000081062317, 0.0, 0.0, 0.0, 0.0, 0.0, 1.6202154918731492E9, 2021-05-05 13:51:31.873
100.0, 439.4625549316406, -756.3143310546875, 404.6721496582031, 139.5076141357422, -0.14400000870227814, 0.06400000303983688, 1.040000081062317, 0.0, 0.0, 0.0, 0.0, 0.0, 1.6202154918731492E9, 2021-05-05 13:51:31.873
0.0, 437.0428466796875, -759.786865234375, 394.29205322265625, 132.27090454101562, -0.14400000870227814, 0.06400000303983688, 1.040000081062317, 0.0, 0.0, 0.0, 0.0, 0.0, 1.6202154918738725E9, 2021-05-05 13:51:31.873
1.0, 450.1025695800781, -733.0203857421875, 401.027587890625, 135.20672607421875, -0.14400000870227814, 0.06400000303983688, 1.040000081062317, 0.0, 0.0, 0.0, 0.0, 0.0, 1.6202154918846042E9, 2021-05-05 13:51:31.884
1.0, 452.85888671875, -743.1592407226562, 400.3918151855469, 143.09791564941406, -0.14400000870227814, 0.06400000303983688, 1.040000081062317, 0.0, 0.0, 0.0, 0.0, 0.0, 1.6202154918846042E9, 2021-05-05 13:51:31.884
2.0, 443.5502624511719, -750.5642700195312, 400.6461181640625, 131.1339874267578, -0.14400000870227814, 0.06400000303983688, 1.040000081062317, 0.0, 0.0, 0.0, 0.0, 0.0, 1.6202154919002492E9, 2021-05-05 13:51:31.900
2.0, 444.31695556640625, -757.6513671875, 395.9338684082031, 123.48214721679688, -0.14400000870227814, 0.06400000303983688, 1.040000081062317, 0.0, 0.0, 0.0, 0.0, 0.0, 1.6202154919002492E9, 2021-05-05 13:51:31.900
3.0, 451.5760803222656, -741.9961547851562, 394.7221374511719, 140.1957550048828, -0.14400000870227814, 0.06400000303983688, 1.040000081062317, 0.0, 0.0, 0.0, 0.0, 0.0, 1.6202154919009497E9, 2021-05-05 13:51:31.900
3.0, 455.5628356933594, -741.4949951171875, 398.00201416015625, 150.7908935546875, -0.14400000870227814, 0.06400000303983688, 1.040000081062317, 0.0, 0.0, 0.0, 0.0, 0.0, 1.6202154919009497E9, 2021-05-05 13:51:31.900
4.0, 449.44061279296875, -759.2557983398438, 399.9991149902344, 134.65322875976562, -0.14400000870227814, 0.06400000303983688, 1.040000081062317, 0.0, 0.0, 0.0, 0.0, 0.0, 1.6202154919145904E9, 2021-05-05 13:51:31.914
4.0, 450.9814453125, -740.8330688476562, 405.16766357421875, 139.5113525390625, -0.14400000870227814, 0.06400000303983688, 1.040000081062317, 0.0, 0.0, 0.0, 0.0, 0.0, 1.6202154919145904E9, 2021-05-05 13:51:31.914
5.0, 456.168701171875, -740.971435546875, 405.0741882324219, 150.97415161132812, -0.14400000870227814, 0.06400000303983688, 1.040000081062317, 0.0, 0.0, 0.0, 0.0, 0.0, 1.6202154919302032E9, 2021-05-05 13:51:31.930
5.0, 463.798095703125, -739.2024536132812, 409.50970458984375, 157.6610870361328, -0.14400000870227814, 0.06400000303983688, 1.040000081062317, 0.0, 0.0, 0.0, 0.0, 0.0, 1.6202154919302032E9, 2021-05-05 13:51:31.930
6.0, 453.5732116699219, -749.9135131835938, 407.048828125, 147.36514282226562, -0.14400000870227814, 0.06400000303983688, 1.040000081062317, 0.0, 0.0, 0.0, 0.0, 0.0, 1.6202154919309204E9, 2021-05-05 13:51:31.930
6.0, 453.8200378417969, -729.8078002929688, 412.76715087890625, 143.20263671875, -0.14400000870227814, 0.06400000303983688, 1.040000081062317, 0.0, 0.0, 0.0, 0.0, 0.0, 1.6202154919309204E9, 2021-05-05 13:51:31.930
7.0, 456.7670593261719, -737.0669555664062, 408.5223693847656, 161.8946533203125, -0.14400000870227814, 0.06400000303983688, 1.040000081062317, 0.0, 0.0, 0.0, 0.0, 0.0, 1.620215491944528E9, 2021-05-05 13:51:31.944
7.0, 455.1776123046875, -733.0652465820312, 405.1826171875, 152.18588256835938, -0.14400000870227814, 0.06400000303983688, 1.040000081062317, 0.0, 0.0, 0.0, 0.0, 0.0, 1.620215491944528E9, 2021-05-05 13:51:31.944
8.0, 450.7533264160156, -755.5196533203125, 405.9979248046875, 139.33558654785156, -0.14400000870227814, 0.06400000303983688, 1.040000081062317, 0.0, 0.0, 0.0, 0.0, 0.0, 1.6202154919607024E9, 2021-05-05 13:51:31.960
8.0, 461.21380615234375, -754.6295166015625, 414.0162658691406, 148.13931274414062, -0.14400000870227814, 0.06400000303983688, 1.040000081062317, 0.0, 0.0, 0.0, 0.0, 0.0, 1.6202154919607024E9, 2021-05-05 13:51:31.960
9.0, 463.6447448730469, -732.814697265625, 413.7320556640625, 151.5688018798828, -0.14400000870227814, 0.06400000303983688, 1.040000081062317, 0.0, 0.0, 0.0, 0.0, 0.0, 1.6202154919753184E9, 2021-05-05 13:51:31.975
9.0, 462.56390380859375, -741.6782836914062, 415.5234680175781, 152.26441955566406, -0.14400000870227814, 0.06400000303983688, 1.040000081062317, 0.0, 0.0, 0.0, 0.0, 0.0, 1.6202154919753184E9, 2021-05-05 13:51:31.975
10.0, 456.497802734375, -754.2630004882812, 414.2967529296875, 140.4912109375, -0.14400000870227814, 0.06400000303983688, 1.040000081062317, 0.0, 0.0, 0.0, 0.0, 0.0, 1.6202154919759438E9, 2021-05-05 13:51:31.975
10.0, 454.6802062988281, -744.2064208984375, 413.915283203125, 137.97799682617188, -0.14400000870227814, 0.06400000303983688, 1.040000081062317, 0.0, 0.0, 0.0, 0.0, 0.0, 1.6202154919759438E9, 2021-05-05 13:51:31.975
11.0, 453.0720520019531, -735.6233520507812, 404.7787170410156, 143.43077087402344, -0.14400000870227814, 0.06400000303983688, 1.040000081062317, 0.0, 0.0, 0.0, 0.0, 0.0, 1.6202154920067074E9, 2021-05-05 13:51:32.006
11.0, 457.4888610839844, -733.9703369140625, 413.0364074707031, 155.18153381347656, -0.14400000870227814, 0.06400000303983688, 1.040000081062317, 0.0, 0.0, 0.0, 0.0, 0.0, 1.6202154920067074E9, 2021-05-05 13:51:32.006
12.0, 453.3712463378906, -761.3201904296875, 413.09625244140625, 139.6908721923828, -0.14400000870227814, 0.06400000303983688, 1.040000081062317, 0.0, 0.0, 0.0, 0.0, 0.0, 1.6202154920073233E9, 2021-05-05 13:51:32.007
12.0, 453.3749694824219, -725.5106811523438, 406.83941650390625, 128.81150817871094, -0.14400000870227814, 0.06400000303983688, 1.040000081062317, 0.0, 0.0, 0.0, 0.0, 0.0, 1.6202154920073233E9, 2021-05-05 13:51:32.007
13.0, 463.5400390625, -742.73291015625, 413.61236572265625, 153.80899047851562, -0.14400000870227814, 0.06400000303983688, 1.040000081062317, 0.0, 0.0, 0.0, 0.0, 0.0, 1.6202154920081253E9, 2021-05-05 13:51:32.008
13.0, 454.56427001953125, -746.1287231445312, 404.8460388183594, 143.7224884033203, -0.14400000870227814, 0.06400000303983688, 1.040000081062317, 0.0, 0.0, 0.0, 0.0, 0.0, 1.6202154920081253E9, 2021-05-05 13:51:32.008
14.0, 455.79095458984375, -746.1174926757812, 413.30194091796875, 131.47056579589844, -0.14400000870227814, 0.06400000303983688, 1.040000081062317, 0.0, 0.0, 0.0, 0.0, 0.0, 1.6202154920088632E9, 2021-05-05 13:51:32.008
14.0, 451.5087585449219, -742.4898071289062, 414.1621398925781, 137.20758056640625, -0.14400000870227814, 0.06400000303983688, 1.040000081062317, 0.0, 0.0, 0.0, 0.0, 0.0, 1.6202154920088632E9, 2021-05-05 13:51:32.008
15.0, 458.4986572265625, -741.0686645507812, 405.4444274902344, 135.3600616455078, -0.14400000870227814, 0.06400000303983688, 1.040000081062317, 0.0, 0.0, 0.0, 0.0, 0.0, 1.62021549201958E9, 2021-05-05 13:51:32.019
15.0, 458.70806884765625, -724.24658203125, 415.2242736816406, 149.6988525390625, -0.14400000870227814, 0.06400000303983688, 1.040000081062317, 0.0, 0.0, 0.0, 0.0, 0.0, 1.62021549201958E9, 2021-05-05 13:51:32.019
16.0, 447.9595947265625, -758.0702514648438, 415.20556640625, 138.81947326660156, -0.14400000870227814, 0.06400000303983688, 1.040000081062317, 0.0, 0.0, 0.0, 0.0, 0.0, 1.6202154920345633E9, 2021-05-05 13:51:32.034
16.0, 453.0982360839844, -739.9242553710938, 418.07781982421875, 141.94229125976562, -0.14400000870227814, 0.06400000303983688, 1.040000081062317, 0.0, 0.0, 0.0, 0.0, 0.0, 1.6202154920345633E9, 2021-05-05 13:51:32.034
17.0, 457.4888610839844, -742.7254028320312, 413.410400390625, 148.5918426513672, -0.14400000870227814, 0.06400000303983688, 1.040000081062317, 0.0, 0.0, 0.0, 0.0, 0.0, 1.6202154920672498E9, 2021-05-05 13:51:32.067
17.0, 457.5786437988281, -723.9548950195312, 410.6802978515625, 147.0697021484375, -0.14400000870227814, 0.06400000303983688, 1.040000081062317, 0.0, 0.0, 0.0, 0.0, 0.0, 1.6202154920672498E9, 2021-05-05 13:51:32.067
18.0, 460.1404724121094, -763.1153564453125, 412.87933349609375, 140.17706298828125, -0.14400000870227814, 0.06400000303983688, 1.040000081062317, 0.0, 0.0, 0.0, 0.0, 0.0, 1.620215492067938E9, 2021-05-05 13:51:32.067
18.0, 450.96649169921875, -745.9754028320312, 406.7384338378906, 143.42703247070312, -0.14400000870227814, 0.06400000303983688, 1.040000081062317, 0.0, 0.0, 0.0, 0.0, 0.0, 1.620215492067938E9, 2021-05-05 13:51:32.067
19.0, 453.7639465332031, -740.2758178710938, 399.8196105957031, 139.2645263671875, -0.14400000870227814, 0.06400000303983688, 1.040000081062317, 0.0, 0.0, 0.0, 0.0, 0.0, 1.620215492068745E9, 2021-05-05 13:51:32.068
19.0, 454.52313232421875, -736.0833740234375, 400.90045166015625, 147.90744018554688, -0.14400000870227814, 0.06400000303983688, 1.040000081062317, 0.0, 0.0, 0.0, 0.0, 0.0, 1.620215492068745E9, 2021-05-05 13:51:32.068
20.0, 453.962158203125, -749.6517333984375, 408.01373291015625, 146.04122924804688, -0.14400000870227814, 0.06400000303983688, 1.040000081062317, 0.0, 0.0, 0.0, 0.0, 0.0, 1.6202154920695467E9, 2021-05-05 13:51:32.069
20.0, 450.8954162597656, -744.9544067382812, 409.1618957519531, 142.68280029296875, -0.14400000870227814, 0.06400000303983688, 1.040000081062317, 0.0, 0.0, 0.0, 0.0, 0.0, 1.6202154920695467E9, 2021-05-05 13:51:32.069
21.0, 454.302490234375, -741.6969604492188, 404.7375793457031, 141.49349975585938, -0.14400000870227814, 0.06400000303983688, 1.040000081062317, 0.0, 0.0, 0.0, 0.0, 0.0, 1.6202154920796769E9, 2021-05-05 13:51:32.079
21.0, 456.486572265625, -743.2864379882812, 405.276123046875, 152.111083984375, -0.14400000870227814, 0.06400000303983688, 1.040000081062317, 0.0, 0.0, 0.0, 0.0, 0.0, 1.6202154920796769E9, 2021-05-05 13:51:32.079
22.0, 452.5933532714844, -725.503173828125, 411.0467834472656, 141.8525390625, -0.14400000870227814, 0.06400000303983688, 1.040000081062317, 0.0, 0.0, 0.0, 0.0, 0.0, 1.6202154920946028E9, 2021-05-05 13:51:32.094
22.0, 449.6837158203125, -765.550048828125, 398.7275695800781, 125.26233673095703, -0.14400000870227814, 0.06400000303983688, 1.040000081062317, 0.0, 0.0, 0.0, 0.0, 0.0, 1.6202154920946028E9, 2021-05-05 13:51:32.094
23.0, 454.6241149902344, -739.5726928710938, 403.1929931640625, 135.06088256835938, -0.14400000870227814, 0.06400000303983688, 1.040000081062317, 0.0, 0.0, 0.0, 0.0, 0.0, 1.6202154921102898E9, 2021-05-05 13:51:32.110
23.0, 457.1896667480469, -730.4847412109375, 402.5684509277344, 140.06112670898438, -0.14400000870227814, 0.06400000303983688, 1.040000081062317, 0.0, 0.0, 0.0, 0.0, 0.0, 1.6202154921102898E9, 2021-05-05 13:51:32.110
24.0, 448.3448181152344, -753.4215698242188, 404.00830078125, 133.47515869140625, -0.14400000870227814, 0.06400000303983688, 1.040000081062317, 0.0, 0.0, 0.0, 0.0, 0.0, 1.6202154921110592E9, 2021-05-05 13:51:32.111
24.0, 454.53436279296875, -737.474609375, 404.79742431640625, 130.8721923828125, -0.14400000870227814, 0.06400000303983688, 1.040000081062317, 0.0, 0.0, 0.0, 0.0, 0.0, 1.6202154921110592E9, 2021-05-05 13:51:32.111
25.0, 458.83148193359375, -740.9526977539062, 397.5981140136719, 132.37188720703125, -0.14400000870227814, 0.06400000303983688, 1.040000081062317, 0.0, 0.0, 0.0, 0.0, 0.0, 1.6202154921245031E9, 2021-05-05 13:51:32.124
25.0, 459.05963134765625, -740.7993774414062, 404.79742431640625, 148.31134033203125, -0.14400000870227814, 0.06400000303983688, 1.040000081062317, 0.0, 0.0, 0.0, 0.0, 0.0, 1.6202154921245031E9, 2021-05-05 13:51:32.124
26.0, 455.27484130859375, -752.9428100585938, 401.2594909667969, 135.1880340576172, -0.14400000870227814, 0.06400000303983688, 1.040000081062317, 0.0, 0.0, 0.0, 0.0, 0.0, 1.6202154921403155E9, 2021-05-05 13:51:32.140
26.0, 447.7875671386719, -744.1503295898438, 402.8451843261719, 126.07763671875, -0.14400000870227814, 0.06400000303983688, 1.040000081062317, 0.0, 0.0, 0.0, 0.0, 0.0, 1.6202154921403155E9, 2021-05-05 13:51:32.140
27.0, 460.65283203125, -728.1099243164062, 408.3316345214844, 154.95339965820312, -0.14400000870227814, 0.06400000303983688, 1.040000081062317, 0.0, 0.0, 0.0, 0.0, 0.0, 1.6202154921409757E9, 2021-05-05 13:51:32.140
27.0, 453.5619812011719, -714.3919677734375, 402.3403015136719, 144.59388732910156, -0.14400000870227814, 0.06400000303983688, 1.040000081062317, 0.0, 0.0, 0.0, 0.0, 0.0, 1.6202154921409757E9, 2021-05-05 13:51:32.140
28.0, 447.6080627441406, -765.0638427734375, 401.99249267578125, 137.38710021972656, -0.14400000870227814, 0.06400000303983688, 1.040000081062317, 0.0, 0.0, 0.0, 0.0, 0.0, 1.6202154921546218E9, 2021-05-05 13:51:32.154
28.0, 445.20330810546875, -749.0533447265625, 405.8707580566406, 137.76856994628906, -0.14400000870227814, 0.06400000303983688, 1.040000081062317, 0.0, 0.0, 0.0, 0.0, 0.0, 1.6202154921546218E9, 2021-05-05 13:51:32.154
29.0, 452.6195373535156, -743.4285278320312, 405.2275085449219, 151.17236328125, -0.14400000870227814, 0.06400000303983688, 1.040000081062317, 0.0, 0.0, 0.0, 0.0, 0.0, 1.6202154921709344E9, 2021-05-05 13:51:32.170
29.0, 446.9947204589844, -739.4717407226562, 403.0209655761719, 145.25584411621094, -0.14400000870227814, 0.06400000303983688, 1.040000081062317, 0.0, 0.0, 0.0, 0.0, 0.0, 1.6202154921709344E9, 2021-05-05 13:51:32.170
30.0, 443.1575622558594, -746.4541015625, 402.3103942871094, 136.61293029785156, -0.14400000870227814, 0.06400000303983688, 1.040000081062317, 0.0, 0.0, 0.0, 0.0, 0.0, 1.6202154921716583E9, 2021-05-05 13:51:32.171
30.0, 447.8137512207031, -733.858154296875, 407.3630065917969, 146.0487060546875, -0.14400000870227814, 0.06400000303983688, 1.040000081062317, 0.0, 0.0, 0.0, 0.0, 0.0, 1.6202154921716583E9, 2021-05-05 13:51:32.171
31.0, 442.9818115234375, -737.2913818359375, 398.2152099609375, 141.7627716064453, -0.14400000870227814, 0.06400000303983688, 1.040000081062317, 0.0, 0.0, 0.0, 0.0, 0.0, 1.6202154921847181E9, 2021-05-05 13:51:32.184
31.0, 458.36773681640625, -741.55859375, 409.52838134765625, 157.4067840576172, -0.14400000870227814, 0.06400000303983688, 1.040000081062317, 0.0, 0.0, 0.0, 0.0, 0.0, 1.6202154921847181E9, 2021-05-05 13:51:32.184
32.0, 445.5361633300781, -752.6249389648438, 402.3253479003906, 131.53041076660156, -0.14400000870227814, 0.06400000303983688, 1.040000081062317, 0.0, 0.0, 0.0, 0.0, 0.0, 1.620215492200235E9, 2021-05-05 13:51:32.200
32.0, 451.579833984375, -740.0028076171875, 408.5410461425781, 131.42568969726562, -0.14400000870227814, 0.06400000303983688, 1.040000081062317, 0.0, 0.0, 0.0, 0.0, 0.0, 1.620215492200235E9, 2021-05-05 13:51:32.200
33.0, 452.2118835449219, -738.4395141601562, 399.9692077636719, 146.2506561279297, -0.14400000870227814, 0.06400000303983688, 1.040000081062317, 0.0, 0.0, 0.0, 0.0, 0.0, 1.6202154922009435E9, 2021-05-05 13:51:32.200
33.0, 456.6324462890625, -731.8759765625, 403.9596862792969, 143.73370361328125, -0.14400000870227814, 0.06400000303983688, 1.040000081062317, 0.0, 0.0, 0.0, 0.0, 0.0, 1.6202154922009435E9, 2021-05-05 13:51:32.200
34.0, 449.9941101074219, -750.2538452148438, 402.9798278808594, 130.6515350341797, -0.14400000870227814, 0.06400000303983688, 1.040000081062317, 0.0, 0.0, 0.0, 0.0, 0.0, 1.6202154922145972E9, 2021-05-05 13:51:32.214
34.0, 445.8241271972656, -740.2122192382812, 404.606689453125, 136.73260498046875, -0.14400000870227814, 0.06400000303983688, 1.040000081062317, 0.0, 0.0, 0.0, 0.0, 0.0, 1.6202154922145972E9, 2021-05-05 13:51:32.214
35.0, 453.7527160644531, -731.22900390625, 405.0741882324219, 147.1370086669922, -0.14400000870227814, 0.06400000303983688, 1.040000081062317, 0.0, 0.0, 0.0, 0.0, 0.0, 1.6202154922302003E9, 2021-05-05 13:51:32.230
35.0, 458.61083984375, -729.0523681640625, 407.0301513671875, 153.14703369140625, -0.14400000870227814, 0.06400000303983688, 1.040000081062317, 0.0, 0.0, 0.0, 0.0, 0.0, 1.6202154922302003E9, 2021-05-05 13:51:32.230
36.0, 450.7682800292969, -755.6130981445312, 405.3247375488281, 139.99754333496094, -0.14400000870227814, 0.06400000303983688, 1.040000081062317, 0.0, 0.0, 0.0, 0.0, 0.0, 1.620215492230916E9, 2021-05-05 13:51:32.230
36.0, 450.27459716796875, -741.5885009765625, 413.69091796875, 144.58265686035156, -0.14400000870227814, 0.06400000303983688, 1.040000081062317, 0.0, 0.0, 0.0, 0.0, 0.0, 1.620215492230916E9, 2021-05-05 13:51:32.230
37.0, 454.7138671875, -727.5488891601562, 406.6561584472656, 146.2132568359375, -0.14400000870227814, 0.06400000303983688, 1.040000081062317, 0.0, 0.0, 0.0, 0.0, 0.0, 1.6202154922446413E9, 2021-05-05 13:51:32.244
37.0, 453.4123840332031, -743.94091796875, 401.82794189453125, 140.52113342285156, -0.14400000870227814, 0.06400000303983688, 1.040000081062317, 0.0, 0.0, 0.0, 0.0, 0.0, 1.6202154922446413E9, 2021-05-05 13:51:32.244
38.0, 452.3614807128906, -747.1871337890625, 411.47314453125, 129.69412231445312, -0.14400000870227814, 0.06400000303983688, 1.040000081062317, 0.0, 0.0, 0.0, 0.0, 0.0, 1.620215492260283E9, 2021-05-05 13:51:32.260
38.0, 445.6109619140625, -740.4889526367188, 405.37335205078125, 136.10804748535156, -0.14400000870227814, 0.06400000303983688, 1.040000081062317, 0.0, 0.0, 0.0, 0.0, 0.0, 1.620215492260283E9, 2021-05-05 13:51:32.260
39.0, 450.1960754394531, -723.9324340820312, 407.6771545410156, 143.9693145751953, -0.14400000870227814, 0.06400000303983688, 1.040000081062317, 0.0, 0.0, 0.0, 0.0, 0.0, 1.6202154922609963E9, 2021-05-05 13:51:32.260
39.0, 451.3143005371094, -760.1571044921875, 414.0424499511719, 150.14015197753906, -0.14400000870227814, 0.06400000303983688, 1.040000081062317, 0.0, 0.0, 0.0, 0.0, 0.0, 1.6202154922609963E9, 2021-05-05 13:51:32.260
40.0, 448.2513122558594, -746.8468017578125, 411.6152648925781, 135.63308715820312, -0.14400000870227814, 0.06400000303983688, 1.040000081062317, 0.0, 0.0, 0.0, 0.0, 0.0, 1.6202154922747474E9, 2021-05-05 13:51:32.274
40.0, 442.60406494140625, -730.0733642578125, 412.0266418457031, 128.0223846435547, -0.14400000870227814, 0.06400000303983688, 1.040000081062317, 0.0, 0.0, 0.0, 0.0, 0.0, 1.6202154922747474E9, 2021-05-05 13:51:32.274
41.0, 451.34796142578125, -739.50537109375, 404.6590576171875, 137.49180603027344, -0.14400000870227814, 0.06400000303983688, 1.040000081062317, 0.0, 0.0, 0.0, 0.0, 0.0, 1.620215492290241E9, 2021-05-05 13:51:32.290
41.0, 452.7130126953125, -734.8305053710938, 414.45758056640625, 148.4197998046875, -0.14400000870227814, 0.06400000303983688, 1.040000081062317, 0.0, 0.0, 0.0, 0.0, 0.0, 1.620215492290241E9, 2021-05-05 13:51:32.290
42.0, 444.9153137207031, -747.4339599609375, 408.09600830078125, 127.81668853759766, -0.14400000870227814, 0.06400000303983688, 1.040000081062317, 0.0, 0.0, 0.0, 0.0, 0.0, 1.6202154922910445E9, 2021-05-05 13:51:32.291
42.0, 441.9271545410156, -729.751708984375, 411.6900634765625, 133.34426879882812, -0.14400000870227814, 0.06400000303983688, 1.040000081062317, 0.0, 0.0, 0.0, 0.0, 0.0, 1.6202154922910445E9, 2021-05-05 13:51:32.291
43.0, 451.4377136230469, -748.33154296875, 408.0997619628906, 139.11866760253906, -0.14400000870227814, 0.06400000303983688, 1.040000081062317, 0.0, 0.0, 0.0, 0.0, 0.0, 1.6202154923046277E9, 2021-05-05 13:51:32.304
43.0, 447.4846496582031, -732.9530639648438, 408.2044677734375, 147.0135955810547, -0.14400000870227814, 0.06400000303983688, 1.040000081062317, 0.0, 0.0, 0.0, 0.0, 0.0, 1.6202154923046277E9, 2021-05-05 13:51:32.304
44.0, 445.3641052246094, -742.979736328125, 412.2585144042969, 141.12326049804688, -0.14400000870227814, 0.06400000303983688, 1.040000081062317, 0.0, 0.0, 0.0, 0.0, 0.0, 1.6202154923202913E9, 2021-05-05 13:51:32.320
44.0, 443.31463623046875, -747.9388427734375, 409.4909973144531, 143.71127319335938, -0.14400000870227814, 0.06400000303983688, 1.040000081062317, 0.0, 0.0, 0.0, 0.0, 0.0, 1.6202154923202913E9, 2021-05-05 13:51:32.320
45.0, 441.4895935058594, -731.90966796875, 407.7332458496094, 141.71041870117188, -0.14400000870227814, 0.06400000303983688, 1.040000081062317, 0.0, 0.0, 0.0, 0.0, 0.0, 1.6202154923210688E9, 2021-05-05 13:51:32.321
45.0, 453.6293029785156, -746.4952392578125, 409.0609130859375, 159.84893798828125, -0.14400000870227814, 0.06400000303983688, 1.040000081062317, 0.0, 0.0, 0.0, 0.0, 0.0, 1.6202154923210688E9, 2021-05-05 13:51:32.321
46.0, 443.9317321777344, -739.774658203125, 409.4199523925781, 145.2820281982422, -0.14400000870227814, 0.06400000303983688, 1.040000081062317, 0.0, 0.0, 0.0, 0.0, 0.0, 1.620215492334561E9, 2021-05-05 13:51:32.334
46.0, 444.2571105957031, -735.103515625, 407.08624267578125, 140.1882781982422, -0.14400000870227814, 0.06400000303983688, 1.040000081062317, 0.0, 0.0, 0.0, 0.0, 0.0, 1.620215492334561E9, 2021-05-05 13:51:32.334
47.0, 449.4854736328125, -748.5409545898438, 409.337646484375, 153.68557739257812, -0.14400000870227814, 0.06400000303983688, 1.040000081062317, 0.0, 0.0, 0.0, 0.0, 0.0, 1.6202154923503313E9, 2021-05-05 13:51:32.350
47.0, 449.48175048828125, -741.3453979492188, 410.1716613769531, 157.2721405029297, -0.14400000870227814, 0.06400000303983688, 1.040000081062317, 0.0, 0.0, 0.0, 0.0, 0.0, 1.6202154923503313E9, 2021-05-05 13:51:32.350
48.0, 440.5994873046875, -746.9739379882812, 407.25079345703125, 140.52113342285156, -0.14400000870227814, 0.06400000303983688, 1.040000081062317, 0.0, 0.0, 0.0, 0.0, 0.0, 1.620215492351051E9, 2021-05-05 13:51:32.351
48.0, 442.60406494140625, -737.8710327148438, 413.3692626953125, 146.80416870117188, -0.14400000870227814, 0.06400000303983688, 1.040000081062317, 0.0, 0.0, 0.0, 0.0, 0.0, 1.620215492351051E9, 2021-05-05 13:51:32.351
49.0, 449.47052001953125, -735.5934448242188, 404.6814880371094, 143.12783813476562, -0.14400000870227814, 0.06400000303983688, 1.040000081062317, 0.0, 0.0, 0.0, 0.0, 0.0, 1.6202154923645191E9, 2021-05-05 13:51:32.364
49.0, 455.38330078125, -732.2125854492188, 407.03387451171875, 149.54176330566406, -0.14400000870227814, 0.06400000303983688, 1.040000081062317, 0.0, 0.0, 0.0, 0.0, 0.0, 1.6202154923645191E9, 2021-05-05 13:51:32.364
50.0, 443.2660217285156, -745.1825561523438, 402.7591857910156, 125.11648559570312, -0.14400000870227814, 0.06400000303983688, 1.040000081062317, 0.0, 0.0, 0.0, 0.0, 0.0, 1.6202154923802345E9, 2021-05-05 13:51:32.380
50.0, 443.6699523925781, -746.8954467773438, 408.010009765625, 130.9095916748047, -0.14400000870227814, 0.06400000303983688, 1.040000081062317, 0.0, 0.0, 0.0, 0.0, 0.0, 1.6202154923802345E9, 2021-05-05 13:51:32.380
51.0, 450.5064697265625, -719.3435668945312, 406.637451171875, 143.02687072753906, -0.14400000870227814, 0.06400000303983688, 1.040000081062317, 0.0, 0.0, 0.0, 0.0, 0.0, 1.6202154923810568E9, 2021-05-05 13:51:32.381
51.0, 457.92645263671875, -727.990234375, 411.3721618652344, 150.35707092285156, -0.14400000870227814, 0.06400000303983688, 1.040000081062317, 0.0, 0.0, 0.0, 0.0, 0.0, 1.6202154923810568E9, 2021-05-05 13:51:32.381
52.0, 445.3229675292969, -744.7262573242188, 408.3091735839844, 139.93771362304688, -0.14400000870227814, 0.06400000303983688, 1.040000081062317, 0.0, 0.0, 0.0, 0.0, 0.0, 1.620215492394545E9, 2021-05-05 13:51:32.394
52.0, 444.0140075683594, -720.9517211914062, 407.80804443359375, 139.5188446044922, -0.14400000870227814, 0.06400000303983688, 1.040000081062317, 0.0, 0.0, 0.0, 0.0, 0.0, 1.620215492394545E9, 2021-05-05 13:51:32.394
53.0, 455.5403747558594, -714.2274169921875, 409.2666015625, 146.82286071777344, -0.14400000870227814, 0.06400000303983688, 1.040000081062317, 0.0, 0.0, 0.0, 0.0, 0.0, 1.6202154924101796E9, 2021-05-05 13:51:32.410
53.0, 457.9114685058594, -714.9118041992188, 414.5211486816406, 153.472412109375, -0.14400000870227814, 0.06400000303983688, 1.040000081062317, 0.0, 0.0, 0.0, 0.0, 0.0, 1.6202154924101796E9, 2021-05-05 13:51:32.410
54.0, 449.4031982421875, -722.8403930664062, 414.86895751953125, 148.8872833251953, -0.14400000870227814, 0.06400000303983688, 1.040000081062317, 0.0, 0.0, 0.0, 0.0, 0.0, 1.6202154924253695E9, 2021-05-05 13:51:32.425
54.0, 449.6388244628906, -709.3094482421875, 415.04473876953125, 139.35427856445312, -0.14400000870227814, 0.06400000303983688, 1.040000081062317, 0.0, 0.0, 0.0, 0.0, 0.0, 1.6202154924253695E9, 2021-05-05 13:51:32.425
55.0, 450.5364074707031, -689.5066528320312, 414.62213134765625, 155.56674194335938, -0.14400000870227814, 0.06400000303983688, 1.040000081062317, 0.0, 0.0, 0.0, 0.0, 0.0, 1.6202154924261384E9, 2021-05-05 13:51:32.426
55.0, 454.60540771484375, -691.88525390625, 418.5939025878906, 150.43934631347656, -0.14400000870227814, 0.06400000303983688, 1.040000081062317, 0.0, 0.0, 0.0, 0.0, 0.0, 1.6202154924261384E9, 2021-05-05 13:51:32.426
56.0, 447.5369873046875, -700.3822631835938, 412.576416015625, 146.96124267578125, -0.14400000870227814, 0.06400000303983688, 1.040000081062317, 0.0, 0.0, 0.0, 0.0, 0.0, 1.6202154924403524E9, 2021-05-05 13:51:32.440
56.0, 450.4989929199219, -696.1262817382812, 415.14947509765625, 145.0314483642578, -0.14400000870227814, 0.06400000303983688, 1.040000081062317, 0.0, 0.0, 0.0, 0.0, 0.0, 1.6202154924403524E9, 2021-05-05 13:51:32.440
57.0, 455.0953369140625, -697.6296997070312, 412.4230651855469, 154.41859436035156, -0.14400000870227814, 0.06400000303983688, 1.040000081062317, 0.0, 0.0, 0.0, 0.0, 0.0, 1.6202154924409719E9, 2021-05-05 13:51:32.440
57.0, 454.8559875488281, -688.0929565429688, 414.8577575683594, 155.8023681640625, -0.14400000870227814, 0.06400000303983688, 1.040000081062317, 0.0, 0.0, 0.0, 0.0, 0.0, 1.6202154924409719E9, 2021-05-05 13:51:32.440
58.0, 443.50164794921875, -697.1697387695312, 410.7064514160156, 144.41062927246094, -0.14400000870227814, 0.06400000303983688, 1.040000081062317, 0.0, 0.0, 0.0, 0.0, 0.0, 1.6202154924546661E9, 2021-05-05 13:51:32.454
58.0, 441.0931396484375, -714.5115966796875, 413.0364074707031, 140.59593200683594, -0.14400000870227814, 0.06400000303983688, 1.040000081062317, 0.0, 0.0, 0.0, 0.0, 0.0, 1.6202154924546661E9, 2021-05-05 13:51:32.454
59.0, 461.44195556640625, -692.3564453125, 417.12786865234375, 153.8987579345703, -0.14400000870227814, 0.06400000303983688, 1.040000081062317, 0.0, 0.0, 0.0, 0.0, 0.0, 1.6202154924702227E9, 2021-05-05 13:51:32.470
59.0, 469.0788269042969, -691.5149536132812, 422.13934326171875, 162.7884979248047, -0.14400000870227814, 0.06400000303983688, 1.040000081062317, 0.0, 0.0, 0.0, 0.0, 0.0, 1.6202154924702227E9, 2021-05-05 13:51:32.470
60.0, 459.6842041015625, -700.5281372070312, 423.3735046386719, 151.53887939453125, -0.14400000870227814, 0.06400000303983688, 1.040000081062317, 0.0, 0.0, 0.0, 0.0, 0.0, 1.6202154924709234E9, 2021-05-05 13:51:32.470
60.0, 465.5670471191406, -712.6790771484375, 431.2609558105469, 154.14932250976562, -0.14400000870227814, 0.06400000303983688, 1.040000081062317, 0.0, 0.0, 0.0, 0.0, 0.0, 1.6202154924709234E9, 2021-05-05 13:51:32.470
61.0, 467.10040283203125, -695.5578002929688, 433.9723815917969, 163.0054168701172, -0.14400000870227814, 0.06400000303983688, 1.040000081062317, 0.0, 0.0, 0.0, 0.0, 0.0, 1.6202154924846933E9, 2021-05-05 13:51:32.484
61.0, 473.9331970214844, -712.6005249023438, 440.01605224609375, 170.14488220214844, -0.14400000870227814, 0.06400000303983688, 1.040000081062317, 0.0, 0.0, 0.0, 0.0, 0.0, 1.6202154924846933E9, 2021-05-05 13:51:32.484
62.0, 466.2701721191406, -716.97998046875, 430.9168701171875, 156.75978088378906, -0.14400000870227814, 0.06400000303983688, 1.040000081062317, 0.0, 0.0, 0.0, 0.0, 0.0, 1.6202154925001993E9, 2021-05-05 13:51:32.500
62.0, 456.1051025390625, -717.3015747070312, 425.0340270996094, 143.64395141601562, -0.14400000870227814, 0.06400000303983688, 1.040000081062317, 0.0, 0.0, 0.0, 0.0, 0.0, 1.6202154925001993E9, 2021-05-05 13:51:32.500
63.0, 461.1689453125, -712.2601928710938, 428.8262634277344, 151.01528930664062, -0.14400000870227814, 0.06400000303983688, 1.040000081062317, 0.0, 0.0, 0.0, 0.0, 0.0, 1.6202154925009208E9, 2021-05-05 13:51:32.500
63.0, 459.4784851074219, -719.0668334960938, 429.2750549316406, 154.73275756835938, -0.14400000870227814, 0.06400000303983688, 1.040000081062317, 0.0, 0.0, 0.0, 0.0, 0.0, 1.6202154925009208E9, 2021-05-05 13:51:32.500
64.0, 441.1941223144531, -733.37939453125, 418.328369140625, 126.38430786132812, -0.14400000870227814, 0.06400000303983688, 1.040000081062317, 0.0, 0.0, 0.0, 0.0, 0.0, 1.620215492514614E9, 2021-05-05 13:51:32.514
64.0, 439.1109924316406, -740.8629760742188, 416.54071044921875, 128.69931030273438, -0.14400000870227814, 0.06400000303983688, 1.040000081062317, 0.0, 0.0, 0.0, 0.0, 0.0, 1.620215492514614E9, 2021-05-05 13:51:32.514
65.0, 448.16156005859375, -729.7142944335938, 417.6215515136719, 152.38035583496094, -0.14400000870227814, 0.06400000303983688, 1.040000081062317, 0.0, 0.0, 0.0, 0.0, 0.0, 1.6202154925307045E9, 2021-05-05 13:51:32.530
65.0, 449.19378662109375, -729.53857421875, 413.23089599609375, 145.60365295410156, -0.14400000870227814, 0.06400000303983688, 1.040000081062317, 0.0, 0.0, 0.0, 0.0, 0.0, 1.6202154925307045E9, 2021-05-05 13:51:32.530
66.0, 430.61395263671875, -743.3462524414062, 409.10205078125, 134.2904510498047, -0.14400000870227814, 0.06400000303983688, 1.040000081062317, 0.0, 0.0, 0.0, 0.0, 0.0, 1.6202154925453498E9, 2021-05-05 13:51:32.545
66.0, 430.7037048339844, -748.952392578125, 411.2749328613281, 132.4242401123047, -0.14400000870227814, 0.06400000303983688, 1.040000081062317, 0.0, 0.0, 0.0, 0.0, 0.0, 1.6202154925453498E9, 2021-05-05 13:51:32.545
67.0, 438.6846618652344, -735.6719970703125, 413.82928466796875, 149.13412475585938, -0.14400000870227814, 0.06400000303983688, 1.040000081062317, 0.0, 0.0, 0.0, 0.0, 0.0, 1.6202154925459807E9, 2021-05-05 13:51:32.545
67.0, 441.5718688964844, -736.6780395507812, 413.3804931640625, 151.46034240722656, -0.14400000870227814, 0.06400000303983688, 1.040000081062317, 0.0, 0.0, 0.0, 0.0, 0.0, 1.6202154925459807E9, 2021-05-05 13:51:32.545
68.0, 427.0423583984375, -740.2720336914062, 403.65673828125, 129.12939453125, -0.14400000870227814, 0.06400000303983688, 1.040000081062317, 0.0, 0.0, 0.0, 0.0, 0.0, 1.620215492560196E9, 2021-05-05 13:51:32.560
68.0, 431.7508850097656, -747.1871337890625, 401.8915100097656, 123.35124969482422, -0.14400000870227814, 0.06400000303983688, 1.040000081062317, 0.0, 0.0, 0.0, 0.0, 0.0, 1.620215492560196E9, 2021-05-05 13:51:32.560
69.0, 441.24273681640625, -728.3717041015625, 408.6046447753906, 153.801513671875, -0.14400000870227814, 0.06400000303983688, 1.040000081062317, 0.0, 0.0, 0.0, 0.0, 0.0, 1.620215492560958E9, 2021-05-05 13:51:32.560
69.0, 443.3819580078125, -735.3652954101562, 404.4907531738281, 150.8357696533203, -0.14400000870227814, 0.06400000303983688, 1.040000081062317, 0.0, 0.0, 0.0, 0.0, 0.0, 1.620215492560958E9, 2021-05-05 13:51:32.560
70.0, 434.9111022949219, -749.3076782226562, 400.1038513183594, 129.37997436523438, -0.14400000870227814, 0.06400000303983688, 1.040000081062317, 0.0, 0.0, 0.0, 0.0, 0.0, 1.6202154925745852E9, 2021-05-05 13:51:32.574
70.0, 431.34698486328125, -751.0691528320312, 396.8538818359375, 137.2337646484375, -0.14400000870227814, 0.06400000303983688, 1.040000081062317, 0.0, 0.0, 0.0, 0.0, 0.0, 1.6202154925745852E9, 2021-05-05 13:51:32.574
71.0, 434.35760498046875, -727.545166015625, 392.1864929199219, 142.63417053222656, -0.14400000870227814, 0.06400000303983688, 1.040000081062317, 0.0, 0.0, 0.0, 0.0, 0.0, 1.6202154925903995E9, 2021-05-05 13:51:32.590
71.0, 448.1278991699219, -743.0657348632812, 397.7477111816406, 141.7328643798828, -0.14400000870227814, 0.06400000303983688, 1.040000081062317, 0.0, 0.0, 0.0, 0.0, 0.0, 1.6202154925903995E9, 2021-05-05 13:51:32.590
72.0, 439.30548095703125, -755.3176879882812, 393.2972412109375, 131.76602172851562, -0.14400000870227814, 0.06400000303983688, 1.040000081062317, 0.0, 0.0, 0.0, 0.0, 0.0, 1.6202154925912492E9, 2021-05-05 13:51:32.591
72.0, 432.7980651855469, -743.6043090820312, 391.6067810058594, 127.57733917236328, -0.14400000870227814, 0.06400000303983688, 1.040000081062317, 0.0, 0.0, 0.0, 0.0, 0.0, 1.6202154925912492E9, 2021-05-05 13:51:32.591
73.0, 439.5448303222656, -737.3587036132812, 395.7169494628906, 144.9454345703125, -0.14400000870227814, 0.06400000303983688, 1.040000081062317, 0.0, 0.0, 0.0, 0.0, 0.0, 1.620215492604608E9, 2021-05-05 13:51:32.604
73.0, 446.0821838378906, -752.6922607421875, 403.89984130859375, 152.8740234375, -0.14400000870227814, 0.06400000303983688, 1.040000081062317, 0.0, 0.0, 0.0, 0.0, 0.0, 1.620215492604608E9, 2021-05-05 13:51:32.604
74.0, 433.1795349121094, -754.2031860351562, 395.2307434082031, 130.8572235107422, -0.14400000870227814, 0.06400000303983688, 1.040000081062317, 0.0, 0.0, 0.0, 0.0, 0.0, 1.6202154926203172E9, 2021-05-05 13:51:32.620
74.0, 436.8072204589844, -749.6554565429688, 396.8837890625, 132.81320190429688, -0.14400000870227814, 0.06400000303983688, 1.040000081062317, 0.0, 0.0, 0.0, 0.0, 0.0, 1.6202154926203172E9, 2021-05-05 13:51:32.620
75.0, 441.31005859375, -740.5226440429688, 400.2235107421875, 147.7765350341797, -0.14400000870227814, 0.06400000303983688, 1.040000081062317, 0.0, 0.0, 0.0, 0.0, 0.0, 1.6202154926210396E9, 2021-05-05 13:51:32.621
75.0, 446.6917724609375, -750.3174438476562, 401.0089111328125, 147.1033477783203, -0.14400000870227814, 0.06400000303983688, 1.040000081062317, 0.0, 0.0, 0.0, 0.0, 0.0, 1.6202154926210396E9, 2021-05-05 13:51:32.621
76.0, 443.36328125, -754.1845092773438, 390.7727966308594, 128.6095428466797, -0.14400000870227814, 0.06400000303983688, 1.040000081062317, 0.0, 0.0, 0.0, 0.0, 0.0, 1.620215492651026E9, 2021-05-05 13:51:32.651
76.0, 437.7945556640625, -745.8968505859375, 396.9286804199219, 133.99874877929688, -0.14400000870227814, 0.06400000303983688, 1.040000081062317, 0.0, 0.0, 0.0, 0.0, 0.0, 1.620215492651026E9, 2021-05-05 13:51:32.651
77.0, 447.5856018066406, -742.3252563476562, 400.31329345703125, 142.32749938964844, -0.14400000870227814, 0.06400000303983688, 1.040000081062317, 0.0, 0.0, 0.0, 0.0, 0.0, 1.6202154926517937E9, 2021-05-05 13:51:32.651
77.0, 445.80169677734375, -736.524658203125, 402.32159423828125, 141.7552947998047, -0.14400000870227814, 0.06400000303983688, 1.040000081062317, 0.0, 0.0, 0.0, 0.0, 0.0, 1.6202154926517937E9, 2021-05-05 13:51:32.651
