Sample Index, EXG Channel 0, EXG Channel 1, EXG Channel 2, EXG Channel 3, Accel Channel 0, Accel Channel 1, Accel Channel 2, Other, Other, Other, Other, Other, Timestamp, Timestamp (Formatted)
0.0, 356.66302490234375, -393.7123718261719, 315.0024108886719, 31.791019439697266, 0.0, 0.0, 0.0, 0.0, 0.0, 0.0, 0.0, 0.0, 1.6203032424739857E9, 2021-05-06 14:14:02.473
1.0, 358.7760925292969, -386.0343322753906, 319.58380126953125, 42.920963287353516, 0.0, 0.0, 0.0, 0.0, 0.0, 0.0, 0.0, 0.0, 1.62030324247469E9, 2021-05-06 14:14:02.474
1.0, 353.9179382324219, -396.9997253417969, 303.1581726074219, 35.033512115478516, 0.0, 0.0, 0.0, 0.0, 0.0, 0.0, 0.0, 0.0, 1.62030324247469E9, 2021-05-06 14:14:02.474
2.0, 361.33416748046875, -396.5060729980469, 309.216796875, 41.754112243652344, 0.04800000041723251, 0.0, 0.0, 0.0, 0.0, 0.0, 0.0, 0.0, 1.6203032424893944E9, 2021-05-06 14:14:02.489
2.0, 360.761962890625, -389.9462890625, 316.91351318359375, 39.1848030090332, 0.04800000041723251, 0.0, 0.0, 0.0, 0.0, 0.0, 0.0, 0.0, 1.6203032424893944E9, 2021-05-06 14:14:02.489
3.0, 359.13885498046875, -391.96209716796875, 320.4327697753906, 40.87523651123047, 0.04800000041723251, 0.0, 0.0, 0.0, 0.0, 0.0, 0.0, 0.0, 1.620303242490734E9, 2021-05-06 14:14:02.490
3.0, 361.9811706542969, -401.884033203125, 310.4322509765625, 38.63503646850586, 0.04800000041723251, 0.0, 0.0, 0.0, 0.0, 0.0, 0.0, 0.0, 1.620303242490734E9, 2021-05-06 14:14:02.490
4.0, 347.2684020996094, -407.2882080078125, 302.0623779296875, 32.8007926940918, 0.04800000041723251, 0.0, 0.0, 0.0, 0.0, 0.0, 0.0, 0.0, 1.620303242520199E9, 2021-05-06 14:14:02.520
4.0, 359.1351013183594, -385.2153015136719, 321.3116455078125, 45.718406677246094, 0.04800000041723251, 0.0, 0.0, 0.0, 0.0, 0.0, 0.0, 0.0, 1.620303242520199E9, 2021-05-06 14:14:02.520
5.0, 351.853515625, -388.0613708496094, 318.7572937011719, 42.76014709472656, 0.04800000041723251, 0.0, 0.0, 0.0, 0.0, 0.0, 0.0, 0.0, 1.6203032425208788E9, 2021-05-06 14:14:02.520
5.0, 353.0839538574219, -392.42584228515625, 312.0628662109375, 37.845916748046875, 0.04800000041723251, 0.0, 0.0, 0.0, 0.0, 0.0, 0.0, 0.0, 1.6203032425208788E9, 2021-05-06 14:14:02.520
6.0, 351.1354675292969, -393.4729919433594, 310.92218017578125, 37.954376220703125, 0.04800000041723251, 0.0, 0.0, 0.0, 0.0, 0.0, 0.0, 0.0, 1.620303242521704E9, 2021-05-06 14:14:02.521
6.0, 358.8882751464844, -384.759033203125, 323.5256652832031, 44.66749572753906, 0.04800000041723251, 0.0, 0.0, 0.0, 0.0, 0.0, 0.0, 0.0, 1.620303242521704E9, 2021-05-06 14:14:02.521
7.0, 360.7395324707031, -395.1896057128906, 327.1271667480469, 49.94075393676758, 0.04800000041723251, 0.0, 0.0, 0.0, 0.0, 0.0, 0.0, 0.0, 1.6203032425330467E9, 2021-05-06 14:14:02.533
7.0, 367.5536193847656, -387.9529113769531, 316.681640625, 49.10675811767578, 0.04800000041723251, 0.0, 0.0, 0.0, 0.0, 0.0, 0.0, 0.0, 1.6203032425330467E9, 2021-05-06 14:14:02.533
8.0, 357.32501220703125, -397.75518798828125, 312.8370361328125, 44.8956298828125, 0.04800000041723251, 0.0, 0.0, 0.0, 0.0, 0.0, 0.0, 0.0, 1.620303242548972E9, 2021-05-06 14:14:02.548
8.0, 360.4665222167969, -396.88006591796875, 319.7969665527344, 45.84182357788086, 0.04800000041723251, 0.0, 0.0, 0.0, 0.0, 0.0, 0.0, 0.0, 1.620303242548972E9, 2021-05-06 14:14:02.548
9.0, 353.2036437988281, -390.7279052734375, 314.4115295410156, 40.243194580078125, 0.04800000041723251, 0.0, 0.0, 0.0, 0.0, 0.0, 0.0, 0.0, 1.6203032425495274E9, 2021-05-06 14:14:02.549
9.0, 359.04534912109375, -386.8309326171875, 315.1520080566406, 47.56217956542969, 0.04800000041723251, 0.0, 0.0, 0.0, 0.0, 0.0, 0.0, 0.0, 1.6203032425495274E9, 2021-05-06 14:14:02.549
10.0, 357.4671325683594, -400.47784423828125, 309.145751953125, 36.06946563720703, 0.04800000041723251, 0.0, 1.055999994277954, 0.0, 0.0, 0.0, 0.0, 0.0, 1.6203032425796547E9, 2021-05-06 14:14:02.579
10.0, 353.78704833984375, -402.1346130371094, 318.61517333984375, 33.26454162597656, 0.04800000041723251, 0.0, 1.055999994277954, 0.0, 0.0, 0.0, 0.0, 0.0, 1.6203032425796547E9, 2021-05-06 14:14:02.579
11.0, 358.2599792480469, -387.7584228515625, 319.8792419433594, 39.52513122558594, 0.04800000041723251, 0.0, 1.055999994277954, 0.0, 0.0, 0.0, 0.0, 0.0, 1.6203032425802653E9, 2021-05-06 14:14:02.580
11.0, 353.2335510253906, -391.049560546875, 308.8951721191406, 38.82950973510742, 0.04800000041723251, 0.0, 1.055999994277954, 0.0, 0.0, 0.0, 0.0, 0.0, 1.6203032425802653E9, 2021-05-06 14:14:02.580
12.0, 364.68511962890625, -386.6065368652344, 318.7572937011719, 42.83868408203125, 0.04800000041723251, 0.0, 1.055999994277954, 0.0, 0.0, 0.0, 0.0, 0.0, 1.6203032425809476E9, 2021-05-06 14:14:02.580
12.0, 361.88018798828125, -385.2227783203125, 325.5264892578125, 43.34730911254883, 0.04800000041723251, 0.0, 1.055999994277954, 0.0, 0.0, 0.0, 0.0, 0.0, 1.6203032425809476E9, 2021-05-06 14:14:02.580
13.0, 355.2381286621094, -394.8118896484375, 317.08929443359375, 41.05849075317383, 0.04800000041723251, 0.0, 1.055999994277954, 0.0, 0.0, 0.0, 0.0, 0.0, 1.620303242593226E9, 2021-05-06 14:14:02.593
13.0, 363.33502197265625, -386.44573974609375, 315.55218505859375, 46.630943298339844, 0.04800000041723251, 0.0, 1.055999994277954, 0.0, 0.0, 0.0, 0.0, 0.0, 1.620303242593226E9, 2021-05-06 14:14:02.593
14.0, 356.1319885253906, -393.5328369140625, 311.3074035644531, 40.299293518066406, 0.04800000041723251, 0.0, 1.055999994277954, 0.0, 0.0, 0.0, 0.0, 0.0, 1.620303242608772E9, 2021-05-06 14:14:02.608
14.0, 353.9029846191406, -389.3030090332031, 319.88671875, 37.50558853149414, 0.04800000041723251, 0.0, 1.055999994277954, 0.0, 0.0, 0.0, 0.0, 0.0, 1.620303242608772E9, 2021-05-06 14:14:02.608
15.0, 358.24127197265625, -383.9624328613281, 323.8585205078125, 42.49461364746094, 0.04800000041723251, 0.0, 1.055999994277954, 0.0, 0.0, 0.0, 0.0, 0.0, 1.6203032426095572E9, 2021-05-06 14:14:02.609
15.0, 360.63482666015625, -388.7831726074219, 319.74835205078125, 44.64879608154297, 0.04800000041723251, 0.0, 1.055999994277954, 0.0, 0.0, 0.0, 0.0, 0.0, 1.6203032426095572E9, 2021-05-06 14:14:02.609
16.0, 364.80853271484375, -392.3921813964844, 315.2567443847656, 49.645301818847656, 0.04800000041723251, 0.0, 1.055999994277954, 0.0, 0.0, 0.0, 0.0, 0.0, 1.620303242639176E9, 2021-05-06 14:14:02.639
16.0, 356.1506652832031, -400.4067687988281, 316.0383605957031, 35.994667053222656, 0.04800000041723251, 0.0, 1.055999994277954, 0.0, 0.0, 0.0, 0.0, 0.0, 1.620303242639176E9, 2021-05-06 14:14:02.639
17.0, 355.5747375488281, -386.2250671386719, 318.0504455566406, 41.204349517822266, 0.04800000041723251, 0.0, 1.055999994277954, 0.0, 0.0, 0.0, 0.0, 0.0, 1.6203032426399124E9, 2021-05-06 14:14:02.639
17.0, 360.0588684082031, -390.9336242675781, 306.94293212890625, 35.28034591674805, 0.04800000041723251, 0.0, 1.055999994277954, 0.0, 0.0, 0.0, 0.0, 0.0, 1.6203032426399124E9, 2021-05-06 14:14:02.639
18.0, 349.49365234375, -395.73565673828125, 302.679443359375, 33.1635627746582, 0.04800000041723251, 0.0, 1.055999994277954, 0.0, 0.0, 0.0, 0.0, 0.0, 1.6203032426538744E9, 2021-05-06 14:14:02.653
18.0, 372.46038818359375, -380.9929504394531, 328.7764892578125, 46.09613800048828, 0.04800000041723251, 0.0, 1.055999994277954, 0.0, 0.0, 0.0, 0.0, 0.0, 1.6203032426538744E9, 2021-05-06 14:14:02.653
19.0, 349.79656982421875, -391.40484619140625, 313.77947998046875, 28.17079734802246, 0.04800000041723251, 0.0, 1.055999994277954, 0.0, 0.0, 0.0, 0.0, 0.0, 1.6203032426545136E9, 2021-05-06 14:14:02.654
19.0, 355.54107666015625, -396.6855773925781, 308.2818298339844, 29.509679794311523, 0.04800000041723251, 0.0, 1.055999994277954, 0.0, 0.0, 0.0, 0.0, 0.0, 1.6203032426545136E9, 2021-05-06 14:14:02.654
20.0, 370.31365966796875, -386.8421630859375, 326.1174011230469, 49.873435974121094, 0.04800000041723251, 0.0, 1.055999994277954, 0.0, 0.0, 0.0, 0.0, 0.0, 1.6203032426692712E9, 2021-05-06 14:14:02.669
20.0, 361.7605285644531, -391.214111328125, 320.144775390625, 42.45347595214844, 0.04800000041723251, 0.0, 1.055999994277954, 0.0, 0.0, 0.0, 0.0, 0.0, 1.6203032426692712E9, 2021-05-06 14:14:02.669
21.0, 355.9674072265625, -392.63153076171875, 318.86199951171875, 41.39134216308594, 0.04800000041723251, 0.0, 1.055999994277954, 0.0, 0.0, 0.0, 0.0, 0.0, 1.620303242685262E9, 2021-05-06 14:14:02.685
21.0, 355.1521301269531, -391.0906982421875, 309.53094482421875, 44.26732635498047, 0.04800000041723251, 0.0, 1.055999994277954, 0.0, 0.0, 0.0, 0.0, 0.0, 1.620303242685262E9, 2021-05-06 14:14:02.685
22.0, 352.2088317871094, -395.04376220703125, 308.4463806152344, 39.85050582885742, 0.04800000041723251, 0.0, 1.055999994277954, 0.0, 0.0, 0.0, 0.0, 0.0, 1.6203032426859417E9, 2021-05-06 14:14:02.685
22.0, 352.30230712890625, -386.8496398925781, 322.8973388671875, 44.8657112121582, 0.04800000041723251, 0.0, 1.055999994277954, 0.0, 0.0, 0.0, 0.0, 0.0, 1.6203032426859417E9, 2021-05-06 14:14:02.685
23.0, 354.6060791015625, -395.63092041015625, 316.610595703125, 33.87788391113281, 0.04800000041723251, 0.0, 1.055999994277954, 0.0, 0.0, 0.0, 0.0, 0.0, 1.6203032426867008E9, 2021-05-06 14:14:02.686
23.0, 358.9294128417969, -390.5110168457031, 309.8525695800781, 36.80622482299805, 0.04800000041723251, 0.0, 1.055999994277954, 0.0, 0.0, 0.0, 0.0, 0.0, 1.6203032426867008E9, 2021-05-06 14:14:02.686
24.0, 368.14453125, -393.5440673828125, 313.2446594238281, 43.42584991455078, 0.04800000041723251, 0.0, 1.055999994277954, 0.0, 0.0, 0.0, 0.0, 0.0, 1.6203032426982205E9, 2021-05-06 14:14:02.698
24.0, 364.4644775390625, -396.02362060546875, 320.4514465332031, 42.06078338623047, 0.04800000041723251, 0.0, 1.055999994277954, 0.0, 0.0, 0.0, 0.0, 0.0, 1.6203032426982205E9, 2021-05-06 14:14:02.698
25.0, 360.99383544921875, -396.14703369140625, 315.49981689453125, 38.990325927734375, 0.04800000041723251, 0.0, 1.055999994277954, 0.0, 0.0, 0.0, 0.0, 0.0, 1.6203032427131407E9, 2021-05-06 14:14:02.713
25.0, 363.5481872558594, -388.54754638671875, 311.92449951171875, 43.470726013183594, 0.04800000041723251, 0.0, 1.055999994277954, 0.0, 0.0, 0.0, 0.0, 0.0, 1.6203032427131407E9, 2021-05-06 14:14:02.713
26.0, 355.1446533203125, -400.16741943359375, 310.2490234375, 39.16984176635742, 0.04800000041723251, 0.0, 1.055999994277954, 0.0, 0.0, 0.0, 0.0, 0.0, 1.6203032427289712E9, 2021-05-06 14:14:02.728
26.0, 353.2073669433594, -392.4931640625, 314.8677978515625, 33.54129409790039, 0.04800000041723251, 0.0, 1.055999994277954, 0.0, 0.0, 0.0, 0.0, 0.0, 1.6203032427289712E9, 2021-05-06 14:14:02.728
27.0, 359.4043884277344, -392.9942932128906, 317.3136901855469, 38.11518859863281, 0.04800000041723251, 0.0, 1.055999994277954, 0.0, 0.0, 0.0, 0.0, 0.0, 1.6203032427297359E9, 2021-05-06 14:14:02.729
27.0, 360.61236572265625, -384.6430969238281, 315.8027648925781, 46.70574188232422, 0.04800000041723251, 0.0, 1.055999994277954, 0.0, 0.0, 0.0, 0.0, 0.0, 1.6203032427297359E9, 2021-05-06 14:14:02.729
28.0, 365.53033447265625, -389.6396179199219, 321.79034423828125, 48.70658874511719, 0.04800000041723251, 0.0, 1.055999994277954, 0.0, 0.0, 0.0, 0.0, 0.0, 1.620303242743157E9, 2021-05-06 14:14:02.743
28.0, 350.05462646484375, -395.8441162109375, 315.907470703125, 37.19891357421875, 0.04800000041723251, 0.0, 1.055999994277954, 0.0, 0.0, 0.0, 0.0, 0.0, 1.620303242743157E9, 2021-05-06 14:14:02.743
29.0, 350.1144714355469, -383.584716796875, 317.8484802246094, 36.19662094116211, 0.04800000041723251, 0.0, 1.055999994277954, 0.0, 0.0, 0.0, 0.0, 0.0, 1.6203032427589073E9, 2021-05-06 14:14:02.758
29.0, 356.3414001464844, -382.0924987792969, 309.650634765625, 33.608612060546875, 0.04800000041723251, 0.0, 1.055999994277954, 0.0, 0.0, 0.0, 0.0, 0.0, 1.6203032427589073E9, 2021-05-06 14:14:02.758
30.0, 364.7599182128906, -387.6911315917969, 309.4299621582031, 39.33439636230469, 0.04800000041723251, 0.0, 1.055999994277954, 0.0, 0.0, 0.0, 0.0, 0.0, 1.6203032427596452E9, 2021-05-06 14:14:02.759
30.0, 346.59149169921875, -398.4433288574219, 310.34625244140625, 31.974275588989258, 0.04800000041723251, 0.0, 1.055999994277954, 0.0, 0.0, 0.0, 0.0, 0.0, 1.6203032427596452E9, 2021-05-06 14:14:02.759
31.0, 354.38543701171875, -389.9874267578125, 313.2259826660156, 40.142215728759766, 0.04800000041723251, 0.0, 1.055999994277954, 0.0, 0.0, 0.0, 0.0, 0.0, 1.6203032427895179E9, 2021-05-06 14:14:02.789
31.0, 368.402587890625, -387.4068908691406, 308.0723876953125, 41.72793197631836, 0.04800000041723251, 0.0, 1.055999994277954, 0.0, 0.0, 0.0, 0.0, 0.0, 1.6203032427895179E9, 2021-05-06 14:14:02.789
32.0, 359.3782043457031, -393.7160949707031, 309.4411926269531, 43.31365203857422, 0.04800000041723251, 0.0, 1.055999994277954, 0.0, 0.0, 0.0, 0.0, 0.0, 1.6203032427903512E9, 2021-05-06 14:14:02.790
32.0, 356.2479248046875, -390.5147399902344, 318.88818359375, 41.099632263183594, 0.04800000041723251, 0.0, 1.055999994277954, 0.0, 0.0, 0.0, 0.0, 0.0, 1.6203032427903512E9, 2021-05-06 14:14:02.790
33.0, 350.99334716796875, -395.5000305175781, 303.8799743652344, 33.5861701965332, 0.04800000041723251, 0.0, 1.055999994277954, 0.0, 0.0, 0.0, 0.0, 0.0, 1.6203032427910137E9, 2021-05-06 14:14:02.791
33.0, 360.7694396972656, -390.76904296875, 309.5122375488281, 48.31389617919922, 0.04800000041723251, 0.0, 1.055999994277954, 0.0, 0.0, 0.0, 0.0, 0.0, 1.6203032427910137E9, 2021-05-06 14:14:02.791
34.0, 357.94207763671875, -389.7181396484375, 317.2912292480469, 49.970672607421875, 0.04800000041723251, 0.0, 1.055999994277954, 0.0, 0.0, 0.0, 0.0, 0.0, 1.6203032428030732E9, 2021-05-06 14:14:02.803
34.0, 365.2984619140625, -386.2213439941406, 324.9468078613281, 48.302677154541016, 0.04800000041723251, 0.0, 1.055999994277954, 0.0, 0.0, 0.0, 0.0, 0.0, 1.6203032428030732E9, 2021-05-06 14:14:02.803
35.0, 354.1573181152344, -396.5958251953125, 310.29388427734375, 31.065479278564453, 0.04800000041723251, 0.0, 1.055999994277954, 0.0, 0.0, 0.0, 0.0, 0.0, 1.6203032428189518E9, 2021-05-06 14:14:02.818
35.0, 368.4437255859375, -386.8085021972656, 313.00531005859375, 47.71177291870117, 0.04800000041723251, 0.0, 1.055999994277954, 0.0, 0.0, 0.0, 0.0, 0.0, 1.6203032428189518E9, 2021-05-06 14:14:02.818
36.0, 364.2288513183594, -393.95172119140625, 315.1108703613281, 44.28602600097656, 0.04800000041723251, 0.0, 1.055999994277954, 0.0, 0.0, 0.0, 0.0, 0.0, 1.6203032428198323E9, 2021-05-06 14:14:02.819
36.0, 348.1024169921875, -395.67205810546875, 311.58416748046875, 30.160423278808594, 0.04800000041723251, 0.0, 1.055999994277954, 0.0, 0.0, 0.0, 0.0, 0.0, 1.6203032428198323E9, 2021-05-06 14:14:02.819
37.0, 356.6106872558594, -385.3275146484375, 315.6157531738281, 43.84471893310547, 0.04800000041723251, 0.0, 1.055999994277954, 0.0, 0.0, 0.0, 0.0, 0.0, 1.6203032428331902E9, 2021-05-06 14:14:02.833
37.0, 361.453857421875, -392.5268249511719, 313.6261291503906, 41.0809326171875, 0.04800000041723251, 0.0, 1.055999994277954, 0.0, 0.0, 0.0, 0.0, 0.0, 1.6203032428331902E9, 2021-05-06 14:14:02.833
38.0, 355.9861145019531, -396.2891540527344, 307.9265441894531, 33.930240631103516, 0.04800000041723251, 0.0, 1.055999994277954, 0.0, 0.0, 0.0, 0.0, 0.0, 1.620303242848866E9, 2021-05-06 14:14:02.848
38.0, 351.9395446777344, -392.6913757324219, 313.4466247558594, 35.609458923339844, 0.04800000041723251, 0.0, 1.055999994277954, 0.0, 0.0, 0.0, 0.0, 0.0, 1.620303242848866E9, 2021-05-06 14:14:02.848
39.0, 354.4901428222656, -388.480224609375, 320.7917785644531, 44.577735900878906, 0.04800000041723251, 0.0, 1.055999994277954, 0.0, 0.0, 0.0, 0.0, 0.0, 1.6203032428495216E9, 2021-05-06 14:14:02.849
39.0, 353.7384338378906, -396.8501281738281, 306.06781005859375, 37.763641357421875, 0.04800000041723251, 0.0, 1.055999994277954, 0.0, 0.0, 0.0, 0.0, 0.0, 1.6203032428495216E9, 2021-05-06 14:14:02.849
40.0, 354.77813720703125, -394.1761169433594, 311.27374267578125, 42.920963287353516, 0.04800000041723251, 0.0, 1.055999994277954, 0.0, 0.0, 0.0, 0.0, 0.0, 1.6203032428632135E9, 2021-05-06 14:14:02.863
40.0, 345.6864318847656, -402.9087829589844, 303.82012939453125, 22.508588790893555, 0.04800000041723251, 0.0, 1.055999994277954, 0.0, 0.0, 0.0, 0.0, 0.0, 1.6203032428632135E9, 2021-05-06 14:14:02.863
41.0, 354.6771545410156, -385.9632873535156, 313.8131408691406, 37.804779052734375, 0.04800000041723251, 0.0, 1.055999994277954, 0.0, 0.0, 0.0, 0.0, 0.0, 1.620303242878961E9, 2021-05-06 14:14:02.878
41.0, 359.3632507324219, -390.37261962890625, 311.87213134765625, 35.69547653198242, 0.04800000041723251, 0.0, 1.055999994277954, 0.0, 0.0, 0.0, 0.0, 0.0, 1.620303242878961E9, 2021-05-06 14:14:02.878
42.0, 364.8870849609375, -390.79522705078125, 314.4414367675781, 42.670387268066406, 0.04800000041723251, 0.0, 1.055999994277954, 0.0, 0.0, 0.0, 0.0, 0.0, 1.6203032428796244E9, 2021-05-06 14:14:02.879
42.0, 351.75628662109375, -408.9898376464844, 310.39111328125, 31.005640029907227, 0.04800000041723251, 0.0, 1.055999994277954, 0.0, 0.0, 0.0, 0.0, 0.0, 1.6203032428796244E9, 2021-05-06 14:14:02.879
43.0, 360.20098876953125, -390.9149169921875, 322.3550720214844, 45.83434295654297, 0.04800000041723251, 0.0, 1.055999994277954, 0.0, 0.0, 0.0, 0.0, 0.0, 1.6203032428932035E9, 2021-05-06 14:14:02.893
43.0, 349.61334228515625, -401.10614013671875, 304.2801208496094, 36.83240509033203, 0.04800000041723251, 0.0, 1.055999994277954, 0.0, 0.0, 0.0, 0.0, 0.0, 1.6203032428932035E9, 2021-05-06 14:14:02.893
44.0, 352.5229797363281, -399.40447998046875, 310.6977844238281, 36.73890686035156, 0.04800000041723251, 0.0, 1.055999994277954, 0.0, 0.0, 0.0, 0.0, 0.0, 1.6203032429087927E9, 2021-05-06 14:14:02.908
44.0, 343.3377685546875, -406.57012939453125, 307.0326843261719, 25.934335708618164, 0.04800000041723251, 0.0, 1.055999994277954, 0.0, 0.0, 0.0, 0.0, 0.0, 1.6203032429087927E9, 2021-05-06 14:14:02.908
45.0, 363.9483642578125, -382.6160888671875, 327.8564453125, 52.61852264404297, 0.04800000041723251, 0.0, 1.055999994277954, 0.0, 0.0, 0.0, 0.0, 0.0, 1.6203032429095147E9, 2021-05-06 14:14:02.909
45.0, 352.1676940917969, -395.9039306640625, 304.5867919921875, 33.649749755859375, 0.04800000041723251, 0.0, 1.055999994277954, 0.0, 0.0, 0.0, 0.0, 0.0, 1.6203032429095147E9, 2021-05-06 14:14:02.909
46.0, 359.04534912109375, -388.86920166015625, 317.1453857421875, 43.90455627441406, 0.04800000041723251, 0.0, 1.055999994277954, 0.0, 0.0, 0.0, 0.0, 0.0, 1.6203032429231126E9, 2021-05-06 14:14:02.923
46.0, 344.0520935058594, -400.863037109375, 313.4952392578125, 31.85833740234375, 0.04800000041723251, 0.0, 1.055999994277954, 0.0, 0.0, 0.0, 0.0, 0.0, 1.6203032429231126E9, 2021-05-06 14:14:02.923
47.0, 351.50946044921875, -398.2039794921875, 314.721923828125, 35.373844146728516, 0.04800000041723251, 0.0, 1.055999994277954, 0.0, 0.0, 0.0, 0.0, 0.0, 1.6203032429388008E9, 2021-05-06 14:14:02.938
47.0, 350.13690185546875, -388.667236328125, 310.5594177246094, 36.68655014038086, 0.04800000041723251, 0.0, 1.055999994277954, 0.0, 0.0, 0.0, 0.0, 0.0, 1.6203032429388008E9, 2021-05-06 14:14:02.938
48.0, 355.24560546875, -392.564208984375, 311.6776428222656, 40.7705192565918, 0.04800000041723251, 0.0, 1.055999994277954, 0.0, 0.0, 0.0, 0.0, 0.0, 1.6203032429394772E9, 2021-05-06 14:14:02.939
48.0, 350.0209655761719, -393.3196716308594, 310.3013610839844, 38.833251953125, 0.04800000041723251, 0.0, 1.055999994277954, 0.0, 0.0, 0.0, 0.0, 0.0, 1.6203032429394772E9, 2021-05-06 14:14:02.939
49.0, 347.29833984375, -408.9561767578125, 306.4567565917969, 30.160423278808594, 0.04800000041723251, 0.0, 1.055999994277954, 0.0, 0.0, 0.0, 0.0, 0.0, 1.6203032429532273E9, 2021-05-06 14:14:02.953
49.0, 361.90264892578125, -392.3136291503906, 313.3531188964844, 41.944847106933594, 0.04800000041723251, 0.0, 1.055999994277954, 0.0, 0.0, 0.0, 0.0, 0.0, 1.6203032429532273E9, 2021-05-06 14:14:02.953
50.0, 361.94378662109375, -395.0512390136719, 316.5133361816406, 46.552406311035156, 0.04800000041723251, 0.0, 1.055999994277954, 0.0, 0.0, 0.0, 0.0, 0.0, 1.6203032429688137E9, 2021-05-06 14:14:02.968
50.0, 351.2252197265625, -403.7128601074219, 312.3807678222656, 35.09334945678711, 0.04800000041723251, 0.0, 1.055999994277954, 0.0, 0.0, 0.0, 0.0, 0.0, 1.6203032429688137E9, 2021-05-06 14:14:02.968
51.0, 353.19989013671875, -403.2528381347656, 316.5657043457031, 37.756160736083984, 0.04800000041723251, 0.0, 1.055999994277954, 0.0, 0.0, 0.0, 0.0, 0.0, 1.6203032429697185E9, 2021-05-06 14:14:02.969
51.0, 353.58135986328125, -406.9441223144531, 298.41595458984375, 32.27720642089844, 0.04800000041723251, 0.0, 1.055999994277954, 0.0, 0.0, 0.0, 0.0, 0.0, 1.6203032429697185E9, 2021-05-06 14:14:02.969
52.0, 349.89007568359375, -403.2640686035156, 303.4124755859375, 32.15005111694336, 0.04800000041723251, 0.0, 1.055999994277954, 0.0, 0.0, 0.0, 0.0, 0.0, 1.6203032429832668E9, 2021-05-06 14:14:02.983
52.0, 348.88031005859375, -389.0412292480469, 318.1327209472656, 32.894290924072266, 0.04800000041723251, 0.0, 1.055999994277954, 0.0, 0.0, 0.0, 0.0, 0.0, 1.6203032429832668E9, 2021-05-06 14:14:02.983
53.0, 351.7488098144531, -396.132080078125, 317.08929443359375, 34.016258239746094, 0.04800000041723251, 0.0, 1.055999994277954, 0.0, 0.0, 0.0, 0.0, 0.0, 1.6203032429987924E9, 2021-05-06 14:14:02.998
53.0, 350.2229309082031, -405.76605224609375, 304.5942687988281, 30.242700576782227, 0.04800000041723251, 0.0, 1.055999994277954, 0.0, 0.0, 0.0, 0.0, 0.0, 1.6203032429987924E9, 2021-05-06 14:14:02.998
54.0, 355.2755432128906, -401.9289245605469, 303.4573669433594, 33.402915954589844, 0.04800000041723251, 0.0, 1.055999994277954, 0.0, 0.0, 0.0, 0.0, 0.0, 1.6203032429996326E9, 2021-05-06 14:14:02.999
54.0, 353.8543701171875, -395.627197265625, 309.7665710449219, 30.440916061401367, 0.04800000041723251, 0.0, 1.055999994277954, 0.0, 0.0, 0.0, 0.0, 0.0, 1.6203032429996326E9, 2021-05-06 14:14:02.999
55.0, 351.93206787109375, -393.1102294921875, 307.21221923828125, 35.747833251953125, 0.04800000041723251, 0.0, 1.055999994277954, 0.0, 0.0, 0.0, 0.0, 0.0, 1.6203032430130997E9, 2021-05-06 14:14:03.013
55.0, 354.5537414550781, -390.7802734375, 301.50885009765625, 37.131595611572266, 0.04800000041723251, 0.0, 1.055999994277954, 0.0, 0.0, 0.0, 0.0, 0.0, 1.6203032430130997E9, 2021-05-06 14:14:03.013
56.0, 361.0499267578125, -393.7048645019531, 305.7461853027344, 42.565670013427734, 0.04800000041723251, 0.0, 1.055999994277954, 0.0, 0.0, 0.0, 0.0, 0.0, 1.620303243028813E9, 2021-05-06 14:14:03.028
56.0, 354.3069152832031, -389.4937438964844, 316.2515563964844, 39.139923095703125, 0.04800000041723251, 0.0, 1.055999994277954, 0.0, 0.0, 0.0, 0.0, 0.0, 1.620303243028813E9, 2021-05-06 14:14:03.028
57.0, 344.77764892578125, -393.0204772949219, 309.4411926269531, 35.48604202270508, 0.04800000041723251, 0.0, 1.055999994277954, 0.0, 0.0, 0.0, 0.0, 0.0, 1.6203032430296085E9, 2021-05-06 14:14:03.029
57.0, 353.8431396484375, -392.5118408203125, 308.8128967285156, 41.712974548339844, 0.04800000041723251, 0.0, 1.055999994277954, 0.0, 0.0, 0.0, 0.0, 0.0, 1.6203032430296085E9, 2021-05-06 14:14:03.029
58.0, 357.2801208496094, -400.3394470214844, 309.0597229003906, 43.294952392578125, 0.04800000041723251, 0.0, 1.055999994277954, 0.0, 0.0, 0.0, 0.0, 0.0, 1.6203032430430975E9, 2021-05-06 14:14:03.043
58.0, 355.26806640625, -395.70947265625, 315.9523620605469, 41.054752349853516, 0.04800000041723251, 0.0, 1.055999994277954, 0.0, 0.0, 0.0, 0.0, 0.0, 1.6203032430430975E9, 2021-05-06 14:14:03.043
59.0, 348.1547546386719, -396.03485107421875, 307.54132080078125, 33.33185958862305, 0.04800000041723251, 0.0, 1.055999994277954, 0.0, 0.0, 0.0, 0.0, 0.0, 1.6203032430589406E9, 2021-05-06 14:14:03.058
59.0, 353.7421875, -388.996337890625, 306.5240783691406, 39.82432556152344, 0.04800000041723251, 0.0, 1.055999994277954, 0.0, 0.0, 0.0, 0.0, 0.0, 1.6203032430589406E9, 2021-05-06 14:14:03.058
60.0, 353.8955078125, -399.52789306640625, 308.5137023925781, 38.45926284790039, 0.04800000041723251, 0.0, 1.055999994277954, 0.0, 0.0, 0.0, 0.0, 0.0, 1.6203032430594928E9, 2021-05-06 14:14:03.059
60.0, 349.1346130371094, -400.54888916015625, 306.2398376464844, 30.175382614135742, 0.04800000041723251, 0.0, 1.055999994277954, 0.0, 0.0, 0.0, 0.0, 0.0, 1.6203032430594928E9, 2021-05-06 14:14:03.059
61.0, 351.853515625, -391.8349304199219, 310.12933349609375, 37.80104064941406, 0.04800000041723251, 0.0, 1.055999994277954, 0.0, 0.0, 0.0, 0.0, 0.0, 1.6203032430730872E9, 2021-05-06 14:14:03.073
61.0, 347.1150817871094, -400.5115051269531, 300.3008728027344, 33.76568603515625, 0.04800000041723251, 0.0, 1.055999994277954, 0.0, 0.0, 0.0, 0.0, 0.0, 1.6203032430730872E9, 2021-05-06 14:14:03.073
62.0, 348.0462951660156, -401.1248474121094, 298.69647216796875, 32.70729446411133, 0.04800000041723251, 0.0, 1.055999994277954, 0.0, 0.0, 0.0, 0.0, 0.0, 1.6203032431058185E9, 2021-05-06 14:14:03.105
62.0, 359.5128479003906, -386.3484802246094, 322.42987060546875, 47.52103805541992, 0.04800000041723251, 0.0, 1.055999994277954, 0.0, 0.0, 0.0, 0.0, 0.0, 1.6203032431058185E9, 2021-05-06 14:14:03.105
63.0, 350.8213195800781, -393.2523498535156, 308.5024719238281, 34.06488037109375, 0.04800000041723251, 0.0, 1.055999994277954, 0.0, 0.0, 0.0, 0.0, 0.0, 1.6203032431065133E9, 2021-05-06 14:14:03.106
63.0, 359.3108825683594, -398.7911376953125, 311.4457702636719, 40.70320129394531, 0.04800000041723251, 0.0, 1.055999994277954, 0.0, 0.0, 0.0, 0.0, 0.0, 1.6203032431065133E9, 2021-05-06 14:14:03.106
64.0, 349.740478515625, -401.6334533691406, 298.1317443847656, 29.468542098999023, 0.04800000041723251, 0.0, 1.055999994277954, 0.0, 0.0, 0.0, 0.0, 0.0, 1.6203032431072743E9, 2021-05-06 14:14:03.107
64.0, 356.6817321777344, -396.4312744140625, 309.96478271484375, 29.008533477783203, 0.04800000041723251, 0.0, 1.055999994277954, 0.0, 0.0, 0.0, 0.0, 0.0, 1.6203032431072743E9, 2021-05-06 14:14:03.107
65.0, 358.1664733886719, -385.4696044921875, 311.16156005859375, 34.2967529296875, 0.04800000041723251, 0.0, 1.055999994277954, 0.0, 0.0, 0.0, 0.0, 0.0, 1.620303243108049E9, 2021-05-06 14:14:03.108
65.0, 359.7970886230469, -393.420654296875, 309.55712890625, 38.14884948730469, 0.04800000041723251, 0.0, 1.055999994277954, 0.0, 0.0, 0.0, 0.0, 0.0, 1.620303243108049E9, 2021-05-06 14:14:03.108
66.0, 358.8022766113281, -391.3076171875, 314.3890686035156, 40.47132873535156, 0.04800000041723251, 0.0, 1.055999994277954, 0.0, 0.0, 0.0, 0.0, 0.0, 1.6203032431181931E9, 2021-05-06 14:14:03.118
66.0, 353.3008728027344, -394.77447509765625, 317.25384521484375, 37.88331604003906, 0.04800000041723251, 0.0, 1.055999994277954, 0.0, 0.0, 0.0, 0.0, 0.0, 1.6203032431181931E9, 2021-05-06 14:14:03.118
67.0, 360.4253845214844, -392.96063232421875, 313.6261291503906, 33.99382019042969, 0.04800000041723251, 0.0, 1.055999994277954, 0.0, 0.0, 0.0, 0.0, 0.0, 1.6203032431332448E9, 2021-05-06 14:14:03.133
67.0, 344.59063720703125, -391.0869445800781, 312.3209228515625, 38.73601531982422, 0.04800000041723251, 0.0, 1.055999994277954, 0.0, 0.0, 0.0, 0.0, 0.0, 1.6203032431332448E9, 2021-05-06 14:14:03.133
68.0, 355.81781005859375, -390.79522705078125, 313.16986083984375, 37.191436767578125, 0.04800000041723251, 0.0, 1.055999994277954, 0.0, 0.0, 0.0, 0.0, 0.0, 1.620303243148982E9, 2021-05-06 14:14:03.148
68.0, 343.3826599121094, -395.72442626953125, 310.73895263671875, 27.190942764282227, 0.04800000041723251, 0.0, 1.055999994277954, 0.0, 0.0, 0.0, 0.0, 0.0, 1.620303243148982E9, 2021-05-06 14:14:03.148
69.0, 361.1733703613281, -391.4310302734375, 318.1327209472656, 39.618629455566406, 0.04800000041723251, 0.0, 1.055999994277954, 0.0, 0.0, 0.0, 0.0, 0.0, 1.620303243149672E9, 2021-05-06 14:14:03.149
69.0, 366.6597900390625, -389.007568359375, 311.6626892089844, 42.588111877441406, 0.04800000041723251, 0.0, 1.055999994277954, 0.0, 0.0, 0.0, 0.0, 0.0, 1.620303243149672E9, 2021-05-06 14:14:03.149
70.0, 360.4927062988281, -393.1513671875, 310.76885986328125, 37.79356002807617, 0.04800000041723251, 0.0, 1.055999994277954, 0.0, 0.0, 0.0, 0.0, 0.0, 1.6203032431632876E9, 2021-05-06 14:14:03.163
70.0, 355.6158752441406, -390.9223937988281, 316.3899230957031, 33.95268249511719, 0.04800000041723251, 0.0, 1.055999994277954, 0.0, 0.0, 0.0, 0.0, 0.0, 1.6203032431632876E9, 2021-05-06 14:14:03.163
71.0, 359.97283935546875, -382.9564208984375, 316.259033203125, 36.858585357666016, 0.04800000041723251, 0.0, 1.055999994277954, 0.0, 0.0, 0.0, 0.0, 0.0, 1.6203032431788547E9, 2021-05-06 14:14:03.178
71.0, 353.7608642578125, -396.5883483886719, 308.0274963378906, 33.32811737060547, 0.04800000041723251, 0.0, 1.055999994277954, 0.0, 0.0, 0.0, 0.0, 0.0, 1.6203032431788547E9, 2021-05-06 14:14:03.178
72.0, 349.658203125, -405.7398681640625, 299.814697265625, 28.94121551513672, 0.04800000041723251, 0.0, 1.055999994277954, 0.0, 0.0, 0.0, 0.0, 0.0, 1.620303243179573E9, 2021-05-06 14:14:03.179
72.0, 352.4294738769531, -396.449951171875, 307.36181640625, 30.60173225402832, 0.04800000041723251, 0.0, 1.055999994277954, 0.0, 0.0, 0.0, 0.0, 0.0, 1.620303243179573E9, 2021-05-06 14:14:03.179
73.0, 355.1221923828125, -398.6714782714844, 309.4337158203125, 30.108064651489258, 0.04800000041723251, 0.0, 1.055999994277954, 0.0, 0.0, 0.0, 0.0, 0.0, 1.62030324319308E9, 2021-05-06 14:14:03.193
73.0, 359.6100769042969, -380.19635009765625, 315.5858459472656, 51.747127532958984, 0.04800000041723251, 0.0, 1.055999994277954, 0.0, 0.0, 0.0, 0.0, 0.0, 1.62030324319308E9, 2021-05-06 14:14:03.193
74.0, 352.2125549316406, -394.63238525390625, 307.0551452636719, 33.08128356933594, 0.04800000041723251, 0.0, 1.055999994277954, 0.0, 0.0, 0.0, 0.0, 0.0, 1.620303243225908E9, 2021-05-06 14:14:03.225
74.0, 351.62164306640625, -385.8922424316406, 321.8090515136719, 42.30387878417969, 0.04800000041723251, 0.0, 1.055999994277954, 0.0, 0.0, 0.0, 0.0, 0.0, 1.620303243225908E9, 2021-05-06 14:14:03.225
75.0, 345.5630187988281, -390.4212341308594, 315.69805908203125, 38.17502975463867, 0.04800000041723251, 0.0, 1.055999994277954, 0.0, 0.0, 0.0, 0.0, 0.0, 1.6203032432266593E9, 2021-05-06 14:14:03.226
75.0, 356.3227233886719, -387.82574462890625, 315.49609375, 42.59185028076172, 0.04800000041723251, 0.0, 1.055999994277954, 0.0, 0.0, 0.0, 0.0, 0.0, 1.6203032432266593E9, 2021-05-06 14:14:03.226
76.0, 349.45623779296875, -390.2828674316406, 310.38739013671875, 39.622371673583984, 0.04800000041723251, 0.0, 1.055999994277954, 0.0, 0.0, 0.0, 0.0, 0.0, 1.620303243227372E9, 2021-05-06 14:14:03.227
76.0, 346.8682556152344, -392.45574951171875, 320.0812072753906, 37.53550720214844, 0.04800000041723251, 0.0, 1.055999994277954, 0.0, 0.0, 0.0, 0.0, 0.0, 1.620303243227372E9, 2021-05-06 14:14:03.227
77.0, 360.65350341796875, -382.9638977050781, 327.7517395019531, 47.307865142822266, 0.04800000041723251, 0.0, 1.055999994277954, 0.0, 0.0, 0.0, 0.0, 0.0, 1.6203032432281272E9, 2021-05-06 14:14:03.228
77.0, 358.7760925292969, -392.9494323730469, 316.1954650878906, 33.84422302246094, 0.04800000041723251, 0.0, 1.055999994277954, 0.0, 0.0, 0.0, 0.0, 0.0, 1.6203032432281272E9, 2021-05-06 14:14:03.228
78.0, 354.58740234375, -399.09033203125, 309.2616882324219, 33.99382019042969, 0.04800000041723251, 0.0, 1.055999994277954, 0.0, 0.0, 0.0, 0.0, 0.0, 1.6203032432381806E9, 2021-05-06 14:14:03.238
78.0, 353.9291687011719, -392.4183654785156, 320.2308044433594, 34.92131423950195, 0.04800000041723251, 0.0, 1.055999994277954, 0.0, 0.0, 0.0, 0.0, 0.0, 1.6203032432381806E9, 2021-05-06 14:14:03.238
79.0, 360.07757568359375, -394.7071838378906, 321.1732482910156, 37.64022445678711, 0.04800000041723251, 0.0, 1.055999994277954, 0.0, 0.0, 0.0, 0.0, 0.0, 1.620303243253194E9, 2021-05-06 14:14:03.253
79.0, 351.9694519042969, -391.3861389160156, 311.3373107910156, 33.9863395690918, 0.04800000041723251, 0.0, 1.055999994277954, 0.0, 0.0, 0.0, 0.0, 0.0, 1.620303243253194E9, 2021-05-06 14:14:03.253
80.0, 350.6492919921875, -396.9436340332031, 304.369873046875, 32.14257049560547, 0.04800000041723251, 0.0, 1.055999994277954, 0.0, 0.0, 0.0, 0.0, 0.0, 1.6203032432695203E9, 2021-05-06 14:14:03.269
80.0, 354.4190979003906, -393.3309020996094, 314.5760803222656, 35.39628219604492, 0.04800000041723251, 0.0, 1.055999994277954, 0.0, 0.0, 0.0, 0.0, 0.0, 1.6203032432695203E9, 2021-05-06 14:14:03.269
81.0, 359.2398376464844, -384.77398681640625, 320.42529296875, 48.42235565185547, 0.04800000041723251, 0.0, 1.055999994277954, 0.0, 0.0, 0.0, 0.0, 0.0, 1.6203032432702644E9, 2021-05-06 14:14:03.270
81.0, 348.9139709472656, -400.7471008300781, 299.5155029296875, 30.250181198120117, 0.04800000041723251, 0.0, 1.055999994277954, 0.0, 0.0, 0.0, 0.0, 0.0, 1.6203032432702644E9, 2021-05-06 14:14:03.270
82.0, 348.51007080078125, -393.080322265625, 302.5597839355469, 32.04159164428711, 0.03200000151991844, 0.0, 1.055999994277954, 0.0, 0.0, 0.0, 0.0, 0.0, 1.6203032432832367E9, 2021-05-06 14:14:03.283
82.0, 337.01361083984375, -393.2037353515625, 309.01483154296875, 29.539600372314453, 0.03200000151991844, 0.0, 1.055999994277954, 0.0, 0.0, 0.0, 0.0, 0.0, 1.6203032432832367E9, 2021-05-06 14:14:03.283
83.0, 353.8319396972656, -382.9115295410156, 317.0182189941406, 36.48085403442383, 0.03200000151991844, 0.0, 1.055999994277954, 0.0, 0.0, 0.0, 0.0, 0.0, 1.6203032432989094E9, 2021-05-06 14:14:03.298
83.0, 357.369873046875, -387.5340576171875, 314.9500732421875, 47.307865142822266, 0.03200000151991844, 0.0, 1.055999994277954, 0.0, 0.0, 0.0, 0.0, 0.0, 1.6203032432989094E9, 2021-05-06 14:14:03.298
84.0, 361.5137023925781, -387.90802001953125, 313.5027160644531, 41.22678756713867, 0.03200000151991844, 0.0, 1.055999994277954, 0.0, 0.0, 0.0, 0.0, 0.0, 1.6203032432997615E9, 2021-05-06 14:14:03.299
84.0, 347.2572021484375, -393.4543151855469, 310.55194091796875, 28.432588577270508, 0.03200000151991844, 0.0, 1.055999994277954, 0.0, 0.0, 0.0, 0.0, 0.0, 1.6203032432997615E9, 2021-05-06 14:14:03.299
85.0, 354.9913024902344, -377.83648681640625, 315.44000244140625, 37.93193435668945, 0.03200000151991844, 0.0, 1.055999994277954, 0.0, 0.0, 0.0, 0.0, 0.0, 1.6203032433132844E9, 2021-05-06 14:14:03.313
85.0, 355.82904052734375, -387.6088562011719, 304.8635559082031, 36.50703430175781, 0.03200000151991844, 0.0, 1.055999994277954, 0.0, 0.0, 0.0, 0.0, 0.0, 1.6203032433132844E9, 2021-05-06 14:14:03.313
86.0, 357.2277526855469, -391.191650390625, 308.5959777832031, 37.40087127685547, 0.03200000151991844, 0.0, 1.055999994277954, 0.0, 0.0, 0.0, 0.0, 0.0, 1.6203032433294487E9, 2021-05-06 14:14:03.329
86.0, 342.21954345703125, -386.02685546875, 313.5812683105469, 32.08647155761719, 0.03200000151991844, 0.0, 1.055999994277954, 0.0, 0.0, 0.0, 0.0, 0.0, 1.6203032433294487E9, 2021-05-06 14:14:03.329
87.0, 353.2447814941406, -383.8016357421875, 321.3041687011719, 43.04438018798828, 0.03200000151991844, 0.0, 1.055999994277954, 0.0, 0.0, 0.0, 0.0, 0.0, 1.6203032433301296E9, 2021-05-06 14:14:03.330
87.0, 360.8068542480469, -385.5818176269531, 309.6319274902344, 34.67448425292969, 0.03200000151991844, 0.0, 1.055999994277954, 0.0, 0.0, 0.0, 0.0, 0.0, 1.6203032433301296E9, 2021-05-06 14:14:03.330
88.0, 362.0335388183594, -387.36199951171875, 314.4115295410156, 47.38266372680664, 0.03200000151991844, 0.0, 1.055999994277954, 0.0, 0.0, 0.0, 0.0, 0.0, 1.6203032433431344E9, 2021-05-06 14:14:03.343
88.0, 354.6060791015625, -393.7198486328125, 312.7547302246094, 35.73661422729492, 0.03200000151991844, 0.0, 1.055999994277954, 0.0, 0.0, 0.0, 0.0, 0.0, 1.6203032433431344E9, 2021-05-06 14:14:03.343
89.0, 362.53094482421875, -388.88787841796875, 320.22705078125, 42.13184356689453, 0.03200000151991844, 0.0, 1.055999994277954, 0.0, 0.0, 0.0, 0.0, 0.0, 1.6203032433588932E9, 2021-05-06 14:14:03.358
89.0, 361.3416442871094, -389.5423583984375, 309.7628173828125, 40.359130859375, 0.03200000151991844, 0.0, 1.055999994277954, 0.0, 0.0, 0.0, 0.0, 0.0, 1.6203032433588932E9, 2021-05-06 14:14:03.358
90.0, 357.09686279296875, -386.4681701660156, 314.8677978515625, 44.83205032348633, 0.03200000151991844, 0.0, 1.055999994277954, 0.0, 0.0, 0.0, 0.0, 0.0, 1.6203032433595514E9, 2021-05-06 14:14:03.359
90.0, 354.5425109863281, -394.9577331542969, 317.84100341796875, 35.48978042602539, 0.03200000151991844, 0.0, 1.055999994277954, 0.0, 0.0, 0.0, 0.0, 0.0, 1.6203032433595514E9, 2021-05-06 14:14:03.359
91.0, 348.7905578613281, -390.5409240722656, 319.6436462402344, 36.57061004638672, 0.03200000151991844, 0.0, 1.055999994277954, 0.0, 0.0, 0.0, 0.0, 0.0, 1.6203032433730843E9, 2021-05-06 14:14:03.373
91.0, 354.4864196777344, -397.3811950683594, 309.2579345703125, 34.01251983642578, 0.03200000151991844, 0.0, 1.055999994277954, 0.0, 0.0, 0.0, 0.0, 0.0, 1.6203032433730843E9, 2021-05-06 14:14:03.373
92.0, 366.4353942871094, -392.0256652832031, 312.48919677734375, 43.91203689575195, 0.04800000041723251, 0.0, 1.055999994277954, 0.0, 0.0, 0.0, 0.0, 0.0, 1.6203032433889313E9, 2021-05-06 14:14:03.388
92.0, 353.54022216796875, -395.1335144042969, 317.7325439453125, 41.92988967895508, 0.04800000041723251, 0.0, 1.055999994277954, 0.0, 0.0, 0.0, 0.0, 0.0, 1.6203032433889313E9, 2021-05-06 14:14:03.388
93.0, 351.74505615234375, -401.367919921875, 315.6120300292969, 38.661216735839844, 0.04800000041723251, 0.0, 1.055999994277954, 0.0, 0.0, 0.0, 0.0, 0.0, 1.6203032433895307E9, 2021-05-06 14:14:03.389
93.0, 354.2283630371094, -408.2082214355469, 303.9921569824219, 36.525733947753906, 0.04800000041723251, 0.0, 1.055999994277954, 0.0, 0.0, 0.0, 0.0, 0.0, 1.6203032433895307E9, 2021-05-06 14:14:03.389
94.0, 359.73724365234375, -399.44561767578125, 308.20703125, 42.15428161621094, 0.04800000041723251, 0.0, 1.055999994277954, 0.0, 0.0, 0.0, 0.0, 0.0, 1.620303243403312E9, 2021-05-06 14:14:03.403
94.0, 358.40582275390625, -393.9779052734375, 316.5507507324219, 41.99720764160156, 0.04800000041723251, 0.0, 1.055999994277954, 0.0, 0.0, 0.0, 0.0, 0.0, 1.620303243403312E9, 2021-05-06 14:14:03.403
95.0, 364.56170654296875, -388.0763244628906, 323.6378479003906, 45.542633056640625, 0.04800000041723251, 0.0, 1.055999994277954, 0.0, 0.0, 0.0, 0.0, 0.0, 1.6203032434188383E9, 2021-05-06 14:14:03.418
95.0, 355.48870849609375, -396.9847717285156, 309.3701477050781, 38.68739318847656, 0.04800000041723251, 0.0, 1.055999994277954, 0.0, 0.0, 0.0, 0.0, 0.0, 1.6203032434188383E9, 2021-05-06 14:14:03.418
96.0, 347.1150817871094, -405.8707580566406, 303.864990234375, 29.057151794433594, 0.04800000041723251, 0.0, 1.055999994277954, 0.0, 0.0, 0.0, 0.0, 0.0, 1.620303243419614E9, 2021-05-06 14:14:03.419
96.0, 361.2294616699219, -392.2014465332031, 319.9989318847656, 40.86775588989258, 0.04800000041723251, 0.0, 1.055999994277954, 0.0, 0.0, 0.0, 0.0, 0.0, 1.620303243419614E9, 2021-05-06 14:14:03.419
97.0, 365.35455322265625, -390.2417297363281, 318.6076965332031, 42.02712631225586, 0.04800000041723251, 0.0, 1.055999994277954, 0.0, 0.0, 0.0, 0.0, 0.0, 1.6203032434332063E9, 2021-05-06 14:14:03.433
97.0, 354.4415283203125, -401.36419677734375, 305.3946228027344, 31.192636489868164, 0.04800000041723251, 0.0, 1.055999994277954, 0.0, 0.0, 0.0, 0.0, 0.0, 1.6203032434332063E9, 2021-05-06 14:14:03.433
98.0, 356.184326171875, -394.2359313964844, 306.96539306640625, 35.564579010009766, 0.04800000041723251, 0.0, 1.055999994277954, 0.0, 0.0, 0.0, 0.0, 0.0, 1.620303243448913E9, 2021-05-06 14:14:03.448
98.0, 367.54241943359375, -379.5343933105469, 327.86767578125, 49.84725570678711, 0.04800000041723251, 0.0, 1.055999994277954, 0.0, 0.0, 0.0, 0.0, 0.0, 1.620303243448913E9, 2021-05-06 14:14:03.448
99.0, 352.00311279296875, -387.8818664550781, 321.0498352050781, 40.13847732543945, 0.04800000041723251, 0.0, 1.055999994277954, 0.0, 0.0, 0.0, 0.0, 0.0, 1.6203032434496284E9, 2021-05-06 14:14:03.449
99.0, 350.6343078613281, -396.40509033203125, 310.60430908203125, 39.77944564819336, 0.04800000041723251, 0.0, 1.055999994277954, 0.0, 0.0, 0.0, 0.0, 0.0, 1.6203032434496284E9, 2021-05-06 14:14:03.449
100.0, 351.5767822265625, -400.0514831542969, 305.54046630859375, 33.42909622192383, 0.04800000041723251, 0.0, 1.055999994277954, 0.0, 0.0, 0.0, 0.0, 0.0, 1.6203032434638493E9, 2021-05-06 14:14:03.463
100.0, 359.52032470703125, -389.26934814453125, 317.84100341796875, 39.59244918823242, 0.04800000041723251, 0.0, 1.055999994277954, 0.0, 0.0, 0.0, 0.0, 0.0, 1.6203032434638493E9, 2021-05-06 14:14:03.463
0.0, 361.3173522949219, -385.3144226074219, 318.6058044433594, 42.83868408203125, 0.04800000041723251, 0.0, 1.055999994277954, 0.0, 0.0, 0.0, 0.0, 0.0, 1.6203032434645743E9, 2021-05-06 14:14:03.464
1.0, 355.8084716796875, -390.8868713378906, 312.5322265625, 39.82806396484375, 0.04800000041723251, 0.0, 1.055999994277954, 0.0, 0.0, 0.0, 0.0, 0.0, 1.620303243478124E9, 2021-05-06 14:14:03.478
1.0, 350.94287109375, -410.46148681640625, 300.64306640625, 30.639129638671875, 0.04800000041723251, 0.0, 1.055999994277954, 0.0, 0.0, 0.0, 0.0, 0.0, 1.620303243478124E9, 2021-05-06 14:14:03.478
2.0, 358.99859619140625, -388.16796875, 319.9409484863281, 45.067665100097656, 0.04800000041723251, 0.0, 1.055999994277954, 0.0, 0.0, 0.0, 0.0, 0.0, 1.620303243493943E9, 2021-05-06 14:14:03.493
2.0, 354.9595031738281, -378.10015869140625, 329.9489440917969, 50.2062873840332, 0.04800000041723251, 0.0, 1.055999994277954, 0.0, 0.0, 0.0, 0.0, 0.0, 1.620303243493943E9, 2021-05-06 14:14:03.493
3.0, 354.2339782714844, -388.05950927734375, 321.9642333984375, 51.3506965637207, 0.04800000041723251, 0.0, 1.055999994277954, 0.0, 0.0, 0.0, 0.0, 0.0, 1.6203032434946947E9, 2021-05-06 14:14:03.494
3.0, 347.4946594238281, -399.6531982421875, 305.572265625, 36.97077941894531, 0.04800000041723251, 0.0, 1.055999994277954, 0.0, 0.0, 0.0, 0.0, 0.0, 1.6203032434946947E9, 2021-05-06 14:14:03.494
4.0, 349.4581298828125, -397.570068359375, 312.1694641113281, 35.463600158691406, 0.04800000041723251, 0.0, 1.055999994277954, 0.0, 0.0, 0.0, 0.0, 0.0, 1.6203032435250185E9, 2021-05-06 14:14:03.525
4.0, 359.5483703613281, -380.8190612792969, 320.5094299316406, 47.46868133544922, 0.04800000041723251, 0.0, 1.055999994277954, 0.0, 0.0, 0.0, 0.0, 0.0, 1.6203032435250185E9, 2021-05-06 14:14:03.525
5.0, 350.3781433105469, -395.9432067871094, 301.36114501953125, 27.32183837890625, 0.04800000041723251, 0.0, 1.055999994277954, 0.0, 0.0, 0.0, 0.0, 0.0, 1.6203032435257597E9, 2021-05-06 14:14:03.525
5.0, 358.76300048828125, -401.7026672363281, 309.8133239746094, 32.91299057006836, 0.04800000041723251, 0.0, 1.055999994277954, 0.0, 0.0, 0.0, 0.0, 0.0, 1.6203032435257597E9, 2021-05-06 14:14:03.525
6.0, 363.0264892578125, -394.1293640136719, 316.8929443359375, 39.480255126953125, 0.04800000041723251, 0.0, 1.055999994277954, 0.0, 0.0, 0.0, 0.0, 0.0, 1.620303243538924E9, 2021-05-06 14:14:03.538
6.0, 363.232177734375, -392.9700012207031, 317.68206787109375, 32.221107482910156, 0.04800000041723251, 0.0, 1.055999994277954, 0.0, 0.0, 0.0, 0.0, 0.0, 1.620303243538924E9, 2021-05-06 14:14:03.538
7.0, 354.9445495605469, -396.6500549316406, 310.13494873046875, 38.68365478515625, 0.04800000041723251, 0.0, 1.055999994277954, 0.0, 0.0, 0.0, 0.0, 0.0, 1.6203032435395634E9, 2021-05-06 14:14:03.539
7.0, 364.13348388671875, -397.8094177246094, 312.7042541503906, 41.372642517089844, 0.04800000041723251, 0.0, 1.055999994277954, 0.0, 0.0, 0.0, 0.0, 0.0, 1.6203032435395634E9, 2021-05-06 14:14:03.539
8.0, 361.05181884765625, -391.30572509765625, 322.7832946777344, 39.30073928833008, 0.04800000041723251, 0.0, 1.055999994277954, 0.0, 0.0, 0.0, 0.0, 0.0, 1.6203032435539453E9, 2021-05-06 14:14:03.553
8.0, 351.84417724609375, -390.07904052734375, 315.86822509765625, 35.4112434387207, 0.04800000041723251, 0.0, 1.055999994277954, 0.0, 0.0, 0.0, 0.0, 0.0, 1.6203032435539453E9, 2021-05-06 14:14:03.553
9.0, 356.89678955078125, -398.2283020019531, 312.64068603515625, 37.50558853149414, 0.04800000041723251, 0.0, 1.055999994277954, 0.0, 0.0, 0.0, 0.0, 0.0, 1.6203032435546727E9, 2021-05-06 14:14:03.554
9.0, 360.4908142089844, -386.8851623535156, 316.3132629394531, 43.956912994384766, 0.04800000041723251, 0.0, 1.055999994277954, 0.0, 0.0, 0.0, 0.0, 0.0, 1.6203032435546727E9, 2021-05-06 14:14:03.554
10.0, 365.4985656738281, -384.43927001953125, 326.2987976074219, 46.41776657104492, 0.04800000041723251, 0.0, 1.055999994277954, 0.0, 0.0, 0.0, 0.0, 0.0, 1.6203032435682096E9, 2021-05-06 14:14:03.568
10.0, 353.2840270996094, -397.1399841308594, 317.2557067871094, 35.63189697265625, 0.04800000041723251, 0.0, 1.055999994277954, 0.0, 0.0, 0.0, 0.0, 0.0, 1.6203032435682096E9, 2021-05-06 14:14:03.568
11.0, 370.2557067871094, -381.04718017578125, 326.1192626953125, 56.141510009765625, 0.04800000041723251, 0.0, 1.055999994277954, 0.0, 0.0, 0.0, 0.0, 0.0, 1.6203032435839431E9, 2021-05-06 14:14:03.583
11.0, 358.6956787109375, -396.24615478515625, 317.80548095703125, 40.03376007080078, 0.04800000041723251, 0.0, 1.055999994277954, 0.0, 0.0, 0.0, 0.0, 0.0, 1.6203032435839431E9, 2021-05-06 14:14:03.583
12.0, 362.11395263671875, -392.8390808105469, 321.264892578125, 42.995758056640625, 0.04800000041723251, 0.0, 1.055999994277954, 0.0, 0.0, 0.0, 0.0, 0.0, 1.6203032435845249E9, 2021-05-06 14:14:03.584
12.0, 359.1818542480469, -391.0364685058594, 314.7051086425781, 43.68764114379883, 0.04800000041723251, 0.0, 1.055999994277954, 0.0, 0.0, 0.0, 0.0, 0.0, 1.6203032435845249E9, 2021-05-06 14:14:03.584
13.0, 353.126953125, -394.4248046875, 307.6067810058594, 34.54358673095703, 0.04800000041723251, 0.0, 1.055999994277954, 0.0, 0.0, 0.0, 0.0, 0.0, 1.6203032435982413E9, 2021-05-06 14:14:03.598
13.0, 356.46295166015625, -388.5045471191406, 310.3443908691406, 42.348758697509766, 0.04800000041723251, 0.0, 1.055999994277954, 0.0, 0.0, 0.0, 0.0, 0.0, 1.6203032435982413E9, 2021-05-06 14:14:03.598
14.0, 356.025390625, -394.65667724609375, 311.1933288574219, 39.22220230102539, 0.04800000041723251, 0.0, 1.055999994277954, 0.0, 0.0, 0.0, 0.0, 0.0, 1.620303243613825E9, 2021-05-06 14:14:03.613
14.0, 361.5118103027344, -390.2361145019531, 318.1831970214844, 43.74374008178711, 0.04800000041723251, 0.0, 1.055999994277954, 0.0, 0.0, 0.0, 0.0, 0.0, 1.620303243613825E9, 2021-05-06 14:14:03.613
15.0, 364.3765869140625, -394.331298828125, 316.3132629394531, 43.7811393737793, 0.04800000041723251, 0.0, 1.055999994277954, 0.0, 0.0, 0.0, 0.0, 0.0, 1.6203032436146195E9, 2021-05-06 14:14:03.614
15.0, 355.3148193359375, -397.5999755859375, 314.985595703125, 41.60077667236328, 0.04800000041723251, 0.0, 1.055999994277954, 0.0, 0.0, 0.0, 0.0, 0.0, 1.6203032436146195E9, 2021-05-06 14:14:03.614
16.0, 366.0894470214844, -382.54315185546875, 329.02142333984375, 48.02592468261719, 0.04800000041723251, 0.0, 1.055999994277954, 0.0, 0.0, 0.0, 0.0, 0.0, 1.6203032436283352E9, 2021-05-06 14:14:03.628
16.0, 352.9811096191406, -394.05828857421875, 316.9826965332031, 37.621524810791016, 0.04800000041723251, 0.0, 1.055999994277954, 0.0, 0.0, 0.0, 0.0, 0.0, 1.6203032436283352E9, 2021-05-06 14:14:03.628
17.0, 361.2425537109375, -391.6535339355469, 321.0816345214844, 44.14017105102539, 0.04800000041723251, 0.0, 1.055999994277954, 0.0, 0.0, 0.0, 0.0, 0.0, 1.6203032436437583E9, 2021-05-06 14:14:03.643
17.0, 358.2805480957031, -405.2480773925781, 314.57794189453125, 38.27226638793945, 0.04800000041723251, 0.0, 1.055999994277954, 0.0, 0.0, 0.0, 0.0, 0.0, 1.6203032436437583E9, 2021-05-06 14:14:03.643
18.0, 357.5849304199219, -385.74822998046875, 320.1915283203125, 43.03315734863281, 0.04800000041723251, 0.0, 1.055999994277954, 0.0, 0.0, 0.0, 0.0, 0.0, 1.620303243644482E9, 2021-05-06 14:14:03.644
18.0, 359.8699951171875, -382.16168212890625, 317.98126220703125, 37.88705825805664, 0.04800000041723251, 0.0, 1.055999994277954, 0.0, 0.0, 0.0, 0.0, 0.0, 1.620303243644482E9, 2021-05-06 14:14:03.644
19.0, 357.5026550292969, -384.60009765625, 312.9361267089844, 37.082977294921875, 0.04800000041723251, 0.0, 1.055999994277954, 0.0, 0.0, 0.0, 0.0, 0.0, 1.6203032436580853E9, 2021-05-06 14:14:03.658
19.0, 355.28863525390625, -390.41937255859375, 312.4461975097656, 38.089012145996094, 0.04800000041723251, 0.0, 1.055999994277954, 0.0, 0.0, 0.0, 0.0, 0.0, 1.6203032436580853E9, 2021-05-06 14:14:03.658
20.0, 353.7889404296875, -400.17303466796875, 314.6228332519531, 35.414981842041016, 0.04800000041723251, 0.0, 1.055999994277954, 0.0, 0.0, 0.0, 0.0, 0.0, 1.6203032436738586E9, 2021-05-06 14:14:03.673
20.0, 362.5888977050781, -383.0293273925781, 325.4311218261719, 47.33778381347656, 0.04800000041723251, 0.0, 1.055999994277954, 0.0, 0.0, 0.0, 0.0, 0.0, 1.6203032436738586E9, 2021-05-06 14:14:03.673
21.0, 350.87554931640625, -402.12152099609375, 309.3383483886719, 41.83264923095703, 0.04800000041723251, 0.0, 1.055999994277954, 0.0, 0.0, 0.0, 0.0, 0.0, 1.6203032436744976E9, 2021-05-06 14:14:03.674
21.0, 352.8464660644531, -395.96563720703125, 314.3498229980469, 44.80213165283203, 0.04800000041723251, 0.0, 1.055999994277954, 0.0, 0.0, 0.0, 0.0, 0.0, 1.6203032436744976E9, 2021-05-06 14:14:03.674
22.0, 361.30987548828125, -393.0223388671875, 319.63427734375, 44.480499267578125, 0.04800000041723251, 0.0, 1.055999994277954, 0.0, 0.0, 0.0, 0.0, 0.0, 1.6203032436882277E9, 2021-05-06 14:14:03.688
22.0, 362.5216064453125, -389.64520263671875, 323.4190673828125, 51.12630081176758, 0.04800000041723251, 0.0, 1.055999994277954, 0.0, 0.0, 0.0, 0.0, 0.0, 1.6203032436882277E9, 2021-05-06 14:14:03.688
23.0, 361.0742492675781, -389.5965881347656, 318.4225769042969, 53.51983642578125, 0.04800000041723251, 0.0, 1.055999994277954, 0.0, 0.0, 0.0, 0.0, 0.0, 1.6203032437039196E9, 2021-05-06 14:14:03.703
23.0, 353.8375549316406, -387.99591064453125, 315.4530944824219, 50.76353073120117, 0.04800000041723251, 0.0, 1.055999994277954, 0.0, 0.0, 0.0, 0.0, 0.0, 1.6203032437039196E9, 2021-05-06 14:14:03.703
24.0, 356.9229736328125, -399.9748229980469, 320.6328430175781, 44.2037467956543, 0.04800000041723251, 0.0, 1.055999994277954, 0.0, 0.0, 0.0, 0.0, 0.0, 1.620303243704569E9, 2021-05-06 14:14:03.704
24.0, 350.333251953125, -400.857421875, 316.15618896484375, 40.4114875793457, 0.04800000041723251, 0.0, 1.055999994277954, 0.0, 0.0, 0.0, 0.0, 0.0, 1.620303243704569E9, 2021-05-06 14:14:03.704
25.0, 362.6412658691406, -392.5361633300781, 321.5416259765625, 48.89358139038086, 0.04800000041723251, 0.0, 1.055999994277954, 0.0, 0.0, 0.0, 0.0, 0.0, 1.62030324371843E9, 2021-05-06 14:14:03.718
25.0, 355.7635803222656, -405.4350891113281, 309.7684326171875, 34.371551513671875, 0.04800000041723251, 0.0, 1.055999994277954, 0.0, 0.0, 0.0, 0.0, 0.0, 1.62030324371843E9, 2021-05-06 14:14:03.718
26.0, 346.99725341796875, -393.4150390625, 318.5833740234375, 41.1332893371582, 0.04800000041723251, 0.0, 1.055999994277954, 0.0, 0.0, 0.0, 0.0, 0.0, 1.620303243748504E9, 2021-05-06 14:14:03.748
26.0, 360.86480712890625, -385.00775146484375, 322.0240783691406, 44.31220626831055, 0.04800000041723251, 0.0, 1.055999994277954, 0.0, 0.0, 0.0, 0.0, 0.0, 1.620303243748504E9, 2021-05-06 14:14:03.748
27.0, 361.69134521484375, -393.41876220703125, 310.35186767578125, 39.92904281616211, 0.04800000041723251, 0.0, 1.055999994277954, 0.0, 0.0, 0.0, 0.0, 0.0, 1.620303243763648E9, 2021-05-06 14:14:03.763
27.0, 347.5619812011719, -406.37005615234375, 302.4045715332031, 33.01770782470703, 0.04800000041723251, 0.0, 1.055999994277954, 0.0, 0.0, 0.0, 0.0, 0.0, 1.620303243763648E9, 2021-05-06 14:14:03.763
28.0, 351.7992858886719, -403.1649475097656, 315.6325988769531, 35.26538848876953, 0.04800000041723251, 0.0, 1.055999994277954, 0.0, 0.0, 0.0, 0.0, 0.0, 1.6203032437799304E9, 2021-05-06 14:14:03.779
28.0, 349.7947082519531, -394.0657653808594, 311.0287780761719, 37.090457916259766, 0.04800000041723251, 0.0, 1.055999994277954, 0.0, 0.0, 0.0, 0.0, 0.0, 1.6203032437799304E9, 2021-05-06 14:14:03.779
29.0, 352.44256591796875, -393.6207275390625, 302.50927734375, 37.23631286621094, 0.04800000041723251, 0.0, 1.055999994277954, 0.0, 0.0, 0.0, 0.0, 0.0, 1.620303243780632E9, 2021-05-06 14:14:03.780
29.0, 361.8484191894531, -396.7585144042969, 312.0086364746094, 41.49605941772461, 0.04800000041723251, 0.0, 1.055999994277954, 0.0, 0.0, 0.0, 0.0, 0.0, 1.620303243780632E9, 2021-05-06 14:14:03.780
30.0, 350.0340576171875, -401.8485107421875, 314.656494140625, 34.72684097290039, 0.04800000041723251, 0.0, 1.055999994277954, 0.0, 0.0, 0.0, 0.0, 0.0, 1.6203032437814052E9, 2021-05-06 14:14:03.781
30.0, 355.4045715332031, -393.8900146484375, 314.7350158691406, 33.86292266845703, 0.04800000041723251, 0.0, 1.055999994277954, 0.0, 0.0, 0.0, 0.0, 0.0, 1.6203032437814052E9, 2021-05-06 14:14:03.781
31.0, 350.4566650390625, -401.0855712890625, 303.5788879394531, 36.72768783569336, 0.04800000041723251, 0.0, 1.055999994277954, 0.0, 0.0, 0.0, 0.0, 0.0, 1.620303243811576E9, 2021-05-06 14:14:03.811
31.0, 352.78662109375, -402.3459167480469, 308.9194641113281, 43.29121017456055, 0.04800000041723251, 0.0, 1.055999994277954, 0.0, 0.0, 0.0, 0.0, 0.0, 1.620303243811576E9, 2021-05-06 14:14:03.811
32.0, 344.6748046875, -408.44195556640625, 309.49542236328125, 33.9564208984375, 0.04800000041723251, 0.0, 1.055999994277954, 0.0, 0.0, 0.0, 0.0, 0.0, 1.620303243812251E9, 2021-05-06 14:14:03.812
32.0, 356.30963134765625, -390.4044189453125, 321.7286376953125, 46.41402816772461, 0.04800000041723251, 0.0, 1.055999994277954, 0.0, 0.0, 0.0, 0.0, 0.0, 1.620303243812251E9, 2021-05-06 14:14:03.812
33.0, 350.01910400390625, -394.2901611328125, 307.6366882324219, 37.34477233886719, 0.04800000041723251, 0.0, 1.055999994277954, 0.0, 0.0, 0.0, 0.0, 0.0, 1.6203032438129895E9, 2021-05-06 14:14:03.812
33.0, 356.3357849121094, -400.2889709472656, 310.95025634765625, 41.204349517822266, 0.04800000041723251, 0.0, 1.055999994277954, 0.0, 0.0, 0.0, 0.0, 0.0, 1.6203032438129895E9, 2021-05-06 14:14:03.812
34.0, 344.558837890625, -398.44146728515625, 307.9246520996094, 32.48664093017578, 0.04800000041723251, 0.0, 1.055999994277954, 0.0, 0.0, 0.0, 0.0, 0.0, 1.6203032438137815E9, 2021-05-06 14:14:03.813
34.0, 352.7567138671875, -400.292724609375, 313.94964599609375, 37.91323471069336, 0.04800000041723251, 0.0, 1.055999994277954, 0.0, 0.0, 0.0, 0.0, 0.0, 1.6203032438137815E9, 2021-05-06 14:14:03.813
35.0, 354.8996887207031, -398.3741455078125, 306.6680603027344, 45.96897888183594, 0.04800000041723251, 0.0, 1.055999994277954, 0.0, 0.0, 0.0, 0.0, 0.0, 1.6203032438237903E9, 2021-05-06 14:14:03.823
35.0, 344.5326843261719, -407.4284362792969, 304.7719421386719, 36.47337341308594, 0.04800000041723251, 0.0, 1.055999994277954, 0.0, 0.0, 0.0, 0.0, 0.0, 1.6203032438237903E9, 2021-05-06 14:14:03.823
36.0, 359.1893310546875, -390.0827941894531, 317.28564453125, 39.846763610839844, 0.04800000041723251, 0.0, 1.055999994277954, 0.0, 0.0, 0.0, 0.0, 0.0, 1.6203032438246071E9, 2021-05-06 14:14:03.824
36.0, 360.4609069824219, -390.26605224609375, 317.5511779785156, 41.851348876953125, 0.04800000041723251, 0.0, 1.055999994277954, 0.0, 0.0, 0.0, 0.0, 0.0, 1.6203032438246071E9, 2021-05-06 14:14:03.824
37.0, 354.26763916015625, -397.4354248046875, 306.94482421875, 39.31195831298828, 0.04800000041723251, 0.0, 1.055999994277954, 0.0, 0.0, 0.0, 0.0, 0.0, 1.6203032438381767E9, 2021-05-06 14:14:03.838
37.0, 353.11199951171875, -400.9434509277344, 302.07171630859375, 34.59220504760742, 0.04800000041723251, 0.0, 1.055999994277954, 0.0, 0.0, 0.0, 0.0, 0.0, 1.6203032438381767E9, 2021-05-06 14:14:03.838
38.0, 352.1470947265625, -407.96697998046875, 306.26788330078125, 27.95014190673828, 0.04800000041723251, 0.0, 1.055999994277954, 0.0, 0.0, 0.0, 0.0, 0.0, 1.6203032438703265E9, 2021-05-06 14:14:03.870
38.0, 355.0343017578125, -394.2565002441406, 316.3880615234375, 41.73915481567383, 0.04800000041723251, 0.0, 1.055999994277954, 0.0, 0.0, 0.0, 0.0, 0.0, 1.6203032438703265E9, 2021-05-06 14:14:03.870
39.0, 357.14361572265625, -397.53265380859375, 306.6568298339844, 37.273712158203125, 0.04800000041723251, 0.0, 1.055999994277954, 0.0, 0.0, 0.0, 0.0, 0.0, 1.620303243871088E9, 2021-05-06 14:14:03.871
39.0, 354.33868408203125, -399.3091125488281, 310.72210693359375, 42.32257843017578, 0.04800000041723251, 0.0, 1.055999994277954, 0.0, 0.0, 0.0, 0.0, 0.0, 1.620303243871088E9, 2021-05-06 14:14:03.871
40.0, 360.3898620605469, -392.6446228027344, 317.7718200683594, 43.32113265991211, 0.04800000041723251, 0.0, 1.055999994277954, 0.0, 0.0, 0.0, 0.0, 0.0, 1.6203032438718648E9, 2021-05-06 14:14:03.871
40.0, 350.4267578125, -402.2337341308594, 311.66082763671875, 33.657230377197266, 0.04800000041723251, 0.0, 1.055999994277954, 0.0, 0.0, 0.0, 0.0, 0.0, 1.6203032438718648E9, 2021-05-06 14:14:03.871
41.0, 350.31829833984375, -408.1091003417969, 300.2541198730469, 28.929996490478516, 0.04800000041723251, 0.0, 1.055999994277954, 0.0, 0.0, 0.0, 0.0, 0.0, 1.6203032438724213E9, 2021-05-06 14:14:03.872
41.0, 354.25640869140625, -409.1974182128906, 305.0599060058594, 32.91299057006836, 0.04800000041723251, 0.0, 1.055999994277954, 0.0, 0.0, 0.0, 0.0, 0.0, 1.6203032438724213E9, 2021-05-06 14:14:03.872
42.0, 352.2892150878906, -398.7780456542969, 315.75225830078125, 34.39025115966797, 0.04800000041723251, 0.0, 1.055999994277954, 0.0, 0.0, 0.0, 0.0, 0.0, 1.6203032438830855E9, 2021-05-06 14:14:03.883
42.0, 348.1828308105469, -399.2006530761719, 318.0074462890625, 38.42934036254883, 0.04800000041723251, 0.0, 1.055999994277954, 0.0, 0.0, 0.0, 0.0, 0.0, 1.6203032438830855E9, 2021-05-06 14:14:03.883
43.0, 364.3840637207031, -377.7149353027344, 320.9208068847656, 52.33803176879883, 0.04800000041723251, 0.0, 1.055999994277954, 0.0, 0.0, 0.0, 0.0, 0.0, 1.6203032438982859E9, 2021-05-06 14:14:03.898
43.0, 348.87469482421875, -402.83209228515625, 303.7060546875, 33.67966842651367, 0.04800000041723251, 0.0, 1.055999994277954, 0.0, 0.0, 0.0, 0.0, 0.0, 1.6203032438982859E9, 2021-05-06 14:14:03.898
44.0, 357.9439697265625, -390.33709716796875, 319.49591064453125, 41.712974548339844, 0.04800000041723251, 0.0, 1.055999994277954, 0.0, 0.0, 0.0, 0.0, 0.0, 1.6203032439145272E9, 2021-05-06 14:14:03.914
44.0, 359.97845458984375, -387.7303771972656, 321.54913330078125, 46.488826751708984, 0.04800000041723251, 0.0, 1.055999994277954, 0.0, 0.0, 0.0, 0.0, 0.0, 1.6203032439145272E9, 2021-05-06 14:14:03.914
45.0, 352.47247314453125, -408.41204833984375, 306.5221862792969, 30.725147247314453, 0.04800000041723251, 0.0, 1.055999994277954, 0.0, 0.0, 0.0, 0.0, 0.0, 1.6203032439152884E9, 2021-05-06 14:14:03.915
45.0, 359.2192687988281, -404.025146484375, 305.46380615234375, 37.516807556152344, 0.04800000041723251, 0.0, 1.055999994277954, 0.0, 0.0, 0.0, 0.0, 0.0, 1.6203032439152884E9, 2021-05-06 14:14:03.915
46.0, 354.43218994140625, -398.48260498046875, 319.1481018066406, 37.66640090942383, 0.04800000041723251, 0.0, 1.055999994277954, 0.0, 0.0, 0.0, 0.0, 0.0, 1.620303243928131E9, 2021-05-06 14:14:03.928
46.0, 349.91064453125, -391.42913818359375, 317.19586181640625, 39.90660095214844, 0.04800000041723251, 0.0, 1.055999994277954, 0.0, 0.0, 0.0, 0.0, 0.0, 1.620303243928131E9, 2021-05-06 14:14:03.928
47.0, 362.3533020019531, -384.1737365722656, 320.62908935546875, 50.5877571105957, 0.04800000041723251, 0.0, 1.055999994277954, 0.0, 0.0, 0.0, 0.0, 0.0, 1.6203032439437933E9, 2021-05-06 14:14:03.943
47.0, 350.344482421875, -405.4388122558594, 302.8945007324219, 30.08562469482422, 0.04800000041723251, 0.0, 1.055999994277954, 0.0, 0.0, 0.0, 0.0, 0.0, 1.6203032439437933E9, 2021-05-06 14:14:03.943
48.0, 350.3033447265625, -401.14166259765625, 313.17547607421875, 37.026878356933594, 0.04800000041723251, 0.0, 1.055999994277954, 0.0, 0.0, 0.0, 0.0, 0.0, 1.6203032439444764E9, 2021-05-06 14:14:03.944
48.0, 361.8895568847656, -390.281005859375, 325.315185546875, 45.004085540771484, 0.04800000041723251, 0.0, 1.055999994277954, 0.0, 0.0, 0.0, 0.0, 0.0, 1.6203032439444764E9, 2021-05-06 14:14:03.944
49.0, 349.9517822265625, -405.9811096191406, 301.4508972167969, 31.091657638549805, 0.04800000041723251, 0.0, 1.055999994277954, 0.0, 0.0, 0.0, 0.0, 0.0, 1.6203032439582357E9, 2021-05-06 14:14:03.958
49.0, 346.03985595703125, -397.3868103027344, 310.8642272949219, 35.418724060058594, 0.04800000041723251, 0.0, 1.055999994277954, 0.0, 0.0, 0.0, 0.0, 0.0, 1.6203032439582357E9, 2021-05-06 14:14:03.958
50.0, 354.9595031738281, -390.961669921875, 320.40472412109375, 41.10710906982422, 0.04800000041723251, 0.0, 1.055999994277954, 0.0, 0.0, 0.0, 0.0, 0.0, 1.6203032439737887E9, 2021-05-06 14:14:03.973
50.0, 349.7872314453125, -391.4627990722656, 314.61907958984375, 34.188297271728516, 0.04800000041723251, 0.0, 1.055999994277954, 0.0, 0.0, 0.0, 0.0, 0.0, 1.6203032439737887E9, 2021-05-06 14:14:03.973
51.0, 363.0040283203125, -377.9468078613281, 313.5046081542969, 46.578582763671875, 0.04800000041723251, 0.0, 1.055999994277954, 0.0, 0.0, 0.0, 0.0, 0.0, 1.6203032439745739E9, 2021-05-06 14:14:03.974
51.0, 353.1007995605469, -403.15374755859375, 307.23651123046875, 28.963655471801758, 0.04800000041723251, 0.0, 1.055999994277954, 0.0, 0.0, 0.0, 0.0, 0.0, 1.6203032439745739E9, 2021-05-06 14:14:03.974
52.0, 350.16497802734375, -403.90545654296875, 314.44329833984375, 32.66615676879883, 0.04800000041723251, 0.0, 1.055999994277954, 0.0, 0.0, 0.0, 0.0, 0.0, 1.6203032439881244E9, 2021-05-06 14:14:03.988
52.0, 342.1802673339844, -402.9555358886719, 308.4557189941406, 29.726594924926758, 0.04800000041723251, 0.0, 1.055999994277954, 0.0, 0.0, 0.0, 0.0, 0.0, 1.6203032439881244E9, 2021-05-06 14:14:03.988
53.0, 350.684814453125, -389.8284606933594, 313.8748474121094, 34.00878143310547, 0.04800000041723251, 0.0, 1.055999994277954, 0.0, 0.0, 0.0, 0.0, 0.0, 1.620303244003809E9, 2021-05-06 14:14:04.003
53.0, 354.1554260253906, -384.5701599121094, 314.86590576171875, 35.994667053222656, 0.04800000041723251, 0.0, 1.055999994277954, 0.0, 0.0, 0.0, 0.0, 0.0, 1.620303244003809E9, 2021-05-06 14:14:04.003
54.0, 348.9083557128906, -389.5517272949219, 318.5908508300781, 34.81659698486328, 0.04800000041723251, 0.0, 1.055999994277954, 0.0, 0.0, 0.0, 0.0, 0.0, 1.6203032440045946E9, 2021-05-06 14:14:04.004
54.0, 342.9544372558594, -399.260498046875, 311.6234130859375, 30.553112030029297, 0.04800000041723251, 0.0, 1.055999994277954, 0.0, 0.0, 0.0, 0.0, 0.0, 1.6203032440045946E9, 2021-05-06 14:14:04.004
55.0, 350.3407287597656, -395.47198486328125, 306.03228759765625, 34.3678092956543, 0.04800000041723251, 0.0, 1.055999994277954, 0.0, 0.0, 0.0, 0.0, 0.0, 1.620303244018222E9, 2021-05-06 14:14:04.018
55.0, 345.602294921875, -399.50360107421875, 304.3568115234375, 32.58387756347656, 0.04800000041723251, 0.0, 1.055999994277954, 0.0, 0.0, 0.0, 0.0, 0.0, 1.620303244018222E9, 2021-05-06 14:14:04.018
56.0, 345.8266906738281, -396.85198974609375, 314.5180969238281, 33.04014587402344, 0.04800000041723251, 0.0, 1.055999994277954, 0.0, 0.0, 0.0, 0.0, 0.0, 1.6203032440339131E9, 2021-05-06 14:14:04.033
56.0, 346.92620849609375, -389.7611389160156, 318.190673828125, 33.268280029296875, 0.04800000041723251, 0.0, 1.055999994277954, 0.0, 0.0, 0.0, 0.0, 0.0, 1.6203032440339131E9, 2021-05-06 14:14:04.033
57.0, 351.75067138671875, -392.4351806640625, 307.92840576171875, 35.93482971191406, 0.04800000041723251, 0.0, 1.055999994277954, 0.0, 0.0, 0.0, 0.0, 0.0, 1.6203032440345297E9, 2021-05-06 14:14:04.034
57.0, 338.7545166015625, -395.9095458984375, 297.5614013671875, 29.303985595703125, 0.04800000041723251, 0.0, 1.055999994277954, 0.0, 0.0, 0.0, 0.0, 0.0, 1.6203032440345297E9, 2021-05-06 14:14:04.034
58.0, 348.291259765625, -389.7050476074219, 309.5103759765625, 30.108064651489258, 0.04800000041723251, 0.0, 1.055999994277954, 0.0, 0.0, 0.0, 0.0, 0.0, 1.620303244048097E9, 2021-05-06 14:14:04.048
58.0, 350.8792724609375, -395.1540832519531, 311.02130126953125, 33.32811737060547, 0.04800000041723251, 0.0, 1.055999994277954, 0.0, 0.0, 0.0, 0.0, 0.0, 1.620303244048097E9, 2021-05-06 14:14:04.048
59.0, 348.0743713378906, -388.4222717285156, 306.6119689941406, 39.48773193359375, 0.04800000041723251, 0.0, 1.055999994277954, 0.0, 0.0, 0.0, 0.0, 0.0, 1.6203032440801456E9, 2021-05-06 14:14:04.080
59.0, 363.4004821777344, -386.63458251953125, 319.66046142578125, 48.833744049072266, 0.04800000041723251, 0.0, 1.055999994277954, 0.0, 0.0, 0.0, 0.0, 0.0, 1.6203032440801456E9, 2021-05-06 14:14:04.080
60.0, 351.19342041015625, -392.6034851074219, 317.5100402832031, 42.32257843017578, 0.04800000041723251, 0.0, 1.055999994277954, 0.0, 0.0, 0.0, 0.0, 0.0, 1.6203032440808568E9, 2021-05-06 14:14:04.080
60.0, 361.6165466308594, -381.8138732910156, 321.8034362792969, 43.17901611328125, 0.04800000041723251, 0.0, 1.055999994277954, 0.0, 0.0, 0.0, 0.0, 0.0, 1.6203032440808568E9, 2021-05-06 14:14:04.080
61.0, 354.6565856933594, -386.6645202636719, 312.0048828125, 43.59414291381836, 0.04800000041723251, 0.0, 1.055999994277954, 0.0, 0.0, 0.0, 0.0, 0.0, 1.6203032440816207E9, 2021-05-06 14:14:04.081
61.0, 351.58612060546875, -389.87335205078125, 314.9033203125, 42.91722106933594, 0.04800000041723251, 0.0, 1.055999994277954, 0.0, 0.0, 0.0, 0.0, 0.0, 1.6203032440816207E9, 2021-05-06 14:14:04.081
62.0, 354.33868408203125, -387.8201599121094, 330.8390197753906, 47.89876937866211, 0.04800000041723251, 0.0, 1.055999994277954, 0.0, 0.0, 0.0, 0.0, 0.0, 1.620303244082404E9, 2021-05-06 14:14:04.082
62.0, 356.9865417480469, -387.4536437988281, 324.9225158691406, 47.483638763427734, 0.04800000041723251, 0.0, 1.055999994277954, 0.0, 0.0, 0.0, 0.0, 0.0, 1.620303244082404E9, 2021-05-06 14:14:04.082
63.0, 353.549560546875, -379.98504638671875, 322.69354248046875, 52.15103530883789, 0.04800000041723251, 0.0, 1.055999994277954, 0.0, 0.0, 0.0, 0.0, 0.0, 1.62030324409324E9, 2021-05-06 14:14:04.093
63.0, 355.5541687011719, -385.2283935546875, 316.6348876953125, 46.33549118041992, 0.04800000041723251, 0.0, 1.055999994277954, 0.0, 0.0, 0.0, 0.0, 0.0, 1.62030324409324E9, 2021-05-06 14:14:04.093
64.0, 345.47137451171875, -384.7646484375, 322.8805236816406, 39.78692626953125, 0.04800000041723251, 0.0, 1.055999994277954, 0.0, 0.0, 0.0, 0.0, 0.0, 1.6203032441081343E9, 2021-05-06 14:14:04.108
64.0, 356.8631286621094, -383.7623596191406, 326.59051513671875, 47.199405670166016, 0.04800000041723251, 0.0, 1.055999994277954, 0.0, 0.0, 0.0, 0.0, 0.0, 1.6203032441081343E9, 2021-05-06 14:14:04.108
65.0, 353.1606140136719, -390.3333435058594, 314.74249267578125, 42.45347595214844, 0.04800000041723251, 0.0, 1.055999994277954, 0.0, 0.0, 0.0, 0.0, 0.0, 1.620303244123816E9, 2021-05-06 14:14:04.123
65.0, 361.7474365234375, -390.9841003417969, 317.6446533203125, 48.74772644042969, 0.04800000041723251, 0.0, 1.055999994277954, 0.0, 0.0, 0.0, 0.0, 0.0, 1.620303244123816E9, 2021-05-06 14:14:04.123
66.0, 350.673583984375, -397.21478271484375, 322.89923095703125, 42.17298126220703, 0.04800000041723251, 0.0, 1.055999994277954, 0.0, 0.0, 0.0, 0.0, 0.0, 1.620303244124575E9, 2021-05-06 14:14:04.124
66.0, 356.6163024902344, -389.4432678222656, 323.8454284667969, 44.970428466796875, 0.04800000041723251, 0.0, 1.055999994277954, 0.0, 0.0, 0.0, 0.0, 0.0, 1.620303244124575E9, 2021-05-06 14:14:04.124
67.0, 362.1625671386719, -384.58514404296875, 321.4818115234375, 44.2037467956543, 0.04800000041723251, 0.0, 1.055999994277954, 0.0, 0.0, 0.0, 0.0, 0.0, 1.620303244138214E9, 2021-05-06 14:14:04.138
67.0, 361.28741455078125, -393.9535827636719, 321.9156188964844, 47.27046585083008, 0.04800000041723251, 0.0, 1.055999994277954, 0.0, 0.0, 0.0, 0.0, 0.0, 1.620303244138214E9, 2021-05-06 14:14:04.138
68.0, 354.5182189941406, -385.4153747558594, 328.03411865234375, 43.096736907958984, 0.04800000041723251, 0.0, 1.055999994277954, 0.0, 0.0, 0.0, 0.0, 0.0, 1.620303244169622E9, 2021-05-06 14:14:04.169
68.0, 354.0432434082031, -387.1656494140625, 327.5703430175781, 50.29230499267578, 0.04800000041723251, 0.0, 1.055999994277954, 0.0, 0.0, 0.0, 0.0, 0.0, 1.620303244169622E9, 2021-05-06 14:14:04.169
69.0, 358.2842712402344, -385.1348876953125, 323.635986328125, 52.210872650146484, 0.04800000041723251, 0.0, 1.055999994277954, 0.0, 0.0, 0.0, 0.0, 0.0, 1.620303244185199E9, 2021-05-06 14:14:04.185
69.0, 360.0682067871094, -387.8500671386719, 324.7205505371094, 54.66798782348633, 0.04800000041723251, 0.0, 1.055999994277954, 0.0, 0.0, 0.0, 0.0, 0.0, 1.620303244185199E9, 2021-05-06 14:14:04.185
70.0, 345.0375671386719, -389.24505615234375, 321.86328125, 42.524532318115234, 0.04800000041723251, 0.0, 1.055999994277954, 0.0, 0.0, 0.0, 0.0, 0.0, 1.6203032441859882E9, 2021-05-06 14:14:04.185
70.0, 351.013916015625, -386.3241882324219, 323.0862121582031, 46.55614471435547, 0.04800000041723251, 0.0, 1.055999994277954, 0.0, 0.0, 0.0, 0.0, 0.0, 1.6203032441859882E9, 2021-05-06 14:14:04.185
71.0, 351.75067138671875, -398.72943115234375, 311.9974060058594, 41.96354675292969, 0.04800000041723251, 0.0, 1.055999994277954, 0.0, 0.0, 0.0, 0.0, 0.0, 1.6203032441867151E9, 2021-05-06 14:14:04.186
71.0, 357.70458984375, -395.2363586425781, 318.3702087402344, 44.1439094543457, 0.04800000041723251, 0.0, 1.055999994277954, 0.0, 0.0, 0.0, 0.0, 0.0, 1.6203032441867151E9, 2021-05-06 14:14:04.186
72.0, 353.27655029296875, -391.466552734375, 323.59857177734375, 44.9666862487793, 0.04800000041723251, 0.0, 1.055999994277954, 0.0, 0.0, 0.0, 0.0, 0.0, 1.6203032441874404E9, 2021-05-06 14:14:04.187
72.0, 359.63812255859375, -388.6952819824219, 324.6794128417969, 44.099029541015625, 0.04800000041723251, 0.0, 1.055999994277954, 0.0, 0.0, 0.0, 0.0, 0.0, 1.6203032441874404E9, 2021-05-06 14:14:04.187
73.0, 350.9952087402344, -399.3053894042969, 308.6240234375, 33.47771453857422, 0.04800000041723251, 0.0, 1.055999994277954, 0.0, 0.0, 0.0, 0.0, 0.0, 1.6203032441981523E9, 2021-05-06 14:14:04.198
73.0, 360.0382995605469, -391.82183837890625, 317.4053039550781, 39.89164352416992, 0.04800000041723251, 0.0, 1.055999994277954, 0.0, 0.0, 0.0, 0.0, 0.0, 1.6203032441981523E9, 2021-05-06 14:14:04.198
74.0, 346.9598693847656, -398.72943115234375, 315.50543212890625, 36.43971633911133, 0.04800000041723251, 0.0, 1.055999994277954, 0.0, 0.0, 0.0, 0.0, 0.0, 1.620303244213774E9, 2021-05-06 14:14:04.213
74.0, 355.7187194824219, -383.8147277832031, 324.5298156738281, 44.85823059082031, 0.04800000041723251, 0.0, 1.055999994277954, 0.0, 0.0, 0.0, 0.0, 0.0, 1.620303244213774E9, 2021-05-06 14:14:04.213
75.0, 349.663818359375, -390.9167785644531, 310.6996765136719, 42.7003059387207, 0.04800000041723251, 0.0, 1.055999994277954, 0.0, 0.0, 0.0, 0.0, 0.0, 1.6203032442145095E9, 2021-05-06 14:14:04.214
75.0, 355.7037658691406, -384.3906555175781, 316.9677429199219, 51.661109924316406, 0.04800000041723251, 0.0, 1.055999994277954, 0.0, 0.0, 0.0, 0.0, 0.0, 1.6203032442145095E9, 2021-05-06 14:14:04.214
76.0, 359.8737487792969, -387.8912048339844, 325.1169738769531, 54.53335189819336, 0.04800000041723251, 0.0, 1.055999994277954, 0.0, 0.0, 0.0, 0.0, 0.0, 1.6203032442281961E9, 2021-05-06 14:14:04.228
76.0, 352.0536193847656, -385.0600891113281, 325.3600769042969, 46.86655807495117, 0.04800000041723251, 0.0, 1.055999994277954, 0.0, 0.0, 0.0, 0.0, 0.0, 1.6203032442281961E9, 2021-05-06 14:14:04.228
77.0, 359.02105712890625, -392.0088195800781, 317.4427185058594, 46.496307373046875, 0.04800000041723251, 0.0, 1.055999994277954, 0.0, 0.0, 0.0, 0.0, 0.0, 1.6203032442438114E9, 2021-05-06 14:14:04.243
77.0, 347.26654052734375, -403.0340576171875, 305.1683654785156, 34.842777252197266, 0.04800000041723251, 0.0, 1.055999994277954, 0.0, 0.0, 0.0, 0.0, 0.0, 1.6203032442438114E9, 2021-05-06 14:14:04.243
78.0, 349.0205383300781, -389.2973937988281, 317.20709228515625, 35.87873077392578, 0.04800000041723251, 0.0, 1.055999994277954, 0.0, 0.0, 0.0, 0.0, 0.0, 1.620303244244491E9, 2021-05-06 14:14:04.244
78.0, 357.1062316894531, -393.51226806640625, 317.6521301269531, 40.66206359863281, 0.04800000041723251, 0.0, 1.055999994277954, 0.0, 0.0, 0.0, 0.0, 0.0, 1.620303244244491E9, 2021-05-06 14:14:04.244
79.0, 354.4920349121094, -384.0353698730469, 314.1216735839844, 46.170936584472656, 0.04800000041723251, 0.0, 1.055999994277954, 0.0, 0.0, 0.0, 0.0, 0.0, 1.620303244258132E9, 2021-05-06 14:14:04.258
79.0, 343.5415954589844, -397.734619140625, 304.37548828125, 36.69776916503906, 0.04800000041723251, 0.0, 1.055999994277954, 0.0, 0.0, 0.0, 0.0, 0.0, 1.620303244258132E9, 2021-05-06 14:14:04.258
80.0, 350.6324462890625, -381.7091369628906, 320.0980224609375, 41.047271728515625, 0.04800000041723251, 0.0, 1.055999994277954, 0.0, 0.0, 0.0, 0.0, 0.0, 1.6203032442741997E9, 2021-05-06 14:14:04.274
80.0, 347.6966247558594, -384.40936279296875, 319.1705322265625, 43.635284423828125, 0.04800000041723251, 0.0, 1.055999994277954, 0.0, 0.0, 0.0, 0.0, 0.0, 1.6203032442741997E9, 2021-05-06 14:14:04.274
81.0, 354.2115478515625, -394.0919494628906, 321.9679870605469, 48.3176383972168, 0.04800000041723251, 0.0, 1.055999994277954, 0.0, 0.0, 0.0, 0.0, 0.0, 1.6203032442888577E9, 2021-05-06 14:14:04.288
81.0, 354.0320129394531, -394.9521484375, 312.3639221191406, 42.35623550415039, 0.04800000041723251, 0.0, 1.055999994277954, 0.0, 0.0, 0.0, 0.0, 0.0, 1.6203032442888577E9, 2021-05-06 14:14:04.288
82.0, 352.3266296386719, -403.21356201171875, 318.15704345703125, 40.516204833984375, 0.04800000041723251, 0.0, 1.055999994277954, 0.0, 0.0, 0.0, 0.0, 0.0, 1.6203032442895918E9, 2021-05-06 14:14:04.289
82.0, 350.7857971191406, -394.54449462890625, 319.5408020019531, 42.490875244140625, 0.04800000041723251, 0.0, 1.055999994277954, 0.0, 0.0, 0.0, 0.0, 0.0, 1.6203032442895918E9, 2021-05-06 14:14:04.289
83.0, 361.4519958496094, -379.5101013183594, 317.3043212890625, 49.53684616088867, 0.04800000041723251, 0.0, 1.055999994277954, 0.0, 0.0, 0.0, 0.0, 0.0, 1.6203032443203335E9, 2021-05-06 14:14:04.320
83.0, 362.0578308105469, -390.1426086425781, 316.8031921386719, 41.252967834472656, 0.04800000041723251, 0.0, 1.055999994277954, 0.0, 0.0, 0.0, 0.0, 0.0, 1.6203032443203335E9, 2021-05-06 14:14:04.320
84.0, 371.5085754394531, -388.50079345703125, 325.419921875, 46.58232498168945, 0.04800000041723251, 0.0, 1.055999994277954, 0.0, 0.0, 0.0, 0.0, 0.0, 1.6203032443211582E9, 2021-05-06 14:14:04.321
84.0, 354.4097595214844, -389.7873229980469, 319.0284118652344, 38.82950973510742, 0.04800000041723251, 0.0, 1.055999994277954, 0.0, 0.0, 0.0, 0.0, 0.0, 1.6203032443211582E9, 2021-05-06 14:14:04.321
85.0, 349.8096618652344, -393.332763671875, 310.8492736816406, 37.83095932006836, 0.04800000041723251, 0.0, 1.055999994277954, 0.0, 0.0, 0.0, 0.0, 0.0, 1.62030324432173E9, 2021-05-06 14:14:04.321
85.0, 353.220458984375, -399.3614807128906, 305.6134033203125, 37.11663818359375, 0.04800000041723251, 0.0, 1.055999994277954, 0.0, 0.0, 0.0, 0.0, 0.0, 1.62030324432173E9, 2021-05-06 14:14:04.321
86.0, 348.1865539550781, -397.66729736328125, 310.8941345214844, 27.991281509399414, 0.04800000041723251, 0.0, 1.055999994277954, 0.0, 0.0, 0.0, 0.0, 0.0, 1.620303244322366E9, 2021-05-06 14:14:04.322
86.0, 358.20574951171875, -389.3011474609375, 317.1210632324219, 38.07779312133789, 0.04800000041723251, 0.0, 1.055999994277954, 0.0, 0.0, 0.0, 0.0, 0.0, 1.620303244322366E9, 2021-05-06 14:14:04.322
87.0, 367.66021728515625, -387.2778625488281, 319.2752685546875, 50.5877571105957, 0.04800000041723251, 0.0, 1.055999994277954, 0.0, 0.0, 0.0, 0.0, 0.0, 1.620303244333286E9, 2021-05-06 14:14:04.333
87.0, 360.03082275390625, -395.0680847167969, 321.0404968261719, 46.066219329833984, 0.04800000041723251, 0.0, 1.055999994277954, 0.0, 0.0, 0.0, 0.0, 0.0, 1.620303244333286E9, 2021-05-06 14:14:04.333
88.0, 351.7581481933594, -397.7420959472656, 321.6575622558594, 45.89792251586914, 0.04800000041723251, 0.0, 1.055999994277954, 0.0, 0.0, 0.0, 0.0, 0.0, 1.6203032443481123E9, 2021-05-06 14:14:04.348
88.0, 351.41033935546875, -396.15264892578125, 315.9168395996094, 41.1744270324707, 0.04800000041723251, 0.0, 1.055999994277954, 0.0, 0.0, 0.0, 0.0, 0.0, 1.6203032443481123E9, 2021-05-06 14:14:04.348
89.0, 355.1689453125, -392.3416748046875, 309.7572021484375, 42.02338409423828, 0.04800000041723251, 0.0, 1.055999994277954, 0.0, 0.0, 0.0, 0.0, 0.0, 1.6203032443639393E9, 2021-05-06 14:14:04.363
89.0, 355.7336730957031, -394.92596435546875, 315.35211181640625, 42.9770622253418, 0.04800000041723251, 0.0, 1.055999994277954, 0.0, 0.0, 0.0, 0.0, 0.0, 1.6203032443639393E9, 2021-05-06 14:14:04.363
90.0, 356.30963134765625, -392.6446228027344, 315.46429443359375, 41.43996047973633, 0.04800000041723251, 0.0, 1.055999994277954, 0.0, 0.0, 0.0, 0.0, 0.0, 1.620303244364679E9, 2021-05-06 14:14:04.364
90.0, 353.68048095703125, -394.4023742675781, 317.3342590332031, 37.91697692871094, 0.04800000041723251, 0.0, 1.055999994277954, 0.0, 0.0, 0.0, 0.0, 0.0, 1.620303244364679E9, 2021-05-06 14:14:04.364
91.0, 355.7037658691406, -395.2176818847656, 312.09466552734375, 39.78692626953125, 0.04800000041723251, 0.0, 1.055999994277954, 0.0, 0.0, 0.0, 0.0, 0.0, 1.6203032443943863E9, 2021-05-06 14:14:04.394
91.0, 352.3116760253906, -400.7340087890625, 307.6890563964844, 30.194082260131836, 0.04800000041723251, 0.0, 1.055999994277954, 0.0, 0.0, 0.0, 0.0, 0.0, 1.6203032443943863E9, 2021-05-06 14:14:04.394
92.0, 358.2543640136719, -404.4290466308594, 319.87738037109375, 39.75700759887695, 0.04800000041723251, 0.0, 1.055999994277954, 0.0, 0.0, 0.0, 0.0, 0.0, 1.6203032443950627E9, 2021-05-06 14:14:04.395
92.0, 355.6139831542969, -390.8157958984375, 322.01287841796875, 39.854244232177734, 0.04800000041723251, 0.0, 1.055999994277954, 0.0, 0.0, 0.0, 0.0, 0.0, 1.6203032443950627E9, 2021-05-06 14:14:04.395
93.0, 355.94683837890625, -401.9943542480469, 307.08319091796875, 34.319190979003906, 0.04800000041723251, 0.0, 1.055999994277954, 0.0, 0.0, 0.0, 0.0, 0.0, 1.6203032444088864E9, 2021-05-06 14:14:04.408
93.0, 364.8216247558594, -384.86187744140625, 318.3178405761719, 52.741939544677734, 0.04800000041723251, 0.0, 1.055999994277954, 0.0, 0.0, 0.0, 0.0, 0.0, 1.6203032444088864E9, 2021-05-06 14:14:04.408
94.0, 353.7290954589844, -402.5104675292969, 320.056884765625, 38.37324523925781, 0.04800000041723251, 0.0, 1.055999994277954, 0.0, 0.0, 0.0, 0.0, 0.0, 1.6203032444094996E9, 2021-05-06 14:14:04.409
94.0, 364.0437316894531, -390.6699523925781, 326.8223876953125, 48.56072998046875, 0.04800000041723251, 0.0, 1.055999994277954, 0.0, 0.0, 0.0, 0.0, 0.0, 1.6203032444094996E9, 2021-05-06 14:14:04.409
95.0, 366.8935241699219, -391.9415283203125, 318.0186462402344, 44.27106475830078, 0.04800000041723251, 0.0, 1.055999994277954, 0.0, 0.0, 0.0, 0.0, 0.0, 1.6203032444239223E9, 2021-05-06 14:14:04.423
95.0, 360.4683837890625, -404.6721496582031, 312.5397033691406, 40.953773498535156, 0.04800000041723251, 0.0, 1.055999994277954, 0.0, 0.0, 0.0, 0.0, 0.0, 1.6203032444239223E9, 2021-05-06 14:14:04.423
96.0, 354.8099060058594, -398.9538269042969, 316.61993408203125, 39.2035026550293, 0.04800000041723251, 0.0, 1.055999994277954, 0.0, 0.0, 0.0, 0.0, 0.0, 1.6203032444246275E9, 2021-05-06 14:14:04.424
96.0, 360.23651123046875, -397.2708740234375, 316.81439208984375, 40.69198226928711, 0.04800000041723251, 0.0, 1.055999994277954, 0.0, 0.0, 0.0, 0.0, 0.0, 1.6203032444246275E9, 2021-05-06 14:14:04.424
97.0, 367.2637939453125, -389.7686462402344, 317.0350646972656, 42.9995002746582, 0.04800000041723251, 0.0, 1.055999994277954, 0.0, 0.0, 0.0, 0.0, 0.0, 1.6203032444381263E9, 2021-05-06 14:14:04.438
97.0, 364.3578796386719, -395.2326354980469, 313.1679992675781, 43.11543655395508, 0.04800000041723251, 0.0, 1.055999994277954, 0.0, 0.0, 0.0, 0.0, 0.0, 1.6203032444381263E9, 2021-05-06 14:14:04.438
98.0, 361.8259582519531, -398.6434020996094, 319.34259033203125, 36.795005798339844, 0.04800000041723251, 0.0, 1.055999994277954, 0.0, 0.0, 0.0, 0.0, 0.0, 1.6203032444538465E9, 2021-05-06 14:14:04.453
98.0, 364.6234130859375, -397.8879699707031, 316.8854675292969, 34.54358673095703, 0.04800000041723251, 0.0, 1.055999994277954, 0.0, 0.0, 0.0, 0.0, 0.0, 1.6203032444538465E9, 2021-05-06 14:14:04.453
99.0, 365.6331787109375, -386.888916015625, 314.42462158203125, 39.5849723815918, 0.04800000041723251, 0.0, 1.055999994277954, 0.0, 0.0, 0.0, 0.0, 0.0, 1.6203032444546509E9, 2021-05-06 14:14:04.454
99.0, 357.02020263671875, -394.7875671386719, 306.335205078125, 35.97222900390625, 0.04800000041723251, 0.0, 1.055999994277954, 0.0, 0.0, 0.0, 0.0, 0.0, 1.6203032444546509E9, 2021-05-06 14:14:04.454
100.0, 360.56561279296875, -393.2055969238281, 313.4260559082031, 36.518253326416016, 0.04800000041723251, 0.0, 1.055999994277954, 0.0, 0.0, 0.0, 0.0, 0.0, 1.6203032444688148E9, 2021-05-06 14:14:04.468
100.0, 368.7148742675781, -388.5868225097656, 321.5191955566406, 38.63503646850586, 0.04800000041723251, 0.0, 1.055999994277954, 0.0, 0.0, 0.0, 0.0, 0.0, 1.6203032444688148E9, 2021-05-06 14:14:04.468
0.0, 363.91845703125, -391.2627258300781, 312.8276672363281, 41.0809326171875, 0.04800000041723251, 0.0, 1.055999994277954, 0.0, 0.0, 0.0, 0.0, 0.0, 1.6203032444695108E9, 2021-05-06 14:14:04.469
1.0, 366.2446594238281, -399.65130615234375, 316.86676025390625, 37.2961540222168, 0.04800000041723251, 0.0, 1.055999994277954, 0.0, 0.0, 0.0, 0.0, 0.0, 1.6203032444830892E9, 2021-05-06 14:14:04.483
1.0, 370.0406494140625, -387.6948547363281, 331.2204895019531, 47.52851867675781, 0.04800000041723251, 0.0, 1.055999994277954, 0.0, 0.0, 0.0, 0.0, 0.0, 1.6203032444830892E9, 2021-05-06 14:14:04.483
2.0, 353.2896423339844, -397.4747009277344, 320.6253662109375, 39.22220230102539, 0.04800000041723251, 0.0, 1.055999994277954, 0.0, 0.0, 0.0, 0.0, 0.0, 1.6203032445142293E9, 2021-05-06 14:14:04.514
2.0, 353.0802001953125, -386.31109619140625, 307.67034912109375, 42.475914001464844, 0.04800000041723251, 0.0, 1.055999994277954, 0.0, 0.0, 0.0, 0.0, 0.0, 1.6203032445142293E9, 2021-05-06 14:14:04.514
3.0, 359.763427734375, -393.5515441894531, 314.45452880859375, 44.573997497558594, 0.04800000041723251, 0.0, 1.055999994277954, 0.0, 0.0, 0.0, 0.0, 0.0, 1.6203032445149493E9, 2021-05-06 14:14:04.514
3.0, 347.64239501953125, -401.3829040527344, 317.861572265625, 37.026878356933594, 0.04800000041723251, 0.0, 1.055999994277954, 0.0, 0.0, 0.0, 0.0, 0.0, 1.6203032445149493E9, 2021-05-06 14:14:04.514
4.0, 361.2556457519531, -394.1349792480469, 322.5102844238281, 42.15428161621094, 0.04800000041723251, 0.0, 1.055999994277954, 0.0, 0.0, 0.0, 0.0, 0.0, 1.6203032445295062E9, 2021-05-06 14:14:04.529
4.0, 369.928466796875, -384.8936767578125, 318.5198059082031, 49.413429260253906, 0.04800000041723251, 0.0, 1.055999994277954, 0.0, 0.0, 0.0, 0.0, 0.0, 1.6203032445295062E9, 2021-05-06 14:14:04.529
5.0, 361.7081604003906, -396.5920715332031, 311.8104248046875, 41.37638473510742, 0.04800000041723251, 0.0, 1.055999994277954, 0.0, 0.0, 0.0, 0.0, 0.0, 1.6203032445302656E9, 2021-05-06 14:14:04.530
5.0, 359.27349853515625, -386.71875, 323.2657470703125, 38.72853469848633, 0.04800000041723251, 0.0, 1.055999994277954, 0.0, 0.0, 0.0, 0.0, 0.0, 1.6203032445302656E9, 2021-05-06 14:14:04.530
6.0, 353.8618469238281, -391.1692199707031, 316.6386413574219, 40.3703498840332, 0.04800000041723251, 0.0, 1.055999994277954, 0.0, 0.0, 0.0, 0.0, 0.0, 1.620303244530948E9, 2021-05-06 14:14:04.530
6.0, 357.6354064941406, -396.30035400390625, 310.1686096191406, 38.91926956176758, 0.04800000041723251, 0.0, 1.055999994277954, 0.0, 0.0, 0.0, 0.0, 0.0, 1.620303244530948E9, 2021-05-06 14:14:04.530
7.0, 346.4344177246094, -405.2835998535156, 301.6565856933594, 30.80742645263672, 0.04800000041723251, 0.0, 1.055999994277954, 0.0, 0.0, 0.0, 0.0, 0.0, 1.620303244543098E9, 2021-05-06 14:14:04.543
7.0, 345.7200927734375, -403.6156005859375, 310.65478515625, 29.25910758972168, 0.04800000041723251, 0.0, 1.055999994277954, 0.0, 0.0, 0.0, 0.0, 0.0, 1.620303244543098E9, 2021-05-06 14:14:04.543
8.0, 360.4141540527344, -393.0055236816406, 320.1952819824219, 41.660614013671875, 0.04800000041723251, 0.0, 1.055999994277954, 0.0, 0.0, 0.0, 0.0, 0.0, 1.620303244558898E9, 2021-05-06 14:14:04.558
8.0, 353.51031494140625, -395.3092956542969, 311.7505798339844, 38.814552307128906, 0.04800000041723251, 0.0, 1.055999994277954, 0.0, 0.0, 0.0, 0.0, 0.0, 1.620303244558898E9, 2021-05-06 14:14:04.558
9.0, 361.30426025390625, -392.72503662109375, 313.5943603515625, 39.85798263549805, 0.04800000041723251, 0.0, 1.055999994277954, 0.0, 0.0, 0.0, 0.0, 0.0, 1.6203032445595777E9, 2021-05-06 14:14:04.559
9.0, 348.69329833984375, -402.3253479003906, 311.8029479980469, 32.14257049560547, 0.04800000041723251, 0.0, 1.055999994277954, 0.0, 0.0, 0.0, 0.0, 0.0, 1.6203032445595777E9, 2021-05-06 14:14:04.559
10.0, 353.32330322265625, -397.5008850097656, 314.6415100097656, 38.48918151855469, 0.04800000041723251, 0.0, 1.055999994277954, 0.0, 0.0, 0.0, 0.0, 0.0, 1.620303244573187E9, 2021-05-06 14:14:04.573
10.0, 355.0997619628906, -398.0693359375, 305.8078918457031, 43.111698150634766, 0.04800000041723251, 0.0, 1.055999994277954, 0.0, 0.0, 0.0, 0.0, 0.0, 1.620303244573187E9, 2021-05-06 14:14:04.573
11.0, 351.00830078125, -404.86846923828125, 306.8887023925781, 37.838436126708984, 0.04800000041723251, 0.0, 1.055999994277954, 0.0, 0.0, 0.0, 0.0, 0.0, 1.620303244588936E9, 2021-05-06 14:14:04.588
11.0, 361.03497314453125, -390.87750244140625, 320.81610107421875, 40.54238510131836, 0.04800000041723251, 0.0, 1.055999994277954, 0.0, 0.0, 0.0, 0.0, 0.0, 1.620303244588936E9, 2021-05-06 14:14:04.588
12.0, 360.31317138671875, -390.0697021484375, 320.7899169921875, 40.957515716552734, 0.04800000041723251, 0.0, 1.055999994277954, 0.0, 0.0, 0.0, 0.0, 0.0, 1.620303244589564E9, 2021-05-06 14:14:04.589
12.0, 365.7510070800781, -383.7866516113281, 318.62451171875, 45.067665100097656, 0.04800000041723251, 0.0, 1.055999994277954, 0.0, 0.0, 0.0, 0.0, 0.0, 1.620303244589564E9, 2021-05-06 14:14:04.589
13.0, 358.38714599609375, -392.83721923828125, 311.73187255859375, 40.01131820678711, 0.04800000041723251, 0.0, 1.055999994277954, 0.0, 0.0, 0.0, 0.0, 0.0, 1.6203032446032715E9, 2021-05-06 14:14:04.603
13.0, 356.4049987792969, -394.2995300292969, 313.1679992675781, 38.941707611083984, 0.04800000041723251, 0.0, 1.055999994277954, 0.0, 0.0, 0.0, 0.0, 0.0, 1.6203032446032715E9, 2021-05-06 14:14:04.603
14.0, 356.30401611328125, -391.6778564453125, 316.58251953125, 40.871498107910156, 0.04800000041723251, 0.0, 1.055999994277954, 0.0, 0.0, 0.0, 0.0, 0.0, 1.6203032446360557E9, 2021-05-06 14:14:04.636
14.0, 355.3316345214844, -388.4166564941406, 313.2914123535156, 40.81913757324219, 0.04800000041723251, 0.0, 1.055999994277954, 0.0, 0.0, 0.0, 0.0, 0.0, 1.6203032446360557E9, 2021-05-06 14:14:04.636
15.0, 356.76776123046875, -404.2887878417969, 310.5313720703125, 42.03460693359375, 0.04800000041723251, 0.0, 1.055999994277954, 0.0, 0.0, 0.0, 0.0, 0.0, 1.620303244636772E9, 2021-05-06 14:14:04.636
15.0, 356.6106872558594, -403.5931701660156, 319.9372253417969, 39.32691955566406, 0.04800000041723251, 0.0, 1.055999994277954, 0.0, 0.0, 0.0, 0.0, 0.0, 1.620303244636772E9, 2021-05-06 14:14:04.636
16.0, 354.9576416015625, -401.0874328613281, 311.3541564941406, 36.83988571166992, 0.04800000041723251, 0.0, 1.055999994277954, 0.0, 0.0, 0.0, 0.0, 0.0, 1.620303244637465E9, 2021-05-06 14:14:04.637
16.0, 352.956787109375, -402.9910583496094, 304.1211853027344, 33.87040328979492, 0.04800000041723251, 0.0, 1.055999994277954, 0.0, 0.0, 0.0, 0.0, 0.0, 1.620303244637465E9, 2021-05-06 14:14:04.637
17.0, 361.4014892578125, -395.2008361816406, 310.03021240234375, 36.1330451965332, 0.04800000041723251, 0.0, 1.055999994277954, 0.0, 0.0, 0.0, 0.0, 0.0, 1.6203032446381717E9, 2021-05-06 14:14:04.638
17.0, 363.0283508300781, -395.07366943359375, 318.09344482421875, 32.19118881225586, 0.04800000041723251, 0.0, 1.055999994277954, 0.0, 0.0, 0.0, 0.0, 0.0, 1.6203032446381717E9, 2021-05-06 14:14:04.638
18.0, 360.7283020019531, -395.24945068359375, 320.8348083496094, 41.54093933105469, 0.04800000041723251, 0.0, 1.055999994277954, 0.0, 0.0, 0.0, 0.0, 0.0, 1.620303244648087E9, 2021-05-06 14:14:04.648
18.0, 370.37725830078125, -400.3992919921875, 315.73358154296875, 39.53261184692383, 0.04800000041723251, 0.0, 1.055999994277954, 0.0, 0.0, 0.0, 0.0, 0.0, 1.620303244648087E9, 2021-05-06 14:14:04.648
19.0, 346.1539306640625, -407.3368225097656, 300.0185241699219, 26.031574249267578, 0.04800000041723251, 0.0, 1.055999994277954, 0.0, 0.0, 0.0, 0.0, 0.0, 1.6203032446632602E9, 2021-05-06 14:14:04.663
19.0, 356.45733642578125, -395.88525390625, 314.98931884765625, 32.082733154296875, 0.04800000041723251, 0.0, 1.055999994277954, 0.0, 0.0, 0.0, 0.0, 0.0, 1.6203032446632602E9, 2021-05-06 14:14:04.663
20.0, 360.6310729980469, -385.57806396484375, 321.9530334472656, 36.19662094116211, 0.04800000041723251, 0.0, 1.055999994277954, 0.0, 0.0, 0.0, 0.0, 0.0, 1.6203032446787872E9, 2021-05-06 14:14:04.678
20.0, 357.56060791015625, -387.3657531738281, 312.9959716796875, 31.383371353149414, 0.04800000041723251, 0.0, 1.055999994277954, 0.0, 0.0, 0.0, 0.0, 0.0, 1.6203032446787872E9, 2021-05-06 14:14:04.678
21.0, 355.6345520019531, -398.5330810546875, 309.7796630859375, 29.292766571044922, 0.04800000041723251, 0.0, 1.055999994277954, 0.0, 0.0, 0.0, 0.0, 0.0, 1.6203032446794856E9, 2021-05-06 14:14:04.679
21.0, 345.11798095703125, -388.9140625, 322.9141845703125, 36.43971633911133, 0.04800000041723251, 0.0, 1.055999994277954, 0.0, 0.0, 0.0, 0.0, 0.0, 1.6203032446794856E9, 2021-05-06 14:14:04.679
22.0, 347.1973571777344, -402.14208984375, 315.0155029296875, 31.80971908569336, 0.04800000041723251, 0.0, 1.055999994277954, 0.0, 0.0, 0.0, 0.0, 0.0, 1.620303244693238E9, 2021-05-06 14:14:04.693
22.0, 355.5635070800781, -398.2376403808594, 311.8515625, 37.84217834472656, 0.04800000041723251, 0.0, 1.055999994277954, 0.0, 0.0, 0.0, 0.0, 0.0, 1.620303244693238E9, 2021-05-06 14:14:04.693
23.0, 360.2645568847656, -400.2123107910156, 308.3734436035156, 37.3896484375, 0.04800000041723251, 0.0, 1.055999994277954, 0.0, 0.0, 0.0, 0.0, 0.0, 1.620303244709222E9, 2021-05-06 14:14:04.709
23.0, 351.782470703125, -397.9908142089844, 316.5413818359375, 34.7492790222168, 0.04800000041723251, 0.0, 1.055999994277954, 0.0, 0.0, 0.0, 0.0, 0.0, 1.620303244709222E9, 2021-05-06 14:14:04.709
24.0, 355.010009765625, -388.1810607910156, 319.5669860839844, 39.753265380859375, 0.04800000041723251, 0.0, 1.055999994277954, 0.0, 0.0, 0.0, 0.0, 0.0, 1.6203032447237804E9, 2021-05-06 14:14:04.723
24.0, 353.1737060546875, -395.0512390136719, 308.706298828125, 33.33185958862305, 0.04800000041723251, 0.0, 1.055999994277954, 0.0, 0.0, 0.0, 0.0, 0.0, 1.6203032447237804E9, 2021-05-06 14:14:04.723
25.0, 356.90240478515625, -385.3237609863281, 316.7657775878906, 47.315345764160156, 0.04800000041723251, 0.0, 1.055999994277954, 0.0, 0.0, 0.0, 0.0, 0.0, 1.6203032447246077E9, 2021-05-06 14:14:04.724
25.0, 346.7223815917969, -401.6596374511719, 314.0768127441406, 30.02204704284668, 0.04800000041723251, 0.0, 1.055999994277954, 0.0, 0.0, 0.0, 0.0, 0.0, 1.6203032447246077E9, 2021-05-06 14:14:04.724
26.0, 347.1001281738281, -405.12652587890625, 314.48443603515625, 29.771472930908203, 0.04800000041723251, 0.0, 1.055999994277954, 0.0, 0.0, 0.0, 0.0, 0.0, 1.6203032447392504E9, 2021-05-06 14:14:04.739
26.0, 352.9979248046875, -391.3076171875, 306.26788330078125, 36.9782600402832, 0.04800000041723251, 0.0, 1.055999994277954, 0.0, 0.0, 0.0, 0.0, 0.0, 1.6203032447392504E9, 2021-05-06 14:14:04.739
27.0, 353.6412048339844, -404.42718505859375, 306.3389587402344, 29.763994216918945, 0.04800000041723251, 0.0, 1.055999994277954, 0.0, 0.0, 0.0, 0.0, 0.0, 1.6203032447539127E9, 2021-05-06 14:14:04.753
27.0, 360.1748046875, -392.6053466796875, 324.2455749511719, 35.841331481933594, 0.04800000041723251, 0.0, 1.055999994277954, 0.0, 0.0, 0.0, 0.0, 0.0, 1.6203032447539127E9, 2021-05-06 14:14:04.753
28.0, 355.78790283203125, -395.5149841308594, 319.9521789550781, 34.48000717163086, 0.04800000041723251, 0.0, 1.055999994277954, 0.0, 0.0, 0.0, 0.0, 0.0, 1.6203032447546184E9, 2021-05-06 14:14:04.754
28.0, 351.3523864746094, -389.4226989746094, 309.4879455566406, 36.121822357177734, 0.04800000041723251, 0.0, 1.055999994277954, 0.0, 0.0, 0.0, 0.0, 0.0, 1.6203032447546184E9, 2021-05-06 14:14:04.754
29.0, 346.0491943359375, -397.6504821777344, 300.6991882324219, 26.42426300048828, 0.04800000041723251, 0.0, 1.055999994277954, 0.0, 0.0, 0.0, 0.0, 0.0, 1.6203032447688496E9, 2021-05-06 14:14:04.768
29.0, 350.89984130859375, -397.3550109863281, 319.7090759277344, 35.4523811340332, 0.04800000041723251, 0.0, 1.055999994277954, 0.0, 0.0, 0.0, 0.0, 0.0, 1.6203032447688496E9, 2021-05-06 14:14:04.768
30.0, 360.27203369140625, -381.21734619140625, 327.9031982421875, 47.60331726074219, 0.04800000041723251, 0.0, 1.055999994277954, 0.0, 0.0, 0.0, 0.0, 0.0, 1.6203032447695885E9, 2021-05-06 14:14:04.769
30.0, 359.2024230957031, -380.31976318359375, 313.8598937988281, 43.69137954711914, 0.04800000041723251, 0.0, 1.055999994277954, 0.0, 0.0, 0.0, 0.0, 0.0, 1.6203032447695885E9, 2021-05-06 14:14:04.769
31.0, 350.67919921875, -402.0074462890625, 311.4102478027344, 36.2452392578125, 0.04800000041723251, 0.0, 1.055999994277954, 0.0, 0.0, 0.0, 0.0, 0.0, 1.620303244783115E9, 2021-05-06 14:14:04.783
31.0, 344.5981140136719, -398.2488708496094, 317.1996154785156, 32.30338668823242, 0.04800000041723251, 0.0, 1.055999994277954, 0.0, 0.0, 0.0, 0.0, 0.0, 1.620303244783115E9, 2021-05-06 14:14:04.783
32.0, 347.2123107910156, -389.8453063964844, 314.0693054199219, 32.86063003540039, 0.04800000041723251, 0.0, 1.055999994277954, 0.0, 0.0, 0.0, 0.0, 0.0, 1.620303244798934E9, 2021-05-06 14:14:04.798
32.0, 353.38690185546875, -386.3298034667969, 316.676025390625, 44.487979888916016, 0.04800000041723251, 0.0, 1.055999994277954, 0.0, 0.0, 0.0, 0.0, 0.0, 1.620303244798934E9, 2021-05-06 14:14:04.798
33.0, 347.4030456542969, -401.79803466796875, 302.8084716796875, 33.253318786621094, 0.04800000041723251, 0.0, 1.055999994277954, 0.0, 0.0, 0.0, 0.0, 0.0, 1.6203032447996686E9, 2021-05-06 14:14:04.799
33.0, 358.58160400390625, -379.4932556152344, 325.58819580078125, 51.94533920288086, 0.04800000041723251, 0.0, 1.055999994277954, 0.0, 0.0, 0.0, 0.0, 0.0, 1.6203032447996686E9, 2021-05-06 14:14:04.799
34.0, 354.50885009765625, -387.19744873046875, 313.5195617675781, 40.957515716552734, 0.04800000041723251, 0.0, 1.055999994277954, 0.0, 0.0, 0.0, 0.0, 0.0, 1.6203032448131075E9, 2021-05-06 14:14:04.813
34.0, 355.3877258300781, -386.7262268066406, 305.2618408203125, 38.178768157958984, 0.04800000041723251, 0.0, 1.055999994277954, 0.0, 0.0, 0.0, 0.0, 0.0, 1.6203032448131075E9, 2021-05-06 14:14:04.813
35.0, 350.06585693359375, -393.42437744140625, 301.3050537109375, 26.04279327392578, 0.04800000041723251, 0.0, 1.055999994277954, 0.0, 0.0, 0.0, 0.0, 0.0, 1.620303244828931E9, 2021-05-06 14:14:04.828
35.0, 349.6245422363281, -395.3392028808594, 310.396728515625, 29.008533477783203, 0.04800000041723251, 0.0, 1.055999994277954, 0.0, 0.0, 0.0, 0.0, 0.0, 1.620303244828931E9, 2021-05-06 14:14:04.828
36.0, 349.4861755371094, -387.8182678222656, 310.6435852050781, 37.46070861816406, 0.04800000041723251, 0.0, 1.055999994277954, 0.0, 0.0, 0.0, 0.0, 0.0, 1.620303244829588E9, 2021-05-06 14:14:04.829
36.0, 362.0933837890625, -388.8766784667969, 307.0757141113281, 37.322330474853516, 0.04800000041723251, 0.0, 1.055999994277954, 0.0, 0.0, 0.0, 0.0, 0.0, 1.620303244829588E9, 2021-05-06 14:14:04.829
37.0, 347.32452392578125, -404.9881591796875, 304.6859130859375, 29.700414657592773, 0.04800000041723251, 0.0, 1.055999994277954, 0.0, 0.0, 0.0, 0.0, 0.0, 1.6203032448586385E9, 2021-05-06 14:14:04.858
37.0, 345.6976623535156, -396.13580322265625, 313.97955322265625, 36.01710510253906, 0.04800000041723251, 0.0, 1.055999994277954, 0.0, 0.0, 0.0, 0.0, 0.0, 1.6203032448586385E9, 2021-05-06 14:14:04.858
38.0, 359.9803161621094, -377.3577880859375, 326.1342468261719, 55.322471618652344, 0.04800000041723251, 0.0, 1.055999994277954, 0.0, 0.0, 0.0, 0.0, 0.0, 1.6203032448749723E9, 2021-05-06 14:14:04.874
38.0, 343.07598876953125, -398.3498229980469, 295.95697021484375, 29.610658645629883, 0.04800000041723251, 0.0, 1.055999994277954, 0.0, 0.0, 0.0, 0.0, 0.0, 1.6203032448749723E9, 2021-05-06 14:14:04.874
39.0, 352.7174377441406, -393.5777282714844, 302.9842529296875, 34.6670036315918, 0.04800000041723251, 0.0, 1.055999994277954, 0.0, 0.0, 0.0, 0.0, 0.0, 1.620303244875704E9, 2021-05-06 14:14:04.875
39.0, 350.4735107421875, -395.5224609375, 310.3630676269531, 37.76737976074219, 0.04800000041723251, 0.0, 1.055999994277954, 0.0, 0.0, 0.0, 0.0, 0.0, 1.620303244875704E9, 2021-05-06 14:14:04.875
40.0, 352.4556579589844, -392.5118408203125, 312.25921630859375, 40.4301872253418, 0.04800000041723251, 0.0, 1.055999994277954, 0.0, 0.0, 0.0, 0.0, 0.0, 1.6203032448764443E9, 2021-05-06 14:14:04.876
40.0, 364.9768371582031, -390.4436950683594, 311.84033203125, 47.506080627441406, 0.04800000041723251, 0.0, 1.055999994277954, 0.0, 0.0, 0.0, 0.0, 0.0, 1.6203032448764443E9, 2021-05-06 14:14:04.876
41.0, 352.2088317871094, -395.7431335449219, 307.7563781738281, 34.34163284301758, 0.04800000041723251, 0.0, 1.055999994277954, 0.0, 0.0, 0.0, 0.0, 0.0, 1.620303244888834E9, 2021-05-06 14:14:04.888
41.0, 357.2763977050781, -390.2155456542969, 316.0552062988281, 35.52717971801758, 0.04800000041723251, 0.0, 1.055999994277954, 0.0, 0.0, 0.0, 0.0, 0.0, 1.620303244888834E9, 2021-05-06 14:14:04.888
42.0, 352.2424621582031, -384.29156494140625, 311.8104248046875, 34.278053283691406, 0.04800000041723251, 0.0, 1.055999994277954, 0.0, 0.0, 0.0, 0.0, 0.0, 1.6203032448896592E9, 2021-05-06 14:14:04.889
42.0, 363.34625244140625, -381.3332824707031, 314.6527404785156, 46.13353729248047, 0.04800000041723251, 0.0, 1.055999994277954, 0.0, 0.0, 0.0, 0.0, 0.0, 1.6203032448896592E9, 2021-05-06 14:14:04.889
43.0, 340.3795166015625, -406.0802001953125, 297.2248229980469, 28.11469841003418, 0.04800000041723251, 0.0, 1.055999994277954, 0.0, 0.0, 0.0, 0.0, 0.0, 1.6203032449031436E9, 2021-05-06 14:14:04.903
43.0, 346.6700134277344, -379.11553955078125, 307.9770202636719, 32.355743408203125, 0.04800000041723251, 0.0, 1.055999994277954, 0.0, 0.0, 0.0, 0.0, 0.0, 1.6203032449031436E9, 2021-05-06 14:14:04.903
44.0, 350.5520324707031, -389.841552734375, 316.5600891113281, 36.2564582824707, 0.04800000041723251, 0.0, 1.055999994277954, 0.0, 0.0, 0.0, 0.0, 0.0, 1.6203032449194689E9, 2021-05-06 14:14:04.919
44.0, 366.25213623046875, -389.8901672363281, 313.635498046875, 45.27335739135742, 0.04800000041723251, 0.0, 1.055999994277954, 0.0, 0.0, 0.0, 0.0, 0.0, 1.6203032449194689E9, 2021-05-06 14:14:04.919
45.0, 356.8051452636719, -395.5112609863281, 307.2626953125, 39.805625915527344, 0.04800000041723251, 0.0, 1.055999994277954, 0.0, 0.0, 0.0, 0.0, 0.0, 1.6203032449202907E9, 2021-05-06 14:14:04.920
45.0, 355.5859375, -395.8029479980469, 317.0350646972656, 40.34416961669922, 0.04800000041723251, 0.0, 1.055999994277954, 0.0, 0.0, 0.0, 0.0, 0.0, 1.6203032449202907E9, 2021-05-06 14:14:04.920
46.0, 364.4756774902344, -387.2311096191406, 319.38372802734375, 40.108558654785156, 0.04800000041723251, 0.0, 1.055999994277954, 0.0, 0.0, 0.0, 0.0, 0.0, 1.6203032449330795E9, 2021-05-06 14:14:04.933
46.0, 364.7823486328125, -381.7147521972656, 312.2330322265625, 35.58327865600586, 0.04800000041723251, 0.0, 1.055999994277954, 0.0, 0.0, 0.0, 0.0, 0.0, 1.6203032449330795E9, 2021-05-06 14:14:04.933
47.0, 362.5085144042969, -393.8731689453125, 306.8587951660156, 40.28807067871094, 0.04800000041723251, 0.0, 1.055999994277954, 0.0, 0.0, 0.0, 0.0, 0.0, 1.6203032449487972E9, 2021-05-06 14:14:04.948
47.0, 354.5686950683594, -403.1443786621094, 311.4401550292969, 32.0789909362793, 0.04800000041723251, 0.0, 1.055999994277954, 0.0, 0.0, 0.0, 0.0, 0.0, 1.6203032449487972E9, 2021-05-06 14:14:04.948
48.0, 354.13861083984375, -392.6689147949219, 317.04254150390625, 40.78173828125, 0.04800000041723251, 0.0, 1.055999994277954, 0.0, 0.0, 0.0, 0.0, 0.0, 1.6203032449495E9, 2021-05-06 14:14:04.949
48.0, 349.04486083984375, -401.6858215332031, 306.9298400878906, 37.21387481689453, 0.04800000041723251, 0.0, 1.055999994277954, 0.0, 0.0, 0.0, 0.0, 0.0, 1.6203032449495E9, 2021-05-06 14:14:04.949
49.0, 353.9291687011719, -392.6015930175781, 310.4042053222656, 39.233421325683594, 0.04800000041723251, 0.0, 1.055999994277954, 0.0, 0.0, 0.0, 0.0, 0.0, 1.6203032449792533E9, 2021-05-06 14:14:04.979
49.0, 350.7203369140625, -394.63238525390625, 317.4801025390625, 36.36491775512695, 0.04800000041723251, 0.0, 1.055999994277954, 0.0, 0.0, 0.0, 0.0, 0.0, 1.6203032449792533E9, 2021-05-06 14:14:04.979
50.0, 354.50885009765625, -398.5368347167969, 317.7269287109375, 38.54901885986328, 0.04800000041723251, 0.0, 1.055999994277954, 0.0, 0.0, 0.0, 0.0, 0.0, 1.620303244979911E9, 2021-05-06 14:14:04.979
50.0, 363.5220031738281, -385.7426452636719, 319.2303771972656, 49.447086334228516, 0.04800000041723251, 0.0, 1.055999994277954, 0.0, 0.0, 0.0, 0.0, 0.0, 1.620303244979911E9, 2021-05-06 14:14:04.979
51.0, 354.54998779296875, -398.2787780761719, 312.31903076171875, 45.77824401855469, 0.04800000041723251, 0.0, 1.055999994277954, 0.0, 0.0, 0.0, 0.0, 0.0, 1.620303244993827E9, 2021-05-06 14:14:04.993
51.0, 361.1359558105469, -394.6249084472656, 322.9515686035156, 46.94135284423828, 0.04800000041723251, 0.0, 1.055999994277954, 0.0, 0.0, 0.0, 0.0, 0.0, 1.620303244993827E9, 2021-05-06 14:14:04.993
52.0, 352.9044494628906, -391.29638671875, 323.7930603027344, 41.26418685913086, 0.04800000041723251, 0.0, 1.055999994277954, 0.0, 0.0, 0.0, 0.0, 0.0, 1.6203032449946215E9, 2021-05-06 14:14:04.994
52.0, 360.1336669921875, -396.3601989746094, 322.4317321777344, 43.33235168457031, 0.04800000041723251, 0.0, 1.055999994277954, 0.0, 0.0, 0.0, 0.0, 0.0, 1.6203032449946215E9, 2021-05-06 14:14:04.994
53.0, 350.3987121582031, -403.4548034667969, 313.6728820800781, 35.62067794799805, 0.04800000041723251, 0.0, 1.055999994277954, 0.0, 0.0, 0.0, 0.0, 0.0, 1.6203032450088353E9, 2021-05-06 14:14:05.008
53.0, 359.2248840332031, -385.58929443359375, 321.1900939941406, 48.20170211791992, 0.04800000041723251, 0.0, 1.055999994277954, 0.0, 0.0, 0.0, 0.0, 0.0, 1.6203032450088353E9, 2021-05-06 14:14:05.008
54.0, 360.761962890625, -393.1700744628906, 321.4481506347656, 39.465293884277344, 0.04800000041723251, 0.0, 1.055999994277954, 0.0, 0.0, 0.0, 0.0, 0.0, 1.6203032450095794E9, 2021-05-06 14:14:05.009
54.0, 360.70587158203125, -387.0516052246094, 312.9735412597656, 43.91951370239258, 0.04800000041723251, 0.0, 1.055999994277954, 0.0, 0.0, 0.0, 0.0, 0.0, 1.6203032450095794E9, 2021-05-06 14:14:05.009
55.0, 356.5022277832031, -396.9960021972656, 309.80584716796875, 35.99840545654297, 0.04800000041723251, 0.0, 1.055999994277954, 0.0, 0.0, 0.0, 0.0, 0.0, 1.6203032450232692E9, 2021-05-06 14:14:05.023
55.0, 346.9093933105469, -397.1867370605469, 309.4093933105469, 32.69981384277344, 0.04800000041723251, 0.0, 1.055999994277954, 0.0, 0.0, 0.0, 0.0, 0.0, 1.6203032450232692E9, 2021-05-06 14:14:05.023
56.0, 358.402099609375, -385.4845886230469, 323.9463806152344, 42.59558868408203, 0.04800000041723251, 0.0, 1.055999994277954, 0.0, 0.0, 0.0, 0.0, 0.0, 1.6203032450387468E9, 2021-05-06 14:14:05.038
56.0, 366.7532958984375, -390.6381530761719, 318.7666320800781, 48.29145812988281, 0.04800000041723251, 0.0, 1.055999994277954, 0.0, 0.0, 0.0, 0.0, 0.0, 1.6203032450387468E9, 2021-05-06 14:14:05.038
57.0, 363.7127380371094, -400.2534484863281, 312.2966003417969, 41.290367126464844, 0.04800000041723251, 0.0, 1.055999994277954, 0.0, 0.0, 0.0, 0.0, 0.0, 1.6203032450394933E9, 2021-05-06 14:14:05.039
57.0, 359.64373779296875, -395.9488220214844, 329.6534729003906, 47.56217956542969, 0.04800000041723251, 0.0, 1.055999994277954, 0.0, 0.0, 0.0, 0.0, 0.0, 1.6203032450394933E9, 2021-05-06 14:14:05.039
58.0, 357.8897399902344, -397.20916748046875, 319.98583984375, 42.56941223144531, 0.04800000041723251, 0.0, 1.055999994277954, 0.0, 0.0, 0.0, 0.0, 0.0, 1.6203032450695927E9, 2021-05-06 14:14:05.069
58.0, 359.8980407714844, -395.6533508300781, 310.9352722167969, 38.964149475097656, 0.04800000041723251, 0.0, 1.055999994277954, 0.0, 0.0, 0.0, 0.0, 0.0, 1.6203032450695927E9, 2021-05-06 14:14:05.069
59.0, 353.75714111328125, -403.06585693359375, 307.591796875, 37.135337829589844, 0.04800000041723251, 0.0, 1.055999994277954, 0.0, 0.0, 0.0, 0.0, 0.0, 1.6203032450703273E9, 2021-05-06 14:14:05.070
59.0, 358.8209533691406, -396.4312744140625, 315.61016845703125, 43.725040435791016, 0.04800000041723251, 0.0, 1.055999994277954, 0.0, 0.0, 0.0, 0.0, 0.0, 1.6203032450703273E9, 2021-05-06 14:14:05.070
60.0, 365.17132568359375, -377.0660705566406, 327.8807678222656, 49.9257926940918, 0.04800000041723251, 0.0, 1.055999994277954, 0.0, 0.0, 0.0, 0.0, 0.0, 1.620303245070943E9, 2021-05-06 14:14:05.070
60.0, 359.0303955078125, -382.5337829589844, 316.25341796875, 48.38495635986328, 0.04800000041723251, 0.0, 1.055999994277954, 0.0, 0.0, 0.0, 0.0, 0.0, 1.620303245070943E9, 2021-05-06 14:14:05.070
61.0, 352.1863708496094, -396.4200439453125, 310.5538024902344, 39.379276275634766, 0.04800000041723251, 0.0, 1.055999994277954, 0.0, 0.0, 0.0, 0.0, 0.0, 1.620303245083069E9, 2021-05-06 14:14:05.083
61.0, 346.02301025390625, -408.2156982421875, 315.0229797363281, 32.61379623413086, 0.04800000041723251, 0.0, 1.055999994277954, 0.0, 0.0, 0.0, 0.0, 0.0, 1.620303245083069E9, 2021-05-06 14:14:05.083
62.0, 373.1746826171875, -391.98077392578125, 328.17620849609375, 48.6991081237793, 0.04800000041723251, 0.0, 1.055999994277954, 0.0, 0.0, 0.0, 0.0, 0.0, 1.6203032450988595E9, 2021-05-06 14:14:05.098
62.0, 362.2915954589844, -386.13531494140625, 320.0755920410156, 52.25575256347656, 0.04800000041723251, 0.0, 1.055999994277954, 0.0, 0.0, 0.0, 0.0, 0.0, 1.6203032450988595E9, 2021-05-06 14:14:05.098
63.0, 343.4798889160156, -412.5427551269531, 294.9434814453125, 30.50823402404785, 0.04800000041723251, 0.0, 1.055999994277954, 0.0, 0.0, 0.0, 0.0, 0.0, 1.6203032450995893E9, 2021-05-06 14:14:05.099
63.0, 357.8822326660156, -393.04290771484375, 315.71112060546875, 42.16924285888672, 0.04800000041723251, 0.0, 1.055999994277954, 0.0, 0.0, 0.0, 0.0, 0.0, 1.6203032450995893E9, 2021-05-06 14:14:05.099
64.0, 353.5626525878906, -396.3415222167969, 310.65478515625, 36.2452392578125, 0.04800000041723251, 0.0, 1.055999994277954, 0.0, 0.0, 0.0, 0.0, 0.0, 1.6203032451132004E9, 2021-05-06 14:14:05.113
64.0, 371.5067138671875, -386.5093078613281, 318.05230712890625, 49.36106872558594, 0.04800000041723251, 0.0, 1.055999994277954, 0.0, 0.0, 0.0, 0.0, 0.0, 1.6203032451132004E9, 2021-05-06 14:14:05.113
65.0, 353.27093505859375, -396.78656005859375, 309.4093933105469, 41.5035400390625, 0.04800000041723251, 0.0, 1.055999994277954, 0.0, 0.0, 0.0, 0.0, 0.0, 1.6203032451287727E9, 2021-05-06 14:14:05.128
65.0, 352.78851318359375, -397.42608642578125, 316.8705139160156, 38.91926956176758, 0.04800000041723251, 0.0, 1.055999994277954, 0.0, 0.0, 0.0, 0.0, 0.0, 1.6203032451287727E9, 2021-05-06 14:14:05.128
66.0, 358.10662841796875, -393.22991943359375, 317.2781677246094, 39.32691955566406, 0.04800000041723251, 0.0, 1.055999994277954, 0.0, 0.0, 0.0, 0.0, 0.0, 1.6203032451296034E9, 2021-05-06 14:14:05.129
66.0, 362.6468811035156, -392.4632263183594, 316.0963439941406, 43.26503372192383, 0.04800000041723251, 0.0, 1.055999994277954, 0.0, 0.0, 0.0, 0.0, 0.0, 1.6203032451296034E9, 2021-05-06 14:14:05.129
67.0, 367.4713439941406, -381.8306884765625, 324.11468505859375, 50.43067932128906, 0.04800000041723251, 0.0, 1.055999994277954, 0.0, 0.0, 0.0, 0.0, 0.0, 1.6203032451432047E9, 2021-05-06 14:14:05.143
67.0, 345.78741455078125, -406.21484375, 312.8538513183594, 31.312313079833984, 0.04800000041723251, 0.0, 1.055999994277954, 0.0, 0.0, 0.0, 0.0, 0.0, 1.6203032451432047E9, 2021-05-06 14:14:05.143
68.0, 351.6253967285156, -387.8818664550781, 318.5459899902344, 45.05644607543945, 0.04800000041723251, 0.0, 1.055999994277954, 0.0, 0.0, 0.0, 0.0, 0.0, 1.6203032451589777E9, 2021-05-06 14:14:05.158
68.0, 362.7441101074219, -382.5188293457031, 316.9976501464844, 51.57508850097656, 0.04800000041723251, 0.0, 1.055999994277954, 0.0, 0.0, 0.0, 0.0, 0.0, 1.6203032451589777E9, 2021-05-06 14:14:05.158
69.0, 338.1842041015625, -407.05633544921875, 302.3035888671875, 30.1417236328125, 0.04800000041723251, 0.0, 1.055999994277954, 0.0, 0.0, 0.0, 0.0, 0.0, 1.6203032451596441E9, 2021-05-06 14:14:05.159
69.0, 350.7278137207031, -390.4025573730469, 320.62908935546875, 42.247779846191406, 0.04800000041723251, 0.0, 1.055999994277954, 0.0, 0.0, 0.0, 0.0, 0.0, 1.6203032451596441E9, 2021-05-06 14:14:05.159
70.0, 358.8995056152344, -390.5820617675781, 320.6253662109375, 41.99720764160156, 0.04800000041723251, 0.0, 1.055999994277954, 0.0, 0.0, 0.0, 0.0, 0.0, 1.620303245173067E9, 2021-05-06 14:14:05.173
70.0, 363.1629943847656, -385.450927734375, 316.61993408203125, 48.04462432861328, 0.04800000041723251, 0.0, 1.055999994277954, 0.0, 0.0, 0.0, 0.0, 0.0, 1.620303245173067E9, 2021-05-06 14:14:05.173
71.0, 357.57183837890625, -397.7776184082031, 311.3279724121094, 37.026878356933594, 0.04800000041723251, 0.0, 1.055999994277954, 0.0, 0.0, 0.0, 0.0, 0.0, 1.6203032451888907E9, 2021-05-06 14:14:05.188
71.0, 354.8379821777344, -406.6412048339844, 310.737060546875, 29.95846939086914, 0.04800000041723251, 0.0, 1.055999994277954, 0.0, 0.0, 0.0, 0.0, 0.0, 1.6203032451888907E9, 2021-05-06 14:14:05.188
72.0, 354.33306884765625, -396.3415222167969, 320.6739807128906, 43.29869079589844, 0.04800000041723251, 0.0, 1.055999994277954, 0.0, 0.0, 0.0, 0.0, 0.0, 1.6203032451896577E9, 2021-05-06 14:14:05.189
72.0, 361.6520690917969, -400.45538330078125, 313.4522399902344, 46.46638870239258, 0.04800000041723251, 0.0, 1.055999994277954, 0.0, 0.0, 0.0, 0.0, 0.0, 1.6203032451896577E9, 2021-05-06 14:14:05.189
73.0, 361.1247253417969, -403.9709167480469, 312.65936279296875, 43.10795593261719, 0.04800000041723251, 0.0, 1.055999994277954, 0.0, 0.0, 0.0, 0.0, 0.0, 1.62030324520309E9, 2021-05-06 14:14:05.203
73.0, 353.25225830078125, -398.10675048828125, 319.398681640625, 39.046424865722656, 0.04800000041723251, 0.0, 1.055999994277954, 0.0, 0.0, 0.0, 0.0, 0.0, 1.62030324520309E9, 2021-05-06 14:14:05.203
74.0, 358.4132995605469, -393.914306640625, 321.8408203125, 38.276004791259766, 0.04800000041723251, 0.0, 1.055999994277954, 0.0, 0.0, 0.0, 0.0, 0.0, 1.620303245218835E9, 2021-05-06 14:14:05.218
74.0, 362.310302734375, -395.00262451171875, 312.19561767578125, 43.0181999206543, 0.04800000041723251, 0.0, 1.055999994277954, 0.0, 0.0, 0.0, 0.0, 0.0, 1.620303245218835E9, 2021-05-06 14:14:05.218
75.0, 363.3013610839844, -396.9585876464844, 314.1889953613281, 42.333797454833984, 0.04800000041723251, 0.0, 1.055999994277954, 0.0, 0.0, 0.0, 0.0, 0.0, 1.620303245219524E9, 2021-05-06 14:14:05.219
75.0, 349.8265075683594, -398.6191101074219, 315.39697265625, 32.96160888671875, 0.04800000041723251, 0.0, 1.055999994277954, 0.0, 0.0, 0.0, 0.0, 0.0, 1.620303245219524E9, 2021-05-06 14:14:05.219
76.0, 359.22113037109375, -396.8314208984375, 317.4838562011719, 38.92675018310547, 0.04800000041723251, 0.0, 1.055999994277954, 0.0, 0.0, 0.0, 0.0, 0.0, 1.620303245233179E9, 2021-05-06 14:14:05.233
76.0, 368.4661560058594, -395.4289855957031, 312.2292785644531, 40.991172790527344, 0.04800000041723251, 0.0, 1.055999994277954, 0.0, 0.0, 0.0, 0.0, 0.0, 1.620303245233179E9, 2021-05-06 14:14:05.233
77.0, 356.93231201171875, -394.265869140625, 311.6683044433594, 38.893089294433594, 0.04800000041723251, 0.0, 1.055999994277954, 0.0, 0.0, 0.0, 0.0, 0.0, 1.6203032452487972E9, 2021-05-06 14:14:05.248
77.0, 350.4847106933594, -400.4591369628906, 315.490478515625, 34.87269592285156, 0.04800000041723251, 0.0, 1.055999994277954, 0.0, 0.0, 0.0, 0.0, 0.0, 1.6203032452487972E9, 2021-05-06 14:14:05.248
78.0, 352.88946533203125, -388.05389404296875, 315.77471923828125, 38.335845947265625, 0.04800000041723251, 0.0, 1.055999994277954, 0.0, 0.0, 0.0, 0.0, 0.0, 1.6203032452495074E9, 2021-05-06 14:14:05.249
78.0, 363.89599609375, -388.5812072753906, 316.3768310546875, 44.22992706298828, 0.04800000041723251, 0.0, 1.055999994277954, 0.0, 0.0, 0.0, 0.0, 0.0, 1.6203032452495074E9, 2021-05-06 14:14:05.249
79.0, 368.5746154785156, -390.09588623046875, 325.5133972167969, 45.07140350341797, 0.04800000041723251, 0.0, 1.055999994277954, 0.0, 0.0, 0.0, 0.0, 0.0, 1.6203032452630847E9, 2021-05-06 14:14:05.263
79.0, 348.5063171386719, -399.2885437011719, 314.3236389160156, 28.44754981994629, 0.04800000041723251, 0.0, 1.055999994277954, 0.0, 0.0, 0.0, 0.0, 0.0, 1.6203032452630847E9, 2021-05-06 14:14:05.263
80.0, 369.7601623535156, -380.7760314941406, 326.2165222167969, 46.436466217041016, 0.04800000041723251, 0.0, 1.055999994277954, 0.0, 0.0, 0.0, 0.0, 0.0, 1.6203032452789285E9, 2021-05-06 14:14:05.278
80.0, 361.7904357910156, -399.14642333984375, 314.6265563964844, 40.96873474121094, 0.04800000041723251, 0.0, 1.055999994277954, 0.0, 0.0, 0.0, 0.0, 0.0, 1.6203032452789285E9, 2021-05-06 14:14:05.278
81.0, 364.4532470703125, -396.54345703125, 321.3957824707031, 45.292057037353516, 0.04800000041723251, 0.0, 1.055999994277954, 0.0, 0.0, 0.0, 0.0, 0.0, 1.6203032452797005E9, 2021-05-06 14:14:05.279
81.0, 367.3442077636719, -400.2384948730469, 319.974609375, 40.108558654785156, 0.04800000041723251, 0.0, 1.055999994277954, 0.0, 0.0, 0.0, 0.0, 0.0, 1.6203032452797005E9, 2021-05-06 14:14:05.279
82.0, 353.6412048339844, -401.566162109375, 313.6280212402344, 42.21038055419922, 0.04800000041723251, 0.0, 1.055999994277954, 0.0, 0.0, 0.0, 0.0, 0.0, 1.6203032452931852E9, 2021-05-06 14:14:05.293
82.0, 357.5494079589844, -390.451171875, 311.41400146484375, 35.75905227661133, 0.04800000041723251, 0.0, 1.055999994277954, 0.0, 0.0, 0.0, 0.0, 0.0, 1.6203032452931852E9, 2021-05-06 14:14:05.293
83.0, 353.3307800292969, -392.5866394042969, 309.3533020019531, 37.97681427001953, 0.04800000041723251, 0.0, 1.055999994277954, 0.0, 0.0, 0.0, 0.0, 0.0, 1.6203032453259864E9, 2021-05-06 14:14:05.325
83.0, 348.0911865234375, -395.87774658203125, 312.47613525390625, 34.05365753173828, 0.04800000041723251, 0.0, 1.055999994277954, 0.0, 0.0, 0.0, 0.0, 0.0, 1.6203032453259864E9, 2021-05-06 14:14:05.325
84.0, 362.3514404296875, -383.77545166015625, 325.73779296875, 48.3699951171875, 0.04800000041723251, 0.0, 1.055999994277954, 0.0, 0.0, 0.0, 0.0, 0.0, 1.6203032453263056E9, 2021-05-06 14:14:05.326
84.0, 360.97515869140625, -392.9942932128906, 315.24365234375, 44.56277847290039, 0.04800000041723251, 0.0, 1.055999994277954, 0.0, 0.0, 0.0, 0.0, 0.0, 1.6203032453263056E9, 2021-05-06 14:14:05.326
85.0, 359.5240478515625, -396.1395568847656, 313.1829528808594, 41.660614013671875, 0.04800000041723251, 0.0, 1.055999994277954, 0.0, 0.0, 0.0, 0.0, 0.0, 1.620303245339618E9, 2021-05-06 14:14:05.339
85.0, 367.3853454589844, -379.94952392578125, 326.676513671875, 45.868003845214844, 0.04800000041723251, 0.0, 1.055999994277954, 0.0, 0.0, 0.0, 0.0, 0.0, 1.620303245339618E9, 2021-05-06 14:14:05.339
86.0, 356.1880798339844, -395.58978271484375, 323.3592224121094, 42.56193161010742, 0.04800000041723251, 0.0, 1.055999994277954, 0.0, 0.0, 0.0, 0.0, 0.0, 1.620303245340364E9, 2021-05-06 14:14:05.340
86.0, 357.2913513183594, -398.174072265625, 309.29345703125, 36.185401916503906, 0.04800000041723251, 0.0, 1.055999994277954, 0.0, 0.0, 0.0, 0.0, 0.0, 1.620303245340364E9, 2021-05-06 14:14:05.340
87.0, 361.5772705078125, -400.0066223144531, 308.9568786621094, 38.76219177246094, 0.04800000041723251, 0.0, 1.055999994277954, 0.0, 0.0, 0.0, 0.0, 0.0, 1.6203032453409717E9, 2021-05-06 14:14:05.340
87.0, 366.76824951171875, -386.89453125, 323.6995544433594, 49.690181732177734, 0.04800000041723251, 0.0, 1.055999994277954, 0.0, 0.0, 0.0, 0.0, 0.0, 1.6203032453409717E9, 2021-05-06 14:14:05.340
88.0, 354.4228515625, -393.12518310546875, 310.66973876953125, 40.3292121887207, 0.04800000041723251, 0.0, 1.055999994277954, 0.0, 0.0, 0.0, 0.0, 0.0, 1.620303245353099E9, 2021-05-06 14:14:05.353
88.0, 364.23260498046875, -397.6691589355469, 308.3959045410156, 38.171287536621094, 0.04800000041723251, 0.0, 1.055999994277954, 0.0, 0.0, 0.0, 0.0, 0.0, 1.620303245353099E9, 2021-05-06 14:14:05.353
89.0, 360.8143310546875, -391.8910217285156, 310.0152587890625, 33.608612060546875, 0.04800000041723251, 0.0, 1.055999994277954, 0.0, 0.0, 0.0, 0.0, 0.0, 1.6203032453688722E9, 2021-05-06 14:14:05.368
89.0, 364.2138977050781, -387.7210388183594, 318.6581726074219, 36.361175537109375, 0.04800000041723251, 0.0, 1.055999994277954, 0.0, 0.0, 0.0, 0.0, 0.0, 1.6203032453688722E9, 2021-05-06 14:14:05.368
90.0, 348.35296630859375, -398.77618408203125, 306.59326171875, 28.944955825805664, 0.04800000041723251, 0.0, 1.055999994277954, 0.0, 0.0, 0.0, 0.0, 0.0, 1.6203032453695753E9, 2021-05-06 14:14:05.369
90.0, 356.00482177734375, -387.97161865234375, 307.27392578125, 39.091304779052734, 0.04800000041723251, 0.0, 1.055999994277954, 0.0, 0.0, 0.0, 0.0, 0.0, 1.6203032453695753E9, 2021-05-06 14:14:05.369
91.0, 359.47918701171875, -389.82659912109375, 317.1435241699219, 39.77944564819336, 0.04800000041723251, 0.0, 1.055999994277954, 0.0, 0.0, 0.0, 0.0, 0.0, 1.620303245383106E9, 2021-05-06 14:14:05.383
91.0, 359.29217529296875, -389.48626708984375, 319.14434814453125, 37.05305862426758, 0.04800000041723251, 0.0, 1.055999994277954, 0.0, 0.0, 0.0, 0.0, 0.0, 1.620303245383106E9, 2021-05-06 14:14:05.383
92.0, 366.6672668457031, -383.99237060546875, 321.5079650878906, 41.395084381103516, 0.04800000041723251, 0.0, 1.055999994277954, 0.0, 0.0, 0.0, 0.0, 0.0, 1.6203032453988948E9, 2021-05-06 14:14:05.398
92.0, 355.6270751953125, -394.59124755859375, 311.7281494140625, 38.22364807128906, 0.04800000041723251, 0.0, 1.055999994277954, 0.0, 0.0, 0.0, 0.0, 0.0, 1.6203032453988948E9, 2021-05-06 14:14:05.398
93.0, 357.81866455078125, -390.3352355957031, 309.3345947265625, 36.54443359375, 0.04800000041723251, 0.0, 1.055999994277954, 0.0, 0.0, 0.0, 0.0, 0.0, 1.6203032453995776E9, 2021-05-06 14:14:05.399
93.0, 355.5522766113281, -398.08056640625, 319.8287658691406, 32.30338668823242, 0.04800000041723251, 0.0, 1.055999994277954, 0.0, 0.0, 0.0, 0.0, 0.0, 1.6203032453995776E9, 2021-05-06 14:14:05.399
94.0, 351.5468444824219, -394.841796875, 316.8929443359375, 38.20868682861328, 0.04800000041723251, 0.0, 1.055999994277954, 0.0, 0.0, 0.0, 0.0, 0.0, 1.6203032454130976E9, 2021-05-06 14:14:05.413
94.0, 359.8008117675781, -398.2264099121094, 308.26873779296875, 40.03376007080078, 0.04800000041723251, 0.0, 1.055999994277954, 0.0, 0.0, 0.0, 0.0, 0.0, 1.6203032454130976E9, 2021-05-06 14:14:05.413
95.0, 360.57122802734375, -393.6375732421875, 315.13519287109375, 43.13413619995117, 0.04800000041723251, 0.0, 1.055999994277954, 0.0, 0.0, 0.0, 0.0, 0.0, 1.620303245445357E9, 2021-05-06 14:14:05.445
95.0, 348.0575256347656, -396.41632080078125, 310.8268127441406, 28.91877555847168, 0.04800000041723251, 0.0, 1.055999994277954, 0.0, 0.0, 0.0, 0.0, 0.0, 1.620303245445357E9, 2021-05-06 14:14:05.445
96.0, 355.88140869140625, -395.4327087402344, 315.8831787109375, 37.40087127685547, 0.04800000041723251, 0.0, 1.055999994277954, 0.0, 0.0, 0.0, 0.0, 0.0, 1.6203032454460363E9, 2021-05-06 14:14:05.446
96.0, 367.6471252441406, -386.5504455566406, 314.8621826171875, 42.722747802734375, 0.04800000041723251, 0.0, 1.055999994277954, 0.0, 0.0, 0.0, 0.0, 0.0, 1.6203032454460363E9, 2021-05-06 14:14:05.446
97.0, 361.25189208984375, -394.67724609375, 302.0231018066406, 35.75905227661133, 0.04800000041723251, 0.0, 1.055999994277954, 0.0, 0.0, 0.0, 0.0, 0.0, 1.620303245446833E9, 2021-05-06 14:14:05.446
97.0, 356.11700439453125, -386.0567932128906, 315.08282470703125, 31.559144973754883, 0.04800000041723251, 0.0, 1.055999994277954, 0.0, 0.0, 0.0, 0.0, 0.0, 1.620303245446833E9, 2021-05-06 14:14:05.446
98.0, 361.7530517578125, -393.40570068359375, 316.4067687988281, 31.88077735900879, 0.04800000041723251, 0.0, 1.055999994277954, 0.0, 0.0, 0.0, 0.0, 0.0, 1.6203032454475753E9, 2021-05-06 14:14:05.447
98.0, 355.06610107421875, -391.543212890625, 310.5650329589844, 34.34537124633789, 0.04800000041723251, 0.0, 1.055999994277954, 0.0, 0.0, 0.0, 0.0, 0.0, 1.6203032454475753E9, 2021-05-06 14:14:05.447
99.0, 354.7444763183594, -393.2523498535156, 310.6622619628906, 32.606319427490234, 0.04800000041723251, 0.0, 1.055999994277954, 0.0, 0.0, 0.0, 0.0, 0.0, 1.6203032454580774E9, 2021-05-06 14:14:05.458
99.0, 360.40667724609375, -392.3099060058594, 323.45648193359375, 42.857383728027344, 0.04800000041723251, 0.0, 1.055999994277954, 0.0, 0.0, 0.0, 0.0, 0.0, 1.6203032454580774E9, 2021-05-06 14:14:05.458
100.0, 355.8514709472656, -388.62982177734375, 317.685791015625, 34.173336029052734, 0.04800000041723251, 0.0, 1.055999994277954, 0.0, 0.0, 0.0, 0.0, 0.0, 1.6203032454738472E9, 2021-05-06 14:14:05.473
100.0, 357.6054992675781, -387.0254211425781, 309.3009338378906, 35.8525505065918, 0.04800000041723251, 0.0, 1.055999994277954, 0.0, 0.0, 0.0, 0.0, 0.0, 1.6203032454738472E9, 2021-05-06 14:14:05.473
