Sample Index, EXG Channel 0, EXG Channel 1, EXG Channel 2, EXG Channel 3, Accel Channel 0, Accel Channel 1, Accel Channel 2, Other, Other, Other, Other, Other, Timestamp, Timestamp (Formatted)
0.0, 348.9494934082031, -400.36376953125, 293.4830322265625, 72.90187072753906, 0.0, 0.0, 0.0, 0.0, 0.0, 0.0, 0.0, 0.0, 1.6203026269335601E9, 2021-05-06 14:03:46.933
1.0, 348.22021484375, -410.0650634765625, 289.6982727050781, 63.694236755371094, 0.0, 0.1120000034570694, 0.0, 0.0, 0.0, 0.0, 0.0, 0.0, 1.6203026269809432E9, 2021-05-06 14:03:46.980
1.0, 351.2644958496094, -412.4922790527344, 302.8589782714844, 74.9737777709961, 0.0, 0.1120000034570694, 0.0, 0.0, 0.0, 0.0, 0.0, 0.0, 1.6203026269809432E9, 2021-05-06 14:03:46.980
2.0, 345.1497497558594, -402.7648010253906, 301.5275573730469, 69.09465026855469, -0.09600000083446503, 0.1120000034570694, 0.0, 0.0, 0.0, 0.0, 0.0, 0.0, 1.6203026269822407E9, 2021-05-06 14:03:46.982
2.0, 349.2748718261719, -397.2073059082031, 292.0618896484375, 71.74250030517578, -0.09600000083446503, 0.1120000034570694, 0.0, 0.0, 0.0, 0.0, 0.0, 0.0, 1.6203026269822407E9, 2021-05-06 14:03:46.982
3.0, 347.0159606933594, -407.9295959472656, 290.2480163574219, 69.17693328857422, -0.09600000083446503, 0.1120000034570694, 0.0, 0.0, 0.0, 0.0, 0.0, 0.0, 1.620302627009457E9, 2021-05-06 14:03:47.009
3.0, 340.2691955566406, -409.7172546386719, 296.916259765625, 67.24713897705078, -0.09600000083446503, 0.1120000034570694, 0.0, 0.0, 0.0, 0.0, 0.0, 0.0, 1.620302627009457E9, 2021-05-06 14:03:47.009
4.0, 349.4132385253906, -395.0269470214844, 299.2350158691406, 77.08307647705078, -0.09600000083446503, 0.1120000034570694, 0.0, 0.0, 0.0, 0.0, 0.0, 0.0, 1.620302627010148E9, 2021-05-06 14:03:47.010
4.0, 346.23431396484375, -391.3319091796875, 294.0627136230469, 73.90042114257812, -0.09600000083446503, 0.1120000034570694, 0.0, 0.0, 0.0, 0.0, 0.0, 0.0, 1.620302627010148E9, 2021-05-06 14:03:47.010
5.0, 342.9320068359375, -405.2779846191406, 294.874267578125, 74.18839263916016, -0.09600000083446503, 0.1120000034570694, 0.0, 0.0, 0.0, 0.0, 0.0, 0.0, 1.6203026270108757E9, 2021-05-06 14:03:47.010
5.0, 342.47198486328125, -401.9345397949219, 305.71624755859375, 70.97582244873047, -0.09600000083446503, 0.1120000034570694, 0.0, 0.0, 0.0, 0.0, 0.0, 0.0, 1.6203026270108757E9, 2021-05-06 14:03:47.010
6.0, 339.89520263671875, -406.8113708496094, 297.7128601074219, 71.2450942993164, -0.09600000083446503, 0.1120000034570694, 0.0, 0.0, 0.0, 0.0, 0.0, 0.0, 1.620302627011614E9, 2021-05-06 14:03:47.011
6.0, 342.7487487792969, -407.570556640625, 289.8328857421875, 69.28912353515625, -0.09600000083446503, 0.1120000034570694, 0.0, 0.0, 0.0, 0.0, 0.0, 0.0, 1.620302627011614E9, 2021-05-06 14:03:47.011
7.0, 347.8574523925781, -401.7662353515625, 293.8233642578125, 78.92684936523438, -0.09600000083446503, 0.1120000034570694, 0.0, 0.0, 0.0, 0.0, 0.0, 0.0, 1.6203026270227716E9, 2021-05-06 14:03:47.022
7.0, 343.6762390136719, -403.3556823730469, 301.0899963378906, 71.12915802001953, -0.09600000083446503, 0.1120000034570694, 0.0, 0.0, 0.0, 0.0, 0.0, 0.0, 1.6203026270227716E9, 2021-05-06 14:03:47.022
8.0, 347.8761291503906, -385.43408203125, 303.2404479980469, 73.25341796875, -0.09600000083446503, 0.1120000034570694, 0.0, 0.0, 0.0, 0.0, 0.0, 0.0, 1.6203026270235035E9, 2021-05-06 14:03:47.023
8.0, 345.2731628417969, -394.189208984375, 289.7394104003906, 65.15279388427734, -0.09600000083446503, 0.1120000034570694, 0.0, 0.0, 0.0, 0.0, 0.0, 0.0, 1.6203026270235035E9, 2021-05-06 14:03:47.023
9.0, 342.8609313964844, -409.51531982421875, 288.8530578613281, 65.77735900878906, -0.09600000083446503, 0.1120000034570694, 0.0, 0.0, 0.0, 0.0, 0.0, 0.0, 1.620302627037402E9, 2021-05-06 14:03:47.037
9.0, 347.1618347167969, -403.0003967285156, 300.97406005859375, 68.15593719482422, -0.09600000083446503, 0.1120000034570694, 0.0, 0.0, 0.0, 0.0, 0.0, 0.0, 1.620302627037402E9, 2021-05-06 14:03:47.037
10.0, 351.343017578125, -397.55511474609375, 299.31353759765625, 65.84468078613281, -0.09600000083446503, 0.1120000034570694, 1.040000081062317, 0.0, 0.0, 0.0, 0.0, 0.0, 1.6203026270380828E9, 2021-05-06 14:03:47.038
10.0, 345.08990478515625, -400.3824768066406, 289.9750061035156, 69.07221221923828, -0.09600000083446503, 0.1120000034570694, 1.040000081062317, 0.0, 0.0, 0.0, 0.0, 0.0, 1.6203026270380828E9, 2021-05-06 14:03:47.038
11.0, 343.6837158203125, -407.6827392578125, 287.5478210449219, 66.90680694580078, -0.09600000083446503, 0.1120000034570694, 1.040000081062317, 0.0, 0.0, 0.0, 0.0, 0.0, 1.6203026270524695E9, 2021-05-06 14:03:47.052
11.0, 349.0055847167969, -407.58551025390625, 303.6256408691406, 69.7977523803711, -0.09600000083446503, 0.1120000034570694, 1.040000081062317, 0.0, 0.0, 0.0, 0.0, 0.0, 1.6203026270524695E9, 2021-05-06 14:03:47.052
12.0, 347.0047607421875, -398.8603210449219, 303.8949279785156, 68.94879913330078, -0.1120000034570694, 0.1120000034570694, 1.040000081062317, 0.0, 0.0, 0.0, 0.0, 0.0, 1.6203026270531075E9, 2021-05-06 14:03:47.053
12.0, 344.9702453613281, -410.02020263671875, 296.16827392578125, 71.58916473388672, -0.1120000034570694, 0.1120000034570694, 1.040000081062317, 0.0, 0.0, 0.0, 0.0, 0.0, 1.6203026270531075E9, 2021-05-06 14:03:47.053
13.0, 350.30706787109375, -403.44171142578125, 294.60125732421875, 75.0597915649414, -0.1120000034570694, 0.1120000034570694, 1.040000081062317, 0.0, 0.0, 0.0, 0.0, 0.0, 1.6203026270667372E9, 2021-05-06 14:03:47.066
13.0, 340.65814208984375, -401.2314147949219, 299.5977783203125, 70.79630279541016, -0.1120000034570694, 0.1120000034570694, 1.040000081062317, 0.0, 0.0, 0.0, 0.0, 0.0, 1.6203026270667372E9, 2021-05-06 14:03:47.066
14.0, 348.6877136230469, -401.44085693359375, 298.46832275390625, 67.14990234375, -0.1120000034570694, 0.1120000034570694, 1.040000081062317, 0.0, 0.0, 0.0, 0.0, 0.0, 1.620302627082364E9, 2021-05-06 14:03:47.082
14.0, 351.77685546875, -403.838134765625, 290.89501953125, 64.95832061767578, -0.1120000034570694, 0.1120000034570694, 1.040000081062317, 0.0, 0.0, 0.0, 0.0, 0.0, 1.620302627082364E9, 2021-05-06 14:03:47.082
15.0, 346.32781982421875, -409.4143371582031, 288.0377502441406, 70.27645874023438, -0.1120000034570694, 0.1120000034570694, 1.040000081062317, 0.0, 0.0, 0.0, 0.0, 0.0, 1.620302627083069E9, 2021-05-06 14:03:47.083
15.0, 346.42132568359375, -401.8971252441406, 299.11907958984375, 70.4821548461914, -0.1120000034570694, 0.1120000034570694, 1.040000081062317, 0.0, 0.0, 0.0, 0.0, 0.0, 1.620302627083069E9, 2021-05-06 14:03:47.083
16.0, 350.22479248046875, -397.08013916015625, 300.6673889160156, 69.34896850585938, -0.1120000034570694, 0.1120000034570694, 1.040000081062317, 0.0, 0.0, 0.0, 0.0, 0.0, 1.620302627113047E9, 2021-05-06 14:03:47.113
16.0, 354.2377014160156, -407.2003173828125, 296.0934753417969, 71.46575164794922, -0.1120000034570694, 0.1120000034570694, 1.040000081062317, 0.0, 0.0, 0.0, 0.0, 0.0, 1.620302627113047E9, 2021-05-06 14:03:47.113
17.0, 349.39080810546875, -404.694580078125, 287.8133544921875, 61.154842376708984, -0.1120000034570694, 0.1120000034570694, 1.040000081062317, 0.0, 0.0, 0.0, 0.0, 0.0, 1.6203026271137648E9, 2021-05-06 14:03:47.113
17.0, 354.394775390625, -400.18426513671875, 304.9570617675781, 69.36392211914062, -0.1120000034570694, 0.1120000034570694, 1.040000081062317, 0.0, 0.0, 0.0, 0.0, 0.0, 1.6203026271137648E9, 2021-05-06 14:03:47.113
18.0, 354.9969177246094, -396.2611083984375, 306.4006652832031, 73.05520629882812, -0.1120000034570694, 0.1120000034570694, 1.040000081062317, 0.0, 0.0, 0.0, 0.0, 0.0, 1.6203026271145177E9, 2021-05-06 14:03:47.114
18.0, 350.7147216796875, -408.18389892578125, 292.7388000488281, 70.20539855957031, -0.1120000034570694, 0.1120000034570694, 1.040000081062317, 0.0, 0.0, 0.0, 0.0, 0.0, 1.6203026271145177E9, 2021-05-06 14:03:47.114
19.0, 349.0280456542969, -403.6399230957031, 292.3797607421875, 71.98933410644531, -0.1120000034570694, 0.1120000034570694, 1.040000081062317, 0.0, 0.0, 0.0, 0.0, 0.0, 1.6203026271266787E9, 2021-05-06 14:03:47.126
19.0, 347.4236145019531, -404.04010009765625, 303.8949279785156, 73.20480346679688, -0.1120000034570694, 0.1120000034570694, 1.040000081062317, 0.0, 0.0, 0.0, 0.0, 0.0, 1.6203026271266787E9, 2021-05-06 14:03:47.126
20.0, 346.4026184082031, -394.8698425292969, 302.1820373535156, 73.15991973876953, -0.1120000034570694, 0.1120000034570694, 1.040000081062317, 0.0, 0.0, 0.0, 0.0, 0.0, 1.6203026271424377E9, 2021-05-06 14:03:47.142
20.0, 349.77227783203125, -398.0787048339844, 295.2969055175781, 75.37394714355469, -0.1120000034570694, 0.1120000034570694, 1.040000081062317, 0.0, 0.0, 0.0, 0.0, 0.0, 1.6203026271424377E9, 2021-05-06 14:03:47.142
21.0, 347.8574523925781, -399.9187316894531, 290.472412109375, 71.29745483398438, -0.1120000034570694, 0.1120000034570694, 1.040000081062317, 0.0, 0.0, 0.0, 0.0, 0.0, 1.6203026271431255E9, 2021-05-06 14:03:47.143
21.0, 349.3421936035156, -396.9417724609375, 300.22607421875, 67.63983154296875, -0.1120000034570694, 0.1120000034570694, 1.040000081062317, 0.0, 0.0, 0.0, 0.0, 0.0, 1.6203026271431255E9, 2021-05-06 14:03:47.143
22.0, 347.2441101074219, -402.0953369140625, 297.86993408203125, 65.38467407226562, -0.1120000034570694, 0.1120000034570694, 1.040000081062317, 0.0, 0.0, 0.0, 0.0, 0.0, 1.6203026271567056E9, 2021-05-06 14:03:47.156
22.0, 347.446044921875, -408.6214599609375, 293.9168701171875, 72.9130859375, -0.1120000034570694, 0.1120000034570694, 1.040000081062317, 0.0, 0.0, 0.0, 0.0, 0.0, 1.6203026271567056E9, 2021-05-06 14:03:47.156
23.0, 349.56658935546875, -398.86407470703125, 285.6404724121094, 68.39903259277344, -0.1120000034570694, 0.1120000034570694, 1.040000081062317, 0.0, 0.0, 0.0, 0.0, 0.0, 1.6203026272052724E9, 2021-05-06 14:03:47.205
23.0, 341.7165222167969, -398.6546325683594, 298.3112487792969, 70.81500244140625, -0.1120000034570694, 0.1120000034570694, 1.040000081062317, 0.0, 0.0, 0.0, 0.0, 0.0, 1.6203026272052724E9, 2021-05-06 14:03:47.205
24.0, 346.0473327636719, -400.71905517578125, 299.78851318359375, 75.8638687133789, -0.1120000034570694, 0.1120000034570694, 1.040000081062317, 0.0, 0.0, 0.0, 0.0, 0.0, 1.6203026272058928E9, 2021-05-06 14:03:47.205
24.0, 345.6845703125, -398.9613037109375, 290.0310974121094, 70.50833129882812, -0.1120000034570694, 0.1120000034570694, 1.040000081062317, 0.0, 0.0, 0.0, 0.0, 0.0, 1.6203026272058928E9, 2021-05-06 14:03:47.205
25.0, 352.6706848144531, -414.848388671875, 290.92120361328125, 70.93094635009766, -0.1120000034570694, 0.1120000034570694, 1.040000081062317, 0.0, 0.0, 0.0, 0.0, 0.0, 1.620302627206628E9, 2021-05-06 14:03:47.206
25.0, 344.7420959472656, -403.6324462890625, 299.4668884277344, 68.78797912597656, -0.1120000034570694, 0.1120000034570694, 1.040000081062317, 0.0, 0.0, 0.0, 0.0, 0.0, 1.620302627206628E9, 2021-05-06 14:03:47.206
26.0, 348.3211975097656, -394.6005859375, 303.1544189453125, 72.92057037353516, -0.1120000034570694, 0.1120000034570694, 1.040000081062317, 0.0, 0.0, 0.0, 0.0, 0.0, 1.620302627207428E9, 2021-05-06 14:03:47.207
26.0, 349.59649658203125, -398.9388732910156, 294.9042053222656, 72.7709732055664, -0.1120000034570694, 0.1120000034570694, 1.040000081062317, 0.0, 0.0, 0.0, 0.0, 0.0, 1.620302627207428E9, 2021-05-06 14:03:47.207
27.0, 352.9923400878906, -405.7679138183594, 290.4350280761719, 68.6533432006836, -0.1120000034570694, 0.1120000034570694, 1.040000081062317, 0.0, 0.0, 0.0, 0.0, 0.0, 1.62030262723374E9, 2021-05-06 14:03:47.233
27.0, 347.4273681640625, -403.838134765625, 296.0747985839844, 67.50519561767578, -0.1120000034570694, 0.1120000034570694, 1.040000081062317, 0.0, 0.0, 0.0, 0.0, 0.0, 1.62030262723374E9, 2021-05-06 14:03:47.233
28.0, 349.1813659667969, -399.69805908203125, 300.91796875, 70.02962493896484, -0.1120000034570694, 0.1120000034570694, 1.040000081062317, 0.0, 0.0, 0.0, 0.0, 0.0, 1.6203026272344372E9, 2021-05-06 14:03:47.234
28.0, 349.5179748535156, -399.5484619140625, 288.53887939453125, 66.49916076660156, -0.1120000034570694, 0.1120000034570694, 1.040000081062317, 0.0, 0.0, 0.0, 0.0, 0.0, 1.6203026272344372E9, 2021-05-06 14:03:47.234
29.0, 347.0870361328125, -402.8246154785156, 289.95257568359375, 67.91658020019531, -0.1120000034570694, 0.1120000034570694, 1.040000081062317, 0.0, 0.0, 0.0, 0.0, 0.0, 1.6203026272352169E9, 2021-05-06 14:03:47.235
29.0, 346.88507080078125, -397.63739013671875, 302.4961853027344, 68.30179595947266, -0.1120000034570694, 0.1120000034570694, 1.040000081062317, 0.0, 0.0, 0.0, 0.0, 0.0, 1.6203026272352169E9, 2021-05-06 14:03:47.235
30.0, 348.02947998046875, -393.8713073730469, 303.1768493652344, 70.77012634277344, -0.1120000034570694, 0.1120000034570694, 1.040000081062317, 0.0, 0.0, 0.0, 0.0, 0.0, 1.6203026272359614E9, 2021-05-06 14:03:47.235
30.0, 346.7279968261719, -393.72918701171875, 295.061279296875, 68.70570373535156, -0.1120000034570694, 0.1120000034570694, 1.040000081062317, 0.0, 0.0, 0.0, 0.0, 0.0, 1.6203026272359614E9, 2021-05-06 14:03:47.235
31.0, 345.8902587890625, -402.4543762207031, 293.9953918457031, 65.83345794677734, -0.1120000034570694, 0.1120000034570694, 1.040000081062317, 0.0, 0.0, 0.0, 0.0, 0.0, 1.620302627246726E9, 2021-05-06 14:03:47.246
31.0, 349.3047790527344, -396.3321533203125, 302.6009216308594, 71.0244369506836, -0.1120000034570694, 0.1120000034570694, 1.040000081062317, 0.0, 0.0, 0.0, 0.0, 0.0, 1.620302627246726E9, 2021-05-06 14:03:47.246
32.0, 347.48345947265625, -398.744384765625, 307.6610107421875, 76.45103454589844, -0.1120000034570694, 0.1120000034570694, 1.040000081062317, 0.0, 0.0, 0.0, 0.0, 0.0, 1.6203026272621613E9, 2021-05-06 14:03:47.262
32.0, 353.1867980957031, -400.60687255859375, 292.69390869140625, 66.2822494506836, -0.1120000034570694, 0.1120000034570694, 1.040000081062317, 0.0, 0.0, 0.0, 0.0, 0.0, 1.6203026272621613E9, 2021-05-06 14:03:47.262
33.0, 346.9187316894531, -392.1023254394531, 296.09722900390625, 73.9752197265625, -0.1120000034570694, 0.1120000034570694, 1.040000081062317, 0.0, 0.0, 0.0, 0.0, 0.0, 1.620302627277382E9, 2021-05-06 14:03:47.277
33.0, 344.7121887207031, -401.3136901855469, 298.38604736328125, 63.76903533935547, -0.1120000034570694, 0.1120000034570694, 1.040000081062317, 0.0, 0.0, 0.0, 0.0, 0.0, 1.620302627277382E9, 2021-05-06 14:03:47.277
34.0, 352.4126281738281, -395.8758850097656, 305.15899658203125, 70.06328582763672, -0.1120000034570694, 0.1120000034570694, 1.040000081062317, 0.0, 0.0, 0.0, 0.0, 0.0, 1.6203026272780523E9, 2021-05-06 14:03:47.278
34.0, 345.1983642578125, -396.7622375488281, 292.95196533203125, 64.63294982910156, -0.1120000034570694, 0.1120000034570694, 1.040000081062317, 0.0, 0.0, 0.0, 0.0, 0.0, 1.6203026272780523E9, 2021-05-06 14:03:47.278
35.0, 352.6706848144531, -395.4682312011719, 294.732177734375, 73.72464752197266, -0.1120000034570694, 0.1120000034570694, 1.040000081062317, 0.0, 0.0, 0.0, 0.0, 0.0, 1.6203026273071227E9, 2021-05-06 14:03:47.307
35.0, 341.7801208496094, -396.9417724609375, 292.11798095703125, 59.33725357055664, -0.1120000034570694, 0.1120000034570694, 1.040000081062317, 0.0, 0.0, 0.0, 0.0, 0.0, 1.6203026273071227E9, 2021-05-06 14:03:47.307
36.0, 352.70062255859375, -383.8745422363281, 306.8157958984375, 71.15159606933594, -0.1120000034570694, 0.1120000034570694, 1.040000081062317, 0.0, 0.0, 0.0, 0.0, 0.0, 1.6203026273241768E9, 2021-05-06 14:03:47.324
36.0, 345.86407470703125, -403.0789489746094, 289.14849853515625, 64.4160385131836, -0.1120000034570694, 0.1120000034570694, 1.040000081062317, 0.0, 0.0, 0.0, 0.0, 0.0, 1.6203026273241768E9, 2021-05-06 14:03:47.324
37.0, 353.69915771484375, -389.7237548828125, 296.9461975097656, 71.30119323730469, -0.1120000034570694, 0.1120000034570694, 1.040000081062317, 0.0, 0.0, 0.0, 0.0, 0.0, 1.6203026273249106E9, 2021-05-06 14:03:47.324
37.0, 351.69085693359375, -386.2493896484375, 307.33563232421875, 71.54054260253906, -0.1120000034570694, 0.1120000034570694, 1.040000081062317, 0.0, 0.0, 0.0, 0.0, 0.0, 1.6203026273249106E9, 2021-05-06 14:03:47.324
38.0, 345.2320251464844, -389.08050537109375, 305.30487060546875, 73.50025177001953, -0.1120000034570694, 0.1120000034570694, 1.040000081062317, 0.0, 0.0, 0.0, 0.0, 0.0, 1.620302627325652E9, 2021-05-06 14:03:47.325
38.0, 346.1445617675781, -392.2818603515625, 293.4830322265625, 65.541748046875, -0.1120000034570694, 0.1120000034570694, 1.040000081062317, 0.0, 0.0, 0.0, 0.0, 0.0, 1.620302627325652E9, 2021-05-06 14:03:47.325
39.0, 348.0780944824219, -386.44384765625, 289.1447448730469, 67.83056640625, -0.1120000034570694, 0.1120000034570694, 1.040000081062317, 0.0, 0.0, 0.0, 0.0, 0.0, 1.6203026273374863E9, 2021-05-06 14:03:47.337
39.0, 348.467041015625, -400.1506042480469, 304.8635559082031, 69.77157592773438, -0.1120000034570694, 0.1120000034570694, 1.040000081062317, 0.0, 0.0, 0.0, 0.0, 0.0, 1.6203026273374863E9, 2021-05-06 14:03:47.337
40.0, 347.7377624511719, -384.5514831542969, 309.50103759765625, 69.098388671875, -0.1120000034570694, 0.1120000034570694, 1.040000081062317, 0.0, 0.0, 0.0, 0.0, 0.0, 1.6203026273381433E9, 2021-05-06 14:03:47.338
40.0, 349.66754150390625, -393.6431579589844, 303.6181640625, 77.29624938964844, -0.1120000034570694, 0.1120000034570694, 1.040000081062317, 0.0, 0.0, 0.0, 0.0, 0.0, 1.6203026273381433E9, 2021-05-06 14:03:47.338
41.0, 340.0635070800781, -401.39599609375, 289.53369140625, 63.608219146728516, -0.1120000034570694, 0.1120000034570694, 1.040000081062317, 0.0, 0.0, 0.0, 0.0, 0.0, 1.620302627352464E9, 2021-05-06 14:03:47.352
41.0, 342.1540832519531, -395.8459777832031, 299.0442810058594, 66.88810729980469, -0.1120000034570694, 0.1120000034570694, 1.040000081062317, 0.0, 0.0, 0.0, 0.0, 0.0, 1.620302627352464E9, 2021-05-06 14:03:47.352
42.0, 342.4383239746094, -382.40850830078125, 300.4542236328125, 64.66287231445312, -0.1120000034570694, 0.1120000034570694, 1.040000081062317, 0.0, 0.0, 0.0, 0.0, 0.0, 1.6203026273531487E9, 2021-05-06 14:03:47.353
42.0, 340.5272521972656, -393.25421142578125, 293.67376708984375, 71.31989288330078, -0.1120000034570694, 0.1120000034570694, 1.040000081062317, 0.0, 0.0, 0.0, 0.0, 0.0, 1.6203026273531487E9, 2021-05-06 14:03:47.353
43.0, 347.2478332519531, -401.208984375, 291.916015625, 68.06243896484375, -0.1120000034570694, 0.1120000034570694, 1.040000081062317, 0.0, 0.0, 0.0, 0.0, 0.0, 1.6203026273830724E9, 2021-05-06 14:03:47.383
43.0, 339.8577880859375, -388.1343078613281, 299.05548095703125, 64.0383071899414, -0.1120000034570694, 0.1120000034570694, 1.040000081062317, 0.0, 0.0, 0.0, 0.0, 0.0, 1.6203026273830724E9, 2021-05-06 14:03:47.383
44.0, 346.5821533203125, -389.7050476074219, 298.5655517578125, 63.85131072998047, -0.1120000034570694, 0.1120000034570694, 1.040000081062317, 0.0, 0.0, 0.0, 0.0, 0.0, 1.6203026273837912E9, 2021-05-06 14:03:47.383
44.0, 352.06109619140625, -388.79998779296875, 296.4151306152344, 70.66166687011719, -0.1120000034570694, 0.1120000034570694, 1.040000081062317, 0.0, 0.0, 0.0, 0.0, 0.0, 1.6203026273837912E9, 2021-05-06 14:03:47.383
45.0, 348.4147033691406, -394.4771728515625, 292.6452941894531, 67.40047454833984, -0.1120000034570694, 0.1120000034570694, 1.040000081062317, 0.0, 0.0, 0.0, 0.0, 0.0, 1.620302627384509E9, 2021-05-06 14:03:47.384
45.0, 342.6440124511719, -399.3091125488281, 296.6170654296875, 59.355953216552734, -0.1120000034570694, 0.1120000034570694, 1.040000081062317, 0.0, 0.0, 0.0, 0.0, 0.0, 1.620302627384509E9, 2021-05-06 14:03:47.384
46.0, 343.0928039550781, -383.9680480957031, 298.2588806152344, 63.118289947509766, -0.1120000034570694, 0.1120000034570694, 1.040000081062317, 0.0, 0.0, 0.0, 0.0, 0.0, 1.6203026273968763E9, 2021-05-06 14:03:47.396
46.0, 351.9451599121094, -387.3302307128906, 295.072509765625, 70.5831298828125, -0.1120000034570694, 0.1120000034570694, 1.040000081062317, 0.0, 0.0, 0.0, 0.0, 0.0, 1.6203026273968763E9, 2021-05-06 14:03:47.396
47.0, 347.17303466796875, -394.3200988769531, 297.7091369628906, 67.02275085449219, -0.1120000034570694, 0.1120000034570694, 1.040000081062317, 0.0, 0.0, 0.0, 0.0, 0.0, 1.6203026274124668E9, 2021-05-06 14:03:47.412
47.0, 337.88311767578125, -387.887451171875, 298.4234619140625, 58.08812713623047, -0.1120000034570694, 0.1120000034570694, 1.040000081062317, 0.0, 0.0, 0.0, 0.0, 0.0, 1.6203026274124668E9, 2021-05-06 14:03:47.412
48.0, 343.16387939453125, -390.1089782714844, 299.40704345703125, 65.12287902832031, -0.1120000034570694, 0.1120000034570694, 1.040000081062317, 0.0, 0.0, 0.0, 0.0, 0.0, 1.6203026274130464E9, 2021-05-06 14:03:47.413
48.0, 348.3249206542969, -397.9590148925781, 290.1919250488281, 63.16691207885742, -0.1120000034570694, 0.1120000034570694, 1.040000081062317, 0.0, 0.0, 0.0, 0.0, 0.0, 1.6203026274130464E9, 2021-05-06 14:03:47.413
49.0, 347.7789001464844, -398.3853759765625, 289.98248291015625, 63.02479553222656, -0.1120000034570694, 0.1120000034570694, 1.040000081062317, 0.0, 0.0, 0.0, 0.0, 0.0, 1.6203026274266503E9, 2021-05-06 14:03:47.426
49.0, 345.7630920410156, -394.2976379394531, 299.1302795410156, 65.3023910522461, -0.1120000034570694, 0.1120000034570694, 1.040000081062317, 0.0, 0.0, 0.0, 0.0, 0.0, 1.6203026274266503E9, 2021-05-06 14:03:47.426
50.0, 345.0412902832031, -392.1771240234375, 299.28363037109375, 61.360538482666016, -0.1120000034570694, 0.1120000034570694, 1.040000081062317, 0.0, 0.0, 0.0, 0.0, 0.0, 1.620302627442448E9, 2021-05-06 14:03:47.442
50.0, 347.59564208984375, -391.1598815917969, 290.30413818359375, 66.5851821899414, -0.1120000034570694, 0.1120000034570694, 1.040000081062317, 0.0, 0.0, 0.0, 0.0, 0.0, 1.620302627442448E9, 2021-05-06 14:03:47.442
51.0, 350.08642578125, -393.6244812011719, 291.7738952636719, 68.81415557861328, -0.1120000034570694, 0.1120000034570694, 1.040000081062317, 0.0, 0.0, 0.0, 0.0, 0.0, 1.6203026274431522E9, 2021-05-06 14:03:47.443
51.0, 348.3473815917969, -404.8965148925781, 301.7145690917969, 61.30070114135742, -0.1120000034570694, 0.1120000034570694, 1.040000081062317, 0.0, 0.0, 0.0, 0.0, 0.0, 1.6203026274431522E9, 2021-05-06 14:03:47.443
52.0, 345.1385498046875, -390.36328125, 303.11328125, 65.53800964355469, -0.1120000034570694, 0.1120000034570694, 1.040000081062317, 0.0, 0.0, 0.0, 0.0, 0.0, 1.6203026274566724E9, 2021-05-06 14:03:47.456
52.0, 345.2095947265625, -395.8609313964844, 284.0622253417969, 62.47502899169922, -0.1120000034570694, 0.1120000034570694, 1.040000081062317, 0.0, 0.0, 0.0, 0.0, 0.0, 1.6203026274566724E9, 2021-05-06 14:03:47.456
53.0, 352.6407775878906, -392.9288635253906, 294.80322265625, 64.28140258789062, -0.1120000034570694, 0.1120000034570694, 1.040000081062317, 0.0, 0.0, 0.0, 0.0, 0.0, 1.620302627489241E9, 2021-05-06 14:03:47.489
53.0, 344.6112060546875, -383.6239929199219, 301.26202392578125, 64.21408081054688, -0.1120000034570694, 0.1120000034570694, 1.040000081062317, 0.0, 0.0, 0.0, 0.0, 0.0, 1.620302627489241E9, 2021-05-06 14:03:47.489
54.0, 347.1393737792969, -382.8535461425781, 301.845458984375, 65.00320434570312, -0.1120000034570694, 0.1120000034570694, 1.040000081062317, 0.0, 0.0, 0.0, 0.0, 0.0, 1.620302627489929E9, 2021-05-06 14:03:47.489
54.0, 342.04937744140625, -391.60491943359375, 288.5127258300781, 65.18645477294922, -0.1120000034570694, 0.1120000034570694, 1.040000081062317, 0.0, 0.0, 0.0, 0.0, 0.0, 1.620302627489929E9, 2021-05-06 14:03:47.489
55.0, 354.2377014160156, -404.36920166015625, 295.1921691894531, 73.0701675415039, -0.1120000034570694, 0.1120000034570694, 1.040000081062317, 0.0, 0.0, 0.0, 0.0, 0.0, 1.6203026274906623E9, 2021-05-06 14:03:47.490
55.0, 345.2843933105469, -396.7884216308594, 299.1564636230469, 71.00948333740234, -0.1120000034570694, 0.1120000034570694, 1.040000081062317, 0.0, 0.0, 0.0, 0.0, 0.0, 1.6203026274906623E9, 2021-05-06 14:03:47.490
56.0, 346.4848937988281, -400.33758544921875, 302.3428649902344, 69.3153076171875, -0.1120000034570694, 0.1120000034570694, 1.040000081062317, 0.0, 0.0, 0.0, 0.0, 0.0, 1.6203026275024436E9, 2021-05-06 14:03:47.502
56.0, 353.2915344238281, -391.302001953125, 291.7963562011719, 68.29057312011719, -0.1120000034570694, 0.1120000034570694, 1.040000081062317, 0.0, 0.0, 0.0, 0.0, 0.0, 1.6203026275024436E9, 2021-05-06 14:03:47.502
57.0, 351.9040222167969, -388.919677734375, 295.13232421875, 65.9007797241211, -0.1120000034570694, 0.1120000034570694, 1.040000081062317, 0.0, 0.0, 0.0, 0.0, 0.0, 1.620302627503121E9, 2021-05-06 14:03:47.503
57.0, 347.2852478027344, -397.8580322265625, 295.3978576660156, 57.76275634765625, -0.1120000034570694, 0.1120000034570694, 1.040000081062317, 0.0, 0.0, 0.0, 0.0, 0.0, 1.620302627503121E9, 2021-05-06 14:03:47.503
58.0, 350.16497802734375, -383.7773132324219, 303.2666320800781, 69.15448760986328, -0.1120000034570694, 0.1120000034570694, 1.040000081062317, 0.0, 0.0, 0.0, 0.0, 0.0, 1.6203026275167444E9, 2021-05-06 14:03:47.516
58.0, 349.2412109375, -388.79998779296875, 296.7180480957031, 71.69388580322266, -0.1120000034570694, 0.1120000034570694, 1.040000081062317, 0.0, 0.0, 0.0, 0.0, 0.0, 1.6203026275167444E9, 2021-05-06 14:03:47.516
59.0, 344.4690856933594, -402.4020080566406, 290.5696716308594, 65.57914733886719, -0.1120000034570694, 0.1120000034570694, 1.040000081062317, 0.0, 0.0, 0.0, 0.0, 0.0, 1.6203026275486984E9, 2021-05-06 14:03:47.548
59.0, 342.1540832519531, -390.950439453125, 298.3673400878906, 65.76239776611328, -0.1120000034570694, 0.1120000034570694, 1.040000081062317, 0.0, 0.0, 0.0, 0.0, 0.0, 1.6203026275486984E9, 2021-05-06 14:03:47.548
60.0, 345.2993469238281, -392.7381286621094, 303.6219177246094, 67.99512481689453, -0.1120000034570694, 0.1120000034570694, 1.040000081062317, 0.0, 0.0, 0.0, 0.0, 0.0, 1.6203026275494573E9, 2021-05-06 14:03:47.549
60.0, 351.2644958496094, -404.50384521484375, 296.81903076171875, 71.51062774658203, -0.1120000034570694, 0.1120000034570694, 1.040000081062317, 0.0, 0.0, 0.0, 0.0, 0.0, 1.6203026275494573E9, 2021-05-06 14:03:47.549
61.0, 347.53582763671875, -407.1404724121094, 293.6700439453125, 66.05411529541016, -0.1120000034570694, 0.1120000034570694, 1.040000081062317, 0.0, 0.0, 0.0, 0.0, 0.0, 1.620302627550073E9, 2021-05-06 14:03:47.550
61.0, 347.55450439453125, -397.6186828613281, 301.72576904296875, 62.740562438964844, -0.1120000034570694, 0.1120000034570694, 1.040000081062317, 0.0, 0.0, 0.0, 0.0, 0.0, 1.620302627550073E9, 2021-05-06 14:03:47.550
62.0, 350.7969970703125, -394.847412109375, 303.98468017578125, 68.71318054199219, -0.1120000034570694, 0.1120000034570694, 1.040000081062317, 0.0, 0.0, 0.0, 0.0, 0.0, 1.6203026275623755E9, 2021-05-06 14:03:47.562
62.0, 351.8217468261719, -393.69927978515625, 295.48388671875, 65.05555725097656, -0.1120000034570694, 0.1120000034570694, 1.040000081062317, 0.0, 0.0, 0.0, 0.0, 0.0, 1.6203026275623755E9, 2021-05-06 14:03:47.562
63.0, 353.0858154296875, -394.2116394042969, 293.69622802734375, 69.3340072631836, -0.1120000034570694, 0.1120000034570694, 1.040000081062317, 0.0, 0.0, 0.0, 0.0, 0.0, 1.620302627563061E9, 2021-05-06 14:03:47.563
63.0, 349.22998046875, -397.45037841796875, 303.2441711425781, 67.01900482177734, -0.1120000034570694, 0.1120000034570694, 1.040000081062317, 0.0, 0.0, 0.0, 0.0, 0.0, 1.620302627563061E9, 2021-05-06 14:03:47.563
64.0, 347.2328796386719, -400.4273376464844, 305.7237243652344, 64.4160385131836, -0.1120000034570694, 0.1120000034570694, 1.040000081062317, 0.0, 0.0, 0.0, 0.0, 0.0, 1.6203026275767465E9, 2021-05-06 14:03:47.576
64.0, 349.00933837890625, -395.0643310546875, 295.2295837402344, 65.73995971679688, -0.1120000034570694, 0.1120000034570694, 1.040000081062317, 0.0, 0.0, 0.0, 0.0, 0.0, 1.6203026275767465E9, 2021-05-06 14:03:47.576
65.0, 346.43255615234375, -398.744384765625, 293.7822265625, 70.70655059814453, -0.1120000034570694, 0.1120000034570694, 1.040000081062317, 0.0, 0.0, 0.0, 0.0, 0.0, 1.6203026275930438E9, 2021-05-06 14:03:47.593
65.0, 349.1701354980469, -395.07928466796875, 305.2786865234375, 62.68072509765625, -0.1120000034570694, 0.1120000034570694, 1.040000081062317, 0.0, 0.0, 0.0, 0.0, 0.0, 1.6203026275930438E9, 2021-05-06 14:03:47.593
66.0, 339.5174560546875, -381.6941833496094, 307.0326843261719, 64.8423843383789, -0.1120000034570694, 0.1120000034570694, 1.040000081062317, 0.0, 0.0, 0.0, 0.0, 0.0, 1.6203026275938067E9, 2021-05-06 14:03:47.593
66.0, 354.1255187988281, -396.9193115234375, 298.617919921875, 69.50604248046875, -0.1120000034570694, 0.1120000034570694, 1.040000081062317, 0.0, 0.0, 0.0, 0.0, 0.0, 1.6203026275938067E9, 2021-05-06 14:03:47.593
67.0, 348.1753234863281, -398.8042297363281, 295.6147766113281, 68.75057983398438, -0.1120000034570694, 0.1120000034570694, 1.040000081062317, 0.0, 0.0, 0.0, 0.0, 0.0, 1.6203026276067023E9, 2021-05-06 14:03:47.606
67.0, 344.52520751953125, -383.23876953125, 305.48065185546875, 69.51351928710938, -0.1120000034570694, 0.1120000034570694, 1.040000081062317, 0.0, 0.0, 0.0, 0.0, 0.0, 1.6203026276067023E9, 2021-05-06 14:03:47.606
68.0, 344.6934814453125, -390.4866943359375, 309.1681823730469, 66.96290588378906, -0.1120000034570694, 0.1120000034570694, 1.040000081062317, 0.0, 0.0, 0.0, 0.0, 0.0, 1.6203026276224356E9, 2021-05-06 14:03:47.622
68.0, 347.0720520019531, -389.6639099121094, 300.0203857421875, 71.82852172851562, -0.1120000034570694, 0.1120000034570694, 1.040000081062317, 0.0, 0.0, 0.0, 0.0, 0.0, 1.6203026276224356E9, 2021-05-06 14:03:47.622
69.0, 358.04119873046875, -388.1754455566406, 304.3399658203125, 74.3342514038086, -0.1120000034570694, 0.1120000034570694, 1.040000081062317, 0.0, 0.0, 0.0, 0.0, 0.0, 1.6203026276230896E9, 2021-05-06 14:03:47.623
69.0, 350.4454650878906, -396.878173828125, 305.9668273925781, 63.656837463378906, -0.1120000034570694, 0.1120000034570694, 1.040000081062317, 0.0, 0.0, 0.0, 0.0, 0.0, 1.6203026276230896E9, 2021-05-06 14:03:47.623
70.0, 345.2918701171875, -408.15399169921875, 306.5465087890625, 63.87001037597656, -0.1120000034570694, 0.1120000034570694, 1.040000081062317, 0.0, 0.0, 0.0, 0.0, 0.0, 1.6203026276539392E9, 2021-05-06 14:03:47.653
70.0, 347.00848388671875, -396.0404357910156, 295.2071228027344, 67.99886322021484, -0.1120000034570694, 0.1120000034570694, 1.040000081062317, 0.0, 0.0, 0.0, 0.0, 0.0, 1.6203026276539392E9, 2021-05-06 14:03:47.653
71.0, 347.7078552246094, -394.7763671875, 294.8106994628906, 64.68157196044922, -0.1120000034570694, 0.1120000034570694, 1.040000081062317, 0.0, 0.0, 0.0, 0.0, 0.0, 1.6203026276545403E9, 2021-05-06 14:03:47.654
71.0, 346.8102722167969, -396.6724853515625, 299.7959899902344, 60.14133071899414, -0.1120000034570694, 0.1120000034570694, 1.040000081062317, 0.0, 0.0, 0.0, 0.0, 0.0, 1.6203026276545403E9, 2021-05-06 14:03:47.654
72.0, 352.0386657714844, -385.1797790527344, 304.1866455078125, 67.92032623291016, -0.1120000034570694, 0.1120000034570694, 1.040000081062317, 0.0, 0.0, 0.0, 0.0, 0.0, 1.6203026276552927E9, 2021-05-06 14:03:47.655
72.0, 347.633056640625, -397.3344421386719, 295.25201416015625, 70.41483306884766, -0.1120000034570694, 0.1120000034570694, 1.040000081062317, 0.0, 0.0, 0.0, 0.0, 0.0, 1.6203026276552927E9, 2021-05-06 14:03:47.655
73.0, 355.8683166503906, -396.47802734375, 293.864501953125, 67.84178161621094, -0.1120000034570694, 0.1120000034570694, 1.040000081062317, 0.0, 0.0, 0.0, 0.0, 0.0, 1.6203026276667564E9, 2021-05-06 14:03:47.666
73.0, 352.1695556640625, -403.2434997558594, 305.97430419921875, 62.34039306640625, -0.1120000034570694, 0.1120000034570694, 1.040000081062317, 0.0, 0.0, 0.0, 0.0, 0.0, 1.6203026276667564E9, 2021-05-06 14:03:47.666
74.0, 348.7737121582031, -391.0962829589844, 309.3851013183594, 65.78858184814453, -0.1120000034570694, 0.1120000034570694, 1.040000081062317, 0.0, 0.0, 0.0, 0.0, 0.0, 1.620302627682474E9, 2021-05-06 14:03:47.682
74.0, 349.73114013671875, -391.2945251464844, 297.3052062988281, 65.30987548828125, -0.1120000034570694, 0.1120000034570694, 1.040000081062317, 0.0, 0.0, 0.0, 0.0, 0.0, 1.620302627682474E9, 2021-05-06 14:03:47.682
75.0, 355.0791931152344, -393.97601318359375, 292.7088928222656, 72.61763763427734, -0.1120000034570694, 0.1120000034570694, 1.040000081062317, 0.0, 0.0, 0.0, 0.0, 0.0, 1.6203026276831677E9, 2021-05-06 14:03:47.683
75.0, 344.56634521484375, -391.39923095703125, 299.94183349609375, 66.9853515625, -0.1120000034570694, 0.1120000034570694, 1.040000081062317, 0.0, 0.0, 0.0, 0.0, 0.0, 1.6203026276831677E9, 2021-05-06 14:03:47.683
76.0, 344.9590148925781, -395.6627197265625, 300.3681945800781, 70.34751892089844, -0.1120000034570694, 0.1120000034570694, 1.040000081062317, 0.0, 0.0, 0.0, 0.0, 0.0, 1.6203026276966484E9, 2021-05-06 14:03:47.696
76.0, 344.81317138671875, -398.6957702636719, 295.97381591796875, 67.3481216430664, -0.1120000034570694, 0.1120000034570694, 1.040000081062317, 0.0, 0.0, 0.0, 0.0, 0.0, 1.6203026276966484E9, 2021-05-06 14:03:47.696
77.0, 341.26025390625, -405.3827209472656, 296.65447998046875, 68.67578125, -0.1120000034570694, 0.1120000034570694, 1.040000081062317, 0.0, 0.0, 0.0, 0.0, 0.0, 1.6203026277127895E9, 2021-05-06 14:03:47.712
77.0, 344.0165710449219, -400.48345947265625, 294.6798095703125, 64.25521850585938, -0.1120000034570694, 0.1120000034570694, 1.040000081062317, 0.0, 0.0, 0.0, 0.0, 0.0, 1.6203026277127895E9, 2021-05-06 14:03:47.712
78.0, 346.3240966796875, -409.2422790527344, 299.5042724609375, 61.599891662597656, -0.1120000034570694, 0.1120000034570694, 1.040000081062317, 0.0, 0.0, 0.0, 0.0, 0.0, 1.620302627727402E9, 2021-05-06 14:03:47.727
78.0, 348.1566467285156, -395.16156005859375, 294.64990234375, 70.1418228149414, -0.1120000034570694, 0.1120000034570694, 1.040000081062317, 0.0, 0.0, 0.0, 0.0, 0.0, 1.620302627727402E9, 2021-05-06 14:03:47.727
79.0, 350.7895202636719, -387.042236328125, 292.349853515625, 69.8201904296875, -0.1120000034570694, 0.1120000034570694, 1.040000081062317, 0.0, 0.0, 0.0, 0.0, 0.0, 1.6203026277280848E9, 2021-05-06 14:03:47.728
79.0, 346.1670227050781, -387.92486572265625, 301.3480529785156, 65.73248291015625, -0.1120000034570694, 0.1120000034570694, 1.040000081062317, 0.0, 0.0, 0.0, 0.0, 0.0, 1.6203026277280848E9, 2021-05-06 14:03:47.728
80.0, 342.187744140625, -389.3497619628906, 301.44903564453125, 60.67987823486328, -0.1120000034570694, 0.1120000034570694, 1.040000081062317, 0.0, 0.0, 0.0, 0.0, 0.0, 1.6203026277430284E9, 2021-05-06 14:03:47.743
80.0, 342.95819091796875, -384.0914611816406, 298.9208679199219, 74.779296875, -0.1120000034570694, 0.1120000034570694, 1.040000081062317, 0.0, 0.0, 0.0, 0.0, 0.0, 1.6203026277430284E9, 2021-05-06 14:03:47.743
81.0, 346.81402587890625, -389.24505615234375, 299.205078125, 76.01720428466797, -0.1120000034570694, 0.1120000034570694, 1.040000081062317, 0.0, 0.0, 0.0, 0.0, 0.0, 1.6203026277438748E9, 2021-05-06 14:03:47.743
81.0, 342.2064514160156, -391.466552734375, 302.4625244140625, 67.60617065429688, -0.1120000034570694, 0.1120000034570694, 1.040000081062317, 0.0, 0.0, 0.0, 0.0, 0.0, 1.6203026277438748E9, 2021-05-06 14:03:47.743
82.0, 341.0994567871094, -393.3813781738281, 312.7135925292969, 73.08512115478516, -0.1120000034570694, 0.1120000034570694, 1.040000081062317, 0.0, 0.0, 0.0, 0.0, 0.0, 1.620302627756738E9, 2021-05-06 14:03:47.756
82.0, 345.3965759277344, -397.29705810546875, 302.526123046875, 73.83684539794922, -0.1120000034570694, 0.1120000034570694, 1.040000081062317, 0.0, 0.0, 0.0, 0.0, 0.0, 1.620302627756738E9, 2021-05-06 14:03:47.756
83.0, 346.7354736328125, -393.8189392089844, 300.68609619140625, 74.7381591796875, -0.1120000034570694, 0.1120000034570694, 1.040000081062317, 0.0, 0.0, 0.0, 0.0, 0.0, 1.6203026277725556E9, 2021-05-06 14:03:47.772
83.0, 344.21478271484375, -398.56488037109375, 307.2496032714844, 67.48275756835938, -0.1120000034570694, 0.1120000034570694, 1.040000081062317, 0.0, 0.0, 0.0, 0.0, 0.0, 1.6203026277725556E9, 2021-05-06 14:03:47.772
84.0, 348.5007019042969, -403.486572265625, 301.72576904296875, 63.67927551269531, -0.1120000034570694, 0.1120000034570694, 1.040000081062317, 0.0, 0.0, 0.0, 0.0, 0.0, 1.62030262777315E9, 2021-05-06 14:03:47.773
84.0, 343.9380187988281, -393.2729187011719, 296.071044921875, 71.52184295654297, -0.1120000034570694, 0.1120000034570694, 1.040000081062317, 0.0, 0.0, 0.0, 0.0, 0.0, 1.62030262777315E9, 2021-05-06 14:03:47.773
85.0, 346.02490234375, -390.88311767578125, 295.7344665527344, 70.119384765625, -0.1120000034570694, 0.1120000034570694, 1.040000081062317, 0.0, 0.0, 0.0, 0.0, 0.0, 1.6203026277867389E9, 2021-05-06 14:03:47.786
85.0, 344.13250732421875, -396.3321533203125, 300.57763671875, 67.16486358642578, -0.1120000034570694, 0.1120000034570694, 1.040000081062317, 0.0, 0.0, 0.0, 0.0, 0.0, 1.6203026277867389E9, 2021-05-06 14:03:47.786
86.0, 341.54449462890625, -407.417236328125, 303.031005859375, 64.19164276123047, -0.1120000034570694, 0.1120000034570694, 1.040000081062317, 0.0, 0.0, 0.0, 0.0, 0.0, 1.620302627818845E9, 2021-05-06 14:03:47.818
86.0, 342.3298645019531, -401.8709411621094, 294.44793701171875, 65.31361389160156, -0.1120000034570694, 0.1120000034570694, 1.040000081062317, 0.0, 0.0, 0.0, 0.0, 0.0, 1.620302627818845E9, 2021-05-06 14:03:47.818
87.0, 347.4535217285156, -395.4345703125, 299.2275390625, 79.54393005371094, -0.1120000034570694, 0.1120000034570694, 1.040000081062317, 0.0, 0.0, 0.0, 0.0, 0.0, 1.6203026278195548E9, 2021-05-06 14:03:47.819
87.0, 348.54559326171875, -399.9822998046875, 301.4714660644531, 66.08403015136719, -0.1120000034570694, 0.1120000034570694, 1.040000081062317, 0.0, 0.0, 0.0, 0.0, 0.0, 1.6203026278195548E9, 2021-05-06 14:03:47.819
88.0, 341.1555480957031, -393.2579650878906, 295.225830078125, 60.80329513549805, -0.1120000034570694, 0.1120000034570694, 1.040000081062317, 0.0, 0.0, 0.0, 0.0, 0.0, 1.620302627820263E9, 2021-05-06 14:03:47.820
88.0, 349.76104736328125, -403.8605651855469, 298.27386474609375, 70.87858581542969, -0.1120000034570694, 0.1120000034570694, 1.040000081062317, 0.0, 0.0, 0.0, 0.0, 0.0, 1.620302627820263E9, 2021-05-06 14:03:47.820
89.0, 356.54150390625, -396.7622375488281, 299.5267028808594, 74.78678131103516, -0.1120000034570694, 0.1120000034570694, 1.040000081062317, 0.0, 0.0, 0.0, 0.0, 0.0, 1.6203026278210576E9, 2021-05-06 14:03:47.821
89.0, 343.5266418457031, -395.2737731933594, 299.82965087890625, 63.76903533935547, -0.1120000034570694, 0.1120000034570694, 1.040000081062317, 0.0, 0.0, 0.0, 0.0, 0.0, 1.6203026278210576E9, 2021-05-06 14:03:47.821
90.0, 340.8039855957031, -404.9077453613281, 301.9053039550781, 65.18645477294922, -0.1120000034570694, 0.1120000034570694, 1.040000081062317, 0.0, 0.0, 0.0, 0.0, 0.0, 1.6203026278316712E9, 2021-05-06 14:03:47.831
90.0, 349.5216979980469, -400.4871826171875, 293.3222351074219, 71.45826721191406, -0.1120000034570694, 0.1120000034570694, 1.040000081062317, 0.0, 0.0, 0.0, 0.0, 0.0, 1.6203026278316712E9, 2021-05-06 14:03:47.831
91.0, 344.3830871582031, -398.2993469238281, 296.916259765625, 71.3460693359375, -0.1120000034570694, 0.1120000034570694, 1.040000081062317, 0.0, 0.0, 0.0, 0.0, 0.0, 1.6203026278467472E9, 2021-05-06 14:03:47.846
91.0, 342.6253356933594, -392.981201171875, 303.72662353515625, 70.02588653564453, -0.1120000034570694, 0.1120000034570694, 1.040000081062317, 0.0, 0.0, 0.0, 0.0, 0.0, 1.6203026278467472E9, 2021-05-06 14:03:47.846
92.0, 340.0559997558594, -394.9184875488281, 309.06719970703125, 67.27332305908203, -0.1120000034570694, 0.1120000034570694, 1.040000081062317, 0.0, 0.0, 0.0, 0.0, 0.0, 1.6203026278624034E9, 2021-05-06 14:03:47.862
92.0, 348.5007019042969, -391.44036865234375, 299.69500732421875, 70.92720031738281, -0.1120000034570694, 0.1120000034570694, 1.040000081062317, 0.0, 0.0, 0.0, 0.0, 0.0, 1.6203026278624034E9, 2021-05-06 14:03:47.862
93.0, 342.2214050292969, -404.5711669921875, 292.0506591796875, 65.99427795410156, -0.1120000034570694, 0.1120000034570694, 1.040000081062317, 0.0, 0.0, 0.0, 0.0, 0.0, 1.620302627863077E9, 2021-05-06 14:03:47.863
93.0, 345.1385498046875, -399.8925476074219, 306.927978515625, 67.55755615234375, -0.1120000034570694, 0.1120000034570694, 1.040000081062317, 0.0, 0.0, 0.0, 0.0, 0.0, 1.620302627863077E9, 2021-05-06 14:03:47.863
94.0, 344.4129943847656, -396.7061462402344, 304.8448486328125, 63.967247009277344, -0.1120000034570694, 0.1120000034570694, 1.040000081062317, 0.0, 0.0, 0.0, 0.0, 0.0, 1.6203026278768024E9, 2021-05-06 14:03:47.876
94.0, 345.4638977050781, -398.2207946777344, 298.4907531738281, 68.6159439086914, -0.1120000034570694, 0.1120000034570694, 1.040000081062317, 0.0, 0.0, 0.0, 0.0, 0.0, 1.6203026278768024E9, 2021-05-06 14:03:47.876
95.0, 348.22021484375, -394.72027587890625, 296.3066711425781, 75.64321899414062, -0.1120000034570694, 0.1120000034570694, 1.040000081062317, 0.0, 0.0, 0.0, 0.0, 0.0, 1.6203026278921049E9, 2021-05-06 14:03:47.892
95.0, 351.694580078125, -394.58563232421875, 304.95330810546875, 66.55152130126953, -0.1120000034570694, 0.1120000034570694, 1.040000081062317, 0.0, 0.0, 0.0, 0.0, 0.0, 1.6203026278921049E9, 2021-05-06 14:03:47.892
96.0, 343.39947509765625, -392.50250244140625, 302.701904296875, 65.1827163696289, -0.1120000034570694, 0.1120000034570694, 1.040000081062317, 0.0, 0.0, 0.0, 0.0, 0.0, 1.6203026279221284E9, 2021-05-06 14:03:47.922
96.0, 349.29730224609375, -386.8477783203125, 296.9087829589844, 72.31470489501953, -0.1120000034570694, 0.1120000034570694, 1.040000081062317, 0.0, 0.0, 0.0, 0.0, 0.0, 1.6203026279221284E9, 2021-05-06 14:03:47.922
97.0, 348.7438049316406, -387.6855163574219, 299.6763000488281, 78.27984619140625, -0.1120000034570694, 0.1120000034570694, 1.040000081062317, 0.0, 0.0, 0.0, 0.0, 0.0, 1.6203026279395218E9, 2021-05-06 14:03:47.939
97.0, 351.63848876953125, -391.455322265625, 309.474853515625, 72.62511444091797, -0.1120000034570694, 0.1120000034570694, 1.040000081062317, 0.0, 0.0, 0.0, 0.0, 0.0, 1.6203026279395218E9, 2021-05-06 14:03:47.939
98.0, 344.5326843261719, -390.2622985839844, 306.44927978515625, 71.21891784667969, -0.1120000034570694, 0.1120000034570694, 1.040000081062317, 0.0, 0.0, 0.0, 0.0, 0.0, 1.620302627940182E9, 2021-05-06 14:03:47.940
98.0, 341.8062744140625, -395.6402893066406, 291.04461669921875, 70.459716796875, -0.1120000034570694, 0.1120000034570694, 1.040000081062317, 0.0, 0.0, 0.0, 0.0, 0.0, 1.620302627940182E9, 2021-05-06 14:03:47.940
99.0, 347.94720458984375, -397.3344421386719, 291.340087890625, 71.77616119384766, -0.1120000034570694, 0.1120000034570694, 1.040000081062317, 0.0, 0.0, 0.0, 0.0, 0.0, 1.620302627940931E9, 2021-05-06 14:03:47.940
99.0, 348.560546875, -400.3675231933594, 302.9562072753906, 70.10442352294922, -0.1120000034570694, 0.1120000034570694, 1.040000081062317, 0.0, 0.0, 0.0, 0.0, 0.0, 1.620302627940931E9, 2021-05-06 14:03:47.940
100.0, 346.4549865722656, -383.3023376464844, 309.5458984375, 75.04856872558594, -0.1120000034570694, 0.1120000034570694, 1.040000081062317, 0.0, 0.0, 0.0, 0.0, 0.0, 1.620302627941626E9, 2021-05-06 14:03:47.941
100.0, 334.5994873046875, -398.2170715332031, 297.3912353515625, 67.8941421508789, -0.1120000034570694, 0.1120000034570694, 1.040000081062317, 0.0, 0.0, 0.0, 0.0, 0.0, 1.620302627941626E9, 2021-05-06 14:03:47.941
0.0, 340.83203125, -386.032470703125, 291.7701721191406, 67.7239761352539, -0.1120000034570694, 0.1120000034570694, 1.040000081062317, 0.0, 0.0, 0.0, 0.0, 0.0, 1.6203026279525044E9, 2021-05-06 14:03:47.952
1.0, 344.39990234375, -383.1639709472656, 307.4627990722656, 66.94982147216797, -0.1120000034570694, 0.1120000034570694, 1.040000081062317, 0.0, 0.0, 0.0, 0.0, 0.0, 1.6203026279531121E9, 2021-05-06 14:03:47.953
1.0, 341.11627197265625, -380.95367431640625, 308.5959777832031, 66.9572982788086, -0.1120000034570694, 0.1120000034570694, 1.040000081062317, 0.0, 0.0, 0.0, 0.0, 0.0, 1.6203026279531121E9, 2021-05-06 14:03:47.953
2.0, 341.34814453125, -378.47039794921875, 293.370849609375, 66.04850006103516, -0.1120000034570694, 0.1120000034570694, 1.040000081062317, 0.0, 0.0, 0.0, 0.0, 0.0, 1.6203026279673655E9, 2021-05-06 14:03:47.967
2.0, 345.1104736328125, -382.8647766113281, 301.5948791503906, 70.16239166259766, -0.1120000034570694, 0.1120000034570694, 1.040000081062317, 0.0, 0.0, 0.0, 0.0, 0.0, 1.6203026279673655E9, 2021-05-06 14:03:47.967
3.0, 348.96258544921875, -378.75836181640625, 313.8131408691406, 73.89855194091797, -0.1120000034570694, 0.1120000034570694, 1.040000081062317, 0.0, 0.0, 0.0, 0.0, 0.0, 1.620302627968095E9, 2021-05-06 14:03:47.968
3.0, 344.2315979003906, -379.4614562988281, 311.681396484375, 63.72602462768555, -0.1120000034570694, 0.1120000034570694, 1.040000081062317, 0.0, 0.0, 0.0, 0.0, 0.0, 1.620302627968095E9, 2021-05-06 14:03:47.968
4.0, 344.5457763671875, -390.5166015625, 302.4849853515625, 68.59911346435547, -0.1120000034570694, 0.1120000034570694, 1.040000081062317, 0.0, 0.0, 0.0, 0.0, 0.0, 1.6203026279818923E9, 2021-05-06 14:03:47.981
4.0, 344.20916748046875, -384.0914611816406, 301.5238342285156, 68.7449722290039, -0.1120000034570694, 0.1120000034570694, 1.040000081062317, 0.0, 0.0, 0.0, 0.0, 0.0, 1.6203026279818923E9, 2021-05-06 14:03:47.981
5.0, 345.7724609375, -385.1947326660156, 310.63421630859375, 70.27458953857422, -0.1120000034570694, 0.1120000034570694, 1.040000081062317, 0.0, 0.0, 0.0, 0.0, 0.0, 1.6203026279973636E9, 2021-05-06 14:03:47.997
5.0, 342.5000305175781, -374.90252685546875, 313.1661376953125, 71.10858917236328, -0.1120000034570694, 0.1120000034570694, 1.040000081062317, 0.0, 0.0, 0.0, 0.0, 0.0, 1.6203026279973636E9, 2021-05-06 14:03:47.997
6.0, 345.174072265625, -382.9358215332031, 302.99359130859375, 71.74436950683594, -0.1120000034570694, 0.1120000034570694, 1.040000081062317, 0.0, 0.0, 0.0, 0.0, 0.0, 1.6203026279981008E9, 2021-05-06 14:03:47.998
6.0, 349.93121337890625, -386.91510009765625, 304.9570617675781, 79.68791961669922, -0.1120000034570694, 0.1120000034570694, 1.040000081062317, 0.0, 0.0, 0.0, 0.0, 0.0, 1.6203026279981008E9, 2021-05-06 14:03:47.998
7.0, 344.07080078125, -386.8589782714844, 314.8229064941406, 68.22138214111328, -0.1120000034570694, 0.1120000034570694, 1.040000081062317, 0.0, 0.0, 0.0, 0.0, 0.0, 1.6203026280117536E9, 2021-05-06 14:03:48.011
7.0, 341.946533203125, -384.4692077636719, 307.2384033203125, 70.96646881103516, -0.1120000034570694, 0.1120000034570694, 1.040000081062317, 0.0, 0.0, 0.0, 0.0, 0.0, 1.6203026280117536E9, 2021-05-06 14:03:48.011
8.0, 345.09552001953125, -376.2040100097656, 302.88140869140625, 76.96900939941406, -0.1120000034570694, 0.1120000034570694, 1.040000081062317, 0.0, 0.0, 0.0, 0.0, 0.0, 1.62030262804382E9, 2021-05-06 14:03:48.043
8.0, 350.2341613769531, -385.9501953125, 304.6578674316406, 78.01244354248047, -0.1120000034570694, 0.1120000034570694, 1.040000081062317, 0.0, 0.0, 0.0, 0.0, 0.0, 1.62030262804382E9, 2021-05-06 14:03:48.043
9.0, 345.2974853515625, -389.7461853027344, 311.24383544921875, 73.26651000976562, -0.1120000034570694, 0.1120000034570694, 1.040000081062317, 0.0, 0.0, 0.0, 0.0, 0.0, 1.6203026280445204E9, 2021-05-06 14:03:48.044
9.0, 341.63238525390625, -389.7424621582031, 306.5465087890625, 68.165283203125, -0.1120000034570694, 0.1120000034570694, 1.040000081062317, 0.0, 0.0, 0.0, 0.0, 0.0, 1.6203026280445204E9, 2021-05-06 14:03:48.044
10.0, 343.9137268066406, -384.72723388671875, 302.0062561035156, 72.30909729003906, -0.1120000034570694, 0.1120000034570694, 1.040000081062317, 0.0, 0.0, 0.0, 0.0, 0.0, 1.620302628045251E9, 2021-05-06 14:03:48.045
10.0, 345.1142272949219, -394.2640075683594, 295.8578796386719, 74.24262237548828, -0.1120000034570694, 0.1120000034570694, 1.040000081062317, 0.0, 0.0, 0.0, 0.0, 0.0, 1.620302628045251E9, 2021-05-06 14:03:48.045
11.0, 340.65252685546875, -377.0866394042969, 305.45819091796875, 74.01822662353516, -0.1120000034570694, 0.1120000034570694, 1.040000081062317, 0.0, 0.0, 0.0, 0.0, 0.0, 1.6203026280459907E9, 2021-05-06 14:03:48.045
11.0, 343.77532958984375, -382.6889953613281, 308.0611572265625, 74.83726501464844, -0.1120000034570694, 0.1120000034570694, 1.040000081062317, 0.0, 0.0, 0.0, 0.0, 0.0, 1.6203026280459907E9, 2021-05-06 14:03:48.045
12.0, 348.0986633300781, -374.1844787597656, 299.9268798828125, 75.46556854248047, -0.1120000034570694, 0.1120000034570694, 1.040000081062317, 0.0, 0.0, 0.0, 0.0, 0.0, 1.6203026280567691E9, 2021-05-06 14:03:48.056
12.0, 345.3348693847656, -393.3551940917969, 295.7606506347656, 71.21704864501953, -0.1120000034570694, 0.1120000034570694, 1.040000081062317, 0.0, 0.0, 0.0, 0.0, 0.0, 1.6203026280567691E9, 2021-05-06 14:03:48.056
13.0, 342.0736999511719, -388.579345703125, 307.6983947753906, 64.9265365600586, -0.1120000034570694, 0.1120000034570694, 1.040000081062317, 0.0, 0.0, 0.0, 0.0, 0.0, 1.6203026280717187E9, 2021-05-06 14:03:48.071
13.0, 343.99224853515625, -389.95562744140625, 304.6578674316406, 64.69840240478516, -0.1120000034570694, 0.1120000034570694, 1.040000081062317, 0.0, 0.0, 0.0, 0.0, 0.0, 1.6203026280717187E9, 2021-05-06 14:03:48.071
14.0, 352.6912536621094, -377.1950988769531, 306.6100769042969, 74.65027618408203, -0.1120000034570694, 0.1120000034570694, 1.040000081062317, 0.0, 0.0, 0.0, 0.0, 0.0, 1.6203026280874107E9, 2021-05-06 14:03:48.087
14.0, 350.8063659667969, -391.81060791015625, 300.38690185546875, 71.7518539428711, -0.1120000034570694, 0.1120000034570694, 1.040000081062317, 0.0, 0.0, 0.0, 0.0, 0.0, 1.6203026280874107E9, 2021-05-06 14:03:48.087
15.0, 341.4940185546875, -382.9320983886719, 300.0690002441406, 64.36554718017578, -0.1120000034570694, 0.1120000034570694, 1.040000081062317, 0.0, 0.0, 0.0, 0.0, 0.0, 1.62030262808815E9, 2021-05-06 14:03:48.088
15.0, 347.5414123535156, -379.0089416503906, 308.6782531738281, 72.2978744506836, -0.1120000034570694, 0.1120000034570694, 1.040000081062317, 0.0, 0.0, 0.0, 0.0, 0.0, 1.62030262808815E9, 2021-05-06 14:03:48.088
16.0, 352.287353515625, -385.26953125, 303.38629150390625, 74.53807830810547, -0.1120000034570694, 0.1120000034570694, 1.040000081062317, 0.0, 0.0, 0.0, 0.0, 0.0, 1.620302628101699E9, 2021-05-06 14:03:48.101
16.0, 346.9991455078125, -393.84136962890625, 296.7442321777344, 70.51768493652344, -0.1120000034570694, 0.1120000034570694, 1.040000081062317, 0.0, 0.0, 0.0, 0.0, 0.0, 1.620302628101699E9, 2021-05-06 14:03:48.101
17.0, 343.7229919433594, -391.17108154296875, 307.7919006347656, 74.47449493408203, -0.1120000034570694, 0.1120000034570694, 1.040000081062317, 0.0, 0.0, 0.0, 0.0, 0.0, 1.6203026281330476E9, 2021-05-06 14:03:48.133
17.0, 341.2135009765625, -389.1739807128906, 307.7021484375, 71.56859588623047, -0.1120000034570694, 0.1120000034570694, 1.040000081062317, 0.0, 0.0, 0.0, 0.0, 0.0, 1.6203026281330476E9, 2021-05-06 14:03:48.133
18.0, 348.9289245605469, -377.3072814941406, 310.0021667480469, 82.18617248535156, -0.1120000034570694, 0.1120000034570694, 1.040000081062317, 0.0, 0.0, 0.0, 0.0, 0.0, 1.6203026281485531E9, 2021-05-06 14:03:48.148
18.0, 345.4844665527344, -390.7634582519531, 298.5580749511719, 75.19255828857422, -0.1120000034570694, 0.1120000034570694, 1.040000081062317, 0.0, 0.0, 0.0, 0.0, 0.0, 1.6203026281485531E9, 2021-05-06 14:03:48.148
19.0, 339.7437438964844, -391.72833251953125, 309.0634765625, 67.09193420410156, -0.1120000034570694, 0.1120000034570694, 1.040000081062317, 0.0, 0.0, 0.0, 0.0, 0.0, 1.620302628149324E9, 2021-05-06 14:03:48.149
19.0, 346.6775207519531, -378.4479675292969, 311.341064453125, 72.2791748046875, -0.1120000034570694, 0.1120000034570694, 1.040000081062317, 0.0, 0.0, 0.0, 0.0, 0.0, 1.620302628149324E9, 2021-05-06 14:03:48.149
20.0, 350.3575744628906, -389.74993896484375, 298.8011779785156, 71.75933074951172, -0.1120000034570694, 0.1120000034570694, 1.040000081062317, 0.0, 0.0, 0.0, 0.0, 0.0, 1.6203026281500747E9, 2021-05-06 14:03:48.150
20.0, 355.9449768066406, -387.50225830078125, 298.5655517578125, 75.12149810791016, -0.1120000034570694, 0.1120000034570694, 1.040000081062317, 0.0, 0.0, 0.0, 0.0, 0.0, 1.6203026281500747E9, 2021-05-06 14:03:48.150
21.0, 348.7008056640625, -380.80035400390625, 306.1463317871094, 67.28266906738281, -0.1120000034570694, 0.1120000034570694, 1.040000081062317, 0.0, 0.0, 0.0, 0.0, 0.0, 1.6203026281624055E9, 2021-05-06 14:03:48.162
21.0, 349.7928466796875, -387.6929931640625, 306.99530029296875, 70.55882263183594, -0.1120000034570694, 0.1120000034570694, 1.040000081062317, 0.0, 0.0, 0.0, 0.0, 0.0, 1.6203026281624055E9, 2021-05-06 14:03:48.162
22.0, 343.9997253417969, -396.27606201171875, 294.3880920410156, 65.25938415527344, -0.1120000034570694, 0.1120000034570694, 1.040000081062317, 0.0, 0.0, 0.0, 0.0, 0.0, 1.6203026281631083E9, 2021-05-06 14:03:48.163
22.0, 349.8975524902344, -385.98760986328125, 296.1982116699219, 69.38075256347656, -0.1120000034570694, 0.1120000034570694, 1.040000081062317, 0.0, 0.0, 0.0, 0.0, 0.0, 1.6203026281631083E9, 2021-05-06 14:03:48.163
23.0, 346.008056640625, -387.0048522949219, 303.5022277832031, 64.05887603759766, -0.1120000034570694, 0.1120000034570694, 1.040000081062317, 0.0, 0.0, 0.0, 0.0, 0.0, 1.620302628177524E9, 2021-05-06 14:03:48.177
23.0, 346.5428771972656, -386.52239990234375, 304.4933166503906, 69.50042724609375, -0.1120000034570694, 0.1120000034570694, 1.040000081062317, 0.0, 0.0, 0.0, 0.0, 0.0, 1.620302628177524E9, 2021-05-06 14:03:48.177
24.0, 341.112548828125, -391.466552734375, 296.57220458984375, 61.231510162353516, -0.1120000034570694, 0.1120000034570694, 1.040000081062317, 0.0, 0.0, 0.0, 0.0, 0.0, 1.6203026281782231E9, 2021-05-06 14:03:48.178
24.0, 350.66796875, -382.1392517089844, 295.2445373535156, 70.99639129638672, -0.1120000034570694, 0.1120000034570694, 1.040000081062317, 0.0, 0.0, 0.0, 0.0, 0.0, 1.6203026281782231E9, 2021-05-06 14:03:48.178
25.0, 349.246826171875, -376.9220886230469, 304.1679382324219, 66.94982147216797, -0.1120000034570694, 0.1120000034570694, 1.040000081062317, 0.0, 0.0, 0.0, 0.0, 0.0, 1.6203026281916964E9, 2021-05-06 14:03:48.191
25.0, 337.7840270996094, -394.11065673828125, 308.22198486328125, 70.24092864990234, -0.1120000034570694, 0.1120000034570694, 1.040000081062317, 0.0, 0.0, 0.0, 0.0, 0.0, 1.6203026281916964E9, 2021-05-06 14:03:48.191
26.0, 343.27044677734375, -384.5813903808594, 300.8282165527344, 69.55278778076172, -0.1120000034570694, 0.1120000034570694, 1.040000081062317, 0.0, 0.0, 0.0, 0.0, 0.0, 1.620302628207456E9, 2021-05-06 14:03:48.207
26.0, 344.4298400878906, -387.569580078125, 293.5690612792969, 74.53807830810547, -0.1120000034570694, 0.1120000034570694, 1.040000081062317, 0.0, 0.0, 0.0, 0.0, 0.0, 1.620302628207456E9, 2021-05-06 14:03:48.207
27.0, 354.1199035644531, -389.2375793457031, 312.21246337890625, 82.27967071533203, -0.1120000034570694, 0.1120000034570694, 1.040000081062317, 0.0, 0.0, 0.0, 0.0, 0.0, 1.6203026282081163E9, 2021-05-06 14:03:48.208
27.0, 347.30206298828125, -394.57440185546875, 302.97491455078125, 69.49668884277344, -0.1120000034570694, 0.1120000034570694, 1.040000081062317, 0.0, 0.0, 0.0, 0.0, 0.0, 1.6203026282081163E9, 2021-05-06 14:03:48.208
28.0, 349.575927734375, -383.7922668457031, 298.5244140625, 75.49175262451172, -0.1120000034570694, 0.1120000034570694, 1.040000081062317, 0.0, 0.0, 0.0, 0.0, 0.0, 1.6203026282217653E9, 2021-05-06 14:03:48.221
28.0, 348.46893310546875, -387.10955810546875, 293.79345703125, 75.7311019897461, -0.1120000034570694, 0.1120000034570694, 1.040000081062317, 0.0, 0.0, 0.0, 0.0, 0.0, 1.6203026282217653E9, 2021-05-06 14:03:48.221
29.0, 343.5771179199219, -388.9495849609375, 305.1253356933594, 69.27603912353516, -0.1120000034570694, 0.1120000034570694, 1.040000081062317, 0.0, 0.0, 0.0, 0.0, 0.0, 1.6203026282381468E9, 2021-05-06 14:03:48.238
29.0, 346.4344177246094, -382.83111572265625, 306.7148132324219, 65.67825317382812, -0.1120000034570694, 0.1120000034570694, 1.040000081062317, 0.0, 0.0, 0.0, 0.0, 0.0, 1.6203026282381468E9, 2021-05-06 14:03:48.238
30.0, 350.57073974609375, -382.7525939941406, 300.2036437988281, 71.98746490478516, -0.1120000034570694, 0.1120000034570694, 1.040000081062317, 0.0, 0.0, 0.0, 0.0, 0.0, 1.6203026282388244E9, 2021-05-06 14:03:48.238
30.0, 346.56158447265625, -368.38763427734375, 299.4818420410156, 74.0032730102539, -0.1120000034570694, 0.1120000034570694, 1.040000081062317, 0.0, 0.0, 0.0, 0.0, 0.0, 1.6203026282388244E9, 2021-05-06 14:03:48.238
31.0, 340.5328369140625, -359.6063537597656, 305.4320068359375, 70.40922546386719, -0.1120000034570694, 0.1120000034570694, 1.040000081062317, 0.0, 0.0, 0.0, 0.0, 0.0, 1.6203026282680693E9, 2021-05-06 14:03:48.268
31.0, 339.1004638671875, -374.50982666015625, 303.9772033691406, 67.19290924072266, -0.1120000034570694, 0.1120000034570694, 1.040000081062317, 0.0, 0.0, 0.0, 0.0, 0.0, 1.6203026282680693E9, 2021-05-06 14:03:48.268
32.0, 340.5478210449219, -366.9926452636719, 298.2402038574219, 70.63362121582031, -0.1120000034570694, 0.1120000034570694, 1.040000081062317, 0.0, 0.0, 0.0, 0.0, 0.0, 1.620302628268802E9, 2021-05-06 14:03:48.268
32.0, 344.8636474609375, -378.7807922363281, 297.6418151855469, 71.42273712158203, -0.1120000034570694, 0.1120000034570694, 1.040000081062317, 0.0, 0.0, 0.0, 0.0, 0.0, 1.620302628268802E9, 2021-05-06 14:03:48.268
33.0, 342.63092041015625, -373.4626770019531, 305.2076110839844, 65.72687530517578, -0.1120000034570694, 0.1120000034570694, 1.040000081062317, 0.0, 0.0, 0.0, 0.0, 0.0, 1.62030262826949E9, 2021-05-06 14:03:48.269
33.0, 335.3979797363281, -374.3639831542969, 298.5543518066406, 57.469173431396484, -0.1120000034570694, 0.1120000034570694, 1.040000081062317, 0.0, 0.0, 0.0, 0.0, 0.0, 1.62030262826949E9, 2021-05-06 14:03:48.269
34.0, 343.36395263671875, -374.1208801269531, 299.0704345703125, 65.66703033447266, -0.1120000034570694, 0.1120000034570694, 1.040000081062317, 0.0, 0.0, 0.0, 0.0, 0.0, 1.6203026282818308E9, 2021-05-06 14:03:48.281
34.0, 340.7198486328125, -382.8572998046875, 294.4217529296875, 61.2053337097168, -0.1120000034570694, 0.1120000034570694, 1.040000081062317, 0.0, 0.0, 0.0, 0.0, 0.0, 1.6203026282818308E9, 2021-05-06 14:03:48.281
35.0, 348.99249267578125, -374.072265625, 310.2190856933594, 70.91036987304688, -0.1120000034570694, 0.1120000034570694, 1.040000081062317, 0.0, 0.0, 0.0, 0.0, 0.0, 1.6203026282973852E9, 2021-05-06 14:03:48.297
35.0, 341.9427795410156, -368.60455322265625, 308.5660705566406, 72.14080047607422, -0.1120000034570694, 0.1120000034570694, 1.040000081062317, 0.0, 0.0, 0.0, 0.0, 0.0, 1.6203026282973852E9, 2021-05-06 14:03:48.297
36.0, 340.96295166015625, -376.1890563964844, 292.60791015625, 72.18567657470703, -0.1120000034570694, 0.1120000034570694, 1.040000081062317, 0.0, 0.0, 0.0, 0.0, 0.0, 1.620302628298066E9, 2021-05-06 14:03:48.298
36.0, 343.5135498046875, -373.03631591796875, 296.3739929199219, 75.15142059326172, -0.1120000034570694, 0.1120000034570694, 1.040000081062317, 0.0, 0.0, 0.0, 0.0, 0.0, 1.620302628298066E9, 2021-05-06 14:03:48.298
37.0, 341.2434387207031, -383.1938781738281, 302.1371765136719, 77.12608337402344, -0.1120000034570694, 0.1120000034570694, 1.040000081062317, 0.0, 0.0, 0.0, 0.0, 0.0, 1.6203026283118265E9, 2021-05-06 14:03:48.311
37.0, 339.0817565917969, -365.2685546875, 306.53155517578125, 74.54181671142578, -0.1120000034570694, 0.1120000034570694, 1.040000081062317, 0.0, 0.0, 0.0, 0.0, 0.0, 1.6203026283118265E9, 2021-05-06 14:03:48.311
38.0, 344.6168212890625, -370.8335266113281, 303.2554016113281, 81.83087921142578, -0.1120000034570694, 0.1120000034570694, 1.040000081062317, 0.0, 0.0, 0.0, 0.0, 0.0, 1.6203026283275082E9, 2021-05-06 14:03:48.327
38.0, 344.7215270996094, -383.9792785644531, 293.5690612792969, 77.32804107666016, -0.1120000034570694, 0.1120000034570694, 1.040000081062317, 0.0, 0.0, 0.0, 0.0, 0.0, 1.6203026283275082E9, 2021-05-06 14:03:48.327
39.0, 341.3930358886719, -383.9830017089844, 303.03472900390625, 74.61287689208984, -0.1120000034570694, 0.1120000034570694, 1.040000081062317, 0.0, 0.0, 0.0, 0.0, 0.0, 1.6203026283281567E9, 2021-05-06 14:03:48.328
39.0, 334.1899719238281, -398.5013122558594, 298.4010009765625, 63.84196090698242, -0.1120000034570694, 0.1120000034570694, 1.040000081062317, 0.0, 0.0, 0.0, 0.0, 0.0, 1.6203026283281567E9, 2021-05-06 14:03:48.328
40.0, 346.853271484375, -381.783935546875, 296.5385437011719, 71.1534652709961, -0.1120000034570694, 0.1120000034570694, 1.040000081062317, 0.0, 0.0, 0.0, 0.0, 0.0, 1.6203026283418322E9, 2021-05-06 14:03:48.341
40.0, 346.6101989746094, -385.9726257324219, 293.56158447265625, 73.21041107177734, -0.1120000034570694, 0.1120000034570694, 1.040000081062317, 0.0, 0.0, 0.0, 0.0, 0.0, 1.6203026283418322E9, 2021-05-06 14:03:48.341
41.0, 344.6617126464844, -384.6748962402344, 300.57763671875, 64.31318664550781, -0.1120000034570694, 0.1120000034570694, 1.040000081062317, 0.0, 0.0, 0.0, 0.0, 0.0, 1.620302628357406E9, 2021-05-06 14:03:48.357
41.0, 344.4896545410156, -387.7827453613281, 300.63372802734375, 64.06635284423828, -0.1120000034570694, 0.1120000034570694, 1.040000081062317, 0.0, 0.0, 0.0, 0.0, 0.0, 1.620302628357406E9, 2021-05-06 14:03:48.357
42.0, 345.17779541015625, -381.09954833984375, 290.7828369140625, 58.505123138427734, -0.1120000034570694, 0.1120000034570694, 1.040000081062317, 0.0, 0.0, 0.0, 0.0, 0.0, 1.6203026283581495E9, 2021-05-06 14:03:48.358
42.0, 354.2956848144531, -386.47003173828125, 295.3118591308594, 67.71649932861328, -0.1120000034570694, 0.1120000034570694, 1.040000081062317, 0.0, 0.0, 0.0, 0.0, 0.0, 1.6203026283581495E9, 2021-05-06 14:03:48.358
43.0, 345.9781494140625, -386.19329833984375, 301.318115234375, 65.24442291259766, -0.1120000034570694, 0.1120000034570694, 1.040000081062317, 0.0, 0.0, 0.0, 0.0, 0.0, 1.6203026283718195E9, 2021-05-06 14:03:48.371
43.0, 351.947021484375, -379.4427795410156, 300.6374816894531, 61.048255920410156, -0.1120000034570694, 0.1120000034570694, 1.040000081062317, 0.0, 0.0, 0.0, 0.0, 0.0, 1.6203026283718195E9, 2021-05-06 14:03:48.371
44.0, 355.78790283203125, -382.5169677734375, 292.690185546875, 61.82241439819336, -0.1120000034570694, 0.1120000034570694, 1.040000081062317, 0.0, 0.0, 0.0, 0.0, 0.0, 1.6203026283872032E9, 2021-05-06 14:03:48.387
44.0, 349.93121337890625, -389.50311279296875, 293.359619140625, 57.3906364440918, -0.1120000034570694, 0.1120000034570694, 1.040000081062317, 0.0, 0.0, 0.0, 0.0, 0.0, 1.6203026283872032E9, 2021-05-06 14:03:48.387
45.0, 352.298583984375, -391.6909484863281, 304.1043701171875, 63.636268615722656, -0.1120000034570694, 0.1120000034570694, 1.040000081062317, 0.0, 0.0, 0.0, 0.0, 0.0, 1.6203026284023757E9, 2021-05-06 14:03:48.402
45.0, 349.89007568359375, -394.1966857910156, 299.1751708984375, 61.45590591430664, -0.1120000034570694, 0.1120000034570694, 1.040000081062317, 0.0, 0.0, 0.0, 0.0, 0.0, 1.6203026284023757E9, 2021-05-06 14:03:48.402
46.0, 351.2326965332031, -385.3966979980469, 297.91107177734375, 71.3329849243164, -0.1120000034570694, 0.1120000034570694, 1.040000081062317, 0.0, 0.0, 0.0, 0.0, 0.0, 1.6203026284030824E9, 2021-05-06 14:03:48.403
46.0, 354.56121826171875, -372.6623229980469, 297.7315673828125, 78.47618865966797, -0.1120000034570694, 0.1120000034570694, 1.040000081062317, 0.0, 0.0, 0.0, 0.0, 0.0, 1.6203026284030824E9, 2021-05-06 14:03:48.403
47.0, 344.5569763183594, -374.6220397949219, 301.69586181640625, 74.4670181274414, -0.1120000034570694, 0.1120000034570694, 1.040000081062317, 0.0, 0.0, 0.0, 0.0, 0.0, 1.6203026284174387E9, 2021-05-06 14:03:48.417
47.0, 345.1553649902344, -391.7994079589844, 302.04742431640625, 73.3637466430664, -0.1120000034570694, 0.1120000034570694, 1.040000081062317, 0.0, 0.0, 0.0, 0.0, 0.0, 1.6203026284174387E9, 2021-05-06 14:03:48.417
48.0, 343.203125, -389.39837646484375, 297.4286193847656, 72.6195068359375, -0.1120000034570694, 0.1120000034570694, 1.040000081062317, 0.0, 0.0, 0.0, 0.0, 0.0, 1.6203026284182441E9, 2021-05-06 14:03:48.418
48.0, 345.9594421386719, -377.3409423828125, 290.33404541015625, 73.08699798583984, -0.1120000034570694, 0.1120000034570694, 1.040000081062317, 0.0, 0.0, 0.0, 0.0, 0.0, 1.6203026284182441E9, 2021-05-06 14:03:48.418
49.0, 338.82373046875, -378.8331604003906, 301.1311340332031, 71.4115219116211, -0.1120000034570694, 0.1120000034570694, 1.040000081062317, 0.0, 0.0, 0.0, 0.0, 0.0, 1.620302628431694E9, 2021-05-06 14:03:48.431
49.0, 352.32476806640625, -383.3808898925781, 309.2579345703125, 71.38159942626953, -0.1120000034570694, 0.1120000034570694, 1.040000081062317, 0.0, 0.0, 0.0, 0.0, 0.0, 1.620302628431694E9, 2021-05-06 14:03:48.431
50.0, 352.8446044921875, -376.05816650390625, 300.6112976074219, 73.28520965576172, -0.1120000034570694, 0.1120000034570694, 1.040000081062317, 0.0, 0.0, 0.0, 0.0, 0.0, 1.62030262844753E9, 2021-05-06 14:03:48.447
50.0, 351.8236083984375, -386.2269592285156, 297.8848876953125, 76.46038818359375, -0.1120000034570694, 0.1120000034570694, 1.040000081062317, 0.0, 0.0, 0.0, 0.0, 0.0, 1.62030262844753E9, 2021-05-06 14:03:48.447
51.0, 341.53887939453125, -389.4844055175781, 303.8163757324219, 74.8447494506836, -0.1120000034570694, 0.1120000034570694, 1.040000081062317, 0.0, 0.0, 0.0, 0.0, 0.0, 1.6203026284482048E9, 2021-05-06 14:03:48.448
51.0, 336.9126281738281, -396.6837158203125, 303.6181640625, 65.14718627929688, -0.1120000034570694, 0.1120000034570694, 1.040000081062317, 0.0, 0.0, 0.0, 0.0, 0.0, 1.6203026284482048E9, 2021-05-06 14:03:48.448
52.0, 344.9646301269531, -390.25482177734375, 293.8009338378906, 71.82664489746094, -0.1120000034570694, 0.1120000034570694, 1.040000081062317, 0.0, 0.0, 0.0, 0.0, 0.0, 1.6203026284617927E9, 2021-05-06 14:03:48.461
52.0, 351.0569152832031, -390.74847412109375, 292.162841796875, 73.15431213378906, -0.1120000034570694, 0.1120000034570694, 1.040000081062317, 0.0, 0.0, 0.0, 0.0, 0.0, 1.6203026284617927E9, 2021-05-06 14:03:48.461
53.0, 347.1636962890625, -386.85150146484375, 295.4427490234375, 64.9676742553711, -0.1120000034570694, 0.1120000034570694, 1.040000081062317, 0.0, 0.0, 0.0, 0.0, 0.0, 1.6203026285085328E9, 2021-05-06 14:03:48.508
53.0, 341.3518981933594, -380.25433349609375, 299.1415100097656, 59.81782913208008, -0.1120000034570694, 0.1120000034570694, 1.040000081062317, 0.0, 0.0, 0.0, 0.0, 0.0, 1.6203026285085328E9, 2021-05-06 14:03:48.508
54.0, 361.12847900390625, -380.3291320800781, 305.6264953613281, 74.93450164794922, -0.1120000034570694, 0.1120000034570694, 1.040000081062317, 0.0, 0.0, 0.0, 0.0, 0.0, 1.6203026285092945E9, 2021-05-06 14:03:48.509
54.0, 346.4493713378906, -394.3238220214844, 288.101318359375, 62.70503234863281, -0.1120000034570694, 0.1120000034570694, 1.040000081062317, 0.0, 0.0, 0.0, 0.0, 0.0, 1.6203026285092945E9, 2021-05-06 14:03:48.509
55.0, 348.5325012207031, -381.5894775390625, 305.7461853027344, 63.669925689697266, -0.1120000034570694, 0.1120000034570694, 1.040000081062317, 0.0, 0.0, 0.0, 0.0, 0.0, 1.620302628509978E9, 2021-05-06 14:03:48.509
55.0, 349.20941162109375, -388.2203063964844, 299.19012451171875, 56.78103256225586, -0.1120000034570694, 0.1120000034570694, 1.040000081062317, 0.0, 0.0, 0.0, 0.0, 0.0, 1.620302628509978E9, 2021-05-06 14:03:48.509
56.0, 349.68438720703125, -386.6794738769531, 289.72442626953125, 65.53987884521484, -0.1120000034570694, 0.1120000034570694, 1.040000081062317, 0.0, 0.0, 0.0, 0.0, 0.0, 1.6203026285238783E9, 2021-05-06 14:03:48.523
56.0, 346.8196105957031, -390.4380798339844, 284.99346923828125, 57.16250228881836, -0.1120000034570694, 0.1120000034570694, 1.040000081062317, 0.0, 0.0, 0.0, 0.0, 0.0, 1.6203026285238783E9, 2021-05-06 14:03:48.523
57.0, 356.4648132324219, -386.8253173828125, 303.6405944824219, 64.608642578125, -0.1120000034570694, 0.1120000034570694, 1.040000081062317, 0.0, 0.0, 0.0, 0.0, 0.0, 1.620302628524583E9, 2021-05-06 14:03:48.524
57.0, 346.9804382324219, -378.9303894042969, 300.7347106933594, 59.226924896240234, -0.1120000034570694, 0.1120000034570694, 1.040000081062317, 0.0, 0.0, 0.0, 0.0, 0.0, 1.620302628524583E9, 2021-05-06 14:03:48.524
58.0, 353.5140380859375, -391.0925598144531, 295.64471435546875, 68.96936798095703, -0.1120000034570694, 0.1120000034570694, 1.040000081062317, 0.0, 0.0, 0.0, 0.0, 0.0, 1.6203026285254304E9, 2021-05-06 14:03:48.525
58.0, 349.3702392578125, -387.32647705078125, 287.7834167480469, 64.98262786865234, -0.1120000034570694, 0.1120000034570694, 1.040000081062317, 0.0, 0.0, 0.0, 0.0, 0.0, 1.6203026285254304E9, 2021-05-06 14:03:48.525
59.0, 352.28363037109375, -379.62603759765625, 307.6834411621094, 72.87007904052734, -0.1120000034570694, 0.1120000034570694, 1.040000081062317, 0.0, 0.0, 0.0, 0.0, 0.0, 1.6203026285261679E9, 2021-05-06 14:03:48.526
59.0, 343.77532958984375, -374.3826904296875, 302.5373229980469, 73.14683532714844, -0.1120000034570694, 0.1120000034570694, 1.040000081062317, 0.0, 0.0, 0.0, 0.0, 0.0, 1.6203026285261679E9, 2021-05-06 14:03:48.526
60.0, 350.1144714355469, -381.72784423828125, 296.8639221191406, 71.95380401611328, -0.1120000034570694, 0.1120000034570694, 1.055999994277954, 0.0, 0.0, 0.0, 0.0, 0.0, 1.6203026285366962E9, 2021-05-06 14:03:48.536
60.0, 344.05584716796875, -388.16046142578125, 290.7641296386719, 70.76825714111328, -0.1120000034570694, 0.1120000034570694, 1.055999994277954, 0.0, 0.0, 0.0, 0.0, 0.0, 1.6203026285366962E9, 2021-05-06 14:03:48.536
61.0, 338.3375244140625, -391.95648193359375, 296.61334228515625, 61.22403335571289, -0.1120000034570694, 0.1120000034570694, 1.055999994277954, 0.0, 0.0, 0.0, 0.0, 0.0, 1.620302628551777E9, 2021-05-06 14:03:48.551
61.0, 349.6881408691406, -379.3380432128906, 309.299072265625, 74.00701141357422, -0.1120000034570694, 0.1120000034570694, 1.055999994277954, 0.0, 0.0, 0.0, 0.0, 0.0, 1.620302628551777E9, 2021-05-06 14:03:48.551
62.0, 342.9226379394531, -378.8555908203125, 299.61273193359375, 72.14080047607422, -0.1120000034570694, 0.1120000034570694, 1.055999994277954, 0.0, 0.0, 0.0, 0.0, 0.0, 1.6203026285673618E9, 2021-05-06 14:03:48.567
62.0, 344.2727355957031, -385.363037109375, 291.680419921875, 70.42792510986328, -0.1120000034570694, 0.1120000034570694, 1.055999994277954, 0.0, 0.0, 0.0, 0.0, 0.0, 1.6203026285673618E9, 2021-05-06 14:03:48.567
63.0, 345.1329345703125, -389.08050537109375, 305.390869140625, 70.44662475585938, -0.1120000034570694, 0.1120000034570694, 1.055999994277954, 0.0, 0.0, 0.0, 0.0, 0.0, 1.6203026285680604E9, 2021-05-06 14:03:48.568
63.0, 351.74505615234375, -378.05902099609375, 306.4193420410156, 65.84281158447266, -0.1120000034570694, 0.1120000034570694, 1.055999994277954, 0.0, 0.0, 0.0, 0.0, 0.0, 1.6203026285680604E9, 2021-05-06 14:03:48.568
64.0, 341.277099609375, -376.1778259277344, 293.30352783203125, 67.99699401855469, -0.1120000034570694, 0.1120000034570694, 1.055999994277954, 0.0, 0.0, 0.0, 0.0, 0.0, 1.6203026285987692E9, 2021-05-06 14:03:48.598
64.0, 347.04400634765625, -376.4583435058594, 299.7660827636719, 79.36628723144531, -0.1120000034570694, 0.1120000034570694, 1.055999994277954, 0.0, 0.0, 0.0, 0.0, 0.0, 1.6203026285987692E9, 2021-05-06 14:03:48.598
65.0, 349.411376953125, -378.6125183105469, 312.855712890625, 78.18447875976562, -0.1120000034570694, 0.1120000034570694, 1.055999994277954, 0.0, 0.0, 0.0, 0.0, 0.0, 1.620302628599439E9, 2021-05-06 14:03:48.599
65.0, 353.22979736328125, -374.999755859375, 308.7867126464844, 67.17047119140625, -0.1120000034570694, 0.1120000034570694, 1.055999994277954, 0.0, 0.0, 0.0, 0.0, 0.0, 1.620302628599439E9, 2021-05-06 14:03:48.599
66.0, 350.0471496582031, -376.3797912597656, 299.1639404296875, 73.21414947509766, -0.1120000034570694, 0.1120000034570694, 1.055999994277954, 0.0, 0.0, 0.0, 0.0, 0.0, 1.6203026286002138E9, 2021-05-06 14:03:48.600
66.0, 355.59716796875, -373.2345275878906, 297.7278137207031, 71.03752899169922, -0.1120000034570694, 0.1120000034570694, 1.055999994277954, 0.0, 0.0, 0.0, 0.0, 0.0, 1.6203026286002138E9, 2021-05-06 14:03:48.600
67.0, 359.6287841796875, -366.1736145019531, 310.4734191894531, 68.32984161376953, -0.1120000034570694, 0.1120000034570694, 1.055999994277954, 0.0, 0.0, 0.0, 0.0, 0.0, 1.6203026286117399E9, 2021-05-06 14:03:48.611
67.0, 359.94293212890625, -364.3747253417969, 313.19232177734375, 65.55857849121094, -0.1120000034570694, 0.1120000034570694, 1.055999994277954, 0.0, 0.0, 0.0, 0.0, 0.0, 1.6203026286117399E9, 2021-05-06 14:03:48.611
68.0, 353.7908020019531, -375.9609375, 292.2039794921875, 61.48582458496094, -0.1120000034570694, 0.1120000034570694, 1.055999994277954, 0.0, 0.0, 0.0, 0.0, 0.0, 1.6203026286275408E9, 2021-05-06 14:03:48.627
68.0, 360.0177307128906, -365.5901794433594, 299.4407043457031, 69.47051239013672, -0.1120000034570694, 0.1120000034570694, 1.055999994277954, 0.0, 0.0, 0.0, 0.0, 0.0, 1.6203026286275408E9, 2021-05-06 14:03:48.627
69.0, 359.400634765625, -363.4322509765625, 306.5951232910156, 68.30740356445312, -0.1120000034570694, 0.1120000034570694, 1.055999994277954, 0.0, 0.0, 0.0, 0.0, 0.0, 1.6203026286282957E9, 2021-05-06 14:03:48.628
69.0, 356.94354248046875, -369.1730041503906, 307.36181640625, 67.21160888671875, -0.1120000034570694, 0.1120000034570694, 1.055999994277954, 0.0, 0.0, 0.0, 0.0, 0.0, 1.6203026286282957E9, 2021-05-06 14:03:48.628
70.0, 357.3362121582031, -366.9066162109375, 300.08770751953125, 68.92822265625, -0.1120000034570694, 0.1120000034570694, 1.040000081062317, 0.0, 0.0, 0.0, 0.0, 0.0, 1.6203026286417377E9, 2021-05-06 14:03:48.641
70.0, 363.44720458984375, -378.5863342285156, 293.4867858886719, 67.91844940185547, -0.1120000034570694, 0.1120000034570694, 1.040000081062317, 0.0, 0.0, 0.0, 0.0, 0.0, 1.6203026286417377E9, 2021-05-06 14:03:48.641
71.0, 369.67041015625, -374.5921325683594, 310.824951171875, 75.13272094726562, -0.1120000034570694, 0.1120000034570694, 1.040000081062317, 0.0, 0.0, 0.0, 0.0, 0.0, 1.620302628657555E9, 2021-05-06 14:03:48.657
71.0, 357.3063049316406, -369.21038818359375, 304.44842529296875, 65.05742645263672, -0.1120000034570694, 0.1120000034570694, 1.040000081062317, 0.0, 0.0, 0.0, 0.0, 0.0, 1.620302628657555E9, 2021-05-06 14:03:48.657
72.0, 366.83929443359375, -361.0499267578125, 305.1365661621094, 71.39656066894531, -0.1120000034570694, 0.1120000034570694, 1.040000081062317, 0.0, 0.0, 0.0, 0.0, 0.0, 1.6203026286583076E9, 2021-05-06 14:03:48.658
72.0, 366.8729553222656, -370.29498291015625, 298.2850646972656, 69.96044158935547, -0.1120000034570694, 0.1120000034570694, 1.040000081062317, 0.0, 0.0, 0.0, 0.0, 0.0, 1.6203026286583076E9, 2021-05-06 14:03:48.658
73.0, 364.7973327636719, -381.3239440917969, 304.6990051269531, 63.206180572509766, -0.1120000034570694, 0.1120000034570694, 1.040000081062317, 0.0, 0.0, 0.0, 0.0, 0.0, 1.6203026286716356E9, 2021-05-06 14:03:48.671
73.0, 357.6728210449219, -395.2999572753906, 302.2605895996094, 54.45481491088867, -0.1120000034570694, 0.1120000034570694, 1.040000081062317, 0.0, 0.0, 0.0, 0.0, 0.0, 1.6203026286716356E9, 2021-05-06 14:03:48.671
74.0, 368.3539733886719, -380.7218017578125, 299.979248046875, 64.9302749633789, -0.1120000034570694, 0.1120000034570694, 1.040000081062317, 0.0, 0.0, 0.0, 0.0, 0.0, 1.62030262868743E9, 2021-05-06 14:03:48.687
74.0, 365.1002502441406, -403.19488525390625, 295.0388488769531, 57.128841400146484, -0.1120000034570694, 0.1120000034570694, 1.040000081062317, 0.0, 0.0, 0.0, 0.0, 0.0, 1.62030262868743E9, 2021-05-06 14:03:48.687
75.0, 362.48980712890625, -398.17218017578125, 306.6100769042969, 61.20159149169922, -0.1120000034570694, 0.1120000034570694, 1.040000081062317, 0.0, 0.0, 0.0, 0.0, 0.0, 1.620302628688136E9, 2021-05-06 14:03:48.688
75.0, 362.8787536621094, -392.39404296875, 305.8546142578125, 56.762332916259766, -0.1120000034570694, 0.1120000034570694, 1.040000081062317, 0.0, 0.0, 0.0, 0.0, 0.0, 1.620302628688136E9, 2021-05-06 14:03:48.688
76.0, 356.71539306640625, -395.59539794921875, 290.74169921875, 46.728179931640625, -0.1120000034570694, 0.1120000034570694, 1.040000081062317, 0.0, 0.0, 0.0, 0.0, 0.0, 1.6203026287182183E9, 2021-05-06 14:03:48.718
76.0, 370.6614990234375, -385.7332763671875, 303.547119140625, 69.5041732788086, -0.1120000034570694, 0.1120000034570694, 1.040000081062317, 0.0, 0.0, 0.0, 0.0, 0.0, 1.6203026287182183E9, 2021-05-06 14:03:48.718
77.0, 360.608642578125, -395.3036804199219, 304.7438659667969, 59.61961364746094, -0.1120000034570694, 0.1120000034570694, 1.040000081062317, 0.0, 0.0, 0.0, 0.0, 0.0, 1.62030262871885E9, 2021-05-06 14:03:48.718
77.0, 354.4490051269531, -399.6307373046875, 302.76171875, 49.0207405090332, -0.1120000034570694, 0.1120000034570694, 1.040000081062317, 0.0, 0.0, 0.0, 0.0, 0.0, 1.62030262871885E9, 2021-05-06 14:03:48.718
78.0, 358.7798156738281, -389.9518737792969, 297.61187744140625, 60.726627349853516, -0.1120000034570694, 0.1120000034570694, 1.040000081062317, 0.0, 0.0, 0.0, 0.0, 0.0, 1.6203026287195392E9, 2021-05-06 14:03:48.719
78.0, 356.62188720703125, -396.4855041503906, 290.4761657714844, 61.811195373535156, -0.1120000034570694, 0.1120000034570694, 1.040000081062317, 0.0, 0.0, 0.0, 0.0, 0.0, 1.6203026287195392E9, 2021-05-06 14:03:48.719
79.0, 350.8362731933594, -405.7791442871094, 297.8100891113281, 58.01145935058594, -0.1120000034570694, 0.1120000034570694, 1.040000081062317, 0.0, 0.0, 0.0, 0.0, 0.0, 1.6203026287317624E9, 2021-05-06 14:03:48.731
79.0, 351.1915588378906, -399.8663635253906, 300.7646179199219, 49.36106872558594, -0.1120000034570694, 0.1120000034570694, 1.040000081062317, 0.0, 0.0, 0.0, 0.0, 0.0, 1.6203026287317624E9, 2021-05-06 14:03:48.731
80.0, 348.65966796875, -400.71905517578125, 291.0745544433594, 62.850887298583984, -0.1120000034570694, 0.1120000034570694, 1.040000081062317, 0.0, 0.0, 0.0, 0.0, 0.0, 1.6203026287474756E9, 2021-05-06 14:03:48.747
80.0, 349.7704162597656, -402.5067443847656, 285.2590026855469, 58.82675552368164, -0.1120000034570694, 0.1120000034570694, 1.040000081062317, 0.0, 0.0, 0.0, 0.0, 0.0, 1.6203026287474756E9, 2021-05-06 14:03:48.747
81.0, 344.2166442871094, -406.64678955078125, 294.7396545410156, 58.703338623046875, -0.1120000034570694, 0.1120000034570694, 1.040000081062317, 0.0, 0.0, 0.0, 0.0, 0.0, 1.6203026287481413E9, 2021-05-06 14:03:48.748
81.0, 350.7913818359375, -403.27716064453125, 301.6995849609375, 60.59198760986328, -0.1120000034570694, 0.1120000034570694, 1.040000081062317, 0.0, 0.0, 0.0, 0.0, 0.0, 1.6203026287481413E9, 2021-05-06 14:03:48.748
82.0, 351.89093017578125, -409.8182373046875, 298.3411560058594, 67.57064056396484, -0.1120000034570694, 0.1120000034570694, 1.040000081062317, 0.0, 0.0, 0.0, 0.0, 0.0, 1.6203026287781167E9, 2021-05-06 14:03:48.778
82.0, 351.3000183105469, -411.1720886230469, 295.2594909667969, 65.93256378173828, -0.1120000034570694, 0.1120000034570694, 1.040000081062317, 0.0, 0.0, 0.0, 0.0, 0.0, 1.6203026287781167E9, 2021-05-06 14:03:48.778
83.0, 352.23126220703125, -405.96612548828125, 302.010009765625, 62.74991226196289, -0.1120000034570694, 0.1120000034570694, 1.040000081062317, 0.0, 0.0, 0.0, 0.0, 0.0, 1.620302628778918E9, 2021-05-06 14:03:48.778
83.0, 344.4111328125, -413.180419921875, 299.2649230957031, 51.414276123046875, -0.1120000034570694, 0.1120000034570694, 1.040000081062317, 0.0, 0.0, 0.0, 0.0, 0.0, 1.620302628778918E9, 2021-05-06 14:03:48.778
84.0, 353.0203857421875, -397.9291076660156, 299.32476806640625, 67.34999084472656, -0.1120000034570694, 0.1120000034570694, 1.040000081062317, 0.0, 0.0, 0.0, 0.0, 0.0, 1.620302628779554E9, 2021-05-06 14:03:48.779
84.0, 353.3532409667969, -412.2790832519531, 289.4252624511719, 60.386295318603516, -0.1120000034570694, 0.1120000034570694, 1.040000081062317, 0.0, 0.0, 0.0, 0.0, 0.0, 1.620302628779554E9, 2021-05-06 14:03:48.779
85.0, 351.2588806152344, -410.8728942871094, 300.4467468261719, 54.7839241027832, -0.1120000034570694, 0.1120000034570694, 1.040000081062317, 0.0, 0.0, 0.0, 0.0, 0.0, 1.6203026287917354E9, 2021-05-06 14:03:48.791
85.0, 357.34368896484375, -399.7242431640625, 305.72747802734375, 59.01375198364258, -0.1120000034570694, 0.1120000034570694, 1.040000081062317, 0.0, 0.0, 0.0, 0.0, 0.0, 1.6203026287917354E9, 2021-05-06 14:03:48.791
86.0, 348.48388671875, -407.1517028808594, 293.0903625488281, 58.72203826904297, -0.1120000034570694, 0.1120000034570694, 1.040000081062317, 0.0, 0.0, 0.0, 0.0, 0.0, 1.62030262880752E9, 2021-05-06 14:03:48.807
86.0, 356.3974914550781, -407.33868408203125, 293.03424072265625, 67.26770782470703, -0.1120000034570694, 0.1120000034570694, 1.040000081062317, 0.0, 0.0, 0.0, 0.0, 0.0, 1.62030262880752E9, 2021-05-06 14:03:48.807
87.0, 348.9962463378906, -426.6066589355469, 294.4292297363281, 54.90734100341797, -0.1120000034570694, 0.1120000034570694, 1.040000081062317, 0.0, 0.0, 0.0, 0.0, 0.0, 1.620302628808128E9, 2021-05-06 14:03:48.808
87.0, 352.14898681640625, -404.7244873046875, 301.927734375, 56.702491760253906, -0.1120000034570694, 0.1120000034570694, 1.040000081062317, 0.0, 0.0, 0.0, 0.0, 0.0, 1.620302628808128E9, 2021-05-06 14:03:48.808
88.0, 356.6368713378906, -406.46356201171875, 303.5882568359375, 67.71276092529297, -0.1120000034570694, 0.1120000034570694, 1.040000081062317, 0.0, 0.0, 0.0, 0.0, 0.0, 1.620302628821788E9, 2021-05-06 14:03:48.821
88.0, 354.7108154296875, -410.8280029296875, 296.1458435058594, 68.62529754638672, -0.1120000034570694, 0.1120000034570694, 1.040000081062317, 0.0, 0.0, 0.0, 0.0, 0.0, 1.620302628821788E9, 2021-05-06 14:03:48.821
89.0, 354.25079345703125, -408.0230712890625, 307.70587158203125, 68.19146728515625, -0.1120000034570694, 0.1120000034570694, 1.040000081062317, 0.0, 0.0, 0.0, 0.0, 0.0, 1.6203026288373623E9, 2021-05-06 14:03:48.837
89.0, 350.96343994140625, -395.5093688964844, 304.28387451171875, 59.376522064208984, -0.1120000034570694, 0.1120000034570694, 1.040000081062317, 0.0, 0.0, 0.0, 0.0, 0.0, 1.6203026288373623E9, 2021-05-06 14:03:48.837
90.0, 347.0814208984375, -401.69891357421875, 298.4047546386719, 59.99360656738281, -0.1120000034570694, 0.1120000034570694, 1.040000081062317, 0.0, 0.0, 0.0, 0.0, 0.0, 1.62030262883807E9, 2021-05-06 14:03:48.838
90.0, 348.19964599609375, -402.3758239746094, 295.4913635253906, 65.44638061523438, -0.1120000034570694, 0.1120000034570694, 1.040000081062317, 0.0, 0.0, 0.0, 0.0, 0.0, 1.62030262883807E9, 2021-05-06 14:03:48.838
91.0, 353.36444091796875, -402.84332275390625, 306.939208984375, 67.85487365722656, -0.1120000034570694, 0.1120000034570694, 1.040000081062317, 0.0, 0.0, 0.0, 0.0, 0.0, 1.620302628851784E9, 2021-05-06 14:03:48.851
91.0, 346.2287292480469, -410.1099548339844, 308.52117919921875, 63.38569259643555, -0.1120000034570694, 0.1120000034570694, 1.040000081062317, 0.0, 0.0, 0.0, 0.0, 0.0, 1.620302628851784E9, 2021-05-06 14:03:48.851
92.0, 355.05487060546875, -398.47137451171875, 299.60150146484375, 71.38159942626953, -0.1120000034570694, 0.1120000034570694, 1.040000081062317, 0.0, 0.0, 0.0, 0.0, 0.0, 1.6203026288994775E9, 2021-05-06 14:03:48.899
92.0, 353.5327453613281, -405.1695556640625, 298.3112487792969, 72.23429870605469, -0.1120000034570694, 0.1120000034570694, 1.040000081062317, 0.0, 0.0, 0.0, 0.0, 0.0, 1.6203026288994775E9, 2021-05-06 14:03:48.899
93.0, 349.94244384765625, -408.6214599609375, 298.793701171875, 59.630836486816406, -0.1120000034570694, 0.1120000034570694, 1.040000081062317, 0.0, 0.0, 0.0, 0.0, 0.0, 1.6203026289001684E9, 2021-05-06 14:03:48.900
93.0, 357.8486022949219, -398.1273193359375, 310.14056396484375, 64.84799194335938, -0.1120000034570694, 0.1120000034570694, 1.040000081062317, 0.0, 0.0, 0.0, 0.0, 0.0, 1.6203026289001684E9, 2021-05-06 14:03:48.900
94.0, 349.1196594238281, -406.714111328125, 291.2540588378906, 60.16564178466797, -0.1120000034570694, 0.1120000034570694, 1.040000081062317, 0.0, 0.0, 0.0, 0.0, 0.0, 1.6203026289009156E9, 2021-05-06 14:03:48.900
94.0, 356.25164794921875, -406.9385070800781, 294.0589904785156, 69.74726104736328, -0.1120000034570694, 0.1120000034570694, 1.040000081062317, 0.0, 0.0, 0.0, 0.0, 0.0, 1.6203026289009156E9, 2021-05-06 14:03:48.900
95.0, 352.4182434082031, -403.2322692871094, 296.4413146972656, 66.34769439697266, -0.1120000034570694, 0.1120000034570694, 1.040000081062317, 0.0, 0.0, 0.0, 0.0, 0.0, 1.6203026289016263E9, 2021-05-06 14:03:48.901
95.0, 352.12652587890625, -414.84466552734375, 306.7447204589844, 61.79997634887695, -0.1120000034570694, 0.1120000034570694, 1.040000081062317, 0.0, 0.0, 0.0, 0.0, 0.0, 1.6203026289016263E9, 2021-05-06 14:03:48.901
96.0, 358.0281066894531, -406.5420837402344, 298.6515808105469, 66.56086730957031, -0.1120000034570694, 0.1120000034570694, 1.040000081062317, 0.0, 0.0, 0.0, 0.0, 0.0, 1.6203026289125147E9, 2021-05-06 14:03:48.912
96.0, 356.41619873046875, -407.9445495605469, 295.0388488769531, 67.6417007446289, -0.1120000034570694, 0.1120000034570694, 1.040000081062317, 0.0, 0.0, 0.0, 0.0, 0.0, 1.6203026289125147E9, 2021-05-06 14:03:48.912
97.0, 357.26141357421875, -405.85394287109375, 303.7640380859375, 62.97430419921875, -0.1120000034570694, 0.1120000034570694, 1.040000081062317, 0.0, 0.0, 0.0, 0.0, 0.0, 1.6203026289131396E9, 2021-05-06 14:03:48.913
97.0, 345.8360290527344, -396.9679260253906, 301.36676025390625, 58.8978157043457, -0.1120000034570694, 0.1120000034570694, 1.040000081062317, 0.0, 0.0, 0.0, 0.0, 0.0, 1.6203026289131396E9, 2021-05-06 14:03:48.913
98.0, 350.73529052734375, -403.5165100097656, 296.90130615234375, 63.37073516845703, -0.1120000034570694, 0.1120000034570694, 1.040000081062317, 0.0, 0.0, 0.0, 0.0, 0.0, 1.6203026289273944E9, 2021-05-06 14:03:48.927
98.0, 355.9075927734375, -404.5000915527344, 294.732177734375, 71.19086456298828, -0.1120000034570694, 0.1120000034570694, 1.040000081062317, 0.0, 0.0, 0.0, 0.0, 0.0, 1.6203026289273944E9, 2021-05-06 14:03:48.927
99.0, 355.7018737792969, -406.0633850097656, 302.24188232421875, 69.82205963134766, -0.1120000034570694, 0.1120000034570694, 1.040000081062317, 0.0, 0.0, 0.0, 0.0, 0.0, 1.6203026289280567E9, 2021-05-06 14:03:48.928
99.0, 355.4139099121094, -400.47222900390625, 311.3597717285156, 71.78550720214844, -0.1120000034570694, 0.1120000034570694, 1.040000081062317, 0.0, 0.0, 0.0, 0.0, 0.0, 1.6203026289280567E9, 2021-05-06 14:03:48.928
100.0, 353.2746887207031, -401.8971252441406, 297.3949890136719, 70.2484130859375, -0.1120000034570694, 0.1120000034570694, 1.040000081062317, 0.0, 0.0, 0.0, 0.0, 0.0, 1.6203026289421768E9, 2021-05-06 14:03:48.942
100.0, 350.6044006347656, -407.9856872558594, 287.18505859375, 66.48981475830078, -0.1120000034570694, 0.1120000034570694, 1.040000081062317, 0.0, 0.0, 0.0, 0.0, 0.0, 1.6203026289421768E9, 2021-05-06 14:03:48.942
0.0, 350.2846374511719, -408.9917297363281, 303.71728515625, 70.2240982055664, -0.1120000034570694, 0.1120000034570694, 1.040000081062317, 0.0, 0.0, 0.0, 0.0, 0.0, 1.6203026289579687E9, 2021-05-06 14:03:48.957
1.0, 347.1468505859375, -401.3136901855469, 305.8826904296875, 65.02938079833984, -0.1120000034570694, 0.1120000034570694, 1.040000081062317, 0.0, 0.0, 0.0, 0.0, 0.0, 1.6203026289730616E9, 2021-05-06 14:03:48.973
1.0, 352.0685729980469, -390.8195495605469, 305.3890075683594, 71.14785766601562, -0.1120000034570694, 0.1120000034570694, 1.040000081062317, 0.0, 0.0, 0.0, 0.0, 0.0, 1.6203026289730616E9, 2021-05-06 14:03:48.973
2.0, 356.0066833496094, -395.9207763671875, 300.0260009765625, 74.58482360839844, -0.1120000034570694, 0.1120000034570694, 1.040000081062317, 0.0, 0.0, 0.0, 0.0, 0.0, 1.620302628973791E9, 2021-05-06 14:03:48.973
2.0, 348.3211975097656, -402.1140441894531, 301.5892639160156, 64.94710540771484, -0.1120000034570694, 0.1120000034570694, 1.040000081062317, 0.0, 0.0, 0.0, 0.0, 0.0, 1.620302628973791E9, 2021-05-06 14:03:48.973
3.0, 349.7685241699219, -384.0877380371094, 308.7250061035156, 66.25980377197266, -0.1120000034570694, 0.1120000034570694, 1.040000081062317, 0.0, 0.0, 0.0, 0.0, 0.0, 1.62030262897464E9, 2021-05-06 14:03:48.974
3.0, 357.05010986328125, -396.6837158203125, 299.24810791015625, 70.75142669677734, -0.1120000034570694, 0.1120000034570694, 1.040000081062317, 0.0, 0.0, 0.0, 0.0, 0.0, 1.62030262897464E9, 2021-05-06 14:03:48.974
4.0, 360.416015625, -396.1451721191406, 298.8217468261719, 71.21891784667969, -0.1120000034570694, 0.1120000034570694, 1.040000081062317, 0.0, 0.0, 0.0, 0.0, 0.0, 1.620302628986776E9, 2021-05-06 14:03:48.986
4.0, 348.9906311035156, -398.00390625, 301.8473205566406, 64.46465301513672, -0.1120000034570694, 0.1120000034570694, 1.040000081062317, 0.0, 0.0, 0.0, 0.0, 0.0, 1.620302628986776E9, 2021-05-06 14:03:48.986
5.0, 357.8317565917969, -390.12017822265625, 309.7235412597656, 68.4925308227539, -0.1120000034570694, 0.1120000034570694, 1.040000081062317, 0.0, 0.0, 0.0, 0.0, 0.0, 1.6203026290023727E9, 2021-05-06 14:03:49.002
5.0, 359.4399108886719, -389.6900939941406, 304.0762939453125, 77.86097717285156, -0.1120000034570694, 0.1120000034570694, 1.040000081062317, 0.0, 0.0, 0.0, 0.0, 0.0, 1.6203026290023727E9, 2021-05-06 14:03:49.002
6.0, 349.80218505859375, -399.0099182128906, 294.6854248046875, 62.43762969970703, -0.1120000034570694, 0.1120000034570694, 1.040000081062317, 0.0, 0.0, 0.0, 0.0, 0.0, 1.6203026290030923E9, 2021-05-06 14:03:49.003
6.0, 354.02081298828125, -398.4227600097656, 300.1157531738281, 60.747196197509766, -0.1120000034570694, 0.1120000034570694, 1.040000081062317, 0.0, 0.0, 0.0, 0.0, 0.0, 1.6203026290030923E9, 2021-05-06 14:03:49.003
7.0, 353.1606140136719, -389.3198547363281, 311.8590393066406, 69.06473541259766, -0.1120000034570694, 0.1120000034570694, 1.040000081062317, 0.0, 0.0, 0.0, 0.0, 0.0, 1.6203026290167902E9, 2021-05-06 14:03:49.016
7.0, 358.96868896484375, -388.6952819824219, 300.1718444824219, 67.78569030761719, -0.1120000034570694, 0.1120000034570694, 1.040000081062317, 0.0, 0.0, 0.0, 0.0, 0.0, 1.6203026290167902E9, 2021-05-06 14:03:49.016
8.0, 361.36968994140625, -399.0772399902344, 299.1658020019531, 68.11853790283203, -0.1120000034570694, 0.1120000034570694, 1.040000081062317, 0.0, 0.0, 0.0, 0.0, 0.0, 1.62030262903253E9, 2021-05-06 14:03:49.032
8.0, 351.3729553222656, -408.2100830078125, 299.41265869140625, 67.21348571777344, -0.1120000034570694, 0.1120000034570694, 1.040000081062317, 0.0, 0.0, 0.0, 0.0, 0.0, 1.62030262903253E9, 2021-05-06 14:03:49.032
9.0, 356.0889587402344, -400.07952880859375, 308.0742492675781, 64.79376983642578, -0.1120000034570694, 0.1120000034570694, 1.040000081062317, 0.0, 0.0, 0.0, 0.0, 0.0, 1.6203026290330791E9, 2021-05-06 14:03:49.033
9.0, 357.9103088378906, -394.26025390625, 302.9206848144531, 68.83660125732422, -0.1120000034570694, 0.1120000034570694, 1.040000081062317, 0.0, 0.0, 0.0, 0.0, 0.0, 1.6203026290330791E9, 2021-05-06 14:03:49.033
10.0, 355.50927734375, -400.9995422363281, 293.2492980957031, 70.58686828613281, -0.1120000034570694, 0.1120000034570694, 1.040000081062317, 0.0, 0.0, 0.0, 0.0, 0.0, 1.620302629046694E9, 2021-05-06 14:03:49.046
10.0, 355.0941467285156, -397.5663146972656, 307.41229248046875, 72.52787780761719, -0.1120000034570694, 0.1120000034570694, 1.040000081062317, 0.0, 0.0, 0.0, 0.0, 0.0, 1.620302629046694E9, 2021-05-06 14:03:49.046
11.0, 346.29791259765625, -404.507568359375, 303.99029541015625, 64.93962097167969, -0.1120000034570694, 0.1120000034570694, 1.040000081062317, 0.0, 0.0, 0.0, 0.0, 0.0, 1.620302629078554E9, 2021-05-06 14:03:49.078
11.0, 350.5165100097656, -399.1258544921875, 298.7880859375, 66.80209350585938, -0.1120000034570694, 0.1120000034570694, 1.040000081062317, 0.0, 0.0, 0.0, 0.0, 0.0, 1.620302629078554E9, 2021-05-06 14:03:49.078
12.0, 360.2814025878906, -401.208984375, 298.1373596191406, 77.57300567626953, -0.1120000034570694, 0.1120000034570694, 1.040000081062317, 0.0, 0.0, 0.0, 0.0, 0.0, 1.6203026290793052E9, 2021-05-06 14:03:49.079
12.0, 350.4267578125, -406.9945983886719, 297.80450439453125, 62.845279693603516, -0.1120000034570694, 0.1120000034570694, 1.040000081062317, 0.0, 0.0, 0.0, 0.0, 0.0, 1.6203026290793052E9, 2021-05-06 14:03:49.079
13.0, 349.0990905761719, -400.1954650878906, 302.5541687011719, 64.74514770507812, -0.1120000034570694, 0.1120000034570694, 1.040000081062317, 0.0, 0.0, 0.0, 0.0, 0.0, 1.6203026290799775E9, 2021-05-06 14:03:49.079
13.0, 359.499755859375, -401.1304626464844, 301.2339782714844, 72.44560241699219, -0.1120000034570694, 0.1120000034570694, 1.040000081062317, 0.0, 0.0, 0.0, 0.0, 0.0, 1.6203026290799775E9, 2021-05-06 14:03:49.079
14.0, 349.8507995605469, -404.5113220214844, 293.0735168457031, 66.91429138183594, -0.1120000034570694, 0.1120000034570694, 1.040000081062317, 0.0, 0.0, 0.0, 0.0, 0.0, 1.6203026290925436E9, 2021-05-06 14:03:49.092
14.0, 353.9385070800781, -401.3660583496094, 292.4489440917969, 59.02684020996094, -0.1120000034570694, 0.1120000034570694, 1.040000081062317, 0.0, 0.0, 0.0, 0.0, 0.0, 1.6203026290925436E9, 2021-05-06 14:03:49.092
15.0, 349.4356689453125, -403.01910400390625, 301.3013000488281, 63.275367736816406, -0.1120000034570694, 0.1120000034570694, 1.040000081062317, 0.0, 0.0, 0.0, 0.0, 0.0, 1.6203026290932314E9, 2021-05-06 14:03:49.093
15.0, 346.271728515625, -406.58697509765625, 295.3660888671875, 62.18331527709961, -0.1120000034570694, 0.1120000034570694, 1.040000081062317, 0.0, 0.0, 0.0, 0.0, 0.0, 1.6203026290932314E9, 2021-05-06 14:03:49.093
16.0, 354.746337890625, -402.74609375, 289.9693908691406, 63.6643180847168, -0.1120000034570694, 0.1120000034570694, 1.040000081062317, 0.0, 0.0, 0.0, 0.0, 0.0, 1.6203026291066947E9, 2021-05-06 14:03:49.106
16.0, 349.22625732421875, -403.9952087402344, 298.22711181640625, 61.62607192993164, -0.1120000034570694, 0.1120000034570694, 1.040000081062317, 0.0, 0.0, 0.0, 0.0, 0.0, 1.6203026291066947E9, 2021-05-06 14:03:49.106
17.0, 344.15869140625, -402.2262268066406, 305.1047668457031, 63.16691207885742, -0.1120000034570694, 0.1120000034570694, 1.040000081062317, 0.0, 0.0, 0.0, 0.0, 0.0, 1.6203026291224933E9, 2021-05-06 14:03:49.122
17.0, 357.70086669921875, -394.9072570800781, 299.3939514160156, 68.62342071533203, -0.1120000034570694, 0.1120000034570694, 1.040000081062317, 0.0, 0.0, 0.0, 0.0, 0.0, 1.6203026291224933E9, 2021-05-06 14:03:49.122
18.0, 341.84368896484375, -407.218994140625, 281.4873046875, 59.5616455078125, -0.1120000034570694, 0.1120000034570694, 1.040000081062317, 0.0, 0.0, 0.0, 0.0, 0.0, 1.6203026291230924E9, 2021-05-06 14:03:49.123
18.0, 346.8626403808594, -398.2993469238281, 295.9046325683594, 62.77421951293945, -0.1120000034570694, 0.1120000034570694, 1.040000081062317, 0.0, 0.0, 0.0, 0.0, 0.0, 1.6203026291230924E9, 2021-05-06 14:03:49.123
19.0, 341.095703125, -401.2501220703125, 296.1252746582031, 57.62063980102539, -0.1120000034570694, 0.1120000034570694, 1.040000081062317, 0.0, 0.0, 0.0, 0.0, 0.0, 1.6203026291366825E9, 2021-05-06 14:03:49.136
19.0, 345.83416748046875, -415.3233642578125, 288.3425598144531, 59.09041976928711, -0.1120000034570694, 0.1120000034570694, 1.040000081062317, 0.0, 0.0, 0.0, 0.0, 0.0, 1.6203026291366825E9, 2021-05-06 14:03:49.136
20.0, 346.0473327636719, -407.2900695800781, 292.3479919433594, 72.0865707397461, -0.1120000034570694, 0.1120000034570694, 1.040000081062317, 0.0, 0.0, 0.0, 0.0, 0.0, 1.6203026291525285E9, 2021-05-06 14:03:49.152
20.0, 346.8289794921875, -402.38330078125, 300.6243896484375, 65.82598114013672, -0.1120000034570694, 0.1120000034570694, 1.040000081062317, 0.0, 0.0, 0.0, 0.0, 0.0, 1.6203026291525285E9, 2021-05-06 14:03:49.152
21.0, 341.5893859863281, -410.1660461425781, 298.63848876953125, 59.4494514465332, -0.1120000034570694, 0.1120000034570694, 1.040000081062317, 0.0, 0.0, 0.0, 0.0, 0.0, 1.6203026291530707E9, 2021-05-06 14:03:49.153
21.0, 336.8247375488281, -403.9129333496094, 286.17340087890625, 62.00006103515625, -0.1120000034570694, 0.1120000034570694, 1.040000081062317, 0.0, 0.0, 0.0, 0.0, 0.0, 1.6203026291530707E9, 2021-05-06 14:03:49.153
22.0, 351.13360595703125, -401.8372802734375, 285.8255920410156, 62.598445892333984, -0.1120000034570694, 0.1120000034570694, 1.040000081062317, 0.0, 0.0, 0.0, 0.0, 0.0, 1.6203026291838474E9, 2021-05-06 14:03:49.183
22.0, 343.3097229003906, -413.520751953125, 292.5013122558594, 56.89883804321289, -0.1120000034570694, 0.1120000034570694, 1.040000081062317, 0.0, 0.0, 0.0, 0.0, 0.0, 1.6203026291838474E9, 2021-05-06 14:03:49.183
23.0, 346.93743896484375, -401.4707946777344, 294.44232177734375, 60.33206558227539, -0.1120000034570694, 0.1120000034570694, 1.040000081062317, 0.0, 0.0, 0.0, 0.0, 0.0, 1.6203026291844904E9, 2021-05-06 14:03:49.184
23.0, 353.3363952636719, -399.44000244140625, 302.3671569824219, 71.3460693359375, -0.1120000034570694, 0.1120000034570694, 1.040000081062317, 0.0, 0.0, 0.0, 0.0, 0.0, 1.6203026291844904E9, 2021-05-06 14:03:49.184
24.0, 343.22369384765625, -401.8410339355469, 292.7144775390625, 62.62088394165039, -0.1120000034570694, 0.1120000034570694, 1.040000081062317, 0.0, 0.0, 0.0, 0.0, 0.0, 1.6203026291851904E9, 2021-05-06 14:03:49.185
24.0, 351.0064392089844, -404.0475769042969, 300.3251953125, 65.42207336425781, -0.1120000034570694, 0.1120000034570694, 1.040000081062317, 0.0, 0.0, 0.0, 0.0, 0.0, 1.6203026291851904E9, 2021-05-06 14:03:49.185
25.0, 341.1443176269531, -402.96673583984375, 294.94720458984375, 58.27138137817383, -0.1120000034570694, 0.1120000034570694, 1.040000081062317, 0.0, 0.0, 0.0, 0.0, 0.0, 1.620302629196838E9, 2021-05-06 14:03:49.196
25.0, 342.5841979980469, -404.5636901855469, 288.376220703125, 59.247493743896484, -0.1120000034570694, 0.1120000034570694, 1.040000081062317, 0.0, 0.0, 0.0, 0.0, 0.0, 1.620302629196838E9, 2021-05-06 14:03:49.196
26.0, 350.4454650878906, -408.25494384765625, 293.3128662109375, 64.59928894042969, -0.1120000034570694, 0.1120000034570694, 1.040000081062317, 0.0, 0.0, 0.0, 0.0, 0.0, 1.6203026292125108E9, 2021-05-06 14:03:49.212
26.0, 353.0110168457031, -398.25445556640625, 303.55645751953125, 71.67518615722656, -0.1120000034570694, 0.1120000034570694, 1.040000081062317, 0.0, 0.0, 0.0, 0.0, 0.0, 1.6203026292125108E9, 2021-05-06 14:03:49.212
27.0, 342.7375183105469, -404.8666076660156, 300.25787353515625, 59.91693878173828, -0.1120000034570694, 0.1120000034570694, 1.040000081062317, 0.0, 0.0, 0.0, 0.0, 0.0, 1.620302629213153E9, 2021-05-06 14:03:49.213
27.0, 342.1914978027344, -395.0269470214844, 290.66876220703125, 68.36163330078125, -0.1120000034570694, 0.1120000034570694, 1.040000081062317, 0.0, 0.0, 0.0, 0.0, 0.0, 1.620302629213153E9, 2021-05-06 14:03:49.213
28.0, 344.56634521484375, -398.84912109375, 291.6972351074219, 68.41398620605469, -0.1120000034570694, 0.1120000034570694, 1.040000081062317, 0.0, 0.0, 0.0, 0.0, 0.0, 1.6203026292267737E9, 2021-05-06 14:03:49.226
28.0, 345.4601745605469, -413.5581359863281, 294.9808654785156, 64.4384765625, -0.1120000034570694, 0.1120000034570694, 1.040000081062317, 0.0, 0.0, 0.0, 0.0, 0.0, 1.6203026292267737E9, 2021-05-06 14:03:49.226
29.0, 339.6595764160156, -411.44134521484375, 300.21673583984375, 59.52424621582031, -0.1120000034570694, 0.1120000034570694, 1.040000081062317, 0.0, 0.0, 0.0, 0.0, 0.0, 1.6203026292424843E9, 2021-05-06 14:03:49.242
29.0, 346.53350830078125, -400.1580810546875, 297.11260986328125, 68.23821258544922, -0.1120000034570694, 0.1120000034570694, 1.040000081062317, 0.0, 0.0, 0.0, 0.0, 0.0, 1.6203026292424843E9, 2021-05-06 14:03:49.242
30.0, 346.3839111328125, -402.0018310546875, 286.0350341796875, 63.163169860839844, -0.1120000034570694, 0.1120000034570694, 1.040000081062317, 0.0, 0.0, 0.0, 0.0, 0.0, 1.620302629243165E9, 2021-05-06 14:03:49.243
30.0, 343.2536315917969, -397.8468322753906, 298.29443359375, 63.226749420166016, -0.1120000034570694, 0.1120000034570694, 1.040000081062317, 0.0, 0.0, 0.0, 0.0, 0.0, 1.620302629243165E9, 2021-05-06 14:03:49.243
31.0, 350.2210693359375, -389.7985534667969, 305.643310546875, 66.57395935058594, -0.1120000034570694, 0.1120000034570694, 1.040000081062317, 0.0, 0.0, 0.0, 0.0, 0.0, 1.6203026292730975E9, 2021-05-06 14:03:49.273
31.0, 347.5919189453125, -398.26568603515625, 292.8977355957031, 62.19453811645508, -0.1120000034570694, 0.1120000034570694, 1.040000081062317, 0.0, 0.0, 0.0, 0.0, 0.0, 1.6203026292730975E9, 2021-05-06 14:03:49.273
32.0, 351.2233581542969, -399.0921936035156, 292.0562744140625, 63.997169494628906, -0.1120000034570694, 0.1120000034570694, 1.040000081062317, 0.0, 0.0, 0.0, 0.0, 0.0, 1.6203026292738192E9, 2021-05-06 14:03:49.273
32.0, 348.42218017578125, -398.4638977050781, 304.75323486328125, 67.31819915771484, -0.1120000034570694, 0.1120000034570694, 1.040000081062317, 0.0, 0.0, 0.0, 0.0, 0.0, 1.6203026292738192E9, 2021-05-06 14:03:49.273
33.0, 340.8077392578125, -404.5786437988281, 299.4238586425781, 54.51278305053711, -0.1120000034570694, 0.1120000034570694, 1.040000081062317, 0.0, 0.0, 0.0, 0.0, 0.0, 1.620302629274529E9, 2021-05-06 14:03:49.274
33.0, 345.65838623046875, -392.7007141113281, 295.7812194824219, 60.32832717895508, -0.1120000034570694, 0.1120000034570694, 1.040000081062317, 0.0, 0.0, 0.0, 0.0, 0.0, 1.620302629274529E9, 2021-05-06 14:03:49.274
34.0, 342.1241760253906, -396.41070556640625, 290.32843017578125, 61.558753967285156, -0.1120000034570694, 0.1120000034570694, 1.040000081062317, 0.0, 0.0, 0.0, 0.0, 0.0, 1.6203026292867916E9, 2021-05-06 14:03:49.286
34.0, 350.19488525390625, -396.0516662597656, 297.9802551269531, 67.490234375, -0.1120000034570694, 0.1120000034570694, 1.040000081062317, 0.0, 0.0, 0.0, 0.0, 0.0, 1.6203026292867916E9, 2021-05-06 14:03:49.286
35.0, 343.19378662109375, -389.91448974609375, 294.5096435546875, 62.9238166809082, -0.1120000034570694, 0.1120000034570694, 1.040000081062317, 0.0, 0.0, 0.0, 0.0, 0.0, 1.6203026293188624E9, 2021-05-06 14:03:49.318
35.0, 349.8732604980469, -390.02667236328125, 291.40179443359375, 66.76095581054688, -0.1120000034570694, 0.1120000034570694, 1.040000081062317, 0.0, 0.0, 0.0, 0.0, 0.0, 1.6203026293188624E9, 2021-05-06 14:03:49.318
36.0, 343.14141845703125, -396.0367126464844, 291.8056945800781, 73.05146789550781, -0.1120000034570694, 0.1120000034570694, 1.040000081062317, 0.0, 0.0, 0.0, 0.0, 0.0, 1.6203026293194883E9, 2021-05-06 14:03:49.319
36.0, 345.8416442871094, -395.9992980957031, 296.75732421875, 59.161476135253906, -0.1120000034570694, 0.1120000034570694, 1.040000081062317, 0.0, 0.0, 0.0, 0.0, 0.0, 1.6203026293194883E9, 2021-05-06 14:03:49.319
37.0, 340.332763671875, -392.6820068359375, 301.9258728027344, 60.48166275024414, -0.1120000034570694, 0.1120000034570694, 1.040000081062317, 0.0, 0.0, 0.0, 0.0, 0.0, 1.6203026293331237E9, 2021-05-06 14:03:49.333
37.0, 345.84912109375, -388.6915283203125, 295.9420166015625, 64.81246948242188, -0.1120000034570694, 0.1120000034570694, 1.040000081062317, 0.0, 0.0, 0.0, 0.0, 0.0, 1.6203026293331237E9, 2021-05-06 14:03:49.333
38.0, 341.705322265625, -397.63739013671875, 283.4694519042969, 62.299251556396484, -0.1120000034570694, 0.1120000034570694, 1.040000081062317, 0.0, 0.0, 0.0, 0.0, 0.0, 1.62030262933382E9, 2021-05-06 14:03:49.333
38.0, 349.2075500488281, -385.4752197265625, 300.4859924316406, 68.36537170410156, -0.1120000034570694, 0.1120000034570694, 1.040000081062317, 0.0, 0.0, 0.0, 0.0, 0.0, 1.62030262933382E9, 2021-05-06 14:03:49.333
39.0, 341.7688903808594, -394.11065673828125, 302.1053771972656, 62.1608772277832, -0.1120000034570694, 0.1120000034570694, 1.040000081062317, 0.0, 0.0, 0.0, 0.0, 0.0, 1.6203026293345468E9, 2021-05-06 14:03:49.334
39.0, 346.6419677734375, -395.5505065917969, 295.0032958984375, 67.53511047363281, -0.1120000034570694, 0.1120000034570694, 1.040000081062317, 0.0, 0.0, 0.0, 0.0, 0.0, 1.6203026293345468E9, 2021-05-06 14:03:49.334
40.0, 352.6108703613281, -401.3660583496094, 288.5220642089844, 61.66347122192383, -0.1120000034570694, 0.1120000034570694, 1.040000081062317, 0.0, 0.0, 0.0, 0.0, 0.0, 1.6203026293468225E9, 2021-05-06 14:03:49.346
40.0, 348.313720703125, -393.003662109375, 305.8714599609375, 71.71258544921875, -0.1120000034570694, 0.1120000034570694, 1.040000081062317, 0.0, 0.0, 0.0, 0.0, 0.0, 1.6203026293468225E9, 2021-05-06 14:03:49.346
41.0, 347.7564697265625, -391.53759765625, 306.26788330078125, 69.3377456665039, -0.1120000034570694, 0.1120000034570694, 1.040000081062317, 0.0, 0.0, 0.0, 0.0, 0.0, 1.6203026293788161E9, 2021-05-06 14:03:49.378
41.0, 340.3514709472656, -396.6949157714844, 293.63824462890625, 60.47792053222656, -0.1120000034570694, 0.1120000034570694, 1.040000081062317, 0.0, 0.0, 0.0, 0.0, 0.0, 1.6203026293788161E9, 2021-05-06 14:03:49.378
42.0, 347.6741943359375, -403.82318115234375, 293.7279968261719, 68.08861541748047, -0.1120000034570694, 0.1120000034570694, 1.040000081062317, 0.0, 0.0, 0.0, 0.0, 0.0, 1.6203026293795204E9, 2021-05-06 14:03:49.379
42.0, 346.9037780761719, -406.3625793457031, 299.33038330078125, 60.96036911010742, -0.1120000034570694, 0.1120000034570694, 1.040000081062317, 0.0, 0.0, 0.0, 0.0, 0.0, 1.6203026293795204E9, 2021-05-06 14:03:49.379
43.0, 338.53387451171875, -404.27569580078125, 298.22711181640625, 57.61689758300781, -0.1120000034570694, 0.1120000034570694, 1.040000081062317, 0.0, 0.0, 0.0, 0.0, 0.0, 1.6203026293803167E9, 2021-05-06 14:03:49.380
43.0, 340.6656188964844, -401.033203125, 291.26715087890625, 57.437381744384766, -0.1120000034570694, 0.1120000034570694, 1.040000081062317, 0.0, 0.0, 0.0, 0.0, 0.0, 1.6203026293803167E9, 2021-05-06 14:03:49.380
44.0, 353.6916809082031, -390.3109130859375, 295.4147033691406, 70.17548370361328, -0.1120000034570694, 0.1120000034570694, 1.040000081062317, 0.0, 0.0, 0.0, 0.0, 0.0, 1.6203026293810313E9, 2021-05-06 14:03:49.381
44.0, 341.23406982421875, -399.9112548828125, 287.23553466796875, 52.2725830078125, -0.1120000034570694, 0.1120000034570694, 1.040000081062317, 0.0, 0.0, 0.0, 0.0, 0.0, 1.6203026293810313E9, 2021-05-06 14:03:49.381
45.0, 345.2170715332031, -401.90087890625, 296.51422119140625, 49.759368896484375, -0.1120000034570694, 0.1120000034570694, 1.040000081062317, 0.0, 0.0, 0.0, 0.0, 0.0, 1.6203026294071689E9, 2021-05-06 14:03:49.407
45.0, 340.38885498046875, -395.62530517578125, 285.24591064453125, 50.87759780883789, -0.1120000034570694, 0.1120000034570694, 1.040000081062317, 0.0, 0.0, 0.0, 0.0, 0.0, 1.6203026294071689E9, 2021-05-06 14:03:49.407
46.0, 346.6980895996094, -396.3545837402344, 285.7956848144531, 62.994873046875, -0.1120000034570694, 0.1120000034570694, 1.040000081062317, 0.0, 0.0, 0.0, 0.0, 0.0, 1.620302629423641E9, 2021-05-06 14:03:49.423
46.0, 347.61810302734375, -397.9328308105469, 293.436279296875, 57.254127502441406, -0.1120000034570694, 0.1120000034570694, 1.040000081062317, 0.0, 0.0, 0.0, 0.0, 0.0, 1.620302629423641E9, 2021-05-06 14:03:49.423
47.0, 348.2239685058594, -401.971923828125, 301.9632568359375, 59.71124267578125, -0.1120000034570694, 0.1120000034570694, 1.040000081062317, 0.0, 0.0, 0.0, 0.0, 0.0, 1.6203026294243824E9, 2021-05-06 14:03:49.424
47.0, 348.20526123046875, -388.4484558105469, 297.3108215332031, 58.7276496887207, -0.1120000034570694, 0.1120000034570694, 1.040000081062317, 0.0, 0.0, 0.0, 0.0, 0.0, 1.6203026294243824E9, 2021-05-06 14:03:49.424
48.0, 355.37091064453125, -389.64520263671875, 293.38018798828125, 61.828025817871094, -0.1120000034570694, 0.1120000034570694, 1.040000081062317, 0.0, 0.0, 0.0, 0.0, 0.0, 1.6203026294374108E9, 2021-05-06 14:03:49.437
48.0, 342.6141052246094, -400.6554870605469, 288.0545654296875, 52.2426643371582, -0.1120000034570694, 0.1120000034570694, 1.040000081062317, 0.0, 0.0, 0.0, 0.0, 0.0, 1.6203026294374108E9, 2021-05-06 14:03:49.437
49.0, 348.04071044921875, -392.2294921875, 296.31976318359375, 60.115150451660156, -0.1120000034570694, 0.1120000034570694, 1.040000081062317, 0.0, 0.0, 0.0, 0.0, 0.0, 1.6203026294381032E9, 2021-05-06 14:03:49.438
49.0, 342.70013427734375, -400.5769348144531, 287.53472900390625, 53.50674819946289, -0.1120000034570694, 0.1120000034570694, 1.040000081062317, 0.0, 0.0, 0.0, 0.0, 0.0, 1.6203026294381032E9, 2021-05-06 14:03:49.438
50.0, 356.436767578125, -396.2498779296875, 286.1397399902344, 62.31795120239258, -0.1120000034570694, 0.1120000034570694, 1.040000081062317, 0.0, 0.0, 0.0, 0.0, 0.0, 1.620302629452425E9, 2021-05-06 14:03:49.452
50.0, 349.98919677734375, -402.323486328125, 294.5096435546875, 63.013572692871094, -0.1120000034570694, 0.1120000034570694, 1.040000081062317, 0.0, 0.0, 0.0, 0.0, 0.0, 1.620302629452425E9, 2021-05-06 14:03:49.452
51.0, 348.5904541015625, -397.00909423828125, 305.6470642089844, 62.80413818359375, -0.1120000034570694, 0.1120000034570694, 1.040000081062317, 0.0, 0.0, 0.0, 0.0, 0.0, 1.6203026294531977E9, 2021-05-06 14:03:49.453
51.0, 348.7998962402344, -391.1075134277344, 296.1177978515625, 63.92985153198242, -0.1120000034570694, 0.1120000034570694, 1.040000081062317, 0.0, 0.0, 0.0, 0.0, 0.0, 1.6203026294531977E9, 2021-05-06 14:03:49.453
52.0, 354.0282897949219, -405.6258239746094, 284.72607421875, 59.43449020385742, -0.1120000034570694, 0.1120000034570694, 1.040000081062317, 0.0, 0.0, 0.0, 0.0, 0.0, 1.6203026294668221E9, 2021-05-06 14:03:49.466
52.0, 346.765380859375, -393.2691650390625, 292.74066162109375, 60.264747619628906, -0.1120000034570694, 0.1120000034570694, 1.040000081062317, 0.0, 0.0, 0.0, 0.0, 0.0, 1.6203026294668221E9, 2021-05-06 14:03:49.466
53.0, 350.96905517578125, -395.13165283203125, 300.1045227050781, 58.435935974121094, -0.1120000034570694, 0.1120000034570694, 1.040000081062317, 0.0, 0.0, 0.0, 0.0, 0.0, 1.6203026294823697E9, 2021-05-06 14:03:49.482
53.0, 349.86578369140625, -400.1393737792969, 292.56488037109375, 58.85106658935547, -0.1120000034570694, 0.1120000034570694, 1.040000081062317, 0.0, 0.0, 0.0, 0.0, 0.0, 1.6203026294823697E9, 2021-05-06 14:03:49.482
54.0, 343.5827331542969, -396.7884216308594, 286.4464111328125, 60.597599029541016, -0.1120000034570694, 0.1120000034570694, 1.040000081062317, 0.0, 0.0, 0.0, 0.0, 0.0, 1.6203026294831657E9, 2021-05-06 14:03:49.483
54.0, 352.18450927734375, -389.03936767578125, 308.2388000488281, 68.84407806396484, -0.1120000034570694, 0.1120000034570694, 1.040000081062317, 0.0, 0.0, 0.0, 0.0, 0.0, 1.6203026294831657E9, 2021-05-06 14:03:49.483
55.0, 346.9224548339844, -411.3740234375, 298.3168640136719, 54.49034118652344, -0.1120000034570694, 0.1120000034570694, 1.040000081062317, 0.0, 0.0, 0.0, 0.0, 0.0, 1.6203026294967873E9, 2021-05-06 14:03:49.496
55.0, 349.4581298828125, -409.4031066894531, 290.2424011230469, 59.1689567565918, -0.1120000034570694, 0.1120000034570694, 1.040000081062317, 0.0, 0.0, 0.0, 0.0, 0.0, 1.6203026294967873E9, 2021-05-06 14:03:49.496
56.0, 354.6977233886719, -387.2591552734375, 296.6451110839844, 66.73477172851562, -0.1120000034570694, 0.1120000034570694, 1.040000081062317, 0.0, 0.0, 0.0, 0.0, 0.0, 1.62030262952944E9, 2021-05-06 14:03:49.529
56.0, 356.97906494140625, -393.22430419921875, 303.3956298828125, 62.9425163269043, -0.1120000034570694, 0.1120000034570694, 1.040000081062317, 0.0, 0.0, 0.0, 0.0, 0.0, 1.62030262952944E9, 2021-05-06 14:03:49.529
57.0, 346.9897766113281, -400.7789001464844, 297.1724548339844, 54.527740478515625, -0.1120000034570694, 0.1120000034570694, 1.040000081062317, 0.0, 0.0, 0.0, 0.0, 0.0, 1.6203026295302093E9, 2021-05-06 14:03:49.530
57.0, 355.7748107910156, -393.10089111328125, 298.26824951171875, 61.19972229003906, -0.1120000034570694, 0.1120000034570694, 1.040000081062317, 0.0, 0.0, 0.0, 0.0, 0.0, 1.6203026295302093E9, 2021-05-06 14:03:49.530
58.0, 352.59588623046875, -390.22491455078125, 292.4676513671875, 69.22928619384766, -0.1120000034570694, 0.1120000034570694, 1.040000081062317, 0.0, 0.0, 0.0, 0.0, 0.0, 1.6203026295309713E9, 2021-05-06 14:03:49.530
58.0, 352.64453125, -397.36810302734375, 302.8421325683594, 61.932743072509766, -0.1120000034570694, 0.1120000034570694, 1.040000081062317, 0.0, 0.0, 0.0, 0.0, 0.0, 1.6203026295309713E9, 2021-05-06 14:03:49.530
59.0, 344.83935546875, -403.0826721191406, 302.3896179199219, 55.114906311035156, -0.1120000034570694, 0.1120000034570694, 1.040000081062317, 0.0, 0.0, 0.0, 0.0, 0.0, 1.620302629531746E9, 2021-05-06 14:03:49.531
59.0, 352.9287414550781, -393.2841491699219, 304.2707824707031, 66.67493438720703, -0.1120000034570694, 0.1120000034570694, 1.040000081062317, 0.0, 0.0, 0.0, 0.0, 0.0, 1.620302629531746E9, 2021-05-06 14:03:49.531
60.0, 347.1506042480469, -400.9172668457031, 290.3770446777344, 60.96036911010742, -0.1120000034570694, 0.1120000034570694, 1.040000081062317, 0.0, 0.0, 0.0, 0.0, 0.0, 1.6203026295416603E9, 2021-05-06 14:03:49.541
60.0, 350.3220520019531, -398.4938049316406, 304.4054260253906, 64.47213745117188, -0.1120000034570694, 0.1120000034570694, 1.040000081062317, 0.0, 0.0, 0.0, 0.0, 0.0, 1.6203026295416603E9, 2021-05-06 14:03:49.541
61.0, 338.53387451171875, -410.4166259765625, 299.36029052734375, 52.23518371582031, -0.1120000034570694, 0.1120000034570694, 1.040000081062317, 0.0, 0.0, 0.0, 0.0, 0.0, 1.6203026295567963E9, 2021-05-06 14:03:49.556
61.0, 351.8666076660156, -402.0766296386719, 293.0211486816406, 61.49143600463867, -0.1120000034570694, 0.1120000034570694, 1.040000081062317, 0.0, 0.0, 0.0, 0.0, 0.0, 1.6203026295567963E9, 2021-05-06 14:03:49.556
62.0, 350.1911315917969, -403.9615478515625, 289.8048400878906, 60.29092788696289, -0.1120000034570694, 0.1120000034570694, 1.040000081062317, 0.0, 0.0, 0.0, 0.0, 0.0, 1.6203026295723584E9, 2021-05-06 14:03:49.572
62.0, 355.60650634765625, -387.30029296875, 304.4652404785156, 62.75178146362305, -0.1120000034570694, 0.1120000034570694, 1.040000081062317, 0.0, 0.0, 0.0, 0.0, 0.0, 1.6203026295723584E9, 2021-05-06 14:03:49.572
63.0, 344.7271423339844, -397.8206481933594, 297.004150390625, 55.44401550292969, -0.1120000034570694, 0.1120000034570694, 1.040000081062317, 0.0, 0.0, 0.0, 0.0, 0.0, 1.6203026295730536E9, 2021-05-06 14:03:49.573
63.0, 342.9544372558594, -398.0338134765625, 288.8362121582031, 53.27113342285156, -0.1120000034570694, 0.1120000034570694, 1.040000081062317, 0.0, 0.0, 0.0, 0.0, 0.0, 1.6203026295730536E9, 2021-05-06 14:03:49.573
64.0, 352.6258239746094, -402.51422119140625, 290.15264892578125, 58.69398880004883, -0.1120000034570694, 0.1120000034570694, 1.040000081062317, 0.0, 0.0, 0.0, 0.0, 0.0, 1.6203026295868363E9, 2021-05-06 14:03:49.586
64.0, 346.260498046875, -399.0548095703125, 294.8985900878906, 56.96989440917969, -0.1120000034570694, 0.1120000034570694, 1.040000081062317, 0.0, 0.0, 0.0, 0.0, 0.0, 1.6203026295868363E9, 2021-05-06 14:03:49.586
65.0, 339.0537109375, -399.3652038574219, 301.0993347167969, 50.39889144897461, -0.1120000034570694, 0.1120000034570694, 1.040000081062317, 0.0, 0.0, 0.0, 0.0, 0.0, 1.6203026296502087E9, 2021-05-06 14:03:49.650
65.0, 351.4776611328125, -383.7361755371094, 307.2103271484375, 69.6780776977539, -0.1120000034570694, 0.1120000034570694, 1.040000081062317, 0.0, 0.0, 0.0, 0.0, 0.0, 1.6203026296502087E9, 2021-05-06 14:03:49.650
66.0, 347.9023132324219, -409.5676574707031, 290.3359069824219, 62.8826789855957, -0.1120000034570694, 0.1120000034570694, 1.040000081062317, 0.0, 0.0, 0.0, 0.0, 0.0, 1.6203026296508217E9, 2021-05-06 14:03:49.650
66.0, 346.11090087890625, -408.4756164550781, 301.5182189941406, 61.62232971191406, -0.1120000034570694, 0.1120000034570694, 1.040000081062317, 0.0, 0.0, 0.0, 0.0, 0.0, 1.6203026296508217E9, 2021-05-06 14:03:49.650
67.0, 351.3617248535156, -387.0459899902344, 313.6466979980469, 57.736576080322266, -0.1120000034570694, 0.1120000034570694, 1.040000081062317, 0.0, 0.0, 0.0, 0.0, 0.0, 1.6203026296517444E9, 2021-05-06 14:03:49.651
67.0, 344.8094177246094, -390.3558044433594, 298.7656555175781, 60.56768035888672, -0.1120000034570694, 0.1120000034570694, 1.040000081062317, 0.0, 0.0, 0.0, 0.0, 0.0, 1.6203026296517444E9, 2021-05-06 14:03:49.651
68.0, 343.4181823730469, -398.8902587890625, 289.6515197753906, 60.3245849609375, -0.1120000034570694, 0.1120000034570694, 1.040000081062317, 0.0, 0.0, 0.0, 0.0, 0.0, 1.6203026296523428E9, 2021-05-06 14:03:49.652
68.0, 341.8923034667969, -396.4368896484375, 298.2532958984375, 57.22420883178711, -0.1120000034570694, 0.1120000034570694, 1.040000081062317, 0.0, 0.0, 0.0, 0.0, 0.0, 1.6203026296523428E9, 2021-05-06 14:03:49.652
69.0, 340.6244812011719, -388.5307312011719, 301.5444030761719, 59.33725357055664, -0.1120000034570694, 0.1120000034570694, 1.040000081062317, 0.0, 0.0, 0.0, 0.0, 0.0, 1.6203026296637433E9, 2021-05-06 14:03:49.663
69.0, 353.6916809082031, -386.4176940917969, 304.973876953125, 70.01466369628906, -0.1120000034570694, 0.1120000034570694, 1.040000081062317, 0.0, 0.0, 0.0, 0.0, 0.0, 1.6203026296637433E9, 2021-05-06 14:03:49.663
70.0, 346.8102722167969, -386.63458251953125, 295.58673095703125, 64.0570068359375, -0.1120000034570694, 0.1120000034570694, 1.040000081062317, 0.0, 0.0, 0.0, 0.0, 0.0, 1.6203026296644278E9, 2021-05-06 14:03:49.664
70.0, 346.9112548828125, -397.2484436035156, 299.96240234375, 61.05386734008789, -0.1120000034570694, 0.1120000034570694, 1.040000081062317, 0.0, 0.0, 0.0, 0.0, 0.0, 1.6203026296644278E9, 2021-05-06 14:03:49.664
71.0, 340.1233215332031, -395.1353759765625, 305.0150146484375, 57.830074310302734, -0.1120000034570694, 0.1120000034570694, 1.040000081062317, 0.0, 0.0, 0.0, 0.0, 0.0, 1.6203026296650808E9, 2021-05-06 14:03:49.665
71.0, 347.2702941894531, -391.0962829589844, 301.5294189453125, 60.86687088012695, -0.1120000034570694, 0.1120000034570694, 1.040000081062317, 0.0, 0.0, 0.0, 0.0, 0.0, 1.6203026296650808E9, 2021-05-06 14:03:49.665
72.0, 353.5906982421875, -395.7375183105469, 294.0795593261719, 67.11998748779297, -0.1120000034570694, 0.1120000034570694, 1.040000081062317, 0.0, 0.0, 0.0, 0.0, 0.0, 1.6203026296774929E9, 2021-05-06 14:03:49.677
72.0, 350.40057373046875, -389.62652587890625, 293.6719055175781, 63.95602798461914, -0.1120000034570694, 0.1120000034570694, 1.040000081062317, 0.0, 0.0, 0.0, 0.0, 0.0, 1.6203026296774929E9, 2021-05-06 14:03:49.677
73.0, 342.9806213378906, -399.3876647949219, 306.499755859375, 62.403968811035156, -0.1120000034570694, 0.1120000034570694, 1.040000081062317, 0.0, 0.0, 0.0, 0.0, 0.0, 1.620302629678184E9, 2021-05-06 14:03:49.678
73.0, 348.9307861328125, -386.59344482421875, 300.9871520996094, 69.70799255371094, -0.1120000034570694, 0.1120000034570694, 1.040000081062317, 0.0, 0.0, 0.0, 0.0, 0.0, 1.620302629678184E9, 2021-05-06 14:03:49.678
74.0, 352.2218933105469, -389.1964416503906, 298.14483642578125, 70.66166687011719, -0.1120000034570694, 0.1120000034570694, 1.040000081062317, 0.0, 0.0, 0.0, 0.0, 0.0, 1.6203026296924877E9, 2021-05-06 14:03:49.692
74.0, 352.45751953125, -394.27520751953125, 303.8481750488281, 63.95977020263672, -0.1120000034570694, 0.1120000034570694, 1.040000081062317, 0.0, 0.0, 0.0, 0.0, 0.0, 1.6203026296924877E9, 2021-05-06 14:03:49.692
75.0, 346.5783996582031, -409.75091552734375, 304.0912780761719, 58.82114791870117, -0.1120000034570694, 0.1120000034570694, 1.040000081062317, 0.0, 0.0, 0.0, 0.0, 0.0, 1.6203026296932368E9, 2021-05-06 14:03:49.693
75.0, 349.88446044921875, -387.4573669433594, 302.7598571777344, 64.1205825805664, -0.1120000034570694, 0.1120000034570694, 1.040000081062317, 0.0, 0.0, 0.0, 0.0, 0.0, 1.6203026296932368E9, 2021-05-06 14:03:49.693
76.0, 354.3050231933594, -393.9386291503906, 297.9466247558594, 69.41254425048828, -0.1120000034570694, 0.1120000034570694, 1.040000081062317, 0.0, 0.0, 0.0, 0.0, 0.0, 1.6203026297066624E9, 2021-05-06 14:03:49.706
76.0, 353.0035400390625, -389.08050537109375, 300.7964172363281, 70.25775909423828, -0.1120000034570694, 0.1120000034570694, 1.040000081062317, 0.0, 0.0, 0.0, 0.0, 0.0, 1.6203026297066624E9, 2021-05-06 14:03:49.706
77.0, 344.4129943847656, -390.5353088378906, 300.9721984863281, 60.33954620361328, -0.1120000034570694, 0.1120000034570694, 1.040000081062317, 0.0, 0.0, 0.0, 0.0, 0.0, 1.6203026297224975E9, 2021-05-06 14:03:49.722
77.0, 347.9097900390625, -395.79736328125, 295.09307861328125, 63.361385345458984, -0.1120000034570694, 0.1120000034570694, 1.040000081062317, 0.0, 0.0, 0.0, 0.0, 0.0, 1.6203026297224975E9, 2021-05-06 14:03:49.722
78.0, 363.6061706542969, -384.7459411621094, 302.849609375, 83.03699493408203, -0.1120000034570694, 0.1120000034570694, 1.040000081062317, 0.0, 0.0, 0.0, 0.0, 0.0, 1.6203026297231913E9, 2021-05-06 14:03:49.723
78.0, 355.1764221191406, -391.15240478515625, 304.03143310546875, 67.22843933105469, -0.1120000034570694, 0.1120000034570694, 1.040000081062317, 0.0, 0.0, 0.0, 0.0, 0.0, 1.6203026297231913E9, 2021-05-06 14:03:49.723
79.0, 352.53607177734375, -393.003662109375, 304.24835205078125, 63.73911666870117, -0.1120000034570694, 0.1120000034570694, 1.040000081062317, 0.0, 0.0, 0.0, 0.0, 0.0, 1.6203026297366712E9, 2021-05-06 14:03:49.736
79.0, 357.985107421875, -391.7657470703125, 304.39794921875, 71.77242279052734, -0.1120000034570694, 0.1120000034570694, 1.040000081062317, 0.0, 0.0, 0.0, 0.0, 0.0, 1.6203026297366712E9, 2021-05-06 14:03:49.736
80.0, 368.04168701171875, -382.6029968261719, 300.6169128417969, 80.71826171875, -0.1120000034570694, 0.1120000034570694, 1.040000081062317, 0.0, 0.0, 0.0, 0.0, 0.0, 1.620302629753196E9, 2021-05-06 14:03:49.753
