Sample Index, EXG Channel 0, EXG Channel 1, EXG Channel 2, EXG Channel 3, Accel Channel 0, Accel Channel 1, Accel Channel 2, Other, Other, Other, Other, Other, Timestamp, Timestamp (Formatted)
0.0, 94.62320709228516, 105.00704193115234, 357.47833251953125, -77.52625274658203, 0.0, 0.0, 0.0, 0.0, 0.0, 0.0, 0.0, 0.0, 1.6203092949286692E9, 2021-05-06 15:54:54.928
1.0, 95.29264831542969, 96.37908935546875, 352.7959899902344, -79.42986297607422, 0.0, 0.03200000151991844, 0.0, 0.0, 0.0, 0.0, 0.0, 0.0, 1.620309294929397E9, 2021-05-06 15:54:54.929
1.0, 101.88609313964844, 100.08907318115234, 360.021484375, -73.75643920898438, 0.0, 0.03200000151991844, 0.0, 0.0, 0.0, 0.0, 0.0, 0.0, 1.620309294929397E9, 2021-05-06 15:54:54.929
2.0, 100.68558502197266, 98.44351959228516, 364.1203918457031, -73.29268646240234, 0.01600000075995922, 0.03200000151991844, 0.0, 0.0, 0.0, 0.0, 0.0, 0.0, 1.6203092949446907E9, 2021-05-06 15:54:54.944
2.0, 99.2270278930664, 101.61121368408203, 358.41705322265625, -73.15057373046875, 0.01600000075995922, 0.03200000151991844, 0.0, 0.0, 0.0, 0.0, 0.0, 0.0, 1.6203092949446907E9, 2021-05-06 15:54:54.944
3.0, 96.49315643310547, 99.87216186523438, 347.0926208496094, -80.60419464111328, 0.01600000075995922, 0.03200000151991844, 0.0, 0.0, 0.0, 0.0, 0.0, 0.0, 1.6203092949454477E9, 2021-05-06 15:54:54.945
3.0, 103.69620513916016, 104.06832885742188, 359.2809753417969, -74.51564025878906, 0.01600000075995922, 0.03200000151991844, 0.0, 0.0, 0.0, 0.0, 0.0, 0.0, 1.6203092949454477E9, 2021-05-06 15:54:54.945
4.0, 108.59173583984375, 104.60313415527344, 359.7297668457031, -69.54157257080078, 0.01600000075995922, 0.03200000151991844, 0.0, 0.0, 0.0, 0.0, 0.0, 0.0, 1.620309294957914E9, 2021-05-06 15:54:54.957
4.0, 93.26936340332031, 98.04335021972656, 355.5784606933594, -78.23310089111328, 0.01600000075995922, 0.03200000151991844, 0.0, 0.0, 0.0, 0.0, 0.0, 0.0, 1.620309294957914E9, 2021-05-06 15:54:54.957
5.0, 98.85677337646484, 100.67997741699219, 349.9386901855469, -81.15396118164062, 0.01600000075995922, 0.03200000151991844, 0.0, 0.0, 0.0, 0.0, 0.0, 0.0, 1.6203092949739077E9, 2021-05-06 15:54:54.973
5.0, 103.10903930664062, 99.73377990722656, 358.21136474609375, -79.84125518798828, 0.01600000075995922, 0.03200000151991844, 0.0, 0.0, 0.0, 0.0, 0.0, 0.0, 1.6203092949739077E9, 2021-05-06 15:54:54.973
6.0, 104.17864990234375, 106.35714721679688, 369.1468200683594, -70.89541625976562, 0.01600000075995922, 0.03200000151991844, 0.0, 0.0, 0.0, 0.0, 0.0, 0.0, 1.6203092949885209E9, 2021-05-06 15:54:54.988
6.0, 94.69426727294922, 103.11090850830078, 363.33502197265625, -71.40029907226562, 0.01600000075995922, 0.03200000151991844, 0.0, 0.0, 0.0, 0.0, 0.0, 0.0, 1.6203092949885209E9, 2021-05-06 15:54:54.988
7.0, 95.1729736328125, 95.87420654296875, 351.0980529785156, -82.67610168457031, 0.01600000075995922, 0.03200000151991844, 0.0, 0.0, 0.0, 0.0, 0.0, 0.0, 1.6203092949892397E9, 2021-05-06 15:54:54.989
7.0, 100.09841918945312, 103.92620849609375, 362.13824462890625, -75.25988006591797, 0.01600000075995922, 0.03200000151991844, 0.0, 0.0, 0.0, 0.0, 0.0, 0.0, 1.6203092949892397E9, 2021-05-06 15:54:54.989
8.0, 99.64215087890625, 97.65813446044922, 365.65374755859375, -73.28520965576172, 0.01600000075995922, 0.03200000151991844, 0.0, 0.0, 0.0, 0.0, 0.0, 0.0, 1.6203092950035326E9, 2021-05-06 15:54:55.003
8.0, 96.18648529052734, 99.53182983398438, 362.05596923828125, -73.97708892822266, 0.01600000075995922, 0.03200000151991844, 0.0, 0.0, 0.0, 0.0, 0.0, 0.0, 1.6203092950035326E9, 2021-05-06 15:54:55.003
9.0, 94.0472640991211, 97.6506576538086, 357.1866149902344, -78.82774353027344, 0.01600000075995922, 0.03200000151991844, 0.0, 0.0, 0.0, 0.0, 0.0, 0.0, 1.6203092950043235E9, 2021-05-06 15:54:55.004
9.0, 98.93905639648438, 104.5582504272461, 364.72625732421875, -76.51274108886719, 0.01600000075995922, 0.03200000151991844, 0.0, 0.0, 0.0, 0.0, 0.0, 0.0, 1.6203092950043235E9, 2021-05-06 15:54:55.004
10.0, 98.86799621582031, 109.12841033935547, 370.2613220214844, -72.1968994140625, 0.01600000075995922, 0.03200000151991844, 1.055999994277954, 0.0, 0.0, 0.0, 0.0, 0.0, 1.6203092950178564E9, 2021-05-06 15:54:55.017
10.0, 97.84326171875, 110.31021881103516, 364.8122863769531, -73.61805725097656, 0.01600000075995922, 0.03200000151991844, 1.055999994277954, 0.0, 0.0, 0.0, 0.0, 0.0, 1.6203092950178564E9, 2021-05-06 15:54:55.017
11.0, 88.39627838134766, 97.84886932373047, 346.64385986328125, -85.0845947265625, 0.01600000075995922, 0.03200000151991844, 1.055999994277954, 0.0, 0.0, 0.0, 0.0, 0.0, 1.6203092950338483E9, 2021-05-06 15:54:55.033
11.0, 102.15162658691406, 106.25616455078125, 362.9460754394531, -72.62698364257812, 0.01600000075995922, 0.03200000151991844, 1.055999994277954, 0.0, 0.0, 0.0, 0.0, 0.0, 1.6203092950338483E9, 2021-05-06 15:54:55.033
12.0, 101.08949279785156, 105.37355041503906, 365.7958679199219, -80.98192596435547, 0.01600000075995922, 0.03200000151991844, 1.055999994277954, 0.0, 0.0, 0.0, 0.0, 0.0, 1.620309295048492E9, 2021-05-06 15:54:55.048
12.0, 100.47615051269531, 98.43229675292969, 361.0125427246094, -79.5046615600586, 0.01600000075995922, 0.03200000151991844, 1.055999994277954, 0.0, 0.0, 0.0, 0.0, 0.0, 1.620309295048492E9, 2021-05-06 15:54:55.048
13.0, 106.62828826904297, 99.02693939208984, 354.8155212402344, -84.4263687133789, 0.01600000075995922, 0.03200000151991844, 1.055999994277954, 0.0, 0.0, 0.0, 0.0, 0.0, 1.6203092950492218E9, 2021-05-06 15:54:55.049
13.0, 104.9864730834961, 99.53556823730469, 359.9915466308594, -81.228759765625, 0.01600000075995922, 0.03200000151991844, 1.055999994277954, 0.0, 0.0, 0.0, 0.0, 0.0, 1.6203092950492218E9, 2021-05-06 15:54:55.049
14.0, 104.70597839355469, 101.57007598876953, 366.4914855957031, -75.31597900390625, 0.01600000075995922, 0.03200000151991844, 1.055999994277954, 0.0, 0.0, 0.0, 0.0, 0.0, 1.620309295063443E9, 2021-05-06 15:54:55.063
14.0, 93.84905242919922, 95.20850372314453, 354.6622009277344, -83.31562042236328, 0.01600000075995922, 0.03200000151991844, 1.055999994277954, 0.0, 0.0, 0.0, 0.0, 0.0, 1.620309295063443E9, 2021-05-06 15:54:55.063
15.0, 97.40569305419922, 95.48899841308594, 349.67315673828125, -87.62398529052734, 0.01600000075995922, 0.03200000151991844, 1.055999994277954, 0.0, 0.0, 0.0, 0.0, 0.0, 1.6203092950641615E9, 2021-05-06 15:54:55.064
15.0, 103.47929382324219, 93.31237030029297, 351.7001953125, -83.33058166503906, 0.01600000075995922, 0.03200000151991844, 1.055999994277954, 0.0, 0.0, 0.0, 0.0, 0.0, 1.6203092950641615E9, 2021-05-06 15:54:55.064
16.0, 97.15138244628906, 88.63375854492188, 352.5753173828125, -80.0656509399414, 0.01600000075995922, 0.03200000151991844, 1.055999994277954, 0.0, 0.0, 0.0, 0.0, 0.0, 1.6203092950948963E9, 2021-05-06 15:54:55.094
16.0, 99.8328857421875, 92.98699951171875, 357.6204528808594, -74.77368927001953, 0.01600000075995922, 0.03200000151991844, 1.055999994277954, 0.0, 0.0, 0.0, 0.0, 0.0, 1.6203092950948963E9, 2021-05-06 15:54:55.094
17.0, 102.39472198486328, 89.10498809814453, 353.15875244140625, -76.52022552490234, 0.01600000075995922, 0.03200000151991844, 1.055999994277954, 0.0, 0.0, 0.0, 0.0, 0.0, 1.6203092950955687E9, 2021-05-06 15:54:55.095
17.0, 104.43296813964844, 95.83306884765625, 359.8793640136719, -80.76875305175781, 0.01600000075995922, 0.03200000151991844, 1.055999994277954, 0.0, 0.0, 0.0, 0.0, 0.0, 1.6203092950955687E9, 2021-05-06 15:54:55.095
18.0, 101.86739349365234, 93.3722152709961, 366.08758544921875, -73.57691955566406, 0.01600000075995922, 0.03200000151991844, 1.055999994277954, 0.0, 0.0, 0.0, 0.0, 0.0, 1.6203092950963025E9, 2021-05-06 15:54:55.096
18.0, 94.52970886230469, 101.8505630493164, 361.1210021972656, -73.41984558105469, 0.01600000075995922, 0.03200000151991844, 1.055999994277954, 0.0, 0.0, 0.0, 0.0, 0.0, 1.6203092950963025E9, 2021-05-06 15:54:55.096
19.0, 97.95545959472656, 96.51372528076172, 357.3212585449219, -76.7558364868164, 0.01600000075995922, 0.03200000151991844, 1.055999994277954, 0.0, 0.0, 0.0, 0.0, 0.0, 1.6203092951079247E9, 2021-05-06 15:54:55.107
19.0, 101.6990966796875, 95.88916778564453, 358.12908935546875, -77.78430938720703, 0.01600000075995922, 0.03200000151991844, 1.055999994277954, 0.0, 0.0, 0.0, 0.0, 0.0, 1.6203092951079247E9, 2021-05-06 15:54:55.107
20.0, 97.72358703613281, 94.43434143066406, 366.8430480957031, -72.58584594726562, 0.01600000075995922, 0.03200000151991844, 1.055999994277954, 0.0, 0.0, 0.0, 0.0, 0.0, 1.6203092951234903E9, 2021-05-06 15:54:55.123
20.0, 97.70488739013672, 98.24156188964844, 358.5180358886719, -69.50042724609375, 0.01600000075995922, 0.03200000151991844, 1.055999994277954, 0.0, 0.0, 0.0, 0.0, 0.0, 1.6203092951234903E9, 2021-05-06 15:54:55.123
21.0, 101.12689208984375, 94.91679382324219, 354.224609375, -85.49224090576172, 0.01600000075995922, 0.03200000151991844, 1.055999994277954, 0.0, 0.0, 0.0, 0.0, 0.0, 1.6203092951242175E9, 2021-05-06 15:54:55.124
21.0, 112.2792739868164, 100.93054962158203, 365.0179748535156, -78.15081787109375, 0.01600000075995922, 0.03200000151991844, 1.055999994277954, 0.0, 0.0, 0.0, 0.0, 0.0, 1.6203092951242175E9, 2021-05-06 15:54:55.124
22.0, 102.99684143066406, 95.67598724365234, 364.7486877441406, -73.86863708496094, 0.01600000075995922, 0.03200000151991844, 1.055999994277954, 0.0, 0.0, 0.0, 0.0, 0.0, 1.6203092951541655E9, 2021-05-06 15:54:55.154
22.0, 99.3280029296875, 104.51337432861328, 361.1845703125, -79.59815979003906, 0.01600000075995922, 0.03200000151991844, 1.055999994277954, 0.0, 0.0, 0.0, 0.0, 0.0, 1.6203092951541655E9, 2021-05-06 15:54:55.154
23.0, 93.61717224121094, 102.84163665771484, 356.0160217285156, -81.86827850341797, 0.01600000075995922, 0.03200000151991844, 1.055999994277954, 0.0, 0.0, 0.0, 0.0, 0.0, 1.6203092951548743E9, 2021-05-06 15:54:55.154
23.0, 94.96353912353516, 93.00944519042969, 352.5827941894531, -83.92522430419922, 0.01600000075995922, 0.03200000151991844, 1.055999994277954, 0.0, 0.0, 0.0, 0.0, 0.0, 1.6203092951548743E9, 2021-05-06 15:54:55.154
24.0, 100.06101989746094, 97.00739288330078, 361.1509094238281, -79.74028015136719, 0.01600000075995922, 0.03200000151991844, 1.055999994277954, 0.0, 0.0, 0.0, 0.0, 0.0, 1.6203092951556435E9, 2021-05-06 15:54:55.155
24.0, 102.22268676757812, 99.26629638671875, 356.34515380859375, -81.04924011230469, 0.01600000075995922, 0.03200000151991844, 1.055999994277954, 0.0, 0.0, 0.0, 0.0, 0.0, 1.6203092951556435E9, 2021-05-06 15:54:55.155
25.0, 99.33547973632812, 93.09919738769531, 342.4327087402344, -82.62000274658203, 0.01600000075995922, 0.03200000151991844, 1.055999994277954, 0.0, 0.0, 0.0, 0.0, 0.0, 1.620309295167811E9, 2021-05-06 15:54:55.167
25.0, 107.0583724975586, 92.18666076660156, 358.2898864746094, -76.80445861816406, 0.01600000075995922, 0.03200000151991844, 1.055999994277954, 0.0, 0.0, 0.0, 0.0, 0.0, 1.620309295167811E9, 2021-05-06 15:54:55.167
26.0, 103.64759063720703, 99.25133514404297, 365.75848388671875, -73.86863708496094, 0.01600000075995922, 0.03200000151991844, 1.055999994277954, 0.0, 0.0, 0.0, 0.0, 0.0, 1.6203092951835675E9, 2021-05-06 15:54:55.183
26.0, 93.83035278320312, 94.1575927734375, 357.3324890136719, -74.23514556884766, 0.01600000075995922, 0.03200000151991844, 1.055999994277954, 0.0, 0.0, 0.0, 0.0, 0.0, 1.6203092951835675E9, 2021-05-06 15:54:55.183
27.0, 94.3501968383789, 90.28679656982422, 351.7525634765625, -79.32888793945312, 0.01600000075995922, 0.03200000151991844, 1.055999994277954, 0.0, 0.0, 0.0, 0.0, 0.0, 1.620309295184203E9, 2021-05-06 15:54:55.184
27.0, 93.3254623413086, 89.31068420410156, 352.7323913574219, -80.88094329833984, 0.01600000075995922, 0.03200000151991844, 1.055999994277954, 0.0, 0.0, 0.0, 0.0, 0.0, 1.620309295184203E9, 2021-05-06 15:54:55.184
28.0, 106.07478332519531, 94.23239135742188, 367.134765625, -72.54470825195312, 0.01600000075995922, 0.03200000151991844, 1.055999994277954, 0.0, 0.0, 0.0, 0.0, 0.0, 1.6203092952142558E9, 2021-05-06 15:54:55.214
28.0, 90.92444610595703, 91.89495086669922, 350.4735107421875, -83.48765563964844, 0.01600000075995922, 0.03200000151991844, 1.055999994277954, 0.0, 0.0, 0.0, 0.0, 0.0, 1.6203092952142558E9, 2021-05-06 15:54:55.214
29.0, 100.0685043334961, 97.70301818847656, 354.61358642578125, -81.28485870361328, 0.01600000075995922, 0.03200000151991844, 1.055999994277954, 0.0, 0.0, 0.0, 0.0, 0.0, 1.6203092952150178E9, 2021-05-06 15:54:55.215
29.0, 106.65072631835938, 99.84223937988281, 360.7694396972656, -76.43046569824219, 0.01600000075995922, 0.03200000151991844, 1.055999994277954, 0.0, 0.0, 0.0, 0.0, 0.0, 1.6203092952150178E9, 2021-05-06 15:54:55.215
30.0, 104.34320831298828, 99.64402770996094, 365.44805908203125, -74.95694732666016, 0.01600000075995922, 0.03200000151991844, 1.055999994277954, 0.0, 0.0, 0.0, 0.0, 0.0, 1.6203092952157495E9, 2021-05-06 15:54:55.215
30.0, 95.1916732788086, 93.8583984375, 352.10784912109375, -85.45110321044922, 0.01600000075995922, 0.03200000151991844, 1.055999994277954, 0.0, 0.0, 0.0, 0.0, 0.0, 1.6203092952157495E9, 2021-05-06 15:54:55.215
31.0, 99.67207336425781, 94.2174301147461, 347.8443603515625, -86.27388000488281, 0.01600000075995922, 0.03200000151991844, 1.055999994277954, 0.0, 0.0, 0.0, 0.0, 0.0, 1.6203092952277794E9, 2021-05-06 15:54:55.227
31.0, 105.05378723144531, 98.7539291381836, 358.62274169921875, -80.42842102050781, 0.01600000075995922, 0.03200000151991844, 1.055999994277954, 0.0, 0.0, 0.0, 0.0, 0.0, 1.6203092952277794E9, 2021-05-06 15:54:55.227
32.0, 96.30242156982422, 90.05866241455078, 363.8586120605469, -83.7232666015625, 0.01600000075995922, 0.03200000151991844, 1.055999994277954, 0.0, 0.0, 0.0, 0.0, 0.0, 1.6203092952435377E9, 2021-05-06 15:54:55.243
32.0, 97.18504333496094, 93.43205261230469, 353.472900390625, -85.32394409179688, 0.01600000075995922, 0.03200000151991844, 1.055999994277954, 0.0, 0.0, 0.0, 0.0, 0.0, 1.6203092952435377E9, 2021-05-06 15:54:55.243
33.0, 93.08985137939453, 89.13490295410156, 352.7510986328125, -83.36798095703125, 0.01600000075995922, 0.03200000151991844, 1.055999994277954, 0.0, 0.0, 0.0, 0.0, 0.0, 1.620309295244229E9, 2021-05-06 15:54:55.244
33.0, 103.26612091064453, 93.69384002685547, 357.02581787109375, -82.71723937988281, 0.01600000075995922, 0.03200000151991844, 1.055999994277954, 0.0, 0.0, 0.0, 0.0, 0.0, 1.620309295244229E9, 2021-05-06 15:54:55.244
34.0, 104.88175201416016, 98.85490417480469, 368.11834716796875, -68.06804656982422, 0.01600000075995922, 0.03200000151991844, 1.055999994277954, 0.0, 0.0, 0.0, 0.0, 0.0, 1.6203092952743375E9, 2021-05-06 15:54:55.274
34.0, 97.43187713623047, 90.4887466430664, 354.9501647949219, -82.66487884521484, 0.01600000075995922, 0.03200000151991844, 1.055999994277954, 0.0, 0.0, 0.0, 0.0, 0.0, 1.6203092952743375E9, 2021-05-06 15:54:55.274
35.0, 101.14185333251953, 92.38114166259766, 355.7691955566406, -82.30958557128906, 0.01600000075995922, 0.03200000151991844, 1.055999994277954, 0.0, 0.0, 0.0, 0.0, 0.0, 1.6203092952749572E9, 2021-05-06 15:54:55.274
35.0, 105.16598510742188, 89.29572296142578, 352.1190490722656, -85.8250961303711, 0.01600000075995922, 0.03200000151991844, 1.055999994277954, 0.0, 0.0, 0.0, 0.0, 0.0, 1.6203092952749572E9, 2021-05-06 15:54:55.274
36.0, 104.97151184082031, 87.91195678710938, 359.43804931640625, -80.87720489501953, 0.01600000075995922, 0.03200000151991844, 1.055999994277954, 0.0, 0.0, 0.0, 0.0, 0.0, 1.620309295275758E9, 2021-05-06 15:54:55.275
36.0, 101.4747085571289, 94.49417877197266, 362.65435791015625, -78.12464141845703, 0.01600000075995922, 0.03200000151991844, 1.055999994277954, 0.0, 0.0, 0.0, 0.0, 0.0, 1.620309295275758E9, 2021-05-06 15:54:55.275
37.0, 95.4908676147461, 89.5575180053711, 351.4907531738281, -89.51637268066406, 0.01600000075995922, 0.03200000151991844, 1.055999994277954, 0.0, 0.0, 0.0, 0.0, 0.0, 1.6203092952878428E9, 2021-05-06 15:54:55.287
37.0, 100.67810821533203, 86.48705291748047, 349.00372314453125, -87.49308776855469, 0.01600000075995922, 0.03200000151991844, 1.055999994277954, 0.0, 0.0, 0.0, 0.0, 0.0, 1.6203092952878428E9, 2021-05-06 15:54:55.287
38.0, 104.95655059814453, 97.00739288330078, 357.60174560546875, -78.51358795166016, 0.01600000075995922, 0.03200000151991844, 1.055999994277954, 0.0, 0.0, 0.0, 0.0, 0.0, 1.6203092953192184E9, 2021-05-06 15:54:55.319
38.0, 99.76183319091797, 96.2070541381836, 355.55975341796875, -84.47499084472656, 0.01600000075995922, 0.03200000151991844, 1.055999994277954, 0.0, 0.0, 0.0, 0.0, 0.0, 1.6203092953192184E9, 2021-05-06 15:54:55.319
39.0, 103.84954071044922, 90.88517761230469, 351.72637939453125, -90.93753814697266, 0.01600000075995922, 0.03200000151991844, 1.055999994277954, 0.0, 0.0, 0.0, 0.0, 0.0, 1.6203092953199716E9, 2021-05-06 15:54:55.319
39.0, 98.2471694946289, 90.67574310302734, 350.8774108886719, -90.7842025756836, 0.01600000075995922, 0.03200000151991844, 1.055999994277954, 0.0, 0.0, 0.0, 0.0, 0.0, 1.6203092953199716E9, 2021-05-06 15:54:55.319
40.0, 100.88005828857422, 91.09835052490234, 355.9711608886719, -88.33082580566406, 0.01600000075995922, 0.03200000151991844, 1.055999994277954, 0.0, 0.0, 0.0, 0.0, 0.0, 1.620309295320737E9, 2021-05-06 15:54:55.320
40.0, 99.0699462890625, 98.4958724975586, 355.0436706542969, -81.08290100097656, 0.01600000075995922, 0.03200000151991844, 1.055999994277954, 0.0, 0.0, 0.0, 0.0, 0.0, 1.620309295320737E9, 2021-05-06 15:54:55.320
41.0, 99.13352966308594, 92.74765014648438, 347.05523681640625, -87.7137451171875, 0.01600000075995922, 0.03200000151991844, 1.055999994277954, 0.0, 0.0, 0.0, 0.0, 0.0, 1.620309295333472E9, 2021-05-06 15:54:55.333
41.0, 100.58834838867188, 89.89784240722656, 348.83917236328125, -87.837158203125, 0.01600000075995922, 0.03200000151991844, 1.055999994277954, 0.0, 0.0, 0.0, 0.0, 0.0, 1.620309295333472E9, 2021-05-06 15:54:55.333
42.0, 98.98393249511719, 90.90387725830078, 354.5126037597656, -86.08314514160156, 0.01600000075995922, 0.03200000151991844, 1.055999994277954, 0.0, 0.0, 0.0, 0.0, 0.0, 1.6203092953341763E9, 2021-05-06 15:54:55.334
42.0, 91.87812042236328, 94.80833435058594, 350.3575744628906, -89.79312896728516, 0.01600000075995922, 0.03200000151991844, 1.055999994277954, 0.0, 0.0, 0.0, 0.0, 0.0, 1.6203092953341763E9, 2021-05-06 15:54:55.334
43.0, 96.27998352050781, 88.80205535888672, 340.573974609375, -93.40213012695312, 0.01600000075995922, 0.03200000151991844, 1.055999994277954, 0.0, 0.0, 0.0, 0.0, 0.0, 1.6203092953478675E9, 2021-05-06 15:54:55.347
43.0, 108.85726928710938, 97.37390899658203, 357.5980224609375, -85.73907470703125, 0.01600000075995922, 0.03200000151991844, 1.055999994277954, 0.0, 0.0, 0.0, 0.0, 0.0, 1.6203092953478675E9, 2021-05-06 15:54:55.347
44.0, 103.8869400024414, 93.15155792236328, 359.5652160644531, -85.57452392578125, 0.01600000075995922, 0.03200000151991844, 1.055999994277954, 0.0, 0.0, 0.0, 0.0, 0.0, 1.6203092953636048E9, 2021-05-06 15:54:55.363
44.0, 99.41776275634766, 94.17255401611328, 351.6777648925781, -86.83113098144531, 0.01600000075995922, 0.03200000151991844, 1.055999994277954, 0.0, 0.0, 0.0, 0.0, 0.0, 1.6203092953636048E9, 2021-05-06 15:54:55.363
45.0, 104.06645965576172, 91.0459976196289, 353.6673889160156, -87.0517807006836, 0.01600000075995922, 0.03200000151991844, 1.055999994277954, 0.0, 0.0, 0.0, 0.0, 0.0, 1.6203092953642204E9, 2021-05-06 15:54:55.364
45.0, 103.30352020263672, 87.7137451171875, 351.266357421875, -91.66307830810547, 0.01600000075995922, 0.03200000151991844, 1.055999994277954, 0.0, 0.0, 0.0, 0.0, 0.0, 1.6203092953642204E9, 2021-05-06 15:54:55.364
46.0, 96.7175521850586, 89.7669448852539, 358.14404296875, -81.66258239746094, 0.01600000075995922, 0.03200000151991844, 1.055999994277954, 0.0, 0.0, 0.0, 0.0, 0.0, 1.620309295377908E9, 2021-05-06 15:54:55.377
46.0, 95.9583511352539, 94.36328887939453, 356.524658203125, -82.07023620605469, 0.01600000075995922, 0.03200000151991844, 1.055999994277954, 0.0, 0.0, 0.0, 0.0, 0.0, 1.620309295377908E9, 2021-05-06 15:54:55.377
47.0, 99.62345123291016, 86.73014831542969, 348.40533447265625, -92.51577758789062, 0.01600000075995922, 0.03200000151991844, 1.055999994277954, 0.0, 0.0, 0.0, 0.0, 0.0, 1.620309295393777E9, 2021-05-06 15:54:55.393
47.0, 101.90479278564453, 93.52555084228516, 358.37591552734375, -89.41913604736328, 0.01600000075995922, 0.03200000151991844, 1.055999994277954, 0.0, 0.0, 0.0, 0.0, 0.0, 1.620309295393777E9, 2021-05-06 15:54:55.393
48.0, 108.31124114990234, 101.37934112548828, 364.3485412597656, -79.71409606933594, 0.01600000075995922, 0.03200000151991844, 1.055999994277954, 0.0, 0.0, 0.0, 0.0, 0.0, 1.6203092953942091E9, 2021-05-06 15:54:55.394
48.0, 99.0475082397461, 95.44037628173828, 353.22979736328125, -84.45629119873047, 0.01600000075995922, 0.03200000151991844, 1.055999994277954, 0.0, 0.0, 0.0, 0.0, 0.0, 1.6203092953942091E9, 2021-05-06 15:54:55.394
49.0, 98.52766418457031, 95.7657470703125, 348.7269592285156, -93.31237030029297, 0.01600000075995922, 0.03200000151991844, 1.055999994277954, 0.0, 0.0, 0.0, 0.0, 0.0, 1.6203092954078832E9, 2021-05-06 15:54:55.407
49.0, 101.90853118896484, 89.5799560546875, 351.9956359863281, -90.57102966308594, 0.01600000075995922, 0.03200000151991844, 1.055999994277954, 0.0, 0.0, 0.0, 0.0, 0.0, 1.6203092954078832E9, 2021-05-06 15:54:55.407
50.0, 98.1648941040039, 94.14636993408203, 358.4806213378906, -82.0964126586914, 0.01600000075995922, 0.03200000151991844, 1.055999994277954, 0.0, 0.0, 0.0, 0.0, 0.0, 1.6203092954392245E9, 2021-05-06 15:54:55.439
50.0, 96.40714263916016, 95.92282104492188, 355.15960693359375, -81.43819427490234, 0.01600000075995922, 0.03200000151991844, 1.055999994277954, 0.0, 0.0, 0.0, 0.0, 0.0, 1.6203092954392245E9, 2021-05-06 15:54:55.439
51.0, 99.791748046875, 97.43374633789062, 345.9968566894531, -86.63665008544922, 0.01600000075995922, 0.03200000151991844, 1.055999994277954, 0.0, 0.0, 0.0, 0.0, 0.0, 1.6203092954400022E9, 2021-05-06 15:54:55.440
51.0, 106.91252136230469, 94.18376922607422, 355.75799560546875, -85.78021240234375, 0.01600000075995922, 0.03200000151991844, 1.055999994277954, 0.0, 0.0, 0.0, 0.0, 0.0, 1.6203092954400022E9, 2021-05-06 15:54:55.440
52.0, 101.493408203125, 95.50395202636719, 359.8008117675781, -83.16976165771484, 0.01600000075995922, 0.03200000151991844, 1.055999994277954, 0.0, 0.0, 0.0, 0.0, 0.0, 1.6203092954407196E9, 2021-05-06 15:54:55.440
52.0, 107.30146789550781, 100.35460662841797, 362.7590637207031, -79.51214599609375, 0.01600000075995922, 0.03200000151991844, 1.055999994277954, 0.0, 0.0, 0.0, 0.0, 0.0, 1.6203092954407196E9, 2021-05-06 15:54:55.440
53.0, 99.31678009033203, 96.2107925415039, 351.16912841796875, -88.78335571289062, 0.01600000075995922, 0.03200000151991844, 1.055999994277954, 0.0, 0.0, 0.0, 0.0, 0.0, 1.6203092954536555E9, 2021-05-06 15:54:55.453
53.0, 100.13956451416016, 98.84742736816406, 353.659912109375, -79.90483093261719, 0.01600000075995922, 0.03200000151991844, 1.055999994277954, 0.0, 0.0, 0.0, 0.0, 0.0, 1.6203092954536555E9, 2021-05-06 15:54:55.453
54.0, 94.94483947753906, 101.13250732421875, 361.4463806152344, -76.93909454345703, 0.01600000075995922, 0.03200000151991844, 1.055999994277954, 0.0, 0.0, 0.0, 0.0, 0.0, 1.6203092954543233E9, 2021-05-06 15:54:55.454
54.0, 98.04521942138672, 96.42022705078125, 356.371337890625, -78.33033752441406, 0.01600000075995922, 0.03200000151991844, 1.055999994277954, 0.0, 0.0, 0.0, 0.0, 0.0, 1.6203092954543233E9, 2021-05-06 15:54:55.454
55.0, 94.71670532226562, 94.35580444335938, 348.061279296875, -86.60673522949219, 0.01600000075995922, 0.03200000151991844, 1.055999994277954, 0.0, 0.0, 0.0, 0.0, 0.0, 1.6203092954677477E9, 2021-05-06 15:54:55.467
55.0, 100.67810821533203, 92.14552307128906, 354.53131103515625, -80.27882385253906, 0.01600000075995922, 0.03200000151991844, 1.055999994277954, 0.0, 0.0, 0.0, 0.0, 0.0, 1.6203092954677477E9, 2021-05-06 15:54:55.467
56.0, 103.35961151123047, 97.34398651123047, 360.14862060546875, -76.19110870361328, 0.01600000075995922, 0.03200000151991844, 1.055999994277954, 0.0, 0.0, 0.0, 0.0, 0.0, 1.6203092954835155E9, 2021-05-06 15:54:55.483
56.0, 99.35792541503906, 98.17050170898438, 360.28326416015625, -77.10738372802734, 0.01600000075995922, 0.03200000151991844, 1.055999994277954, 0.0, 0.0, 0.0, 0.0, 0.0, 1.6203092954835155E9, 2021-05-06 15:54:55.483
57.0, 103.29229736328125, 95.2197265625, 356.7640075683594, -86.68901062011719, 0.01600000075995922, 0.03200000151991844, 1.055999994277954, 0.0, 0.0, 0.0, 0.0, 0.0, 1.6203092954842892E9, 2021-05-06 15:54:55.484
57.0, 107.86245727539062, 93.1365966796875, 360.7544860839844, -80.7874526977539, 0.01600000075995922, 0.03200000151991844, 1.055999994277954, 0.0, 0.0, 0.0, 0.0, 0.0, 1.6203092954842892E9, 2021-05-06 15:54:55.484
58.0, 94.46239471435547, 94.87191009521484, 358.80975341796875, -80.33866119384766, 0.01600000075995922, 0.03200000151991844, 1.055999994277954, 0.0, 0.0, 0.0, 0.0, 0.0, 1.620309295497851E9, 2021-05-06 15:54:55.497
58.0, 91.79584503173828, 94.59142303466797, 353.6935729980469, -82.7957763671875, 0.01600000075995922, 0.03200000151991844, 1.055999994277954, 0.0, 0.0, 0.0, 0.0, 0.0, 1.620309295497851E9, 2021-05-06 15:54:55.497
59.0, 94.12580108642578, 100.22744750976562, 348.65216064453125, -84.79288482666016, 0.01600000075995922, 0.03200000151991844, 1.055999994277954, 0.0, 0.0, 0.0, 0.0, 0.0, 1.6203092955135553E9, 2021-05-06 15:54:55.513
59.0, 95.4946060180664, 97.5272445678711, 358.78729248046875, -81.38209533691406, 0.01600000075995922, 0.03200000151991844, 1.055999994277954, 0.0, 0.0, 0.0, 0.0, 0.0, 1.6203092955135553E9, 2021-05-06 15:54:55.513
60.0, 100.88005828857422, 99.55052947998047, 361.94378662109375, -73.68537902832031, 0.01600000075995922, 0.03200000151991844, 1.055999994277954, 0.0, 0.0, 0.0, 0.0, 0.0, 1.6203092955142348E9, 2021-05-06 15:54:55.514
60.0, 97.89936065673828, 96.5473861694336, 356.6593017578125, -76.9166488647461, 0.01600000075995922, 0.03200000151991844, 1.055999994277954, 0.0, 0.0, 0.0, 0.0, 0.0, 1.6203092955142348E9, 2021-05-06 15:54:55.514
61.0, 92.05015563964844, 89.03766632080078, 348.25201416015625, -88.14382934570312, 0.01600000075995922, 0.03200000151991844, 1.055999994277954, 0.0, 0.0, 0.0, 0.0, 0.0, 1.6203092955277665E9, 2021-05-06 15:54:55.527
61.0, 96.04811096191406, 95.02899169921875, 352.9493103027344, -84.45629119873047, 0.01600000075995922, 0.03200000151991844, 1.055999994277954, 0.0, 0.0, 0.0, 0.0, 0.0, 1.6203092955277665E9, 2021-05-06 15:54:55.527
62.0, 102.60415649414062, 98.35002136230469, 363.5444641113281, -73.54326629638672, 0.01600000075995922, 0.03200000151991844, 1.055999994277954, 0.0, 0.0, 0.0, 0.0, 0.0, 1.620309295543582E9, 2021-05-06 15:54:55.543
62.0, 94.06222534179688, 89.52385711669922, 353.7010498046875, -83.259521484375, 0.01600000075995922, 0.03200000151991844, 1.055999994277954, 0.0, 0.0, 0.0, 0.0, 0.0, 1.620309295543582E9, 2021-05-06 15:54:55.543
63.0, 112.30171966552734, 94.66996002197266, 352.68377685546875, -88.8805923461914, 0.01600000075995922, 0.03200000151991844, 1.055999994277954, 0.0, 0.0, 0.0, 0.0, 0.0, 1.6203092955443425E9, 2021-05-06 15:54:55.544
63.0, 103.9879150390625, 89.81930541992188, 355.2194519042969, -85.59696197509766, 0.01600000075995922, 0.03200000151991844, 1.055999994277954, 0.0, 0.0, 0.0, 0.0, 0.0, 1.6203092955443425E9, 2021-05-06 15:54:55.544
64.0, 105.70079040527344, 101.21478271484375, 368.3988342285156, -76.8381118774414, 0.01600000075995922, 0.03200000151991844, 1.055999994277954, 0.0, 0.0, 0.0, 0.0, 0.0, 1.6203092955577507E9, 2021-05-06 15:54:55.557
64.0, 97.4617919921875, 90.3204574584961, 359.31463623046875, -82.0964126586914, 0.01600000075995922, 0.03200000151991844, 1.055999994277954, 0.0, 0.0, 0.0, 0.0, 0.0, 1.6203092955577507E9, 2021-05-06 15:54:55.557
65.0, 99.0886459350586, 92.20162200927734, 353.4541931152344, -86.04949188232422, 0.01600000075995922, 0.03200000151991844, 1.055999994277954, 0.0, 0.0, 0.0, 0.0, 0.0, 1.6203092955735984E9, 2021-05-06 15:54:55.573
65.0, 106.31039428710938, 96.67080688476562, 361.4089660644531, -80.9482650756836, 0.01600000075995922, 0.03200000151991844, 1.055999994277954, 0.0, 0.0, 0.0, 0.0, 0.0, 1.6203092955735984E9, 2021-05-06 15:54:55.573
66.0, 105.03508758544922, 99.94695281982422, 369.0121765136719, -80.5293960571289, 0.01600000075995922, 0.03200000151991844, 1.055999994277954, 0.0, 0.0, 0.0, 0.0, 0.0, 1.620309295574255E9, 2021-05-06 15:54:55.574
66.0, 99.98248291015625, 97.69927978515625, 365.8893737792969, -79.27652740478516, 0.01600000075995922, 0.03200000151991844, 1.055999994277954, 0.0, 0.0, 0.0, 0.0, 0.0, 1.620309295574255E9, 2021-05-06 15:54:55.574
67.0, 103.6064453125, 99.61784362792969, 359.9616394042969, -87.51927185058594, 0.01600000075995922, 0.03200000151991844, 1.055999994277954, 0.0, 0.0, 0.0, 0.0, 0.0, 1.6203092955878325E9, 2021-05-06 15:54:55.587
67.0, 106.00746154785156, 101.1661605834961, 362.57208251953125, -83.56245422363281, 0.01600000075995922, 0.03200000151991844, 1.055999994277954, 0.0, 0.0, 0.0, 0.0, 0.0, 1.6203092955878325E9, 2021-05-06 15:54:55.587
68.0, 98.9278335571289, 95.49273681640625, 365.0628662109375, -81.59900665283203, 0.01600000075995922, 0.03200000151991844, 1.055999994277954, 0.0, 0.0, 0.0, 0.0, 0.0, 1.6203092956034794E9, 2021-05-06 15:54:55.603
68.0, 100.11711883544922, 93.353515625, 362.7628173828125, -85.3650894165039, 0.01600000075995922, 0.03200000151991844, 1.055999994277954, 0.0, 0.0, 0.0, 0.0, 0.0, 1.6203092956034794E9, 2021-05-06 15:54:55.603
69.0, 100.67436981201172, 93.66392517089844, 360.8367614746094, -83.40911865234375, 0.01600000075995922, 0.03200000151991844, 1.055999994277954, 0.0, 0.0, 0.0, 0.0, 0.0, 1.620309295604216E9, 2021-05-06 15:54:55.604
69.0, 100.9959945678711, 91.31900787353516, 359.09771728515625, -89.78190612792969, 0.01600000075995922, 0.03200000151991844, 1.055999994277954, 0.0, 0.0, 0.0, 0.0, 0.0, 1.620309295604216E9, 2021-05-06 15:54:55.604
70.0, 100.26297760009766, 91.00485229492188, 365.2087097167969, -80.7874526977539, 0.01600000075995922, 0.03200000151991844, 1.055999994277954, 0.0, 0.0, 0.0, 0.0, 0.0, 1.620309295617896E9, 2021-05-06 15:54:55.617
70.0, 101.24282836914062, 104.30767822265625, 360.9863586425781, -75.3084945678711, 0.01600000075995922, 0.03200000151991844, 1.055999994277954, 0.0, 0.0, 0.0, 0.0, 0.0, 1.620309295617896E9, 2021-05-06 15:54:55.617
71.0, 105.84664916992188, 89.97637939453125, 363.2078552246094, -77.5374755859375, 0.01600000075995922, 0.03200000151991844, 1.055999994277954, 0.0, 0.0, 0.0, 0.0, 0.0, 1.62030929563351E9, 2021-05-06 15:54:55.633
71.0, 104.62744140625, 94.71483612060547, 360.44781494140625, -78.22935485839844, 0.01600000075995922, 0.03200000151991844, 1.055999994277954, 0.0, 0.0, 0.0, 0.0, 0.0, 1.62030929563351E9, 2021-05-06 15:54:55.633
72.0, 104.28337097167969, 91.56584167480469, 364.9805908203125, -80.13670349121094, 0.01600000075995922, 0.03200000151991844, 1.055999994277954, 0.0, 0.0, 0.0, 0.0, 0.0, 1.620309295634189E9, 2021-05-06 15:54:55.634
72.0, 101.69535827636719, 92.82244873046875, 359.68487548828125, -79.44482421875, 0.01600000075995922, 0.03200000151991844, 1.055999994277954, 0.0, 0.0, 0.0, 0.0, 0.0, 1.620309295634189E9, 2021-05-06 15:54:55.634
73.0, 93.80043029785156, 86.01209259033203, 350.3687744140625, -85.30899047851562, 0.01600000075995922, 0.03200000151991844, 1.055999994277954, 0.0, 0.0, 0.0, 0.0, 0.0, 1.620309295647924E9, 2021-05-06 15:54:55.647
73.0, 108.13920593261719, 96.35291290283203, 363.2265625, -84.96865844726562, 0.01600000075995922, 0.03200000151991844, 1.055999994277954, 0.0, 0.0, 0.0, 0.0, 0.0, 1.620309295647924E9, 2021-05-06 15:54:55.647
74.0, 100.4125747680664, 87.02186584472656, 366.9664611816406, -80.49573516845703, 0.01600000075995922, 0.03200000151991844, 1.055999994277954, 0.0, 0.0, 0.0, 0.0, 0.0, 1.6203092956635268E9, 2021-05-06 15:54:55.663
74.0, 98.02651977539062, 88.32334899902344, 358.02435302734375, -80.11800384521484, 0.01600000075995922, 0.03200000151991844, 1.055999994277954, 0.0, 0.0, 0.0, 0.0, 0.0, 1.6203092956635268E9, 2021-05-06 15:54:55.663
75.0, 101.05583953857422, 94.14636993408203, 351.36358642578125, -83.90278625488281, 0.01600000075995922, 0.03200000151991844, 1.055999994277954, 0.0, 0.0, 0.0, 0.0, 0.0, 1.6203092956642303E9, 2021-05-06 15:54:55.664
75.0, 96.40340423583984, 88.79083251953125, 356.947265625, -87.52674865722656, 0.01600000075995922, 0.03200000151991844, 1.055999994277954, 0.0, 0.0, 0.0, 0.0, 0.0, 1.6203092956642303E9, 2021-05-06 15:54:55.664
76.0, 100.3714370727539, 95.11126708984375, 363.2190856933594, -81.08663940429688, 0.01600000075995922, 0.03200000151991844, 1.055999994277954, 0.0, 0.0, 0.0, 0.0, 0.0, 1.6203092956778798E9, 2021-05-06 15:54:55.677
76.0, 95.42354583740234, 99.19149780273438, 362.9984436035156, -77.7955322265625, 0.01600000075995922, 0.03200000151991844, 1.055999994277954, 0.0, 0.0, 0.0, 0.0, 0.0, 1.6203092956778798E9, 2021-05-06 15:54:55.677
77.0, 102.47699737548828, 96.27437591552734, 355.33538818359375, -79.60189819335938, 0.01600000075995922, 0.03200000151991844, 1.055999994277954, 0.0, 0.0, 0.0, 0.0, 0.0, 1.6203092956935623E9, 2021-05-06 15:54:55.693
77.0, 102.86968994140625, 97.72545623779297, 357.721435546875, -83.69335174560547, 0.01600000075995922, 0.03200000151991844, 1.055999994277954, 0.0, 0.0, 0.0, 0.0, 0.0, 1.6203092956935623E9, 2021-05-06 15:54:55.693
78.0, 105.06127166748047, 98.27522277832031, 364.1054382324219, -74.1266860961914, 0.01600000075995922, 0.03200000151991844, 1.055999994277954, 0.0, 0.0, 0.0, 0.0, 0.0, 1.6203092956944265E9, 2021-05-06 15:54:55.694
78.0, 97.61138916015625, 97.80399322509766, 357.2763977050781, -83.56993103027344, 0.01600000075995922, 0.03200000151991844, 1.055999994277954, 0.0, 0.0, 0.0, 0.0, 0.0, 1.6203092956944265E9, 2021-05-06 15:54:55.694
79.0, 94.27539825439453, 87.6127700805664, 350.7315673828125, -90.61964416503906, 0.01600000075995922, 0.03200000151991844, 1.055999994277954, 0.0, 0.0, 0.0, 0.0, 0.0, 1.6203092957078264E9, 2021-05-06 15:54:55.707
79.0, 102.12171173095703, 93.46945190429688, 361.3266906738281, -86.88348388671875, 0.01600000075995922, 0.03200000151991844, 1.055999994277954, 0.0, 0.0, 0.0, 0.0, 0.0, 1.6203092957078264E9, 2021-05-06 15:54:55.707
80.0, 108.11302947998047, 96.28185272216797, 370.3959655761719, -80.46207427978516, 0.01600000075995922, 0.03200000151991844, 1.055999994277954, 0.0, 0.0, 0.0, 0.0, 0.0, 1.6203092957236388E9, 2021-05-06 15:54:55.723
80.0, 105.57363891601562, 91.49104309082031, 359.0266418457031, -87.38837432861328, 0.01600000075995922, 0.03200000151991844, 1.055999994277954, 0.0, 0.0, 0.0, 0.0, 0.0, 1.6203092957236388E9, 2021-05-06 15:54:55.723
81.0, 102.45082092285156, 86.61421203613281, 349.8003234863281, -85.78021240234375, 0.01600000075995922, 0.03200000151991844, 1.055999994277954, 0.0, 0.0, 0.0, 0.0, 0.0, 1.6203092957244103E9, 2021-05-06 15:54:55.724
81.0, 108.35612487792969, 90.29427337646484, 360.16357421875, -89.80809020996094, 0.01600000075995922, 0.03200000151991844, 1.055999994277954, 0.0, 0.0, 0.0, 0.0, 0.0, 1.6203092957244103E9, 2021-05-06 15:54:55.724
82.0, 101.2951889038086, 88.50286102294922, 363.5856018066406, -80.91460418701172, 0.01600000075995922, 0.03200000151991844, 1.055999994277954, 0.0, 0.0, 0.0, 0.0, 0.0, 1.620309295737804E9, 2021-05-06 15:54:55.737
82.0, 105.00517272949219, 90.384033203125, 368.5147705078125, -75.57402801513672, 0.01600000075995922, 0.03200000151991844, 1.055999994277954, 0.0, 0.0, 0.0, 0.0, 0.0, 1.620309295737804E9, 2021-05-06 15:54:55.737
83.0, 95.30760955810547, 80.42467498779297, 350.69415283203125, -92.88228607177734, 0.01600000075995922, 0.03200000151991844, 1.055999994277954, 0.0, 0.0, 0.0, 0.0, 0.0, 1.62030929575361E9, 2021-05-06 15:54:55.753
83.0, 100.36395263671875, 88.67489624023438, 357.4596252441406, -80.6715087890625, 0.01600000075995922, 0.03200000151991844, 1.055999994277954, 0.0, 0.0, 0.0, 0.0, 0.0, 1.62030929575361E9, 2021-05-06 15:54:55.753
84.0, 101.24282836914062, 89.15360260009766, 363.0993957519531, -73.95838928222656, 0.01600000075995922, 0.03200000151991844, 1.055999994277954, 0.0, 0.0, 0.0, 0.0, 0.0, 1.6203092957542012E9, 2021-05-06 15:54:55.754
84.0, 96.6988525390625, 86.43843841552734, 351.4458923339844, -79.37002563476562, 0.01600000075995922, 0.03200000151991844, 1.055999994277954, 0.0, 0.0, 0.0, 0.0, 0.0, 1.6203092957542012E9, 2021-05-06 15:54:55.754
85.0, 91.44803619384766, 95.38427734375, 347.90045166015625, -81.96925354003906, 0.01600000075995922, 0.03200000151991844, 1.055999994277954, 0.0, 0.0, 0.0, 0.0, 0.0, 1.6203092957678337E9, 2021-05-06 15:54:55.767
85.0, 95.92095184326172, 85.67176055908203, 354.6921081542969, -86.00460815429688, 0.01600000075995922, 0.03200000151991844, 1.055999994277954, 0.0, 0.0, 0.0, 0.0, 0.0, 1.6203092957678337E9, 2021-05-06 15:54:55.767
86.0, 99.3280029296875, 95.77323150634766, 364.5542297363281, -77.18592834472656, 0.01600000075995922, 0.03200000151991844, 1.055999994277954, 0.0, 0.0, 0.0, 0.0, 0.0, 1.620309295783621E9, 2021-05-06 15:54:55.783
86.0, 97.33089447021484, 92.7775650024414, 357.05572509765625, -80.6715087890625, 0.01600000075995922, 0.03200000151991844, 1.055999994277954, 0.0, 0.0, 0.0, 0.0, 0.0, 1.620309295783621E9, 2021-05-06 15:54:55.783
87.0, 95.24777221679688, 91.2105484008789, 354.482666015625, -86.76754760742188, 0.01600000075995922, 0.03200000151991844, 1.055999994277954, 0.0, 0.0, 0.0, 0.0, 0.0, 1.6203092957843158E9, 2021-05-06 15:54:55.784
87.0, 95.42354583740234, 97.54219818115234, 358.52923583984375, -81.69624328613281, 0.01600000075995922, 0.03200000151991844, 1.055999994277954, 0.0, 0.0, 0.0, 0.0, 0.0, 1.6203092957843158E9, 2021-05-06 15:54:55.784
88.0, 97.45057678222656, 97.45244598388672, 359.39691162109375, -73.93968963623047, 0.01600000075995922, 0.03200000151991844, 1.055999994277954, 0.0, 0.0, 0.0, 0.0, 0.0, 1.6203092957978663E9, 2021-05-06 15:54:55.797
88.0, 101.29145050048828, 102.2282943725586, 366.33441162109375, -72.43251037597656, 0.01600000075995922, 0.03200000151991844, 1.055999994277954, 0.0, 0.0, 0.0, 0.0, 0.0, 1.6203092957978663E9, 2021-05-06 15:54:55.797
89.0, 95.214111328125, 88.18871307373047, 352.380859375, -86.83486938476562, 0.01600000075995922, 0.03200000151991844, 1.055999994277954, 0.0, 0.0, 0.0, 0.0, 0.0, 1.620309295813515E9, 2021-05-06 15:54:55.813
89.0, 101.39242553710938, 86.73388671875, 356.7079162597656, -81.20631408691406, 0.01600000075995922, 0.03200000151991844, 1.055999994277954, 0.0, 0.0, 0.0, 0.0, 0.0, 1.620309295813515E9, 2021-05-06 15:54:55.813
90.0, 106.54975128173828, 96.67454528808594, 376.1217346191406, -71.4115219116211, 0.01600000075995922, 0.03200000151991844, 1.055999994277954, 0.0, 0.0, 0.0, 0.0, 0.0, 1.620309295814242E9, 2021-05-06 15:54:55.814
90.0, 97.46553039550781, 89.99882507324219, 365.99407958984375, -78.5809097290039, 0.01600000075995922, 0.03200000151991844, 1.055999994277954, 0.0, 0.0, 0.0, 0.0, 0.0, 1.620309295814242E9, 2021-05-06 15:54:55.814
91.0, 97.63382720947266, 91.02729797363281, 357.73638916015625, -83.69335174560547, 0.01600000075995922, 0.03200000151991844, 1.055999994277954, 0.0, 0.0, 0.0, 0.0, 0.0, 1.6203092958279884E9, 2021-05-06 15:54:55.827
91.0, 95.4908676147461, 87.57910919189453, 359.6400146484375, -82.9790267944336, 0.01600000075995922, 0.03200000151991844, 1.055999994277954, 0.0, 0.0, 0.0, 0.0, 0.0, 1.6203092958279884E9, 2021-05-06 15:54:55.827
92.0, 106.2542953491211, 95.61614990234375, 370.45953369140625, -75.19629669189453, 0.01600000075995922, 0.03200000151991844, 1.055999994277954, 0.0, 0.0, 0.0, 0.0, 0.0, 1.6203092958747475E9, 2021-05-06 15:54:55.874
92.0, 95.89851379394531, 92.28390502929688, 368.555908203125, -79.1456298828125, 0.01600000075995922, 0.03200000151991844, 1.055999994277954, 0.0, 0.0, 0.0, 0.0, 0.0, 1.6203092958747475E9, 2021-05-06 15:54:55.874
93.0, 94.42499542236328, 96.34169006347656, 361.26312255859375, -87.64642333984375, 0.01600000075995922, 0.03200000151991844, 1.055999994277954, 0.0, 0.0, 0.0, 0.0, 0.0, 1.6203092958754084E9, 2021-05-06 15:54:55.875
93.0, 98.2845687866211, 97.13829040527344, 364.0418701171875, -83.86164855957031, 0.01600000075995922, 0.03200000151991844, 1.055999994277954, 0.0, 0.0, 0.0, 0.0, 0.0, 1.6203092958754084E9, 2021-05-06 15:54:55.875
94.0, 102.26756286621094, 95.23094177246094, 369.5282897949219, -76.4155044555664, 0.01600000075995922, 0.03200000151991844, 1.055999994277954, 0.0, 0.0, 0.0, 0.0, 0.0, 1.6203092958761427E9, 2021-05-06 15:54:55.876
94.0, 101.53080749511719, 96.61844635009766, 364.3373107910156, -75.47679138183594, 0.01600000075995922, 0.03200000151991844, 1.055999994277954, 0.0, 0.0, 0.0, 0.0, 0.0, 1.6203092958761427E9, 2021-05-06 15:54:55.876
95.0, 98.03399658203125, 84.71434020996094, 354.2769775390625, -87.16771697998047, 0.01600000075995922, 0.03200000151991844, 1.055999994277954, 0.0, 0.0, 0.0, 0.0, 0.0, 1.620309295889328E9, 2021-05-06 15:54:55.889
95.0, 99.4701156616211, 89.97264099121094, 360.4552917480469, -87.0555191040039, 0.01600000075995922, 0.03200000151991844, 1.055999994277954, 0.0, 0.0, 0.0, 0.0, 0.0, 1.620309295889328E9, 2021-05-06 15:54:55.889
96.0, 102.81359100341797, 96.49128723144531, 368.64569091796875, -80.5892333984375, 0.01600000075995922, 0.03200000151991844, 1.055999994277954, 0.0, 0.0, 0.0, 0.0, 0.0, 1.6203092958900607E9, 2021-05-06 15:54:55.890
96.0, 100.16947937011719, 93.52555084228516, 363.1031494140625, -82.92293548583984, 0.01600000075995922, 0.03200000151991844, 1.055999994277954, 0.0, 0.0, 0.0, 0.0, 0.0, 1.6203092958900607E9, 2021-05-06 15:54:55.890
97.0, 100.28541564941406, 89.93150329589844, 355.339111328125, -86.62169647216797, 0.01600000075995922, 0.03200000151991844, 1.055999994277954, 0.0, 0.0, 0.0, 0.0, 0.0, 1.6203092958907597E9, 2021-05-06 15:54:55.890
97.0, 102.96318817138672, 96.21827697753906, 360.86669921875, -86.22526550292969, 0.01600000075995922, 0.03200000151991844, 1.055999994277954, 0.0, 0.0, 0.0, 0.0, 0.0, 1.6203092958907597E9, 2021-05-06 15:54:55.890
98.0, 105.32305908203125, 96.63714599609375, 366.26708984375, -82.86309051513672, 0.01600000075995922, 0.03200000151991844, 1.055999994277954, 0.0, 0.0, 0.0, 0.0, 0.0, 1.620309295903479E9, 2021-05-06 15:54:55.903
98.0, 101.5121078491211, 95.70964813232422, 363.2751770019531, -81.58778381347656, 0.01600000075995922, 0.03200000151991844, 1.055999994277954, 0.0, 0.0, 0.0, 0.0, 0.0, 1.620309295903479E9, 2021-05-06 15:54:55.903
99.0, 99.46263885498047, 92.51203155517578, 356.4461364746094, -85.50346374511719, 0.01600000075995922, 0.03200000151991844, 1.055999994277954, 0.0, 0.0, 0.0, 0.0, 0.0, 1.6203092959042017E9, 2021-05-06 15:54:55.904
99.0, 104.35443115234375, 92.20162200927734, 352.01434326171875, -89.27702331542969, 0.01600000075995922, 0.03200000151991844, 1.055999994277954, 0.0, 0.0, 0.0, 0.0, 0.0, 1.6203092959042017E9, 2021-05-06 15:54:55.904
100.0, 104.26093292236328, 92.13430786132812, 363.8436584472656, -83.8803482055664, 0.01600000075995922, 0.03200000151991844, 1.055999994277954, 0.0, 0.0, 0.0, 0.0, 0.0, 1.6203092959185631E9, 2021-05-06 15:54:55.918
100.0, 96.84844970703125, 90.21573638916016, 356.1880798339844, -81.40827178955078, 0.01600000075995922, 0.03200000151991844, 1.055999994277954, 0.0, 0.0, 0.0, 0.0, 0.0, 1.6203092959185631E9, 2021-05-06 15:54:55.918
0.0, 96.79235076904297, 84.14588165283203, 347.5863037109375, -89.82117462158203, 0.01600000075995922, 0.03200000151991844, 1.055999994277954, 0.0, 0.0, 0.0, 0.0, 0.0, 1.620309295919241E9, 2021-05-06 15:54:55.919
1.0, 97.49171447753906, 87.48934936523438, 356.7378234863281, -88.84880065917969, 0.01600000075995922, 0.03200000151991844, 1.055999994277954, 0.0, 0.0, 0.0, 0.0, 0.0, 1.6203092959328768E9, 2021-05-06 15:54:55.932
1.0, 99.17466735839844, 94.19873046875, 365.4742431640625, -80.38915252685547, 0.01600000075995922, 0.03200000151991844, 1.055999994277954, 0.0, 0.0, 0.0, 0.0, 0.0, 1.6203092959328768E9, 2021-05-06 15:54:55.932
2.0, 98.37059020996094, 94.74475860595703, 364.0119323730469, -80.40410614013672, 0.01600000075995922, 0.03200000151991844, 1.055999994277954, 0.0, 0.0, 0.0, 0.0, 0.0, 1.6203092959486003E9, 2021-05-06 15:54:55.948
2.0, 89.54816436767578, 91.10957336425781, 358.7835693359375, -87.36405944824219, 0.01600000075995922, 0.03200000151991844, 1.055999994277954, 0.0, 0.0, 0.0, 0.0, 0.0, 1.6203092959486003E9, 2021-05-06 15:54:55.948
3.0, 95.36744689941406, 95.75078582763672, 359.2286071777344, -83.94205474853516, 0.01600000075995922, 0.03200000151991844, 1.055999994277954, 0.0, 0.0, 0.0, 0.0, 0.0, 1.620309295949283E9, 2021-05-06 15:54:55.949
3.0, 96.22014617919922, 95.45159912109375, 364.2064208984375, -81.70559692382812, 0.01600000075995922, 0.03200000151991844, 1.055999994277954, 0.0, 0.0, 0.0, 0.0, 0.0, 1.620309295949283E9, 2021-05-06 15:54:55.949
4.0, 97.68618774414062, 97.57959747314453, 360.0588684082031, -82.14690399169922, 0.01600000075995922, 0.03200000151991844, 1.055999994277954, 0.0, 0.0, 0.0, 0.0, 0.0, 1.6203092959782252E9, 2021-05-06 15:54:55.978
4.0, 95.03459930419922, 89.95768737792969, 346.3670959472656, -91.18997955322266, 0.01600000075995922, 0.03200000151991844, 1.055999994277954, 0.0, 0.0, 0.0, 0.0, 0.0, 1.6203092959782252E9, 2021-05-06 15:54:55.978
5.0, 98.13123321533203, 89.00775146484375, 353.2335510253906, -89.92963409423828, 0.01600000075995922, 0.03200000151991844, 1.055999994277954, 0.0, 0.0, 0.0, 0.0, 0.0, 1.6203092959941747E9, 2021-05-06 15:54:55.994
5.0, 102.3984603881836, 92.14178466796875, 362.392578125, -82.54707336425781, 0.01600000075995922, 0.03200000151991844, 1.055999994277954, 0.0, 0.0, 0.0, 0.0, 0.0, 1.6203092959941747E9, 2021-05-06 15:54:55.994
6.0, 92.67098236083984, 90.888916015625, 359.6250305175781, -84.2337646484375, 0.01600000075995922, 0.03200000151991844, 1.055999994277954, 0.0, 0.0, 0.0, 0.0, 0.0, 1.6203092959948864E9, 2021-05-06 15:54:55.994
6.0, 102.21146392822266, 85.09580993652344, 351.71142578125, -88.35887908935547, 0.01600000075995922, 0.03200000151991844, 1.055999994277954, 0.0, 0.0, 0.0, 0.0, 0.0, 1.6203092959948864E9, 2021-05-06 15:54:55.994
7.0, 105.80924987792969, 82.29837036132812, 359.6512145996094, -85.07524108886719, 0.01600000075995922, 0.03200000151991844, 1.055999994277954, 0.0, 0.0, 0.0, 0.0, 0.0, 1.6203092959956193E9, 2021-05-06 15:54:55.995
7.0, 100.0685043334961, 86.2514419555664, 365.63507080078125, -78.84457397460938, 0.01600000075995922, 0.03200000151991844, 1.055999994277954, 0.0, 0.0, 0.0, 0.0, 0.0, 1.6203092959956193E9, 2021-05-06 15:54:55.995
8.0, 99.09613037109375, 90.18207550048828, 363.8324279785156, -83.20529174804688, 0.01600000075995922, 0.03200000151991844, 1.055999994277954, 0.0, 0.0, 0.0, 0.0, 0.0, 1.6203092960084848E9, 2021-05-06 15:54:56.008
8.0, 96.09298706054688, 89.74076843261719, 355.5672607421875, -93.76303100585938, 0.01600000075995922, 0.03200000151991844, 1.055999994277954, 0.0, 0.0, 0.0, 0.0, 0.0, 1.6203092960084848E9, 2021-05-06 15:54:56.008
9.0, 102.08056640625, 93.7985610961914, 359.3520202636719, -85.46419525146484, 0.01600000075995922, 0.03200000151991844, 1.055999994277954, 0.0, 0.0, 0.0, 0.0, 0.0, 1.6203092960092E9, 2021-05-06 15:54:56.009
9.0, 93.88270568847656, 90.548583984375, 361.97369384765625, -87.63707733154297, 0.01600000075995922, 0.03200000151991844, 1.055999994277954, 0.0, 0.0, 0.0, 0.0, 0.0, 1.6203092960092E9, 2021-05-06 15:54:56.009
10.0, 98.59498596191406, 98.95587921142578, 362.69549560546875, -80.70330047607422, 0.01600000075995922, 0.03200000151991844, 1.055999994277954, 0.0, 0.0, 0.0, 0.0, 0.0, 1.6203092960227838E9, 2021-05-06 15:54:56.022
10.0, 95.53948211669922, 89.87540435791016, 351.72637939453125, -90.82347106933594, 0.01600000075995922, 0.03200000151991844, 1.055999994277954, 0.0, 0.0, 0.0, 0.0, 0.0, 1.6203092960227838E9, 2021-05-06 15:54:56.022
11.0, 104.84435272216797, 91.20307159423828, 357.5980224609375, -93.2057876586914, 0.01600000075995922, 0.03200000151991844, 1.055999994277954, 0.0, 0.0, 0.0, 0.0, 0.0, 1.6203092960384636E9, 2021-05-06 15:54:56.038
11.0, 104.46662902832031, 96.28185272216797, 368.413818359375, -83.65782165527344, 0.01600000075995922, 0.03200000151991844, 1.055999994277954, 0.0, 0.0, 0.0, 0.0, 0.0, 1.6203092960384636E9, 2021-05-06 15:54:56.038
12.0, 92.35682678222656, 91.2703857421875, 358.2076110839844, -86.61608123779297, 0.01600000075995922, 0.03200000151991844, 1.055999994277954, 0.0, 0.0, 0.0, 0.0, 0.0, 1.62030929603943E9, 2021-05-06 15:54:56.039
12.0, 97.30097961425781, 93.79108428955078, 354.9090270996094, -85.56890869140625, 0.01600000075995922, 0.03200000151991844, 1.055999994277954, 0.0, 0.0, 0.0, 0.0, 0.0, 1.62030929603943E9, 2021-05-06 15:54:56.039
13.0, 102.28626251220703, 86.22900390625, 355.2643127441406, -88.74408721923828, 0.01600000075995922, 0.03200000151991844, 1.055999994277954, 0.0, 0.0, 0.0, 0.0, 0.0, 1.6203092960528734E9, 2021-05-06 15:54:56.052
13.0, 99.49256134033203, 93.28245544433594, 365.021728515625, -82.92105865478516, 0.01600000075995922, 0.03200000151991844, 1.055999994277954, 0.0, 0.0, 0.0, 0.0, 0.0, 1.6203092960528734E9, 2021-05-06 15:54:56.052
14.0, 102.7013931274414, 92.81871032714844, 360.1935119628906, -81.9636459350586, 0.01600000075995922, 0.03200000151991844, 1.055999994277954, 0.0, 0.0, 0.0, 0.0, 0.0, 1.620309296068442E9, 2021-05-06 15:54:56.068
14.0, 97.77220153808594, 94.5203628540039, 355.3989562988281, -85.84566497802734, 0.01600000075995922, 0.03200000151991844, 1.055999994277954, 0.0, 0.0, 0.0, 0.0, 0.0, 1.620309296068442E9, 2021-05-06 15:54:56.068
15.0, 101.69535827636719, 93.91075897216797, 360.24212646484375, -87.00128936767578, 0.01600000075995922, 0.03200000151991844, 1.055999994277954, 0.0, 0.0, 0.0, 0.0, 0.0, 1.6203092960692105E9, 2021-05-06 15:54:56.069
15.0, 99.63467407226562, 93.17399597167969, 366.09881591796875, -84.2562026977539, 0.01600000075995922, 0.03200000151991844, 1.055999994277954, 0.0, 0.0, 0.0, 0.0, 0.0, 1.6203092960692105E9, 2021-05-06 15:54:56.069
16.0, 108.3000259399414, 94.66621398925781, 363.9034729003906, -81.88884735107422, 0.01600000075995922, 0.03200000151991844, 1.055999994277954, 0.0, 0.0, 0.0, 0.0, 0.0, 1.6203092960829067E9, 2021-05-06 15:54:56.082
16.0, 100.4911117553711, 89.62857055664062, 352.26116943359375, -91.60884857177734, 0.01600000075995922, 0.03200000151991844, 1.055999994277954, 0.0, 0.0, 0.0, 0.0, 0.0, 1.6203092960829067E9, 2021-05-06 15:54:56.082
17.0, 105.5324935913086, 94.65126037597656, 363.8660888671875, -88.4112319946289, 0.01600000075995922, 0.03200000151991844, 1.055999994277954, 0.0, 0.0, 0.0, 0.0, 0.0, 1.6203092960984435E9, 2021-05-06 15:54:56.098
17.0, 100.1507797241211, 88.96661376953125, 361.6670227050781, -88.63188934326172, 0.01600000075995922, 0.03200000151991844, 1.055999994277954, 0.0, 0.0, 0.0, 0.0, 0.0, 1.6203092960984435E9, 2021-05-06 15:54:56.098
18.0, 100.40509033203125, 87.17145538330078, 357.5381774902344, -84.87702941894531, 0.01600000075995922, 0.03200000151991844, 1.055999994277954, 0.0, 0.0, 0.0, 0.0, 0.0, 1.6203092960991647E9, 2021-05-06 15:54:56.099
18.0, 102.39098358154297, 95.09630584716797, 353.18865966796875, -94.52970886230469, 0.01600000075995922, 0.03200000151991844, 1.055999994277954, 0.0, 0.0, 0.0, 0.0, 0.0, 1.6203092960991647E9, 2021-05-06 15:54:56.099
19.0, 100.64818572998047, 99.16157531738281, 360.8255615234375, -86.01021575927734, 0.01600000075995922, 0.03200000151991844, 1.055999994277954, 0.0, 0.0, 0.0, 0.0, 0.0, 1.6203092961128745E9, 2021-05-06 15:54:56.112
19.0, 100.8538818359375, 98.42855834960938, 365.67620849609375, -80.81175994873047, 0.01600000075995922, 0.03200000151991844, 1.055999994277954, 0.0, 0.0, 0.0, 0.0, 0.0, 1.6203092961128745E9, 2021-05-06 15:54:56.112
20.0, 103.94677734375, 100.16761016845703, 357.7401428222656, -82.12071990966797, 0.01600000075995922, 0.03200000151991844, 1.055999994277954, 0.0, 0.0, 0.0, 0.0, 0.0, 1.620309296128493E9, 2021-05-06 15:54:56.128
20.0, 107.71286010742188, 91.98097229003906, 352.5940246582031, -85.3968734741211, 0.01600000075995922, 0.03200000151991844, 1.055999994277954, 0.0, 0.0, 0.0, 0.0, 0.0, 1.620309296128493E9, 2021-05-06 15:54:56.128
21.0, 102.15162658691406, 94.16133117675781, 361.0948181152344, -85.8194808959961, 0.01600000075995922, 0.03200000151991844, 1.055999994277954, 0.0, 0.0, 0.0, 0.0, 0.0, 1.620309296129222E9, 2021-05-06 15:54:56.129
21.0, 102.68643188476562, 96.39031219482422, 359.4305725097656, -81.90007019042969, 0.01600000075995922, 0.03200000151991844, 1.055999994277954, 0.0, 0.0, 0.0, 0.0, 0.0, 1.620309296129222E9, 2021-05-06 15:54:56.129
22.0, 97.34959411621094, 95.91908264160156, 358.66387939453125, -85.80078125, 0.01600000075995922, 0.03200000151991844, 1.055999994277954, 0.0, 0.0, 0.0, 0.0, 0.0, 1.62030929614283E9, 2021-05-06 15:54:56.142
22.0, 102.40968322753906, 90.11849975585938, 352.3322448730469, -85.6998062133789, 0.01600000075995922, 0.03200000151991844, 1.055999994277954, 0.0, 0.0, 0.0, 0.0, 0.0, 1.62030929614283E9, 2021-05-06 15:54:56.142
23.0, 100.93990325927734, 89.97264099121094, 353.7085266113281, -86.72454071044922, 0.01600000075995922, 0.03200000151991844, 1.055999994277954, 0.0, 0.0, 0.0, 0.0, 0.0, 1.620309296158527E9, 2021-05-06 15:54:56.158
23.0, 107.49220275878906, 100.44436645507812, 371.25238037109375, -74.49506378173828, 0.01600000075995922, 0.03200000151991844, 1.055999994277954, 0.0, 0.0, 0.0, 0.0, 0.0, 1.620309296158527E9, 2021-05-06 15:54:56.158
24.0, 100.89501953125, 100.14891052246094, 366.46905517578125, -73.70220947265625, 0.01600000075995922, 0.03200000151991844, 1.055999994277954, 0.0, 0.0, 0.0, 0.0, 0.0, 1.620309296159156E9, 2021-05-06 15:54:56.159
24.0, 100.17696380615234, 90.35411071777344, 359.1650390625, -81.43257904052734, 0.01600000075995922, 0.03200000151991844, 1.055999994277954, 0.0, 0.0, 0.0, 0.0, 0.0, 1.620309296159156E9, 2021-05-06 15:54:56.159
25.0, 106.6769027709961, 95.27581787109375, 370.1528625488281, -73.64237213134766, 0.01600000075995922, 0.03200000151991844, 1.055999994277954, 0.0, 0.0, 0.0, 0.0, 0.0, 1.6203092961727993E9, 2021-05-06 15:54:56.172
25.0, 106.51982879638672, 99.10173797607422, 369.2403259277344, -82.38999938964844, 0.01600000075995922, 0.03200000151991844, 1.055999994277954, 0.0, 0.0, 0.0, 0.0, 0.0, 1.6203092961727993E9, 2021-05-06 15:54:56.172
26.0, 102.8622055053711, 91.18437194824219, 362.3738708496094, -80.89029693603516, 0.01600000075995922, 0.03200000151991844, 1.055999994277954, 0.0, 0.0, 0.0, 0.0, 0.0, 1.6203092961884637E9, 2021-05-06 15:54:56.188
26.0, 102.62659454345703, 94.12019348144531, 357.9346008300781, -84.52548217773438, 0.01600000075995922, 0.03200000151991844, 1.055999994277954, 0.0, 0.0, 0.0, 0.0, 0.0, 1.6203092961884637E9, 2021-05-06 15:54:56.188
27.0, 108.61791229248047, 94.04165649414062, 360.4141540527344, -85.63249206542969, 0.01600000075995922, 0.03200000151991844, 1.055999994277954, 0.0, 0.0, 0.0, 0.0, 0.0, 1.6203092961891828E9, 2021-05-06 15:54:56.189
27.0, 106.658203125, 99.87590026855469, 366.79815673828125, -76.39493560791016, 0.01600000075995922, 0.03200000151991844, 1.055999994277954, 0.0, 0.0, 0.0, 0.0, 0.0, 1.6203092961891828E9, 2021-05-06 15:54:56.189
28.0, 96.3772201538086, 97.1270751953125, 366.18109130859375, -75.24678802490234, 0.01600000075995922, 0.03200000151991844, 1.055999994277954, 0.0, 0.0, 0.0, 0.0, 0.0, 1.62030929620276E9, 2021-05-06 15:54:56.202
28.0, 95.27021026611328, 100.52290344238281, 357.381103515625, -81.32038116455078, 0.01600000075995922, 0.03200000151991844, 1.055999994277954, 0.0, 0.0, 0.0, 0.0, 0.0, 1.62030929620276E9, 2021-05-06 15:54:56.202
29.0, 94.87752532958984, 91.25543212890625, 356.00482177734375, -88.15318298339844, 0.01600000075995922, 0.03200000151991844, 1.055999994277954, 0.0, 0.0, 0.0, 0.0, 0.0, 1.6203092962189128E9, 2021-05-06 15:54:56.218
29.0, 96.12664794921875, 96.00884246826172, 362.14947509765625, -79.05774688720703, 0.01600000075995922, 0.03200000151991844, 1.055999994277954, 0.0, 0.0, 0.0, 0.0, 0.0, 1.6203092962189128E9, 2021-05-06 15:54:56.218
30.0, 97.55529022216797, 98.98206329345703, 360.71710205078125, -77.92829895019531, 0.01600000075995922, 0.03200000151991844, 1.055999994277954, 0.0, 0.0, 0.0, 0.0, 0.0, 1.620309296233432E9, 2021-05-06 15:54:56.233
30.0, 103.22123718261719, 101.0240478515625, 354.8716125488281, -80.96135711669922, 0.01600000075995922, 0.03200000151991844, 1.055999994277954, 0.0, 0.0, 0.0, 0.0, 0.0, 1.620309296233432E9, 2021-05-06 15:54:56.233
31.0, 104.7321548461914, 101.66357421875, 359.5390319824219, -75.81151580810547, 0.01600000075995922, 0.03200000151991844, 1.055999994277954, 0.0, 0.0, 0.0, 0.0, 0.0, 1.6203092962341328E9, 2021-05-06 15:54:56.234
31.0, 101.99455261230469, 101.82064819335938, 367.4975280761719, -74.61100769042969, 0.01600000075995922, 0.03200000151991844, 1.055999994277954, 0.0, 0.0, 0.0, 0.0, 0.0, 1.6203092962341328E9, 2021-05-06 15:54:56.234
32.0, 96.10420989990234, 98.98206329345703, 362.77777099609375, -78.94554901123047, 0.01600000075995922, 0.03200000151991844, 1.055999994277954, 0.0, 0.0, 0.0, 0.0, 0.0, 1.6203092962486744E9, 2021-05-06 15:54:56.248
32.0, 99.59353637695312, 107.8306655883789, 358.6676330566406, -83.52318572998047, 0.01600000075995922, 0.03200000151991844, 1.055999994277954, 0.0, 0.0, 0.0, 0.0, 0.0, 1.6203092962486744E9, 2021-05-06 15:54:56.248
33.0, 107.82505798339844, 108.04383850097656, 365.3022155761719, -83.53814697265625, 0.01600000075995922, 0.03200000151991844, 1.055999994277954, 0.0, 0.0, 0.0, 0.0, 0.0, 1.6203092962492929E9, 2021-05-06 15:54:56.249
33.0, 108.09059143066406, 106.59649658203125, 369.6217956542969, -80.84542083740234, 0.01600000075995922, 0.03200000151991844, 1.055999994277954, 0.0, 0.0, 0.0, 0.0, 0.0, 1.6203092962492929E9, 2021-05-06 15:54:56.249
34.0, 107.61188507080078, 108.7357177734375, 369.7040710449219, -76.05834197998047, 0.01600000075995922, 0.03200000151991844, 1.055999994277954, 0.0, 0.0, 0.0, 0.0, 0.0, 1.6203092962628405E9, 2021-05-06 15:54:56.262
34.0, 106.0486068725586, 102.32553100585938, 360.4029541015625, -83.57180786132812, 0.01600000075995922, 0.03200000151991844, 1.055999994277954, 0.0, 0.0, 0.0, 0.0, 0.0, 1.6203092962628405E9, 2021-05-06 15:54:56.262
35.0, 112.42887115478516, 108.82921600341797, 372.50152587890625, -84.8919906616211, 0.01600000075995922, 0.03200000151991844, 1.055999994277954, 0.0, 0.0, 0.0, 0.0, 0.0, 1.620309296278545E9, 2021-05-06 15:54:56.278
35.0, 111.61731719970703, 112.76359558105469, 378.9827575683594, -78.9941635131836, 0.01600000075995922, 0.03200000151991844, 1.055999994277954, 0.0, 0.0, 0.0, 0.0, 0.0, 1.620309296278545E9, 2021-05-06 15:54:56.278
36.0, 107.09951782226562, 111.77999877929688, 379.1323547363281, -78.2125244140625, 0.01600000075995922, 0.03200000151991844, 1.055999994277954, 0.0, 0.0, 0.0, 0.0, 0.0, 1.6203092962791388E9, 2021-05-06 15:54:56.279
36.0, 110.43924713134766, 116.42495727539062, 377.7822570800781, -80.76313781738281, 0.01600000075995922, 0.03200000151991844, 1.055999994277954, 0.0, 0.0, 0.0, 0.0, 0.0, 1.6203092962791388E9, 2021-05-06 15:54:56.279
37.0, 109.76606750488281, 118.04059600830078, 378.8855285644531, -78.58277893066406, 0.01600000075995922, 0.03200000151991844, 1.055999994277954, 0.0, 0.0, 0.0, 0.0, 0.0, 1.620309296309198E9, 2021-05-06 15:54:56.309
37.0, 113.43490600585938, 119.02792358398438, 388.2053527832031, -69.28912353515625, 0.01600000075995922, 0.03200000151991844, 1.055999994277954, 0.0, 0.0, 0.0, 0.0, 0.0, 1.620309296309198E9, 2021-05-06 15:54:56.309
38.0, 110.22981262207031, 114.22215270996094, 385.4004211425781, -77.6253662109375, 0.01600000075995922, 0.03200000151991844, 1.055999994277954, 0.0, 0.0, 0.0, 0.0, 0.0, 1.6203092963099403E9, 2021-05-06 15:54:56.309
38.0, 114.34370422363281, 119.86566162109375, 383.8670654296875, -84.22628784179688, 0.01600000075995922, 0.03200000151991844, 1.055999994277954, 0.0, 0.0, 0.0, 0.0, 0.0, 1.6203092963099403E9, 2021-05-06 15:54:56.309
39.0, 113.52091979980469, 108.93767547607422, 378.3020935058594, -82.02348327636719, 0.01600000075995922, 0.03200000151991844, 1.055999994277954, 0.0, 0.0, 0.0, 0.0, 0.0, 1.620309296310618E9, 2021-05-06 15:54:56.310
39.0, 109.78102111816406, 112.74115753173828, 382.1317443847656, -74.697021484375, 0.01600000075995922, 0.03200000151991844, 1.055999994277954, 0.0, 0.0, 0.0, 0.0, 0.0, 1.620309296310618E9, 2021-05-06 15:54:56.310
40.0, 107.35009002685547, 113.1488037109375, 372.6772766113281, -76.36502075195312, 0.01600000075995922, 0.03200000151991844, 1.055999994277954, 0.0, 0.0, 0.0, 0.0, 0.0, 1.6203092963391645E9, 2021-05-06 15:54:56.339
40.0, 110.7085189819336, 113.2086410522461, 369.6629333496094, -86.7582015991211, 0.01600000075995922, 0.03200000151991844, 1.055999994277954, 0.0, 0.0, 0.0, 0.0, 0.0, 1.6203092963391645E9, 2021-05-06 15:54:56.339
41.0, 113.86873626708984, 104.70784759521484, 369.8050537109375, -88.31773376464844, 0.01600000075995922, 0.03200000151991844, 1.055999994277954, 0.0, 0.0, 0.0, 0.0, 0.0, 1.6203092963398893E9, 2021-05-06 15:54:56.339
41.0, 108.58425903320312, 108.0887222290039, 379.4726867675781, -87.41268157958984, 0.01600000075995922, 0.03200000151991844, 1.055999994277954, 0.0, 0.0, 0.0, 0.0, 0.0, 1.6203092963398893E9, 2021-05-06 15:54:56.339
42.0, 107.58196258544922, 109.50614166259766, 376.45458984375, -78.05545043945312, 0.01600000075995922, 0.03200000151991844, 1.055999994277954, 0.0, 0.0, 0.0, 0.0, 0.0, 1.62030929634063E9, 2021-05-06 15:54:56.340
42.0, 105.79802703857422, 102.10113525390625, 362.9722595214844, -88.00358581542969, 0.01600000075995922, 0.03200000151991844, 1.055999994277954, 0.0, 0.0, 0.0, 0.0, 0.0, 1.62030929634063E9, 2021-05-06 15:54:56.340
43.0, 109.968017578125, 99.28125762939453, 371.07659912109375, -83.00334167480469, 0.01600000075995922, 0.03200000151991844, 1.055999994277954, 0.0, 0.0, 0.0, 0.0, 0.0, 1.6203092963528402E9, 2021-05-06 15:54:56.352
43.0, 104.71720123291016, 107.33325958251953, 380.2879943847656, -74.08741760253906, 0.01600000075995922, 0.03200000151991844, 1.055999994277954, 0.0, 0.0, 0.0, 0.0, 0.0, 1.6203092963528402E9, 2021-05-06 15:54:56.352
44.0, 102.98562622070312, 97.85261535644531, 365.8370056152344, -81.23436737060547, 0.01600000075995922, 0.03200000151991844, 1.055999994277954, 0.0, 0.0, 0.0, 0.0, 0.0, 1.620309296368556E9, 2021-05-06 15:54:56.368
44.0, 96.72877502441406, 98.62677001953125, 362.4823303222656, -83.27261352539062, 0.01600000075995922, 0.03200000151991844, 1.055999994277954, 0.0, 0.0, 0.0, 0.0, 0.0, 1.620309296368556E9, 2021-05-06 15:54:56.368
45.0, 103.65880584716797, 98.51083374023438, 371.00555419921875, -80.06378173828125, 0.01600000075995922, 0.03200000151991844, 1.055999994277954, 0.0, 0.0, 0.0, 0.0, 0.0, 1.620309296369269E9, 2021-05-06 15:54:56.369
45.0, 105.82794952392578, 99.37849426269531, 372.4304504394531, -75.04483032226562, 0.01600000075995922, 0.03200000151991844, 1.055999994277954, 0.0, 0.0, 0.0, 0.0, 0.0, 1.620309296369269E9, 2021-05-06 15:54:56.369
46.0, 99.27190399169922, 96.4239730834961, 367.3292236328125, -81.29420471191406, 0.01600000075995922, 0.03200000151991844, 1.055999994277954, 0.0, 0.0, 0.0, 0.0, 0.0, 1.6203092963828661E9, 2021-05-06 15:54:56.382
46.0, 104.71720123291016, 99.73751831054688, 367.99493408203125, -76.95966339111328, 0.01600000075995922, 0.03200000151991844, 1.055999994277954, 0.0, 0.0, 0.0, 0.0, 0.0, 1.6203092963828661E9, 2021-05-06 15:54:56.382
47.0, 96.18648529052734, 91.63690185546875, 368.7915344238281, -86.1598129272461, 0.01600000075995922, 0.03200000151991844, 1.055999994277954, 0.0, 0.0, 0.0, 0.0, 0.0, 1.6203092963984659E9, 2021-05-06 15:54:56.398
47.0, 99.88524627685547, 95.23094177246094, 373.4925842285156, -79.86556243896484, 0.01600000075995922, 0.03200000151991844, 1.055999994277954, 0.0, 0.0, 0.0, 0.0, 0.0, 1.6203092963984659E9, 2021-05-06 15:54:56.398
48.0, 102.4208984375, 95.53013610839844, 370.4782409667969, -81.74299621582031, 0.01600000075995922, 0.03200000151991844, 1.055999994277954, 0.0, 0.0, 0.0, 0.0, 0.0, 1.620309296399284E9, 2021-05-06 15:54:56.399
48.0, 97.32715606689453, 85.88119506835938, 360.62359619140625, -90.04930877685547, 0.01600000075995922, 0.03200000151991844, 1.055999994277954, 0.0, 0.0, 0.0, 0.0, 0.0, 1.620309296399284E9, 2021-05-06 15:54:56.399
49.0, 107.02471923828125, 92.3923568725586, 373.0699768066406, -84.05425262451172, 0.01600000075995922, 0.03200000151991844, 1.055999994277954, 0.0, 0.0, 0.0, 0.0, 0.0, 1.6203092964129107E9, 2021-05-06 15:54:56.412
49.0, 104.29459381103516, 91.98471069335938, 376.0544128417969, -78.68749237060547, 0.01600000075995922, 0.03200000151991844, 1.055999994277954, 0.0, 0.0, 0.0, 0.0, 0.0, 1.6203092964129107E9, 2021-05-06 15:54:56.412
50.0, 99.8328857421875, 96.19957733154297, 363.2564697265625, -75.57215881347656, 0.01600000075995922, 0.03200000151991844, 1.055999994277954, 0.0, 0.0, 0.0, 0.0, 0.0, 1.6203092964292707E9, 2021-05-06 15:54:56.429
50.0, 87.70813751220703, 88.85066986083984, 360.9040832519531, -80.54996490478516, 0.01600000075995922, 0.03200000151991844, 1.055999994277954, 0.0, 0.0, 0.0, 0.0, 0.0, 1.6203092964292707E9, 2021-05-06 15:54:56.429
51.0, 94.48483276367188, 91.29283142089844, 364.25128173828125, -82.07210540771484, 0.01600000075995922, 0.03200000151991844, 1.055999994277954, 0.0, 0.0, 0.0, 0.0, 0.0, 1.6203092964300144E9, 2021-05-06 15:54:56.430
51.0, 99.01385498046875, 92.31755828857422, 377.0080871582031, -85.32582092285156, 0.01600000075995922, 0.03200000151991844, 1.055999994277954, 0.0, 0.0, 0.0, 0.0, 0.0, 1.6203092964300144E9, 2021-05-06 15:54:56.430
52.0, 91.64250946044922, 94.22490692138672, 372.8493347167969, -80.14231872558594, 0.01600000075995922, 0.03200000151991844, 1.055999994277954, 0.0, 0.0, 0.0, 0.0, 0.0, 1.6203092964427984E9, 2021-05-06 15:54:56.442
52.0, 95.30387115478516, 93.48066711425781, 360.9564514160156, -86.51510620117188, 0.01600000075995922, 0.03200000151991844, 1.055999994277954, 0.0, 0.0, 0.0, 0.0, 0.0, 1.6203092964427984E9, 2021-05-06 15:54:56.442
53.0, 90.09044647216797, 90.27931213378906, 363.0133972167969, -88.59449005126953, 0.01600000075995922, 0.03200000151991844, 1.055999994277954, 0.0, 0.0, 0.0, 0.0, 0.0, 1.620309296458696E9, 2021-05-06 15:54:56.458
53.0, 87.50244140625, 84.83402252197266, 365.4742431640625, -83.73635864257812, 0.01600000075995922, 0.03200000151991844, 1.055999994277954, 0.0, 0.0, 0.0, 0.0, 0.0, 1.620309296458696E9, 2021-05-06 15:54:56.458
54.0, 87.5622787475586, 93.00196075439453, 365.03668212890625, -79.91044616699219, 0.01600000075995922, 0.03200000151991844, 1.055999994277954, 0.0, 0.0, 0.0, 0.0, 0.0, 1.6203092964593794E9, 2021-05-06 15:54:56.459
54.0, 91.16754150390625, 86.9283676147461, 359.8045654296875, -86.61981964111328, 0.01600000075995922, 0.03200000151991844, 1.055999994277954, 0.0, 0.0, 0.0, 0.0, 0.0, 1.6203092964593794E9, 2021-05-06 15:54:56.459
55.0, 94.42499542236328, 87.60154724121094, 362.6581115722656, -83.09309387207031, 0.01600000075995922, 0.03200000151991844, 1.055999994277954, 0.0, 0.0, 0.0, 0.0, 0.0, 1.6203092964727795E9, 2021-05-06 15:54:56.472
55.0, 94.58954620361328, 90.98615264892578, 370.8148193359375, -81.26428985595703, 0.01600000075995922, 0.03200000151991844, 1.055999994277954, 0.0, 0.0, 0.0, 0.0, 0.0, 1.6203092964727795E9, 2021-05-06 15:54:56.472
56.0, 103.01554107666016, 92.48211669921875, 370.5754699707031, -84.1327896118164, 0.01600000075995922, 0.03200000151991844, 1.055999994277954, 0.0, 0.0, 0.0, 0.0, 0.0, 1.6203092964886508E9, 2021-05-06 15:54:56.488
56.0, 98.94279479980469, 91.00111389160156, 363.6940612792969, -87.63333892822266, 0.01600000075995922, 0.03200000151991844, 1.055999994277954, 0.0, 0.0, 0.0, 0.0, 0.0, 1.6203092964886508E9, 2021-05-06 15:54:56.488
57.0, 89.54442596435547, 79.93475341796875, 359.9990234375, -91.65372467041016, 0.01600000075995922, 0.03200000151991844, 1.055999994277954, 0.0, 0.0, 0.0, 0.0, 0.0, 1.6203092964893117E9, 2021-05-06 15:54:56.489
57.0, 94.00238800048828, 83.86538696289062, 373.9937438964844, -81.47746276855469, 0.01600000075995922, 0.03200000151991844, 1.055999994277954, 0.0, 0.0, 0.0, 0.0, 0.0, 1.6203092964893117E9, 2021-05-06 15:54:56.489
58.0, 94.06596374511719, 86.19908142089844, 366.6934509277344, -79.57759094238281, 0.01600000075995922, 0.03200000151991844, 1.055999994277954, 0.0, 0.0, 0.0, 0.0, 0.0, 1.6203092965027697E9, 2021-05-06 15:54:56.502
58.0, 92.99635314941406, 80.07686614990234, 356.3077392578125, -88.00732421875, 0.01600000075995922, 0.03200000151991844, 1.055999994277954, 0.0, 0.0, 0.0, 0.0, 0.0, 1.6203092965027697E9, 2021-05-06 15:54:56.502
59.0, 98.56880187988281, 84.27303314208984, 366.21099853515625, -84.58905792236328, 0.01600000075995922, 0.03200000151991844, 1.055999994277954, 0.0, 0.0, 0.0, 0.0, 0.0, 1.6203092965185888E9, 2021-05-06 15:54:56.518
59.0, 94.03978729248047, 91.43120574951172, 372.7408752441406, -79.3157958984375, 0.01600000075995922, 0.03200000151991844, 1.055999994277954, 0.0, 0.0, 0.0, 0.0, 0.0, 1.6203092965185888E9, 2021-05-06 15:54:56.518
60.0, 85.43053436279297, 82.88179016113281, 361.7193908691406, -85.718505859375, 0.01600000075995922, 0.03200000151991844, 1.055999994277954, 0.0, 0.0, 0.0, 0.0, 0.0, 1.6203092965192883E9, 2021-05-06 15:54:56.519
60.0, 94.64564514160156, 93.92572021484375, 363.9072265625, -81.21940612792969, 0.01600000075995922, 0.03200000151991844, 1.055999994277954, 0.0, 0.0, 0.0, 0.0, 0.0, 1.6203092965192883E9, 2021-05-06 15:54:56.519
61.0, 99.72443389892578, 87.4743881225586, 363.83990478515625, -77.61040496826172, 0.01600000075995922, 0.03200000151991844, 1.055999994277954, 0.0, 0.0, 0.0, 0.0, 0.0, 1.6203092965328217E9, 2021-05-06 15:54:56.532
61.0, 92.7794418334961, 85.32394409179688, 362.9273681640625, -78.22374725341797, 0.01600000075995922, 0.03200000151991844, 1.055999994277954, 0.0, 0.0, 0.0, 0.0, 0.0, 1.6203092965328217E9, 2021-05-06 15:54:56.532
62.0, 82.1431655883789, 82.39934539794922, 356.72662353515625, -79.6785659790039, 0.01600000075995922, 0.03200000151991844, 1.055999994277954, 0.0, 0.0, 0.0, 0.0, 0.0, 1.6203092965486124E9, 2021-05-06 15:54:56.548
62.0, 88.22049713134766, 86.5094985961914, 357.22027587890625, -83.67652130126953, 0.01600000075995922, 0.03200000151991844, 1.055999994277954, 0.0, 0.0, 0.0, 0.0, 0.0, 1.6203092965486124E9, 2021-05-06 15:54:56.548
63.0, 93.3254623413086, 86.32250213623047, 363.3125915527344, -84.71247100830078, 0.01600000075995922, 0.03200000151991844, 1.055999994277954, 0.0, 0.0, 0.0, 0.0, 0.0, 1.6203092965492637E9, 2021-05-06 15:54:56.549
63.0, 96.41461944580078, 96.11355590820312, 374.7117919921875, -70.08572387695312, 0.01600000075995922, 0.03200000151991844, 1.055999994277954, 0.0, 0.0, 0.0, 0.0, 0.0, 1.6203092965492637E9, 2021-05-06 15:54:56.549
64.0, 95.9957504272461, 99.87590026855469, 374.76416015625, -75.20191192626953, 0.01600000075995922, 0.03200000151991844, 1.055999994277954, 0.0, 0.0, 0.0, 0.0, 0.0, 1.6203092965628996E9, 2021-05-06 15:54:56.562
64.0, 85.84192657470703, 90.25313568115234, 358.14776611328125, -90.83094787597656, 0.01600000075995922, 0.03200000151991844, 1.055999994277954, 0.0, 0.0, 0.0, 0.0, 0.0, 1.6203092965628996E9, 2021-05-06 15:54:56.562
65.0, 85.23979949951172, 89.56873321533203, 358.7087707519531, -94.26417541503906, 0.01600000075995922, 0.03200000151991844, 1.055999994277954, 0.0, 0.0, 0.0, 0.0, 0.0, 1.6203092965786777E9, 2021-05-06 15:54:56.578
65.0, 91.69486999511719, 96.46137237548828, 367.1011047363281, -86.14859771728516, 0.01600000075995922, 0.03200000151991844, 1.055999994277954, 0.0, 0.0, 0.0, 0.0, 0.0, 1.6203092965786777E9, 2021-05-06 15:54:56.578
66.0, 90.50557708740234, 94.35580444335938, 364.4457702636719, -84.98175048828125, 0.01600000075995922, 0.03200000151991844, 1.055999994277954, 0.0, 0.0, 0.0, 0.0, 0.0, 1.6203092965792196E9, 2021-05-06 15:54:56.579
66.0, 85.80452728271484, 84.84898376464844, 353.56640625, -88.77774810791016, 0.01600000075995922, 0.03200000151991844, 1.055999994277954, 0.0, 0.0, 0.0, 0.0, 0.0, 1.6203092965792196E9, 2021-05-06 15:54:56.579
67.0, 86.14859771728516, 86.66283416748047, 359.1874694824219, -91.06656646728516, 0.01600000075995922, 0.03200000151991844, 1.055999994277954, 0.0, 0.0, 0.0, 0.0, 0.0, 1.6203092965929012E9, 2021-05-06 15:54:56.592
67.0, 96.48194122314453, 88.25228881835938, 366.01654052734375, -79.41677856445312, 0.01600000075995922, 0.03200000151991844, 1.055999994277954, 0.0, 0.0, 0.0, 0.0, 0.0, 1.6203092965929012E9, 2021-05-06 15:54:56.592
68.0, 93.9687271118164, 94.4380874633789, 365.1526184082031, -77.65901947021484, 0.01600000075995922, 0.03200000151991844, 1.055999994277954, 0.0, 0.0, 0.0, 0.0, 0.0, 1.6203092966085975E9, 2021-05-06 15:54:56.608
68.0, 87.58097839355469, 94.44556427001953, 359.1051940917969, -79.90670013427734, 0.01600000075995922, 0.03200000151991844, 1.055999994277954, 0.0, 0.0, 0.0, 0.0, 0.0, 1.6203092966085975E9, 2021-05-06 15:54:56.608
69.0, 102.0618667602539, 100.7435531616211, 364.7187805175781, -79.48409271240234, 0.01600000075995922, 0.03200000151991844, 1.055999994277954, 0.0, 0.0, 0.0, 0.0, 0.0, 1.6203092966091638E9, 2021-05-06 15:54:56.609
69.0, 95.84989929199219, 93.76116180419922, 364.1989440917969, -82.17308044433594, 0.01600000075995922, 0.03200000151991844, 1.055999994277954, 0.0, 0.0, 0.0, 0.0, 0.0, 1.6203092966091638E9, 2021-05-06 15:54:56.609
70.0, 82.87618255615234, 94.01173400878906, 360.43658447265625, -85.43053436279297, 0.01600000075995922, 0.03200000151991844, 1.055999994277954, 0.0, 0.0, 0.0, 0.0, 0.0, 1.6203092966227632E9, 2021-05-06 15:54:56.622
70.0, 93.69197082519531, 95.51517486572266, 358.82470703125, -87.2668228149414, 0.01600000075995922, 0.03200000151991844, 1.055999994277954, 0.0, 0.0, 0.0, 0.0, 0.0, 1.6203092966227632E9, 2021-05-06 15:54:56.622
71.0, 94.62694549560547, 92.16422271728516, 357.73638916015625, -83.20529174804688, 0.01600000075995922, 0.03200000151991844, 1.055999994277954, 0.0, 0.0, 0.0, 0.0, 0.0, 1.6203092966385486E9, 2021-05-06 15:54:56.638
71.0, 97.01300811767578, 101.95154571533203, 370.4109191894531, -81.4625015258789, 0.01600000075995922, 0.03200000151991844, 1.055999994277954, 0.0, 0.0, 0.0, 0.0, 0.0, 1.6203092966385486E9, 2021-05-06 15:54:56.638
72.0, 90.32232666015625, 95.37306213378906, 361.1210021972656, -86.48892974853516, 0.01600000075995922, 0.03200000151991844, 1.055999994277954, 0.0, 0.0, 0.0, 0.0, 0.0, 1.6203092966391308E9, 2021-05-06 15:54:56.639
72.0, 90.22882843017578, 89.54255676269531, 354.73699951171875, -96.2538070678711, 0.01600000075995922, 0.03200000151991844, 1.055999994277954, 0.0, 0.0, 0.0, 0.0, 0.0, 1.6203092966391308E9, 2021-05-06 15:54:56.639
73.0, 94.3464584350586, 91.4274673461914, 359.2136535644531, -91.49291229248047, 0.01600000075995922, 0.03200000151991844, 1.055999994277954, 0.0, 0.0, 0.0, 0.0, 0.0, 1.6203092966682348E9, 2021-05-06 15:54:56.668
73.0, 94.05474090576172, 88.8170166015625, 364.0830078125, -81.36900329589844, 0.01600000075995922, 0.03200000151991844, 1.055999994277954, 0.0, 0.0, 0.0, 0.0, 0.0, 1.6203092966682348E9, 2021-05-06 15:54:56.668
74.0, 95.8125, 91.52470397949219, 363.4771423339844, -83.48578643798828, 0.01600000075995922, 0.03200000151991844, 1.055999994277954, 0.0, 0.0, 0.0, 0.0, 0.0, 1.6203092966846883E9, 2021-05-06 15:54:56.684
74.0, 101.88609313964844, 86.40103912353516, 351.0681457519531, -91.26477813720703, 0.01600000075995922, 0.03200000151991844, 1.055999994277954, 0.0, 0.0, 0.0, 0.0, 0.0, 1.6203092966846883E9, 2021-05-06 15:54:56.684
75.0, 102.45082092285156, 86.07566833496094, 358.555419921875, -85.34452056884766, 0.01600000075995922, 0.03200000151991844, 1.055999994277954, 0.0, 0.0, 0.0, 0.0, 0.0, 1.6203092966854117E9, 2021-05-06 15:54:56.685
75.0, 95.92095184326172, 92.00341033935547, 360.4927062988281, -82.14690399169922, 0.01600000075995922, 0.03200000151991844, 1.055999994277954, 0.0, 0.0, 0.0, 0.0, 0.0, 1.6203092966854117E9, 2021-05-06 15:54:56.685
76.0, 93.97246551513672, 82.12259674072266, 358.3983459472656, -82.87618255615234, 0.01600000075995922, 0.03200000151991844, 1.055999994277954, 0.0, 0.0, 0.0, 0.0, 0.0, 1.6203092966991708E9, 2021-05-06 15:54:56.699
76.0, 94.90370178222656, 85.21923065185547, 350.9297790527344, -88.47855377197266, 0.01600000075995922, 0.03200000151991844, 1.055999994277954, 0.0, 0.0, 0.0, 0.0, 0.0, 1.6203092966991708E9, 2021-05-06 15:54:56.699
77.0, 99.57109832763672, 91.55835723876953, 360.0326843261719, -84.34222412109375, 0.01600000075995922, 0.03200000151991844, 1.055999994277954, 0.0, 0.0, 0.0, 0.0, 0.0, 1.6203092966998618E9, 2021-05-06 15:54:56.699
77.0, 101.9795913696289, 89.81182861328125, 364.97308349609375, -80.20215606689453, 0.01600000075995922, 0.03200000151991844, 1.055999994277954, 0.0, 0.0, 0.0, 0.0, 0.0, 1.6203092966998618E9, 2021-05-06 15:54:56.699
78.0, 94.81768035888672, 91.28160858154297, 355.75799560546875, -84.88450622558594, 0.01600000075995922, 0.03200000151991844, 1.055999994277954, 0.0, 0.0, 0.0, 0.0, 0.0, 1.6203092967006383E9, 2021-05-06 15:54:56.700
78.0, 98.8044204711914, 86.64413452148438, 352.5267028808594, -90.88330841064453, 0.01600000075995922, 0.03200000151991844, 1.055999994277954, 0.0, 0.0, 0.0, 0.0, 0.0, 1.6203092967006383E9, 2021-05-06 15:54:56.700
79.0, 103.19132232666016, 90.17459869384766, 358.2637023925781, -87.91382598876953, 0.01600000075995922, 0.03200000151991844, 1.055999994277954, 0.0, 0.0, 0.0, 0.0, 0.0, 1.6203092967128267E9, 2021-05-06 15:54:56.712
79.0, 100.67436981201172, 86.991943359375, 364.46820068359375, -83.4483871459961, 0.01600000075995922, 0.03200000151991844, 1.055999994277954, 0.0, 0.0, 0.0, 0.0, 0.0, 1.6203092967128267E9, 2021-05-06 15:54:56.712
80.0, 97.63756561279297, 87.41081237792969, 358.74615478515625, -87.50244140625, 0.01600000075995922, 0.03200000151991844, 1.055999994277954, 0.0, 0.0, 0.0, 0.0, 0.0, 1.6203092967285273E9, 2021-05-06 15:54:56.728
80.0, 97.07284545898438, 83.43155670166016, 354.4415283203125, -93.1646499633789, 0.01600000075995922, 0.03200000151991844, 1.055999994277954, 0.0, 0.0, 0.0, 0.0, 0.0, 1.6203092967285273E9, 2021-05-06 15:54:56.728
81.0, 97.91058349609375, 85.7876968383789, 355.3615417480469, -93.32172393798828, 0.01600000075995922, 0.03200000151991844, 1.055999994277954, 0.0, 0.0, 0.0, 0.0, 0.0, 1.6203092967292297E9, 2021-05-06 15:54:56.729
81.0, 96.7175521850586, 91.82389068603516, 364.9506530761719, -81.61583709716797, 0.01600000075995922, 0.03200000151991844, 1.055999994277954, 0.0, 0.0, 0.0, 0.0, 0.0, 1.6203092967292297E9, 2021-05-06 15:54:56.729
82.0, 95.12809753417969, 89.72955322265625, 358.21136474609375, -90.89453125, 0.01600000075995922, 0.03200000151991844, 1.055999994277954, 0.0, 0.0, 0.0, 0.0, 0.0, 1.620309296742805E9, 2021-05-06 15:54:56.742
82.0, 99.35417938232422, 88.00545501708984, 355.5335998535156, -90.41582489013672, 0.01600000075995922, 0.03200000151991844, 1.055999994277954, 0.0, 0.0, 0.0, 0.0, 0.0, 1.620309296742805E9, 2021-05-06 15:54:56.742
83.0, 104.08889770507812, 93.59660339355469, 361.9250793457031, -85.46045684814453, 0.01600000075995922, 0.03200000151991844, 1.055999994277954, 0.0, 0.0, 0.0, 0.0, 0.0, 1.6203092967585251E9, 2021-05-06 15:54:56.758
83.0, 102.30870056152344, 89.39669799804688, 366.4765319824219, -79.873046875, 0.01600000075995922, 0.03200000151991844, 1.055999994277954, 0.0, 0.0, 0.0, 0.0, 0.0, 1.6203092967585251E9, 2021-05-06 15:54:56.758
84.0, 94.53345489501953, 88.8357162475586, 358.8434143066406, -85.7820816040039, 0.01600000075995922, 0.03200000151991844, 1.055999994277954, 0.0, 0.0, 0.0, 0.0, 0.0, 1.620309296759227E9, 2021-05-06 15:54:56.759
84.0, 91.95291900634766, 86.55437469482422, 354.1834716796875, -91.98284149169922, 0.01600000075995922, 0.03200000151991844, 1.055999994277954, 0.0, 0.0, 0.0, 0.0, 0.0, 1.620309296759227E9, 2021-05-06 15:54:56.759
85.0, 102.60415649414062, 92.71025085449219, 360.33563232421875, -83.57554626464844, 0.01600000075995922, 0.03200000151991844, 1.055999994277954, 0.0, 0.0, 0.0, 0.0, 0.0, 1.6203092967899024E9, 2021-05-06 15:54:56.789
85.0, 96.82227325439453, 90.86273956298828, 360.39544677734375, -83.50448608398438, 0.01600000075995922, 0.03200000151991844, 1.055999994277954, 0.0, 0.0, 0.0, 0.0, 0.0, 1.6203092967899024E9, 2021-05-06 15:54:56.789
86.0, 94.98597717285156, 85.4847640991211, 353.0839538574219, -89.65662384033203, 0.01600000075995922, 0.03200000151991844, 1.055999994277954, 0.0, 0.0, 0.0, 0.0, 0.0, 1.6203092967906237E9, 2021-05-06 15:54:56.790
86.0, 95.27021026611328, 82.28714752197266, 346.60272216796875, -93.5835189819336, 0.01600000075995922, 0.03200000151991844, 1.055999994277954, 0.0, 0.0, 0.0, 0.0, 0.0, 1.6203092967906237E9, 2021-05-06 15:54:56.790
87.0, 96.42584228515625, 87.75114440917969, 356.9659729003906, -90.15776824951172, 0.01600000075995922, 0.03200000151991844, 1.055999994277954, 0.0, 0.0, 0.0, 0.0, 0.0, 1.6203092967913637E9, 2021-05-06 15:54:56.791
87.0, 103.53164672851562, 86.17290496826172, 366.712158203125, -83.687744140625, 0.01600000075995922, 0.03200000151991844, 1.055999994277954, 0.0, 0.0, 0.0, 0.0, 0.0, 1.6203092967913637E9, 2021-05-06 15:54:56.791
88.0, 94.29409790039062, 83.83172607421875, 356.63311767578125, -93.7293701171875, 0.01600000075995922, 0.03200000151991844, 1.055999994277954, 0.0, 0.0, 0.0, 0.0, 0.0, 1.6203092968028643E9, 2021-05-06 15:54:56.802
88.0, 94.85882568359375, 83.36424255371094, 354.3817138671875, -93.69197082519531, 0.01600000075995922, 0.03200000151991844, 1.055999994277954, 0.0, 0.0, 0.0, 0.0, 0.0, 1.6203092968028643E9, 2021-05-06 15:54:56.802
89.0, 96.06681060791016, 81.17639923095703, 360.081298828125, -91.5976333618164, 0.01600000075995922, 0.03200000151991844, 1.055999994277954, 0.0, 0.0, 0.0, 0.0, 0.0, 1.6203092968185818E9, 2021-05-06 15:54:56.818
89.0, 96.44454193115234, 88.4766845703125, 366.7906799316406, -92.30447387695312, 0.01600000075995922, 0.03200000151991844, 1.055999994277954, 0.0, 0.0, 0.0, 0.0, 0.0, 1.6203092968185818E9, 2021-05-06 15:54:56.818
90.0, 98.08635711669922, 92.51577758789062, 366.8580017089844, -80.71826171875, 0.01600000075995922, 0.03200000151991844, 1.055999994277954, 0.0, 0.0, 0.0, 0.0, 0.0, 1.620309296819245E9, 2021-05-06 15:54:56.819
90.0, 87.73057556152344, 83.08000946044922, 348.730712890625, -94.1295394897461, 0.01600000075995922, 0.03200000151991844, 1.055999994277954, 0.0, 0.0, 0.0, 0.0, 0.0, 1.620309296819245E9, 2021-05-06 15:54:56.819
91.0, 92.14739227294922, 92.91594696044922, 359.8681335449219, -86.72827911376953, 0.01600000075995922, 0.03200000151991844, 1.055999994277954, 0.0, 0.0, 0.0, 0.0, 0.0, 1.6203092968329115E9, 2021-05-06 15:54:56.832
91.0, 97.38325500488281, 98.58189392089844, 372.5052490234375, -79.09888458251953, 0.01600000075995922, 0.03200000151991844, 1.055999994277954, 0.0, 0.0, 0.0, 0.0, 0.0, 1.6203092968329115E9, 2021-05-06 15:54:56.832
92.0, 90.48687744140625, 92.82618713378906, 361.15838623046875, -81.80657196044922, 0.01600000075995922, 0.03200000151991844, 1.055999994277954, 0.0, 0.0, 0.0, 0.0, 0.0, 1.6203092968487296E9, 2021-05-06 15:54:56.848
92.0, 95.64794158935547, 91.92112731933594, 354.6173095703125, -91.66868591308594, 0.01600000075995922, 0.03200000151991844, 1.055999994277954, 0.0, 0.0, 0.0, 0.0, 0.0, 1.6203092968487296E9, 2021-05-06 15:54:56.848
93.0, 91.98284149169922, 87.62398529052734, 360.87042236328125, -90.10540771484375, 0.01600000075995922, 0.03200000151991844, 1.055999994277954, 0.0, 0.0, 0.0, 0.0, 0.0, 1.6203092968493726E9, 2021-05-06 15:54:56.849
93.0, 91.85194396972656, 91.53965759277344, 364.5467529296875, -82.33390045166016, 0.01600000075995922, 0.03200000151991844, 1.055999994277954, 0.0, 0.0, 0.0, 0.0, 0.0, 1.6203092968493726E9, 2021-05-06 15:54:56.849
94.0, 92.34934997558594, 88.12139129638672, 357.6054992675781, -84.58158111572266, 0.01600000075995922, 0.03200000151991844, 1.055999994277954, 0.0, 0.0, 0.0, 0.0, 0.0, 1.6203092968629527E9, 2021-05-06 15:54:56.862
94.0, 94.17442321777344, 92.53073120117188, 357.1866149902344, -92.87667846679688, 0.01600000075995922, 0.03200000151991844, 1.055999994277954, 0.0, 0.0, 0.0, 0.0, 0.0, 1.6203092968629527E9, 2021-05-06 15:54:56.862
95.0, 99.40280151367188, 92.15300750732422, 362.72540283203125, -83.58302307128906, 0.01600000075995922, 0.03200000151991844, 1.055999994277954, 0.0, 0.0, 0.0, 0.0, 0.0, 1.6203092968785522E9, 2021-05-06 15:54:56.878
95.0, 100.13581848144531, 93.93319702148438, 366.9515075683594, -86.00647735595703, 0.01600000075995922, 0.03200000151991844, 1.055999994277954, 0.0, 0.0, 0.0, 0.0, 0.0, 1.6203092968785522E9, 2021-05-06 15:54:56.878
96.0, 97.51789093017578, 87.52674865722656, 358.6451721191406, -97.0167465209961, 0.01600000075995922, 0.03200000151991844, 1.055999994277954, 0.0, 0.0, 0.0, 0.0, 0.0, 1.6203092968792844E9, 2021-05-06 15:54:56.879
96.0, 100.83892059326172, 90.1035385131836, 360.15985107421875, -93.7106704711914, 0.01600000075995922, 0.03200000151991844, 1.055999994277954, 0.0, 0.0, 0.0, 0.0, 0.0, 1.6203092968792844E9, 2021-05-06 15:54:56.879
97.0, 102.86968994140625, 88.81327056884766, 365.504150390625, -90.6776123046875, 0.01600000075995922, 0.03200000151991844, 1.055999994277954, 0.0, 0.0, 0.0, 0.0, 0.0, 1.620309296909868E9, 2021-05-06 15:54:56.909
97.0, 101.3774642944336, 88.80953216552734, 370.5642395019531, -89.36865234375, 0.01600000075995922, 0.03200000151991844, 1.055999994277954, 0.0, 0.0, 0.0, 0.0, 0.0, 1.620309296909868E9, 2021-05-06 15:54:56.909
98.0, 100.13956451416016, 97.6095199584961, 367.4825744628906, -82.86495971679688, 0.01600000075995922, 0.03200000151991844, 1.055999994277954, 0.0, 0.0, 0.0, 0.0, 0.0, 1.6203092969105835E9, 2021-05-06 15:54:56.910
98.0, 96.79608917236328, 90.55233001708984, 362.3327331542969, -91.70982360839844, 0.01600000075995922, 0.03200000151991844, 1.055999994277954, 0.0, 0.0, 0.0, 0.0, 0.0, 1.6203092969105835E9, 2021-05-06 15:54:56.910
99.0, 103.21749877929688, 91.66681671142578, 364.823486328125, -85.76712799072266, 0.01600000075995922, 0.03200000151991844, 1.055999994277954, 0.0, 0.0, 0.0, 0.0, 0.0, 1.6203092969113324E9, 2021-05-06 15:54:56.911
99.0, 102.4208984375, 99.61036682128906, 374.3340759277344, -86.20843505859375, 0.01600000075995922, 0.03200000151991844, 1.055999994277954, 0.0, 0.0, 0.0, 0.0, 0.0, 1.6203092969113324E9, 2021-05-06 15:54:56.911
100.0, 108.10554504394531, 100.47801971435547, 371.3271789550781, -82.00104522705078, 0.01600000075995922, 0.03200000151991844, 1.055999994277954, 0.0, 0.0, 0.0, 0.0, 0.0, 1.6203092969235256E9, 2021-05-06 15:54:56.923
100.0, 91.00672912597656, 89.47897338867188, 355.4251403808594, -95.07947540283203, 0.01600000075995922, 0.03200000151991844, 1.055999994277954, 0.0, 0.0, 0.0, 0.0, 0.0, 1.6203092969235256E9, 2021-05-06 15:54:56.923
0.0, 105.390380859375, 92.36618041992188, 365.7304382324219, -88.30464935302734, 0.01600000075995922, 0.03200000151991844, 1.055999994277954, 0.0, 0.0, 0.0, 0.0, 0.0, 1.6203092969242144E9, 2021-05-06 15:54:56.924
1.0, 100.21435546875, 93.64522552490234, 369.5488586425781, -86.59551239013672, 0.01600000075995922, 0.03200000151991844, 1.055999994277954, 0.0, 0.0, 0.0, 0.0, 0.0, 1.6203092969378872E9, 2021-05-06 15:54:56.937
1.0, 97.10649871826172, 89.5575180053711, 361.1565246582031, -91.67803955078125, 0.01600000075995922, 0.03200000151991844, 1.055999994277954, 0.0, 0.0, 0.0, 0.0, 0.0, 1.6203092969378872E9, 2021-05-06 15:54:56.937
2.0, 99.57109832763672, 93.5779037475586, 359.7578125, -89.82304382324219, 0.01600000075995922, 0.03200000151991844, 1.055999994277954, 0.0, 0.0, 0.0, 0.0, 0.0, 1.6203092969533432E9, 2021-05-06 15:54:56.953
2.0, 106.59088897705078, 95.0252456665039, 371.73297119140625, -87.8184585571289, 0.01600000075995922, 0.03200000151991844, 1.055999994277954, 0.0, 0.0, 0.0, 0.0, 0.0, 1.6203092969533432E9, 2021-05-06 15:54:56.953
3.0, 99.49256134033203, 93.26001739501953, 372.03216552734375, -88.82075500488281, 0.01600000075995922, 0.03200000151991844, 1.055999994277954, 0.0, 0.0, 0.0, 0.0, 0.0, 1.6203092969685805E9, 2021-05-06 15:54:56.968
3.0, 96.63153839111328, 85.86249542236328, 358.6620178222656, -88.45050048828125, 0.01600000075995922, 0.03200000151991844, 1.055999994277954, 0.0, 0.0, 0.0, 0.0, 0.0, 1.6203092969685805E9, 2021-05-06 15:54:56.968
4.0, 99.61597442626953, 91.76405334472656, 364.6869812011719, -83.45399475097656, 0.01600000075995922, 0.03200000151991844, 1.055999994277954, 0.0, 0.0, 0.0, 0.0, 0.0, 1.6203092969692793E9, 2021-05-06 15:54:56.969
4.0, 99.54866027832031, 88.34204864501953, 366.3325500488281, -85.4885025024414, 0.01600000075995922, 0.03200000151991844, 1.055999994277954, 0.0, 0.0, 0.0, 0.0, 0.0, 1.6203092969692793E9, 2021-05-06 15:54:56.969
5.0, 100.5733871459961, 96.36038970947266, 370.4352111816406, -88.1961898803711, 0.01600000075995922, 0.03200000151991844, 1.055999994277954, 0.0, 0.0, 0.0, 0.0, 0.0, 1.620309296983564E9, 2021-05-06 15:54:56.983
5.0, 94.028564453125, 91.1694107055664, 371.92742919921875, -84.3029556274414, 0.01600000075995922, 0.03200000151991844, 1.055999994277954, 0.0, 0.0, 0.0, 0.0, 0.0, 1.620309296983564E9, 2021-05-06 15:54:56.983
6.0, 99.66085052490234, 96.21453857421875, 366.2764587402344, -84.7629623413086, 0.01600000075995922, 0.03200000151991844, 1.055999994277954, 0.0, 0.0, 0.0, 0.0, 0.0, 1.6203092969841847E9, 2021-05-06 15:54:56.984
6.0, 103.60270690917969, 89.10124969482422, 362.74224853515625, -90.7019271850586, 0.01600000075995922, 0.03200000151991844, 1.055999994277954, 0.0, 0.0, 0.0, 0.0, 0.0, 1.6203092969841847E9, 2021-05-06 15:54:56.984
7.0, 103.93556213378906, 98.32009887695312, 379.2838134765625, -83.45399475097656, 0.01600000075995922, 0.03200000151991844, 1.055999994277954, 0.0, 0.0, 0.0, 0.0, 0.0, 1.6203092969978085E9, 2021-05-06 15:54:56.997
7.0, 88.7927017211914, 93.04309844970703, 370.1846618652344, -89.41165924072266, 0.01600000075995922, 0.03200000151991844, 1.055999994277954, 0.0, 0.0, 0.0, 0.0, 0.0, 1.6203092969978085E9, 2021-05-06 15:54:56.997
8.0, 94.58580780029297, 93.10668182373047, 366.59808349609375, -92.14552307128906, 0.01600000075995922, 0.03200000151991844, 1.055999994277954, 0.0, 0.0, 0.0, 0.0, 0.0, 1.6203092970142171E9, 2021-05-06 15:54:57.014
8.0, 100.88005828857422, 94.42686462402344, 371.0448303222656, -93.61904907226562, 0.01600000075995922, 0.03200000151991844, 1.055999994277954, 0.0, 0.0, 0.0, 0.0, 0.0, 1.6203092970142171E9, 2021-05-06 15:54:57.014
9.0, 97.88813781738281, 95.50395202636719, 377.1072082519531, -85.6081771850586, 0.01600000075995922, 0.03200000151991844, 1.055999994277954, 0.0, 0.0, 0.0, 0.0, 0.0, 1.620309297015036E9, 2021-05-06 15:54:57.015
9.0, 88.85628509521484, 99.25133514404297, 370.6895446777344, -86.24396514892578, 0.01600000075995922, 0.03200000151991844, 1.055999994277954, 0.0, 0.0, 0.0, 0.0, 0.0, 1.620309297015036E9, 2021-05-06 15:54:57.015
10.0, 87.49495697021484, 84.620849609375, 358.5086669921875, -95.50395202636719, 0.01600000075995922, 0.03200000151991844, 1.055999994277954, 0.0, 0.0, 0.0, 0.0, 0.0, 1.6203092970278552E9, 2021-05-06 15:54:57.027
10.0, 98.01155853271484, 95.04768371582031, 374.0180358886719, -83.67091369628906, 0.01600000075995922, 0.03200000151991844, 1.055999994277954, 0.0, 0.0, 0.0, 0.0, 0.0, 1.6203092970278552E9, 2021-05-06 15:54:57.027
11.0, 89.27515411376953, 92.12308502197266, 369.06640625, -84.90882110595703, 0.01600000075995922, 0.03200000151991844, 1.055999994277954, 0.0, 0.0, 0.0, 0.0, 0.0, 1.6203092970434797E9, 2021-05-06 15:54:57.043
11.0, 89.8959732055664, 93.1552963256836, 366.13433837890625, -84.71808624267578, 0.01600000075995922, 0.03200000151991844, 1.055999994277954, 0.0, 0.0, 0.0, 0.0, 0.0, 1.6203092970434797E9, 2021-05-06 15:54:57.043
12.0, 89.66036224365234, 84.49369049072266, 354.910888671875, -91.17314910888672, 0.01600000075995922, 0.03200000151991844, 1.055999994277954, 0.0, 0.0, 0.0, 0.0, 0.0, 1.6203092970441976E9, 2021-05-06 15:54:57.044
12.0, 93.31424713134766, 91.68177795410156, 361.4071044921875, -86.61795043945312, 0.01600000075995922, 0.03200000151991844, 1.055999994277954, 0.0, 0.0, 0.0, 0.0, 0.0, 1.6203092970441976E9, 2021-05-06 15:54:57.044
13.0, 96.33234405517578, 91.75283813476562, 369.6274108886719, -90.7468032836914, 0.01600000075995922, 0.03200000151991844, 1.055999994277954, 0.0, 0.0, 0.0, 0.0, 0.0, 1.620309297057868E9, 2021-05-06 15:54:57.057
13.0, 98.7071762084961, 96.65584564208984, 373.2775573730469, -87.00690460205078, 0.01600000075995922, 0.03200000151991844, 1.055999994277954, 0.0, 0.0, 0.0, 0.0, 0.0, 1.620309297057868E9, 2021-05-06 15:54:57.057
14.0, 95.9134750366211, 85.92233276367188, 358.0224914550781, -94.05287170410156, 0.01600000075995922, 0.03200000151991844, 1.055999994277954, 0.0, 0.0, 0.0, 0.0, 0.0, 1.6203092970734525E9, 2021-05-06 15:54:57.073
14.0, 103.97296142578125, 87.7960205078125, 368.995361328125, -83.62977600097656, 0.01600000075995922, 0.03200000151991844, 1.055999994277954, 0.0, 0.0, 0.0, 0.0, 0.0, 1.6203092970734525E9, 2021-05-06 15:54:57.073
15.0, 97.38699340820312, 91.4686050415039, 369.78448486328125, -81.23623657226562, 0.01600000075995922, 0.03200000151991844, 1.055999994277954, 0.0, 0.0, 0.0, 0.0, 0.0, 1.6203092970741594E9, 2021-05-06 15:54:57.074
15.0, 92.16983795166016, 93.30863189697266, 364.8291015625, -88.72351837158203, 0.01600000075995922, 0.03200000151991844, 1.055999994277954, 0.0, 0.0, 0.0, 0.0, 0.0, 1.6203092970741594E9, 2021-05-06 15:54:57.074
16.0, 93.13846588134766, 82.48910522460938, 354.4396667480469, -93.24505615234375, 0.01600000075995922, 0.03200000151991844, 1.055999994277954, 0.0, 0.0, 0.0, 0.0, 0.0, 1.620309297087782E9, 2021-05-06 15:54:57.087
16.0, 95.93217468261719, 85.54833984375, 362.8843688964844, -92.24275970458984, 0.01600000075995922, 0.03200000151991844, 1.055999994277954, 0.0, 0.0, 0.0, 0.0, 0.0, 1.620309297087782E9, 2021-05-06 15:54:57.087
17.0, 102.41342163085938, 94.8606948852539, 374.1227722167969, -83.16228485107422, 0.01600000075995922, 0.03200000151991844, 1.055999994277954, 0.0, 0.0, 0.0, 0.0, 0.0, 1.6203092971035652E9, 2021-05-06 15:54:57.103
17.0, 97.07284545898438, 91.33770751953125, 370.955078125, -84.39271545410156, 0.01600000075995922, 0.03200000151991844, 1.055999994277954, 0.0, 0.0, 0.0, 0.0, 0.0, 1.6203092971035652E9, 2021-05-06 15:54:57.103
18.0, 92.00154113769531, 82.5564193725586, 356.4816589355469, -91.68925476074219, 0.01600000075995922, 0.03200000151991844, 1.055999994277954, 0.0, 0.0, 0.0, 0.0, 0.0, 1.620309297104254E9, 2021-05-06 15:54:57.104
18.0, 94.4736099243164, 87.65016174316406, 363.3481140136719, -81.51299285888672, 0.01600000075995922, 0.03200000151991844, 1.055999994277954, 0.0, 0.0, 0.0, 0.0, 0.0, 1.620309297104254E9, 2021-05-06 15:54:57.104
19.0, 93.74433135986328, 92.77008819580078, 372.4173583984375, -80.26386260986328, 0.01600000075995922, 0.03200000151991844, 1.055999994277954, 0.0, 0.0, 0.0, 0.0, 0.0, 1.620309297117924E9, 2021-05-06 15:54:57.117
19.0, 92.73081970214844, 95.33566284179688, 368.6774597167969, -81.96925354003906, 0.01600000075995922, 0.03200000151991844, 1.055999994277954, 0.0, 0.0, 0.0, 0.0, 0.0, 1.620309297117924E9, 2021-05-06 15:54:57.117
20.0, 88.97969818115234, 86.32250213623047, 359.9747314453125, -88.64498138427734, 0.01600000075995922, 0.03200000151991844, 1.055999994277954, 0.0, 0.0, 0.0, 0.0, 0.0, 1.6203092971334903E9, 2021-05-06 15:54:57.133
20.0, 95.62550354003906, 84.43759155273438, 364.5224304199219, -84.92752075195312, 0.01600000075995922, 0.03200000151991844, 1.055999994277954, 0.0, 0.0, 0.0, 0.0, 0.0, 1.6203092971334903E9, 2021-05-06 15:54:57.133
21.0, 99.66085052490234, 86.2888412475586, 371.25799560546875, -76.29956817626953, 0.01600000075995922, 0.03200000151991844, 1.055999994277954, 0.0, 0.0, 0.0, 0.0, 0.0, 1.62030929713419E9, 2021-05-06 15:54:57.134
21.0, 96.47071838378906, 85.63809967041016, 367.5068664550781, -83.9588851928711, 0.01600000075995922, 0.03200000151991844, 1.055999994277954, 0.0, 0.0, 0.0, 0.0, 0.0, 1.62030929713419E9, 2021-05-06 15:54:57.134
22.0, 96.08924865722656, 84.7629623413086, 357.9402160644531, -88.2410659790039, 0.01600000075995922, 0.03200000151991844, 1.055999994277954, 0.0, 0.0, 0.0, 0.0, 0.0, 1.6203092971478097E9, 2021-05-06 15:54:57.147
22.0, 104.8667984008789, 90.94127655029297, 370.79425048828125, -83.60359191894531, 0.01600000075995922, 0.03200000151991844, 1.055999994277954, 0.0, 0.0, 0.0, 0.0, 0.0, 1.6203092971478097E9, 2021-05-06 15:54:57.147
23.0, 98.6660385131836, 89.55003356933594, 373.2962341308594, -84.54978942871094, 0.01600000075995922, 0.03200000151991844, 1.055999994277954, 0.0, 0.0, 0.0, 0.0, 0.0, 1.6203092971634436E9, 2021-05-06 15:54:57.163
23.0, 97.38699340820312, 92.45967864990234, 369.9303283691406, -88.31961059570312, 0.01600000075995922, 0.03200000151991844, 1.055999994277954, 0.0, 0.0, 0.0, 0.0, 0.0, 1.6203092971634436E9, 2021-05-06 15:54:57.163
24.0, 99.87403106689453, 93.34229278564453, 366.9234619140625, -86.61421203613281, 0.01600000075995922, 0.03200000151991844, 1.055999994277954, 0.0, 0.0, 0.0, 0.0, 0.0, 1.6203092971641872E9, 2021-05-06 15:54:57.164
24.0, 104.2684097290039, 94.621337890625, 372.63055419921875, -87.22755432128906, 0.01600000075995922, 0.03200000151991844, 1.055999994277954, 0.0, 0.0, 0.0, 0.0, 0.0, 1.6203092971641872E9, 2021-05-06 15:54:57.164
25.0, 101.6392593383789, 90.21947479248047, 377.36151123046875, -82.83317565917969, 0.01600000075995922, 0.03200000151991844, 1.055999994277954, 0.0, 0.0, 0.0, 0.0, 0.0, 1.6203092971777647E9, 2021-05-06 15:54:57.177
25.0, 99.5860595703125, 89.43783569335938, 369.3656005859375, -81.393310546875, 0.01600000075995922, 0.03200000151991844, 1.055999994277954, 0.0, 0.0, 0.0, 0.0, 0.0, 1.6203092971777647E9, 2021-05-06 15:54:57.177
26.0, 103.16887664794922, 88.48789978027344, 370.23699951171875, -95.2010269165039, 0.01600000075995922, 0.03200000151991844, 1.055999994277954, 0.0, 0.0, 0.0, 0.0, 0.0, 1.620309297193699E9, 2021-05-06 15:54:57.193
26.0, 107.36878967285156, 94.35206604003906, 370.1622009277344, -92.29885864257812, 0.01600000075995922, 0.03200000151991844, 1.055999994277954, 0.0, 0.0, 0.0, 0.0, 0.0, 1.620309297193699E9, 2021-05-06 15:54:57.193
27.0, 97.20748138427734, 92.42601776123047, 378.3488464355469, -85.32769012451172, 0.01600000075995922, 0.03200000151991844, 1.055999994277954, 0.0, 0.0, 0.0, 0.0, 0.0, 1.62030929719443E9, 2021-05-06 15:54:57.194
27.0, 96.11542510986328, 92.62049102783203, 372.06207275390625, -81.40827178955078, 0.01600000075995922, 0.03200000151991844, 1.055999994277954, 0.0, 0.0, 0.0, 0.0, 0.0, 1.62030929719443E9, 2021-05-06 15:54:57.194
28.0, 98.87921142578125, 88.97782897949219, 360.9732666015625, -83.10992431640625, 0.01600000075995922, 0.03200000151991844, 1.055999994277954, 0.0, 0.0, 0.0, 0.0, 0.0, 1.620309297207779E9, 2021-05-06 15:54:57.207
28.0, 101.56446075439453, 102.54618835449219, 374.0704040527344, -79.18302917480469, 0.01600000075995922, 0.03200000151991844, 1.055999994277954, 0.0, 0.0, 0.0, 0.0, 0.0, 1.620309297207779E9, 2021-05-06 15:54:57.207
29.0, 102.82855224609375, 100.15638732910156, 376.04132080078125, -77.86284637451172, 0.01600000075995922, 0.03200000151991844, 1.055999994277954, 0.0, 0.0, 0.0, 0.0, 0.0, 1.620309297223604E9, 2021-05-06 15:54:57.223
29.0, 86.78811645507812, 94.19873046875, 370.3080749511719, -82.8144760131836, 0.01600000075995922, 0.03200000151991844, 1.055999994277954, 0.0, 0.0, 0.0, 0.0, 0.0, 1.620309297223604E9, 2021-05-06 15:54:57.223
30.0, 92.08381652832031, 90.33915710449219, 361.24627685546875, -91.98097229003906, 0.01600000075995922, 0.03200000151991844, 1.055999994277954, 0.0, 0.0, 0.0, 0.0, 0.0, 1.6203092972242265E9, 2021-05-06 15:54:57.224
30.0, 105.24078369140625, 93.82473754882812, 372.0957336425781, -80.66403198242188, 0.01600000075995922, 0.03200000151991844, 1.055999994277954, 0.0, 0.0, 0.0, 0.0, 0.0, 1.6203092972242265E9, 2021-05-06 15:54:57.224
31.0, 101.26901245117188, 99.10922241210938, 375.0502624511719, -82.8593521118164, 0.01600000075995922, 0.03200000151991844, 1.055999994277954, 0.0, 0.0, 0.0, 0.0, 0.0, 1.6203092972378037E9, 2021-05-06 15:54:57.237
31.0, 95.28890991210938, 92.80001068115234, 368.6026611328125, -86.06818389892578, 0.01600000075995922, 0.03200000151991844, 1.055999994277954, 0.0, 0.0, 0.0, 0.0, 0.0, 1.6203092972378037E9, 2021-05-06 15:54:57.237
32.0, 98.61368560791016, 99.42337036132812, 360.9358825683594, -89.53507232666016, 0.01600000075995922, 0.03200000151991844, 1.055999994277954, 0.0, 0.0, 0.0, 0.0, 0.0, 1.6203092972531905E9, 2021-05-06 15:54:57.253
32.0, 103.64010620117188, 93.88832092285156, 370.9400939941406, -91.57331848144531, 0.01600000075995922, 0.03200000151991844, 1.055999994277954, 0.0, 0.0, 0.0, 0.0, 0.0, 1.6203092972531905E9, 2021-05-06 15:54:57.253
33.0, 104.1038589477539, 92.69902801513672, 374.5191955566406, -86.79373168945312, 0.01600000075995922, 0.03200000151991844, 1.055999994277954, 0.0, 0.0, 0.0, 0.0, 0.0, 1.6203092972685874E9, 2021-05-06 15:54:57.268
33.0, 101.19047546386719, 88.33831024169922, 368.9916076660156, -85.12947082519531, 0.01600000075995922, 0.03200000151991844, 1.055999994277954, 0.0, 0.0, 0.0, 0.0, 0.0, 1.6203092972685874E9, 2021-05-06 15:54:57.268
34.0, 95.4534683227539, 87.40333557128906, 357.83551025390625, -99.61784362792969, 0.01600000075995922, 0.03200000151991844, 1.055999994277954, 0.0, 0.0, 0.0, 0.0, 0.0, 1.620309297269235E9, 2021-05-06 15:54:57.269
34.0, 97.40943145751953, 96.05745697021484, 368.55780029296875, -87.59032440185547, 0.01600000075995922, 0.03200000151991844, 1.055999994277954, 0.0, 0.0, 0.0, 0.0, 0.0, 1.620309297269235E9, 2021-05-06 15:54:57.269
35.0, 98.55010223388672, 93.39091491699219, 371.7965393066406, -82.1151123046875, 0.01600000075995922, 0.03200000151991844, 1.055999994277954, 0.0, 0.0, 0.0, 0.0, 0.0, 1.620309297283697E9, 2021-05-06 15:54:57.283
35.0, 86.8853530883789, 97.27666473388672, 362.73101806640625, -83.83546447753906, 0.01600000075995922, 0.03200000151991844, 1.055999994277954, 0.0, 0.0, 0.0, 0.0, 0.0, 1.620309297283697E9, 2021-05-06 15:54:57.283
36.0, 94.84386444091797, 101.405517578125, 365.31903076171875, -77.84414672851562, 0.01600000075995922, 0.03200000151991844, 1.055999994277954, 0.0, 0.0, 0.0, 0.0, 0.0, 1.620309297284292E9, 2021-05-06 15:54:57.284
36.0, 100.34525299072266, 93.17025756835938, 366.0632629394531, -81.3746109008789, 0.01600000075995922, 0.03200000151991844, 1.055999994277954, 0.0, 0.0, 0.0, 0.0, 0.0, 1.620309297284292E9, 2021-05-06 15:54:57.284
37.0, 93.65457153320312, 97.80773162841797, 373.0755920410156, -69.23863983154297, 0.01600000075995922, 0.03200000151991844, 1.055999994277954, 0.0, 0.0, 0.0, 0.0, 0.0, 1.6203092972978427E9, 2021-05-06 15:54:57.297
37.0, 98.17985534667969, 92.44097900390625, 366.7925720214844, -72.73918151855469, 0.01600000075995922, 0.03200000151991844, 1.055999994277954, 0.0, 0.0, 0.0, 0.0, 0.0, 1.6203092972978427E9, 2021-05-06 15:54:57.297
38.0, 97.46927642822266, 82.85187530517578, 354.5780334472656, -83.22586059570312, 0.01600000075995922, 0.03200000151991844, 1.055999994277954, 0.0, 0.0, 0.0, 0.0, 0.0, 1.6203092973132608E9, 2021-05-06 15:54:57.313
38.0, 98.83059692382812, 90.52989196777344, 358.88641357421875, -86.10932922363281, 0.01600000075995922, 0.03200000151991844, 1.055999994277954, 0.0, 0.0, 0.0, 0.0, 0.0, 1.6203092973132608E9, 2021-05-06 15:54:57.313
39.0, 106.12339782714844, 97.42252349853516, 373.6739807128906, -78.55098724365234, 0.01600000075995922, 0.03200000151991844, 1.055999994277954, 0.0, 0.0, 0.0, 0.0, 0.0, 1.6203092973285627E9, 2021-05-06 15:54:57.328
39.0, 99.49256134033203, 93.89205932617188, 365.65936279296875, -82.07023620605469, 0.01600000075995922, 0.03200000151991844, 1.055999994277954, 0.0, 0.0, 0.0, 0.0, 0.0, 1.6203092973285627E9, 2021-05-06 15:54:57.328
40.0, 93.61717224121094, 88.34578704833984, 360.75634765625, -90.67200469970703, 0.01600000075995922, 0.03200000151991844, 1.055999994277954, 0.0, 0.0, 0.0, 0.0, 0.0, 1.6203092973292973E9, 2021-05-06 15:54:57.329
40.0, 98.71092224121094, 96.3865737915039, 370.8316650390625, -78.03114318847656, 0.01600000075995922, 0.03200000151991844, 1.055999994277954, 0.0, 0.0, 0.0, 0.0, 0.0, 1.6203092973292973E9, 2021-05-06 15:54:57.329
41.0, 96.49690246582031, 90.21573638916016, 371.5085754394531, -87.42951202392578, 0.01600000075995922, 0.03200000151991844, 1.055999994277954, 0.0, 0.0, 0.0, 0.0, 0.0, 1.62030929734357E9, 2021-05-06 15:54:57.343
41.0, 98.70343780517578, 90.95997619628906, 360.86480712890625, -89.2209243774414, 0.01600000075995922, 0.03200000151991844, 1.055999994277954, 0.0, 0.0, 0.0, 0.0, 0.0, 1.62030929734357E9, 2021-05-06 15:54:57.343
42.0, 95.67037963867188, 90.59720611572266, 354.9295959472656, -94.01173400878906, 0.01600000075995922, 0.03200000151991844, 1.055999994277954, 0.0, 0.0, 0.0, 0.0, 0.0, 1.6203092973442187E9, 2021-05-06 15:54:57.344
42.0, 96.62779235839844, 98.2527847290039, 364.911376953125, -88.68611907958984, 0.01600000075995922, 0.03200000151991844, 1.055999994277954, 0.0, 0.0, 0.0, 0.0, 0.0, 1.6203092973442187E9, 2021-05-06 15:54:57.344
43.0, 99.59727478027344, 99.8198013305664, 374.55657958984375, -87.41828918457031, 0.01600000075995922, 0.03200000151991844, 1.055999994277954, 0.0, 0.0, 0.0, 0.0, 0.0, 1.6203092973578038E9, 2021-05-06 15:54:57.357
43.0, 95.82371520996094, 102.1497573852539, 365.6631164550781, -85.71663665771484, 0.01600000075995922, 0.03200000151991844, 1.055999994277954, 0.0, 0.0, 0.0, 0.0, 0.0, 1.6203092973578038E9, 2021-05-06 15:54:57.357
44.0, 98.55010223388672, 97.13455200195312, 362.3158874511719, -88.01293182373047, 0.01600000075995922, 0.03200000151991844, 1.055999994277954, 0.0, 0.0, 0.0, 0.0, 0.0, 1.620309297373893E9, 2021-05-06 15:54:57.373
44.0, 92.59992218017578, 87.57162475585938, 365.5733642578125, -96.59600830078125, 0.01600000075995922, 0.03200000151991844, 1.055999994277954, 0.0, 0.0, 0.0, 0.0, 0.0, 1.620309297373893E9, 2021-05-06 15:54:57.373
45.0, 92.9664306640625, 89.86792755126953, 374.9978942871094, -85.37630462646484, 0.01600000075995922, 0.03200000151991844, 1.055999994277954, 0.0, 0.0, 0.0, 0.0, 0.0, 1.6203092973885672E9, 2021-05-06 15:54:57.388
45.0, 94.77654266357422, 88.13261413574219, 365.5546569824219, -88.29342651367188, 0.01600000075995922, 0.03200000151991844, 1.055999994277954, 0.0, 0.0, 0.0, 0.0, 0.0, 1.6203092973885672E9, 2021-05-06 15:54:57.388
46.0, 100.90250396728516, 91.39754486083984, 367.8584289550781, -90.51493072509766, 0.01600000075995922, 0.03200000151991844, 1.055999994277954, 0.0, 0.0, 0.0, 0.0, 0.0, 1.6203092973892493E9, 2021-05-06 15:54:57.389
46.0, 97.11772155761719, 90.83281707763672, 364.4812927246094, -97.78903198242188, 0.01600000075995922, 0.03200000151991844, 1.055999994277954, 0.0, 0.0, 0.0, 0.0, 0.0, 1.6203092973892493E9, 2021-05-06 15:54:57.389
47.0, 97.47675323486328, 87.38837432861328, 371.9237060546875, -92.14178466796875, 0.01600000075995922, 0.03200000151991844, 1.055999994277954, 0.0, 0.0, 0.0, 0.0, 0.0, 1.620309297403601E9, 2021-05-06 15:54:57.403
47.0, 97.80586242675781, 92.56813049316406, 368.20623779296875, -82.80325317382812, 0.01600000075995922, 0.03200000151991844, 1.055999994277954, 0.0, 0.0, 0.0, 0.0, 0.0, 1.620309297403601E9, 2021-05-06 15:54:57.403
48.0, 95.47964477539062, 87.42951202392578, 364.0586853027344, -91.35266876220703, 0.01600000075995922, 0.03200000151991844, 1.055999994277954, 0.0, 0.0, 0.0, 0.0, 0.0, 1.6203092974042354E9, 2021-05-06 15:54:57.404
48.0, 103.62889099121094, 88.95539093017578, 368.1800537109375, -87.29487609863281, 0.01600000075995922, 0.03200000151991844, 1.055999994277954, 0.0, 0.0, 0.0, 0.0, 0.0, 1.6203092974042354E9, 2021-05-06 15:54:57.404
49.0, 106.34405517578125, 101.45413970947266, 371.706787109375, -83.99254608154297, 0.01600000075995922, 0.03200000151991844, 1.055999994277954, 0.0, 0.0, 0.0, 0.0, 0.0, 1.6203092974349437E9, 2021-05-06 15:54:57.434
49.0, 96.30615997314453, 87.72122192382812, 370.44268798828125, -85.466064453125, 0.01600000075995922, 0.03200000151991844, 1.055999994277954, 0.0, 0.0, 0.0, 0.0, 0.0, 1.6203092974349437E9, 2021-05-06 15:54:57.434
50.0, 102.49195861816406, 88.89555358886719, 360.7376708984375, -91.064697265625, 0.01600000075995922, 0.03200000151991844, 1.055999994277954, 0.0, 0.0, 0.0, 0.0, 0.0, 1.6203092974356475E9, 2021-05-06 15:54:57.435
50.0, 108.13546752929688, 90.91136169433594, 370.72320556640625, -91.93608856201172, 0.01600000075995922, 0.03200000151991844, 1.055999994277954, 0.0, 0.0, 0.0, 0.0, 0.0, 1.6203092974356475E9, 2021-05-06 15:54:57.435
51.0, 99.02507019042969, 89.81182861328125, 374.83709716796875, -92.56439208984375, 0.01600000075995922, 0.03200000151991844, 1.055999994277954, 0.0, 0.0, 0.0, 0.0, 0.0, 1.620309297436437E9, 2021-05-06 15:54:57.436
51.0, 91.57518768310547, 89.7220687866211, 361.1452941894531, -88.71977996826172, 0.01600000075995922, 0.03200000151991844, 1.055999994277954, 0.0, 0.0, 0.0, 0.0, 0.0, 1.620309297436437E9, 2021-05-06 15:54:57.436
52.0, 102.94448852539062, 87.90821838378906, 358.41143798828125, -92.56439208984375, 0.01600000075995922, 0.03200000151991844, 1.055999994277954, 0.0, 0.0, 0.0, 0.0, 0.0, 1.6203092974478006E9, 2021-05-06 15:54:57.447
52.0, 98.69222259521484, 91.13948822021484, 367.34979248046875, -91.42372131347656, 0.01600000075995922, 0.03200000151991844, 1.055999994277954, 0.0, 0.0, 0.0, 0.0, 0.0, 1.6203092974478006E9, 2021-05-06 15:54:57.447
53.0, 102.61537170410156, 87.53797149658203, 370.2220458984375, -82.96781158447266, 0.01600000075995922, 0.03200000151991844, 1.055999994277954, 0.0, 0.0, 0.0, 0.0, 0.0, 1.6203092974634757E9, 2021-05-06 15:54:57.463
53.0, 95.14305114746094, 90.54110717773438, 365.1507568359375, -89.2620620727539, 0.01600000075995922, 0.03200000151991844, 1.055999994277954, 0.0, 0.0, 0.0, 0.0, 0.0, 1.6203092974634757E9, 2021-05-06 15:54:57.463
54.0, 96.26876831054688, 88.91051483154297, 360.416015625, -86.37486267089844, 0.01600000075995922, 0.03200000151991844, 1.055999994277954, 0.0, 0.0, 0.0, 0.0, 0.0, 1.6203092974641967E9, 2021-05-06 15:54:57.464
54.0, 99.8104476928711, 89.19474029541016, 364.6421203613281, -87.07421875, 0.01600000075995922, 0.03200000151991844, 1.055999994277954, 0.0, 0.0, 0.0, 0.0, 0.0, 1.6203092974641967E9, 2021-05-06 15:54:57.464
55.0, 107.20796966552734, 102.06373596191406, 378.80511474609375, -83.02764892578125, 0.01600000075995922, 0.03200000151991844, 1.055999994277954, 0.0, 0.0, 0.0, 0.0, 0.0, 1.6203092974946525E9, 2021-05-06 15:54:57.494
55.0, 97.95172119140625, 90.76924133300781, 364.6271667480469, -81.78974151611328, 0.01600000075995922, 0.03200000151991844, 1.055999994277954, 0.0, 0.0, 0.0, 0.0, 0.0, 1.6203092974946525E9, 2021-05-06 15:54:57.494
56.0, 88.15318298339844, 87.46691131591797, 355.72991943359375, -96.28559112548828, 0.01600000075995922, 0.03200000151991844, 1.055999994277954, 0.0, 0.0, 0.0, 0.0, 0.0, 1.6203092974953768E9, 2021-05-06 15:54:57.495
56.0, 99.7319107055664, 93.74620056152344, 369.06268310546875, -85.7876968383789, 0.01600000075995922, 0.03200000151991844, 1.055999994277954, 0.0, 0.0, 0.0, 0.0, 0.0, 1.6203092974953768E9, 2021-05-06 15:54:57.495
57.0, 102.24138641357422, 96.46137237548828, 373.9656982421875, -84.13465881347656, 0.01600000075995922, 0.03200000151991844, 1.055999994277954, 0.0, 0.0, 0.0, 0.0, 0.0, 1.62030929750846E9, 2021-05-06 15:54:57.508
57.0, 95.1542739868164, 89.43783569335938, 365.861328125, -93.32733154296875, 0.01600000075995922, 0.03200000151991844, 1.055999994277954, 0.0, 0.0, 0.0, 0.0, 0.0, 1.62030929750846E9, 2021-05-06 15:54:57.508
58.0, 96.93072509765625, 92.91594696044922, 357.86541748046875, -95.05516815185547, 0.01600000075995922, 0.03200000151991844, 1.055999994277954, 0.0, 0.0, 0.0, 0.0, 0.0, 1.6203092975092037E9, 2021-05-06 15:54:57.509
58.0, 105.39785766601562, 96.26315307617188, 360.70025634765625, -91.0833969116211, 0.01600000075995922, 0.03200000151991844, 1.055999994277954, 0.0, 0.0, 0.0, 0.0, 0.0, 1.6203092975092037E9, 2021-05-06 15:54:57.509
59.0, 100.13956451416016, 92.09317016601562, 366.6354675292969, -85.97843170166016, 0.01600000075995922, 0.03200000151991844, 1.055999994277954, 0.0, 0.0, 0.0, 0.0, 0.0, 1.6203092975236385E9, 2021-05-06 15:54:57.523
59.0, 98.27709197998047, 88.52904510498047, 364.3429260253906, -83.9813232421875, 0.01600000075995922, 0.03200000151991844, 1.055999994277954, 0.0, 0.0, 0.0, 0.0, 0.0, 1.6203092975236385E9, 2021-05-06 15:54:57.523
60.0, 101.08575439453125, 83.42407989501953, 356.8668518066406, -96.4277114868164, 0.01600000075995922, 0.03200000151991844, 1.055999994277954, 0.0, 0.0, 0.0, 0.0, 0.0, 1.6203092975242193E9, 2021-05-06 15:54:57.524
60.0, 98.21351623535156, 85.27159118652344, 361.953125, -98.08822631835938, 0.01600000075995922, 0.03200000151991844, 1.055999994277954, 0.0, 0.0, 0.0, 0.0, 0.0, 1.6203092975242193E9, 2021-05-06 15:54:57.524
61.0, 106.35153198242188, 91.2105484008789, 368.88690185546875, -89.60613250732422, 0.01600000075995922, 0.03200000151991844, 1.055999994277954, 0.0, 0.0, 0.0, 0.0, 0.0, 1.6203092975378437E9, 2021-05-06 15:54:57.537
61.0, 105.61851501464844, 94.73353576660156, 367.985595703125, -83.73075103759766, 0.01600000075995922, 0.03200000151991844, 1.055999994277954, 0.0, 0.0, 0.0, 0.0, 0.0, 1.6203092975378437E9, 2021-05-06 15:54:57.537
62.0, 103.1613998413086, 87.32105255126953, 360.9096984863281, -87.72870635986328, 0.01600000075995922, 0.03200000151991844, 1.055999994277954, 0.0, 0.0, 0.0, 0.0, 0.0, 1.6203092975535648E9, 2021-05-06 15:54:57.553
62.0, 103.23246002197266, 96.5286865234375, 370.4576721191406, -87.6127700805664, 0.01600000075995922, 0.03200000151991844, 1.055999994277954, 0.0, 0.0, 0.0, 0.0, 0.0, 1.6203092975535648E9, 2021-05-06 15:54:57.553
63.0, 102.30496215820312, 93.50685119628906, 371.9947509765625, -83.90652465820312, 0.01600000075995922, 0.03200000151991844, 1.055999994277954, 0.0, 0.0, 0.0, 0.0, 0.0, 1.620309297554315E9, 2021-05-06 15:54:57.554
63.0, 92.5438232421875, 91.94357299804688, 367.0281677246094, -88.52156066894531, 0.01600000075995922, 0.03200000151991844, 1.055999994277954, 0.0, 0.0, 0.0, 0.0, 0.0, 1.620309297554315E9, 2021-05-06 15:54:57.554
64.0, 98.1237564086914, 93.0767593383789, 361.32855224609375, -94.35580444335938, 0.01600000075995922, 0.03200000151991844, 1.055999994277954, 0.0, 0.0, 0.0, 0.0, 0.0, 1.62030929756784E9, 2021-05-06 15:54:57.567
64.0, 93.31424713134766, 89.99507904052734, 359.5521240234375, -94.63629913330078, 0.01600000075995922, 0.03200000151991844, 1.055999994277954, 0.0, 0.0, 0.0, 0.0, 0.0, 1.62030929756784E9, 2021-05-06 15:54:57.567
65.0, 98.51270294189453, 93.1964340209961, 363.561279296875, -91.40502166748047, 0.01600000075995922, 0.03200000151991844, 1.055999994277954, 0.0, 0.0, 0.0, 0.0, 0.0, 1.6203092975835955E9, 2021-05-06 15:54:57.583
65.0, 92.5625228881836, 90.94127655029297, 359.12200927734375, -94.06409454345703, 0.01600000075995922, 0.03200000151991844, 1.055999994277954, 0.0, 0.0, 0.0, 0.0, 0.0, 1.6203092975835955E9, 2021-05-06 15:54:57.583
66.0, 88.99465942382812, 91.47608184814453, 356.02911376953125, -96.50251007080078, 0.01600000075995922, 0.03200000151991844, 1.055999994277954, 0.0, 0.0, 0.0, 0.0, 0.0, 1.6203092975842645E9, 2021-05-06 15:54:57.584
66.0, 99.51126098632812, 89.12368774414062, 363.83056640625, -92.09317016601562, 0.01600000075995922, 0.03200000151991844, 1.055999994277954, 0.0, 0.0, 0.0, 0.0, 0.0, 1.6203092975842645E9, 2021-05-06 15:54:57.584
67.0, 97.57025146484375, 96.53990936279297, 370.0948791503906, -82.42178344726562, 0.01600000075995922, 0.03200000151991844, 1.055999994277954, 0.0, 0.0, 0.0, 0.0, 0.0, 1.6203092976141367E9, 2021-05-06 15:54:57.614
67.0, 87.2630844116211, 95.34687805175781, 366.37744140625, -81.29981231689453, 0.01600000075995922, 0.03200000151991844, 1.055999994277954, 0.0, 0.0, 0.0, 0.0, 0.0, 1.6203092976141367E9, 2021-05-06 15:54:57.614
68.0, 90.58786010742188, 102.4676513671875, 359.2716064453125, -84.20945739746094, 0.01600000075995922, 0.03200000151991844, 1.055999994277954, 0.0, 0.0, 0.0, 0.0, 0.0, 1.6203092976148632E9, 2021-05-06 15:54:57.614
68.0, 96.51934051513672, 88.19245147705078, 358.2244567871094, -88.52156066894531, 0.01600000075995922, 0.03200000151991844, 1.055999994277954, 0.0, 0.0, 0.0, 0.0, 0.0, 1.6203092976148632E9, 2021-05-06 15:54:57.614
69.0, 99.7730484008789, 88.66741943359375, 363.8642272949219, -80.32369995117188, 0.01600000075995922, 0.03200000151991844, 1.055999994277954, 0.0, 0.0, 0.0, 0.0, 0.0, 1.62030929761562E9, 2021-05-06 15:54:57.615
69.0, 96.7811279296875, 89.75572967529297, 360.1056213378906, -79.69913482666016, 0.01600000075995922, 0.03200000151991844, 1.055999994277954, 0.0, 0.0, 0.0, 0.0, 0.0, 1.62030929761562E9, 2021-05-06 15:54:57.615
70.0, 100.4499740600586, 98.27522277832031, 358.72186279296875, -83.7419662475586, 0.01600000075995922, 0.03200000151991844, 1.055999994277954, 0.0, 0.0, 0.0, 0.0, 0.0, 1.620309297627958E9, 2021-05-06 15:54:57.627
70.0, 102.23390197753906, 84.69564056396484, 358.4825134277344, -85.30899047851562, 0.01600000075995922, 0.03200000151991844, 1.055999994277954, 0.0, 0.0, 0.0, 0.0, 0.0, 1.620309297627958E9, 2021-05-06 15:54:57.627
71.0, 106.6170654296875, 87.57162475585938, 362.2298889160156, -87.59032440185547, 0.01600000075995922, 0.03200000151991844, 1.055999994277954, 0.0, 0.0, 0.0, 0.0, 0.0, 1.6203092976434724E9, 2021-05-06 15:54:57.643
71.0, 97.8021240234375, 87.12284088134766, 365.3639221191406, -82.3133316040039, 0.01600000075995922, 0.03200000151991844, 1.055999994277954, 0.0, 0.0, 0.0, 0.0, 0.0, 1.6203092976434724E9, 2021-05-06 15:54:57.643
72.0, 102.79489135742188, 92.51203155517578, 362.0877685546875, -86.46087646484375, 0.01600000075995922, 0.03200000151991844, 1.055999994277954, 0.0, 0.0, 0.0, 0.0, 0.0, 1.6203092976442318E9, 2021-05-06 15:54:57.644
72.0, 96.84097290039062, 93.49188995361328, 365.90618896484375, -84.48621368408203, 0.01600000075995922, 0.03200000151991844, 1.055999994277954, 0.0, 0.0, 0.0, 0.0, 0.0, 1.6203092976442318E9, 2021-05-06 15:54:57.644
73.0, 101.30267333984375, 93.1964340209961, 367.74249267578125, -82.32080841064453, 0.01600000075995922, 0.03200000151991844, 1.055999994277954, 0.0, 0.0, 0.0, 0.0, 0.0, 1.6203092976739478E9, 2021-05-06 15:54:57.673
73.0, 92.77195739746094, 84.0224609375, 359.0995788574219, -87.46317291259766, 0.01600000075995922, 0.03200000151991844, 1.055999994277954, 0.0, 0.0, 0.0, 0.0, 0.0, 1.6203092976739478E9, 2021-05-06 15:54:57.673
74.0, 95.96957397460938, 90.11476135253906, 359.0023498535156, -93.79108428955078, 0.01600000075995922, 0.03200000151991844, 1.055999994277954, 0.0, 0.0, 0.0, 0.0, 0.0, 1.6203092976746545E9, 2021-05-06 15:54:57.674
74.0, 106.5123519897461, 87.1153564453125, 362.3009338378906, -92.66537475585938, 0.01600000075995922, 0.03200000151991844, 1.055999994277954, 0.0, 0.0, 0.0, 0.0, 0.0, 1.6203092976746545E9, 2021-05-06 15:54:57.674
75.0, 114.79997253417969, 99.8572006225586, 374.758544921875, -76.7520980834961, 0.01600000075995922, 0.03200000151991844, 1.055999994277954, 0.0, 0.0, 0.0, 0.0, 0.0, 1.6203092976886313E9, 2021-05-06 15:54:57.688
75.0, 93.5835189819336, 88.46546173095703, 365.9099426269531, -81.81966400146484, 0.01600000075995922, 0.03200000151991844, 1.055999994277954, 0.0, 0.0, 0.0, 0.0, 0.0, 1.6203092976886313E9, 2021-05-06 15:54:57.688
76.0, 91.8407211303711, 81.30355834960938, 352.34906005859375, -97.9535903930664, 0.01600000075995922, 0.03200000151991844, 1.055999994277954, 0.0, 0.0, 0.0, 0.0, 0.0, 1.620309297689193E9, 2021-05-06 15:54:57.689
76.0, 97.87318420410156, 82.28714752197266, 361.3023986816406, -87.66886138916016, 0.01600000075995922, 0.03200000151991844, 1.055999994277954, 0.0, 0.0, 0.0, 0.0, 0.0, 1.620309297689193E9, 2021-05-06 15:54:57.689
77.0, 94.39881134033203, 89.71459197998047, 372.222900390625, -78.79408264160156, 0.01600000075995922, 0.03200000151991844, 1.055999994277954, 0.0, 0.0, 0.0, 0.0, 0.0, 1.6203092977207153E9, 2021-05-06 15:54:57.720
77.0, 101.92349243164062, 95.4478530883789, 366.8636169433594, -80.89590454101562, 0.01600000075995922, 0.03200000151991844, 1.055999994277954, 0.0, 0.0, 0.0, 0.0, 0.0, 1.6203092977207153E9, 2021-05-06 15:54:57.720
78.0, 90.53923797607422, 91.82015228271484, 360.5730895996094, -85.61192321777344, 0.01600000075995922, 0.03200000151991844, 1.055999994277954, 0.0, 0.0, 0.0, 0.0, 0.0, 1.620309297721394E9, 2021-05-06 15:54:57.721
78.0, 95.69656372070312, 86.99568176269531, 359.93359375, -82.5190200805664, 0.01600000075995922, 0.03200000151991844, 1.055999994277954, 0.0, 0.0, 0.0, 0.0, 0.0, 1.620309297721394E9, 2021-05-06 15:54:57.721
79.0, 98.13871765136719, 87.29861450195312, 369.0701599121094, -82.78829193115234, 0.01600000075995922, 0.03200000151991844, 1.055999994277954, 0.0, 0.0, 0.0, 0.0, 0.0, 1.6203092977221498E9, 2021-05-06 15:54:57.722
