Sample Index, EXG Channel 0, EXG Channel 1, EXG Channel 2, EXG Channel 3, Accel Channel 0, Accel Channel 1, Accel Channel 2, Other, Other, Other, Other, Other, Timestamp, Timestamp (Formatted)
0.0, 99.05873107910156, 111.42283630371094, 323.69207763671875, -114.85419464111328, 0.0, 0.0, 0.0, 0.0, 0.0, 0.0, 0.0, 0.0, 1.620309726945314E9, 2021-05-06 16:02:06.945
1.0, 105.64095306396484, 119.1045913696289, 333.31109619140625, -109.95867156982422, 0.0, 0.03200000151991844, 0.0, 0.0, 0.0, 0.0, 0.0, 0.0, 1.6203097269758692E9, 2021-05-06 16:02:06.975
1.0, 100.82395935058594, 117.6572494506836, 325.68170166015625, -116.99716186523438, 0.0, 0.03200000151991844, 0.0, 0.0, 0.0, 0.0, 0.0, 0.0, 1.6203097269758692E9, 2021-05-06 16:02:06.975
2.0, 100.73794555664062, 112.71684265136719, 319.5445251464844, -113.66864776611328, 0.01600000075995922, 0.03200000151991844, 0.0, 0.0, 0.0, 0.0, 0.0, 0.0, 1.6203097269770331E9, 2021-05-06 16:02:06.977
2.0, 100.3302993774414, 124.97623443603516, 328.4903869628906, -109.34158325195312, 0.01600000075995922, 0.03200000151991844, 0.0, 0.0, 0.0, 0.0, 0.0, 0.0, 1.6203097269770331E9, 2021-05-06 16:02:06.977
3.0, 104.93037414550781, 119.21305084228516, 330.9175720214844, -105.36607360839844, 0.01600000075995922, 0.03200000151991844, 0.0, 0.0, 0.0, 0.0, 0.0, 0.0, 1.620309726977748E9, 2021-05-06 16:02:06.977
3.0, 92.63358306884766, 113.85377502441406, 321.7099304199219, -110.08956146240234, 0.01600000075995922, 0.03200000151991844, 0.0, 0.0, 0.0, 0.0, 0.0, 0.0, 1.620309726977748E9, 2021-05-06 16:02:06.977
4.0, 93.53863525390625, 113.15441131591797, 321.4518737792969, -112.0268325805664, 0.01600000075995922, 0.03200000151991844, 0.0, 0.0, 0.0, 0.0, 0.0, 0.0, 1.6203097269884856E9, 2021-05-06 16:02:06.988
4.0, 103.16887664794922, 114.95704650878906, 331.04473876953125, -107.46415710449219, 0.01600000075995922, 0.03200000151991844, 0.0, 0.0, 0.0, 0.0, 0.0, 0.0, 1.6203097269884856E9, 2021-05-06 16:02:06.988
5.0, 90.5728988647461, 119.13825225830078, 334.93048095703125, -108.9301986694336, 0.01600000075995922, 0.03200000151991844, 0.0, 0.0, 0.0, 0.0, 0.0, 0.0, 1.6203097270042548E9, 2021-05-06 16:02:07.004
5.0, 90.00443267822266, 123.11002349853516, 325.0608825683594, -105.52688598632812, 0.01600000075995922, 0.03200000151991844, 0.0, 0.0, 0.0, 0.0, 0.0, 0.0, 1.6203097270042548E9, 2021-05-06 16:02:07.004
6.0, 88.25041961669922, 112.9188003540039, 322.01287841796875, -113.13384246826172, 0.01600000075995922, 0.03200000151991844, 0.0, 0.0, 0.0, 0.0, 0.0, 0.0, 1.620309727005096E9, 2021-05-06 16:02:07.005
6.0, 100.19566345214844, 118.2593765258789, 324.7055969238281, -109.81281280517578, 0.01600000075995922, 0.03200000151991844, 0.0, 0.0, 0.0, 0.0, 0.0, 0.0, 1.620309727005096E9, 2021-05-06 16:02:07.005
7.0, 96.20144653320312, 125.15949249267578, 331.04473876953125, -105.68770599365234, 0.01600000075995922, 0.03200000151991844, 0.0, 0.0, 0.0, 0.0, 0.0, 0.0, 1.6203097270349019E9, 2021-05-06 16:02:07.034
7.0, 93.81912994384766, 122.175048828125, 328.1537780761719, -107.60253143310547, 0.01600000075995922, 0.03200000151991844, 0.0, 0.0, 0.0, 0.0, 0.0, 0.0, 1.6203097270349019E9, 2021-05-06 16:02:07.034
8.0, 96.89706420898438, 120.27144622802734, 317.3342590332031, -117.37114715576172, 0.01600000075995922, 0.03200000151991844, 0.0, 0.0, 0.0, 0.0, 0.0, 0.0, 1.6203097270356312E9, 2021-05-06 16:02:07.035
8.0, 108.41221618652344, 121.12039947509766, 324.9561767578125, -115.02249145507812, 0.01600000075995922, 0.03200000151991844, 0.0, 0.0, 0.0, 0.0, 0.0, 0.0, 1.6203097270356312E9, 2021-05-06 16:02:07.035
9.0, 103.1613998413086, 119.81143188476562, 333.812255859375, -110.27281951904297, 0.01600000075995922, 0.03200000151991844, 0.0, 0.0, 0.0, 0.0, 0.0, 0.0, 1.620309727036376E9, 2021-05-06 16:02:07.036
9.0, 91.30217742919922, 120.66039276123047, 323.8865661621094, -118.42206573486328, 0.01600000075995922, 0.03200000151991844, 0.0, 0.0, 0.0, 0.0, 0.0, 0.0, 1.620309727036376E9, 2021-05-06 16:02:07.036
10.0, 87.98114776611328, 114.91216278076172, 320.7188720703125, -117.03456115722656, 0.01600000075995922, 0.03200000151991844, 1.055999994277954, 0.0, 0.0, 0.0, 0.0, 0.0, 1.6203097270485227E9, 2021-05-06 16:02:07.048
10.0, 95.0682601928711, 116.31462860107422, 328.25848388671875, -113.63873291015625, 0.01600000075995922, 0.03200000151991844, 1.055999994277954, 0.0, 0.0, 0.0, 0.0, 0.0, 1.6203097270485227E9, 2021-05-06 16:02:07.048
11.0, 98.6697769165039, 121.92447662353516, 338.31134033203125, -103.56343841552734, 0.01600000075995922, 0.03200000151991844, 1.055999994277954, 0.0, 0.0, 0.0, 0.0, 0.0, 1.620309727064242E9, 2021-05-06 16:02:07.064
11.0, 86.81055450439453, 114.71395111083984, 323.6285095214844, -110.02598571777344, 0.01600000075995922, 0.03200000151991844, 1.055999994277954, 0.0, 0.0, 0.0, 0.0, 0.0, 1.620309727064242E9, 2021-05-06 16:02:07.064
12.0, 90.2138671875, 113.6817398071289, 320.8235778808594, -112.7897720336914, 0.01600000075995922, 0.03200000151991844, 1.055999994277954, 0.0, 0.0, 0.0, 0.0, 0.0, 1.6203097270649807E9, 2021-05-06 16:02:07.064
12.0, 98.31075286865234, 120.44721984863281, 331.3551330566406, -102.04129791259766, 0.01600000075995922, 0.03200000151991844, 1.055999994277954, 0.0, 0.0, 0.0, 0.0, 0.0, 1.6203097270649807E9, 2021-05-06 16:02:07.064
13.0, 99.55239868164062, 124.85282135009766, 331.02227783203125, -106.90691375732422, 0.01600000075995922, 0.03200000151991844, 1.055999994277954, 0.0, 0.0, 0.0, 0.0, 0.0, 1.620309727095091E9, 2021-05-06 16:02:07.095
13.0, 88.0484619140625, 119.23548889160156, 328.37445068359375, -109.25556945800781, 0.01600000075995922, 0.03200000151991844, 1.055999994277954, 0.0, 0.0, 0.0, 0.0, 0.0, 1.620309727095091E9, 2021-05-06 16:02:07.095
14.0, 90.55419921875, 118.64458465576172, 322.6523742675781, -110.0334701538086, 0.01600000075995922, 0.03200000151991844, 1.055999994277954, 0.0, 0.0, 0.0, 0.0, 0.0, 1.6203097270957172E9, 2021-05-06 16:02:07.095
14.0, 94.8139419555664, 120.34998321533203, 332.7276916503906, -105.39972686767578, 0.01600000075995922, 0.03200000151991844, 1.055999994277954, 0.0, 0.0, 0.0, 0.0, 0.0, 1.6203097270957172E9, 2021-05-06 16:02:07.095
15.0, 89.8922348022461, 128.22621154785156, 335.0726013183594, -106.46934509277344, 0.01600000075995922, 0.03200000151991844, 1.055999994277954, 0.0, 0.0, 0.0, 0.0, 0.0, 1.6203097270965023E9, 2021-05-06 16:02:07.096
15.0, 88.74408721923828, 119.41500854492188, 327.07293701171875, -104.33011627197266, 0.01600000075995922, 0.03200000151991844, 1.055999994277954, 0.0, 0.0, 0.0, 0.0, 0.0, 1.6203097270965023E9, 2021-05-06 16:02:07.096
16.0, 90.68509674072266, 120.82120513916016, 324.6981201171875, -106.2412109375, 0.01600000075995922, 0.03200000151991844, 1.055999994277954, 0.0, 0.0, 0.0, 0.0, 0.0, 1.6203097271087027E9, 2021-05-06 16:02:07.108
16.0, 90.54297637939453, 119.67679595947266, 330.52862548828125, -105.74380493164062, 0.01600000075995922, 0.03200000151991844, 1.055999994277954, 0.0, 0.0, 0.0, 0.0, 0.0, 1.6203097271087027E9, 2021-05-06 16:02:07.108
17.0, 98.82685852050781, 122.05911254882812, 332.7688293457031, -107.01910400390625, 0.01600000075995922, 0.03200000151991844, 1.055999994277954, 0.0, 0.0, 0.0, 0.0, 0.0, 1.6203097271246629E9, 2021-05-06 16:02:07.124
17.0, 99.08116912841797, 123.196044921875, 328.43426513671875, -109.94371032714844, 0.01600000075995922, 0.03200000151991844, 1.055999994277954, 0.0, 0.0, 0.0, 0.0, 0.0, 1.6203097271246629E9, 2021-05-06 16:02:07.124
18.0, 95.04581451416016, 122.90058898925781, 323.14605712890625, -116.2229995727539, 0.01600000075995922, 0.03200000151991844, 1.055999994277954, 0.0, 0.0, 0.0, 0.0, 0.0, 1.6203097271407585E9, 2021-05-06 16:02:07.140
18.0, 92.16609191894531, 123.32320404052734, 330.10601806640625, -110.34014129638672, 0.01600000075995922, 0.03200000151991844, 1.055999994277954, 0.0, 0.0, 0.0, 0.0, 0.0, 1.6203097271407585E9, 2021-05-06 16:02:07.140
19.0, 98.7071762084961, 122.87067413330078, 334.56024169921875, -104.66297149658203, 0.01600000075995922, 0.03200000151991844, 1.055999994277954, 0.0, 0.0, 0.0, 0.0, 0.0, 1.6203097271413395E9, 2021-05-06 16:02:07.141
19.0, 91.7584457397461, 124.16841888427734, 326.3399353027344, -108.96011352539062, 0.01600000075995922, 0.03200000151991844, 1.055999994277954, 0.0, 0.0, 0.0, 0.0, 0.0, 1.6203097271413395E9, 2021-05-06 16:02:07.141
20.0, 98.8044204711914, 121.2251205444336, 328.80078125, -111.06193542480469, 0.01600000075995922, 0.03200000151991844, 1.055999994277954, 0.0, 0.0, 0.0, 0.0, 0.0, 1.6203097271420507E9, 2021-05-06 16:02:07.142
20.0, 94.73540496826172, 119.94232940673828, 334.19744873046875, -103.83271026611328, 0.01600000075995922, 0.03200000151991844, 1.055999994277954, 0.0, 0.0, 0.0, 0.0, 0.0, 1.6203097271420507E9, 2021-05-06 16:02:07.142
21.0, 95.28517150878906, 115.88453674316406, 335.5438232421875, -99.50564575195312, 0.01600000075995922, 0.03200000151991844, 1.055999994277954, 0.0, 0.0, 0.0, 0.0, 0.0, 1.6203097271535804E9, 2021-05-06 16:02:07.153
21.0, 90.02687072753906, 122.59766387939453, 329.2533264160156, -105.38477325439453, 0.01600000075995922, 0.03200000151991844, 1.055999994277954, 0.0, 0.0, 0.0, 0.0, 0.0, 1.6203097271535804E9, 2021-05-06 16:02:07.153
22.0, 86.40290832519531, 121.84967803955078, 327.34222412109375, -107.86432647705078, 0.01600000075995922, 0.03200000151991844, 1.055999994277954, 0.0, 0.0, 0.0, 0.0, 0.0, 1.620309727168538E9, 2021-05-06 16:02:07.168
22.0, 91.09274291992188, 120.49958038330078, 336.6658020019531, -105.35111236572266, 0.01600000075995922, 0.03200000151991844, 1.055999994277954, 0.0, 0.0, 0.0, 0.0, 0.0, 1.620309727168538E9, 2021-05-06 16:02:07.168
23.0, 96.96438598632812, 124.25069427490234, 337.5558776855469, -98.84368896484375, 0.01600000075995922, 0.03200000151991844, 1.055999994277954, 0.0, 0.0, 0.0, 0.0, 0.0, 1.6203097271842685E9, 2021-05-06 16:02:07.184
23.0, 93.57977294921875, 127.08554077148438, 326.8934326171875, -105.81111907958984, 0.01600000075995922, 0.03200000151991844, 1.055999994277954, 0.0, 0.0, 0.0, 0.0, 0.0, 1.6203097271842685E9, 2021-05-06 16:02:07.184
24.0, 85.90924072265625, 115.731201171875, 328.3819274902344, -107.93537902832031, 0.01600000075995922, 0.03200000151991844, 1.055999994277954, 0.0, 0.0, 0.0, 0.0, 0.0, 1.6203097271850276E9, 2021-05-06 16:02:07.185
24.0, 95.214111328125, 118.48377227783203, 336.6470947265625, -105.30997467041016, 0.01600000075995922, 0.03200000151991844, 1.055999994277954, 0.0, 0.0, 0.0, 0.0, 0.0, 1.6203097271850276E9, 2021-05-06 16:02:07.185
25.0, 99.4289779663086, 122.43684387207031, 340.3084716796875, -105.2015151977539, 0.01600000075995922, 0.03200000151991844, 1.055999994277954, 0.0, 0.0, 0.0, 0.0, 0.0, 1.6203097271986911E9, 2021-05-06 16:02:07.198
25.0, 90.18394470214844, 124.25069427490234, 333.26995849609375, -107.71472930908203, 0.01600000075995922, 0.03200000151991844, 1.055999994277954, 0.0, 0.0, 0.0, 0.0, 0.0, 1.6203097271986911E9, 2021-05-06 16:02:07.198
26.0, 93.30302429199219, 124.44891357421875, 330.6707458496094, -105.85225677490234, 0.01600000075995922, 0.03200000151991844, 1.055999994277954, 0.0, 0.0, 0.0, 0.0, 0.0, 1.6203097272141628E9, 2021-05-06 16:02:07.214
26.0, 95.71151733398438, 119.63191986083984, 335.1137390136719, -102.01885986328125, 0.01600000075995922, 0.03200000151991844, 1.055999994277954, 0.0, 0.0, 0.0, 0.0, 0.0, 1.6203097272141628E9, 2021-05-06 16:02:07.214
27.0, 89.5930404663086, 117.5338363647461, 330.5921936035156, -109.7342758178711, 0.01600000075995922, 0.03200000151991844, 1.055999994277954, 0.0, 0.0, 0.0, 0.0, 0.0, 1.6203097272148983E9, 2021-05-06 16:02:07.214
27.0, 97.07658386230469, 112.10723876953125, 328.3146057128906, -110.59071350097656, 0.01600000075995922, 0.03200000151991844, 1.055999994277954, 0.0, 0.0, 0.0, 0.0, 0.0, 1.6203097272148983E9, 2021-05-06 16:02:07.214
28.0, 91.24981689453125, 112.514892578125, 322.49530029296875, -114.55874633789062, 0.01600000075995922, 0.03200000151991844, 1.055999994277954, 0.0, 0.0, 0.0, 0.0, 0.0, 1.6203097272286105E9, 2021-05-06 16:02:07.228
28.0, 95.84615325927734, 114.17540740966797, 337.1033630371094, -112.17642974853516, 0.01600000075995922, 0.03200000151991844, 1.055999994277954, 0.0, 0.0, 0.0, 0.0, 0.0, 1.6203097272286105E9, 2021-05-06 16:02:07.228
29.0, 98.49026489257812, 125.04729461669922, 338.52825927734375, -110.40371704101562, 0.01600000075995922, 0.03200000151991844, 1.055999994277954, 0.0, 0.0, 0.0, 0.0, 0.0, 1.6203097272443585E9, 2021-05-06 16:02:07.244
29.0, 95.4946060180664, 119.92362976074219, 335.5325927734375, -110.92729949951172, 0.01600000075995922, 0.03200000151991844, 1.055999994277954, 0.0, 0.0, 0.0, 0.0, 0.0, 1.6203097272443585E9, 2021-05-06 16:02:07.244
30.0, 91.52283477783203, 113.29278564453125, 330.1396789550781, -107.72594451904297, 0.01600000075995922, 0.03200000151991844, 1.055999994277954, 0.0, 0.0, 0.0, 0.0, 0.0, 1.6203097272450247E9, 2021-05-06 16:02:07.245
30.0, 99.49256134033203, 121.10169982910156, 340.5216369628906, -108.38790893554688, 0.01600000075995922, 0.03200000151991844, 1.055999994277954, 0.0, 0.0, 0.0, 0.0, 0.0, 1.6203097272450247E9, 2021-05-06 16:02:07.245
31.0, 103.85702514648438, 110.18867492675781, 335.6597595214844, -110.44111633300781, 0.01600000075995922, 0.03200000151991844, 1.055999994277954, 0.0, 0.0, 0.0, 0.0, 0.0, 1.6203097272585306E9, 2021-05-06 16:02:07.258
31.0, 90.84590911865234, 117.04764556884766, 330.85400390625, -109.88387298583984, 0.01600000075995922, 0.03200000151991844, 1.055999994277954, 0.0, 0.0, 0.0, 0.0, 0.0, 1.6203097272585306E9, 2021-05-06 16:02:07.258
32.0, 95.24403381347656, 113.5994644165039, 324.67193603515625, -108.06253814697266, 0.01600000075995922, 0.03200000151991844, 1.055999994277954, 0.0, 0.0, 0.0, 0.0, 0.0, 1.6203097272742555E9, 2021-05-06 16:02:07.274
32.0, 99.63467407226562, 118.94751739501953, 332.75384521484375, -104.40491485595703, 0.01600000075995922, 0.03200000151991844, 1.055999994277954, 0.0, 0.0, 0.0, 0.0, 0.0, 1.6203097272742555E9, 2021-05-06 16:02:07.274
33.0, 91.99031829833984, 122.0927734375, 336.4713134765625, -100.66875457763672, 0.01600000075995922, 0.03200000151991844, 1.055999994277954, 0.0, 0.0, 0.0, 0.0, 0.0, 1.6203097272749677E9, 2021-05-06 16:02:07.274
33.0, 90.78233337402344, 124.26565551757812, 331.04473876953125, -100.21623229980469, 0.01600000075995922, 0.03200000151991844, 1.055999994277954, 0.0, 0.0, 0.0, 0.0, 0.0, 1.6203097272749677E9, 2021-05-06 16:02:07.274
34.0, 96.30615997314453, 110.44298553466797, 326.2613830566406, -108.1485595703125, 0.01600000075995922, 0.03200000151991844, 1.055999994277954, 0.0, 0.0, 0.0, 0.0, 0.0, 1.6203097273048697E9, 2021-05-06 16:02:07.304
34.0, 99.80297088623047, 114.9271240234375, 337.08465576171875, -105.27631378173828, 0.01600000075995922, 0.03200000151991844, 1.055999994277954, 0.0, 0.0, 0.0, 0.0, 0.0, 1.6203097273048697E9, 2021-05-06 16:02:07.304
35.0, 94.97850036621094, 115.70502471923828, 339.45574951171875, -108.22709655761719, 0.01600000075995922, 0.03200000151991844, 1.055999994277954, 0.0, 0.0, 0.0, 0.0, 0.0, 1.6203097273056946E9, 2021-05-06 16:02:07.305
35.0, 95.73021697998047, 113.45360565185547, 328.9466552734375, -110.04842376708984, 0.01600000075995922, 0.03200000151991844, 1.055999994277954, 0.0, 0.0, 0.0, 0.0, 0.0, 1.6203097273056946E9, 2021-05-06 16:02:07.305
36.0, 96.56795501708984, 108.74880981445312, 323.77435302734375, -111.47706604003906, 0.01600000075995922, 0.03200000151991844, 1.055999994277954, 0.0, 0.0, 0.0, 0.0, 0.0, 1.620309727306369E9, 2021-05-06 16:02:07.306
36.0, 101.42234802246094, 113.13571166992188, 333.471923828125, -104.10946655273438, 0.01600000075995922, 0.03200000151991844, 1.055999994277954, 0.0, 0.0, 0.0, 0.0, 0.0, 1.620309727306369E9, 2021-05-06 16:02:07.306
37.0, 96.75495147705078, 116.01917266845703, 340.0354309082031, -108.72076416015625, 0.01600000075995922, 0.03200000151991844, 1.055999994277954, 0.0, 0.0, 0.0, 0.0, 0.0, 1.6203097273185382E9, 2021-05-06 16:02:07.318
37.0, 93.3890380859375, 115.88453674316406, 332.181640625, -109.7567138671875, 0.01600000075995922, 0.03200000151991844, 1.055999994277954, 0.0, 0.0, 0.0, 0.0, 0.0, 1.6203097273185382E9, 2021-05-06 16:02:07.318
38.0, 93.84905242919922, 117.86294555664062, 333.8496398925781, -110.57575225830078, 0.01600000075995922, 0.03200000151991844, 1.055999994277954, 0.0, 0.0, 0.0, 0.0, 0.0, 1.6203097273342783E9, 2021-05-06 16:02:07.334
38.0, 95.88729858398438, 113.00856018066406, 338.1355895996094, -110.42989349365234, 0.01600000075995922, 0.03200000151991844, 1.055999994277954, 0.0, 0.0, 0.0, 0.0, 0.0, 1.6203097273342783E9, 2021-05-06 16:02:07.334
39.0, 101.71031951904297, 118.95125579833984, 344.38494873046875, -100.93428802490234, 0.01600000075995922, 0.03200000151991844, 1.055999994277954, 0.0, 0.0, 0.0, 0.0, 0.0, 1.6203097273350246E9, 2021-05-06 16:02:07.335
39.0, 107.12195587158203, 113.34514617919922, 331.9684753417969, -112.7074966430664, 0.01600000075995922, 0.03200000151991844, 1.055999994277954, 0.0, 0.0, 0.0, 0.0, 0.0, 1.6203097273350246E9, 2021-05-06 16:02:07.335
40.0, 90.10540771484375, 117.45903778076172, 329.91900634765625, -112.39334106445312, 0.01600000075995922, 0.03200000151991844, 1.055999994277954, 0.0, 0.0, 0.0, 0.0, 0.0, 1.6203097273485548E9, 2021-05-06 16:02:07.348
40.0, 110.49160766601562, 115.3310317993164, 335.667236328125, -110.44485473632812, 0.01600000075995922, 0.03200000151991844, 1.055999994277954, 0.0, 0.0, 0.0, 0.0, 0.0, 1.6203097273485548E9, 2021-05-06 16:02:07.348
41.0, 98.441650390625, 117.41790008544922, 344.8823547363281, -106.41324615478516, 0.01600000075995922, 0.03200000151991844, 1.055999994277954, 0.0, 0.0, 0.0, 0.0, 0.0, 1.6203097273642392E9, 2021-05-06 16:02:07.364
41.0, 95.0719985961914, 115.05054473876953, 336.16839599609375, -112.43074035644531, 0.01600000075995922, 0.03200000151991844, 1.055999994277954, 0.0, 0.0, 0.0, 0.0, 0.0, 1.6203097273642392E9, 2021-05-06 16:02:07.364
42.0, 106.01868438720703, 117.37676239013672, 333.5729064941406, -115.19452667236328, 0.01600000075995922, 0.03200000151991844, 1.055999994277954, 0.0, 0.0, 0.0, 0.0, 0.0, 1.6203097273649313E9, 2021-05-06 16:02:07.364
42.0, 96.26128387451172, 118.18457794189453, 344.2391052246094, -113.82198333740234, 0.01600000075995922, 0.03200000151991844, 1.055999994277954, 0.0, 0.0, 0.0, 0.0, 0.0, 1.6203097273649313E9, 2021-05-06 16:02:07.364
43.0, 98.03025817871094, 118.52117156982422, 348.53997802734375, -105.65030670166016, 0.01600000075995922, 0.03200000151991844, 1.055999994277954, 0.0, 0.0, 0.0, 0.0, 0.0, 1.6203097273786385E9, 2021-05-06 16:02:07.378
43.0, 91.80706787109375, 110.43924713134766, 334.668701171875, -111.35365295410156, 0.01600000075995922, 0.03200000151991844, 1.055999994277954, 0.0, 0.0, 0.0, 0.0, 0.0, 1.6203097273786385E9, 2021-05-06 16:02:07.378
44.0, 94.17442321777344, 108.30376434326172, 333.31109619140625, -114.09500122070312, 0.01600000075995922, 0.03200000151991844, 1.055999994277954, 0.0, 0.0, 0.0, 0.0, 0.0, 1.620309727394209E9, 2021-05-06 16:02:07.394
44.0, 102.96318817138672, 109.39955139160156, 342.90020751953125, -116.74284362792969, 0.01600000075995922, 0.03200000151991844, 1.055999994277954, 0.0, 0.0, 0.0, 0.0, 0.0, 1.620309727394209E9, 2021-05-06 16:02:07.394
45.0, 100.08720397949219, 115.60404968261719, 346.18011474609375, -109.56224060058594, 0.01600000075995922, 0.03200000151991844, 1.055999994277954, 0.0, 0.0, 0.0, 0.0, 0.0, 1.620309727394938E9, 2021-05-06 16:02:07.394
45.0, 94.52223205566406, 119.4411849975586, 336.4787902832031, -110.23168182373047, 0.01600000075995922, 0.03200000151991844, 1.055999994277954, 0.0, 0.0, 0.0, 0.0, 0.0, 1.620309727394938E9, 2021-05-06 16:02:07.394
46.0, 92.69342041015625, 111.45649719238281, 332.7688293457031, -114.16605377197266, 0.01600000075995922, 0.03200000151991844, 1.055999994277954, 0.0, 0.0, 0.0, 0.0, 0.0, 1.6203097274250045E9, 2021-05-06 16:02:07.425
46.0, 90.52053833007812, 114.35865783691406, 341.2733459472656, -114.14735412597656, 0.01600000075995922, 0.03200000151991844, 1.055999994277954, 0.0, 0.0, 0.0, 0.0, 0.0, 1.6203097274250045E9, 2021-05-06 16:02:07.425
47.0, 94.52597045898438, 114.81867218017578, 345.75, -107.30333709716797, 0.01600000075995922, 0.03200000151991844, 1.055999994277954, 0.0, 0.0, 0.0, 0.0, 0.0, 1.6203097274258015E9, 2021-05-06 16:02:07.425
47.0, 92.63732147216797, 115.70128631591797, 338.64794921875, -110.42615509033203, 0.01600000075995922, 0.03200000151991844, 1.055999994277954, 0.0, 0.0, 0.0, 0.0, 0.0, 1.6203097274258015E9, 2021-05-06 16:02:07.425
48.0, 96.05933380126953, 114.123046875, 335.58123779296875, -113.26473999023438, 0.01600000075995922, 0.03200000151991844, 1.055999994277954, 0.0, 0.0, 0.0, 0.0, 0.0, 1.62030972742659E9, 2021-05-06 16:02:07.426
48.0, 100.92120361328125, 115.41705322265625, 339.235107421875, -115.41144561767578, 0.01600000075995922, 0.03200000151991844, 1.055999994277954, 0.0, 0.0, 0.0, 0.0, 0.0, 1.62030972742659E9, 2021-05-06 16:02:07.426
49.0, 104.27589416503906, 113.17311096191406, 342.4588928222656, -109.94744873046875, 0.01600000075995922, 0.03200000151991844, 1.055999994277954, 0.0, 0.0, 0.0, 0.0, 0.0, 1.6203097274384935E9, 2021-05-06 16:02:07.438
49.0, 106.27299499511719, 112.12967681884766, 339.564208984375, -109.34158325195312, 0.01600000075995922, 0.03200000151991844, 1.055999994277954, 0.0, 0.0, 0.0, 0.0, 0.0, 1.6203097274384935E9, 2021-05-06 16:02:07.438
50.0, 99.89273071289062, 102.52188110351562, 331.1643981933594, -115.8789291381836, 0.01600000075995922, 0.03200000151991844, 1.055999994277954, 0.0, 0.0, 0.0, 0.0, 0.0, 1.6203097274542665E9, 2021-05-06 16:02:07.454
50.0, 99.25320434570312, 111.37422180175781, 346.45684814453125, -106.36088562011719, 0.01600000075995922, 0.03200000151991844, 1.055999994277954, 0.0, 0.0, 0.0, 0.0, 0.0, 1.6203097274542665E9, 2021-05-06 16:02:07.454
51.0, 100.38265228271484, 115.00192260742188, 349.63201904296875, -102.21333312988281, 0.01600000075995922, 0.03200000151991844, 1.055999994277954, 0.0, 0.0, 0.0, 0.0, 0.0, 1.6203097274549828E9, 2021-05-06 16:02:07.454
51.0, 89.87353515625, 110.69729614257812, 339.927001953125, -113.16376495361328, 0.01600000075995922, 0.03200000151991844, 1.055999994277954, 0.0, 0.0, 0.0, 0.0, 0.0, 1.6203097274549828E9, 2021-05-06 16:02:07.454
52.0, 101.70284271240234, 110.42428588867188, 338.6778564453125, -110.91234588623047, 0.01600000075995922, 0.03200000151991844, 1.055999994277954, 0.0, 0.0, 0.0, 0.0, 0.0, 1.6203097274685607E9, 2021-05-06 16:02:07.468
52.0, 115.02436065673828, 116.01917266845703, 345.88092041015625, -111.6640625, 0.01600000075995922, 0.03200000151991844, 1.055999994277954, 0.0, 0.0, 0.0, 0.0, 0.0, 1.6203097274685607E9, 2021-05-06 16:02:07.468
53.0, 103.49425506591797, 122.4518051147461, 346.4643249511719, -105.9420166015625, 0.01600000075995922, 0.03200000151991844, 1.055999994277954, 0.0, 0.0, 0.0, 0.0, 0.0, 1.6203097274843407E9, 2021-05-06 16:02:07.484
53.0, 96.80357360839844, 111.1947021484375, 335.10626220703125, -113.38441467285156, 0.01600000075995922, 0.03200000151991844, 1.055999994277954, 0.0, 0.0, 0.0, 0.0, 0.0, 1.6203097274843407E9, 2021-05-06 16:02:07.484
54.0, 102.59293365478516, 113.24417114257812, 333.10540771484375, -116.2192611694336, 0.01600000075995922, 0.03200000151991844, 1.055999994277954, 0.0, 0.0, 0.0, 0.0, 0.0, 1.620309727484953E9, 2021-05-06 16:02:07.484
54.0, 101.2129135131836, 116.19869232177734, 340.73480224609375, -116.96723937988281, 0.01600000075995922, 0.03200000151991844, 1.055999994277954, 0.0, 0.0, 0.0, 0.0, 0.0, 1.620309727484953E9, 2021-05-06 16:02:07.484
55.0, 101.50462341308594, 117.0513916015625, 346.26239013671875, -112.7037582397461, 0.01600000075995922, 0.03200000151991844, 1.055999994277954, 0.0, 0.0, 0.0, 0.0, 0.0, 1.6203097274985952E9, 2021-05-06 16:02:07.498
55.0, 99.4701156616211, 114.03328704833984, 337.69427490234375, -113.952880859375, 0.01600000075995922, 0.03200000151991844, 1.055999994277954, 0.0, 0.0, 0.0, 0.0, 0.0, 1.6203097274985952E9, 2021-05-06 16:02:07.498
56.0, 91.82575988769531, 117.18976593017578, 340.1513671875, -110.1793212890625, 0.01600000075995922, 0.03200000151991844, 1.055999994277954, 0.0, 0.0, 0.0, 0.0, 0.0, 1.6203097275142996E9, 2021-05-06 16:02:07.514
56.0, 98.00408172607422, 117.10000610351562, 346.183837890625, -111.43218994140625, 0.01600000075995922, 0.03200000151991844, 1.055999994277954, 0.0, 0.0, 0.0, 0.0, 0.0, 1.6203097275142996E9, 2021-05-06 16:02:07.514
57.0, 97.45057678222656, 118.66702270507812, 350.1219482421875, -109.19947052001953, 0.01600000075995922, 0.03200000151991844, 1.055999994277954, 0.0, 0.0, 0.0, 0.0, 0.0, 1.6203097275149732E9, 2021-05-06 16:02:07.514
57.0, 102.07682800292969, 117.02146911621094, 339.91949462890625, -110.67672729492188, 0.01600000075995922, 0.03200000151991844, 1.055999994277954, 0.0, 0.0, 0.0, 0.0, 0.0, 1.6203097275149732E9, 2021-05-06 16:02:07.514
58.0, 101.01844024658203, 115.40583038330078, 334.5751953125, -119.70858764648438, 0.01600000075995922, 0.03200000151991844, 1.055999994277954, 0.0, 0.0, 0.0, 0.0, 0.0, 1.620309727528611E9, 2021-05-06 16:02:07.528
58.0, 91.81828308105469, 114.1641845703125, 344.1904602050781, -107.21358489990234, 0.01600000075995922, 0.03200000151991844, 1.055999994277954, 0.0, 0.0, 0.0, 0.0, 0.0, 1.620309727528611E9, 2021-05-06 16:02:07.528
59.0, 98.52018737792969, 118.7642593383789, 350.245361328125, -109.96614837646484, 0.01600000075995922, 0.03200000151991844, 1.055999994277954, 0.0, 0.0, 0.0, 0.0, 0.0, 1.6203097275443656E9, 2021-05-06 16:02:07.544
59.0, 88.01106262207031, 117.76197052001953, 338.6030578613281, -119.9554214477539, 0.01600000075995922, 0.03200000151991844, 1.055999994277954, 0.0, 0.0, 0.0, 0.0, 0.0, 1.6203097275443656E9, 2021-05-06 16:02:07.544
60.0, 96.93446350097656, 110.50656127929688, 339.3809509277344, -114.71955871582031, 0.01600000075995922, 0.03200000151991844, 1.055999994277954, 0.0, 0.0, 0.0, 0.0, 0.0, 1.620309727545087E9, 2021-05-06 16:02:07.545
60.0, 96.32112121582031, 112.43260955810547, 343.83892822265625, -112.20635223388672, 0.01600000075995922, 0.03200000151991844, 1.055999994277954, 0.0, 0.0, 0.0, 0.0, 0.0, 1.620309727545087E9, 2021-05-06 16:02:07.545
61.0, 92.19227600097656, 115.73868560791016, 346.5316467285156, -114.42784881591797, 0.01600000075995922, 0.03200000151991844, 1.055999994277954, 0.0, 0.0, 0.0, 0.0, 0.0, 1.6203097275586035E9, 2021-05-06 16:02:07.558
61.0, 92.62984466552734, 116.17251586914062, 342.72442626953125, -112.75237274169922, 0.01600000075995922, 0.03200000151991844, 1.055999994277954, 0.0, 0.0, 0.0, 0.0, 0.0, 1.6203097275586035E9, 2021-05-06 16:02:07.558
62.0, 97.33837890625, 112.50740814208984, 338.8760681152344, -111.7052001953125, 0.01600000075995922, 0.03200000151991844, 1.055999994277954, 0.0, 0.0, 0.0, 0.0, 0.0, 1.6203097275746984E9, 2021-05-06 16:02:07.574
62.0, 93.26188659667969, 114.77378845214844, 344.5719299316406, -115.20948791503906, 0.01600000075995922, 0.03200000151991844, 1.055999994277954, 0.0, 0.0, 0.0, 0.0, 0.0, 1.6203097275746984E9, 2021-05-06 16:02:07.574
63.0, 89.24523162841797, 119.21678924560547, 351.90216064453125, -109.45751953125, 0.01600000075995922, 0.03200000151991844, 1.055999994277954, 0.0, 0.0, 0.0, 0.0, 0.0, 1.6203097275891972E9, 2021-05-06 16:02:07.589
63.0, 92.26707458496094, 113.77897644042969, 343.988525390625, -119.27849578857422, 0.01600000075995922, 0.03200000151991844, 1.055999994277954, 0.0, 0.0, 0.0, 0.0, 0.0, 1.6203097275891972E9, 2021-05-06 16:02:07.589
64.0, 94.65312957763672, 110.94039154052734, 342.6608581542969, -120.22469329833984, 0.01600000075995922, 0.03200000151991844, 1.055999994277954, 0.0, 0.0, 0.0, 0.0, 0.0, 1.6203097275900264E9, 2021-05-06 16:02:07.590
64.0, 93.9687271118164, 121.3934097290039, 355.20074462890625, -112.3222885131836, 0.01600000075995922, 0.03200000151991844, 1.055999994277954, 0.0, 0.0, 0.0, 0.0, 0.0, 1.6203097275900264E9, 2021-05-06 16:02:07.590
65.0, 89.26019287109375, 125.14079284667969, 352.2013244628906, -110.1157455444336, 0.01600000075995922, 0.03200000151991844, 1.055999994277954, 0.0, 0.0, 0.0, 0.0, 0.0, 1.620309727621372E9, 2021-05-06 16:02:07.621
65.0, 86.98633575439453, 118.7231216430664, 343.8052673339844, -113.01416778564453, 0.01600000075995922, 0.03200000151991844, 1.055999994277954, 0.0, 0.0, 0.0, 0.0, 0.0, 1.620309727621372E9, 2021-05-06 16:02:07.621
66.0, 84.36840057373047, 110.66364288330078, 342.1410217285156, -111.83235931396484, 0.01600000075995922, 0.03200000151991844, 1.055999994277954, 0.0, 0.0, 0.0, 0.0, 0.0, 1.6203097276221135E9, 2021-05-06 16:02:07.622
66.0, 91.89682006835938, 111.33308410644531, 342.1148376464844, -113.68360900878906, 0.01600000075995922, 0.03200000151991844, 1.055999994277954, 0.0, 0.0, 0.0, 0.0, 0.0, 1.6203097276221135E9, 2021-05-06 16:02:07.622
67.0, 88.34391784667969, 123.76077270507812, 353.3158264160156, -106.82463073730469, 0.01600000075995922, 0.03200000151991844, 1.055999994277954, 0.0, 0.0, 0.0, 0.0, 0.0, 1.6203097276227806E9, 2021-05-06 16:02:07.622
67.0, 90.31110382080078, 119.07093811035156, 343.7940368652344, -112.03805541992188, 0.01600000075995922, 0.03200000151991844, 1.055999994277954, 0.0, 0.0, 0.0, 0.0, 0.0, 1.6203097276227806E9, 2021-05-06 16:02:07.622
68.0, 72.89813232421875, 112.9786376953125, 336.7218933105469, -112.35968780517578, 0.01600000075995922, 0.03200000151991844, 1.055999994277954, 0.0, 0.0, 0.0, 0.0, 0.0, 1.620309727623476E9, 2021-05-06 16:02:07.623
68.0, 91.79210662841797, 116.44178771972656, 345.8135986328125, -109.43134307861328, 0.01600000075995922, 0.03200000151991844, 1.055999994277954, 0.0, 0.0, 0.0, 0.0, 0.0, 1.620309727623476E9, 2021-05-06 16:02:07.623
69.0, 91.19746398925781, 123.00904846191406, 350.3837585449219, -104.77143096923828, 0.01600000075995922, 0.03200000151991844, 1.055999994277954, 0.0, 0.0, 0.0, 0.0, 0.0, 1.6203097276335392E9, 2021-05-06 16:02:07.633
69.0, 90.20264434814453, 118.22197723388672, 339.4520263671875, -113.54523468017578, 0.01600000075995922, 0.03200000151991844, 1.055999994277954, 0.0, 0.0, 0.0, 0.0, 0.0, 1.6203097276335392E9, 2021-05-06 16:02:07.633
70.0, 92.40544891357422, 115.02810668945312, 339.9681396484375, -113.91548156738281, 0.01600000075995922, 0.03200000151991844, 1.055999994277954, 0.0, 0.0, 0.0, 0.0, 0.0, 1.620309727648636E9, 2021-05-06 16:02:07.648
70.0, 94.51849365234375, 122.05911254882812, 346.875732421875, -111.11429595947266, 0.01600000075995922, 0.03200000151991844, 1.055999994277954, 0.0, 0.0, 0.0, 0.0, 0.0, 1.620309727648636E9, 2021-05-06 16:02:07.648
71.0, 87.50991821289062, 120.38738250732422, 346.42694091796875, -107.79700469970703, 0.01600000075995922, 0.03200000151991844, 1.055999994277954, 0.0, 0.0, 0.0, 0.0, 0.0, 1.620309727681399E9, 2021-05-06 16:02:07.681
71.0, 88.43367767333984, 118.5772705078125, 342.0400390625, -114.37922668457031, 0.01600000075995922, 0.03200000151991844, 1.055999994277954, 0.0, 0.0, 0.0, 0.0, 0.0, 1.620309727681399E9, 2021-05-06 16:02:07.681
72.0, 84.5142593383789, 120.2863998413086, 340.60015869140625, -110.0970458984375, 0.01600000075995922, 0.03200000151991844, 1.055999994277954, 0.0, 0.0, 0.0, 0.0, 0.0, 1.6203097276821642E9, 2021-05-06 16:02:07.682
72.0, 89.87727355957031, 112.91131591796875, 346.6550598144531, -111.58552551269531, 0.01600000075995922, 0.03200000151991844, 1.055999994277954, 0.0, 0.0, 0.0, 0.0, 0.0, 1.6203097276821642E9, 2021-05-06 16:02:07.682
73.0, 91.42933654785156, 112.18203735351562, 350.54083251953125, -111.21153259277344, 0.01600000075995922, 0.03200000151991844, 1.055999994277954, 0.0, 0.0, 0.0, 0.0, 0.0, 1.6203097276828525E9, 2021-05-06 16:02:07.682
73.0, 98.17985534667969, 117.80684661865234, 348.67462158203125, -110.20924377441406, 0.01600000075995922, 0.03200000151991844, 1.055999994277954, 0.0, 0.0, 0.0, 0.0, 0.0, 1.6203097276828525E9, 2021-05-06 16:02:07.682
74.0, 90.54671478271484, 113.98467254638672, 340.7123718261719, -111.7238998413086, 0.01600000075995922, 0.03200000151991844, 1.055999994277954, 0.0, 0.0, 0.0, 0.0, 0.0, 1.6203097276836245E9, 2021-05-06 16:02:07.683
74.0, 92.2034912109375, 105.20712280273438, 344.9496765136719, -111.12178039550781, 0.01600000075995922, 0.03200000151991844, 1.055999994277954, 0.0, 0.0, 0.0, 0.0, 0.0, 1.6203097276836245E9, 2021-05-06 16:02:07.683
75.0, 94.72418975830078, 115.226318359375, 345.6340637207031, -109.64825439453125, 0.01600000075995922, 0.03200000151991844, 1.055999994277954, 0.0, 0.0, 0.0, 0.0, 0.0, 1.620309727693646E9, 2021-05-06 16:02:07.693
75.0, 86.82551574707031, 109.65760803222656, 330.59967041015625, -114.49142456054688, 0.01600000075995922, 0.03200000151991844, 1.055999994277954, 0.0, 0.0, 0.0, 0.0, 0.0, 1.620309727693646E9, 2021-05-06 16:02:07.693
76.0, 95.0682601928711, 112.339111328125, 333.8907775878906, -112.1053695678711, 0.01600000075995922, 0.03200000151991844, 1.055999994277954, 0.0, 0.0, 0.0, 0.0, 0.0, 1.6203097277086997E9, 2021-05-06 16:02:07.708
76.0, 91.17876434326172, 110.82445526123047, 338.8312072753906, -112.1091079711914, 0.01600000075995922, 0.03200000151991844, 1.055999994277954, 0.0, 0.0, 0.0, 0.0, 0.0, 1.6203097277086997E9, 2021-05-06 16:02:07.708
77.0, 86.5001449584961, 116.19495391845703, 342.88525390625, -114.46524810791016, 0.01600000075995922, 0.03200000151991844, 1.055999994277954, 0.0, 0.0, 0.0, 0.0, 0.0, 1.620309727739929E9, 2021-05-06 16:02:07.739
77.0, 95.2552490234375, 116.38195037841797, 342.3915710449219, -112.72993469238281, 0.01600000075995922, 0.03200000151991844, 1.055999994277954, 0.0, 0.0, 0.0, 0.0, 0.0, 1.620309727739929E9, 2021-05-06 16:02:07.739
78.0, 87.6856918334961, 115.38713073730469, 339.48193359375, -116.56707000732422, 0.01600000075995922, 0.03200000151991844, 1.055999994277954, 0.0, 0.0, 0.0, 0.0, 0.0, 1.620309727740648E9, 2021-05-06 16:02:07.740
78.0, 91.12640380859375, 120.0433120727539, 343.86883544921875, -111.89219665527344, 0.01600000075995922, 0.03200000151991844, 1.055999994277954, 0.0, 0.0, 0.0, 0.0, 0.0, 1.620309727740648E9, 2021-05-06 16:02:07.740
79.0, 93.79669189453125, 124.06744384765625, 354.4751892089844, -107.39309692382812, 0.01600000075995922, 0.03200000151991844, 1.055999994277954, 0.0, 0.0, 0.0, 0.0, 0.0, 1.6203097277413998E9, 2021-05-06 16:02:07.741
79.0, 92.61862182617188, 121.64398956298828, 343.6444396972656, -113.62003326416016, 0.01600000075995922, 0.03200000151991844, 1.055999994277954, 0.0, 0.0, 0.0, 0.0, 0.0, 1.6203097277413998E9, 2021-05-06 16:02:07.741
80.0, 92.50642395019531, 122.78091430664062, 345.8622131347656, -116.63439178466797, 0.01600000075995922, 0.03200000151991844, 1.055999994277954, 0.0, 0.0, 0.0, 0.0, 0.0, 1.620309727754305E9, 2021-05-06 16:02:07.754
80.0, 93.63961791992188, 119.03353881835938, 353.7608642578125, -110.51217651367188, 0.01600000075995922, 0.03200000151991844, 1.055999994277954, 0.0, 0.0, 0.0, 0.0, 0.0, 1.620309727754305E9, 2021-05-06 16:02:07.754
81.0, 92.71585845947266, 127.56798553466797, 359.53155517578125, -105.45208740234375, 0.01600000075995922, 0.03200000151991844, 1.055999994277954, 0.0, 0.0, 0.0, 0.0, 0.0, 1.620309727755074E9, 2021-05-06 16:02:07.755
81.0, 95.01216125488281, 118.67450714111328, 355.54107666015625, -99.31117248535156, 0.01600000075995922, 0.03200000151991844, 1.055999994277954, 0.0, 0.0, 0.0, 0.0, 0.0, 1.620309727755074E9, 2021-05-06 16:02:07.755
82.0, 89.70149993896484, 115.14029693603516, 348.1360778808594, -109.47248077392578, 0.01600000075995922, 0.03200000151991844, 1.055999994277954, 0.0, 0.0, 0.0, 0.0, 0.0, 1.6203097277686327E9, 2021-05-06 16:02:07.768
82.0, 101.17925262451172, 116.73723602294922, 351.8273620605469, -99.68516540527344, 0.01600000075995922, 0.03200000151991844, 1.055999994277954, 0.0, 0.0, 0.0, 0.0, 0.0, 1.6203097277686327E9, 2021-05-06 16:02:07.768
83.0, 92.42788696289062, 118.20701599121094, 360.773193359375, -102.15723419189453, 0.01600000075995922, 0.03200000151991844, 1.055999994277954, 0.0, 0.0, 0.0, 0.0, 0.0, 1.62030972778504E9, 2021-05-06 16:02:07.785
83.0, 92.7607421875, 112.57099151611328, 346.9280700683594, -104.38996124267578, 0.01600000075995922, 0.03200000151991844, 1.055999994277954, 0.0, 0.0, 0.0, 0.0, 0.0, 1.62030972778504E9, 2021-05-06 16:02:07.785
84.0, 90.71127319335938, 110.73469543457031, 348.32305908203125, -113.69483184814453, 0.01600000075995922, 0.03200000151991844, 1.055999994277954, 0.0, 0.0, 0.0, 0.0, 0.0, 1.6203097277858014E9, 2021-05-06 16:02:07.785
84.0, 101.2989273071289, 111.93146514892578, 352.8520812988281, -113.35076141357422, 0.01600000075995922, 0.03200000151991844, 1.055999994277954, 0.0, 0.0, 0.0, 0.0, 0.0, 1.6203097277858014E9, 2021-05-06 16:02:07.785
85.0, 93.17586517333984, 116.81951141357422, 355.84027099609375, -114.8167953491211, 0.01600000075995922, 0.03200000151991844, 1.055999994277954, 0.0, 0.0, 0.0, 0.0, 0.0, 1.620309727814957E9, 2021-05-06 16:02:07.814
85.0, 92.71959686279297, 116.4717025756836, 351.7413330078125, -114.798095703125, 0.01600000075995922, 0.03200000151991844, 1.055999994277954, 0.0, 0.0, 0.0, 0.0, 0.0, 1.620309727814957E9, 2021-05-06 16:02:07.814
86.0, 90.96932983398438, 111.7332534790039, 345.5368347167969, -119.48419189453125, 0.01600000075995922, 0.03200000151991844, 1.055999994277954, 0.0, 0.0, 0.0, 0.0, 0.0, 1.6203097278153937E9, 2021-05-06 16:02:07.815
86.0, 92.15861511230469, 112.11097717285156, 348.6484375, -119.5739517211914, 0.01600000075995922, 0.03200000151991844, 1.055999994277954, 0.0, 0.0, 0.0, 0.0, 0.0, 1.6203097278153937E9, 2021-05-06 16:02:07.815
87.0, 90.07174682617188, 116.94293212890625, 349.7292785644531, -114.6559829711914, 0.01600000075995922, 0.03200000151991844, 1.055999994277954, 0.0, 0.0, 0.0, 0.0, 0.0, 1.6203097278292913E9, 2021-05-06 16:02:07.829
87.0, 87.27430725097656, 115.226318359375, 346.1763610839844, -116.21178436279297, 0.01600000075995922, 0.03200000151991844, 1.055999994277954, 0.0, 0.0, 0.0, 0.0, 0.0, 1.6203097278292913E9, 2021-05-06 16:02:07.829
88.0, 94.7690658569336, 125.09965515136719, 349.8526916503906, -111.06941986083984, 0.01600000075995922, 0.03200000151991844, 1.055999994277954, 0.0, 0.0, 0.0, 0.0, 0.0, 1.6203097278300123E9, 2021-05-06 16:02:07.830
88.0, 101.8748779296875, 115.62274932861328, 355.8103332519531, -113.30213928222656, 0.01600000075995922, 0.03200000151991844, 1.055999994277954, 0.0, 0.0, 0.0, 0.0, 0.0, 1.6203097278300123E9, 2021-05-06 16:02:07.830
89.0, 95.01589965820312, 118.88020324707031, 356.700439453125, -108.78060150146484, 0.01600000075995922, 0.03200000151991844, 1.055999994277954, 0.0, 0.0, 0.0, 0.0, 0.0, 1.6203097278448882E9, 2021-05-06 16:02:07.844
89.0, 93.69197082519531, 115.85088348388672, 348.1136169433594, -111.14795684814453, 0.01600000075995922, 0.03200000151991844, 1.055999994277954, 0.0, 0.0, 0.0, 0.0, 0.0, 1.6203097278448882E9, 2021-05-06 16:02:07.844
90.0, 91.36949920654297, 116.21739196777344, 344.4073791503906, -111.88471984863281, 0.01600000075995922, 0.03200000151991844, 1.055999994277954, 0.0, 0.0, 0.0, 0.0, 0.0, 1.6203097278456397E9, 2021-05-06 16:02:07.845
90.0, 89.79873657226562, 117.34310150146484, 355.163330078125, -102.96879577636719, 0.01600000075995922, 0.03200000151991844, 1.055999994277954, 0.0, 0.0, 0.0, 0.0, 0.0, 1.6203097278456397E9, 2021-05-06 16:02:07.845
91.0, 86.33184814453125, 113.52091979980469, 352.01434326171875, -106.07291412353516, 0.01600000075995922, 0.03200000151991844, 1.055999994277954, 0.0, 0.0, 0.0, 0.0, 0.0, 1.6203097278585904E9, 2021-05-06 16:02:07.858
91.0, 90.32980346679688, 113.7602767944336, 345.267578125, -110.90859985351562, 0.01600000075995922, 0.03200000151991844, 1.055999994277954, 0.0, 0.0, 0.0, 0.0, 0.0, 1.6203097278585904E9, 2021-05-06 16:02:07.858
92.0, 87.30048370361328, 116.07527160644531, 344.7178039550781, -112.68505859375, 0.03200000151991844, 0.03200000151991844, 1.055999994277954, 0.0, 0.0, 0.0, 0.0, 0.0, 1.6203097278742003E9, 2021-05-06 16:02:07.874
92.0, 88.23919677734375, 107.75025939941406, 349.69561767578125, -115.25062561035156, 0.03200000151991844, 0.03200000151991844, 1.055999994277954, 0.0, 0.0, 0.0, 0.0, 0.0, 1.6203097278742003E9, 2021-05-06 16:02:07.874
93.0, 87.15837097167969, 117.92652893066406, 352.0928955078125, -109.09101104736328, 0.03200000151991844, 0.03200000151991844, 1.055999994277954, 0.0, 0.0, 0.0, 0.0, 0.0, 1.620309727874977E9, 2021-05-06 16:02:07.874
93.0, 88.2840805053711, 108.45336151123047, 344.7028503417969, -109.8988265991211, 0.03200000151991844, 0.03200000151991844, 1.055999994277954, 0.0, 0.0, 0.0, 0.0, 0.0, 1.620309727874977E9, 2021-05-06 16:02:07.874
94.0, 89.533203125, 113.70417785644531, 343.3826599121094, -113.75466918945312, 0.03200000151991844, 0.03200000151991844, 1.055999994277954, 0.0, 0.0, 0.0, 0.0, 0.0, 1.6203097278885758E9, 2021-05-06 16:02:07.888
94.0, 93.01131439208984, 116.01917266845703, 357.2127990722656, -106.86951446533203, 0.03200000151991844, 0.03200000151991844, 1.055999994277954, 0.0, 0.0, 0.0, 0.0, 0.0, 1.6203097278885758E9, 2021-05-06 16:02:07.888
95.0, 99.95630645751953, 125.8438949584961, 361.98492431640625, -104.09076690673828, 0.03200000151991844, 0.03200000151991844, 1.055999994277954, 0.0, 0.0, 0.0, 0.0, 0.0, 1.62030972790489E9, 2021-05-06 16:02:07.904
95.0, 88.5870132446289, 116.16129302978516, 347.3918151855469, -119.45801544189453, 0.03200000151991844, 0.03200000151991844, 1.055999994277954, 0.0, 0.0, 0.0, 0.0, 0.0, 1.62030972790489E9, 2021-05-06 16:02:07.904
96.0, 90.79729461669922, 122.93051147460938, 354.2171325683594, -118.04059600830078, 0.03200000151991844, 0.03200000151991844, 1.055999994277954, 0.0, 0.0, 0.0, 0.0, 0.0, 1.6203097279056137E9, 2021-05-06 16:02:07.905
96.0, 98.03025817871094, 119.57955932617188, 356.9360656738281, -115.59095764160156, 0.03200000151991844, 0.03200000151991844, 1.055999994277954, 0.0, 0.0, 0.0, 0.0, 0.0, 1.6203097279056137E9, 2021-05-06 16:02:07.905
97.0, 95.14305114746094, 121.63650512695312, 362.1756591796875, -109.95492553710938, 0.03200000151991844, 0.03200000151991844, 1.055999994277954, 0.0, 0.0, 0.0, 0.0, 0.0, 1.620309727918569E9, 2021-05-06 16:02:07.918
97.0, 96.02193450927734, 123.53263854980469, 355.5074157714844, -107.80074310302734, 0.03200000151991844, 0.03200000151991844, 1.055999994277954, 0.0, 0.0, 0.0, 0.0, 0.0, 1.620309727918569E9, 2021-05-06 16:02:07.918
98.0, 86.06257629394531, 118.2967758178711, 350.74652099609375, -114.38671112060547, 0.03200000151991844, 0.03200000151991844, 1.055999994277954, 0.0, 0.0, 0.0, 0.0, 0.0, 1.6203097279341853E9, 2021-05-06 16:02:07.934
98.0, 97.69740295410156, 115.79104614257812, 359.7110595703125, -107.8905029296875, 0.03200000151991844, 0.03200000151991844, 1.055999994277954, 0.0, 0.0, 0.0, 0.0, 0.0, 1.6203097279341853E9, 2021-05-06 16:02:07.934
99.0, 86.8442153930664, 118.93255615234375, 365.021728515625, -94.76719665527344, 0.03200000151991844, 0.03200000151991844, 1.055999994277954, 0.0, 0.0, 0.0, 0.0, 0.0, 1.6203097279349625E9, 2021-05-06 16:02:07.934
99.0, 82.21421813964844, 114.11557006835938, 350.9035949707031, -105.83355712890625, 0.03200000151991844, 0.03200000151991844, 1.055999994277954, 0.0, 0.0, 0.0, 0.0, 0.0, 1.6203097279349625E9, 2021-05-06 16:02:07.934
100.0, 83.80368041992188, 106.64698791503906, 348.1510314941406, -110.99088287353516, 0.03200000151991844, 0.03200000151991844, 1.055999994277954, 0.0, 0.0, 0.0, 0.0, 0.0, 1.6203097279492872E9, 2021-05-06 16:02:07.949
100.0, 93.77799224853516, 112.0735855102539, 348.3567199707031, -101.82438659667969, 0.03200000151991844, 0.03200000151991844, 1.055999994277954, 0.0, 0.0, 0.0, 0.0, 0.0, 1.6203097279492872E9, 2021-05-06 16:02:07.949
0.0, 89.7445068359375, 109.07231140136719, 351.870361328125, -106.37023162841797, 0.03200000151991844, 0.03200000151991844, 1.055999994277954, 0.0, 0.0, 0.0, 0.0, 0.0, 1.6203097279499977E9, 2021-05-06 16:02:07.949
1.0, 90.3241958618164, 106.98170471191406, 342.25506591796875, -113.45360565185547, 0.03200000151991844, 0.03200000151991844, 1.055999994277954, 0.0, 0.0, 0.0, 0.0, 0.0, 1.6203097279637444E9, 2021-05-06 16:02:07.963
1.0, 89.00775146484375, 105.07435607910156, 341.0657958984375, -116.01917266845703, 0.03200000151991844, 0.03200000151991844, 1.055999994277954, 0.0, 0.0, 0.0, 0.0, 0.0, 1.6203097279637444E9, 2021-05-06 16:02:07.963
2.0, 94.89434814453125, 102.13479614257812, 344.5887756347656, -120.87730407714844, 0.01600000075995922, 0.03200000151991844, 1.055999994277954, 0.0, 0.0, 0.0, 0.0, 0.0, 1.6203097279793763E9, 2021-05-06 16:02:07.979
2.0, 94.8606948852539, 107.38187408447266, 350.1462707519531, -114.5269546508789, 0.01600000075995922, 0.03200000151991844, 1.055999994277954, 0.0, 0.0, 0.0, 0.0, 0.0, 1.6203097279793763E9, 2021-05-06 16:02:07.979
3.0, 87.61650848388672, 102.77058410644531, 342.4981689453125, -115.02810668945312, 0.01600000075995922, 0.03200000151991844, 1.055999994277954, 0.0, 0.0, 0.0, 0.0, 0.0, 1.6203097279800608E9, 2021-05-06 16:02:07.980
3.0, 93.940673828125, 105.08557891845703, 345.9949645996094, -112.98237609863281, 0.01600000075995922, 0.03200000151991844, 1.055999994277954, 0.0, 0.0, 0.0, 0.0, 0.0, 1.6203097279800608E9, 2021-05-06 16:02:07.980
4.0, 91.74909210205078, 110.44859313964844, 352.1171875, -115.09542083740234, 0.01600000075995922, 0.03200000151991844, 1.055999994277954, 0.0, 0.0, 0.0, 0.0, 0.0, 1.620309727993731E9, 2021-05-06 16:02:07.993
4.0, 87.79975891113281, 111.241455078125, 356.4667053222656, -115.43201446533203, 0.01600000075995922, 0.03200000151991844, 1.055999994277954, 0.0, 0.0, 0.0, 0.0, 0.0, 1.620309727993731E9, 2021-05-06 16:02:07.993
5.0, 82.40308380126953, 108.48514556884766, 349.2000732421875, -113.81263732910156, 0.01600000075995922, 0.03200000151991844, 1.055999994277954, 0.0, 0.0, 0.0, 0.0, 0.0, 1.6203097280092387E9, 2021-05-06 16:02:08.009
5.0, 90.05492401123047, 110.33265686035156, 344.1773681640625, -119.34394836425781, 0.01600000075995922, 0.03200000151991844, 1.055999994277954, 0.0, 0.0, 0.0, 0.0, 0.0, 1.6203097280092387E9, 2021-05-06 16:02:08.009
6.0, 91.69673919677734, 110.5383529663086, 355.5018005371094, -114.47834014892578, 0.01600000075995922, 0.03200000151991844, 1.055999994277954, 0.0, 0.0, 0.0, 0.0, 0.0, 1.6203097280099013E9, 2021-05-06 16:02:08.009
6.0, 89.35182189941406, 106.7273941040039, 352.8202819824219, -110.95161437988281, 0.01600000075995922, 0.03200000151991844, 1.055999994277954, 0.0, 0.0, 0.0, 0.0, 0.0, 1.6203097280099013E9, 2021-05-06 16:02:08.009
7.0, 82.99398803710938, 104.4984130859375, 347.9097900390625, -113.3189697265625, 0.01600000075995922, 0.03200000151991844, 1.055999994277954, 0.0, 0.0, 0.0, 0.0, 0.0, 1.6203097280236924E9, 2021-05-06 16:02:08.023
7.0, 92.83740997314453, 109.60337829589844, 342.81231689453125, -116.33332824707031, 0.01600000075995922, 0.03200000151991844, 1.055999994277954, 0.0, 0.0, 0.0, 0.0, 0.0, 1.6203097280236924E9, 2021-05-06 16:02:08.023
8.0, 92.33625793457031, 105.97193145751953, 350.2285461425781, -107.78765869140625, 0.01600000075995922, 0.03200000151991844, 1.055999994277954, 0.0, 0.0, 0.0, 0.0, 0.0, 1.6203097280392013E9, 2021-05-06 16:02:08.039
8.0, 85.03597259521484, 106.323486328125, 351.4552307128906, -105.92892456054688, 0.01600000075995922, 0.03200000151991844, 1.055999994277954, 0.0, 0.0, 0.0, 0.0, 0.0, 1.6203097280392013E9, 2021-05-06 16:02:08.039
9.0, 85.1032943725586, 111.25641632080078, 349.3047790527344, -109.70248413085938, 0.01600000075995922, 0.03200000151991844, 1.055999994277954, 0.0, 0.0, 0.0, 0.0, 0.0, 1.620309728039898E9, 2021-05-06 16:02:08.039
9.0, 91.39006805419922, 110.42615509033203, 348.7550354003906, -110.01663970947266, 0.01600000075995922, 0.03200000151991844, 1.055999994277954, 0.0, 0.0, 0.0, 0.0, 0.0, 1.620309728039898E9, 2021-05-06 16:02:08.039
10.0, 88.0353775024414, 111.9856948852539, 350.9765319824219, -109.23873901367188, 0.01600000075995922, 0.03200000151991844, 1.055999994277954, 0.0, 0.0, 0.0, 0.0, 0.0, 1.6203097280535975E9, 2021-05-06 16:02:08.053
10.0, 84.49742889404297, 110.59819030761719, 350.65863037109375, -112.60090637207031, 0.01600000075995922, 0.03200000151991844, 1.055999994277954, 0.0, 0.0, 0.0, 0.0, 0.0, 1.6203097280535975E9, 2021-05-06 16:02:08.053
11.0, 87.02186584472656, 108.63848114013672, 345.2170715332031, -117.9564437866211, 0.01600000075995922, 0.03200000151991844, 1.055999994277954, 0.0, 0.0, 0.0, 0.0, 0.0, 1.6203097280692391E9, 2021-05-06 16:02:08.069
11.0, 86.8909683227539, 103.61953735351562, 340.4898376464844, -121.2886962890625, 0.01600000075995922, 0.03200000151991844, 1.055999994277954, 0.0, 0.0, 0.0, 0.0, 0.0, 1.6203097280692391E9, 2021-05-06 16:02:08.069
12.0, 97.91992950439453, 110.56452941894531, 354.1068115234375, -115.85088348388672, 0.01600000075995922, 0.03200000151991844, 1.055999994277954, 0.0, 0.0, 0.0, 0.0, 0.0, 1.620309728069899E9, 2021-05-06 16:02:08.069
12.0, 93.9182357788086, 113.42181396484375, 355.79351806640625, -116.53528594970703, 0.01600000075995922, 0.03200000151991844, 1.055999994277954, 0.0, 0.0, 0.0, 0.0, 0.0, 1.620309728069899E9, 2021-05-06 16:02:08.069
13.0, 90.32793426513672, 108.34303283691406, 350.1051330566406, -124.14598083496094, 0.01600000075995922, 0.03200000151991844, 1.055999994277954, 0.0, 0.0, 0.0, 0.0, 0.0, 1.6203097280835867E9, 2021-05-06 16:02:08.083
13.0, 97.45992279052734, 110.74031066894531, 351.9601135253906, -122.24984741210938, 0.01600000075995922, 0.03200000151991844, 1.055999994277954, 0.0, 0.0, 0.0, 0.0, 0.0, 1.6203097280835867E9, 2021-05-06 16:02:08.083
14.0, 90.69818115234375, 112.5279769897461, 358.57598876953125, -116.20616912841797, 0.01600000075995922, 0.03200000151991844, 1.055999994277954, 0.0, 0.0, 0.0, 0.0, 0.0, 1.6203097280991824E9, 2021-05-06 16:02:08.099
14.0, 96.23323822021484, 116.9635009765625, 361.1452941894531, -115.49185180664062, 0.01600000075995922, 0.03200000151991844, 1.055999994277954, 0.0, 0.0, 0.0, 0.0, 0.0, 1.6203097280991824E9, 2021-05-06 16:02:08.099
15.0, 96.55860900878906, 108.85540008544922, 355.56536865234375, -113.62564086914062, 0.01600000075995922, 0.03200000151991844, 1.055999994277954, 0.0, 0.0, 0.0, 0.0, 0.0, 1.6203097280998988E9, 2021-05-06 16:02:08.099
15.0, 86.59925079345703, 109.46126556396484, 350.5389404296875, -122.67245483398438, 0.01600000075995922, 0.03200000151991844, 1.055999994277954, 0.0, 0.0, 0.0, 0.0, 0.0, 1.6203097280998988E9, 2021-05-06 16:02:08.099
16.0, 86.18412780761719, 108.92271423339844, 351.6571960449219, -111.44528198242188, 0.01600000075995922, 0.03200000151991844, 1.055999994277954, 0.0, 0.0, 0.0, 0.0, 0.0, 1.6203097281135676E9, 2021-05-06 16:02:08.113
16.0, 85.99339294433594, 110.38875579833984, 353.81884765625, -110.91795349121094, 0.01600000075995922, 0.03200000151991844, 1.055999994277954, 0.0, 0.0, 0.0, 0.0, 0.0, 1.6203097281135676E9, 2021-05-06 16:02:08.113
17.0, 84.785400390625, 106.88072967529297, 347.37872314453125, -105.24452209472656, 0.01600000075995922, 0.03200000151991844, 1.055999994277954, 0.0, 0.0, 0.0, 0.0, 0.0, 1.620309728129289E9, 2021-05-06 16:02:08.129
17.0, 90.55606842041016, 104.48345184326172, 341.3200988769531, -116.96910858154297, 0.01600000075995922, 0.03200000151991844, 1.055999994277954, 0.0, 0.0, 0.0, 0.0, 0.0, 1.620309728129289E9, 2021-05-06 16:02:08.129
18.0, 90.38029479980469, 106.37210083007812, 350.8194580078125, -115.29363250732422, 0.01600000075995922, 0.03200000151991844, 1.055999994277954, 0.0, 0.0, 0.0, 0.0, 0.0, 1.6203097281299584E9, 2021-05-06 16:02:08.129
18.0, 83.62602996826172, 103.88133239746094, 354.1292419433594, -116.90553283691406, 0.01600000075995922, 0.03200000151991844, 1.055999994277954, 0.0, 0.0, 0.0, 0.0, 0.0, 1.6203097281299584E9, 2021-05-06 16:02:08.129
19.0, 78.35651397705078, 102.8902587890625, 344.7982177734375, -108.0606689453125, 0.01600000075995922, 0.03200000151991844, 1.055999994277954, 0.0, 0.0, 0.0, 0.0, 0.0, 1.6203097281436071E9, 2021-05-06 16:02:08.143
19.0, 77.61601257324219, 107.168701171875, 341.08074951171875, -110.70104217529297, 0.01600000075995922, 0.03200000151991844, 1.055999994277954, 0.0, 0.0, 0.0, 0.0, 0.0, 1.6203097281436071E9, 2021-05-06 16:02:08.143
20.0, 84.60962677001953, 109.08353424072266, 350.4491882324219, -109.75858306884766, 0.01600000075995922, 0.03200000151991844, 1.055999994277954, 0.0, 0.0, 0.0, 0.0, 0.0, 1.6203097281592665E9, 2021-05-06 16:02:08.159
20.0, 86.61421203613281, 115.99112701416016, 355.15771484375, -111.5537338256836, 0.01600000075995922, 0.03200000151991844, 1.055999994277954, 0.0, 0.0, 0.0, 0.0, 0.0, 1.6203097281592665E9, 2021-05-06 16:02:08.159
21.0, 82.919189453125, 113.78458404541016, 349.3197326660156, -115.30111694335938, 0.01600000075995922, 0.03200000151991844, 1.055999994277954, 0.0, 0.0, 0.0, 0.0, 0.0, 1.620309728159963E9, 2021-05-06 16:02:08.159
21.0, 90.07362365722656, 111.28633117675781, 351.83294677734375, -118.48377227783203, 0.01600000075995922, 0.03200000151991844, 1.055999994277954, 0.0, 0.0, 0.0, 0.0, 0.0, 1.620309728159963E9, 2021-05-06 16:02:08.159
22.0, 90.79541778564453, 120.93527221679688, 361.6427307128906, -114.22028350830078, 0.01600000075995922, 0.03200000151991844, 1.055999994277954, 0.0, 0.0, 0.0, 0.0, 0.0, 1.6203097281735065E9, 2021-05-06 16:02:08.173
22.0, 92.69902801513672, 131.44813537597656, 366.68035888671875, -114.41101837158203, 0.01600000075995922, 0.03200000151991844, 1.055999994277954, 0.0, 0.0, 0.0, 0.0, 0.0, 1.6203097281735065E9, 2021-05-06 16:02:08.173
23.0, 92.21284484863281, 119.891845703125, 359.1556701660156, -115.85088348388672, 0.01600000075995922, 0.03200000151991844, 1.055999994277954, 0.0, 0.0, 0.0, 0.0, 0.0, 1.6203097281892724E9, 2021-05-06 16:02:08.189
23.0, 87.82594299316406, 113.74718475341797, 352.36029052734375, -117.29822540283203, 0.01600000075995922, 0.03200000151991844, 1.055999994277954, 0.0, 0.0, 0.0, 0.0, 0.0, 1.6203097281892724E9, 2021-05-06 16:02:08.189
24.0, 87.98675537109375, 113.92296600341797, 363.8230895996094, -110.44672393798828, 0.01600000075995922, 0.03200000151991844, 1.055999994277954, 0.0, 0.0, 0.0, 0.0, 0.0, 1.6203097281899889E9, 2021-05-06 16:02:08.189
24.0, 90.38777160644531, 119.85070037841797, 365.50604248046875, -113.45734405517578, 0.01600000075995922, 0.03200000151991844, 1.055999994277954, 0.0, 0.0, 0.0, 0.0, 0.0, 1.6203097281899889E9, 2021-05-06 16:02:08.189
25.0, 86.10558319091797, 116.81016540527344, 353.5533142089844, -112.85896301269531, 0.01600000075995922, 0.03200000151991844, 1.055999994277954, 0.0, 0.0, 0.0, 0.0, 0.0, 1.620309728203548E9, 2021-05-06 16:02:08.203
25.0, 79.8487319946289, 117.98075103759766, 351.9862976074219, -114.56061553955078, 0.01600000075995922, 0.03200000151991844, 1.055999994277954, 0.0, 0.0, 0.0, 0.0, 0.0, 1.620309728203548E9, 2021-05-06 16:02:08.203
26.0, 95.10004425048828, 122.21431732177734, 357.2707824707031, -110.08395385742188, 0.01600000075995922, 0.03200000151991844, 1.055999994277954, 0.0, 0.0, 0.0, 0.0, 0.0, 1.6203097282192557E9, 2021-05-06 16:02:08.219
26.0, 90.91510009765625, 118.60157775878906, 361.0331115722656, -107.20423126220703, 0.01600000075995922, 0.03200000151991844, 1.055999994277954, 0.0, 0.0, 0.0, 0.0, 0.0, 1.6203097282192557E9, 2021-05-06 16:02:08.219
27.0, 87.2911376953125, 110.22794342041016, 353.1194763183594, -113.28904724121094, 0.01600000075995922, 0.03200000151991844, 1.055999994277954, 0.0, 0.0, 0.0, 0.0, 0.0, 1.6203097282199655E9, 2021-05-06 16:02:08.219
27.0, 90.84403991699219, 109.00873565673828, 347.0122375488281, -115.1664810180664, 0.01600000075995922, 0.03200000151991844, 1.055999994277954, 0.0, 0.0, 0.0, 0.0, 0.0, 1.6203097282199655E9, 2021-05-06 16:02:08.219
28.0, 79.77767944335938, 112.30732727050781, 354.54437255859375, -113.22547149658203, 0.01600000075995922, 0.03200000151991844, 1.055999994277954, 0.0, 0.0, 0.0, 0.0, 0.0, 1.620309728233549E9, 2021-05-06 16:02:08.233
28.0, 94.22865295410156, 115.17208862304688, 367.2076721191406, -105.95136260986328, 0.01600000075995922, 0.03200000151991844, 1.055999994277954, 0.0, 0.0, 0.0, 0.0, 0.0, 1.620309728233549E9, 2021-05-06 16:02:08.233
29.0, 91.07591247558594, 114.85794067382812, 358.69940185546875, -111.80805206298828, 0.01600000075995922, 0.03200000151991844, 1.055999994277954, 0.0, 0.0, 0.0, 0.0, 0.0, 1.6203097282492096E9, 2021-05-06 16:02:08.249
29.0, 96.65210723876953, 116.58576965332031, 360.2589416503906, -113.59571838378906, 0.01600000075995922, 0.03200000151991844, 1.055999994277954, 0.0, 0.0, 0.0, 0.0, 0.0, 1.6203097282492096E9, 2021-05-06 16:02:08.249
30.0, 99.73377990722656, 122.58831024169922, 367.046875, -109.6688232421875, 0.01600000075995922, 0.03200000151991844, 1.055999994277954, 0.0, 0.0, 0.0, 0.0, 0.0, 1.6203097282500153E9, 2021-05-06 16:02:08.250
30.0, 87.82594299316406, 115.02249145507812, 369.44415283203125, -109.60150909423828, 0.01600000075995922, 0.03200000151991844, 1.055999994277954, 0.0, 0.0, 0.0, 0.0, 0.0, 1.6203097282500153E9, 2021-05-06 16:02:08.250
31.0, 86.51323699951172, 110.62811279296875, 358.220703125, -115.37965393066406, 0.01600000075995922, 0.04800000041723251, 1.055999994277954, 0.0, 0.0, 0.0, 0.0, 0.0, 1.6203097282635524E9, 2021-05-06 16:02:08.263
31.0, 99.12417602539062, 120.55754852294922, 360.2626953125, -112.02496337890625, 0.01600000075995922, 0.04800000041723251, 1.055999994277954, 0.0, 0.0, 0.0, 0.0, 0.0, 1.6203097282635524E9, 2021-05-06 16:02:08.263
32.0, 90.98615264892578, 117.08317565917969, 370.2557067871094, -111.76316833496094, 0.01600000075995922, 0.04800000041723251, 1.055999994277954, 0.0, 0.0, 0.0, 0.0, 0.0, 1.6203097282796836E9, 2021-05-06 16:02:08.279
32.0, 88.67115783691406, 110.21672058105469, 366.4260559082031, -120.32006072998047, 0.01600000075995922, 0.04800000041723251, 1.055999994277954, 0.0, 0.0, 0.0, 0.0, 0.0, 1.6203097282796836E9, 2021-05-06 16:02:08.279
33.0, 82.31707000732422, 107.37065887451172, 355.3821105957031, -122.71733856201172, 0.01600000075995922, 0.04800000041723251, 1.055999994277954, 0.0, 0.0, 0.0, 0.0, 0.0, 1.6203097282942755E9, 2021-05-06 16:02:08.294
33.0, 91.81267547607422, 107.849365234375, 354.7987060546875, -123.62239074707031, 0.01600000075995922, 0.04800000041723251, 1.055999994277954, 0.0, 0.0, 0.0, 0.0, 0.0, 1.6203097282942755E9, 2021-05-06 16:02:08.294
34.0, 96.82414245605469, 108.65718078613281, 363.9315490722656, -118.55108642578125, 0.01600000075995922, 0.04800000041723251, 1.055999994277954, 0.0, 0.0, 0.0, 0.0, 0.0, 1.6203097282949977E9, 2021-05-06 16:02:08.294
34.0, 92.32878112792969, 113.73223114013672, 366.1605224609375, -115.48436737060547, 0.01600000075995922, 0.04800000041723251, 1.055999994277954, 0.0, 0.0, 0.0, 0.0, 0.0, 1.6203097282949977E9, 2021-05-06 16:02:08.294
35.0, 85.59696197509766, 116.42869567871094, 361.72125244140625, -116.4530029296875, 0.01600000075995922, 0.04800000041723251, 1.055999994277954, 0.0, 0.0, 0.0, 0.0, 0.0, 1.6203097283092227E9, 2021-05-06 16:02:08.309
35.0, 83.84294891357422, 114.55126190185547, 359.9298400878906, -116.60633850097656, 0.01600000075995922, 0.04800000041723251, 1.055999994277954, 0.0, 0.0, 0.0, 0.0, 0.0, 1.6203097283092227E9, 2021-05-06 16:02:08.309
36.0, 79.10823059082031, 111.02079772949219, 365.2143249511719, -116.27349090576172, 0.01600000075995922, 0.04800000041723251, 1.055999994277954, 0.0, 0.0, 0.0, 0.0, 0.0, 1.6203097283099537E9, 2021-05-06 16:02:08.309
36.0, 92.5718765258789, 112.28114318847656, 363.58746337890625, -115.91072082519531, 0.01600000075995922, 0.04800000041723251, 1.055999994277954, 0.0, 0.0, 0.0, 0.0, 0.0, 1.6203097283099537E9, 2021-05-06 16:02:08.309
37.0, 83.09122467041016, 112.62521362304688, 361.4893798828125, -118.24067687988281, 0.01600000075995922, 0.04800000041723251, 1.055999994277954, 0.0, 0.0, 0.0, 0.0, 0.0, 1.6203097283235657E9, 2021-05-06 16:02:08.323
37.0, 84.05238342285156, 112.59529876708984, 354.5518798828125, -115.45071411132812, 0.01600000075995922, 0.04800000041723251, 1.055999994277954, 0.0, 0.0, 0.0, 0.0, 0.0, 1.6203097283235657E9, 2021-05-06 16:02:08.323
38.0, 91.80145263671875, 107.61749267578125, 364.6720275878906, -109.53418731689453, 0.01600000075995922, 0.04800000041723251, 1.055999994277954, 0.0, 0.0, 0.0, 0.0, 0.0, 1.6203097283392525E9, 2021-05-06 16:02:08.339
38.0, 92.28015899658203, 113.92296600341797, 368.666259765625, -106.77040100097656, 0.01600000075995922, 0.04800000041723251, 1.055999994277954, 0.0, 0.0, 0.0, 0.0, 0.0, 1.6203097283392525E9, 2021-05-06 16:02:08.339
39.0, 88.1176528930664, 120.39299011230469, 361.3173522949219, -105.82421112060547, 0.01600000075995922, 0.04800000041723251, 1.055999994277954, 0.0, 0.0, 0.0, 0.0, 0.0, 1.620309728339956E9, 2021-05-06 16:02:08.339
39.0, 86.44965362548828, 118.89702606201172, 361.5828857421875, -103.4830322265625, 0.01600000075995922, 0.04800000041723251, 1.055999994277954, 0.0, 0.0, 0.0, 0.0, 0.0, 1.620309728339956E9, 2021-05-06 16:02:08.339
40.0, 86.67778778076172, 117.76383972167969, 368.8270568847656, -106.38519287109375, 0.01600000075995922, 0.04800000041723251, 1.055999994277954, 0.0, 0.0, 0.0, 0.0, 0.0, 1.620309728353619E9, 2021-05-06 16:02:08.353
40.0, 93.48440551757812, 116.76528930664062, 361.6763610839844, -106.34031677246094, 0.01600000075995922, 0.04800000041723251, 1.055999994277954, 0.0, 0.0, 0.0, 0.0, 0.0, 1.620309728353619E9, 2021-05-06 16:02:08.353
41.0, 86.5281982421875, 113.01042938232422, 359.0696716308594, -108.94702911376953, 0.01600000075995922, 0.03200000151991844, 1.055999994277954, 0.0, 0.0, 0.0, 0.0, 0.0, 1.6203097283864596E9, 2021-05-06 16:02:08.386
41.0, 88.4168472290039, 116.1369857788086, 361.3958740234375, -111.90902709960938, 0.01600000075995922, 0.03200000151991844, 1.055999994277954, 0.0, 0.0, 0.0, 0.0, 0.0, 1.6203097283864596E9, 2021-05-06 16:02:08.386
42.0, 99.49443054199219, 118.4669418334961, 366.26898193359375, -106.42259216308594, 0.01600000075995922, 0.03200000151991844, 1.055999994277954, 0.0, 0.0, 0.0, 0.0, 0.0, 1.6203097283871372E9, 2021-05-06 16:02:08.387
42.0, 91.0833969116211, 120.14615631103516, 368.5951843261719, -104.7508544921875, 0.01600000075995922, 0.03200000151991844, 1.055999994277954, 0.0, 0.0, 0.0, 0.0, 0.0, 1.6203097283871372E9, 2021-05-06 16:02:08.387
43.0, 93.0730209350586, 119.211181640625, 363.3742980957031, -99.87028503417969, 0.01600000075995922, 0.03200000151991844, 1.055999994277954, 0.0, 0.0, 0.0, 0.0, 0.0, 1.6203097283877637E9, 2021-05-06 16:02:08.387
43.0, 87.58284759521484, 112.12406921386719, 364.2232360839844, -107.68667602539062, 0.01600000075995922, 0.03200000151991844, 1.055999994277954, 0.0, 0.0, 0.0, 0.0, 0.0, 1.6203097283877637E9, 2021-05-06 16:02:08.387
44.0, 91.58080291748047, 113.07026672363281, 367.5106201171875, -103.98043823242188, 0.01600000075995922, 0.03200000151991844, 1.055999994277954, 0.0, 0.0, 0.0, 0.0, 0.0, 1.620309728388549E9, 2021-05-06 16:02:08.388
44.0, 82.28714752197266, 123.37368774414062, 371.3702087402344, -97.63008880615234, 0.01600000075995922, 0.03200000151991844, 1.055999994277954, 0.0, 0.0, 0.0, 0.0, 0.0, 1.620309728388549E9, 2021-05-06 16:02:08.388
45.0, 83.25204467773438, 109.50614166259766, 363.1723327636719, -104.11133575439453, 0.01600000075995922, 0.03200000151991844, 1.055999994277954, 0.0, 0.0, 0.0, 0.0, 0.0, 1.6203097283986008E9, 2021-05-06 16:02:08.398
45.0, 91.36388397216797, 112.15773010253906, 365.0086364746094, -104.67980194091797, 0.01600000075995922, 0.03200000151991844, 1.055999994277954, 0.0, 0.0, 0.0, 0.0, 0.0, 1.6203097283986008E9, 2021-05-06 16:02:08.398
46.0, 94.52410125732422, 119.01296997070312, 372.0882568359375, -98.34440612792969, 0.01600000075995922, 0.03200000151991844, 1.055999994277954, 0.0, 0.0, 0.0, 0.0, 0.0, 1.6203097284135947E9, 2021-05-06 16:02:08.413
46.0, 88.99279022216797, 117.45343017578125, 372.8063049316406, -103.0379867553711, 0.01600000075995922, 0.03200000151991844, 1.055999994277954, 0.0, 0.0, 0.0, 0.0, 0.0, 1.6203097284135947E9, 2021-05-06 16:02:08.413
47.0, 86.02330780029297, 118.49311828613281, 364.6047058105469, -109.19760131835938, 0.01600000075995922, 0.03200000151991844, 1.055999994277954, 0.0, 0.0, 0.0, 0.0, 0.0, 1.6203097284291985E9, 2021-05-06 16:02:08.429
47.0, 84.19449615478516, 112.22879028320312, 359.2192687988281, -112.5373306274414, 0.01600000075995922, 0.03200000151991844, 1.055999994277954, 0.0, 0.0, 0.0, 0.0, 0.0, 1.6203097284291985E9, 2021-05-06 16:02:08.429
48.0, 89.68840789794922, 123.33628845214844, 367.74249267578125, -105.62225341796875, 0.01600000075995922, 0.03200000151991844, 1.055999994277954, 0.0, 0.0, 0.0, 0.0, 0.0, 1.6203097284299984E9, 2021-05-06 16:02:08.429
48.0, 78.41261291503906, 126.35064697265625, 372.58941650390625, -104.9864730834961, 0.01600000075995922, 0.03200000151991844, 1.055999994277954, 0.0, 0.0, 0.0, 0.0, 0.0, 1.6203097284299984E9, 2021-05-06 16:02:08.429
49.0, 74.4258804321289, 117.65164184570312, 365.62945556640625, -108.76750946044922, 0.01600000075995922, 0.03200000151991844, 1.055999994277954, 0.0, 0.0, 0.0, 0.0, 0.0, 1.6203097284435606E9, 2021-05-06 16:02:08.443
49.0, 84.49369049072266, 114.90655517578125, 362.9666442871094, -107.30520629882812, 0.01600000075995922, 0.03200000151991844, 1.055999994277954, 0.0, 0.0, 0.0, 0.0, 0.0, 1.6203097284435606E9, 2021-05-06 16:02:08.443
50.0, 86.62169647216797, 119.26728057861328, 371.0784912109375, -102.58919525146484, 0.01600000075995922, 0.03200000151991844, 1.055999994277954, 0.0, 0.0, 0.0, 0.0, 0.0, 1.6203097284593425E9, 2021-05-06 16:02:08.459
50.0, 82.84065246582031, 117.7900161743164, 376.8902893066406, -105.4539566040039, 0.01600000075995922, 0.03200000151991844, 1.055999994277954, 0.0, 0.0, 0.0, 0.0, 0.0, 1.6203097284593425E9, 2021-05-06 16:02:08.459
51.0, 84.77043914794922, 115.46379852294922, 374.49676513671875, -110.01289367675781, 0.01600000075995922, 0.03200000151991844, 1.055999994277954, 0.0, 0.0, 0.0, 0.0, 0.0, 1.6203097284599006E9, 2021-05-06 16:02:08.459
51.0, 86.11680603027344, 114.08751678466797, 372.5033874511719, -113.79767608642578, 0.01600000075995922, 0.03200000151991844, 1.055999994277954, 0.0, 0.0, 0.0, 0.0, 0.0, 1.6203097284599006E9, 2021-05-06 16:02:08.459
52.0, 98.82872772216797, 113.29840087890625, 370.6558837890625, -118.04620361328125, 0.01600000075995922, 0.03200000151991844, 1.055999994277954, 0.0, 0.0, 0.0, 0.0, 0.0, 1.6203097284735277E9, 2021-05-06 16:02:08.473
52.0, 86.70397186279297, 112.48310089111328, 371.7105407714844, -115.41705322265625, 0.01600000075995922, 0.03200000151991844, 1.055999994277954, 0.0, 0.0, 0.0, 0.0, 0.0, 1.6203097284735277E9, 2021-05-06 16:02:08.473
53.0, 90.41394805908203, 107.1874008178711, 364.39154052734375, -121.3709716796875, 0.01600000075995922, 0.03200000151991844, 1.055999994277954, 0.0, 0.0, 0.0, 0.0, 0.0, 1.6203097284899971E9, 2021-05-06 16:02:08.489
53.0, 83.97010040283203, 109.12467193603516, 363.5201416015625, -120.37989807128906, 0.01600000075995922, 0.03200000151991844, 1.055999994277954, 0.0, 0.0, 0.0, 0.0, 0.0, 1.6203097284899971E9, 2021-05-06 16:02:08.489
54.0, 89.82678985595703, 116.840087890625, 370.8840026855469, -111.91276550292969, 0.01600000075995922, 0.03200000151991844, 1.055999994277954, 0.0, 0.0, 0.0, 0.0, 0.0, 1.6203097284906993E9, 2021-05-06 16:02:08.490
54.0, 85.24166870117188, 118.22384643554688, 369.18609619140625, -108.67027282714844, 0.01600000075995922, 0.03200000151991844, 1.055999994277954, 0.0, 0.0, 0.0, 0.0, 0.0, 1.6203097284906993E9, 2021-05-06 16:02:08.490
55.0, 90.0661392211914, 106.86951446533203, 362.4281005859375, -114.62045288085938, 0.01600000075995922, 0.03200000151991844, 1.055999994277954, 0.0, 0.0, 0.0, 0.0, 0.0, 1.6203097285036447E9, 2021-05-06 16:02:08.503
55.0, 91.04973602294922, 114.9551773071289, 358.4039611816406, -118.32295227050781, 0.01600000075995922, 0.03200000151991844, 1.055999994277954, 0.0, 0.0, 0.0, 0.0, 0.0, 1.6203097285036447E9, 2021-05-06 16:02:08.503
56.0, 89.46401977539062, 115.64705657958984, 365.8800354003906, -118.67076873779297, 0.01600000075995922, 0.03200000151991844, 1.055999994277954, 0.0, 0.0, 0.0, 0.0, 0.0, 1.6203097285193648E9, 2021-05-06 16:02:08.519
56.0, 94.84947204589844, 115.25062561035156, 369.70220947265625, -114.81867218017578, 0.01600000075995922, 0.03200000151991844, 1.055999994277954, 0.0, 0.0, 0.0, 0.0, 0.0, 1.6203097285193648E9, 2021-05-06 16:02:08.519
57.0, 87.75862121582031, 110.93852233886719, 363.28826904296875, -125.2455062866211, 0.01600000075995922, 0.03200000151991844, 1.055999994277954, 0.0, 0.0, 0.0, 0.0, 0.0, 1.6203097285199628E9, 2021-05-06 16:02:08.519
57.0, 90.31671142578125, 118.55670166015625, 362.6038818359375, -121.43829345703125, 0.01600000075995922, 0.03200000151991844, 1.055999994277954, 0.0, 0.0, 0.0, 0.0, 0.0, 1.6203097285199628E9, 2021-05-06 16:02:08.519
58.0, 99.29995727539062, 117.93213653564453, 370.64093017578125, -110.82445526123047, 0.01600000075995922, 0.03200000151991844, 1.055999994277954, 0.0, 0.0, 0.0, 0.0, 0.0, 1.620309728533625E9, 2021-05-06 16:02:08.533
58.0, 93.04309844970703, 121.49626159667969, 375.427978515625, -112.90383911132812, 0.01600000075995922, 0.03200000151991844, 1.055999994277954, 0.0, 0.0, 0.0, 0.0, 0.0, 1.620309728533625E9, 2021-05-06 16:02:08.533
59.0, 88.77213287353516, 119.98534393310547, 371.0859680175781, -109.74362182617188, 0.01600000075995922, 0.03200000151991844, 1.055999994277954, 0.0, 0.0, 0.0, 0.0, 0.0, 1.6203097285492861E9, 2021-05-06 16:02:08.549
59.0, 99.16157531738281, 128.42630004882812, 376.0039367675781, -105.8541259765625, 0.01600000075995922, 0.03200000151991844, 1.055999994277954, 0.0, 0.0, 0.0, 0.0, 0.0, 1.6203097285492861E9, 2021-05-06 16:02:08.549
60.0, 99.14287567138672, 118.43328094482422, 379.7625427246094, -103.62889099121094, 0.01600000075995922, 0.03200000151991844, 1.055999994277954, 0.0, 0.0, 0.0, 0.0, 0.0, 1.6203097285500703E9, 2021-05-06 16:02:08.550
60.0, 93.92945861816406, 120.60242462158203, 379.3062744140625, -108.66653442382812, 0.01600000075995922, 0.03200000151991844, 1.055999994277954, 0.0, 0.0, 0.0, 0.0, 0.0, 1.6203097285500703E9, 2021-05-06 16:02:08.550
61.0, 88.05781555175781, 121.48503875732422, 372.64923095703125, -112.01000213623047, 0.01600000075995922, 0.03200000151991844, 1.055999994277954, 0.0, 0.0, 0.0, 0.0, 0.0, 1.6203097285636203E9, 2021-05-06 16:02:08.563
61.0, 93.09172058105469, 111.27511596679688, 366.7962951660156, -111.00022888183594, 0.01600000075995922, 0.03200000151991844, 1.055999994277954, 0.0, 0.0, 0.0, 0.0, 0.0, 1.6203097285636203E9, 2021-05-06 16:02:08.563
62.0, 91.65185546875, 113.66490936279297, 376.6471862792969, -108.64035034179688, 0.01600000075995922, 0.03200000151991844, 1.055999994277954, 0.0, 0.0, 0.0, 0.0, 0.0, 1.6203097285956564E9, 2021-05-06 16:02:08.595
62.0, 93.78359985351562, 111.5406494140625, 373.1279602050781, -108.01204681396484, 0.01600000075995922, 0.03200000151991844, 1.055999994277954, 0.0, 0.0, 0.0, 0.0, 0.0, 1.6203097285956564E9, 2021-05-06 16:02:08.595
63.0, 92.16048431396484, 108.6721420288086, 361.4557189941406, -117.54505920410156, 0.01600000075995922, 0.03200000151991844, 1.055999994277954, 0.0, 0.0, 0.0, 0.0, 0.0, 1.620309728596376E9, 2021-05-06 16:02:08.596
63.0, 90.24191284179688, 107.81196594238281, 357.1211853027344, -115.40583038330078, 0.01600000075995922, 0.03200000151991844, 1.055999994277954, 0.0, 0.0, 0.0, 0.0, 0.0, 1.620309728596376E9, 2021-05-06 16:02:08.596
64.0, 91.26290893554688, 112.12033081054688, 369.9041442871094, -108.7413330078125, 0.01600000075995922, 0.03200000151991844, 1.055999994277954, 0.0, 0.0, 0.0, 0.0, 0.0, 1.6203097285971847E9, 2021-05-06 16:02:08.597
64.0, 94.41938781738281, 115.59095764160156, 370.3379821777344, -106.66568756103516, 0.01600000075995922, 0.03200000151991844, 1.055999994277954, 0.0, 0.0, 0.0, 0.0, 0.0, 1.6203097285971847E9, 2021-05-06 16:02:08.597
65.0, 92.6541519165039, 113.24230194091797, 364.5224304199219, -113.59197998046875, 0.01600000075995922, 0.03200000151991844, 1.055999994277954, 0.0, 0.0, 0.0, 0.0, 0.0, 1.6203097285978281E9, 2021-05-06 16:02:08.597
65.0, 98.49961853027344, 115.06362915039062, 367.21142578125, -112.38399505615234, 0.01600000075995922, 0.03200000151991844, 1.055999994277954, 0.0, 0.0, 0.0, 0.0, 0.0, 1.6203097285978281E9, 2021-05-06 16:02:08.597
66.0, 99.56548309326172, 116.97472381591797, 371.3963623046875, -107.9185562133789, 0.01600000075995922, 0.03200000151991844, 1.055999994277954, 0.0, 0.0, 0.0, 0.0, 0.0, 1.6203097286085603E9, 2021-05-06 16:02:08.608
66.0, 96.4277114868164, 126.26089477539062, 372.8624267578125, -108.71141052246094, 0.01600000075995922, 0.03200000151991844, 1.055999994277954, 0.0, 0.0, 0.0, 0.0, 0.0, 1.6203097286085603E9, 2021-05-06 16:02:08.608
67.0, 91.78649139404297, 119.74224853515625, 364.0960998535156, -112.00626373291016, 0.01600000075995922, 0.03200000151991844, 1.055999994277954, 0.0, 0.0, 0.0, 0.0, 0.0, 1.6203097286236465E9, 2021-05-06 16:02:08.623
67.0, 92.53073120117188, 120.92779541015625, 364.3990173339844, -107.94473266601562, 0.01600000075995922, 0.03200000151991844, 1.055999994277954, 0.0, 0.0, 0.0, 0.0, 0.0, 1.6203097286236465E9, 2021-05-06 16:02:08.623
68.0, 97.41878509521484, 118.83718872070312, 380.439453125, -99.77679443359375, 0.01600000075995922, 0.03200000151991844, 1.055999994277954, 0.0, 0.0, 0.0, 0.0, 0.0, 1.620309728639253E9, 2021-05-06 16:02:08.639
68.0, 98.99327850341797, 123.59060668945312, 381.40435791015625, -101.96463012695312, 0.01600000075995922, 0.03200000151991844, 1.055999994277954, 0.0, 0.0, 0.0, 0.0, 0.0, 1.620309728639253E9, 2021-05-06 16:02:08.639
69.0, 94.32962799072266, 123.61678314208984, 370.0799255371094, -102.38723754882812, 0.01600000075995922, 0.03200000151991844, 1.055999994277954, 0.0, 0.0, 0.0, 0.0, 0.0, 1.620309728639949E9, 2021-05-06 16:02:08.639
69.0, 96.81665802001953, 123.52328491210938, 371.6768798828125, -108.25888061523438, 0.01600000075995922, 0.03200000151991844, 1.055999994277954, 0.0, 0.0, 0.0, 0.0, 0.0, 1.620309728639949E9, 2021-05-06 16:02:08.639
70.0, 95.83680725097656, 120.35185241699219, 375.94036865234375, -106.0897445678711, 0.01600000075995922, 0.03200000151991844, 1.055999994277954, 0.0, 0.0, 0.0, 0.0, 0.0, 1.6203097286536891E9, 2021-05-06 16:02:08.653
70.0, 95.18606567382812, 119.87688446044922, 373.1092529296875, -96.6801528930664, 0.01600000075995922, 0.03200000151991844, 1.055999994277954, 0.0, 0.0, 0.0, 0.0, 0.0, 1.6203097286536891E9, 2021-05-06 16:02:08.653
71.0, 84.70686340332031, 115.19078826904297, 363.66973876953125, -109.55663299560547, 0.01600000075995922, 0.03200000151991844, 1.055999994277954, 0.0, 0.0, 0.0, 0.0, 0.0, 1.6203097286692362E9, 2021-05-06 16:02:08.669
71.0, 90.5672836303711, 113.9940185546875, 364.9525146484375, -108.101806640625, 0.01600000075995922, 0.03200000151991844, 1.055999994277954, 0.0, 0.0, 0.0, 0.0, 0.0, 1.6203097286692362E9, 2021-05-06 16:02:08.669
72.0, 80.95574188232422, 111.22649383544922, 365.2704162597656, -112.34285736083984, 0.01600000075995922, 0.03200000151991844, 1.055999994277954, 0.0, 0.0, 0.0, 0.0, 0.0, 1.6203097286699383E9, 2021-05-06 16:02:08.669
72.0, 85.67923736572266, 117.35993194580078, 365.69677734375, -104.80695343017578, 0.01600000075995922, 0.03200000151991844, 1.055999994277954, 0.0, 0.0, 0.0, 0.0, 0.0, 1.6203097286699383E9, 2021-05-06 16:02:08.669
73.0, 87.63146209716797, 122.79400634765625, 363.1798095703125, -109.55663299560547, 0.01600000075995922, 0.03200000151991844, 1.055999994277954, 0.0, 0.0, 0.0, 0.0, 0.0, 1.6203097287000978E9, 2021-05-06 16:02:08.700
73.0, 89.27328491210938, 119.2336196899414, 356.1824645996094, -113.86125183105469, 0.01600000075995922, 0.03200000151991844, 1.055999994277954, 0.0, 0.0, 0.0, 0.0, 0.0, 1.6203097287000978E9, 2021-05-06 16:02:08.700
74.0, 87.52301025390625, 105.38851165771484, 361.9082336425781, -109.87078094482422, 0.01600000075995922, 0.03200000151991844, 1.055999994277954, 0.0, 0.0, 0.0, 0.0, 0.0, 1.6203097287008533E9, 2021-05-06 16:02:08.700
74.0, 85.83631134033203, 115.21322631835938, 360.9919738769531, -111.78186798095703, 0.01600000075995922, 0.03200000151991844, 1.055999994277954, 0.0, 0.0, 0.0, 0.0, 0.0, 1.6203097287008533E9, 2021-05-06 16:02:08.700
75.0, 79.4261245727539, 110.93852233886719, 355.6102600097656, -113.94727325439453, 0.01600000075995922, 0.03200000151991844, 1.055999994277954, 0.0, 0.0, 0.0, 0.0, 0.0, 1.6203097287015715E9, 2021-05-06 16:02:08.701
75.0, 87.19390106201172, 111.33121490478516, 358.9537353515625, -116.33332824707031, 0.01600000075995922, 0.03200000151991844, 1.055999994277954, 0.0, 0.0, 0.0, 0.0, 0.0, 1.6203097287015715E9, 2021-05-06 16:02:08.701
76.0, 87.01811981201172, 108.5898666381836, 362.2560729980469, -111.92772674560547, 0.01600000075995922, 0.03200000151991844, 1.055999994277954, 0.0, 0.0, 0.0, 0.0, 0.0, 1.6203097287135696E9, 2021-05-06 16:02:08.713
76.0, 84.71808624267578, 112.26618957519531, 363.03021240234375, -107.1556167602539, 0.01600000075995922, 0.03200000151991844, 1.055999994277954, 0.0, 0.0, 0.0, 0.0, 0.0, 1.6203097287135696E9, 2021-05-06 16:02:08.713
77.0, 83.78311157226562, 111.42471313476562, 352.4163818359375, -113.27409362792969, 0.01600000075995922, 0.03200000151991844, 1.055999994277954, 0.0, 0.0, 0.0, 0.0, 0.0, 1.62030972872902E9, 2021-05-06 16:02:08.729
77.0, 79.55702209472656, 110.49347686767578, 356.66864013671875, -117.82928466796875, 0.01600000075995922, 0.03200000151991844, 1.055999994277954, 0.0, 0.0, 0.0, 0.0, 0.0, 1.62030972872902E9, 2021-05-06 16:02:08.729
78.0, 85.25289154052734, 112.13529205322266, 365.603271484375, -113.67051696777344, 0.01600000075995922, 0.03200000151991844, 1.055999994277954, 0.0, 0.0, 0.0, 0.0, 0.0, 1.620309728744676E9, 2021-05-06 16:02:08.744
78.0, 88.26725006103516, 117.22529602050781, 370.7044982910156, -103.70742797851562, 0.01600000075995922, 0.03200000151991844, 1.055999994277954, 0.0, 0.0, 0.0, 0.0, 0.0, 1.620309728744676E9, 2021-05-06 16:02:08.744
79.0, 92.6130142211914, 112.27740478515625, 361.6614074707031, -111.9576416015625, 0.01600000075995922, 0.03200000151991844, 1.055999994277954, 0.0, 0.0, 0.0, 0.0, 0.0, 1.6203097287601008E9, 2021-05-06 16:02:08.760
79.0, 91.2703857421875, 110.29899597167969, 362.65997314453125, -114.59427642822266, 0.01600000075995922, 0.03200000151991844, 1.055999994277954, 0.0, 0.0, 0.0, 0.0, 0.0, 1.6203097287601008E9, 2021-05-06 16:02:08.760
80.0, 87.03681945800781, 111.08811950683594, 366.6766357421875, -117.51139831542969, 0.01600000075995922, 0.03200000151991844, 1.055999994277954, 0.0, 0.0, 0.0, 0.0, 0.0, 1.6203097287607E9, 2021-05-06 16:02:08.760
80.0, 85.52216339111328, 110.38501739501953, 358.2655944824219, -116.2884521484375, 0.01600000075995922, 0.03200000151991844, 1.055999994277954, 0.0, 0.0, 0.0, 0.0, 0.0, 1.6203097287607E9, 2021-05-06 16:02:08.760
81.0, 79.42986297607422, 107.58383178710938, 354.7126770019531, -124.14971923828125, 0.01600000075995922, 0.03200000151991844, 1.055999994277954, 0.0, 0.0, 0.0, 0.0, 0.0, 1.6203097287613792E9, 2021-05-06 16:02:08.761
81.0, 78.88758087158203, 105.07435607910156, 349.0280456542969, -123.29328155517578, 0.01600000075995922, 0.03200000151991844, 1.055999994277954, 0.0, 0.0, 0.0, 0.0, 0.0, 1.6203097287613792E9, 2021-05-06 16:02:08.761
82.0, 94.70361328125, 109.01995086669922, 360.0495300292969, -119.31402587890625, 0.01600000075995922, 0.03200000151991844, 1.055999994277954, 0.0, 0.0, 0.0, 0.0, 0.0, 1.620309728773576E9, 2021-05-06 16:02:08.773
82.0, 85.30524444580078, 95.97144317626953, 353.72161865234375, -123.52515411376953, 0.01600000075995922, 0.03200000151991844, 1.055999994277954, 0.0, 0.0, 0.0, 0.0, 0.0, 1.620309728773576E9, 2021-05-06 16:02:08.773
83.0, 76.47908782958984, 105.81111907958984, 350.0826721191406, -123.36434173583984, 0.01600000075995922, 0.03200000151991844, 1.055999994277954, 0.0, 0.0, 0.0, 0.0, 0.0, 1.6203097288057368E9, 2021-05-06 16:02:08.805
83.0, 78.1583023071289, 97.19812774658203, 344.18487548828125, -130.57861328125, 0.01600000075995922, 0.03200000151991844, 1.055999994277954, 0.0, 0.0, 0.0, 0.0, 0.0, 1.6203097288057368E9, 2021-05-06 16:02:08.805
84.0, 86.9321060180664, 103.12960815429688, 350.7072448730469, -121.53926849365234, 0.01600000075995922, 0.03200000151991844, 1.055999994277954, 0.0, 0.0, 0.0, 0.0, 0.0, 1.6203097288062952E9, 2021-05-06 16:02:08.806
84.0, 79.21669006347656, 102.3105697631836, 351.02886962890625, -126.35626220703125, 0.01600000075995922, 0.03200000151991844, 1.055999994277954, 0.0, 0.0, 0.0, 0.0, 0.0, 1.6203097288062952E9, 2021-05-06 16:02:08.806
85.0, 84.68816375732422, 104.60687255859375, 344.48779296875, -130.3242950439453, 0.01600000075995922, 0.03200000151991844, 1.055999994277954, 0.0, 0.0, 0.0, 0.0, 0.0, 1.6203097288070576E9, 2021-05-06 16:02:08.807
85.0, 77.80300903320312, 96.41648864746094, 338.724609375, -131.3041534423828, 0.01600000075995922, 0.03200000151991844, 1.055999994277954, 0.0, 0.0, 0.0, 0.0, 0.0, 1.6203097288070576E9, 2021-05-06 16:02:08.807
86.0, 80.02450561523438, 96.68202209472656, 350.333251953125, -125.7653579711914, 0.01600000075995922, 0.03200000151991844, 1.055999994277954, 0.0, 0.0, 0.0, 0.0, 0.0, 1.6203097288077776E9, 2021-05-06 16:02:08.807
86.0, 75.6488265991211, 105.44087219238281, 347.950927734375, -123.34564208984375, 0.01600000075995922, 0.03200000151991844, 1.055999994277954, 0.0, 0.0, 0.0, 0.0, 0.0, 1.6203097288077776E9, 2021-05-06 16:02:08.807
87.0, 69.2461166381836, 101.29331970214844, 344.3307189941406, -123.51019287109375, 0.01600000075995922, 0.03200000151991844, 1.055999994277954, 0.0, 0.0, 0.0, 0.0, 0.0, 1.6203097288186808E9, 2021-05-06 16:02:08.818
87.0, 78.85765838623047, 106.51048278808594, 352.63702392578125, -118.87645721435547, 0.01600000075995922, 0.03200000151991844, 1.055999994277954, 0.0, 0.0, 0.0, 0.0, 0.0, 1.6203097288186808E9, 2021-05-06 16:02:08.818
88.0, 84.11595916748047, 104.4797134399414, 354.2751159667969, -117.4926986694336, 0.01600000075995922, 0.03200000151991844, 1.055999994277954, 0.0, 0.0, 0.0, 0.0, 0.0, 1.6203097288497005E9, 2021-05-06 16:02:08.849
88.0, 76.52770233154297, 105.15290069580078, 352.9025573730469, -121.13536071777344, 0.01600000075995922, 0.03200000151991844, 1.055999994277954, 0.0, 0.0, 0.0, 0.0, 0.0, 1.6203097288497005E9, 2021-05-06 16:02:08.849
89.0, 73.88359069824219, 108.15603637695312, 349.10284423828125, -121.0904769897461, 0.01600000075995922, 0.03200000151991844, 1.055999994277954, 0.0, 0.0, 0.0, 0.0, 0.0, 1.6203097288655295E9, 2021-05-06 16:02:08.865
89.0, 83.56619262695312, 101.55511474609375, 349.85455322265625, -125.33152770996094, 0.01600000075995922, 0.03200000151991844, 1.055999994277954, 0.0, 0.0, 0.0, 0.0, 0.0, 1.6203097288655295E9, 2021-05-06 16:02:08.865
90.0, 88.89555358886719, 100.9230728149414, 353.5308837890625, -123.80564880371094, 0.01600000075995922, 0.03200000151991844, 1.055999994277954, 0.0, 0.0, 0.0, 0.0, 0.0, 1.620309728866243E9, 2021-05-06 16:02:08.866
90.0, 89.13116455078125, 106.46186065673828, 354.9595031738281, -117.77318572998047, 0.01600000075995922, 0.03200000151991844, 1.055999994277954, 0.0, 0.0, 0.0, 0.0, 0.0, 1.620309728866243E9, 2021-05-06 16:02:08.866
91.0, 86.24396514892578, 109.86891174316406, 344.4429016113281, -119.79647827148438, 0.01600000075995922, 0.03200000151991844, 1.055999994277954, 0.0, 0.0, 0.0, 0.0, 0.0, 1.6203097288670094E9, 2021-05-06 16:02:08.867
91.0, 78.34529113769531, 94.9205322265625, 345.07122802734375, -122.08903503417969, 0.01600000075995922, 0.03200000151991844, 1.055999994277954, 0.0, 0.0, 0.0, 0.0, 0.0, 1.6203097288670094E9, 2021-05-06 16:02:08.867
92.0, 87.42577362060547, 106.89942932128906, 361.4893798828125, -110.3681869506836, 0.01600000075995922, 0.03200000151991844, 1.055999994277954, 0.0, 0.0, 0.0, 0.0, 0.0, 1.6203097288792064E9, 2021-05-06 16:02:08.879
92.0, 82.5564193725586, 108.55620574951172, 357.2483215332031, -117.38797760009766, 0.01600000075995922, 0.03200000151991844, 1.055999994277954, 0.0, 0.0, 0.0, 0.0, 0.0, 1.6203097288792064E9, 2021-05-06 16:02:08.879
93.0, 81.87201690673828, 109.54727935791016, 348.736328125, -119.98721313476562, 0.01600000075995922, 0.03200000151991844, 1.055999994277954, 0.0, 0.0, 0.0, 0.0, 0.0, 1.6203097288799472E9, 2021-05-06 16:02:08.879
93.0, 83.34554290771484, 101.910400390625, 345.9912414550781, -124.27313232421875, 0.01600000075995922, 0.03200000151991844, 1.055999994277954, 0.0, 0.0, 0.0, 0.0, 0.0, 1.6203097288799472E9, 2021-05-06 16:02:08.879
94.0, 79.81507110595703, 103.08099365234375, 347.74151611328125, -119.62069702148438, 0.01600000075995922, 0.03200000151991844, 1.055999994277954, 0.0, 0.0, 0.0, 0.0, 0.0, 1.620309728893688E9, 2021-05-06 16:02:08.893
94.0, 88.1550521850586, 110.35509490966797, 358.32916259765625, -122.45928192138672, 0.01600000075995922, 0.03200000151991844, 1.055999994277954, 0.0, 0.0, 0.0, 0.0, 0.0, 1.620309728893688E9, 2021-05-06 16:02:08.893
95.0, 69.51912689208984, 101.98894500732422, 346.80279541015625, -124.7817611694336, 0.01600000075995922, 0.03200000151991844, 1.055999994277954, 0.0, 0.0, 0.0, 0.0, 0.0, 1.6203097289092603E9, 2021-05-06 16:02:08.909
95.0, 80.20402526855469, 101.3045425415039, 346.76165771484375, -129.9839630126953, 0.01600000075995922, 0.03200000151991844, 1.055999994277954, 0.0, 0.0, 0.0, 0.0, 0.0, 1.6203097289092603E9, 2021-05-06 16:02:08.909
96.0, 73.73025512695312, 105.45208740234375, 354.56683349609375, -122.01797485351562, 0.01600000075995922, 0.03200000151991844, 1.055999994277954, 0.0, 0.0, 0.0, 0.0, 0.0, 1.6203097289099371E9, 2021-05-06 16:02:08.909
96.0, 79.75897979736328, 102.78553771972656, 352.3415832519531, -126.11690521240234, 0.01600000075995922, 0.03200000151991844, 1.055999994277954, 0.0, 0.0, 0.0, 0.0, 0.0, 1.6203097289099371E9, 2021-05-06 16:02:08.909
97.0, 82.08519744873047, 104.95468139648438, 349.4693298339844, -122.72855377197266, 0.01600000075995922, 0.03200000151991844, 1.055999994277954, 0.0, 0.0, 0.0, 0.0, 0.0, 1.6203097289237576E9, 2021-05-06 16:02:08.923
97.0, 80.85850524902344, 104.0758056640625, 347.9808654785156, -127.0331802368164, 0.01600000075995922, 0.03200000151991844, 1.055999994277954, 0.0, 0.0, 0.0, 0.0, 0.0, 1.6203097289237576E9, 2021-05-06 16:02:08.923
98.0, 88.50286102294922, 107.38187408447266, 355.6214904785156, -120.00591278076172, 0.01600000075995922, 0.03200000151991844, 1.055999994277954, 0.0, 0.0, 0.0, 0.0, 0.0, 1.620309728939257E9, 2021-05-06 16:02:08.939
98.0, 79.83751678466797, 102.34423065185547, 356.1974182128906, -121.9917984008789, 0.01600000075995922, 0.03200000151991844, 1.055999994277954, 0.0, 0.0, 0.0, 0.0, 0.0, 1.620309728939257E9, 2021-05-06 16:02:08.939
99.0, 79.32888793945312, 99.25507354736328, 357.49517822265625, -123.97394561767578, 0.01600000075995922, 0.03200000151991844, 1.055999994277954, 0.0, 0.0, 0.0, 0.0, 0.0, 1.6203097289399776E9, 2021-05-06 16:02:08.939
99.0, 89.37052154541016, 99.46824645996094, 348.0968017578125, -127.84848022460938, 0.01600000075995922, 0.03200000151991844, 1.055999994277954, 0.0, 0.0, 0.0, 0.0, 0.0, 1.6203097289399776E9, 2021-05-06 16:02:08.939
100.0, 79.11197662353516, 93.08049774169922, 353.9085998535156, -131.423828125, 0.01600000075995922, 0.03200000151991844, 1.055999994277954, 0.0, 0.0, 0.0, 0.0, 0.0, 1.6203097289714303E9, 2021-05-06 16:02:08.971
100.0, 78.07601928710938, 104.74150848388672, 355.96929931640625, -121.95439910888672, 0.01600000075995922, 0.03200000151991844, 1.055999994277954, 0.0, 0.0, 0.0, 0.0, 0.0, 1.6203097289714303E9, 2021-05-06 16:02:08.971
0.0, 79.9740219116211, 102.12358093261719, 346.89068603515625, -123.0670166015625, 0.01600000075995922, 0.03200000151991844, 1.055999994277954, 0.0, 0.0, 0.0, 0.0, 0.0, 1.6203097289720387E9, 2021-05-06 16:02:08.972
1.0, 83.4932632446289, 95.73208618164062, 343.6706237792969, -129.0508575439453, 0.01600000075995922, 0.04800000041723251, 1.055999994277954, 0.0, 0.0, 0.0, 0.0, 0.0, 1.6203097289727662E9, 2021-05-06 16:02:08.972
1.0, 79.13628387451172, 103.20440673828125, 350.4548034667969, -125.76348876953125, 0.01600000075995922, 0.04800000041723251, 1.055999994277954, 0.0, 0.0, 0.0, 0.0, 0.0, 1.6203097289727662E9, 2021-05-06 16:02:08.972
2.0, 83.61294555664062, 104.58817291259766, 348.48760986328125, -121.57106018066406, 0.01600000075995922, 0.04800000041723251, 1.055999994277954, 0.0, 0.0, 0.0, 0.0, 0.0, 1.620309728973502E9, 2021-05-06 16:02:08.973
2.0, 88.88993835449219, 101.09884643554688, 342.5000305175781, -125.30722045898438, 0.01600000075995922, 0.04800000041723251, 1.055999994277954, 0.0, 0.0, 0.0, 0.0, 0.0, 1.620309728973502E9, 2021-05-06 16:02:08.973
3.0, 84.76109313964844, 108.43653106689453, 344.5869140625, -128.37393188476562, 0.01600000075995922, 0.04800000041723251, 1.055999994277954, 0.0, 0.0, 0.0, 0.0, 0.0, 1.620309728983606E9, 2021-05-06 16:02:08.983
3.0, 82.34137725830078, 100.7435531616211, 344.7813720703125, -127.06497192382812, 0.01600000075995922, 0.04800000041723251, 1.055999994277954, 0.0, 0.0, 0.0, 0.0, 0.0, 1.620309728983606E9, 2021-05-06 16:02:08.983
4.0, 83.42221069335938, 104.76394653320312, 347.02532958984375, -130.80860900878906, 0.01600000075995922, 0.04800000041723251, 1.055999994277954, 0.0, 0.0, 0.0, 0.0, 0.0, 1.6203097289986935E9, 2021-05-06 16:02:08.998
4.0, 78.32472229003906, 101.09136199951172, 346.8046569824219, -130.0718536376953, 0.01600000075995922, 0.04800000041723251, 1.055999994277954, 0.0, 0.0, 0.0, 0.0, 0.0, 1.6203097289986935E9, 2021-05-06 16:02:08.998
5.0, 78.93806457519531, 103.49986267089844, 345.40966796875, -131.8557891845703, 0.01600000075995922, 0.04800000041723251, 1.055999994277954, 0.0, 0.0, 0.0, 0.0, 0.0, 1.6203097290142477E9, 2021-05-06 16:02:09.014
5.0, 92.76448059082031, 106.41324615478516, 355.103515625, -118.97930908203125, 0.01600000075995922, 0.04800000041723251, 1.055999994277954, 0.0, 0.0, 0.0, 0.0, 0.0, 1.6203097290142477E9, 2021-05-06 16:02:09.014
6.0, 88.99092102050781, 111.51820373535156, 359.71478271484375, -115.16461181640625, 0.01600000075995922, 0.04800000041723251, 1.055999994277954, 0.0, 0.0, 0.0, 0.0, 0.0, 1.6203097290149696E9, 2021-05-06 16:02:09.014
6.0, 92.17357635498047, 118.35474395751953, 357.96453857421875, -117.86481475830078, 0.01600000075995922, 0.04800000041723251, 1.055999994277954, 0.0, 0.0, 0.0, 0.0, 0.0, 1.6203097290149696E9, 2021-05-06 16:02:09.014
7.0, 90.5130615234375, 108.58612823486328, 351.03448486328125, -121.76179504394531, 0.01600000075995922, 0.04800000041723251, 1.055999994277954, 0.0, 0.0, 0.0, 0.0, 0.0, 1.6203097290285816E9, 2021-05-06 16:02:09.028
7.0, 88.48977661132812, 109.76045227050781, 356.019775390625, -126.89293670654297, 0.01600000075995922, 0.04800000041723251, 1.055999994277954, 0.0, 0.0, 0.0, 0.0, 0.0, 1.6203097290285816E9, 2021-05-06 16:02:09.028
8.0, 87.05738830566406, 113.69108581542969, 360.05511474609375, -118.56044006347656, 0.01600000075995922, 0.04800000041723251, 1.055999994277954, 0.0, 0.0, 0.0, 0.0, 0.0, 1.6203097290442464E9, 2021-05-06 16:02:09.044
8.0, 91.48917388916016, 110.44859313964844, 352.9605407714844, -120.02648162841797, 0.01600000075995922, 0.04800000041723251, 1.055999994277954, 0.0, 0.0, 0.0, 0.0, 0.0, 1.6203097290442464E9, 2021-05-06 16:02:09.044
9.0, 78.86701202392578, 103.85514831542969, 346.3895263671875, -117.6628646850586, 0.01600000075995922, 0.04800000041723251, 1.055999994277954, 0.0, 0.0, 0.0, 0.0, 0.0, 1.6203097290449872E9, 2021-05-06 16:02:09.044
9.0, 83.96449279785156, 105.65404510498047, 352.48931884765625, -124.20768737792969, 0.01600000075995922, 0.04800000041723251, 1.055999994277954, 0.0, 0.0, 0.0, 0.0, 0.0, 1.6203097290449872E9, 2021-05-06 16:02:09.044
10.0, 87.01251220703125, 105.80738067626953, 355.90008544921875, -119.82452392578125, 0.01600000075995922, 0.04800000041723251, 1.055999994277954, 0.0, 0.0, 0.0, 0.0, 0.0, 1.62030972905853E9, 2021-05-06 16:02:09.058
10.0, 94.0061264038086, 107.24349975585938, 351.53564453125, -121.95626831054688, 0.01600000075995922, 0.04800000041723251, 1.055999994277954, 0.0, 0.0, 0.0, 0.0, 0.0, 1.62030972905853E9, 2021-05-06 16:02:09.058
11.0, 82.87618255615234, 101.5289306640625, 343.2068786621094, -129.73899841308594, 0.01600000075995922, 0.03200000151991844, 1.055999994277954, 0.0, 0.0, 0.0, 0.0, 0.0, 1.6203097290743337E9, 2021-05-06 16:02:09.074
11.0, 85.46045684814453, 106.79096984863281, 354.7743835449219, -118.9718246459961, 0.01600000075995922, 0.03200000151991844, 1.055999994277954, 0.0, 0.0, 0.0, 0.0, 0.0, 1.6203097290743337E9, 2021-05-06 16:02:09.074
12.0, 84.52922058105469, 105.17160034179688, 348.32305908203125, -121.85529327392578, 0.01600000075995922, 0.03200000151991844, 1.055999994277954, 0.0, 0.0, 0.0, 0.0, 0.0, 1.6203097290750625E9, 2021-05-06 16:02:09.075
12.0, 79.91792297363281, 105.8821792602539, 343.16949462890625, -129.5894012451172, 0.01600000075995922, 0.03200000151991844, 1.055999994277954, 0.0, 0.0, 0.0, 0.0, 0.0, 1.6203097290750625E9, 2021-05-06 16:02:09.075
13.0, 82.72284698486328, 95.82184600830078, 342.2232971191406, -123.87483978271484, 0.01600000075995922, 0.03200000151991844, 1.055999994277954, 0.0, 0.0, 0.0, 0.0, 0.0, 1.6203097290887673E9, 2021-05-06 16:02:09.088
13.0, 88.39627838134766, 101.06144714355469, 353.97406005859375, -122.22927856445312, 0.01600000075995922, 0.03200000151991844, 1.055999994277954, 0.0, 0.0, 0.0, 0.0, 0.0, 1.6203097290887673E9, 2021-05-06 16:02:09.088
14.0, 85.78582763671875, 110.25785827636719, 358.4768981933594, -117.344970703125, 0.01600000075995922, 0.03200000151991844, 1.055999994277954, 0.0, 0.0, 0.0, 0.0, 0.0, 1.6203097291044407E9, 2021-05-06 16:02:09.104
14.0, 94.62694549560547, 115.5198974609375, 353.2559814453125, -122.2031021118164, 0.01600000075995922, 0.03200000151991844, 1.055999994277954, 0.0, 0.0, 0.0, 0.0, 0.0, 1.6203097291044407E9, 2021-05-06 16:02:09.104
15.0, 95.32257080078125, 111.48828887939453, 354.2433166503906, -120.93901824951172, 0.01600000075995922, 0.03200000151991844, 1.055999994277954, 0.0, 0.0, 0.0, 0.0, 0.0, 1.6203097291050057E9, 2021-05-06 16:02:09.105
15.0, 92.28951263427734, 115.34038543701172, 364.15032958984375, -113.67613220214844, 0.01600000075995922, 0.03200000151991844, 1.055999994277954, 0.0, 0.0, 0.0, 0.0, 0.0, 1.6203097291050057E9, 2021-05-06 16:02:09.105
16.0, 96.43331909179688, 115.59095764160156, 368.12957763671875, -116.69422912597656, 0.01600000075995922, 0.03200000151991844, 1.055999994277954, 0.0, 0.0, 0.0, 0.0, 0.0, 1.6203097291185188E9, 2021-05-06 16:02:09.118
16.0, 94.42125701904297, 112.03805541992188, 360.95269775390625, -114.2296371459961, 0.01600000075995922, 0.03200000151991844, 1.055999994277954, 0.0, 0.0, 0.0, 0.0, 0.0, 1.6203097291185188E9, 2021-05-06 16:02:09.118
17.0, 104.08141326904297, 111.5593490600586, 359.38568115234375, -117.10187530517578, 0.01600000075995922, 0.03200000151991844, 1.055999994277954, 0.0, 0.0, 0.0, 0.0, 0.0, 1.620309729134068E9, 2021-05-06 16:02:09.134
17.0, 97.58895111083984, 109.33784484863281, 369.34503173828125, -110.36631774902344, 0.01600000075995922, 0.03200000151991844, 1.055999994277954, 0.0, 0.0, 0.0, 0.0, 0.0, 1.620309729134068E9, 2021-05-06 16:02:09.134
18.0, 97.32715606689453, 115.4974594116211, 368.12957763671875, -102.93887329101562, 0.01600000075995922, 0.03200000151991844, 1.055999994277954, 0.0, 0.0, 0.0, 0.0, 0.0, 1.6203097291494195E9, 2021-05-06 16:02:09.149
18.0, 98.07887268066406, 114.40167236328125, 359.86065673828125, -104.06832885742188, 0.01600000075995922, 0.03200000151991844, 1.055999994277954, 0.0, 0.0, 0.0, 0.0, 0.0, 1.6203097291494195E9, 2021-05-06 16:02:09.149
19.0, 99.75434875488281, 102.41902923583984, 357.6204528808594, -114.82427978515625, 0.01600000075995922, 0.03200000151991844, 1.055999994277954, 0.0, 0.0, 0.0, 0.0, 0.0, 1.6203097291500003E9, 2021-05-06 16:02:09.150
19.0, 100.48363494873047, 110.72161102294922, 359.9990234375, -114.9140396118164, 0.01600000075995922, 0.03200000151991844, 1.055999994277954, 0.0, 0.0, 0.0, 0.0, 0.0, 1.6203097291500003E9, 2021-05-06 16:02:09.150
20.0, 102.6976547241211, 104.38621520996094, 359.50537109375, -113.8294677734375, 0.01600000075995922, 0.03200000151991844, 1.055999994277954, 0.0, 0.0, 0.0, 0.0, 0.0, 1.620309729164286E9, 2021-05-06 16:02:09.164
20.0, 92.15487670898438, 103.84393310546875, 349.81903076171875, -124.45825958251953, 0.01600000075995922, 0.03200000151991844, 1.055999994277954, 0.0, 0.0, 0.0, 0.0, 0.0, 1.620309729164286E9, 2021-05-06 16:02:09.164
21.0, 90.81599426269531, 106.32722473144531, 341.4005126953125, -127.38660430908203, 0.01600000075995922, 0.03200000151991844, 1.055999994277954, 0.0, 0.0, 0.0, 0.0, 0.0, 1.6203097291650355E9, 2021-05-06 16:02:09.165
21.0, 91.41437530517578, 112.16895294189453, 350.6717224121094, -119.2523193359375, 0.01600000075995922, 0.03200000151991844, 1.055999994277954, 0.0, 0.0, 0.0, 0.0, 0.0, 1.6203097291650355E9, 2021-05-06 16:02:09.165
22.0, 92.61862182617188, 112.56163787841797, 352.9343566894531, -120.34062957763672, 0.01600000075995922, 0.03200000151991844, 1.055999994277954, 0.0, 0.0, 0.0, 0.0, 0.0, 1.6203097291784828E9, 2021-05-06 16:02:09.178
22.0, 88.31773376464844, 114.14361572265625, 350.7016296386719, -122.52473449707031, 0.01600000075995922, 0.03200000151991844, 1.055999994277954, 0.0, 0.0, 0.0, 0.0, 0.0, 1.6203097291784828E9, 2021-05-06 16:02:09.178
23.0, 85.78956604003906, 112.41204071044922, 347.8555603027344, -120.89787292480469, 0.01600000075995922, 0.03200000151991844, 1.055999994277954, 0.0, 0.0, 0.0, 0.0, 0.0, 1.6203097291941404E9, 2021-05-06 16:02:09.194
23.0, 91.3994140625, 114.51387023925781, 354.0226745605469, -114.90281677246094, 0.01600000075995922, 0.03200000151991844, 1.055999994277954, 0.0, 0.0, 0.0, 0.0, 0.0, 1.6203097291941404E9, 2021-05-06 16:02:09.194
24.0, 81.11469268798828, 113.98654174804688, 347.80694580078125, -112.55789947509766, 0.01600000075995922, 0.03200000151991844, 1.055999994277954, 0.0, 0.0, 0.0, 0.0, 0.0, 1.6203097292093692E9, 2021-05-06 16:02:09.209
24.0, 84.86206817626953, 116.1369857788086, 351.9058837890625, -111.76878356933594, 0.01600000075995922, 0.03200000151991844, 1.055999994277954, 0.0, 0.0, 0.0, 0.0, 0.0, 1.6203097292093692E9, 2021-05-06 16:02:09.209
25.0, 85.10890197753906, 112.1278076171875, 348.3305358886719, -118.4071044921875, 0.01600000075995922, 0.03200000151991844, 1.055999994277954, 0.0, 0.0, 0.0, 0.0, 0.0, 1.620309729209967E9, 2021-05-06 16:02:09.209
25.0, 97.3196792602539, 114.89159393310547, 355.1670837402344, -113.24230194091797, 0.01600000075995922, 0.03200000151991844, 1.055999994277954, 0.0, 0.0, 0.0, 0.0, 0.0, 1.620309729209967E9, 2021-05-06 16:02:09.209
26.0, 95.81997680664062, 118.15653228759766, 365.6687316894531, -112.45692443847656, 0.01600000075995922, 0.03200000151991844, 1.055999994277954, 0.0, 0.0, 0.0, 0.0, 0.0, 1.62030972922439E9, 2021-05-06 16:02:09.224
26.0, 84.34970092773438, 109.71931457519531, 354.35552978515625, -116.69796752929688, 0.01600000075995922, 0.03200000151991844, 1.055999994277954, 0.0, 0.0, 0.0, 0.0, 0.0, 1.62030972922439E9, 2021-05-06 16:02:09.224
27.0, 84.90695190429688, 109.08353424072266, 354.2657775878906, -114.10995483398438, 0.01600000075995922, 0.03200000151991844, 1.055999994277954, 0.0, 0.0, 0.0, 0.0, 0.0, 1.6203097292250905E9, 2021-05-06 16:02:09.225
27.0, 97.58895111083984, 118.64645385742188, 361.5286560058594, -116.11080169677734, 0.01600000075995922, 0.03200000151991844, 1.055999994277954, 0.0, 0.0, 0.0, 0.0, 0.0, 1.6203097292250905E9, 2021-05-06 16:02:09.225
28.0, 87.89138793945312, 109.715576171875, 358.34600830078125, -111.39479064941406, 0.01600000075995922, 0.03200000151991844, 1.055999994277954, 0.0, 0.0, 0.0, 0.0, 0.0, 1.6203097292386577E9, 2021-05-06 16:02:09.238
28.0, 86.739501953125, 109.64077758789062, 351.0157775878906, -122.6219711303711, 0.01600000075995922, 0.03200000151991844, 1.055999994277954, 0.0, 0.0, 0.0, 0.0, 0.0, 1.6203097292386577E9, 2021-05-06 16:02:09.238
29.0, 90.50183868408203, 112.47936248779297, 352.7099609375, -121.15592956542969, 0.01600000075995922, 0.03200000151991844, 1.055999994277954, 0.0, 0.0, 0.0, 0.0, 0.0, 1.6203097292542677E9, 2021-05-06 16:02:09.254
29.0, 85.18370056152344, 108.34677124023438, 355.5373229980469, -116.85130310058594, 0.01600000075995922, 0.03200000151991844, 1.055999994277954, 0.0, 0.0, 0.0, 0.0, 0.0, 1.6203097292542677E9, 2021-05-06 16:02:09.254
30.0, 87.71187591552734, 111.64910125732422, 356.67425537109375, -112.95806884765625, 0.01600000075995922, 0.03200000151991844, 1.055999994277954, 0.0, 0.0, 0.0, 0.0, 0.0, 1.620309729255035E9, 2021-05-06 16:02:09.255
30.0, 91.2947006225586, 115.29176330566406, 348.6446838378906, -118.08173370361328, 0.01600000075995922, 0.03200000151991844, 1.055999994277954, 0.0, 0.0, 0.0, 0.0, 0.0, 1.620309729255035E9, 2021-05-06 16:02:09.255
31.0, 87.94001007080078, 108.29815673828125, 346.0529479980469, -122.04602813720703, 0.01600000075995922, 0.03200000151991844, 1.055999994277954, 0.0, 0.0, 0.0, 0.0, 0.0, 1.620309729268758E9, 2021-05-06 16:02:09.268
31.0, 86.93023681640625, 119.06906127929688, 358.41705322265625, -117.22529602050781, 0.01600000075995922, 0.03200000151991844, 1.055999994277954, 0.0, 0.0, 0.0, 0.0, 0.0, 1.620309729268758E9, 2021-05-06 16:02:09.268
32.0, 82.76398468017578, 114.63728332519531, 351.9769592285156, -117.18789672851562, 0.01600000075995922, 0.03200000151991844, 1.055999994277954, 0.0, 0.0, 0.0, 0.0, 0.0, 1.6203097292842171E9, 2021-05-06 16:02:09.284
32.0, 87.16584777832031, 119.28224182128906, 355.81781005859375, -118.61653900146484, 0.01600000075995922, 0.03200000151991844, 1.055999994277954, 0.0, 0.0, 0.0, 0.0, 0.0, 1.6203097292842171E9, 2021-05-06 16:02:09.284
33.0, 96.83722686767578, 114.12491607666016, 351.9245910644531, -117.01212310791016, 0.01600000075995922, 0.03200000151991844, 1.055999994277954, 0.0, 0.0, 0.0, 0.0, 0.0, 1.6203097292849567E9, 2021-05-06 16:02:09.284
33.0, 97.00552368164062, 119.5290756225586, 360.27203369140625, -114.48394775390625, 0.01600000075995922, 0.03200000151991844, 1.055999994277954, 0.0, 0.0, 0.0, 0.0, 0.0, 1.6203097292849567E9, 2021-05-06 16:02:09.284
34.0, 91.62380981445312, 126.20853424072266, 363.495849609375, -113.43677520751953, 0.01600000075995922, 0.03200000151991844, 1.055999994277954, 0.0, 0.0, 0.0, 0.0, 0.0, 1.6203097292986658E9, 2021-05-06 16:02:09.298
34.0, 93.46009826660156, 116.1369857788086, 354.37420654296875, -114.10995483398438, 0.01600000075995922, 0.03200000151991844, 1.055999994277954, 0.0, 0.0, 0.0, 0.0, 0.0, 1.6203097292986658E9, 2021-05-06 16:02:09.298
35.0, 91.56397247314453, 114.97013092041016, 355.9150695800781, -117.56562805175781, 0.01600000075995922, 0.03200000151991844, 1.055999994277954, 0.0, 0.0, 0.0, 0.0, 0.0, 1.6203097293146732E9, 2021-05-06 16:02:09.314
35.0, 95.6180191040039, 115.75177001953125, 360.43658447265625, -117.62920379638672, 0.01600000075995922, 0.03200000151991844, 1.055999994277954, 0.0, 0.0, 0.0, 0.0, 0.0, 1.6203097293146732E9, 2021-05-06 16:02:09.314
36.0, 89.34246826171875, 119.56647491455078, 364.7337341308594, -111.45462799072266, 0.01600000075995922, 0.03200000151991844, 1.055999994277954, 0.0, 0.0, 0.0, 0.0, 0.0, 1.6203097293292353E9, 2021-05-06 16:02:09.329
36.0, 85.82322692871094, 112.69253540039062, 353.4242858886719, -116.78398895263672, 0.01600000075995922, 0.03200000151991844, 1.055999994277954, 0.0, 0.0, 0.0, 0.0, 0.0, 1.6203097293292353E9, 2021-05-06 16:02:09.329
37.0, 82.88365936279297, 112.4045639038086, 351.7637634277344, -117.92839813232422, 0.01600000075995922, 0.03200000151991844, 1.055999994277954, 0.0, 0.0, 0.0, 0.0, 0.0, 1.6203097293300536E9, 2021-05-06 16:02:09.330
37.0, 90.02313232421875, 117.12805938720703, 357.874755859375, -114.34557342529297, 0.01600000075995922, 0.03200000151991844, 1.055999994277954, 0.0, 0.0, 0.0, 0.0, 0.0, 1.6203097293300536E9, 2021-05-06 16:02:09.330
38.0, 86.85917663574219, 119.71232604980469, 358.1664733886719, -112.12033081054688, 0.01600000075995922, 0.03200000151991844, 1.055999994277954, 0.0, 0.0, 0.0, 0.0, 0.0, 1.6203097293442383E9, 2021-05-06 16:02:09.344
38.0, 93.09358978271484, 115.30298614501953, 346.5727844238281, -122.77156829833984, 0.01600000075995922, 0.03200000151991844, 1.055999994277954, 0.0, 0.0, 0.0, 0.0, 0.0, 1.6203097293442383E9, 2021-05-06 16:02:09.344
39.0, 96.92324829101562, 104.20296478271484, 342.0624694824219, -117.92091369628906, 0.01600000075995922, 0.03200000151991844, 1.055999994277954, 0.0, 0.0, 0.0, 0.0, 0.0, 1.620309729344952E9, 2021-05-06 16:02:09.344
39.0, 91.53031158447266, 106.40950012207031, 347.462890625, -118.025634765625, 0.01600000075995922, 0.03200000151991844, 1.055999994277954, 0.0, 0.0, 0.0, 0.0, 0.0, 1.620309729344952E9, 2021-05-06 16:02:09.344
40.0, 93.14595031738281, 113.5714111328125, 354.834228515625, -118.56791687011719, 0.01600000075995922, 0.03200000151991844, 1.055999994277954, 0.0, 0.0, 0.0, 0.0, 0.0, 1.6203097293585808E9, 2021-05-06 16:02:09.358
40.0, 89.5145034790039, 110.47477722167969, 351.2065124511719, -113.47791290283203, 0.01600000075995922, 0.03200000151991844, 1.055999994277954, 0.0, 0.0, 0.0, 0.0, 0.0, 1.6203097293585808E9, 2021-05-06 16:02:09.358
41.0, 85.9990005493164, 111.23397064208984, 347.30206298828125, -114.76818084716797, 0.01600000075995922, 0.03200000151991844, 1.055999994277954, 0.0, 0.0, 0.0, 0.0, 0.0, 1.620309729374253E9, 2021-05-06 16:02:09.374
41.0, 91.04412078857422, 111.76878356933594, 356.4722900390625, -108.2532730102539, 0.01600000075995922, 0.03200000151991844, 1.055999994277954, 0.0, 0.0, 0.0, 0.0, 0.0, 1.620309729374253E9, 2021-05-06 16:02:09.374
42.0, 92.28951263427734, 110.02598571777344, 358.8733215332031, -113.41807556152344, 0.01600000075995922, 0.03200000151991844, 1.055999994277954, 0.0, 0.0, 0.0, 0.0, 0.0, 1.620309729374963E9, 2021-05-06 16:02:09.374
42.0, 93.8864517211914, 112.15399169921875, 351.3486328125, -119.43183135986328, 0.01600000075995922, 0.03200000151991844, 1.055999994277954, 0.0, 0.0, 0.0, 0.0, 0.0, 1.620309729374963E9, 2021-05-06 16:02:09.374
43.0, 103.67376708984375, 112.56912231445312, 354.0525817871094, -117.28887176513672, 0.01600000075995922, 0.03200000151991844, 1.055999994277954, 0.0, 0.0, 0.0, 0.0, 0.0, 1.6203097293887515E9, 2021-05-06 16:02:09.388
43.0, 101.88983154296875, 116.76154327392578, 361.9250793457031, -113.53775024414062, 0.01600000075995922, 0.03200000151991844, 1.055999994277954, 0.0, 0.0, 0.0, 0.0, 0.0, 1.6203097293887515E9, 2021-05-06 16:02:09.388
44.0, 102.18902587890625, 113.612548828125, 368.3165588378906, -106.25242614746094, 0.01600000075995922, 0.03200000151991844, 1.055999994277954, 0.0, 0.0, 0.0, 0.0, 0.0, 1.620309729404306E9, 2021-05-06 16:02:09.404
44.0, 94.26043701171875, 108.46644592285156, 355.3615417480469, -118.8895492553711, 0.01600000075995922, 0.03200000151991844, 1.055999994277954, 0.0, 0.0, 0.0, 0.0, 0.0, 1.620309729404306E9, 2021-05-06 16:02:09.404
45.0, 100.24427795410156, 112.46440124511719, 358.2637023925781, -115.12347412109375, 0.01600000075995922, 0.03200000151991844, 1.055999994277954, 0.0, 0.0, 0.0, 0.0, 0.0, 1.620309729405046E9, 2021-05-06 16:02:09.405
45.0, 103.56156921386719, 115.78169250488281, 366.26708984375, -112.24374389648438, 0.01600000075995922, 0.03200000151991844, 1.055999994277954, 0.0, 0.0, 0.0, 0.0, 0.0, 1.620309729405046E9, 2021-05-06 16:02:09.405
46.0, 105.12858581542969, 120.12745666503906, 370.4782409667969, -109.22564697265625, 0.01600000075995922, 0.03200000151991844, 1.055999994277954, 0.0, 0.0, 0.0, 0.0, 0.0, 1.6203097294350371E9, 2021-05-06 16:02:09.435
46.0, 97.74602508544922, 112.97303009033203, 356.6144104003906, -109.24434661865234, 0.01600000075995922, 0.03200000151991844, 1.055999994277954, 0.0, 0.0, 0.0, 0.0, 0.0, 1.6203097294350371E9, 2021-05-06 16:02:09.435
47.0, 92.79439544677734, 106.49552154541016, 352.2798767089844, -123.53076171875, 0.01600000075995922, 0.03200000151991844, 1.055999994277954, 0.0, 0.0, 0.0, 0.0, 0.0, 1.6203097294358103E9, 2021-05-06 16:02:09.435
47.0, 95.6554183959961, 115.16835021972656, 362.0821533203125, -114.67094421386719, 0.01600000075995922, 0.03200000151991844, 1.055999994277954, 0.0, 0.0, 0.0, 0.0, 0.0, 1.6203097294358103E9, 2021-05-06 16:02:09.435
48.0, 98.37806701660156, 112.20635223388672, 360.25335693359375, -112.38960266113281, 0.01600000075995922, 0.03200000151991844, 1.055999994277954, 0.0, 0.0, 0.0, 0.0, 0.0, 1.6203097294364371E9, 2021-05-06 16:02:09.436
48.0, 98.5014877319336, 111.0020980834961, 349.6918640136719, -119.28598022460938, 0.01600000075995922, 0.03200000151991844, 1.055999994277954, 0.0, 0.0, 0.0, 0.0, 0.0, 1.6203097294364371E9, 2021-05-06 16:02:09.436
49.0, 91.78462219238281, 112.72993469238281, 348.9999694824219, -116.29779815673828, 0.01600000075995922, 0.03200000151991844, 1.055999994277954, 0.0, 0.0, 0.0, 0.0, 0.0, 1.620309729448517E9, 2021-05-06 16:02:09.448
49.0, 93.93506622314453, 110.32518005371094, 353.27093505859375, -112.01187133789062, 0.01600000075995922, 0.03200000151991844, 1.055999994277954, 0.0, 0.0, 0.0, 0.0, 0.0, 1.620309729448517E9, 2021-05-06 16:02:09.448
50.0, 98.6697769165039, 113.83694458007812, 359.4193420410156, -108.72450256347656, 0.01600000075995922, 0.03200000151991844, 1.055999994277954, 0.0, 0.0, 0.0, 0.0, 0.0, 1.6203097294643E9, 2021-05-06 16:02:09.464
50.0, 94.43621063232422, 111.18909454345703, 353.38690185546875, -116.4399185180664, 0.01600000075995922, 0.03200000151991844, 1.055999994277954, 0.0, 0.0, 0.0, 0.0, 0.0, 1.6203097294643E9, 2021-05-06 16:02:09.464
51.0, 103.31473541259766, 118.32482147216797, 355.5672607421875, -117.83863830566406, 0.01600000075995922, 0.03200000151991844, 1.055999994277954, 0.0, 0.0, 0.0, 0.0, 0.0, 1.6203097294649642E9, 2021-05-06 16:02:09.464
51.0, 102.23390197753906, 114.80558013916016, 359.3707275390625, -121.23820495605469, 0.01600000075995922, 0.03200000151991844, 1.055999994277954, 0.0, 0.0, 0.0, 0.0, 0.0, 1.6203097294649642E9, 2021-05-06 16:02:09.464
52.0, 103.35213470458984, 116.5221939086914, 367.10858154296875, -113.95661926269531, 0.01600000075995922, 0.03200000151991844, 1.055999994277954, 0.0, 0.0, 0.0, 0.0, 0.0, 1.6203097294785197E9, 2021-05-06 16:02:09.478
52.0, 100.54721069335938, 120.9764175415039, 360.268310546875, -111.59674835205078, 0.01600000075995922, 0.03200000151991844, 1.055999994277954, 0.0, 0.0, 0.0, 0.0, 0.0, 1.6203097294785197E9, 2021-05-06 16:02:09.478
53.0, 98.32196807861328, 115.69193267822266, 358.4208068847656, -117.07943725585938, 0.01600000075995922, 0.03200000151991844, 1.055999994277954, 0.0, 0.0, 0.0, 0.0, 0.0, 1.6203097294943967E9, 2021-05-06 16:02:09.494
53.0, 108.4608383178711, 126.99017333984375, 371.5440979003906, -107.81944274902344, 0.01600000075995922, 0.03200000151991844, 1.055999994277954, 0.0, 0.0, 0.0, 0.0, 0.0, 1.6203097294943967E9, 2021-05-06 16:02:09.494
54.0, 107.14065551757812, 117.81993865966797, 371.43939208984375, -108.35050964355469, 0.01600000075995922, 0.03200000151991844, 1.055999994277954, 0.0, 0.0, 0.0, 0.0, 0.0, 1.6203097294950647E9, 2021-05-06 16:02:09.495
54.0, 94.4698715209961, 120.26583099365234, 362.9872131347656, -113.70230865478516, 0.01600000075995922, 0.03200000151991844, 1.055999994277954, 0.0, 0.0, 0.0, 0.0, 0.0, 1.6203097294950647E9, 2021-05-06 16:02:09.495
55.0, 97.74976348876953, 115.50868225097656, 361.2967834472656, -110.54582977294922, 0.01600000075995922, 0.03200000151991844, 1.055999994277954, 0.0, 0.0, 0.0, 0.0, 0.0, 1.6203097295085373E9, 2021-05-06 16:02:09.508
55.0, 95.45720672607422, 111.9445571899414, 360.9040832519531, -112.96180725097656, 0.01600000075995922, 0.03200000151991844, 1.055999994277954, 0.0, 0.0, 0.0, 0.0, 0.0, 1.6203097295085373E9, 2021-05-06 16:02:09.508
56.0, 101.58316040039062, 119.05784606933594, 360.2196960449219, -110.13070678710938, 0.01600000075995922, 0.03200000151991844, 1.055999994277954, 0.0, 0.0, 0.0, 0.0, 0.0, 1.6203097295241945E9, 2021-05-06 16:02:09.524
56.0, 104.40304565429688, 113.66864776611328, 352.3322448730469, -112.40082550048828, 0.01600000075995922, 0.03200000151991844, 1.055999994277954, 0.0, 0.0, 0.0, 0.0, 0.0, 1.6203097295241945E9, 2021-05-06 16:02:09.524
57.0, 101.08949279785156, 111.50325012207031, 349.31787109375, -117.49082946777344, 0.01600000075995922, 0.03200000151991844, 1.055999994277954, 0.0, 0.0, 0.0, 0.0, 0.0, 1.6203097295249712E9, 2021-05-06 16:02:09.524
57.0, 106.67316436767578, 112.78229522705078, 353.9403991699219, -116.07340240478516, 0.01600000075995922, 0.03200000151991844, 1.055999994277954, 0.0, 0.0, 0.0, 0.0, 0.0, 1.6203097295249712E9, 2021-05-06 16:02:09.524
58.0, 102.87342834472656, 116.01356506347656, 354.318115234375, -116.45487213134766, 0.01600000075995922, 0.03200000151991844, 1.055999994277954, 0.0, 0.0, 0.0, 0.0, 0.0, 1.620309729538638E9, 2021-05-06 16:02:09.538
58.0, 99.67955017089844, 108.189697265625, 351.3374328613281, -117.6666030883789, 0.01600000075995922, 0.03200000151991844, 1.055999994277954, 0.0, 0.0, 0.0, 0.0, 0.0, 1.620309729538638E9, 2021-05-06 16:02:09.538
59.0, 103.48677062988281, 110.72161102294922, 355.7654724121094, -113.8930435180664, 0.01600000075995922, 0.03200000151991844, 1.055999994277954, 0.0, 0.0, 0.0, 0.0, 0.0, 1.6203097295542564E9, 2021-05-06 16:02:09.554
59.0, 98.81189727783203, 116.1781234741211, 356.8462829589844, -114.30443572998047, 0.01600000075995922, 0.03200000151991844, 1.055999994277954, 0.0, 0.0, 0.0, 0.0, 0.0, 1.6203097295542564E9, 2021-05-06 16:02:09.554
60.0, 106.3926773071289, 118.22758483886719, 361.2182312011719, -115.1608657836914, 0.01600000075995922, 0.03200000151991844, 1.055999994277954, 0.0, 0.0, 0.0, 0.0, 0.0, 1.6203097295549612E9, 2021-05-06 16:02:09.554
60.0, 96.52307891845703, 115.94998931884766, 356.78271484375, -113.50035095214844, 0.01600000075995922, 0.03200000151991844, 1.055999994277954, 0.0, 0.0, 0.0, 0.0, 0.0, 1.6203097295549612E9, 2021-05-06 16:02:09.554
61.0, 103.71490478515625, 111.31625366210938, 355.8851318359375, -120.49022674560547, 0.01600000075995922, 0.03200000151991844, 1.055999994277954, 0.0, 0.0, 0.0, 0.0, 0.0, 1.6203097295686276E9, 2021-05-06 16:02:09.568
61.0, 107.3388671875, 117.05699920654297, 361.3154602050781, -118.56044006347656, 0.01600000075995922, 0.03200000151991844, 1.055999994277954, 0.0, 0.0, 0.0, 0.0, 0.0, 1.6203097295686276E9, 2021-05-06 16:02:09.568
62.0, 111.0899887084961, 119.09524536132812, 365.0965270996094, -114.42037200927734, 0.03200000151991844, 0.03200000151991844, 1.055999994277954, 0.0, 0.0, 0.0, 0.0, 0.0, 1.6203097295843105E9, 2021-05-06 16:02:09.584
62.0, 94.55589294433594, 116.35389709472656, 357.6354064941406, -111.15169525146484, 0.03200000151991844, 0.03200000151991844, 1.055999994277954, 0.0, 0.0, 0.0, 0.0, 0.0, 1.6203097295843105E9, 2021-05-06 16:02:09.584
63.0, 90.71875, 110.88990020751953, 355.7542419433594, -113.0665283203125, 0.03200000151991844, 0.03200000151991844, 1.055999994277954, 0.0, 0.0, 0.0, 0.0, 0.0, 1.6203097295850172E9, 2021-05-06 16:02:09.585
63.0, 102.47699737548828, 116.9410629272461, 364.9207458496094, -104.1767807006836, 0.03200000151991844, 0.03200000151991844, 1.055999994277954, 0.0, 0.0, 0.0, 0.0, 0.0, 1.6203097295850172E9, 2021-05-06 16:02:09.585
64.0, 97.15138244628906, 115.21322631835938, 364.2924499511719, -106.8470687866211, 0.03200000151991844, 0.03200000151991844, 1.055999994277954, 0.0, 0.0, 0.0, 0.0, 0.0, 1.6203097295985444E9, 2021-05-06 16:02:09.598
64.0, 88.6692886352539, 111.6229248046875, 352.2349853515625, -110.92729949951172, 0.03200000151991844, 0.03200000151991844, 1.055999994277954, 0.0, 0.0, 0.0, 0.0, 0.0, 1.6203097295985444E9, 2021-05-06 16:02:09.598
65.0, 92.4615478515625, 106.37210083007812, 351.0531921386719, -114.9551773071289, 0.03200000151991844, 0.03200000151991844, 1.055999994277954, 0.0, 0.0, 0.0, 0.0, 0.0, 1.6203097296142547E9, 2021-05-06 16:02:09.614
65.0, 94.12206268310547, 108.06627655029297, 354.482666015625, -113.24604034423828, 0.03200000151991844, 0.03200000151991844, 1.055999994277954, 0.0, 0.0, 0.0, 0.0, 0.0, 1.6203097296142547E9, 2021-05-06 16:02:09.614
66.0, 100.41631317138672, 108.14481353759766, 357.2464599609375, -115.29924774169922, 0.03200000151991844, 0.03200000151991844, 1.055999994277954, 0.0, 0.0, 0.0, 0.0, 0.0, 1.6203097296149666E9, 2021-05-06 16:02:09.614
66.0, 97.82830047607422, 106.59275817871094, 357.6578674316406, -115.88641357421875, 0.03200000151991844, 0.03200000151991844, 1.055999994277954, 0.0, 0.0, 0.0, 0.0, 0.0, 1.6203097296149666E9, 2021-05-06 16:02:09.614
67.0, 98.5837631225586, 107.17618560791016, 350.5744934082031, -119.28598022460938, 0.03200000151991844, 0.03200000151991844, 1.055999994277954, 0.0, 0.0, 0.0, 0.0, 0.0, 1.6203097296285493E9, 2021-05-06 16:02:09.628
67.0, 105.90274810791016, 103.47742462158203, 359.57269287109375, -112.77107238769531, 0.03200000151991844, 0.03200000151991844, 1.055999994277954, 0.0, 0.0, 0.0, 0.0, 0.0, 1.6203097296285493E9, 2021-05-06 16:02:09.628
68.0, 105.22208404541016, 109.87265014648438, 363.97454833984375, -116.57455444335938, 0.03200000151991844, 0.03200000151991844, 1.055999994277954, 0.0, 0.0, 0.0, 0.0, 0.0, 1.620309729644365E9, 2021-05-06 16:02:09.644
68.0, 97.74976348876953, 111.50325012207031, 360.6834411621094, -119.43557739257812, 0.03200000151991844, 0.03200000151991844, 1.055999994277954, 0.0, 0.0, 0.0, 0.0, 0.0, 1.620309729644365E9, 2021-05-06 16:02:09.644
69.0, 110.25598907470703, 112.38212585449219, 357.9495544433594, -119.61882781982422, 0.03200000151991844, 0.03200000151991844, 1.055999994277954, 0.0, 0.0, 0.0, 0.0, 0.0, 1.6203097296450007E9, 2021-05-06 16:02:09.645
69.0, 104.43670654296875, 115.314208984375, 364.0942077636719, -115.93128967285156, 0.03200000151991844, 0.03200000151991844, 1.055999994277954, 0.0, 0.0, 0.0, 0.0, 0.0, 1.6203097296450007E9, 2021-05-06 16:02:09.645
70.0, 100.64070892333984, 116.04348754882812, 366.5139465332031, -114.62232208251953, 0.03200000151991844, 0.03200000151991844, 1.055999994277954, 0.0, 0.0, 0.0, 0.0, 0.0, 1.6203097296586237E9, 2021-05-06 16:02:09.658
70.0, 107.45480346679688, 117.22903442382812, 360.8966064453125, -117.30757141113281, 0.03200000151991844, 0.03200000151991844, 1.055999994277954, 0.0, 0.0, 0.0, 0.0, 0.0, 1.6203097296586237E9, 2021-05-06 16:02:09.658
71.0, 105.38664245605469, 118.59783935546875, 358.6040344238281, -119.1887435913086, 0.03200000151991844, 0.03200000151991844, 1.055999994277954, 0.0, 0.0, 0.0, 0.0, 0.0, 1.620309729674296E9, 2021-05-06 16:02:09.674
71.0, 96.80731201171875, 129.4734649658203, 372.1275329589844, -108.08123779296875, 0.03200000151991844, 0.03200000151991844, 1.055999994277954, 0.0, 0.0, 0.0, 0.0, 0.0, 1.620309729674296E9, 2021-05-06 16:02:09.674
72.0, 102.29000091552734, 123.89353942871094, 370.7362976074219, -104.25906372070312, 0.01600000075995922, 0.03200000151991844, 1.055999994277954, 0.0, 0.0, 0.0, 0.0, 0.0, 1.6203097296750002E9, 2021-05-06 16:02:09.675
72.0, 95.84989929199219, 119.716064453125, 367.0188293457031, -106.50674438476562, 0.01600000075995922, 0.03200000151991844, 1.055999994277954, 0.0, 0.0, 0.0, 0.0, 0.0, 1.6203097296750002E9, 2021-05-06 16:02:09.675
73.0, 94.54467010498047, 110.7964096069336, 363.8473815917969, -112.05300903320312, 0.01600000075995922, 0.03200000151991844, 1.055999994277954, 0.0, 0.0, 0.0, 0.0, 0.0, 1.6203097296886785E9, 2021-05-06 16:02:09.688
73.0, 94.98597717285156, 111.81365966796875, 364.9917907714844, -106.19258880615234, 0.01600000075995922, 0.03200000151991844, 1.055999994277954, 0.0, 0.0, 0.0, 0.0, 0.0, 1.6203097296886785E9, 2021-05-06 16:02:09.688
74.0, 101.05583953857422, 118.05554962158203, 364.08673095703125, -103.12960815429688, 0.01600000075995922, 0.03200000151991844, 1.055999994277954, 0.0, 0.0, 0.0, 0.0, 0.0, 1.620309729704272E9, 2021-05-06 16:02:09.704
74.0, 99.52996063232422, 109.70809173583984, 354.8117980957031, -112.427001953125, 0.01600000075995922, 0.03200000151991844, 1.055999994277954, 0.0, 0.0, 0.0, 0.0, 0.0, 1.620309729704272E9, 2021-05-06 16:02:09.704
75.0, 92.31568908691406, 100.21623229980469, 346.7336120605469, -112.19139099121094, 0.01600000075995922, 0.03200000151991844, 1.055999994277954, 0.0, 0.0, 0.0, 0.0, 0.0, 1.6203097297050765E9, 2021-05-06 16:02:09.705
75.0, 94.451171875, 105.06687927246094, 353.1662292480469, -106.08787536621094, 0.01600000075995922, 0.03200000151991844, 1.055999994277954, 0.0, 0.0, 0.0, 0.0, 0.0, 1.6203097297050765E9, 2021-05-06 16:02:09.705
76.0, 90.5130615234375, 106.50674438476562, 350.7390441894531, -113.60133361816406, 0.01600000075995922, 0.03200000151991844, 1.055999994277954, 0.0, 0.0, 0.0, 0.0, 0.0, 1.6203097297185318E9, 2021-05-06 16:02:09.718
76.0, 86.1635513305664, 105.137939453125, 344.37371826171875, -118.54547882080078, 0.01600000075995922, 0.03200000151991844, 1.055999994277954, 0.0, 0.0, 0.0, 0.0, 0.0, 1.6203097297185318E9, 2021-05-06 16:02:09.718
77.0, 92.5251235961914, 101.4690933227539, 346.70367431640625, -121.57853698730469, 0.01600000075995922, 0.03200000151991844, 1.055999994277954, 0.0, 0.0, 0.0, 0.0, 0.0, 1.6203097297342486E9, 2021-05-06 16:02:09.734
