Sample Index, EXG Channel 0, EXG Channel 1, EXG Channel 2, EXG Channel 3, Accel Channel 0, Accel Channel 1, Accel Channel 2, Other, Other, Other, Other, Other, Timestamp, Timestamp (Formatted)
0.0, 156.0491943359375, 149.822265625, 323.7537841796875, -192.58615112304688, 0.0, 0.0, 0.0, 0.0, 0.0, 0.0, 0.0, 0.0, 1.62031240781332E9, 2021-05-06 16:46:47.813
1.0, 183.05874633789062, 152.8777618408203, 334.3863220214844, -187.6382598876953, 0.0, 0.03200000151991844, 0.0, 0.0, 0.0, 0.0, 0.0, 0.0, 1.620312407813975E9, 2021-05-06 16:46:47.813
1.0, 163.27468872070312, 150.44308471679688, 327.05987548828125, -194.65057373046875, 0.0, 0.03200000151991844, 0.0, 0.0, 0.0, 0.0, 0.0, 0.0, 1.620312407813975E9, 2021-05-06 16:46:47.813
2.0, 156.62139892578125, 151.23968505859375, 314.6022644042969, -198.0277099609375, 0.0, 0.03200000151991844, 0.0, 0.0, 0.0, 0.0, 0.0, 0.0, 1.620312407815712E9, 2021-05-06 16:46:47.815
2.0, 175.14512634277344, 148.97705078125, 322.71783447265625, -194.1643829345703, 0.0, 0.03200000151991844, 0.0, 0.0, 0.0, 0.0, 0.0, 0.0, 1.620312407815712E9, 2021-05-06 16:46:47.815
3.0, 174.98805236816406, 144.9416961669922, 329.0046081542969, -197.07028198242188, 0.0, 0.03200000151991844, 0.0, 0.0, 0.0, 0.0, 0.0, 0.0, 1.6203124078245907E9, 2021-05-06 16:46:47.824
3.0, 153.03109741210938, 136.36610412597656, 317.1491394042969, -198.49893188476562, 0.0, 0.03200000151991844, 0.0, 0.0, 0.0, 0.0, 0.0, 0.0, 1.6203124078245907E9, 2021-05-06 16:46:47.824
4.0, 171.74929809570312, 146.38156127929688, 315.0248718261719, -187.44004821777344, 0.0, 0.03200000151991844, 0.0, 0.0, 0.0, 0.0, 0.0, 0.0, 1.6203124078407092E9, 2021-05-06 16:46:47.840
4.0, 173.15550231933594, 149.63526916503906, 327.1383972167969, -188.19924926757812, 0.0, 0.03200000151991844, 0.0, 0.0, 0.0, 0.0, 0.0, 0.0, 1.6203124078407092E9, 2021-05-06 16:46:47.840
5.0, 191.7989044189453, 150.6263427734375, 335.6130065917969, -187.73924255371094, 0.0, 0.03200000151991844, 0.0, 0.0, 0.0, 0.0, 0.0, 0.0, 1.620312407855173E9, 2021-05-06 16:46:47.855
5.0, 155.47325134277344, 146.23196411132812, 327.58343505859375, -187.7729034423828, 0.0, 0.03200000151991844, 0.0, 0.0, 0.0, 0.0, 0.0, 0.0, 1.620312407855173E9, 2021-05-06 16:46:47.855
6.0, 165.44007873535156, 152.35043334960938, 320.3616943359375, -188.04591369628906, 0.0, 0.03200000151991844, 0.0, 0.0, 0.0, 0.0, 0.0, 0.0, 1.6203124078558276E9, 2021-05-06 16:46:47.855
6.0, 158.3754119873047, 158.86907958984375, 327.0823059082031, -179.56381225585938, 0.0, 0.03200000151991844, 0.0, 0.0, 0.0, 0.0, 0.0, 0.0, 1.6203124078558276E9, 2021-05-06 16:46:47.855
7.0, 160.3650360107422, 143.4045867919922, 330.6239929199219, -185.4653778076172, 0.0, 0.03200000151991844, 0.0, 0.0, 0.0, 0.0, 0.0, 0.0, 1.6203124078695593E9, 2021-05-06 16:46:47.869
7.0, 153.5845947265625, 147.7353973388672, 320.2308044433594, -184.81837463378906, 0.0, 0.03200000151991844, 0.0, 0.0, 0.0, 0.0, 0.0, 0.0, 1.6203124078695593E9, 2021-05-06 16:46:47.869
8.0, 156.07164001464844, 147.64190673828125, 312.3957214355469, -189.56431579589844, 0.0, 0.03200000151991844, 0.0, 0.0, 0.0, 0.0, 0.0, 0.0, 1.6203124078857076E9, 2021-05-06 16:46:47.885
8.0, 163.09890747070312, 147.7428741455078, 317.7550048828125, -186.53872680664062, 0.0, 0.03200000151991844, 0.0, 0.0, 0.0, 0.0, 0.0, 0.0, 1.6203124078857076E9, 2021-05-06 16:46:47.885
9.0, 169.72227478027344, 146.53863525390625, 331.97784423828125, -174.1634063720703, 0.0, 0.03200000151991844, 0.0, 0.0, 0.0, 0.0, 0.0, 0.0, 1.6203124079165068E9, 2021-05-06 16:46:47.916
9.0, 158.15475463867188, 148.95834350585938, 317.4670104980469, -181.7928009033203, 0.0, 0.03200000151991844, 0.0, 0.0, 0.0, 0.0, 0.0, 0.0, 1.6203124079165068E9, 2021-05-06 16:46:47.916
10.0, 150.18502807617188, 146.74432373046875, 312.0927734375, -186.7855682373047, 0.0, 0.03200000151991844, 1.055999994277954, 0.0, 0.0, 0.0, 0.0, 0.0, 1.620312407917225E9, 2021-05-06 16:46:47.917
10.0, 174.4532470703125, 152.46263122558594, 320.76934814453125, -189.88967895507812, 0.0, 0.03200000151991844, 1.055999994277954, 0.0, 0.0, 0.0, 0.0, 0.0, 1.620312407917225E9, 2021-05-06 16:46:47.917
11.0, 185.87489318847656, 152.98995971679688, 332.3293762207031, -192.09622192382812, 0.0, 0.03200000151991844, 1.055999994277954, 0.0, 0.0, 0.0, 0.0, 0.0, 1.6203124079179769E9, 2021-05-06 16:46:47.917
11.0, 156.6849822998047, 153.08718872070312, 324.1763916015625, -195.96701049804688, 0.0, 0.03200000151991844, 1.055999994277954, 0.0, 0.0, 0.0, 0.0, 0.0, 1.6203124079179769E9, 2021-05-06 16:46:47.917
12.0, 172.33645629882812, 155.2451171875, 321.82025146484375, -187.2493133544922, 0.0, 0.03200000151991844, 1.055999994277954, 0.0, 0.0, 0.0, 0.0, 0.0, 1.6203124079187312E9, 2021-05-06 16:46:47.918
12.0, 155.8883819580078, 154.20169067382812, 319.5800476074219, -189.35487365722656, 0.0, 0.03200000151991844, 1.055999994277954, 0.0, 0.0, 0.0, 0.0, 0.0, 1.6203124079187312E9, 2021-05-06 16:46:47.918
13.0, 162.56784057617188, 143.94314575195312, 327.703125, -188.7751922607422, 0.0, 0.03200000151991844, 1.055999994277954, 0.0, 0.0, 0.0, 0.0, 0.0, 1.620312407929378E9, 2021-05-06 16:46:47.929
13.0, 163.10638427734375, 145.47276306152344, 322.20172119140625, -184.1190185546875, 0.0, 0.03200000151991844, 1.055999994277954, 0.0, 0.0, 0.0, 0.0, 0.0, 1.620312407929378E9, 2021-05-06 16:46:47.929
14.0, 165.13714599609375, 148.55068969726562, 313.5550842285156, -190.2599334716797, 0.0, 0.03200000151991844, 1.055999994277954, 0.0, 0.0, 0.0, 0.0, 0.0, 1.6203124079450555E9, 2021-05-06 16:46:47.945
14.0, 163.7197265625, 144.46298217773438, 313.82061767578125, -190.0205841064453, 0.0, 0.03200000151991844, 1.055999994277954, 0.0, 0.0, 0.0, 0.0, 0.0, 1.6203124079450555E9, 2021-05-06 16:46:47.945
15.0, 159.68063354492188, 144.0964813232422, 321.2891845703125, -188.7003936767578, 0.0, 0.03200000151991844, 1.055999994277954, 0.0, 0.0, 0.0, 0.0, 0.0, 1.620312407945778E9, 2021-05-06 16:46:47.945
15.0, 163.92916870117188, 148.7638702392578, 314.71820068359375, -189.8784637451172, 0.0, 0.03200000151991844, 1.055999994277954, 0.0, 0.0, 0.0, 0.0, 0.0, 1.620312407945778E9, 2021-05-06 16:46:47.945
16.0, 181.29725646972656, 152.4140167236328, 314.4152526855469, -184.3695831298828, 0.0, 0.03200000151991844, 1.055999994277954, 0.0, 0.0, 0.0, 0.0, 0.0, 1.6203124079593668E9, 2021-05-06 16:46:47.959
16.0, 163.7720947265625, 153.61451721191406, 316.2889404296875, -188.66673278808594, 0.0, 0.03200000151991844, 1.055999994277954, 0.0, 0.0, 0.0, 0.0, 0.0, 1.6203124079593668E9, 2021-05-06 16:46:47.959
17.0, 180.1603240966797, 144.9304656982422, 326.66717529296875, -184.72862243652344, 0.0, 0.03200000151991844, 1.055999994277954, 0.0, 0.0, 0.0, 0.0, 0.0, 1.6203124079921594E9, 2021-05-06 16:46:47.992
17.0, 148.95086669921875, 152.28684997558594, 319.6847839355469, -181.4936065673828, 0.0, 0.03200000151991844, 1.055999994277954, 0.0, 0.0, 0.0, 0.0, 0.0, 1.6203124079921594E9, 2021-05-06 16:46:47.992
18.0, 180.96815490722656, 154.9421844482422, 319.4342041015625, -187.34654235839844, 0.0, 0.03200000151991844, 1.055999994277954, 0.0, 0.0, 0.0, 0.0, 0.0, 1.6203124079929206E9, 2021-05-06 16:46:47.992
18.0, 159.4973907470703, 152.3953094482422, 322.0708312988281, -191.0714874267578, 0.0, 0.03200000151991844, 1.055999994277954, 0.0, 0.0, 0.0, 0.0, 0.0, 1.6203124079929206E9, 2021-05-06 16:46:47.992
19.0, 178.1781768798828, 150.77593994140625, 333.9524841308594, -177.52931213378906, 0.0, 0.03200000151991844, 1.055999994277954, 0.0, 0.0, 0.0, 0.0, 0.0, 1.6203124079936285E9, 2021-05-06 16:46:47.993
19.0, 154.76266479492188, 144.63876342773438, 313.2297058105469, -189.29502868652344, 0.0, 0.03200000151991844, 1.055999994277954, 0.0, 0.0, 0.0, 0.0, 0.0, 1.6203124079936285E9, 2021-05-06 16:46:47.993
20.0, 165.91131591796875, 149.7250213623047, 309.9872131347656, -189.2838134765625, 0.0, 0.03200000151991844, 1.055999994277954, 0.0, 0.0, 0.0, 0.0, 0.0, 1.620312407994412E9, 2021-05-06 16:46:47.994
20.0, 168.20387268066406, 154.75518798828125, 313.08758544921875, -191.71849060058594, 0.0, 0.03200000151991844, 1.055999994277954, 0.0, 0.0, 0.0, 0.0, 0.0, 1.620312407994412E9, 2021-05-06 16:46:47.994
21.0, 176.9103546142578, 147.1145782470703, 322.0521240234375, -187.5372772216797, 0.0, 0.03200000151991844, 1.055999994277954, 0.0, 0.0, 0.0, 0.0, 0.0, 1.620312408004473E9, 2021-05-06 16:46:48.004
21.0, 163.68980407714844, 140.37527465820312, 311.0755310058594, -194.66552734375, 0.0, 0.03200000151991844, 1.055999994277954, 0.0, 0.0, 0.0, 0.0, 0.0, 1.620312408004473E9, 2021-05-06 16:46:48.004
22.0, 166.16188049316406, 149.13038635253906, 312.4779968261719, -190.510498046875, 0.0, 0.03200000151991844, 1.055999994277954, 0.0, 0.0, 0.0, 0.0, 0.0, 1.6203124080194502E9, 2021-05-06 16:46:48.019
22.0, 165.76171875, 151.4266815185547, 312.5041809082031, -190.63392639160156, 0.0, 0.03200000151991844, 1.055999994277954, 0.0, 0.0, 0.0, 0.0, 0.0, 1.6203124080194502E9, 2021-05-06 16:46:48.019
23.0, 177.22076416015625, 139.54127502441406, 319.9017028808594, -188.83502197265625, 0.0, 0.03200000151991844, 1.055999994277954, 0.0, 0.0, 0.0, 0.0, 0.0, 1.620312408051478E9, 2021-05-06 16:46:48.051
23.0, 164.24705505371094, 140.88389587402344, 313.7196350097656, -192.892822265625, 0.0, 0.03200000151991844, 1.055999994277954, 0.0, 0.0, 0.0, 0.0, 0.0, 1.620312408051478E9, 2021-05-06 16:46:48.051
24.0, 164.0189208984375, 147.533447265625, 312.93426513671875, -188.28900146484375, 0.0, 0.03200000151991844, 1.055999994277954, 0.0, 0.0, 0.0, 0.0, 0.0, 1.6203124080521927E9, 2021-05-06 16:46:48.052
24.0, 169.24729919433594, 153.74542236328125, 322.515869140625, -180.2070770263672, 0.0, 0.03200000151991844, 1.055999994277954, 0.0, 0.0, 0.0, 0.0, 0.0, 1.6203124080521927E9, 2021-05-06 16:46:48.052
25.0, 151.94277954101562, 148.44972229003906, 324.74859619140625, -181.4001007080078, 0.0, 0.03200000151991844, 1.055999994277954, 0.0, 0.0, 0.0, 0.0, 0.0, 1.6203124080529523E9, 2021-05-06 16:46:48.052
25.0, 163.472900390625, 144.3433074951172, 316.6217956542969, -191.44921875, 0.0, 0.03200000151991844, 1.055999994277954, 0.0, 0.0, 0.0, 0.0, 0.0, 1.6203124080529523E9, 2021-05-06 16:46:48.052
26.0, 166.73782348632812, 146.15342712402344, 309.4823303222656, -188.9472198486328, 0.0, 0.03200000151991844, 1.055999994277954, 0.0, 0.0, 0.0, 0.0, 0.0, 1.620312408053689E9, 2021-05-06 16:46:48.053
26.0, 177.99493408203125, 147.2791290283203, 321.3116455078125, -179.23097229003906, 0.0, 0.03200000151991844, 1.055999994277954, 0.0, 0.0, 0.0, 0.0, 0.0, 1.620312408053689E9, 2021-05-06 16:46:48.053
27.0, 157.1487274169922, 145.35308837890625, 320.40283203125, -187.8776092529297, 0.0, 0.03200000151991844, 1.055999994277954, 0.0, 0.0, 0.0, 0.0, 0.0, 1.620312408064437E9, 2021-05-06 16:46:48.064
27.0, 153.68557739257812, 144.8594207763672, 313.13995361328125, -192.78062438964844, 0.0, 0.03200000151991844, 1.055999994277954, 0.0, 0.0, 0.0, 0.0, 0.0, 1.620312408064437E9, 2021-05-06 16:46:48.064
28.0, 154.6429901123047, 149.16404724121094, 309.07843017578125, -199.08982849121094, 0.0, 0.03200000151991844, 1.055999994277954, 0.0, 0.0, 0.0, 0.0, 0.0, 1.62031240807955E9, 2021-05-06 16:46:48.079
28.0, 166.93978881835938, 161.87596130371094, 320.9264221191406, -192.7656707763672, 0.0, 0.03200000151991844, 1.055999994277954, 0.0, 0.0, 0.0, 0.0, 0.0, 1.62031240807955E9, 2021-05-06 16:46:48.079
29.0, 163.99649047851562, 156.853271484375, 324.53167724609375, -187.61207580566406, 0.0, 0.03200000151991844, 1.055999994277954, 0.0, 0.0, 0.0, 0.0, 0.0, 1.620312408110638E9, 2021-05-06 16:46:48.110
29.0, 160.56700134277344, 151.5987091064453, 307.773193359375, -205.12603759765625, 0.0, 0.03200000151991844, 1.055999994277954, 0.0, 0.0, 0.0, 0.0, 0.0, 1.620312408110638E9, 2021-05-06 16:46:48.110
30.0, 163.12509155273438, 163.58509826660156, 308.73809814453125, -193.56600952148438, 0.0, 0.03200000151991844, 1.055999994277954, 0.0, 0.0, 0.0, 0.0, 0.0, 1.620312408142258E9, 2021-05-06 16:46:48.142
30.0, 172.8899688720703, 159.658203125, 317.5455627441406, -190.170166015625, 0.0, 0.03200000151991844, 1.055999994277954, 0.0, 0.0, 0.0, 0.0, 0.0, 1.620312408142258E9, 2021-05-06 16:46:48.142
31.0, 172.26913452148438, 154.2689971923828, 326.01641845703125, -187.40264892578125, 0.0, 0.03200000151991844, 1.055999994277954, 0.0, 0.0, 0.0, 0.0, 0.0, 1.6203124081429608E9, 2021-05-06 16:46:48.142
31.0, 176.68222045898438, 137.8171844482422, 318.55157470703125, -190.43569946289062, 0.0, 0.03200000151991844, 1.055999994277954, 0.0, 0.0, 0.0, 0.0, 0.0, 1.6203124081429608E9, 2021-05-06 16:46:48.142
32.0, 159.72177124023438, 149.13412475585938, 312.25360107421875, -186.9164581298828, 0.0, 0.03200000151991844, 1.055999994277954, 0.0, 0.0, 0.0, 0.0, 0.0, 1.620312408143683E9, 2021-05-06 16:46:48.143
32.0, 160.7577362060547, 150.71609497070312, 316.4422912597656, -177.76866149902344, 0.0, 0.03200000151991844, 1.055999994277954, 0.0, 0.0, 0.0, 0.0, 0.0, 1.620312408143683E9, 2021-05-06 16:46:48.143
33.0, 165.35780334472656, 151.6922149658203, 329.2252502441406, -178.83453369140625, 0.0, 0.03200000151991844, 1.055999994277954, 0.0, 0.0, 0.0, 0.0, 0.0, 1.6203124081445732E9, 2021-05-06 16:46:48.144
33.0, 161.4047393798828, 149.66519165039062, 324.91314697265625, -180.57733154296875, 0.0, 0.03200000151991844, 1.055999994277954, 0.0, 0.0, 0.0, 0.0, 0.0, 1.6203124081445732E9, 2021-05-06 16:46:48.144
34.0, 161.50570678710938, 155.89959716796875, 317.42962646484375, -182.39866638183594, 0.0, 0.03200000151991844, 1.055999994277954, 0.0, 0.0, 0.0, 0.0, 0.0, 1.620312408156534E9, 2021-05-06 16:46:48.156
34.0, 163.5963134765625, 158.77183532714844, 316.49462890625, -176.5569305419922, 0.0, 0.03200000151991844, 1.055999994277954, 0.0, 0.0, 0.0, 0.0, 0.0, 1.620312408156534E9, 2021-05-06 16:46:48.156
35.0, 151.18357849121094, 152.86280822753906, 320.1335754394531, -177.49191284179688, 0.0, 0.03200000151991844, 1.055999994277954, 0.0, 0.0, 0.0, 0.0, 0.0, 1.6203124081572385E9, 2021-05-06 16:46:48.157
35.0, 166.4274139404297, 151.9315643310547, 314.4339599609375, -179.23471069335938, 0.0, 0.03200000151991844, 1.055999994277954, 0.0, 0.0, 0.0, 0.0, 0.0, 1.6203124081572385E9, 2021-05-06 16:46:48.157
36.0, 169.38194274902344, 154.90478515625, 306.071533203125, -183.3523406982422, 0.0, 0.03200000151991844, 1.055999994277954, 0.0, 0.0, 0.0, 0.0, 0.0, 1.6203124081579723E9, 2021-05-06 16:46:48.157
36.0, 145.9664306640625, 154.33631896972656, 314.744384765625, -181.15701293945312, 0.0, 0.03200000151991844, 1.055999994277954, 0.0, 0.0, 0.0, 0.0, 0.0, 1.6203124081579723E9, 2021-05-06 16:46:48.157
37.0, 160.55577087402344, 152.68328857421875, 316.4684753417969, -196.18392944335938, 0.0, 0.03200000151991844, 1.055999994277954, 0.0, 0.0, 0.0, 0.0, 0.0, 1.6203124081695256E9, 2021-05-06 16:46:48.169
37.0, 160.49594116210938, 151.03773498535156, 313.0127868652344, -199.69569396972656, 0.0, 0.03200000151991844, 1.055999994277954, 0.0, 0.0, 0.0, 0.0, 0.0, 1.6203124081695256E9, 2021-05-06 16:46:48.169
38.0, 162.26490783691406, 149.53428649902344, 302.63458251953125, -202.58290100097656, 0.0, 0.03200000151991844, 1.055999994277954, 0.0, 0.0, 0.0, 0.0, 0.0, 1.62031240818525E9, 2021-05-06 16:46:48.185
38.0, 164.3555145263672, 147.00985717773438, 308.4987487792969, -194.05592346191406, 0.0, 0.03200000151991844, 1.055999994277954, 0.0, 0.0, 0.0, 0.0, 0.0, 1.62031240818525E9, 2021-05-06 16:46:48.185
39.0, 165.1221923828125, 152.50376892089844, 319.21728515625, -192.5076141357422, 0.0, 0.03200000151991844, 1.055999994277954, 0.0, 0.0, 0.0, 0.0, 0.0, 1.620312408185887E9, 2021-05-06 16:46:48.185
39.0, 154.96836853027344, 148.82745361328125, 311.8683776855469, -185.48033142089844, 0.0, 0.03200000151991844, 1.055999994277954, 0.0, 0.0, 0.0, 0.0, 0.0, 1.620312408185887E9, 2021-05-06 16:46:48.185
40.0, 156.00057983398438, 153.6332244873047, 309.0859069824219, -179.05892944335938, 0.0, 0.03200000151991844, 1.055999994277954, 0.0, 0.0, 0.0, 0.0, 0.0, 1.6203124081994667E9, 2021-05-06 16:46:48.199
40.0, 172.4262237548828, 148.40858459472656, 318.55908203125, -187.38394165039062, 0.0, 0.03200000151991844, 1.055999994277954, 0.0, 0.0, 0.0, 0.0, 0.0, 1.6203124081994667E9, 2021-05-06 16:46:48.199
41.0, 161.64035034179688, 146.9724578857422, 318.72735595703125, -197.17874145507812, 0.0, 0.03200000151991844, 1.055999994277954, 0.0, 0.0, 0.0, 0.0, 0.0, 1.620312408215932E9, 2021-05-06 16:46:48.215
41.0, 156.49050903320312, 151.99888610839844, 310.6678771972656, -194.7852020263672, 0.0, 0.03200000151991844, 1.055999994277954, 0.0, 0.0, 0.0, 0.0, 0.0, 1.620312408215932E9, 2021-05-06 16:46:48.215
42.0, 176.89913940429688, 153.2517547607422, 307.47027587890625, -189.19406127929688, 0.0, 0.03200000151991844, 1.055999994277954, 0.0, 0.0, 0.0, 0.0, 0.0, 1.6203124082166936E9, 2021-05-06 16:46:48.216
42.0, 155.5443115234375, 145.1249542236328, 310.6940612792969, -186.92019653320312, 0.0, 0.03200000151991844, 1.055999994277954, 0.0, 0.0, 0.0, 0.0, 0.0, 1.6203124082166936E9, 2021-05-06 16:46:48.216
43.0, 155.10299682617188, 139.99380493164062, 320.1036376953125, -190.61521911621094, 0.0, 0.03200000151991844, 1.055999994277954, 0.0, 0.0, 0.0, 0.0, 0.0, 1.6203124082294788E9, 2021-05-06 16:46:48.229
43.0, 161.86474609375, 149.4407958984375, 319.1163024902344, -181.8750762939453, 0.0, 0.03200000151991844, 1.055999994277954, 0.0, 0.0, 0.0, 0.0, 0.0, 1.6203124082294788E9, 2021-05-06 16:46:48.229
44.0, 156.02301025390625, 154.89356994628906, 314.9276123046875, -185.43545532226562, 0.0, 0.03200000151991844, 1.055999994277954, 0.0, 0.0, 0.0, 0.0, 0.0, 1.6203124082452273E9, 2021-05-06 16:46:48.245
44.0, 169.55770874023438, 149.07054138183594, 307.8068542480469, -193.4949493408203, 0.0, 0.03200000151991844, 1.055999994277954, 0.0, 0.0, 0.0, 0.0, 0.0, 1.6203124082452273E9, 2021-05-06 16:46:48.245
45.0, 163.297119140625, 144.130126953125, 313.0539245605469, -192.1261444091797, 0.0, 0.03200000151991844, 1.055999994277954, 0.0, 0.0, 0.0, 0.0, 0.0, 1.6203124082459111E9, 2021-05-06 16:46:48.245
45.0, 139.5599822998047, 143.3410186767578, 307.6572570800781, -196.22506713867188, 0.0, 0.03200000151991844, 1.055999994277954, 0.0, 0.0, 0.0, 0.0, 0.0, 1.6203124082459111E9, 2021-05-06 16:46:48.245
46.0, 149.42208862304688, 148.44598388671875, 305.1328125, -196.1240997314453, 0.0, 0.03200000151991844, 1.055999994277954, 0.0, 0.0, 0.0, 0.0, 0.0, 1.620312408276574E9, 2021-05-06 16:46:48.276
46.0, 160.8287811279297, 150.29348754882812, 313.26336669921875, -196.64019775390625, 0.0, 0.03200000151991844, 1.055999994277954, 0.0, 0.0, 0.0, 0.0, 0.0, 1.620312408276574E9, 2021-05-06 16:46:48.276
47.0, 154.58689880371094, 146.41896057128906, 319.6286926269531, -199.98741149902344, 0.0, 0.03200000151991844, 1.055999994277954, 0.0, 0.0, 0.0, 0.0, 0.0, 1.6203124082773058E9, 2021-05-06 16:46:48.277
47.0, 160.48846435546875, 138.95037841796875, 318.5179443359375, -193.40892028808594, 0.0, 0.03200000151991844, 1.055999994277954, 0.0, 0.0, 0.0, 0.0, 0.0, 1.6203124082773058E9, 2021-05-06 16:46:48.277
48.0, 150.81333923339844, 144.50038146972656, 312.0292053222656, -190.0430145263672, 0.0, 0.03200000151991844, 1.055999994277954, 0.0, 0.0, 0.0, 0.0, 0.0, 1.6203124082780757E9, 2021-05-06 16:46:48.278
48.0, 158.58485412597656, 145.2296600341797, 309.6057434082031, -189.26885986328125, 0.0, 0.03200000151991844, 1.055999994277954, 0.0, 0.0, 0.0, 0.0, 0.0, 1.6203124082780757E9, 2021-05-06 16:46:48.278
49.0, 143.07174682617188, 140.98487854003906, 319.24346923828125, -192.2570343017578, 0.0, 0.03200000151991844, 1.055999994277954, 0.0, 0.0, 0.0, 0.0, 0.0, 1.6203124082895715E9, 2021-05-06 16:46:48.289
49.0, 145.6934051513672, 133.86410522460938, 309.7403869628906, -192.65721130371094, 0.0, 0.03200000151991844, 1.055999994277954, 0.0, 0.0, 0.0, 0.0, 0.0, 1.6203124082895715E9, 2021-05-06 16:46:48.289
50.0, 152.93011474609375, 143.7150115966797, 307.06634521484375, -186.96133422851562, 0.0, 0.03200000151991844, 1.055999994277954, 0.0, 0.0, 0.0, 0.0, 0.0, 1.6203124083050718E9, 2021-05-06 16:46:48.305
50.0, 165.9225311279297, 140.068603515625, 319.46038818359375, -183.3598175048828, 0.0, 0.03200000151991844, 1.055999994277954, 0.0, 0.0, 0.0, 0.0, 0.0, 1.6203124083050718E9, 2021-05-06 16:46:48.305
51.0, 163.06898498535156, 143.78231811523438, 323.8846740722656, -176.97579956054688, 0.0, 0.03200000151991844, 1.055999994277954, 0.0, 0.0, 0.0, 0.0, 0.0, 1.6203124083058248E9, 2021-05-06 16:46:48.305
51.0, 156.73733520507812, 135.6704864501953, 316.270263671875, -189.94203186035156, 0.0, 0.03200000151991844, 1.055999994277954, 0.0, 0.0, 0.0, 0.0, 0.0, 1.6203124083058248E9, 2021-05-06 16:46:48.305
52.0, 159.24307250976562, 139.2682647705078, 310.42852783203125, -192.9302215576172, 0.0, 0.03200000151991844, 1.055999994277954, 0.0, 0.0, 0.0, 0.0, 0.0, 1.6203124083194125E9, 2021-05-06 16:46:48.319
52.0, 161.8572540283203, 142.9520721435547, 316.74896240234375, -188.0533905029297, 0.0, 0.03200000151991844, 1.055999994277954, 0.0, 0.0, 0.0, 0.0, 0.0, 1.6203124083194125E9, 2021-05-06 16:46:48.319
53.0, 161.8946533203125, 144.14883422851562, 327.796630859375, -178.90185546875, 0.0, 0.03200000151991844, 1.055999994277954, 0.0, 0.0, 0.0, 0.0, 0.0, 1.6203124083352864E9, 2021-05-06 16:46:48.335
53.0, 157.7545928955078, 143.38589477539062, 317.6278381347656, -200.49977111816406, 0.0, 0.03200000151991844, 1.055999994277954, 0.0, 0.0, 0.0, 0.0, 0.0, 1.6203124083352864E9, 2021-05-06 16:46:48.335
54.0, 176.7458038330078, 151.2509002685547, 313.0726318359375, -199.3740692138672, 0.0, 0.03200000151991844, 1.055999994277954, 0.0, 0.0, 0.0, 0.0, 0.0, 1.6203124083359435E9, 2021-05-06 16:46:48.335
54.0, 157.4067840576172, 153.98851013183594, 316.98455810546875, -197.3395538330078, 0.0, 0.03200000151991844, 1.055999994277954, 0.0, 0.0, 0.0, 0.0, 0.0, 1.6203124083359435E9, 2021-05-06 16:46:48.335
55.0, 142.9408416748047, 153.01614379882812, 322.3700256347656, -189.26512145996094, 0.0, 0.03200000151991844, 1.055999994277954, 0.0, 0.0, 0.0, 0.0, 0.0, 1.6203124083658447E9, 2021-05-06 16:46:48.365
55.0, 152.52247619628906, 154.6878662109375, 313.51019287109375, -188.55453491210938, 0.0, 0.03200000151991844, 1.055999994277954, 0.0, 0.0, 0.0, 0.0, 0.0, 1.6203124083658447E9, 2021-05-06 16:46:48.365
56.0, 155.4208984375, 150.2299041748047, 310.24151611328125, -183.24761962890625, 0.0, 0.03200000151991844, 1.055999994277954, 0.0, 0.0, 0.0, 0.0, 0.0, 1.620312408366563E9, 2021-05-06 16:46:48.366
56.0, 167.3324737548828, 140.16958618164062, 307.444091796875, -191.22482299804688, 0.0, 0.03200000151991844, 1.055999994277954, 0.0, 0.0, 0.0, 0.0, 0.0, 1.620312408366563E9, 2021-05-06 16:46:48.366
57.0, 175.01048278808594, 140.2032470703125, 314.6471252441406, -190.9443359375, 0.0, 0.03200000151991844, 1.055999994277954, 0.0, 0.0, 0.0, 0.0, 0.0, 1.6203124083673217E9, 2021-05-06 16:46:48.367
57.0, 163.40184020996094, 142.93336486816406, 305.1889343261719, -194.48976135253906, 0.0, 0.03200000151991844, 1.055999994277954, 0.0, 0.0, 0.0, 0.0, 0.0, 1.6203124083673217E9, 2021-05-06 16:46:48.367
58.0, 153.95858764648438, 144.3021697998047, 309.16070556640625, -190.03927612304688, 0.0, 0.03200000151991844, 1.055999994277954, 0.0, 0.0, 0.0, 0.0, 0.0, 1.6203124083795416E9, 2021-05-06 16:46:48.379
58.0, 169.63624572753906, 139.19346618652344, 314.8154296875, -187.5971221923828, 0.0, 0.03200000151991844, 1.055999994277954, 0.0, 0.0, 0.0, 0.0, 0.0, 1.6203124083795416E9, 2021-05-06 16:46:48.379
59.0, 169.97283935546875, 145.39048767089844, 324.1390075683594, -187.20443725585938, 0.0, 0.03200000151991844, 1.055999994277954, 0.0, 0.0, 0.0, 0.0, 0.0, 1.6203124083951092E9, 2021-05-06 16:46:48.395
59.0, 171.20701599121094, 143.625244140625, 318.32720947265625, -180.98123168945312, 0.0, 0.03200000151991844, 1.055999994277954, 0.0, 0.0, 0.0, 0.0, 0.0, 1.6203124083951092E9, 2021-05-06 16:46:48.395
60.0, 163.05029296875, 148.06077575683594, 309.75909423828125, -180.59976196289062, 0.0, 0.03200000151991844, 1.055999994277954, 0.0, 0.0, 0.0, 0.0, 0.0, 1.620312408395867E9, 2021-05-06 16:46:48.395
60.0, 179.96958923339844, 149.62030029296875, 320.05877685546875, -172.94793701171875, 0.0, 0.03200000151991844, 1.055999994277954, 0.0, 0.0, 0.0, 0.0, 0.0, 1.620312408395867E9, 2021-05-06 16:46:48.395
61.0, 159.20941162109375, 149.58290100097656, 325.14129638671875, -179.82186889648438, 0.0, 0.03200000151991844, 1.055999994277954, 0.0, 0.0, 0.0, 0.0, 0.0, 1.6203124084095972E9, 2021-05-06 16:46:48.409
61.0, 157.60873413085938, 135.8350372314453, 317.68768310546875, -187.24557495117188, 0.0, 0.03200000151991844, 1.055999994277954, 0.0, 0.0, 0.0, 0.0, 0.0, 1.6203124084095972E9, 2021-05-06 16:46:48.409
62.0, 160.57821655273438, 145.74951171875, 311.1316223144531, -176.62051391601562, 0.0, 0.03200000151991844, 1.055999994277954, 0.0, 0.0, 0.0, 0.0, 0.0, 1.6203124084251187E9, 2021-05-06 16:46:48.425
62.0, 170.50390625, 156.348388671875, 320.17095947265625, -178.29225158691406, 0.0, 0.03200000151991844, 1.055999994277954, 0.0, 0.0, 0.0, 0.0, 0.0, 1.6203124084251187E9, 2021-05-06 16:46:48.425
63.0, 175.08154296875, 149.4370574951172, 322.9123229980469, -189.64285278320312, 0.0, 0.03200000151991844, 1.055999994277954, 0.0, 0.0, 0.0, 0.0, 0.0, 1.6203124084257967E9, 2021-05-06 16:46:48.425
63.0, 144.0179443359375, 146.57229614257812, 312.63507080078125, -190.3048095703125, 0.0, 0.03200000151991844, 1.055999994277954, 0.0, 0.0, 0.0, 0.0, 0.0, 1.6203124084257967E9, 2021-05-06 16:46:48.425
64.0, 159.76666259765625, 158.48013305664062, 311.19146728515625, -196.01564025878906, 0.0, 0.03200000151991844, 1.055999994277954, 0.0, 0.0, 0.0, 0.0, 0.0, 1.6203124084395585E9, 2021-05-06 16:46:48.439
64.0, 168.22256469726562, 158.68582153320312, 315.2043762207031, -205.47384643554688, 0.0, 0.03200000151991844, 1.055999994277954, 0.0, 0.0, 0.0, 0.0, 0.0, 1.6203124084395585E9, 2021-05-06 16:46:48.439
65.0, 160.56324768066406, 154.81129455566406, 319.4678649902344, -208.51812744140625, 0.0, 0.03200000151991844, 1.055999994277954, 0.0, 0.0, 0.0, 0.0, 0.0, 1.6203124084551427E9, 2021-05-06 16:46:48.455
65.0, 160.6642303466797, 152.75808715820312, 312.1413879394531, -207.36997985839844, 0.0, 0.03200000151991844, 1.055999994277954, 0.0, 0.0, 0.0, 0.0, 0.0, 1.6203124084551427E9, 2021-05-06 16:46:48.455
66.0, 172.56832885742188, 153.8538818359375, 315.9598388671875, -195.49952697753906, 0.0, 0.03200000151991844, 1.055999994277954, 0.0, 0.0, 0.0, 0.0, 0.0, 1.6203124084557958E9, 2021-05-06 16:46:48.455
66.0, 174.03811645507812, 150.97415161132812, 316.4011535644531, -189.59796142578125, 0.0, 0.03200000151991844, 1.055999994277954, 0.0, 0.0, 0.0, 0.0, 0.0, 1.6203124084557958E9, 2021-05-06 16:46:48.455
67.0, 178.58209228515625, 153.36021423339844, 327.2319030761719, -182.70159912109375, 0.0, 0.03200000151991844, 1.055999994277954, 0.0, 0.0, 0.0, 0.0, 0.0, 1.620312408469596E9, 2021-05-06 16:46:48.469
67.0, 180.72879028320312, 154.24282836914062, 322.6393127441406, -183.83477783203125, 0.0, 0.03200000151991844, 1.055999994277954, 0.0, 0.0, 0.0, 0.0, 0.0, 1.620312408469596E9, 2021-05-06 16:46:48.469
68.0, 178.4773712158203, 152.39157104492188, 312.64630126953125, -175.18814086914062, 0.0, 0.03200000151991844, 1.055999994277954, 0.0, 0.0, 0.0, 0.0, 0.0, 1.620312408485321E9, 2021-05-06 16:46:48.485
68.0, 171.53611755371094, 155.82106018066406, 321.36773681640625, -172.31588745117188, 0.0, 0.03200000151991844, 1.055999994277954, 0.0, 0.0, 0.0, 0.0, 0.0, 1.620312408485321E9, 2021-05-06 16:46:48.485
69.0, 166.3040008544922, 142.6192169189453, 325.14501953125, -181.4524688720703, 0.0, 0.03200000151991844, 1.055999994277954, 0.0, 0.0, 0.0, 0.0, 0.0, 1.6203124084858773E9, 2021-05-06 16:46:48.485
69.0, 152.04002380371094, 138.7633819580078, 315.1033935546875, -172.2373504638672, 0.0, 0.03200000151991844, 1.055999994277954, 0.0, 0.0, 0.0, 0.0, 0.0, 1.6203124084858773E9, 2021-05-06 16:46:48.485
70.0, 159.58714294433594, 157.34320068359375, 311.7187805175781, -178.71112060546875, 0.0, 0.03200000151991844, 1.055999994277954, 0.0, 0.0, 0.0, 0.0, 0.0, 1.6203124084996333E9, 2021-05-06 16:46:48.499
70.0, 166.23667907714844, 149.62405395507812, 322.5495300292969, -166.40310668945312, 0.0, 0.03200000151991844, 1.055999994277954, 0.0, 0.0, 0.0, 0.0, 0.0, 1.6203124084996333E9, 2021-05-06 16:46:48.499
71.0, 170.56748962402344, 142.75384521484375, 329.40850830078125, -186.16847229003906, 0.0, 0.03200000151991844, 1.055999994277954, 0.0, 0.0, 0.0, 0.0, 0.0, 1.6203124085152836E9, 2021-05-06 16:46:48.515
71.0, 166.5657958984375, 141.0447235107422, 321.5472412109375, -195.58180236816406, 0.0, 0.03200000151991844, 1.055999994277954, 0.0, 0.0, 0.0, 0.0, 0.0, 1.6203124085152836E9, 2021-05-06 16:46:48.515
72.0, 156.2548828125, 151.80441284179688, 313.48028564453125, -190.06919860839844, 0.0, 0.03200000151991844, 1.055999994277954, 0.0, 0.0, 0.0, 0.0, 0.0, 1.6203124085160308E9, 2021-05-06 16:46:48.516
72.0, 169.12014770507812, 145.08006286621094, 321.3453063964844, -191.5763702392578, 0.0, 0.03200000151991844, 1.055999994277954, 0.0, 0.0, 0.0, 0.0, 0.0, 1.6203124085160308E9, 2021-05-06 16:46:48.516
73.0, 196.9599609375, 148.31507873535156, 328.62689208984375, -191.98776245117188, 0.0, 0.03200000151991844, 1.055999994277954, 0.0, 0.0, 0.0, 0.0, 0.0, 1.6203124085294409E9, 2021-05-06 16:46:48.529
73.0, 148.49085998535156, 147.357666015625, 313.7757263183594, -200.40628051757812, 0.0, 0.03200000151991844, 1.055999994277954, 0.0, 0.0, 0.0, 0.0, 0.0, 1.6203124085294409E9, 2021-05-06 16:46:48.529
74.0, 169.67738342285156, 150.43934631347656, 310.2041320800781, -204.53138732910156, 0.0, 0.03200000151991844, 1.055999994277954, 0.0, 0.0, 0.0, 0.0, 0.0, 1.6203124085451937E9, 2021-05-06 16:46:48.545
74.0, 168.75363159179688, 152.96751403808594, 309.8787536621094, -212.11590576171875, 0.0, 0.03200000151991844, 1.055999994277954, 0.0, 0.0, 0.0, 0.0, 0.0, 1.6203124085451937E9, 2021-05-06 16:46:48.545
75.0, 159.82275390625, 148.86485290527344, 313.01654052734375, -211.21084594726562, 0.0, 0.03200000151991844, 1.055999994277954, 0.0, 0.0, 0.0, 0.0, 0.0, 1.6203124085459175E9, 2021-05-06 16:46:48.545
75.0, 159.77040100097656, 154.2652587890625, 314.8453369140625, -207.63925170898438, 0.0, 0.03200000151991844, 1.055999994277954, 0.0, 0.0, 0.0, 0.0, 0.0, 1.6203124085459175E9, 2021-05-06 16:46:48.545
76.0, 161.57676696777344, 153.2928924560547, 312.9006042480469, -202.6427459716797, 0.0, 0.03200000151991844, 1.055999994277954, 0.0, 0.0, 0.0, 0.0, 0.0, 1.6203124085594435E9, 2021-05-06 16:46:48.559
76.0, 172.81890869140625, 158.9326629638672, 322.5345764160156, -192.06629943847656, 0.0, 0.03200000151991844, 1.055999994277954, 0.0, 0.0, 0.0, 0.0, 0.0, 1.6203124085594435E9, 2021-05-06 16:46:48.559
77.0, 180.3847198486328, 157.78451538085938, 338.2421569824219, -181.0522918701172, 0.0, 0.03200000151991844, 1.055999994277954, 0.0, 0.0, 0.0, 0.0, 0.0, 1.6203124085750043E9, 2021-05-06 16:46:48.575
77.0, 161.15789794921875, 145.67471313476562, 320.9226989746094, -184.10031127929688, 0.0, 0.03200000151991844, 1.055999994277954, 0.0, 0.0, 0.0, 0.0, 0.0, 1.6203124085750043E9, 2021-05-06 16:46:48.575
78.0, 180.5605010986328, 147.4436798095703, 320.3616943359375, -175.87252807617188, 0.0, 0.03200000151991844, 1.055999994277954, 0.0, 0.0, 0.0, 0.0, 0.0, 1.620312408590108E9, 2021-05-06 16:46:48.590
78.0, 160.9222869873047, 152.17465209960938, 318.1439514160156, -178.5652618408203, 0.0, 0.03200000151991844, 1.055999994277954, 0.0, 0.0, 0.0, 0.0, 0.0, 1.620312408590108E9, 2021-05-06 16:46:48.590
79.0, 152.13351440429688, 142.30880737304688, 325.64617919921875, -173.561279296875, 0.0, 0.03200000151991844, 1.055999994277954, 0.0, 0.0, 0.0, 0.0, 0.0, 1.6203124085909705E9, 2021-05-06 16:46:48.590
79.0, 173.72396850585938, 158.97006225585938, 323.91461181640625, -170.7301788330078, 0.0, 0.03200000151991844, 1.055999994277954, 0.0, 0.0, 0.0, 0.0, 0.0, 1.6203124085909705E9, 2021-05-06 16:46:48.590
80.0, 161.51318359375, 145.48023986816406, 308.0350036621094, -180.61099243164062, 0.0, 0.03200000151991844, 1.055999994277954, 0.0, 0.0, 0.0, 0.0, 0.0, 1.6203124086050973E9, 2021-05-06 16:46:48.605
80.0, 159.9499053955078, 148.718994140625, 320.00640869140625, -180.15472412109375, 0.0, 0.03200000151991844, 1.055999994277954, 0.0, 0.0, 0.0, 0.0, 0.0, 1.6203124086050973E9, 2021-05-06 16:46:48.605
81.0, 168.15150451660156, 146.40773010253906, 322.92352294921875, -185.3083038330078, 0.0, 0.03200000151991844, 1.055999994277954, 0.0, 0.0, 0.0, 0.0, 0.0, 1.6203124086058595E9, 2021-05-06 16:46:48.605
81.0, 166.4348907470703, 149.79234313964844, 319.8194274902344, -189.3623504638672, 0.0, 0.03200000151991844, 1.055999994277954, 0.0, 0.0, 0.0, 0.0, 0.0, 1.6203124086058595E9, 2021-05-06 16:46:48.605
82.0, 159.59461975097656, 155.5405731201172, 306.3221130371094, -188.9434814453125, 0.0, 0.03200000151991844, 1.055999994277954, 0.0, 0.0, 0.0, 0.0, 0.0, 1.6203124086196008E9, 2021-05-06 16:46:48.619
82.0, 180.30618286132812, 157.72840881347656, 320.18218994140625, -189.49325561523438, 0.0, 0.03200000151991844, 1.055999994277954, 0.0, 0.0, 0.0, 0.0, 0.0, 1.6203124086196008E9, 2021-05-06 16:46:48.619
83.0, 182.34817504882812, 151.7744903564453, 324.909423828125, -187.22312927246094, 0.0, 0.03200000151991844, 1.055999994277954, 0.0, 0.0, 0.0, 0.0, 0.0, 1.6203124086350749E9, 2021-05-06 16:46:48.635
83.0, 147.3127899169922, 145.82431030273438, 309.10833740234375, -206.68182373046875, 0.0, 0.03200000151991844, 1.055999994277954, 0.0, 0.0, 0.0, 0.0, 0.0, 1.6203124086350749E9, 2021-05-06 16:46:48.635
84.0, 156.47927856445312, 153.19190979003906, 302.41766357421875, -206.31158447265625, 0.0, 0.03200000151991844, 1.055999994277954, 0.0, 0.0, 0.0, 0.0, 0.0, 1.6203124086358142E9, 2021-05-06 16:46:48.635
84.0, 166.3526153564453, 152.26815795898438, 311.87213134765625, -205.41026306152344, 0.0, 0.03200000151991844, 1.055999994277954, 0.0, 0.0, 0.0, 0.0, 0.0, 1.6203124086358142E9, 2021-05-06 16:46:48.635
85.0, 171.3453826904297, 158.45021057128906, 320.4552001953125, -197.10394287109375, 0.0, 0.03200000151991844, 1.055999994277954, 0.0, 0.0, 0.0, 0.0, 0.0, 1.6203124086495209E9, 2021-05-06 16:46:48.649
85.0, 164.76690673828125, 149.6614532470703, 314.1011047363281, -200.346435546875, 0.0, 0.03200000151991844, 1.055999994277954, 0.0, 0.0, 0.0, 0.0, 0.0, 1.6203124086495209E9, 2021-05-06 16:46:48.649
86.0, 158.1173553466797, 152.26068115234375, 311.4981384277344, -199.05242919921875, 0.0, 0.03200000151991844, 1.055999994277954, 0.0, 0.0, 0.0, 0.0, 0.0, 1.6203124086651206E9, 2021-05-06 16:46:48.665
86.0, 166.0048065185547, 153.7229766845703, 317.6802062988281, -186.41531372070312, 0.0, 0.03200000151991844, 1.055999994277954, 0.0, 0.0, 0.0, 0.0, 0.0, 1.6203124086651206E9, 2021-05-06 16:46:48.665
87.0, 164.2620086669922, 155.95944213867188, 323.01702880859375, -182.6716766357422, 0.0, 0.03200000151991844, 1.055999994277954, 0.0, 0.0, 0.0, 0.0, 0.0, 1.6203124086658075E9, 2021-05-06 16:46:48.665
87.0, 177.0038604736328, 163.90298461914062, 322.9609375, -183.84600830078125, 0.0, 0.03200000151991844, 1.055999994277954, 0.0, 0.0, 0.0, 0.0, 0.0, 1.6203124086658075E9, 2021-05-06 16:46:48.665
88.0, 146.83033752441406, 145.0725860595703, 304.1716613769531, -189.85601806640625, 0.0, 0.03200000151991844, 1.055999994277954, 0.0, 0.0, 0.0, 0.0, 0.0, 1.6203124086958706E9, 2021-05-06 16:46:48.695
88.0, 165.2942352294922, 156.77099609375, 306.2884521484375, -181.5684051513672, 0.0, 0.03200000151991844, 1.055999994277954, 0.0, 0.0, 0.0, 0.0, 0.0, 1.6203124086958706E9, 2021-05-06 16:46:48.695
89.0, 161.9021453857422, 153.5995635986328, 316.8686218261719, -180.03131103515625, 0.0, 0.03200000151991844, 1.055999994277954, 0.0, 0.0, 0.0, 0.0, 0.0, 1.6203124086965463E9, 2021-05-06 16:46:48.696
89.0, 150.69740295410156, 137.357177734375, 304.3474426269531, -183.44956970214844, 0.0, 0.03200000151991844, 1.055999994277954, 0.0, 0.0, 0.0, 0.0, 0.0, 1.6203124086965463E9, 2021-05-06 16:46:48.696
90.0, 165.0025177001953, 148.9209442138672, 306.44927978515625, -180.850341796875, 0.0, 0.03200000151991844, 1.055999994277954, 0.0, 0.0, 0.0, 0.0, 0.0, 1.6203124086972575E9, 2021-05-06 16:46:48.697
90.0, 175.8070831298828, 144.96038818359375, 313.2259826660156, -177.3348388671875, 0.0, 0.03200000151991844, 1.055999994277954, 0.0, 0.0, 0.0, 0.0, 0.0, 1.6203124086972575E9, 2021-05-06 16:46:48.697
91.0, 163.12509155273438, 140.9998321533203, 318.8994140625, -184.29104614257812, 0.0, 0.03200000151991844, 1.055999994277954, 0.0, 0.0, 0.0, 0.0, 0.0, 1.62031240870949E9, 2021-05-06 16:46:48.709
91.0, 157.90419006347656, 140.4463348388672, 304.82989501953125, -194.94976806640625, 0.0, 0.03200000151991844, 1.055999994277954, 0.0, 0.0, 0.0, 0.0, 0.0, 1.62031240870949E9, 2021-05-06 16:46:48.709
92.0, 165.36154174804688, 144.04037475585938, 305.5479431152344, -192.60110473632812, 0.0, 0.03200000151991844, 1.055999994277954, 0.0, 0.0, 0.0, 0.0, 0.0, 1.6203124087252166E9, 2021-05-06 16:46:48.725
92.0, 171.19578552246094, 140.8726806640625, 313.4204406738281, -196.09043884277344, 0.0, 0.03200000151991844, 1.055999994277954, 0.0, 0.0, 0.0, 0.0, 0.0, 1.6203124087252166E9, 2021-05-06 16:46:48.725
93.0, 184.70431518554688, 150.44308471679688, 322.2391357421875, -193.43136596679688, 0.0, 0.03200000151991844, 1.055999994277954, 0.0, 0.0, 0.0, 0.0, 0.0, 1.6203124087258368E9, 2021-05-06 16:46:48.725
93.0, 148.16921997070312, 146.82286071777344, 304.65411376953125, -210.2384796142578, 0.0, 0.03200000151991844, 1.055999994277954, 0.0, 0.0, 0.0, 0.0, 0.0, 1.6203124087258368E9, 2021-05-06 16:46:48.725
94.0, 176.1025390625, 160.22666931152344, 310.82122802734375, -200.3501739501953, 0.0, 0.03200000151991844, 1.055999994277954, 0.0, 0.0, 0.0, 0.0, 0.0, 1.620312408739494E9, 2021-05-06 16:46:48.739
94.0, 183.27940368652344, 158.53248596191406, 315.7503967285156, -202.11167907714844, 0.0, 0.03200000151991844, 1.055999994277954, 0.0, 0.0, 0.0, 0.0, 0.0, 1.620312408739494E9, 2021-05-06 16:46:48.739
95.0, 160.36129760742188, 155.69764709472656, 324.4120178222656, -193.83901977539062, 0.0, 0.03200000151991844, 1.055999994277954, 0.0, 0.0, 0.0, 0.0, 0.0, 1.6203124087549803E9, 2021-05-06 16:46:48.754
95.0, 170.1186981201172, 148.202880859375, 317.3136901855469, -187.04736328125, 0.0, 0.03200000151991844, 1.055999994277954, 0.0, 0.0, 0.0, 0.0, 0.0, 1.6203124087549803E9, 2021-05-06 16:46:48.754
96.0, 175.59017944335938, 151.87173461914062, 316.51708984375, -192.61231994628906, 0.0, 0.03200000151991844, 1.055999994277954, 0.0, 0.0, 0.0, 0.0, 0.0, 1.6203124087701223E9, 2021-05-06 16:46:48.770
96.0, 172.65809631347656, 153.95858764648438, 322.26531982421875, -185.53269958496094, 0.0, 0.03200000151991844, 1.055999994277954, 0.0, 0.0, 0.0, 0.0, 0.0, 1.6203124087701223E9, 2021-05-06 16:46:48.770
97.0, 174.64772033691406, 151.5500946044922, 331.01666259765625, -183.0606231689453, 0.0, 0.03200000151991844, 1.055999994277954, 0.0, 0.0, 0.0, 0.0, 0.0, 1.6203124087709105E9, 2021-05-06 16:46:48.770
97.0, 170.23463439941406, 151.3369140625, 315.8775634765625, -184.4518585205078, 0.0, 0.03200000151991844, 1.055999994277954, 0.0, 0.0, 0.0, 0.0, 0.0, 1.6203124087709105E9, 2021-05-06 16:46:48.770
98.0, 161.2700958251953, 135.995849609375, 302.6981506347656, -191.707275390625, 0.0, 0.03200000151991844, 1.055999994277954, 0.0, 0.0, 0.0, 0.0, 0.0, 1.6203124087851672E9, 2021-05-06 16:46:48.785
98.0, 169.0565643310547, 149.7848663330078, 318.87322998046875, -173.16110229492188, 0.0, 0.03200000151991844, 1.055999994277954, 0.0, 0.0, 0.0, 0.0, 0.0, 1.6203124087851672E9, 2021-05-06 16:46:48.785
99.0, 161.31871032714844, 155.34609985351562, 328.5034484863281, -172.4542694091797, 0.0, 0.03200000151991844, 1.055999994277954, 0.0, 0.0, 0.0, 0.0, 0.0, 1.6203124087858295E9, 2021-05-06 16:46:48.785
99.0, 158.8541259765625, 141.19430541992188, 310.7651062011719, -181.86012268066406, 0.0, 0.03200000151991844, 1.055999994277954, 0.0, 0.0, 0.0, 0.0, 0.0, 1.6203124087858295E9, 2021-05-06 16:46:48.785
100.0, 181.0579071044922, 144.2685089111328, 311.670166015625, -189.35487365722656, 0.0, 0.03200000151991844, 1.055999994277954, 0.0, 0.0, 0.0, 0.0, 0.0, 1.6203124088008528E9, 2021-05-06 16:46:48.800
100.0, 152.63092041015625, 160.55203247070312, 315.89251708984375, -177.97061157226562, 0.0, 0.03200000151991844, 1.055999994277954, 0.0, 0.0, 0.0, 0.0, 0.0, 1.6203124088008528E9, 2021-05-06 16:46:48.800
0.0, 162.37522888183594, 146.70130920410156, 322.3962097167969, -183.81982421875, 0.0, 0.03200000151991844, 1.055999994277954, 0.0, 0.0, 0.0, 0.0, 0.0, 1.6203124088015718E9, 2021-05-06 16:46:48.801
1.0, 161.354248046875, 151.76513671875, 312.3919677734375, -194.35137939453125, 0.0, 0.03200000151991844, 1.055999994277954, 0.0, 0.0, 0.0, 0.0, 0.0, 1.6203124088145933E9, 2021-05-06 16:46:48.814
1.0, 151.23406982421875, 152.47198486328125, 306.6063537597656, -195.93336486816406, 0.0, 0.03200000151991844, 1.055999994277954, 0.0, 0.0, 0.0, 0.0, 0.0, 1.6203124088145933E9, 2021-05-06 16:46:48.814
2.0, 165.7972412109375, 153.14891052246094, 301.5948791503906, -194.078369140625, 0.01600000075995922, 0.03200000151991844, 1.055999994277954, 0.0, 0.0, 0.0, 0.0, 0.0, 1.6203124088301551E9, 2021-05-06 16:46:48.830
2.0, 166.7359619140625, 158.208984375, 313.43914794921875, -195.28636169433594, 0.01600000075995922, 0.03200000151991844, 1.055999994277954, 0.0, 0.0, 0.0, 0.0, 0.0, 1.6203124088301551E9, 2021-05-06 16:46:48.830
3.0, 166.2983856201172, 160.23226928710938, 310.98577880859375, -191.59881591796875, 0.01600000075995922, 0.03200000151991844, 1.055999994277954, 0.0, 0.0, 0.0, 0.0, 0.0, 1.6203124088309114E9, 2021-05-06 16:46:48.830
3.0, 170.7301788330078, 152.5692138671875, 301.35552978515625, -193.4949493408203, 0.01600000075995922, 0.03200000151991844, 1.055999994277954, 0.0, 0.0, 0.0, 0.0, 0.0, 1.6203124088309114E9, 2021-05-06 16:46:48.830
4.0, 167.92898559570312, 152.4495391845703, 308.72314453125, -190.39830017089844, 0.01600000075995922, 0.03200000151991844, 1.055999994277954, 0.0, 0.0, 0.0, 0.0, 0.0, 1.6203124088444276E9, 2021-05-06 16:46:48.844
4.0, 147.3595428466797, 146.0580596923828, 314.9725036621094, -192.8068084716797, 0.01600000075995922, 0.03200000151991844, 1.055999994277954, 0.0, 0.0, 0.0, 0.0, 0.0, 1.6203124088444276E9, 2021-05-06 16:46:48.844
5.0, 168.37403869628906, 151.8997802734375, 314.69573974609375, -188.15061950683594, 0.01600000075995922, 0.03200000151991844, 1.055999994277954, 0.0, 0.0, 0.0, 0.0, 0.0, 1.6203124088601508E9, 2021-05-06 16:46:48.860
5.0, 165.8458709716797, 153.52662658691406, 314.8490905761719, -187.04360961914062, 0.01600000075995922, 0.03200000151991844, 1.055999994277954, 0.0, 0.0, 0.0, 0.0, 0.0, 1.6203124088601508E9, 2021-05-06 16:46:48.860
6.0, 162.22564697265625, 154.21102905273438, 320.68707275390625, -183.95071411132812, 0.01600000075995922, 0.03200000151991844, 1.055999994277954, 0.0, 0.0, 0.0, 0.0, 0.0, 1.6203124088608625E9, 2021-05-06 16:46:48.860
6.0, 172.60386657714844, 154.19607543945312, 330.83343505859375, -175.9361114501953, 0.01600000075995922, 0.03200000151991844, 1.055999994277954, 0.0, 0.0, 0.0, 0.0, 0.0, 1.6203124088608625E9, 2021-05-06 16:46:48.860
7.0, 162.4014129638672, 152.21766662597656, 314.14599609375, -178.2623291015625, 0.01600000075995922, 0.03200000151991844, 1.055999994277954, 0.0, 0.0, 0.0, 0.0, 0.0, 1.6203124088744404E9, 2021-05-06 16:46:48.874
7.0, 162.39019775390625, 145.68406677246094, 311.4046325683594, -183.87591552734375, 0.01600000075995922, 0.03200000151991844, 1.055999994277954, 0.0, 0.0, 0.0, 0.0, 0.0, 1.6203124088744404E9, 2021-05-06 16:46:48.874
8.0, 151.40237426757812, 153.90435791015625, 318.45062255859375, -173.5986785888672, 0.01600000075995922, 0.03200000151991844, 1.055999994277954, 0.0, 0.0, 0.0, 0.0, 0.0, 1.6203124088901663E9, 2021-05-06 16:46:48.890
8.0, 164.5668182373047, 150.9236602783203, 322.44482421875, -174.45884704589844, 0.01600000075995922, 0.03200000151991844, 1.055999994277954, 0.0, 0.0, 0.0, 0.0, 0.0, 1.6203124088901663E9, 2021-05-06 16:46:48.890
9.0, 158.7101287841797, 149.0948486328125, 318.114013671875, -179.30950927734375, 0.01600000075995922, 0.03200000151991844, 1.055999994277954, 0.0, 0.0, 0.0, 0.0, 0.0, 1.6203124088909144E9, 2021-05-06 16:46:48.890
9.0, 162.89508056640625, 153.9342803955078, 308.6707763671875, -188.2254180908203, 0.01600000075995922, 0.03200000151991844, 1.055999994277954, 0.0, 0.0, 0.0, 0.0, 0.0, 1.6203124088909144E9, 2021-05-06 16:46:48.890
10.0, 170.22154235839844, 148.1523895263672, 312.8070983886719, -196.63645935058594, 0.01600000075995922, 0.03200000151991844, 1.055999994277954, 0.0, 0.0, 0.0, 0.0, 0.0, 1.6203124089207947E9, 2021-05-06 16:46:48.920
10.0, 149.0125732421875, 145.743896484375, 318.2710876464844, -199.98741149902344, 0.01600000075995922, 0.03200000151991844, 1.055999994277954, 0.0, 0.0, 0.0, 0.0, 0.0, 1.6203124089207947E9, 2021-05-06 16:46:48.920
11.0, 156.6868438720703, 148.4702911376953, 315.9972229003906, -194.02601623535156, 0.01600000075995922, 0.03200000151991844, 1.055999994277954, 0.0, 0.0, 0.0, 0.0, 0.0, 1.6203124089216008E9, 2021-05-06 16:46:48.921
11.0, 157.89483642578125, 150.63943481445312, 312.7809143066406, -195.19659423828125, 0.01600000075995922, 0.03200000151991844, 1.055999994277954, 0.0, 0.0, 0.0, 0.0, 0.0, 1.6203124089216008E9, 2021-05-06 16:46:48.921
12.0, 171.76612854003906, 161.72824096679688, 318.301025390625, -183.54307556152344, 0.0, 0.03200000151991844, 1.055999994277954, 0.0, 0.0, 0.0, 0.0, 0.0, 1.62031240892224E9, 2021-05-06 16:46:48.922
12.0, 166.01416015625, 154.2259979248047, 323.9669494628906, -180.9475860595703, 0.0, 0.03200000151991844, 1.055999994277954, 0.0, 0.0, 0.0, 0.0, 0.0, 1.62031240892224E9, 2021-05-06 16:46:48.922
13.0, 163.35882568359375, 156.79156494140625, 322.010986328125, -180.73814392089844, 0.0, 0.03200000151991844, 1.055999994277954, 0.0, 0.0, 0.0, 0.0, 0.0, 1.620312408934402E9, 2021-05-06 16:46:48.934
13.0, 177.60037231445312, 156.26797485351562, 318.1551513671875, -183.80111694335938, 0.0, 0.03200000151991844, 1.055999994277954, 0.0, 0.0, 0.0, 0.0, 0.0, 1.620312408934402E9, 2021-05-06 16:46:48.934
14.0, 176.04083251953125, 162.55848693847656, 314.74810791015625, -187.5485076904297, 0.0, 0.03200000151991844, 1.055999994277954, 0.0, 0.0, 0.0, 0.0, 0.0, 1.6203124089501843E9, 2021-05-06 16:46:48.950
14.0, 206.25921630859375, 159.75357055664062, 333.0736083984375, -180.13601684570312, 0.0, 0.03200000151991844, 1.055999994277954, 0.0, 0.0, 0.0, 0.0, 0.0, 1.6203124089501843E9, 2021-05-06 16:46:48.950
15.0, 141.55520629882812, 153.69119262695312, 319.46038818359375, -190.46188354492188, 0.0, 0.03200000151991844, 1.055999994277954, 0.0, 0.0, 0.0, 0.0, 0.0, 1.620312408950926E9, 2021-05-06 16:46:48.950
15.0, 158.53062438964844, 157.105712890625, 312.45556640625, -196.14279174804688, 0.0, 0.03200000151991844, 1.055999994277954, 0.0, 0.0, 0.0, 0.0, 0.0, 1.620312408950926E9, 2021-05-06 16:46:48.950
16.0, 173.138671875, 160.76333618164062, 317.33612060546875, -188.38250732421875, 0.0, 0.03200000151991844, 1.055999994277954, 0.0, 0.0, 0.0, 0.0, 0.0, 1.6203124089643917E9, 2021-05-06 16:46:48.964
16.0, 166.2647247314453, 152.85719299316406, 322.30645751953125, -189.53439331054688, 0.0, 0.03200000151991844, 1.055999994277954, 0.0, 0.0, 0.0, 0.0, 0.0, 1.6203124089643917E9, 2021-05-06 16:46:48.964
17.0, 163.4224090576172, 154.62989807128906, 317.093017578125, -193.562255859375, 0.0, 0.03200000151991844, 1.055999994277954, 0.0, 0.0, 0.0, 0.0, 0.0, 1.6203124089802043E9, 2021-05-06 16:46:48.980
17.0, 171.62026977539062, 163.07460021972656, 315.4549560546875, -182.31637573242188, 0.0, 0.03200000151991844, 1.055999994277954, 0.0, 0.0, 0.0, 0.0, 0.0, 1.6203124089802043E9, 2021-05-06 16:46:48.980
18.0, 173.045166015625, 153.58273315429688, 319.66607666015625, -192.09996032714844, 0.0, 0.03200000151991844, 1.055999994277954, 0.0, 0.0, 0.0, 0.0, 0.0, 1.620312408980925E9, 2021-05-06 16:46:48.980
18.0, 160.74838256835938, 147.45677185058594, 321.3041687011719, -190.54042053222656, 0.0, 0.03200000151991844, 1.055999994277954, 0.0, 0.0, 0.0, 0.0, 0.0, 1.620312408980925E9, 2021-05-06 16:46:48.980
19.0, 161.75067138671875, 152.59913635253906, 316.47967529296875, -191.3108367919922, 0.0, 0.03200000151991844, 1.055999994277954, 0.0, 0.0, 0.0, 0.0, 0.0, 1.620312408994404E9, 2021-05-06 16:46:48.994
19.0, 182.035888671875, 150.673095703125, 310.1330871582031, -201.25149536132812, 0.0, 0.03200000151991844, 1.055999994277954, 0.0, 0.0, 0.0, 0.0, 0.0, 1.620312408994404E9, 2021-05-06 16:46:48.994
20.0, 174.01754760742188, 160.23974609375, 322.6729431152344, -198.46900939941406, 0.0, 0.03200000151991844, 1.055999994277954, 0.0, 0.0, 0.0, 0.0, 0.0, 1.6203124090102112E9, 2021-05-06 16:46:49.010
20.0, 158.52313232421875, 154.8617706298828, 322.9309997558594, -198.0613555908203, 0.0, 0.03200000151991844, 1.055999994277954, 0.0, 0.0, 0.0, 0.0, 0.0, 1.6203124090102112E9, 2021-05-06 16:46:49.010
21.0, 177.79110717773438, 152.5654754638672, 321.6781311035156, -195.66409301757812, 0.0, 0.03200000151991844, 1.055999994277954, 0.0, 0.0, 0.0, 0.0, 0.0, 1.620312409010914E9, 2021-05-06 16:46:49.010
21.0, 160.1313018798828, 155.22828674316406, 316.8499450683594, -188.46852111816406, 0.0, 0.03200000151991844, 1.055999994277954, 0.0, 0.0, 0.0, 0.0, 0.0, 1.620312409010914E9, 2021-05-06 16:46:49.010
22.0, 165.59902954101562, 161.15603637695312, 327.8153076171875, -181.94613647460938, 0.0, 0.03200000151991844, 1.055999994277954, 0.0, 0.0, 0.0, 0.0, 0.0, 1.6203124090244548E9, 2021-05-06 16:46:49.024
22.0, 165.7112274169922, 150.7927703857422, 325.51153564453125, -186.53125, 0.0, 0.03200000151991844, 1.055999994277954, 0.0, 0.0, 0.0, 0.0, 0.0, 1.6203124090244548E9, 2021-05-06 16:46:49.024
23.0, 164.4471435546875, 150.12332153320312, 319.0976257324219, -194.6617889404297, 0.0, 0.03200000151991844, 1.055999994277954, 0.0, 0.0, 0.0, 0.0, 0.0, 1.6203124090399408E9, 2021-05-06 16:46:49.039
23.0, 166.79954528808594, 160.4566650390625, 317.0705871582031, -192.91151428222656, 0.0, 0.03200000151991844, 1.055999994277954, 0.0, 0.0, 0.0, 0.0, 0.0, 1.6203124090399408E9, 2021-05-06 16:46:49.039
24.0, 174.63088989257812, 160.26966857910156, 325.8668212890625, -180.47634887695312, 0.0, 0.03200000151991844, 1.055999994277954, 0.0, 0.0, 0.0, 0.0, 0.0, 1.6203124090552893E9, 2021-05-06 16:46:49.055
24.0, 177.74996948242188, 161.91148376464844, 332.04888916015625, -180.5548858642578, 0.0, 0.03200000151991844, 1.055999994277954, 0.0, 0.0, 0.0, 0.0, 0.0, 1.6203124090552893E9, 2021-05-06 16:46:49.055
25.0, 166.0552978515625, 139.4384307861328, 318.93304443359375, -195.63790893554688, 0.0, 0.03200000151991844, 1.055999994277954, 0.0, 0.0, 0.0, 0.0, 0.0, 1.6203124090559633E9, 2021-05-06 16:46:49.055
25.0, 203.2710418701172, 158.48199462890625, 325.9117126464844, -189.53065490722656, 0.0, 0.03200000151991844, 1.055999994277954, 0.0, 0.0, 0.0, 0.0, 0.0, 1.6203124090559633E9, 2021-05-06 16:46:49.055
26.0, 160.99520874023438, 146.97433471679688, 324.4419250488281, -189.2987823486328, 0.0, 0.03200000151991844, 1.055999994277954, 0.0, 0.0, 0.0, 0.0, 0.0, 1.6203124090701604E9, 2021-05-06 16:46:49.070
26.0, 181.76287841796875, 154.12127685546875, 331.84320068359375, -192.96388244628906, 0.0, 0.03200000151991844, 1.055999994277954, 0.0, 0.0, 0.0, 0.0, 0.0, 1.6203124090701604E9, 2021-05-06 16:46:49.070
27.0, 171.30612182617188, 151.58937072753906, 317.66522216796875, -195.34619140625, 0.0, 0.03200000151991844, 1.055999994277954, 0.0, 0.0, 0.0, 0.0, 0.0, 1.6203124090708852E9, 2021-05-06 16:46:49.070
27.0, 158.0481719970703, 156.32781982421875, 315.0547790527344, -189.06690979003906, 0.0, 0.03200000151991844, 1.055999994277954, 0.0, 0.0, 0.0, 0.0, 0.0, 1.6203124090708852E9, 2021-05-06 16:46:49.070
28.0, 176.59808349609375, 156.12960815429688, 324.3858337402344, -185.27090454101562, 0.0, 0.03200000151991844, 1.055999994277954, 0.0, 0.0, 0.0, 0.0, 0.0, 1.6203124090844676E9, 2021-05-06 16:46:49.084
28.0, 166.04408264160156, 152.9469451904297, 325.743408203125, -197.27224731445312, 0.0, 0.03200000151991844, 1.055999994277954, 0.0, 0.0, 0.0, 0.0, 0.0, 1.6203124090844676E9, 2021-05-06 16:46:49.084
29.0, 156.7616424560547, 161.19342041015625, 319.299560546875, -195.99319458007812, 0.0, 0.03200000151991844, 1.055999994277954, 0.0, 0.0, 0.0, 0.0, 0.0, 1.6203124091165583E9, 2021-05-06 16:46:49.116
29.0, 178.3820037841797, 154.32322692871094, 313.30078125, -194.89739990234375, 0.0, 0.03200000151991844, 1.055999994277954, 0.0, 0.0, 0.0, 0.0, 0.0, 1.6203124091165583E9, 2021-05-06 16:46:49.116
30.0, 171.75489807128906, 157.80882263183594, 321.37896728515625, -190.4431915283203, 0.0, 0.03200000151991844, 1.055999994277954, 0.0, 0.0, 0.0, 0.0, 0.0, 1.6203124091172657E9, 2021-05-06 16:46:49.117
30.0, 173.03021240234375, 154.31201171875, 325.57513427734375, -194.99090576171875, 0.0, 0.03200000151991844, 1.055999994277954, 0.0, 0.0, 0.0, 0.0, 0.0, 1.6203124091172657E9, 2021-05-06 16:46:49.117
31.0, 162.8015899658203, 157.00100708007812, 314.8378601074219, -195.07691955566406, 0.0, 0.03200000151991844, 1.055999994277954, 0.0, 0.0, 0.0, 0.0, 0.0, 1.6203124091180432E9, 2021-05-06 16:46:49.118
31.0, 160.18739318847656, 150.39259338378906, 309.5533752441406, -192.5973663330078, 0.0, 0.03200000151991844, 1.055999994277954, 0.0, 0.0, 0.0, 0.0, 0.0, 1.6203124091180432E9, 2021-05-06 16:46:49.118
32.0, 170.25894165039062, 158.45956420898438, 324.146484375, -183.8983612060547, 0.0, 0.03200000151991844, 1.055999994277954, 0.0, 0.0, 0.0, 0.0, 0.0, 1.6203124091186564E9, 2021-05-06 16:46:49.118
32.0, 164.15542602539062, 156.41009521484375, 324.47186279296875, -181.3103485107422, 0.0, 0.03200000151991844, 1.055999994277954, 0.0, 0.0, 0.0, 0.0, 0.0, 1.6203124091186564E9, 2021-05-06 16:46:49.118
33.0, 155.3292694091797, 153.44435119628906, 318.4057312011719, -186.1123809814453, 0.0, 0.03200000151991844, 1.055999994277954, 0.0, 0.0, 0.0, 0.0, 0.0, 1.6203124091294527E9, 2021-05-06 16:46:49.129
33.0, 161.03260803222656, 157.01222229003906, 314.1160583496094, -188.9808807373047, 0.0, 0.03200000151991844, 1.055999994277954, 0.0, 0.0, 0.0, 0.0, 0.0, 1.6203124091294527E9, 2021-05-06 16:46:49.129
34.0, 169.148193359375, 159.4020233154297, 318.57403564453125, -182.5931396484375, 0.0, 0.03200000151991844, 1.055999994277954, 0.0, 0.0, 0.0, 0.0, 0.0, 1.6203124091763155E9, 2021-05-06 16:46:49.176
34.0, 165.74862670898438, 155.8827667236328, 326.50634765625, -182.77639770507812, 0.0, 0.03200000151991844, 1.055999994277954, 0.0, 0.0, 0.0, 0.0, 0.0, 1.6203124091763155E9, 2021-05-06 16:46:49.176
35.0, 156.11837768554688, 153.43687438964844, 315.8326721191406, -186.80426025390625, 0.0, 0.03200000151991844, 1.055999994277954, 0.0, 0.0, 0.0, 0.0, 0.0, 1.620312409176993E9, 2021-05-06 16:46:49.176
35.0, 175.95855712890625, 155.60227966308594, 313.6074523925781, -199.08609008789062, 0.0, 0.03200000151991844, 1.055999994277954, 0.0, 0.0, 0.0, 0.0, 0.0, 1.620312409176993E9, 2021-05-06 16:46:49.176
36.0, 177.82102966308594, 147.00050354003906, 312.5677490234375, -200.36888122558594, 0.0, 0.03200000151991844, 1.055999994277954, 0.0, 0.0, 0.0, 0.0, 0.0, 1.62031240917773E9, 2021-05-06 16:46:49.177
36.0, 151.86985778808594, 144.86502075195312, 316.9209899902344, -200.25294494628906, 0.0, 0.03200000151991844, 1.055999994277954, 0.0, 0.0, 0.0, 0.0, 0.0, 1.62031240917773E9, 2021-05-06 16:46:49.177
37.0, 169.29779052734375, 152.80482482910156, 312.0628662109375, -188.6966552734375, 0.0, 0.03200000151991844, 1.055999994277954, 0.0, 0.0, 0.0, 0.0, 0.0, 1.620312409190922E9, 2021-05-06 16:46:49.190
37.0, 177.05809020996094, 146.47317504882812, 305.96307373046875, -196.1652374267578, 0.0, 0.03200000151991844, 1.055999994277954, 0.0, 0.0, 0.0, 0.0, 0.0, 1.620312409190922E9, 2021-05-06 16:46:49.190
38.0, 149.37908935546875, 156.54847717285156, 317.4819641113281, -188.72657775878906, 0.0, 0.03200000151991844, 1.055999994277954, 0.0, 0.0, 0.0, 0.0, 0.0, 1.6203124091915858E9, 2021-05-06 16:46:49.191
38.0, 158.3885040283203, 159.08038330078125, 326.9626159667969, -180.27066040039062, 0.0, 0.03200000151991844, 1.055999994277954, 0.0, 0.0, 0.0, 0.0, 0.0, 1.6203124091915858E9, 2021-05-06 16:46:49.191
39.0, 156.50733947753906, 149.37159729003906, 307.7208251953125, -194.17185974121094, 0.0, 0.03200000151991844, 1.055999994277954, 0.0, 0.0, 0.0, 0.0, 0.0, 1.6203124091923325E9, 2021-05-06 16:46:49.192
39.0, 176.41482543945312, 159.0093231201172, 316.1767578125, -188.6929168701172, 0.0, 0.03200000151991844, 1.055999994277954, 0.0, 0.0, 0.0, 0.0, 0.0, 1.6203124091923325E9, 2021-05-06 16:46:49.192
40.0, 168.53111267089844, 153.30972290039062, 321.7117919921875, -182.55947875976562, 0.0, 0.03200000151991844, 1.055999994277954, 0.0, 0.0, 0.0, 0.0, 0.0, 1.6203124092045777E9, 2021-05-06 16:46:49.204
40.0, 161.45521545410156, 145.919677734375, 322.9197998046875, -179.3618621826172, 0.0, 0.03200000151991844, 1.055999994277954, 0.0, 0.0, 0.0, 0.0, 0.0, 1.6203124092045777E9, 2021-05-06 16:46:49.204
41.0, 172.46548461914062, 147.85321044921875, 315.4512023925781, -182.34629821777344, 0.0, 0.03200000151991844, 1.055999994277954, 0.0, 0.0, 0.0, 0.0, 0.0, 1.6203124092202682E9, 2021-05-06 16:46:49.220
41.0, 148.23841857910156, 146.260009765625, 309.3402099609375, -194.34764099121094, 0.0, 0.03200000151991844, 1.055999994277954, 0.0, 0.0, 0.0, 0.0, 0.0, 1.6203124092202682E9, 2021-05-06 16:46:49.220
42.0, 170.4945526123047, 149.3155059814453, 311.8122863769531, -189.73260498046875, 0.0, 0.03200000151991844, 1.055999994277954, 0.0, 0.0, 0.0, 0.0, 0.0, 1.620312409220964E9, 2021-05-06 16:46:49.220
42.0, 186.778076171875, 148.88168334960938, 317.9083251953125, -187.34280395507812, 0.0, 0.03200000151991844, 1.055999994277954, 0.0, 0.0, 0.0, 0.0, 0.0, 1.620312409220964E9, 2021-05-06 16:46:49.220
43.0, 162.63702392578125, 146.2450408935547, 314.35540771484375, -187.30166625976562, 0.0, 0.03200000151991844, 1.055999994277954, 0.0, 0.0, 0.0, 0.0, 0.0, 1.6203124092343817E9, 2021-05-06 16:46:49.234
43.0, 156.92620849609375, 147.42684936523438, 313.1623840332031, -187.8888397216797, 0.0, 0.03200000151991844, 1.055999994277954, 0.0, 0.0, 0.0, 0.0, 0.0, 1.6203124092343817E9, 2021-05-06 16:46:49.234
44.0, 157.82003784179688, 158.61289978027344, 323.12921142578125, -180.5062713623047, 0.0, 0.03200000151991844, 1.055999994277954, 0.0, 0.0, 0.0, 0.0, 0.0, 1.6203124092502823E9, 2021-05-06 16:46:49.250
44.0, 172.77215576171875, 153.63134765625, 327.1234436035156, -181.41506958007812, 0.0, 0.03200000151991844, 1.055999994277954, 0.0, 0.0, 0.0, 0.0, 0.0, 1.6203124092502823E9, 2021-05-06 16:46:49.250
45.0, 169.76153564453125, 156.96360778808594, 313.7981872558594, -191.2322998046875, 0.0, 0.03200000151991844, 1.055999994277954, 0.0, 0.0, 0.0, 0.0, 0.0, 1.6203124092509215E9, 2021-05-06 16:46:49.250
45.0, 179.0402374267578, 159.66006469726562, 310.9147033691406, -190.9031982421875, 0.0, 0.03200000151991844, 1.055999994277954, 0.0, 0.0, 0.0, 0.0, 0.0, 1.6203124092509215E9, 2021-05-06 16:46:49.250
46.0, 159.992919921875, 159.63014221191406, 319.56884765625, -190.42074584960938, 0.0, 0.03200000151991844, 1.055999994277954, 0.0, 0.0, 0.0, 0.0, 0.0, 1.6203124092815723E9, 2021-05-06 16:46:49.281
46.0, 165.075439453125, 158.10426330566406, 328.40997314453125, -193.68194580078125, 0.0, 0.03200000151991844, 1.055999994277954, 0.0, 0.0, 0.0, 0.0, 0.0, 1.6203124092815723E9, 2021-05-06 16:46:49.281
47.0, 164.93333435058594, 156.70928955078125, 320.4776306152344, -193.9437255859375, 0.0, 0.03200000151991844, 1.055999994277954, 0.0, 0.0, 0.0, 0.0, 0.0, 1.6203124092823021E9, 2021-05-06 16:46:49.282
47.0, 187.14833068847656, 159.67877197265625, 312.06658935546875, -189.5792694091797, 0.0, 0.03200000151991844, 1.055999994277954, 0.0, 0.0, 0.0, 0.0, 0.0, 1.6203124092823021E9, 2021-05-06 16:46:49.282
48.0, 157.13937377929688, 153.97915649414062, 306.72601318359375, -190.48806762695312, 0.0, 0.03200000151991844, 1.055999994277954, 0.0, 0.0, 0.0, 0.0, 0.0, 1.6203124092830627E9, 2021-05-06 16:46:49.283
48.0, 175.31529235839844, 149.42396545410156, 318.0130310058594, -174.09234619140625, 0.0, 0.03200000151991844, 1.055999994277954, 0.0, 0.0, 0.0, 0.0, 0.0, 1.6203124092830627E9, 2021-05-06 16:46:49.283
49.0, 144.393798828125, 144.48728942871094, 305.92193603515625, -193.06858825683594, 0.0, 0.03200000151991844, 1.055999994277954, 0.0, 0.0, 0.0, 0.0, 0.0, 1.6203124092944822E9, 2021-05-06 16:46:49.294
49.0, 155.48260498046875, 153.4705352783203, 302.3877258300781, -193.41641235351562, 0.0, 0.03200000151991844, 1.055999994277954, 0.0, 0.0, 0.0, 0.0, 0.0, 1.6203124092944822E9, 2021-05-06 16:46:49.294
50.0, 177.6265411376953, 154.98519897460938, 312.8893737792969, -190.93685913085938, 0.0, 0.03200000151991844, 1.055999994277954, 0.0, 0.0, 0.0, 0.0, 0.0, 1.6203124093102279E9, 2021-05-06 16:46:49.310
50.0, 167.52133178710938, 151.15179443359375, 318.2673645019531, -194.27284240722656, 0.0, 0.03200000151991844, 1.055999994277954, 0.0, 0.0, 0.0, 0.0, 0.0, 1.6203124093102279E9, 2021-05-06 16:46:49.310
51.0, 156.51107788085938, 153.11898803710938, 310.7052917480469, -194.60569763183594, 0.0, 0.03200000151991844, 1.055999994277954, 0.0, 0.0, 0.0, 0.0, 0.0, 1.6203124093108733E9, 2021-05-06 16:46:49.310
51.0, 172.91427612304688, 161.7731170654297, 311.2550354003906, -195.4247283935547, 0.0, 0.03200000151991844, 1.055999994277954, 0.0, 0.0, 0.0, 0.0, 0.0, 1.6203124093108733E9, 2021-05-06 16:46:49.310
52.0, 184.21998596191406, 163.0858154296875, 326.8541564941406, -191.76336669921875, 0.01600000075995922, 0.03200000151991844, 1.055999994277954, 0.0, 0.0, 0.0, 0.0, 0.0, 1.6203124093245008E9, 2021-05-06 16:46:49.324
52.0, 157.72279357910156, 150.86007690429688, 324.98046875, -193.6520233154297, 0.01600000075995922, 0.03200000151991844, 1.055999994277954, 0.0, 0.0, 0.0, 0.0, 0.0, 1.6203124093245008E9, 2021-05-06 16:46:49.324
53.0, 171.68385314941406, 157.11318969726562, 320.9526062011719, -193.41641235351562, 0.01600000075995922, 0.03200000151991844, 1.055999994277954, 0.0, 0.0, 0.0, 0.0, 0.0, 1.6203124093403616E9, 2021-05-06 16:46:49.340
53.0, 172.80955505371094, 159.63389587402344, 310.836181640625, -193.0162353515625, 0.01600000075995922, 0.03200000151991844, 1.055999994277954, 0.0, 0.0, 0.0, 0.0, 0.0, 1.6203124093403616E9, 2021-05-06 16:46:49.340
54.0, 149.50250244140625, 158.43711853027344, 316.3001708984375, -186.4527130126953, 0.01600000075995922, 0.03200000151991844, 1.055999994277954, 0.0, 0.0, 0.0, 0.0, 0.0, 1.6203124093410318E9, 2021-05-06 16:46:49.341
54.0, 172.00547790527344, 159.41697692871094, 330.3696594238281, -180.95880126953125, 0.01600000075995922, 0.03200000151991844, 1.055999994277954, 0.0, 0.0, 0.0, 0.0, 0.0, 1.6203124093410318E9, 2021-05-06 16:46:49.341
55.0, 150.47486877441406, 147.8232879638672, 313.22222900390625, -192.64598083496094, 0.01600000075995922, 0.03200000151991844, 1.055999994277954, 0.0, 0.0, 0.0, 0.0, 0.0, 1.6203124093543847E9, 2021-05-06 16:46:49.354
55.0, 153.82208251953125, 151.0470733642578, 308.9662170410156, -186.5686492919922, 0.01600000075995922, 0.03200000151991844, 1.055999994277954, 0.0, 0.0, 0.0, 0.0, 0.0, 1.6203124093543847E9, 2021-05-06 16:46:49.354
56.0, 165.931884765625, 155.70326232910156, 318.2935485839844, -184.90438842773438, 0.01600000075995922, 0.03200000151991844, 1.055999994277954, 0.0, 0.0, 0.0, 0.0, 0.0, 1.6203124093700705E9, 2021-05-06 16:46:49.370
56.0, 162.6632080078125, 154.41299438476562, 319.7782897949219, -194.14942932128906, 0.01600000075995922, 0.03200000151991844, 1.055999994277954, 0.0, 0.0, 0.0, 0.0, 0.0, 1.6203124093700705E9, 2021-05-06 16:46:49.370
57.0, 172.36825561523438, 152.0269317626953, 318.9667053222656, -197.9304656982422, 0.01600000075995922, 0.03200000151991844, 1.055999994277954, 0.0, 0.0, 0.0, 0.0, 0.0, 1.6203124093708563E9, 2021-05-06 16:46:49.370
57.0, 161.54872131347656, 156.3951416015625, 316.2104187011719, -191.3108367919922, 0.01600000075995922, 0.03200000151991844, 1.055999994277954, 0.0, 0.0, 0.0, 0.0, 0.0, 1.6203124093708563E9, 2021-05-06 16:46:49.370
58.0, 176.32879638671875, 160.01536560058594, 319.40802001953125, -193.9063262939453, 0.01600000075995922, 0.03200000151991844, 1.055999994277954, 0.0, 0.0, 0.0, 0.0, 0.0, 1.6203124093843932E9, 2021-05-06 16:46:49.384
58.0, 158.5642852783203, 156.1221160888672, 318.5254211425781, -187.28671264648438, 0.01600000075995922, 0.03200000151991844, 1.055999994277954, 0.0, 0.0, 0.0, 0.0, 0.0, 1.6203124093843932E9, 2021-05-06 16:46:49.384
59.0, 156.52976989746094, 148.1673583984375, 316.2665100097656, -182.13687133789062, 0.01600000075995922, 0.03200000151991844, 1.055999994277954, 0.0, 0.0, 0.0, 0.0, 0.0, 1.6203124094000735E9, 2021-05-06 16:46:49.400
59.0, 173.88290405273438, 151.95960998535156, 319.0153503417969, -180.03878784179688, 0.01600000075995922, 0.03200000151991844, 1.055999994277954, 0.0, 0.0, 0.0, 0.0, 0.0, 1.6203124094000735E9, 2021-05-06 16:46:49.400
60.0, 191.625, 159.04672241210938, 324.6812744140625, -174.38031005859375, 0.01600000075995922, 0.03200000151991844, 1.055999994277954, 0.0, 0.0, 0.0, 0.0, 0.0, 1.6203124094008608E9, 2021-05-06 16:46:49.400
60.0, 168.79290771484375, 151.3948974609375, 317.5567626953125, -184.3621063232422, 0.01600000075995922, 0.03200000151991844, 1.055999994277954, 0.0, 0.0, 0.0, 0.0, 0.0, 1.6203124094008608E9, 2021-05-06 16:46:49.400
61.0, 146.69383239746094, 145.1941375732422, 309.3888244628906, -189.08934020996094, 0.01600000075995922, 0.03200000151991844, 1.055999994277954, 0.0, 0.0, 0.0, 0.0, 0.0, 1.6203124094145565E9, 2021-05-06 16:46:49.414
61.0, 161.53001403808594, 149.95877075195312, 306.6063537597656, -184.25364685058594, 0.01600000075995922, 0.03200000151991844, 1.055999994277954, 0.0, 0.0, 0.0, 0.0, 0.0, 1.6203124094145565E9, 2021-05-06 16:46:49.414
62.0, 173.8492431640625, 159.1888427734375, 318.0728759765625, -180.3716278076172, 0.0, 0.03200000151991844, 1.055999994277954, 0.0, 0.0, 0.0, 0.0, 0.0, 1.620312409430092E9, 2021-05-06 16:46:49.430
62.0, 162.868896484375, 146.79481506347656, 314.24322509765625, -197.49664306640625, 0.0, 0.03200000151991844, 1.055999994277954, 0.0, 0.0, 0.0, 0.0, 0.0, 1.620312409430092E9, 2021-05-06 16:46:49.430
63.0, 164.59300231933594, 146.2450408935547, 311.0792541503906, -206.0236053466797, 0.0, 0.03200000151991844, 1.055999994277954, 0.0, 0.0, 0.0, 0.0, 0.0, 1.6203124094307768E9, 2021-05-06 16:46:49.430
63.0, 190.70497131347656, 168.4413604736328, 314.1833801269531, -197.40687561035156, 0.0, 0.03200000151991844, 1.055999994277954, 0.0, 0.0, 0.0, 0.0, 0.0, 1.6203124094307768E9, 2021-05-06 16:46:49.430
64.0, 172.364501953125, 155.61349487304688, 325.0141296386719, -191.12759399414062, 0.0, 0.03200000151991844, 1.055999994277954, 0.0, 0.0, 0.0, 0.0, 0.0, 1.6203124094444487E9, 2021-05-06 16:46:49.444
64.0, 163.302734375, 158.15663146972656, 327.0448913574219, -190.18887329101562, 0.0, 0.03200000151991844, 1.055999994277954, 0.0, 0.0, 0.0, 0.0, 0.0, 1.6203124094444487E9, 2021-05-06 16:46:49.444
65.0, 175.4536590576172, 162.00498962402344, 328.3089904785156, -186.10116577148438, 0.0, 0.03200000151991844, 1.055999994277954, 0.0, 0.0, 0.0, 0.0, 0.0, 1.6203124094602032E9, 2021-05-06 16:46:49.460
65.0, 171.0518035888672, 160.4940643310547, 319.47161865234375, -183.84225463867188, 0.0, 0.03200000151991844, 1.055999994277954, 0.0, 0.0, 0.0, 0.0, 0.0, 1.6203124094602032E9, 2021-05-06 16:46:49.460
66.0, 162.64825439453125, 158.3436279296875, 320.04754638671875, -187.06605529785156, 0.0, 0.03200000151991844, 1.055999994277954, 0.0, 0.0, 0.0, 0.0, 0.0, 1.620312409460918E9, 2021-05-06 16:46:49.460
66.0, 179.7470703125, 154.24095153808594, 325.0104064941406, -183.6477813720703, 0.0, 0.03200000151991844, 1.055999994277954, 0.0, 0.0, 0.0, 0.0, 0.0, 1.620312409460918E9, 2021-05-06 16:46:49.460
67.0, 149.78672790527344, 140.43324279785156, 305.5479431152344, -185.28211975097656, 0.0, 0.03200000151991844, 1.055999994277954, 0.0, 0.0, 0.0, 0.0, 0.0, 1.6203124094746346E9, 2021-05-06 16:46:49.474
67.0, 170.5057830810547, 152.8833770751953, 312.2311706542969, -182.83248901367188, 0.0, 0.03200000151991844, 1.055999994277954, 0.0, 0.0, 0.0, 0.0, 0.0, 1.6203124094746346E9, 2021-05-06 16:46:49.474
68.0, 155.08990478515625, 152.05311584472656, 314.908935546875, -184.14894104003906, 0.0, 0.03200000151991844, 1.055999994277954, 0.0, 0.0, 0.0, 0.0, 0.0, 1.620312409490816E9, 2021-05-06 16:46:49.490
68.0, 164.08062744140625, 155.2881317138672, 320.17095947265625, -184.6201629638672, 0.0, 0.03200000151991844, 1.055999994277954, 0.0, 0.0, 0.0, 0.0, 0.0, 1.620312409490816E9, 2021-05-06 16:46:49.490
69.0, 181.59832763671875, 148.0813446044922, 315.731689453125, -187.2119140625, 0.0, 0.03200000151991844, 1.055999994277954, 0.0, 0.0, 0.0, 0.0, 0.0, 1.6203124094916143E9, 2021-05-06 16:46:49.491
69.0, 154.9066619873047, 151.59310913085938, 308.3528747558594, -199.3217010498047, 0.0, 0.03200000151991844, 1.055999994277954, 0.0, 0.0, 0.0, 0.0, 0.0, 1.6203124094916143E9, 2021-05-06 16:46:49.491
70.0, 169.9635009765625, 162.364013671875, 320.69830322265625, -191.04530334472656, 0.0, 0.03200000151991844, 1.055999994277954, 0.0, 0.0, 0.0, 0.0, 0.0, 1.620312409520576E9, 2021-05-06 16:46:49.520
70.0, 166.1525421142578, 157.105712890625, 328.6792297363281, -187.7130584716797, 0.0, 0.03200000151991844, 1.055999994277954, 0.0, 0.0, 0.0, 0.0, 0.0, 1.620312409520576E9, 2021-05-06 16:46:49.520
71.0, 171.64271545410156, 152.49815368652344, 316.7340087890625, -198.7756805419922, 0.0, 0.03200000151991844, 1.055999994277954, 0.0, 0.0, 0.0, 0.0, 0.0, 1.6203124095368707E9, 2021-05-06 16:46:49.536
71.0, 157.41612243652344, 156.3577423095703, 311.44952392578125, -201.3636932373047, 0.0, 0.03200000151991844, 1.055999994277954, 0.0, 0.0, 0.0, 0.0, 0.0, 1.6203124095368707E9, 2021-05-06 16:46:49.536
72.0, 170.99945068359375, 155.14601135253906, 323.09930419921875, -192.91900634765625, 0.0, 0.03200000151991844, 1.055999994277954, 0.0, 0.0, 0.0, 0.0, 0.0, 1.6203124095377584E9, 2021-05-06 16:46:49.537
72.0, 168.21322631835938, 154.9889373779297, 322.18304443359375, -187.8514404296875, 0.0, 0.03200000151991844, 1.055999994277954, 0.0, 0.0, 0.0, 0.0, 0.0, 1.6203124095377584E9, 2021-05-06 16:46:49.537
73.0, 174.90390014648438, 160.10137939453125, 320.660888671875, -184.10031127929688, 0.0, 0.03200000151991844, 1.055999994277954, 0.0, 0.0, 0.0, 0.0, 0.0, 1.6203124095384452E9, 2021-05-06 16:46:49.538
73.0, 173.93527221679688, 154.0913543701172, 321.0311279296875, -191.87930297851562, 0.0, 0.03200000151991844, 1.055999994277954, 0.0, 0.0, 0.0, 0.0, 0.0, 1.6203124095384452E9, 2021-05-06 16:46:49.538
74.0, 174.01380920410156, 154.9066619873047, 318.1850891113281, -188.50592041015625, 0.0, 0.03200000151991844, 1.055999994277954, 0.0, 0.0, 0.0, 0.0, 0.0, 1.6203124095502262E9, 2021-05-06 16:46:49.550
74.0, 186.25823974609375, 153.82208251953125, 325.0777282714844, -185.4840850830078, 0.0, 0.03200000151991844, 1.055999994277954, 0.0, 0.0, 0.0, 0.0, 0.0, 1.6203124095502262E9, 2021-05-06 16:46:49.550
75.0, 162.84646606445312, 156.8177490234375, 330.6277160644531, -179.30950927734375, 0.0, 0.03200000151991844, 1.055999994277954, 0.0, 0.0, 0.0, 0.0, 0.0, 1.6203124095509355E9, 2021-05-06 16:46:49.550
75.0, 167.49142456054688, 163.5944366455078, 318.7236328125, -184.26487731933594, 0.0, 0.03200000151991844, 1.055999994277954, 0.0, 0.0, 0.0, 0.0, 0.0, 1.6203124095509355E9, 2021-05-06 16:46:49.550
76.0, 168.1833038330078, 160.02658081054688, 329.7413635253906, -182.8437042236328, 0.0, 0.03200000151991844, 1.055999994277954, 0.0, 0.0, 0.0, 0.0, 0.0, 1.6203124095643928E9, 2021-05-06 16:46:49.564
76.0, 170.19537353515625, 164.03201293945312, 334.9061584472656, -176.7327117919922, 0.0, 0.03200000151991844, 1.055999994277954, 0.0, 0.0, 0.0, 0.0, 0.0, 1.6203124095643928E9, 2021-05-06 16:46:49.564
77.0, 177.86964416503906, 164.77999877929688, 331.1849670410156, -183.44583129882812, 0.0, 0.03200000151991844, 1.055999994277954, 0.0, 0.0, 0.0, 0.0, 0.0, 1.620312409580171E9, 2021-05-06 16:46:49.580
77.0, 162.5248260498047, 155.52000427246094, 318.4842834472656, -190.83587646484375, 0.0, 0.03200000151991844, 1.055999994277954, 0.0, 0.0, 0.0, 0.0, 0.0, 1.620312409580171E9, 2021-05-06 16:46:49.580
78.0, 173.09005737304688, 158.62411499023438, 319.651123046875, -183.0157470703125, 0.0, 0.03200000151991844, 1.055999994277954, 0.0, 0.0, 0.0, 0.0, 0.0, 1.6203124095808535E9, 2021-05-06 16:46:49.580
78.0, 176.42977905273438, 153.78094482421875, 328.114501953125, -185.9403533935547, 0.0, 0.03200000151991844, 1.055999994277954, 0.0, 0.0, 0.0, 0.0, 0.0, 1.6203124095808535E9, 2021-05-06 16:46:49.580
79.0, 178.3857421875, 148.35809326171875, 315.35772705078125, -184.25738525390625, 0.0, 0.03200000151991844, 1.055999994277954, 0.0, 0.0, 0.0, 0.0, 0.0, 1.620312409594472E9, 2021-05-06 16:46:49.594
79.0, 160.29959106445312, 149.5137176513672, 308.05743408203125, -190.67132568359375, 0.0, 0.03200000151991844, 1.055999994277954, 0.0, 0.0, 0.0, 0.0, 0.0, 1.620312409594472E9, 2021-05-06 16:46:49.594
80.0, 177.30865478515625, 151.45846557617188, 315.94488525390625, -188.03094482421875, 0.0, 0.03200000151991844, 1.055999994277954, 0.0, 0.0, 0.0, 0.0, 0.0, 1.620312409610212E9, 2021-05-06 16:46:49.610
80.0, 163.8113555908203, 153.86322021484375, 319.7521057128906, -193.08355712890625, 0.0, 0.03200000151991844, 1.055999994277954, 0.0, 0.0, 0.0, 0.0, 0.0, 1.620312409610212E9, 2021-05-06 16:46:49.610
81.0, 159.476806640625, 142.5724639892578, 306.6587219238281, -200.47360229492188, 0.0, 0.03200000151991844, 1.055999994277954, 0.0, 0.0, 0.0, 0.0, 0.0, 1.6203124096110008E9, 2021-05-06 16:46:49.611
81.0, 164.8697509765625, 158.69143676757812, 307.1374206542969, -198.139892578125, 0.0, 0.03200000151991844, 1.055999994277954, 0.0, 0.0, 0.0, 0.0, 0.0, 1.6203124096110008E9, 2021-05-06 16:46:49.611
82.0, 175.6369171142578, 159.66380310058594, 318.42816162109375, -193.9063262939453, 0.0, 0.03200000151991844, 1.055999994277954, 0.0, 0.0, 0.0, 0.0, 0.0, 1.6203124096244867E9, 2021-05-06 16:46:49.624
82.0, 171.84840393066406, 153.0853271484375, 326.1248779296875, -191.68856811523438, 0.0, 0.03200000151991844, 1.055999994277954, 0.0, 0.0, 0.0, 0.0, 0.0, 1.6203124096244867E9, 2021-05-06 16:46:49.624
83.0, 167.3717498779297, 154.1848602294922, 319.0751647949219, -187.80654907226562, 0.0, 0.03200000151991844, 1.055999994277954, 0.0, 0.0, 0.0, 0.0, 0.0, 1.6203124096408167E9, 2021-05-06 16:46:49.640
83.0, 178.4381103515625, 161.9002685546875, 318.2000427246094, -182.3313446044922, 0.0, 0.03200000151991844, 1.055999994277954, 0.0, 0.0, 0.0, 0.0, 0.0, 1.6203124096408167E9, 2021-05-06 16:46:49.640
84.0, 170.93960571289062, 158.7213592529297, 324.1277770996094, -178.09030151367188, 0.0, 0.03200000151991844, 1.055999994277954, 0.0, 0.0, 0.0, 0.0, 0.0, 1.6203124096715348E9, 2021-05-06 16:46:49.671
84.0, 172.81703186035156, 162.3191375732422, 333.5261535644531, -180.67831420898438, 0.0, 0.03200000151991844, 1.055999994277954, 0.0, 0.0, 0.0, 0.0, 0.0, 1.6203124096715348E9, 2021-05-06 16:46:49.671
85.0, 166.2983856201172, 149.6072235107422, 318.8694763183594, -184.01429748535156, 0.0, 0.03200000151991844, 1.055999994277954, 0.0, 0.0, 0.0, 0.0, 0.0, 1.6203124096722944E9, 2021-05-06 16:46:49.672
85.0, 174.0699005126953, 160.56138610839844, 313.0726318359375, -185.2073211669922, 0.0, 0.03200000151991844, 1.055999994277954, 0.0, 0.0, 0.0, 0.0, 0.0, 1.6203124096722944E9, 2021-05-06 16:46:49.672
86.0, 179.1225128173828, 160.01910400390625, 326.50262451171875, -184.21624755859375, 0.0, 0.03200000151991844, 1.055999994277954, 0.0, 0.0, 0.0, 0.0, 0.0, 1.6203124096730647E9, 2021-05-06 16:46:49.673
86.0, 173.77444458007812, 154.6074676513672, 328.888671875, -187.5111083984375, 0.0, 0.03200000151991844, 1.055999994277954, 0.0, 0.0, 0.0, 0.0, 0.0, 1.6203124096730647E9, 2021-05-06 16:46:49.673
87.0, 162.8838653564453, 155.3292694091797, 324.2624206542969, -186.00765991210938, 0.0, 0.03200000151991844, 1.055999994277954, 0.0, 0.0, 0.0, 0.0, 0.0, 1.6203124096737626E9, 2021-05-06 16:46:49.673
87.0, 196.38214111328125, 158.7288360595703, 327.85272216796875, -187.1707763671875, 0.0, 0.03200000151991844, 1.055999994277954, 0.0, 0.0, 0.0, 0.0, 0.0, 1.6203124096737626E9, 2021-05-06 16:46:49.673
88.0, 178.41940307617188, 158.71762084960938, 328.58575439453125, -195.63043212890625, 0.0, 0.03200000151991844, 1.055999994277954, 0.0, 0.0, 0.0, 0.0, 0.0, 1.6203124096844773E9, 2021-05-06 16:46:49.684
88.0, 164.5294189453125, 156.1333465576172, 329.0756530761719, -191.92044067382812, 0.0, 0.03200000151991844, 1.055999994277954, 0.0, 0.0, 0.0, 0.0, 0.0, 1.6203124096844773E9, 2021-05-06 16:46:49.684
89.0, 174.05494689941406, 153.19378662109375, 327.2094421386719, -186.09368896484375, 0.0, 0.03200000151991844, 1.055999994277954, 0.0, 0.0, 0.0, 0.0, 0.0, 1.6203124097001345E9, 2021-05-06 16:46:49.700
89.0, 174.08111572265625, 164.20779418945312, 318.278564453125, -190.03179931640625, 0.0, 0.03200000151991844, 1.055999994277954, 0.0, 0.0, 0.0, 0.0, 0.0, 1.6203124097001345E9, 2021-05-06 16:46:49.700
90.0, 172.65248107910156, 158.82232666015625, 321.77911376953125, -189.47828674316406, 0.0, 0.03200000151991844, 1.055999994277954, 0.0, 0.0, 0.0, 0.0, 0.0, 1.6203124097007804E9, 2021-05-06 16:46:49.700
90.0, 169.93731689453125, 157.21417236328125, 320.99749755859375, -195.1666717529297, 0.0, 0.03200000151991844, 1.055999994277954, 0.0, 0.0, 0.0, 0.0, 0.0, 1.6203124097007804E9, 2021-05-06 16:46:49.700
91.0, 172.43930053710938, 158.32118225097656, 313.61865234375, -190.21505737304688, 0.0, 0.03200000151991844, 1.055999994277954, 0.0, 0.0, 0.0, 0.0, 0.0, 1.6203124097144523E9, 2021-05-06 16:46:49.714
91.0, 190.07667541503906, 160.69601440429688, 316.4534912109375, -177.78363037109375, 0.0, 0.03200000151991844, 1.055999994277954, 0.0, 0.0, 0.0, 0.0, 0.0, 1.6203124097144523E9, 2021-05-06 16:46:49.714
92.0, 162.2854766845703, 162.9212646484375, 316.7227783203125, -178.8046112060547, 0.0, 0.03200000151991844, 1.055999994277954, 0.0, 0.0, 0.0, 0.0, 0.0, 1.62031240974649E9, 2021-05-06 16:46:49.746
92.0, 166.00294494628906, 154.06143188476562, 319.58380126953125, -188.2703094482422, 0.0, 0.03200000151991844, 1.055999994277954, 0.0, 0.0, 0.0, 0.0, 0.0, 1.62031240974649E9, 2021-05-06 16:46:49.746
93.0, 170.2065887451172, 160.5426788330078, 315.48486328125, -189.26512145996094, 0.0, 0.03200000151991844, 1.055999994277954, 0.0, 0.0, 0.0, 0.0, 0.0, 1.6203124097472239E9, 2021-05-06 16:46:49.747
93.0, 170.21780395507812, 169.98593139648438, 315.249267578125, -187.634521484375, 0.0, 0.03200000151991844, 1.055999994277954, 0.0, 0.0, 0.0, 0.0, 0.0, 1.6203124097472239E9, 2021-05-06 16:46:49.747
94.0, 162.68191528320312, 164.56307983398438, 322.79638671875, -179.26087951660156, 0.0, 0.03200000151991844, 1.055999994277954, 0.0, 0.0, 0.0, 0.0, 0.0, 1.620312409747969E9, 2021-05-06 16:46:49.747
94.0, 169.1107940673828, 161.46644592285156, 332.7519836425781, -181.42628479003906, 0.0, 0.03200000151991844, 1.055999994277954, 0.0, 0.0, 0.0, 0.0, 0.0, 1.620312409747969E9, 2021-05-06 16:46:49.747
95.0, 166.08148193359375, 161.32432556152344, 325.5489501953125, -182.22288513183594, 0.0, 0.03200000151991844, 1.055999994277954, 0.0, 0.0, 0.0, 0.0, 0.0, 1.6203124097488065E9, 2021-05-06 16:46:49.748
95.0, 167.21092224121094, 156.88507080078125, 317.0593566894531, -190.35716247558594, 0.0, 0.03200000151991844, 1.055999994277954, 0.0, 0.0, 0.0, 0.0, 0.0, 1.6203124097488065E9, 2021-05-06 16:46:49.748
96.0, 165.6326904296875, 162.4612579345703, 325.6274719238281, -179.19357299804688, 0.0, 0.03200000151991844, 1.055999994277954, 0.0, 0.0, 0.0, 0.0, 0.0, 1.6203124097594683E9, 2021-05-06 16:46:49.759
96.0, 159.32347106933594, 150.72918701171875, 319.2584228515625, -182.1742706298828, 0.0, 0.03200000151991844, 1.055999994277954, 0.0, 0.0, 0.0, 0.0, 0.0, 1.6203124097594683E9, 2021-05-06 16:46:49.759
97.0, 161.06626892089844, 152.2288818359375, 317.6278381347656, -184.6650390625, 0.0, 0.03200000151991844, 1.055999994277954, 0.0, 0.0, 0.0, 0.0, 0.0, 1.6203124097744691E9, 2021-05-06 16:46:49.774
97.0, 168.99111938476562, 155.39657592773438, 311.7711486816406, -189.42593383789062, 0.0, 0.03200000151991844, 1.055999994277954, 0.0, 0.0, 0.0, 0.0, 0.0, 1.6203124097744691E9, 2021-05-06 16:46:49.774
98.0, 186.09368896484375, 153.77346801757812, 314.1759033203125, -193.94747924804688, 0.0, 0.03200000151991844, 1.055999994277954, 0.0, 0.0, 0.0, 0.0, 0.0, 1.620312409790877E9, 2021-05-06 16:46:49.790
98.0, 158.69517517089844, 156.70181274414062, 321.1545715332031, -194.48602294921875, 0.0, 0.03200000151991844, 1.055999994277954, 0.0, 0.0, 0.0, 0.0, 0.0, 1.620312409790877E9, 2021-05-06 16:46:49.790
99.0, 157.12815856933594, 145.42974853515625, 306.3071594238281, -202.2575225830078, 0.0, 0.03200000151991844, 1.055999994277954, 0.0, 0.0, 0.0, 0.0, 0.0, 1.620312409791584E9, 2021-05-06 16:46:49.791
99.0, 165.62147521972656, 164.7500762939453, 310.92218017578125, -193.6033935546875, 0.0, 0.03200000151991844, 1.055999994277954, 0.0, 0.0, 0.0, 0.0, 0.0, 1.620312409791584E9, 2021-05-06 16:46:49.791
100.0, 170.9732666015625, 156.0548095703125, 316.1243896484375, -192.3318328857422, 0.0, 0.03200000151991844, 1.055999994277954, 0.0, 0.0, 0.0, 0.0, 0.0, 1.6203124098051305E9, 2021-05-06 16:46:49.805
100.0, 168.9312744140625, 153.44808959960938, 320.23455810546875, -184.42568969726562, 0.0, 0.03200000151991844, 1.055999994277954, 0.0, 0.0, 0.0, 0.0, 0.0, 1.6203124098051305E9, 2021-05-06 16:46:49.805
0.0, 155.26194763183594, 155.30308532714844, 312.4985656738281, -186.51441955566406, 0.0, 0.03200000151991844, 1.055999994277954, 0.0, 0.0, 0.0, 0.0, 0.0, 1.620312409805958E9, 2021-05-06 16:46:49.805
1.0, 172.86940002441406, 160.94285583496094, 312.07220458984375, -181.63758850097656, 0.0, 0.03200000151991844, 1.055999994277954, 0.0, 0.0, 0.0, 0.0, 0.0, 1.6203124098194401E9, 2021-05-06 16:46:49.819
1.0, 171.68385314941406, 151.23780822753906, 312.85009765625, -180.86343383789062, 0.0, 0.03200000151991844, 1.055999994277954, 0.0, 0.0, 0.0, 0.0, 0.0, 1.6203124098194401E9, 2021-05-06 16:46:49.819
2.0, 151.1630096435547, 151.37245178222656, 316.8705139160156, -180.05935668945312, 0.0, 0.03200000151991844, 1.055999994277954, 0.0, 0.0, 0.0, 0.0, 0.0, 1.6203124098351302E9, 2021-05-06 16:46:49.835
2.0, 157.88735961914062, 152.04937744140625, 317.192138671875, -180.62408447265625, 0.0, 0.03200000151991844, 1.055999994277954, 0.0, 0.0, 0.0, 0.0, 0.0, 1.6203124098351302E9, 2021-05-06 16:46:49.835
3.0, 161.58985900878906, 157.77142333984375, 309.1588439941406, -189.6147918701172, 0.0, 0.03200000151991844, 1.055999994277954, 0.0, 0.0, 0.0, 0.0, 0.0, 1.6203124098358507E9, 2021-05-06 16:46:49.835
3.0, 165.8795166015625, 161.2607421875, 319.1929931640625, -183.33551025390625, 0.0, 0.03200000151991844, 1.055999994277954, 0.0, 0.0, 0.0, 0.0, 0.0, 1.6203124098358507E9, 2021-05-06 16:46:49.835
4.0, 154.59249877929688, 162.16954040527344, 317.62969970703125, -190.1346435546875, 0.0, 0.03200000151991844, 1.055999994277954, 0.0, 0.0, 0.0, 0.0, 0.0, 1.6203124098657043E9, 2021-05-06 16:46:49.865
4.0, 152.3223876953125, 155.239501953125, 308.0705261230469, -187.87574768066406, 0.0, 0.03200000151991844, 1.055999994277954, 0.0, 0.0, 0.0, 0.0, 0.0, 1.6203124098657043E9, 2021-05-06 16:46:49.865
5.0, 166.3544921875, 156.5596923828125, 310.76324462890625, -183.29063415527344, 0.0, 0.03200000151991844, 1.055999994277954, 0.0, 0.0, 0.0, 0.0, 0.0, 1.6203124098662848E9, 2021-05-06 16:46:49.866
5.0, 163.23541259765625, 162.25555419921875, 322.12506103515625, -182.86053466796875, 0.0, 0.03200000151991844, 1.055999994277954, 0.0, 0.0, 0.0, 0.0, 0.0, 1.6203124098662848E9, 2021-05-06 16:46:49.866
6.0, 171.7324676513672, 154.33071899414062, 322.00537109375, -190.23562622070312, 0.0, 0.03200000151991844, 1.055999994277954, 0.0, 0.0, 0.0, 0.0, 0.0, 1.620312409880186E9, 2021-05-06 16:46:49.880
6.0, 162.33035278320312, 147.09400939941406, 307.5843200683594, -185.1306610107422, 0.0, 0.03200000151991844, 1.055999994277954, 0.0, 0.0, 0.0, 0.0, 0.0, 1.620312409880186E9, 2021-05-06 16:46:49.880
7.0, 156.75790405273438, 152.77117919921875, 304.70086669921875, -178.0921630859375, 0.0, 0.03200000151991844, 1.055999994277954, 0.0, 0.0, 0.0, 0.0, 0.0, 1.620312409880842E9, 2021-05-06 16:46:49.880
7.0, 147.43434143066406, 144.02354431152344, 301.5593566894531, -190.0523681640625, 0.0, 0.03200000151991844, 1.055999994277954, 0.0, 0.0, 0.0, 0.0, 0.0, 1.620312409880842E9, 2021-05-06 16:46:49.880
8.0, 157.1954803466797, 148.98265075683594, 308.9045104980469, -188.08517456054688, 0.0, 0.03200000151991844, 1.055999994277954, 0.0, 0.0, 0.0, 0.0, 0.0, 1.620312409895251E9, 2021-05-06 16:46:49.895
8.0, 157.51710510253906, 145.89349365234375, 310.759521484375, -187.8495635986328, 0.0, 0.03200000151991844, 1.055999994277954, 0.0, 0.0, 0.0, 0.0, 0.0, 1.620312409895251E9, 2021-05-06 16:46:49.895
9.0, 155.78927612304688, 149.6894989013672, 305.2805480957031, -190.5123748779297, 0.0, 0.03200000151991844, 1.055999994277954, 0.0, 0.0, 0.0, 0.0, 0.0, 1.6203124098959548E9, 2021-05-06 16:46:49.895
9.0, 171.40335083007812, 154.91787719726562, 317.1285705566406, -193.53794860839844, 0.0, 0.03200000151991844, 1.055999994277954, 0.0, 0.0, 0.0, 0.0, 0.0, 1.6203124098959548E9, 2021-05-06 16:46:49.895
10.0, 159.74609375, 141.5963592529297, 313.82623291015625, -191.9971160888672, 0.0, 0.03200000151991844, 1.055999994277954, 0.0, 0.0, 0.0, 0.0, 0.0, 1.620312409909423E9, 2021-05-06 16:46:49.909
10.0, 159.0167999267578, 149.93258666992188, 310.9577331542969, -187.23622131347656, 0.0, 0.03200000151991844, 1.055999994277954, 0.0, 0.0, 0.0, 0.0, 0.0, 1.620312409909423E9, 2021-05-06 16:46:49.909
11.0, 165.58033752441406, 155.61349487304688, 306.9523010253906, -183.8927459716797, 0.0, 0.03200000151991844, 1.055999994277954, 0.0, 0.0, 0.0, 0.0, 0.0, 1.6203124099251244E9, 2021-05-06 16:46:49.925
11.0, 160.9989471435547, 166.20489501953125, 321.1938171386719, -178.90371704101562, 0.0, 0.03200000151991844, 1.055999994277954, 0.0, 0.0, 0.0, 0.0, 0.0, 1.6203124099251244E9, 2021-05-06 16:46:49.925
12.0, 148.69468688964844, 152.2438507080078, 321.7211608886719, -183.8927459716797, 0.0, 0.03200000151991844, 1.055999994277954, 0.0, 0.0, 0.0, 0.0, 0.0, 1.620312409925861E9, 2021-05-06 16:46:49.925
12.0, 173.3817596435547, 156.08473205566406, 316.6012268066406, -187.06793212890625, 0.0, 0.03200000151991844, 1.055999994277954, 0.0, 0.0, 0.0, 0.0, 0.0, 1.620312409925861E9, 2021-05-06 16:46:49.925
13.0, 162.96987915039062, 154.5177001953125, 306.1407165527344, -193.49307250976562, 0.0, 0.03200000151991844, 1.055999994277954, 0.0, 0.0, 0.0, 0.0, 0.0, 1.6203124099394603E9, 2021-05-06 16:46:49.939
13.0, 161.42904663085938, 165.4120330810547, 314.8285217285156, -192.9021759033203, 0.0, 0.03200000151991844, 1.055999994277954, 0.0, 0.0, 0.0, 0.0, 0.0, 1.6203124099394603E9, 2021-05-06 16:46:49.939
14.0, 160.32203674316406, 153.9268035888672, 322.39434814453125, -199.26373291015625, 0.0, 0.03200000151991844, 1.055999994277954, 0.0, 0.0, 0.0, 0.0, 0.0, 1.620312409955073E9, 2021-05-06 16:46:49.955
14.0, 158.56053161621094, 159.3646240234375, 311.3017883300781, -196.06613159179688, 0.0, 0.03200000151991844, 1.055999994277954, 0.0, 0.0, 0.0, 0.0, 0.0, 1.620312409955073E9, 2021-05-06 16:46:49.955
15.0, 192.458984375, 163.58322143554688, 309.3420715332031, -192.9320831298828, 0.0, 0.03200000151991844, 1.055999994277954, 0.0, 0.0, 0.0, 0.0, 0.0, 1.620312409955798E9, 2021-05-06 16:46:49.955
15.0, 143.82159423828125, 155.8752899169922, 311.4364318847656, -189.2445526123047, 0.0, 0.03200000151991844, 1.055999994277954, 0.0, 0.0, 0.0, 0.0, 0.0, 1.620312409955798E9, 2021-05-06 16:46:49.955
16.0, 160.1163330078125, 153.90809631347656, 315.7373046875, -178.3502197265625, 0.0, 0.03200000151991844, 1.055999994277954, 0.0, 0.0, 0.0, 0.0, 0.0, 1.620312409969408E9, 2021-05-06 16:46:49.969
16.0, 147.7484893798828, 164.83982849121094, 305.841552734375, -190.7292938232422, 0.0, 0.03200000151991844, 1.055999994277954, 0.0, 0.0, 0.0, 0.0, 0.0, 1.620312409969408E9, 2021-05-06 16:46:49.969
17.0, 173.07135009765625, 144.74160766601562, 308.7960510253906, -184.58837890625, 0.0, 0.03200000151991844, 1.055999994277954, 0.0, 0.0, 0.0, 0.0, 0.0, 1.6203124099851112E9, 2021-05-06 16:46:49.985
17.0, 157.80882263183594, 147.26229858398438, 308.12286376953125, -183.1410369873047, 0.0, 0.03200000151991844, 1.055999994277954, 0.0, 0.0, 0.0, 0.0, 0.0, 1.6203124099851112E9, 2021-05-06 16:46:49.985
18.0, 158.5119171142578, 151.71652221679688, 318.7142639160156, -185.0782928466797, 0.0, 0.03200000151991844, 1.055999994277954, 0.0, 0.0, 0.0, 0.0, 0.0, 1.6203124099858592E9, 2021-05-06 16:46:49.985
18.0, 156.15577697753906, 145.66909790039062, 309.30841064453125, -190.92376708984375, 0.0, 0.03200000151991844, 1.055999994277954, 0.0, 0.0, 0.0, 0.0, 0.0, 1.6203124099858592E9, 2021-05-06 16:46:49.985
19.0, 156.10342407226562, 151.25277709960938, 306.7129211425781, -195.48643493652344, 0.0, 0.03200000151991844, 1.055999994277954, 0.0, 0.0, 0.0, 0.0, 0.0, 1.6203124099994316E9, 2021-05-06 16:46:49.999
19.0, 161.8142547607422, 163.14566040039062, 320.7450256347656, -185.66546630859375, 0.0, 0.03200000151991844, 1.055999994277954, 0.0, 0.0, 0.0, 0.0, 0.0, 1.6203124099994316E9, 2021-05-06 16:46:49.999
20.0, 173.0077667236328, 162.60711669921875, 329.750732421875, -184.98480224609375, 0.0, 0.03200000151991844, 1.055999994277954, 0.0, 0.0, 0.0, 0.0, 0.0, 1.6203124100316377E9, 2021-05-06 16:46:50.031
20.0, 153.03671264648438, 159.5291748046875, 315.84576416015625, -200.59140014648438, 0.0, 0.03200000151991844, 1.055999994277954, 0.0, 0.0, 0.0, 0.0, 0.0, 1.6203124100316377E9, 2021-05-06 16:46:50.031
21.0, 157.77890014648438, 157.6180877685547, 309.56646728515625, -194.1699981689453, 0.0, 0.03200000151991844, 1.055999994277954, 0.0, 0.0, 0.0, 0.0, 0.0, 1.6203124100323384E9, 2021-05-06 16:46:50.032
21.0, 165.0081329345703, 166.20489501953125, 321.5341491699219, -188.07395935058594, 0.0, 0.03200000151991844, 1.055999994277954, 0.0, 0.0, 0.0, 0.0, 0.0, 1.6203124100323384E9, 2021-05-06 16:46:50.032
22.0, 156.31285095214844, 158.8859100341797, 320.4308776855469, -191.94100952148438, 0.0, 0.03200000151991844, 1.055999994277954, 0.0, 0.0, 0.0, 0.0, 0.0, 1.6203124100329883E9, 2021-05-06 16:46:50.032
22.0, 155.43023681640625, 158.126708984375, 313.8748474121094, -192.65533447265625, 0.0, 0.03200000151991844, 1.055999994277954, 0.0, 0.0, 0.0, 0.0, 0.0, 1.6203124100329883E9, 2021-05-06 16:46:50.032
23.0, 166.3956298828125, 163.19053649902344, 317.0238342285156, -190.18699645996094, 0.0, 0.03200000151991844, 1.055999994277954, 0.0, 0.0, 0.0, 0.0, 0.0, 1.6203124100337632E9, 2021-05-06 16:46:50.033
23.0, 179.85926818847656, 166.1787109375, 324.9374694824219, -185.42236328125, 0.0, 0.03200000151991844, 1.055999994277954, 0.0, 0.0, 0.0, 0.0, 0.0, 1.6203124100337632E9, 2021-05-06 16:46:50.033
24.0, 164.9557647705078, 155.63967895507812, 322.8244323730469, -183.80673217773438, 0.0, 0.03200000151991844, 1.055999994277954, 0.0, 0.0, 0.0, 0.0, 0.0, 1.6203124100444665E9, 2021-05-06 16:46:50.044
24.0, 168.0860595703125, 159.33470153808594, 321.0479736328125, -185.59814453125, 0.0, 0.03200000151991844, 1.055999994277954, 0.0, 0.0, 0.0, 0.0, 0.0, 1.6203124100444665E9, 2021-05-06 16:46:50.044
25.0, 164.1928253173828, 159.0579376220703, 309.8282775878906, -183.9750213623047, 0.0, 0.03200000151991844, 1.055999994277954, 0.0, 0.0, 0.0, 0.0, 0.0, 1.62031241005958E9, 2021-05-06 16:46:50.059
25.0, 156.31285095214844, 149.21826171875, 312.34521484375, -185.84498596191406, 0.0, 0.03200000151991844, 1.055999994277954, 0.0, 0.0, 0.0, 0.0, 0.0, 1.62031241005958E9, 2021-05-06 16:46:50.059
26.0, 150.55715942382812, 148.0028076171875, 310.2247009277344, -185.28025817871094, 0.0, 0.03200000151991844, 1.055999994277954, 0.0, 0.0, 0.0, 0.0, 0.0, 1.6203124100752528E9, 2021-05-06 16:46:50.075
26.0, 187.51858520507812, 143.95997619628906, 313.6691589355469, -185.44107055664062, 0.0, 0.03200000151991844, 1.055999994277954, 0.0, 0.0, 0.0, 0.0, 0.0, 1.6203124100752528E9, 2021-05-06 16:46:50.075
27.0, 161.02513122558594, 152.53555297851562, 300.8824462890625, -188.4404754638672, 0.0, 0.03200000151991844, 1.055999994277954, 0.0, 0.0, 0.0, 0.0, 0.0, 1.6203124100760274E9, 2021-05-06 16:46:50.076
27.0, 160.60252380371094, 161.1373291015625, 317.2781677246094, -179.3674774169922, 0.0, 0.03200000151991844, 1.055999994277954, 0.0, 0.0, 0.0, 0.0, 0.0, 1.6203124100760274E9, 2021-05-06 16:46:50.076
28.0, 154.76828002929688, 157.9097900390625, 317.5399475097656, -184.6743927001953, 0.0, 0.03200000151991844, 1.055999994277954, 0.0, 0.0, 0.0, 0.0, 0.0, 1.6203124100894866E9, 2021-05-06 16:46:50.089
28.0, 175.5060272216797, 158.87843322753906, 315.77471923828125, -183.1036376953125, 0.0, 0.03200000151991844, 1.055999994277954, 0.0, 0.0, 0.0, 0.0, 0.0, 1.6203124100894866E9, 2021-05-06 16:46:50.089
29.0, 159.92559814453125, 160.6174774169922, 311.0362548828125, -192.89842224121094, 0.0, 0.03200000151991844, 1.055999994277954, 0.0, 0.0, 0.0, 0.0, 0.0, 1.6203124101055608E9, 2021-05-06 16:46:50.105
29.0, 157.3263702392578, 159.64137268066406, 318.9985046386719, -193.04428100585938, 0.0, 0.03200000151991844, 1.055999994277954, 0.0, 0.0, 0.0, 0.0, 0.0, 1.6203124101055608E9, 2021-05-06 16:46:50.105
30.0, 165.74488830566406, 159.92559814453125, 326.7999267578125, -189.59609985351562, 0.0, 0.03200000151991844, 1.055999994277954, 0.0, 0.0, 0.0, 0.0, 0.0, 1.6203124101201284E9, 2021-05-06 16:46:50.120
30.0, 159.49925231933594, 156.8177490234375, 313.4784240722656, -197.58078002929688, 0.0, 0.03200000151991844, 1.055999994277954, 0.0, 0.0, 0.0, 0.0, 0.0, 1.6203124101201284E9, 2021-05-06 16:46:50.120
31.0, 163.95721435546875, 165.1128387451172, 308.94940185546875, -194.4916229248047, 0.0, 0.03200000151991844, 1.055999994277954, 0.0, 0.0, 0.0, 0.0, 0.0, 1.6203124101208775E9, 2021-05-06 16:46:50.120
31.0, 161.34677124023438, 162.59588623046875, 320.68145751953125, -195.07879638671875, 0.0, 0.03200000151991844, 1.055999994277954, 0.0, 0.0, 0.0, 0.0, 0.0, 1.6203124101208775E9, 2021-05-06 16:46:50.120
32.0, 167.2782440185547, 173.8567352294922, 323.811767578125, -191.09579467773438, 0.0, 0.03200000151991844, 1.055999994277954, 0.0, 0.0, 0.0, 0.0, 0.0, 1.6203124101351328E9, 2021-05-06 16:46:50.135
32.0, 161.9975128173828, 166.24603271484375, 315.77471923828125, -193.16021728515625, 0.0, 0.03200000151991844, 1.055999994277954, 0.0, 0.0, 0.0, 0.0, 0.0, 1.6203124101351328E9, 2021-05-06 16:46:50.135
33.0, 167.67466735839844, 163.57948303222656, 310.98016357421875, -187.68875122070312, 0.0, 0.03200000151991844, 1.055999994277954, 0.0, 0.0, 0.0, 0.0, 0.0, 1.6203124101358361E9, 2021-05-06 16:46:50.135
33.0, 173.1835479736328, 163.09329223632812, 320.40472412109375, -182.0452423095703, 0.0, 0.03200000151991844, 1.055999994277954, 0.0, 0.0, 0.0, 0.0, 0.0, 1.6203124101358361E9, 2021-05-06 16:46:50.135
34.0, 157.50588989257812, 158.36231994628906, 322.6897888183594, -185.46725463867188, 0.0, 0.03200000151991844, 1.055999994277954, 0.0, 0.0, 0.0, 0.0, 0.0, 1.620312410149461E9, 2021-05-06 16:46:50.149
34.0, 161.56741333007812, 148.2945098876953, 309.8170471191406, -188.80323791503906, 0.0, 0.03200000151991844, 1.055999994277954, 0.0, 0.0, 0.0, 0.0, 0.0, 1.620312410149461E9, 2021-05-06 16:46:50.149
35.0, 171.3173370361328, 147.54278564453125, 307.5132751464844, -188.8518524169922, 0.0, 0.03200000151991844, 1.055999994277954, 0.0, 0.0, 0.0, 0.0, 0.0, 1.620312410165311E9, 2021-05-06 16:46:50.165
35.0, 175.9884796142578, 144.42372131347656, 314.1067199707031, -183.35794067382812, 0.0, 0.03200000151991844, 1.055999994277954, 0.0, 0.0, 0.0, 0.0, 0.0, 1.620312410165311E9, 2021-05-06 16:46:50.165
36.0, 152.00074768066406, 143.6345977783203, 316.6461181640625, -181.92556762695312, 0.0, 0.03200000151991844, 1.055999994277954, 0.0, 0.0, 0.0, 0.0, 0.0, 1.6203124101659007E9, 2021-05-06 16:46:50.165
36.0, 182.4547576904297, 143.3354034423828, 310.2396545410156, -189.97756958007812, 0.0, 0.03200000151991844, 1.055999994277954, 0.0, 0.0, 0.0, 0.0, 0.0, 1.6203124101659007E9, 2021-05-06 16:46:50.165
37.0, 152.9619140625, 149.135986328125, 309.2747802734375, -187.04922485351562, 0.0, 0.03200000151991844, 1.055999994277954, 0.0, 0.0, 0.0, 0.0, 0.0, 1.620312410179521E9, 2021-05-06 16:46:50.179
37.0, 154.734619140625, 150.6319580078125, 310.8904113769531, -188.20484924316406, 0.0, 0.03200000151991844, 1.055999994277954, 0.0, 0.0, 0.0, 0.0, 0.0, 1.620312410179521E9, 2021-05-06 16:46:50.179
38.0, 165.4569091796875, 145.66162109375, 320.12420654296875, -180.58294677734375, 0.0, 0.03200000151991844, 1.055999994277954, 0.0, 0.0, 0.0, 0.0, 0.0, 1.6203124102264545E9, 2021-05-06 16:46:50.226
38.0, 161.59359741210938, 148.8480224609375, 313.1829528808594, -180.78863525390625, 0.0, 0.03200000151991844, 1.055999994277954, 0.0, 0.0, 0.0, 0.0, 0.0, 1.6203124102264545E9, 2021-05-06 16:46:50.226
39.0, 159.19631958007812, 147.49417114257812, 311.945068359375, -187.5054931640625, 0.0, 0.03200000151991844, 1.055999994277954, 0.0, 0.0, 0.0, 0.0, 0.0, 1.6203124102271454E9, 2021-05-06 16:46:50.227
39.0, 172.51036071777344, 155.7406463623047, 323.131103515625, -188.13754272460938, 0.0, 0.03200000151991844, 1.055999994277954, 0.0, 0.0, 0.0, 0.0, 0.0, 1.6203124102271454E9, 2021-05-06 16:46:50.227
40.0, 165.1203155517578, 152.9095458984375, 317.4464416503906, -192.27386474609375, 0.0, 0.03200000151991844, 1.055999994277954, 0.0, 0.0, 0.0, 0.0, 0.0, 1.6203124102278848E9, 2021-05-06 16:46:50.227
40.0, 156.2567596435547, 149.0686798095703, 310.0900573730469, -198.29136657714844, 0.0, 0.03200000151991844, 1.055999994277954, 0.0, 0.0, 0.0, 0.0, 0.0, 1.6203124102278848E9, 2021-05-06 16:46:50.227
41.0, 158.20150756835938, 156.58213806152344, 313.29888916015625, -193.04428100585938, 0.0, 0.03200000151991844, 1.055999994277954, 0.0, 0.0, 0.0, 0.0, 0.0, 1.6203124102419007E9, 2021-05-06 16:46:50.241
41.0, 158.5081787109375, 157.7826385498047, 316.8966979980469, -191.39125061035156, 0.0, 0.03200000151991844, 1.055999994277954, 0.0, 0.0, 0.0, 0.0, 0.0, 1.6203124102419007E9, 2021-05-06 16:46:50.241
42.0, 167.21092224121094, 164.5742950439453, 326.19781494140625, -187.52044677734375, 0.0, 0.03200000151991844, 1.055999994277954, 0.0, 0.0, 0.0, 0.0, 0.0, 1.6203124102427824E9, 2021-05-06 16:46:50.242
42.0, 164.735107421875, 150.42251586914062, 313.7402038574219, -193.11534118652344, 0.0, 0.03200000151991844, 1.055999994277954, 0.0, 0.0, 0.0, 0.0, 0.0, 1.6203124102427824E9, 2021-05-06 16:46:50.242
43.0, 168.88265991210938, 152.64027404785156, 311.23822021484375, -196.10726928710938, 0.0, 0.03200000151991844, 1.055999994277954, 0.0, 0.0, 0.0, 0.0, 0.0, 1.6203124102434213E9, 2021-05-06 16:46:50.243
43.0, 162.1957244873047, 161.9825439453125, 322.1923828125, -186.5331268310547, 0.0, 0.03200000151991844, 1.055999994277954, 0.0, 0.0, 0.0, 0.0, 0.0, 1.6203124102434213E9, 2021-05-06 16:46:50.243
44.0, 155.57235717773438, 145.6653594970703, 317.25946044921875, -182.32199096679688, 0.0, 0.03200000151991844, 1.055999994277954, 0.0, 0.0, 0.0, 0.0, 0.0, 1.6203124102552006E9, 2021-05-06 16:46:50.255
44.0, 159.37957763671875, 144.33021545410156, 312.9510803222656, -182.5912628173828, 0.0, 0.03200000151991844, 1.055999994277954, 0.0, 0.0, 0.0, 0.0, 0.0, 1.6203124102552006E9, 2021-05-06 16:46:50.255
45.0, 155.69577026367188, 145.52699279785156, 304.4652404785156, -183.64218139648438, 0.0, 0.03200000151991844, 1.055999994277954, 0.0, 0.0, 0.0, 0.0, 0.0, 1.62031241025593E9, 2021-05-06 16:46:50.255
45.0, 165.36715698242188, 143.44386291503906, 311.7879943847656, -184.9324493408203, 0.0, 0.03200000151991844, 1.055999994277954, 0.0, 0.0, 0.0, 0.0, 0.0, 1.62031241025593E9, 2021-05-06 16:46:50.255
46.0, 156.79530334472656, 146.44700622558594, 318.1794738769531, -187.19508361816406, 0.0, 0.03200000151991844, 1.055999994277954, 0.0, 0.0, 0.0, 0.0, 0.0, 1.62031241026942E9, 2021-05-06 16:46:50.269
46.0, 156.8439178466797, 152.28872680664062, 313.8748474121094, -188.07395935058594, 0.0, 0.03200000151991844, 1.055999994277954, 0.0, 0.0, 0.0, 0.0, 0.0, 1.62031241026942E9, 2021-05-06 16:46:50.269
47.0, 169.49974060058594, 147.0266876220703, 311.82537841796875, -192.3785858154297, 0.0, 0.03200000151991844, 1.055999994277954, 0.0, 0.0, 0.0, 0.0, 0.0, 1.6203124102851827E9, 2021-05-06 16:46:50.285
47.0, 168.01499938964844, 147.4418182373047, 308.1266174316406, -196.33914184570312, 0.0, 0.03200000151991844, 1.055999994277954, 0.0, 0.0, 0.0, 0.0, 0.0, 1.6203124102851827E9, 2021-05-06 16:46:50.285
48.0, 152.79734802246094, 147.92425537109375, 315.2623596191406, -195.7295379638672, 0.0, 0.03200000151991844, 1.055999994277954, 0.0, 0.0, 0.0, 0.0, 0.0, 1.6203124102859356E9, 2021-05-06 16:46:50.285
48.0, 175.50228881835938, 155.00389099121094, 318.6843566894531, -189.2445526123047, 0.0, 0.03200000151991844, 1.055999994277954, 0.0, 0.0, 0.0, 0.0, 0.0, 1.6203124102859356E9, 2021-05-06 16:46:50.285
49.0, 154.33071899414062, 153.05166625976562, 309.16632080078125, -198.8710479736328, 0.0, 0.03200000151991844, 1.055999994277954, 0.0, 0.0, 0.0, 0.0, 0.0, 1.6203124102994049E9, 2021-05-06 16:46:50.299
49.0, 148.96022033691406, 152.43458557128906, 308.55670166015625, -195.60986328125, 0.0, 0.03200000151991844, 1.055999994277954, 0.0, 0.0, 0.0, 0.0, 0.0, 1.6203124102994049E9, 2021-05-06 16:46:50.299
50.0, 161.8179931640625, 164.43966674804688, 323.59857177734375, -192.18785095214844, 0.0, 0.03200000151991844, 1.055999994277954, 0.0, 0.0, 0.0, 0.0, 0.0, 1.6203124103159244E9, 2021-05-06 16:46:50.315
50.0, 159.60023498535156, 149.66331481933594, 314.5928955078125, -188.33201599121094, 0.0, 0.03200000151991844, 1.055999994277954, 0.0, 0.0, 0.0, 0.0, 0.0, 1.6203124103159244E9, 2021-05-06 16:46:50.315
51.0, 173.40794372558594, 154.18112182617188, 310.4827575683594, -186.865966796875, 0.0, 0.03200000151991844, 1.055999994277954, 0.0, 0.0, 0.0, 0.0, 0.0, 1.6203124103166091E9, 2021-05-06 16:46:50.316
51.0, 155.78179931640625, 152.187744140625, 313.6691589355469, -189.14356994628906, 0.0, 0.03200000151991844, 1.055999994277954, 0.0, 0.0, 0.0, 0.0, 0.0, 1.6203124103166091E9, 2021-05-06 16:46:50.316
52.0, 157.55824279785156, 152.22140502929688, 315.14642333984375, -187.5840301513672, 0.0, 0.03200000151991844, 1.055999994277954, 0.0, 0.0, 0.0, 0.0, 0.0, 1.620312410329458E9, 2021-05-06 16:46:50.329
52.0, 153.51541137695312, 147.7484893798828, 308.1378479003906, -185.7252960205078, 0.0, 0.03200000151991844, 1.055999994277954, 0.0, 0.0, 0.0, 0.0, 0.0, 1.620312410329458E9, 2021-05-06 16:46:50.329
53.0, 153.82955932617188, 146.58163452148438, 302.1166076660156, -190.84149169921875, 0.0, 0.03200000151991844, 1.055999994277954, 0.0, 0.0, 0.0, 0.0, 0.0, 1.6203124103453069E9, 2021-05-06 16:46:50.345
53.0, 160.89797973632812, 150.2916259765625, 307.77880859375, -189.24081420898438, 0.0, 0.03200000151991844, 1.055999994277954, 0.0, 0.0, 0.0, 0.0, 0.0, 1.6203124103453069E9, 2021-05-06 16:46:50.345
54.0, 154.60372924804688, 144.0572052001953, 312.7341613769531, -184.6556854248047, 0.0, 0.03200000151991844, 1.055999994277954, 0.0, 0.0, 0.0, 0.0, 0.0, 1.6203124103459616E9, 2021-05-06 16:46:50.345
54.0, 171.4407501220703, 147.16131591796875, 314.3498229980469, -185.91976928710938, 0.0, 0.03200000151991844, 1.055999994277954, 0.0, 0.0, 0.0, 0.0, 0.0, 1.6203124103459616E9, 2021-05-06 16:46:50.345
55.0, 156.65318298339844, 139.19534301757812, 297.3856201171875, -191.75027465820312, 0.0, 0.03200000151991844, 1.055999994277954, 0.0, 0.0, 0.0, 0.0, 0.0, 1.620312410359427E9, 2021-05-06 16:46:50.359
55.0, 158.62037658691406, 151.3836669921875, 306.2903137207031, -187.55784606933594, 0.0, 0.03200000151991844, 1.055999994277954, 0.0, 0.0, 0.0, 0.0, 0.0, 1.620312410359427E9, 2021-05-06 16:46:50.359
56.0, 157.9172821044922, 141.02415466308594, 311.2344665527344, -182.94654846191406, 0.0, 0.03200000151991844, 1.055999994277954, 0.0, 0.0, 0.0, 0.0, 0.0, 1.6203124103752677E9, 2021-05-06 16:46:50.375
56.0, 153.49298095703125, 150.80398559570312, 309.8955993652344, -178.0136260986328, 0.0, 0.03200000151991844, 1.055999994277954, 0.0, 0.0, 0.0, 0.0, 0.0, 1.6203124103752677E9, 2021-05-06 16:46:50.375
57.0, 148.94898986816406, 138.5408477783203, 294.973388671875, -189.9139862060547, 0.0, 0.03200000151991844, 1.055999994277954, 0.0, 0.0, 0.0, 0.0, 0.0, 1.6203124103760965E9, 2021-05-06 16:46:50.376
57.0, 163.901123046875, 146.63026428222656, 314.3086853027344, -185.0895233154297, 0.0, 0.03200000151991844, 1.055999994277954, 0.0, 0.0, 0.0, 0.0, 0.0, 1.6203124103760965E9, 2021-05-06 16:46:50.376
58.0, 152.09425354003906, 151.66416931152344, 318.38140869140625, -187.49801635742188, 0.0, 0.03200000151991844, 1.055999994277954, 0.0, 0.0, 0.0, 0.0, 0.0, 1.6203124103894064E9, 2021-05-06 16:46:50.389
58.0, 154.0277862548828, 155.23202514648438, 308.09295654296875, -185.32513427734375, 0.0, 0.03200000151991844, 1.055999994277954, 0.0, 0.0, 0.0, 0.0, 0.0, 1.6203124103894064E9, 2021-05-06 16:46:50.389
59.0, 167.1548309326172, 148.70590209960938, 307.3113098144531, -196.11474609375, 0.0, 0.03200000151991844, 1.055999994277954, 0.0, 0.0, 0.0, 0.0, 0.0, 1.6203124104051108E9, 2021-05-06 16:46:50.405
59.0, 166.9827880859375, 153.7958984375, 312.2666931152344, -194.3869171142578, 0.0, 0.03200000151991844, 1.055999994277954, 0.0, 0.0, 0.0, 0.0, 0.0, 1.6203124104051108E9, 2021-05-06 16:46:50.405
60.0, 147.08653259277344, 151.8997802734375, 315.3558349609375, -196.69068908691406, 0.0, 0.03200000151991844, 1.055999994277954, 0.0, 0.0, 0.0, 0.0, 0.0, 1.6203124104058924E9, 2021-05-06 16:46:50.405
60.0, 149.58103942871094, 159.16639709472656, 312.7752990722656, -187.23248291015625, 0.0, 0.03200000151991844, 1.055999994277954, 0.0, 0.0, 0.0, 0.0, 0.0, 1.6203124104058924E9, 2021-05-06 16:46:50.405
61.0, 147.91677856445312, 151.75018310546875, 305.11224365234375, -193.92315673828125, 0.0, 0.03200000151991844, 1.055999994277954, 0.0, 0.0, 0.0, 0.0, 0.0, 1.620312410419515E9, 2021-05-06 16:46:50.419
61.0, 155.9650421142578, 153.99038696289062, 315.6064147949219, -186.4807586669922, 0.0, 0.03200000151991844, 1.055999994277954, 0.0, 0.0, 0.0, 0.0, 0.0, 1.620312410419515E9, 2021-05-06 16:46:50.419
62.0, 155.73316955566406, 151.54074096679688, 321.2125244140625, -186.1404266357422, 0.0, 0.03200000151991844, 1.055999994277954, 0.0, 0.0, 0.0, 0.0, 0.0, 1.6203124104351635E9, 2021-05-06 16:46:50.435
62.0, 161.27944946289062, 148.32069396972656, 311.2120361328125, -184.48739624023438, 0.0, 0.03200000151991844, 1.055999994277954, 0.0, 0.0, 0.0, 0.0, 0.0, 1.6203124104351635E9, 2021-05-06 16:46:50.435
63.0, 137.58343505859375, 150.85633850097656, 299.6370544433594, -188.8705596923828, 0.0, 0.03200000151991844, 1.055999994277954, 0.0, 0.0, 0.0, 0.0, 0.0, 1.620312410435877E9, 2021-05-06 16:46:50.435
63.0, 157.76394653320312, 150.5347137451172, 314.23388671875, -183.6870574951172, 0.0, 0.03200000151991844, 1.055999994277954, 0.0, 0.0, 0.0, 0.0, 0.0, 1.620312410435877E9, 2021-05-06 16:46:50.435
64.0, 163.7664794921875, 145.4521942138672, 313.6841125488281, -188.2721710205078, 0.0, 0.03200000151991844, 1.055999994277954, 0.0, 0.0, 0.0, 0.0, 0.0, 1.6203124104494183E9, 2021-05-06 16:46:50.449
64.0, 137.445068359375, 146.74246215820312, 305.3441467285156, -190.53482055664062, 0.0, 0.03200000151991844, 1.055999994277954, 0.0, 0.0, 0.0, 0.0, 0.0, 1.6203124104494183E9, 2021-05-06 16:46:50.449
65.0, 154.34193420410156, 148.67971801757812, 302.4756164550781, -183.9451141357422, 0.0, 0.03200000151991844, 1.055999994277954, 0.0, 0.0, 0.0, 0.0, 0.0, 1.620312410465297E9, 2021-05-06 16:46:50.465
65.0, 150.6992645263672, 151.45472717285156, 310.4378662109375, -188.7845458984375, 0.0, 0.03200000151991844, 1.055999994277954, 0.0, 0.0, 0.0, 0.0, 0.0, 1.620312410465297E9, 2021-05-06 16:46:50.465
66.0, 165.38584899902344, 145.0183563232422, 317.9962158203125, -192.49078369140625, 0.0, 0.03200000151991844, 1.055999994277954, 0.0, 0.0, 0.0, 0.0, 0.0, 1.620312410465902E9, 2021-05-06 16:46:50.465
66.0, 162.67068481445312, 142.83425903320312, 314.1590881347656, -197.9659881591797, 0.0, 0.03200000151991844, 1.055999994277954, 0.0, 0.0, 0.0, 0.0, 0.0, 1.620312410465902E9, 2021-05-06 16:46:50.465
67.0, 151.3799285888672, 147.05661010742188, 305.6956787109375, -192.53192138671875, 0.0, 0.03200000151991844, 1.055999994277954, 0.0, 0.0, 0.0, 0.0, 0.0, 1.6203124104958675E9, 2021-05-06 16:46:50.495
67.0, 165.18016052246094, 155.0300750732422, 316.91912841796875, -192.30752563476562, 0.0, 0.03200000151991844, 1.055999994277954, 0.0, 0.0, 0.0, 0.0, 0.0, 1.6203124104958675E9, 2021-05-06 16:46:50.495
68.0, 158.0481719970703, 148.35061645507812, 316.07391357421875, -194.18121337890625, 0.0, 0.03200000151991844, 1.055999994277954, 0.0, 0.0, 0.0, 0.0, 0.0, 1.6203124104966004E9, 2021-05-06 16:46:50.496
68.0, 154.88795471191406, 150.72171020507812, 312.1058654785156, -194.68983459472656, 0.0, 0.03200000151991844, 1.055999994277954, 0.0, 0.0, 0.0, 0.0, 0.0, 1.6203124104966004E9, 2021-05-06 16:46:50.496
69.0, 160.93911743164062, 145.55690002441406, 301.9034118652344, -202.465087890625, 0.0, 0.03200000151991844, 1.055999994277954, 0.0, 0.0, 0.0, 0.0, 0.0, 1.6203124104973009E9, 2021-05-06 16:46:50.497
69.0, 167.19970703125, 148.63858032226562, 308.32110595703125, -195.03765869140625, 0.0, 0.03200000151991844, 1.055999994277954, 0.0, 0.0, 0.0, 0.0, 0.0, 1.6203124104973009E9, 2021-05-06 16:46:50.497
70.0, 159.4394073486328, 153.28353881835938, 320.66650390625, -191.47726440429688, 0.0, 0.03200000151991844, 1.055999994277954, 0.0, 0.0, 0.0, 0.0, 0.0, 1.6203124105095282E9, 2021-05-06 16:46:50.509
70.0, 155.5424346923828, 153.9305419921875, 317.05377197265625, -190.32164001464844, 0.0, 0.03200000151991844, 1.055999994277954, 0.0, 0.0, 0.0, 0.0, 0.0, 1.6203124105095282E9, 2021-05-06 16:46:50.509
71.0, 160.1163330078125, 159.22250366210938, 311.4663391113281, -194.0690155029297, 0.0, 0.03200000151991844, 1.055999994277954, 0.0, 0.0, 0.0, 0.0, 0.0, 1.6203124105252025E9, 2021-05-06 16:46:50.525
71.0, 158.807373046875, 154.02403259277344, 313.2764587402344, -194.8095245361328, 0.0, 0.03200000151991844, 1.055999994277954, 0.0, 0.0, 0.0, 0.0, 0.0, 1.6203124105252025E9, 2021-05-06 16:46:50.525
72.0, 161.49635314941406, 152.16905212402344, 319.1630554199219, -192.5207061767578, 0.0, 0.03200000151991844, 1.055999994277954, 0.0, 0.0, 0.0, 0.0, 0.0, 1.6203124105259368E9, 2021-05-06 16:46:50.525
72.0, 176.6167755126953, 154.8318634033203, 313.89727783203125, -189.237060546875, 0.0, 0.03200000151991844, 1.055999994277954, 0.0, 0.0, 0.0, 0.0, 0.0, 1.6203124105259368E9, 2021-05-06 16:46:50.525
73.0, 143.0063018798828, 151.0994415283203, 301.22650146484375, -188.92665100097656, 0.0, 0.03200000151991844, 1.055999994277954, 0.0, 0.0, 0.0, 0.0, 0.0, 1.6203124105394368E9, 2021-05-06 16:46:50.539
73.0, 161.37294006347656, 155.8790283203125, 308.89703369140625, -179.63674926757812, 0.0, 0.03200000151991844, 1.055999994277954, 0.0, 0.0, 0.0, 0.0, 0.0, 1.6203124105394368E9, 2021-05-06 16:46:50.539
74.0, 163.35882568359375, 146.20016479492188, 309.8619384765625, -190.6806640625, 0.0, 0.03200000151991844, 1.055999994277954, 0.0, 0.0, 0.0, 0.0, 0.0, 1.6203124105549016E9, 2021-05-06 16:46:50.554
74.0, 147.5240936279297, 146.2637481689453, 303.9454040527344, -191.0733642578125, 0.0, 0.03200000151991844, 1.055999994277954, 0.0, 0.0, 0.0, 0.0, 0.0, 1.6203124105549016E9, 2021-05-06 16:46:50.554
75.0, 166.6985626220703, 159.7086944580078, 306.2491760253906, -186.54434204101562, 0.0, 0.03200000151991844, 1.055999994277954, 0.0, 0.0, 0.0, 0.0, 0.0, 1.620312410570502E9, 2021-05-06 16:46:50.570
75.0, 169.828857421875, 153.09654235839844, 310.99139404296875, -188.61997985839844, 0.0, 0.03200000151991844, 1.055999994277954, 0.0, 0.0, 0.0, 0.0, 0.0, 1.620312410570502E9, 2021-05-06 16:46:50.570
76.0, 164.6490936279297, 153.89688110351562, 320.99188232421875, -193.485595703125, 0.0, 0.03200000151991844, 1.055999994277954, 0.0, 0.0, 0.0, 0.0, 0.0, 1.6203124105859451E9, 2021-05-06 16:46:50.585
76.0, 160.02658081054688, 150.04478454589844, 310.41168212890625, -198.2838897705078, 0.0, 0.03200000151991844, 1.055999994277954, 0.0, 0.0, 0.0, 0.0, 0.0, 1.6203124105859451E9, 2021-05-06 16:46:50.585
77.0, 159.34591674804688, 161.66839599609375, 314.3460693359375, -189.86163330078125, 0.0, 0.03200000151991844, 1.055999994277954, 0.0, 0.0, 0.0, 0.0, 0.0, 1.6203124105866048E9, 2021-05-06 16:46:50.586
77.0, 161.71701049804688, 166.69482421875, 317.4801025390625, -191.38003540039062, 0.0, 0.03200000151991844, 1.055999994277954, 0.0, 0.0, 0.0, 0.0, 0.0, 1.6203124105866048E9, 2021-05-06 16:46:50.586
78.0, 177.85467529296875, 145.6167449951172, 319.3537902832031, -198.9944610595703, 0.0, 0.03200000151991844, 1.055999994277954, 0.0, 0.0, 0.0, 0.0, 0.0, 1.6203124105872338E9, 2021-05-06 16:46:50.587
78.0, 159.33096313476562, 145.1006317138672, 312.9211730957031, -204.47715759277344, 0.0, 0.03200000151991844, 1.055999994277954, 0.0, 0.0, 0.0, 0.0, 0.0, 1.6203124105872338E9, 2021-05-06 16:46:50.587
79.0, 167.3268585205078, 161.5561981201172, 309.5028991699219, -190.48245239257812, 0.0, 0.03200000151991844, 1.055999994277954, 0.0, 0.0, 0.0, 0.0, 0.0, 1.6203124105994785E9, 2021-05-06 16:46:50.599
79.0, 166.30587768554688, 153.2648468017578, 316.0963439941406, -183.6870574951172, 0.0, 0.03200000151991844, 1.055999994277954, 0.0, 0.0, 0.0, 0.0, 0.0, 1.6203124105994785E9, 2021-05-06 16:46:50.599
80.0, 162.37522888183594, 143.372802734375, 319.4510192871094, -187.382080078125, 0.0, 0.03200000151991844, 1.055999994277954, 0.0, 0.0, 0.0, 0.0, 0.0, 1.6203124106152275E9, 2021-05-06 16:46:50.615
80.0, 155.70700073242188, 148.0402069091797, 313.1941833496094, -188.732177734375, 0.0, 0.03200000151991844, 1.055999994277954, 0.0, 0.0, 0.0, 0.0, 0.0, 1.6203124106152275E9, 2021-05-06 16:46:50.615
81.0, 167.39791870117188, 149.8727569580078, 311.15594482421875, -186.67523193359375, 0.0, 0.03200000151991844, 1.055999994277954, 0.0, 0.0, 0.0, 0.0, 0.0, 1.6203124106158502E9, 2021-05-06 16:46:50.615
81.0, 171.11912536621094, 152.75621032714844, 314.84722900390625, -187.22500610351562, 0.0, 0.03200000151991844, 1.055999994277954, 0.0, 0.0, 0.0, 0.0, 0.0, 1.6203124106158502E9, 2021-05-06 16:46:50.615
82.0, 156.26797485351562, 154.7794952392578, 327.1327819824219, -182.30703735351562, 0.0, 0.03200000151991844, 1.055999994277954, 0.0, 0.0, 0.0, 0.0, 0.0, 1.62031241062952E9, 2021-05-06 16:46:50.629
82.0, 163.61314392089844, 153.87818908691406, 312.80523681640625, -186.60792541503906, 0.0, 0.03200000151991844, 1.055999994277954, 0.0, 0.0, 0.0, 0.0, 0.0, 1.62031241062952E9, 2021-05-06 16:46:50.629
83.0, 166.50782775878906, 155.27316284179688, 315.2212219238281, -188.66860961914062, 0.0, 0.03200000151991844, 1.055999994277954, 0.0, 0.0, 0.0, 0.0, 0.0, 1.620312410645261E9, 2021-05-06 16:46:50.645
83.0, 169.04721069335938, 153.0292205810547, 315.4979553222656, -185.8000946044922, 0.0, 0.03200000151991844, 1.055999994277954, 0.0, 0.0, 0.0, 0.0, 0.0, 1.620312410645261E9, 2021-05-06 16:46:50.645
84.0, 164.92210388183594, 154.63739013671875, 326.6653137207031, -185.65798950195312, 0.0, 0.03200000151991844, 1.055999994277954, 0.0, 0.0, 0.0, 0.0, 0.0, 1.620312410645952E9, 2021-05-06 16:46:50.645
84.0, 160.81195068359375, 149.58103942871094, 315.9056091308594, -192.61419677734375, 0.0, 0.03200000151991844, 1.055999994277954, 0.0, 0.0, 0.0, 0.0, 0.0, 1.620312410645952E9, 2021-05-06 16:46:50.645
85.0, 165.23251342773438, 155.3330078125, 310.47900390625, -192.79371643066406, 0.0, 0.03200000151991844, 1.055999994277954, 0.0, 0.0, 0.0, 0.0, 0.0, 1.6203124106913924E9, 2021-05-06 16:46:50.691
85.0, 169.18185424804688, 153.57525634765625, 313.93841552734375, -194.31959533691406, 0.0, 0.03200000151991844, 1.055999994277954, 0.0, 0.0, 0.0, 0.0, 0.0, 1.6203124106913924E9, 2021-05-06 16:46:50.691
86.0, 165.43447875976562, 149.1322479248047, 313.8374328613281, -199.62277221679688, 0.0, 0.03200000151991844, 1.055999994277954, 0.0, 0.0, 0.0, 0.0, 0.0, 1.6203124106920931E9, 2021-05-06 16:46:50.692
86.0, 174.83657836914062, 159.7797393798828, 313.5906066894531, -192.90591430664062, 0.0, 0.03200000151991844, 1.055999994277954, 0.0, 0.0, 0.0, 0.0, 0.0, 1.6203124106920931E9, 2021-05-06 16:46:50.692
87.0, 158.03321838378906, 159.3982696533203, 306.0397644042969, -192.44964599609375, 0.0, 0.03200000151991844, 1.055999994277954, 0.0, 0.0, 0.0, 0.0, 0.0, 1.6203124106929057E9, 2021-05-06 16:46:50.692
87.0, 180.10984802246094, 157.71157836914062, 322.5028076171875, -188.6873016357422, 0.0, 0.03200000151991844, 1.055999994277954, 0.0, 0.0, 0.0, 0.0, 0.0, 1.6203124106929057E9, 2021-05-06 16:46:50.692
88.0, 162.30418395996094, 153.21621704101562, 319.4285888671875, -198.20909118652344, 0.0, 0.03200000151991844, 1.055999994277954, 0.0, 0.0, 0.0, 0.0, 0.0, 1.6203124107057476E9, 2021-05-06 16:46:50.705
88.0, 172.46548461914062, 155.8341522216797, 320.2139892578125, -196.0997772216797, 0.0, 0.03200000151991844, 1.055999994277954, 0.0, 0.0, 0.0, 0.0, 0.0, 1.6203124107057476E9, 2021-05-06 16:46:50.705
89.0, 180.37911987304688, 159.05419921875, 320.47576904296875, -194.30462646484375, 0.0, 0.03200000151991844, 1.055999994277954, 0.0, 0.0, 0.0, 0.0, 0.0, 1.6203124107064931E9, 2021-05-06 16:46:50.706
89.0, 183.3074493408203, 155.56488037109375, 318.13458251953125, -185.96839904785156, 0.0, 0.03200000151991844, 1.055999994277954, 0.0, 0.0, 0.0, 0.0, 0.0, 1.6203124107064931E9, 2021-05-06 16:46:50.706
90.0, 163.2989959716797, 158.54183959960938, 332.7201843261719, -188.4329833984375, 0.0, 0.03200000151991844, 1.055999994277954, 0.0, 0.0, 0.0, 0.0, 0.0, 1.620312410707256E9, 2021-05-06 16:46:50.707
90.0, 166.9453887939453, 156.11837768554688, 319.5707092285156, -194.86187744140625, 0.0, 0.03200000151991844, 1.055999994277954, 0.0, 0.0, 0.0, 0.0, 0.0, 1.620312410707256E9, 2021-05-06 16:46:50.707
91.0, 159.7834930419922, 160.80447387695312, 311.8478088378906, -187.06793212890625, 0.0, 0.03200000151991844, 1.055999994277954, 0.0, 0.0, 0.0, 0.0, 0.0, 1.6203124107195537E9, 2021-05-06 16:46:50.719
91.0, 166.1824493408203, 156.36521911621094, 319.1817626953125, -184.1994171142578, 0.0, 0.03200000151991844, 1.055999994277954, 0.0, 0.0, 0.0, 0.0, 0.0, 1.6203124107195537E9, 2021-05-06 16:46:50.719
92.0, 172.89556884765625, 158.5530548095703, 329.1336364746094, -181.62637329101562, 0.0, 0.03200000151991844, 1.055999994277954, 0.0, 0.0, 0.0, 0.0, 0.0, 1.6203124107352388E9, 2021-05-06 16:46:50.735
92.0, 165.78602600097656, 163.5532989501953, 317.603515625, -182.29580688476562, 0.0, 0.03200000151991844, 1.055999994277954, 0.0, 0.0, 0.0, 0.0, 0.0, 1.6203124107352388E9, 2021-05-06 16:46:50.735
93.0, 171.84092712402344, 165.70375061035156, 311.5972595214844, -183.70574951171875, 0.0, 0.03200000151991844, 1.055999994277954, 0.0, 0.0, 0.0, 0.0, 0.0, 1.6203124107358627E9, 2021-05-06 16:46:50.735
93.0, 163.89736938476562, 165.6364288330078, 321.0255432128906, -186.24888610839844, 0.0, 0.03200000151991844, 1.055999994277954, 0.0, 0.0, 0.0, 0.0, 0.0, 1.6203124107358627E9, 2021-05-06 16:46:50.735
94.0, 165.8533477783203, 162.57345581054688, 322.7421569824219, -185.90481567382812, 0.0, 0.03200000151991844, 1.055999994277954, 0.0, 0.0, 0.0, 0.0, 0.0, 1.6203124107494445E9, 2021-05-06 16:46:50.749
94.0, 168.6807098388672, 167.21841430664062, 317.2257995605469, -185.46725463867188, 0.0, 0.03200000151991844, 1.055999994277954, 0.0, 0.0, 0.0, 0.0, 0.0, 1.6203124107494445E9, 2021-05-06 16:46:50.749
95.0, 158.92330932617188, 165.81968688964844, 314.2189025878906, -194.32333374023438, 0.0, 0.03200000151991844, 1.055999994277954, 0.0, 0.0, 0.0, 0.0, 0.0, 1.6203124107651129E9, 2021-05-06 16:46:50.765
95.0, 165.8458709716797, 169.20803833007812, 320.7786865234375, -187.206298828125, 0.0, 0.03200000151991844, 1.055999994277954, 0.0, 0.0, 0.0, 0.0, 0.0, 1.6203124107651129E9, 2021-05-06 16:46:50.765
96.0, 165.0455322265625, 154.00534057617188, 321.9380798339844, -188.6947784423828, 0.0, 0.03200000151991844, 1.055999994277954, 0.0, 0.0, 0.0, 0.0, 0.0, 1.620312410765931E9, 2021-05-06 16:46:50.765
96.0, 163.78143310546875, 152.10546875, 311.9413146972656, -192.7263946533203, 0.0, 0.03200000151991844, 1.055999994277954, 0.0, 0.0, 0.0, 0.0, 0.0, 1.620312410765931E9, 2021-05-06 16:46:50.765
97.0, 166.34327697753906, 158.71762084960938, 314.6751708984375, -188.73965454101562, 0.0, 0.03200000151991844, 1.055999994277954, 0.0, 0.0, 0.0, 0.0, 0.0, 1.6203124107966757E9, 2021-05-06 16:46:50.796
