Sample Index, EXG Channel 0, EXG Channel 1, EXG Channel 2, EXG Channel 3, Accel Channel 0, Accel Channel 1, Accel Channel 2, Other, Other, Other, Other, Other, Timestamp, Timestamp (Formatted)
0.0, 134.15582275390625, 199.23382568359375, 332.2283935546875, -217.96885681152344, 0.0, 0.0, 0.0, 0.0, 0.0, 0.0, 0.0, 0.0, 1.6203133728868113E9, 2021-05-06 17:02:52.886
1.0, 137.0131072998047, 204.94090270996094, 331.001708984375, -202.83348083496094, 0.0, 0.03200000151991844, 0.0, 0.0, 0.0, 0.0, 0.0, 0.0, 1.620313372887368E9, 2021-05-06 17:02:52.887
1.0, 146.7293701171875, 215.45750427246094, 342.7749328613281, -203.59266662597656, 0.0, 0.03200000151991844, 0.0, 0.0, 0.0, 0.0, 0.0, 0.0, 1.620313372887368E9, 2021-05-06 17:02:52.887
2.0, 155.94447326660156, 206.549072265625, 354.44342041015625, -201.09815979003906, 0.0, 0.03200000151991844, 0.0, 0.0, 0.0, 0.0, 0.0, 0.0, 1.6203133728999624E9, 2021-05-06 17:02:52.899
2.0, 131.9717254638672, 208.2021026611328, 345.5013122558594, -200.06594848632812, 0.0, 0.03200000151991844, 0.0, 0.0, 0.0, 0.0, 0.0, 0.0, 1.6203133728999624E9, 2021-05-06 17:02:52.899
3.0, 154.6504669189453, 208.2806396484375, 343.3209533691406, -198.62982177734375, 0.0, 0.03200000151991844, 0.0, 0.0, 0.0, 0.0, 0.0, 0.0, 1.620313372900648E9, 2021-05-06 17:02:52.900
3.0, 142.25643920898438, 202.88021850585938, 344.43170166015625, -199.49374389648438, 0.0, 0.03200000151991844, 0.0, 0.0, 0.0, 0.0, 0.0, 0.0, 1.620313372900648E9, 2021-05-06 17:02:52.900
4.0, 143.59532165527344, 206.94549560546875, 351.05133056640625, -191.47914123535156, 0.0, 0.03200000151991844, 0.0, 0.0, 0.0, 0.0, 0.0, 0.0, 1.6203133729153051E9, 2021-05-06 17:02:52.915
4.0, 139.8142852783203, 194.9142303466797, 337.2735290527344, -199.39649963378906, 0.0, 0.03200000151991844, 0.0, 0.0, 0.0, 0.0, 0.0, 0.0, 1.6203133729153051E9, 2021-05-06 17:02:52.915
5.0, 137.59278869628906, 195.84547424316406, 332.7557373046875, -192.06629943847656, 0.0, 0.03200000151991844, 0.0, 0.0, 0.0, 0.0, 0.0, 0.0, 1.6203133729304976E9, 2021-05-06 17:02:52.930
5.0, 150.53659057617188, 207.80941772460938, 346.1707458496094, -202.24630737304688, 0.0, 0.03200000151991844, 0.0, 0.0, 0.0, 0.0, 0.0, 0.0, 1.6203133729304976E9, 2021-05-06 17:02:52.930
6.0, 140.47625732421875, 203.6468963623047, 345.239501953125, -202.20143127441406, 0.0, 0.03200000151991844, 0.0, 0.0, 0.0, 0.0, 0.0, 0.0, 1.6203133729312484E9, 2021-05-06 17:02:52.931
6.0, 144.20867919921875, 201.5338592529297, 344.3569030761719, -205.09237670898438, 0.0, 0.03200000151991844, 0.0, 0.0, 0.0, 0.0, 0.0, 0.0, 1.6203133729312484E9, 2021-05-06 17:02:52.931
7.0, 133.51629638671875, 196.60467529296875, 332.351806640625, -201.17669677734375, 0.0, 0.03200000151991844, 0.0, 0.0, 0.0, 0.0, 0.0, 0.0, 1.6203133729441097E9, 2021-05-06 17:02:52.944
7.0, 148.83119201660156, 208.063720703125, 338.3618469238281, -199.1646270751953, 0.0, 0.03200000151991844, 0.0, 0.0, 0.0, 0.0, 0.0, 0.0, 1.6203133729441097E9, 2021-05-06 17:02:52.944
8.0, 151.9091339111328, 206.032958984375, 348.5979309082031, -202.33607482910156, 0.0, 0.03200000151991844, 0.0, 0.0, 0.0, 0.0, 0.0, 0.0, 1.6203133729597485E9, 2021-05-06 17:02:52.959
8.0, 140.7941436767578, 206.0703582763672, 334.77154541015625, -209.6363525390625, 0.0, 0.03200000151991844, 0.0, 0.0, 0.0, 0.0, 0.0, 0.0, 1.6203133729597485E9, 2021-05-06 17:02:52.959
9.0, 143.15028381347656, 200.269775390625, 332.7332763671875, -202.0854949951172, 0.0, 0.03200000151991844, 0.0, 0.0, 0.0, 0.0, 0.0, 0.0, 1.6203133729605374E9, 2021-05-06 17:02:52.960
9.0, 145.667236328125, 200.9130401611328, 336.7237548828125, -203.3121795654297, 0.0, 0.03200000151991844, 0.0, 0.0, 0.0, 0.0, 0.0, 0.0, 1.6203133729605374E9, 2021-05-06 17:02:52.960
10.0, 132.3083038330078, 200.5128631591797, 337.4642639160156, -202.62403869628906, 0.0, 0.03200000151991844, 1.055999994277954, 0.0, 0.0, 0.0, 0.0, 0.0, 1.620313372974306E9, 2021-05-06 17:02:52.974
10.0, 131.47805786132812, 195.0563507080078, 335.04827880859375, -200.53343200683594, 0.0, 0.03200000151991844, 1.055999994277954, 0.0, 0.0, 0.0, 0.0, 0.0, 1.620313372974306E9, 2021-05-06 17:02:52.974
11.0, 141.1344757080078, 204.22283935546875, 332.550048828125, -188.6031494140625, 0.0, 0.03200000151991844, 1.055999994277954, 0.0, 0.0, 0.0, 0.0, 0.0, 1.620313373006252E9, 2021-05-06 17:02:53.006
11.0, 144.810791015625, 198.53445434570312, 335.0445556640625, -198.49893188476562, 0.0, 0.03200000151991844, 1.055999994277954, 0.0, 0.0, 0.0, 0.0, 0.0, 1.620313373006252E9, 2021-05-06 17:02:53.006
12.0, 133.8865509033203, 202.45013427734375, 343.79217529296875, -197.49664306640625, 0.0, 0.03200000151991844, 1.055999994277954, 0.0, 0.0, 0.0, 0.0, 0.0, 1.6203133730069773E9, 2021-05-06 17:02:53.006
12.0, 136.44464111328125, 198.6915283203125, 334.7229309082031, -201.57313537597656, 0.0, 0.03200000151991844, 1.055999994277954, 0.0, 0.0, 0.0, 0.0, 0.0, 1.6203133730069773E9, 2021-05-06 17:02:53.006
13.0, 139.59738159179688, 203.85260009765625, 330.26123046875, -203.17005920410156, 0.0, 0.03200000151991844, 1.055999994277954, 0.0, 0.0, 0.0, 0.0, 0.0, 1.620313373007766E9, 2021-05-06 17:02:53.007
13.0, 147.3950653076172, 212.19631958007812, 341.8137512207031, -187.1558074951172, 0.0, 0.03200000151991844, 1.055999994277954, 0.0, 0.0, 0.0, 0.0, 0.0, 1.620313373007766E9, 2021-05-06 17:02:53.007
14.0, 143.95809936523438, 205.32986450195312, 342.2064514160156, -196.6215057373047, 0.0, 0.03200000151991844, 1.055999994277954, 0.0, 0.0, 0.0, 0.0, 0.0, 1.6203133730084786E9, 2021-05-06 17:02:53.008
14.0, 156.24366760253906, 205.50563049316406, 339.8316345214844, -196.625244140625, 0.0, 0.03200000151991844, 1.055999994277954, 0.0, 0.0, 0.0, 0.0, 0.0, 1.6203133730084786E9, 2021-05-06 17:02:53.008
15.0, 129.892333984375, 205.28871154785156, 328.8437805175781, -190.77976989746094, 0.0, 0.03200000151991844, 1.055999994277954, 0.0, 0.0, 0.0, 0.0, 0.0, 1.6203133730192516E9, 2021-05-06 17:02:53.019
15.0, 145.3306427001953, 214.1373291015625, 344.4504089355469, -187.22686767578125, 0.0, 0.03200000151991844, 1.055999994277954, 0.0, 0.0, 0.0, 0.0, 0.0, 1.6203133730192516E9, 2021-05-06 17:02:53.019
16.0, 148.40858459472656, 204.2078857421875, 348.20526123046875, -194.49349975585938, 0.0, 0.03200000151991844, 1.055999994277954, 0.0, 0.0, 0.0, 0.0, 0.0, 1.6203133730341864E9, 2021-05-06 17:02:53.034
16.0, 144.23484802246094, 198.05575561523438, 334.73040771484375, -202.02191162109375, 0.0, 0.03200000151991844, 1.055999994277954, 0.0, 0.0, 0.0, 0.0, 0.0, 1.6203133730341864E9, 2021-05-06 17:02:53.034
17.0, 141.91236877441406, 198.92715454101562, 325.4330139160156, -198.7008819580078, 0.0, 0.03200000151991844, 1.055999994277954, 0.0, 0.0, 0.0, 0.0, 0.0, 1.6203133730505345E9, 2021-05-06 17:02:53.050
17.0, 145.77569580078125, 198.58682250976562, 334.0123291015625, -196.5766143798828, 0.0, 0.03200000151991844, 1.055999994277954, 0.0, 0.0, 0.0, 0.0, 0.0, 1.6203133730505345E9, 2021-05-06 17:02:53.050
18.0, 140.37901306152344, 201.2010040283203, 342.3523254394531, -204.44163513183594, 0.0, 0.03200000151991844, 1.055999994277954, 0.0, 0.0, 0.0, 0.0, 0.0, 1.62031337305128E9, 2021-05-06 17:02:53.051
18.0, 142.29757690429688, 202.26687622070312, 338.31695556640625, -197.90428161621094, 0.0, 0.03200000151991844, 1.055999994277954, 0.0, 0.0, 0.0, 0.0, 0.0, 1.62031337305128E9, 2021-05-06 17:02:53.051
19.0, 137.2187957763672, 202.21078491210938, 329.7002258300781, -205.3092803955078, 0.0, 0.03200000151991844, 1.055999994277954, 0.0, 0.0, 0.0, 0.0, 0.0, 1.620313373064161E9, 2021-05-06 17:02:53.064
19.0, 140.99609375, 209.90000915527344, 342.07928466796875, -193.30421447753906, 0.0, 0.03200000151991844, 1.055999994277954, 0.0, 0.0, 0.0, 0.0, 0.0, 1.620313373064161E9, 2021-05-06 17:02:53.064
20.0, 140.52113342285156, 202.3828125, 341.5893859863281, -203.9105682373047, 0.0, 0.03200000151991844, 1.055999994277954, 0.0, 0.0, 0.0, 0.0, 0.0, 1.6203133730798E9, 2021-05-06 17:02:53.079
20.0, 129.27899169921875, 204.03585815429688, 333.5261535644531, -199.53114318847656, 0.0, 0.03200000151991844, 1.055999994277954, 0.0, 0.0, 0.0, 0.0, 0.0, 1.6203133730798E9, 2021-05-06 17:02:53.079
21.0, 144.25355529785156, 206.14141845703125, 330.5865783691406, -196.63272094726562, 0.0, 0.03200000151991844, 1.055999994277954, 0.0, 0.0, 0.0, 0.0, 0.0, 1.6203133730805552E9, 2021-05-06 17:02:53.080
21.0, 144.66868591308594, 207.8056640625, 339.3192443847656, -195.69400024414062, 0.0, 0.03200000151991844, 1.055999994277954, 0.0, 0.0, 0.0, 0.0, 0.0, 1.6203133730805552E9, 2021-05-06 17:02:53.080
22.0, 143.09791564941406, 200.1351318359375, 349.6563415527344, -195.77627563476562, 0.0, 0.03200000151991844, 1.055999994277954, 0.0, 0.0, 0.0, 0.0, 0.0, 1.6203133730941436E9, 2021-05-06 17:02:53.094
22.0, 148.1654815673828, 209.44749450683594, 347.8499755859375, -195.24522399902344, 0.0, 0.03200000151991844, 1.055999994277954, 0.0, 0.0, 0.0, 0.0, 0.0, 1.6203133730941436E9, 2021-05-06 17:02:53.094
23.0, 137.93685913085938, 209.6344757080078, 333.5560607910156, -200.08090209960938, 0.0, 0.03200000151991844, 1.055999994277954, 0.0, 0.0, 0.0, 0.0, 0.0, 1.6203133731099212E9, 2021-05-06 17:02:53.109
23.0, 147.98597717285156, 207.49525451660156, 347.18798828125, -191.9541015625, 0.0, 0.03200000151991844, 1.055999994277954, 0.0, 0.0, 0.0, 0.0, 0.0, 1.6203133731099212E9, 2021-05-06 17:02:53.109
24.0, 147.73165893554688, 205.16529846191406, 352.94744873046875, -187.14833068847656, 0.0, 0.03200000151991844, 1.055999994277954, 0.0, 0.0, 0.0, 0.0, 0.0, 1.6203133731105185E9, 2021-05-06 17:02:53.110
24.0, 137.3197784423828, 199.61155700683594, 337.3034362792969, -197.32460021972656, 0.0, 0.03200000151991844, 1.055999994277954, 0.0, 0.0, 0.0, 0.0, 0.0, 1.6203133731105185E9, 2021-05-06 17:02:53.110
25.0, 141.62066650390625, 208.47137451171875, 330.8782958984375, -188.02720642089844, 0.0, 0.03200000151991844, 1.055999994277954, 0.0, 0.0, 0.0, 0.0, 0.0, 1.6203133731242585E9, 2021-05-06 17:02:53.124
25.0, 139.5674591064453, 201.86297607421875, 334.9548034667969, -194.93479919433594, 0.0, 0.03200000151991844, 1.055999994277954, 0.0, 0.0, 0.0, 0.0, 0.0, 1.6203133731242585E9, 2021-05-06 17:02:53.124
26.0, 140.75674438476562, 199.0281219482422, 340.01861572265625, -194.89739990234375, 0.0, 0.03200000151991844, 1.055999994277954, 0.0, 0.0, 0.0, 0.0, 0.0, 1.6203133731397753E9, 2021-05-06 17:02:53.139
26.0, 145.85797119140625, 193.661376953125, 339.9064025878906, -199.34414672851562, 0.0, 0.03200000151991844, 1.055999994277954, 0.0, 0.0, 0.0, 0.0, 0.0, 1.6203133731397753E9, 2021-05-06 17:02:53.139
27.0, 136.62042236328125, 192.36737060546875, 324.1689147949219, -195.45838928222656, 0.0, 0.03200000151991844, 1.055999994277954, 0.0, 0.0, 0.0, 0.0, 0.0, 1.620313373140513E9, 2021-05-06 17:02:53.140
27.0, 152.21580505371094, 199.70504760742188, 339.55487060546875, -196.25125122070312, 0.0, 0.03200000151991844, 1.055999994277954, 0.0, 0.0, 0.0, 0.0, 0.0, 1.620313373140513E9, 2021-05-06 17:02:53.140
28.0, 143.43824768066406, 206.40321350097656, 343.91558837890625, -198.0576171875, 0.0, 0.03200000151991844, 1.055999994277954, 0.0, 0.0, 0.0, 0.0, 0.0, 1.620313373154255E9, 2021-05-06 17:02:53.154
28.0, 135.06088256835938, 186.99313354492188, 340.99847412109375, -203.50291442871094, 0.0, 0.03200000151991844, 1.055999994277954, 0.0, 0.0, 0.0, 0.0, 0.0, 1.620313373154255E9, 2021-05-06 17:02:53.154
29.0, 141.95726013183594, 204.91847229003906, 336.49188232421875, -200.23797607421875, 0.0, 0.03200000151991844, 1.055999994277954, 0.0, 0.0, 0.0, 0.0, 0.0, 1.6203133731697628E9, 2021-05-06 17:02:53.169
29.0, 146.60594177246094, 208.08242797851562, 346.3876647949219, -191.86434936523438, 0.0, 0.03200000151991844, 1.055999994277954, 0.0, 0.0, 0.0, 0.0, 0.0, 1.6203133731697628E9, 2021-05-06 17:02:53.169
30.0, 138.6212615966797, 202.28184509277344, 348.6129150390625, -193.1920166015625, 0.0, 0.03200000151991844, 1.055999994277954, 0.0, 0.0, 0.0, 0.0, 0.0, 1.62031337317051E9, 2021-05-06 17:02:53.170
30.0, 134.37648010253906, 209.51853942871094, 341.69781494140625, -188.62559509277344, 0.0, 0.03200000151991844, 1.055999994277954, 0.0, 0.0, 0.0, 0.0, 0.0, 1.62031337317051E9, 2021-05-06 17:02:53.170
31.0, 135.58071899414062, 201.2496337890625, 334.9173889160156, -186.9501190185547, 0.0, 0.03200000151991844, 1.055999994277954, 0.0, 0.0, 0.0, 0.0, 0.0, 1.620313373184152E9, 2021-05-06 17:02:53.184
31.0, 141.26162719726562, 211.90834045410156, 346.0772399902344, -176.67662048339844, 0.0, 0.03200000151991844, 1.055999994277954, 0.0, 0.0, 0.0, 0.0, 0.0, 1.620313373184152E9, 2021-05-06 17:02:53.184
32.0, 135.96592712402344, 200.42311096191406, 345.579833984375, -187.62330627441406, 0.0, 0.03200000151991844, 1.055999994277954, 0.0, 0.0, 0.0, 0.0, 0.0, 1.6203133731997993E9, 2021-05-06 17:02:53.199
32.0, 140.3715362548828, 200.8120574951172, 342.6701965332031, -190.86953735351562, 0.0, 0.03200000151991844, 1.055999994277954, 0.0, 0.0, 0.0, 0.0, 0.0, 1.6203133731997993E9, 2021-05-06 17:02:53.199
33.0, 151.54635620117188, 204.8025360107422, 340.0672302246094, -189.25389099121094, 0.0, 0.03200000151991844, 1.055999994277954, 0.0, 0.0, 0.0, 0.0, 0.0, 1.6203133732004886E9, 2021-05-06 17:02:53.200
33.0, 143.14654541015625, 199.48812866210938, 346.3166198730469, -184.8669891357422, 0.0, 0.03200000151991844, 1.055999994277954, 0.0, 0.0, 0.0, 0.0, 0.0, 1.6203133732004886E9, 2021-05-06 17:02:53.200
34.0, 147.42872619628906, 197.28533935546875, 355.6102600097656, -186.33677673339844, 0.0, 0.03200000151991844, 1.055999994277954, 0.0, 0.0, 0.0, 0.0, 0.0, 1.620313373214192E9, 2021-05-06 17:02:53.214
34.0, 142.29383850097656, 199.753662109375, 336.8172607421875, -186.90524291992188, 0.0, 0.03200000151991844, 1.055999994277954, 0.0, 0.0, 0.0, 0.0, 0.0, 1.620313373214192E9, 2021-05-06 17:02:53.214
35.0, 129.20045471191406, 203.84512329101562, 334.5770568847656, -187.0323944091797, 0.0, 0.03200000151991844, 1.055999994277954, 0.0, 0.0, 0.0, 0.0, 0.0, 1.6203133732302325E9, 2021-05-06 17:02:53.230
35.0, 146.95750427246094, 203.1046142578125, 344.570068359375, -195.9034423828125, 0.0, 0.03200000151991844, 1.055999994277954, 0.0, 0.0, 0.0, 0.0, 0.0, 1.6203133732302325E9, 2021-05-06 17:02:53.230
36.0, 148.1355743408203, 202.14346313476562, 348.1903076171875, -196.59158325195312, 0.0, 0.03200000151991844, 1.055999994277954, 0.0, 0.0, 0.0, 0.0, 0.0, 1.6203133732449548E9, 2021-05-06 17:02:53.244
36.0, 146.90139770507812, 207.30078125, 341.095703125, -197.18247985839844, 0.0, 0.03200000151991844, 1.055999994277954, 0.0, 0.0, 0.0, 0.0, 0.0, 1.6203133732449548E9, 2021-05-06 17:02:53.244
37.0, 138.89053344726562, 202.69696044921875, 331.001708984375, -199.68821716308594, 0.0, 0.03200000151991844, 1.055999994277954, 0.0, 0.0, 0.0, 0.0, 0.0, 1.6203133732456312E9, 2021-05-06 17:02:53.245
37.0, 143.6402130126953, 211.70639038085938, 348.1678466796875, -198.67845153808594, 0.0, 0.03200000151991844, 1.055999994277954, 0.0, 0.0, 0.0, 0.0, 0.0, 1.6203133732456312E9, 2021-05-06 17:02:53.245
38.0, 145.50267028808594, 208.404052734375, 354.30877685546875, -203.42063903808594, 0.0, 0.03200000151991844, 1.055999994277954, 0.0, 0.0, 0.0, 0.0, 0.0, 1.620313373259822E9, 2021-05-06 17:02:53.259
38.0, 138.6661376953125, 214.01390075683594, 347.9284973144531, -202.41085815429688, 0.0, 0.03200000151991844, 1.055999994277954, 0.0, 0.0, 0.0, 0.0, 0.0, 1.620313373259822E9, 2021-05-06 17:02:53.259
39.0, 150.2822723388672, 210.67417907714844, 341.46221923828125, -194.4561004638672, 0.0, 0.03200000151991844, 1.055999994277954, 0.0, 0.0, 0.0, 0.0, 0.0, 1.6203133732605119E9, 2021-05-06 17:02:53.260
39.0, 142.8585662841797, 219.62750244140625, 358.302978515625, -187.8140411376953, 0.0, 0.03200000151991844, 1.055999994277954, 0.0, 0.0, 0.0, 0.0, 0.0, 1.6203133732605119E9, 2021-05-06 17:02:53.260
40.0, 144.54525756835938, 207.73086547851562, 359.55584716796875, -189.38479614257812, 0.0, 0.03200000151991844, 1.055999994277954, 0.0, 0.0, 0.0, 0.0, 0.0, 1.6203133732743592E9, 2021-05-06 17:02:53.274
40.0, 151.2247314453125, 213.6249542236328, 354.1068115234375, -186.07498168945312, 0.0, 0.03200000151991844, 1.055999994277954, 0.0, 0.0, 0.0, 0.0, 0.0, 1.6203133732743592E9, 2021-05-06 17:02:53.274
41.0, 141.35513305664062, 214.2644805908203, 346.63824462890625, -189.41098022460938, 0.0, 0.03200000151991844, 1.055999994277954, 0.0, 0.0, 0.0, 0.0, 0.0, 1.62031337328962E9, 2021-05-06 17:02:53.289
41.0, 144.66868591308594, 210.610595703125, 349.5067443847656, -188.479736328125, 0.0, 0.03200000151991844, 1.055999994277954, 0.0, 0.0, 0.0, 0.0, 0.0, 1.62031337328962E9, 2021-05-06 17:02:53.289
42.0, 148.1168670654297, 202.29306030273438, 354.32373046875, -180.6446533203125, 0.0, 0.03200000151991844, 1.055999994277954, 0.0, 0.0, 0.0, 0.0, 0.0, 1.6203133733048124E9, 2021-05-06 17:02:53.304
42.0, 137.54043579101562, 197.61817932128906, 341.75018310546875, -182.82127380371094, 0.0, 0.03200000151991844, 1.055999994277954, 0.0, 0.0, 0.0, 0.0, 0.0, 1.6203133733048124E9, 2021-05-06 17:02:53.304
43.0, 138.38565063476562, 199.14031982421875, 336.1141662597656, -193.39022827148438, 0.0, 0.03200000151991844, 1.055999994277954, 0.0, 0.0, 0.0, 0.0, 0.0, 1.6203133733055851E9, 2021-05-06 17:02:53.305
43.0, 153.4200439453125, 212.03175354003906, 348.8111267089844, -187.11093139648438, 0.0, 0.03200000151991844, 1.055999994277954, 0.0, 0.0, 0.0, 0.0, 0.0, 1.6203133733055851E9, 2021-05-06 17:02:53.305
44.0, 151.9801788330078, 201.89288330078125, 351.01019287109375, -191.3706817626953, 0.0, 0.03200000151991844, 1.055999994277954, 0.0, 0.0, 0.0, 0.0, 0.0, 1.620313373319816E9, 2021-05-06 17:02:53.319
44.0, 136.77749633789062, 203.9647979736328, 341.7688903808594, -192.02142333984375, 0.0, 0.03200000151991844, 1.055999994277954, 0.0, 0.0, 0.0, 0.0, 0.0, 1.620313373319816E9, 2021-05-06 17:02:53.319
45.0, 145.0651092529297, 205.25506591796875, 338.5937194824219, -187.96737670898438, 0.0, 0.03200000151991844, 1.055999994277954, 0.0, 0.0, 0.0, 0.0, 0.0, 1.620313373320527E9, 2021-05-06 17:02:53.320
45.0, 142.45091247558594, 211.35858154296875, 354.48455810546875, -190.5516357421875, 0.0, 0.03200000151991844, 1.055999994277954, 0.0, 0.0, 0.0, 0.0, 0.0, 1.620313373320527E9, 2021-05-06 17:02:53.320
46.0, 144.32835388183594, 206.032958984375, 356.447998046875, -206.85760498046875, 0.0, 0.03200000151991844, 1.055999994277954, 0.0, 0.0, 0.0, 0.0, 0.0, 1.620313373334214E9, 2021-05-06 17:02:53.334
46.0, 148.87232971191406, 208.0188446044922, 349.3870544433594, -209.42691040039062, 0.0, 0.03200000151991844, 1.055999994277954, 0.0, 0.0, 0.0, 0.0, 0.0, 1.620313373334214E9, 2021-05-06 17:02:53.334
47.0, 143.90948486328125, 223.8348846435547, 344.6000061035156, -199.6208953857422, 0.0, 0.03200000151991844, 1.055999994277954, 0.0, 0.0, 0.0, 0.0, 0.0, 1.6203133733496928E9, 2021-05-06 17:02:53.349
47.0, 150.33462524414062, 222.28656005859375, 352.9287414550781, -200.48855590820312, 0.0, 0.03200000151991844, 1.055999994277954, 0.0, 0.0, 0.0, 0.0, 0.0, 1.6203133733496928E9, 2021-05-06 17:02:53.349
48.0, 145.64852905273438, 217.218994140625, 356.7023010253906, -198.33438110351562, 0.0, 0.03200000151991844, 1.055999994277954, 0.0, 0.0, 0.0, 0.0, 0.0, 1.6203133733647954E9, 2021-05-06 17:02:53.364
48.0, 140.5323486328125, 207.4615936279297, 348.8784484863281, -202.32858276367188, 0.0, 0.03200000151991844, 1.055999994277954, 0.0, 0.0, 0.0, 0.0, 0.0, 1.6203133733647954E9, 2021-05-06 17:02:53.364
49.0, 139.7694091796875, 214.36170959472656, 348.4745178222656, -191.1649932861328, 0.0, 0.03200000151991844, 1.055999994277954, 0.0, 0.0, 0.0, 0.0, 0.0, 1.6203133733654869E9, 2021-05-06 17:02:53.365
49.0, 144.51535034179688, 220.270751953125, 355.7224426269531, -185.9739990234375, 0.0, 0.03200000151991844, 1.055999994277954, 0.0, 0.0, 0.0, 0.0, 0.0, 1.6203133733654869E9, 2021-05-06 17:02:53.365
50.0, 137.06546020507812, 206.47801208496094, 355.99920654296875, -182.09573364257812, 0.0, 0.03200000151991844, 1.055999994277954, 0.0, 0.0, 0.0, 0.0, 0.0, 1.6203133733796537E9, 2021-05-06 17:02:53.379
50.0, 141.39627075195312, 208.07119750976562, 342.9095458984375, -195.82864379882812, 0.0, 0.03200000151991844, 1.055999994277954, 0.0, 0.0, 0.0, 0.0, 0.0, 1.6203133733796537E9, 2021-05-06 17:02:53.379
51.0, 134.5559844970703, 204.90724182128906, 329.1841125488281, -187.02865600585938, 0.0, 0.03200000151991844, 1.055999994277954, 0.0, 0.0, 0.0, 0.0, 0.0, 1.6203133733948E9, 2021-05-06 17:02:53.394
51.0, 140.25933837890625, 208.4938201904297, 345.19464111328125, -178.90185546875, 0.0, 0.03200000151991844, 1.055999994277954, 0.0, 0.0, 0.0, 0.0, 0.0, 1.6203133733948E9, 2021-05-06 17:02:53.394
52.0, 142.8772735595703, 204.27894592285156, 350.2547302246094, -179.34690856933594, 0.0, 0.03200000151991844, 1.055999994277954, 0.0, 0.0, 0.0, 0.0, 0.0, 1.620313373395624E9, 2021-05-06 17:02:53.395
52.0, 133.789306640625, 200.84197998046875, 338.69842529296875, -190.70123291015625, 0.0, 0.03200000151991844, 1.055999994277954, 0.0, 0.0, 0.0, 0.0, 0.0, 1.620313373395624E9, 2021-05-06 17:02:53.395
53.0, 134.04736328125, 198.5269775390625, 324.7860107421875, -191.76336669921875, 0.0, 0.03200000151991844, 1.055999994277954, 0.0, 0.0, 0.0, 0.0, 0.0, 1.620313373409891E9, 2021-05-06 17:02:53.409
53.0, 142.33872985839844, 206.9193115234375, 344.6411437988281, -188.00477600097656, 0.0, 0.03200000151991844, 1.055999994277954, 0.0, 0.0, 0.0, 0.0, 0.0, 1.620313373409891E9, 2021-05-06 17:02:53.409
54.0, 147.4436798095703, 200.23985290527344, 345.2918701171875, -194.5982208251953, 0.0, 0.03200000151991844, 1.055999994277954, 0.0, 0.0, 0.0, 0.0, 0.0, 1.6203133734106224E9, 2021-05-06 17:02:53.410
54.0, 139.728271484375, 201.8405303955078, 338.4141845703125, -202.90078735351562, 0.0, 0.03200000151991844, 1.055999994277954, 0.0, 0.0, 0.0, 0.0, 0.0, 1.6203133734106224E9, 2021-05-06 17:02:53.410
55.0, 143.14654541015625, 202.9026641845703, 338.61614990234375, -202.5679473876953, 0.0, 0.03200000151991844, 1.055999994277954, 0.0, 0.0, 0.0, 0.0, 0.0, 1.6203133734242349E9, 2021-05-06 17:02:53.424
55.0, 156.79718017578125, 214.5861053466797, 345.77056884765625, -196.61776733398438, 0.0, 0.03200000151991844, 1.055999994277954, 0.0, 0.0, 0.0, 0.0, 0.0, 1.6203133734242349E9, 2021-05-06 17:02:53.424
56.0, 141.2952880859375, 203.8226776123047, 341.09197998046875, -204.4154510498047, 0.0, 0.03200000151991844, 1.055999994277954, 0.0, 0.0, 0.0, 0.0, 0.0, 1.6203133734398477E9, 2021-05-06 17:02:53.439
56.0, 152.75808715820312, 204.39862060546875, 340.48236083984375, -212.048583984375, 0.0, 0.03200000151991844, 1.055999994277954, 0.0, 0.0, 0.0, 0.0, 0.0, 1.6203133734398477E9, 2021-05-06 17:02:53.439
57.0, 134.9486846923828, 213.38186645507812, 334.4125061035156, -205.09237670898438, 0.0, 0.03200000151991844, 1.055999994277954, 0.0, 0.0, 0.0, 0.0, 0.0, 1.6203133734405668E9, 2021-05-06 17:02:53.440
57.0, 146.77798461914062, 218.72618103027344, 349.476806640625, -201.76011657714844, 0.0, 0.03200000151991844, 1.055999994277954, 0.0, 0.0, 0.0, 0.0, 0.0, 1.6203133734405668E9, 2021-05-06 17:02:53.440
58.0, 137.00189208984375, 212.4394073486328, 349.8059387207031, -194.51219177246094, 0.0, 0.03200000151991844, 1.055999994277954, 0.0, 0.0, 0.0, 0.0, 0.0, 1.6203133734711924E9, 2021-05-06 17:02:53.471
58.0, 141.40374755859375, 212.03175354003906, 343.8819274902344, -202.73997497558594, 0.0, 0.03200000151991844, 1.055999994277954, 0.0, 0.0, 0.0, 0.0, 0.0, 1.6203133734711924E9, 2021-05-06 17:02:53.471
59.0, 140.80909729003906, 218.88699340820312, 346.0323791503906, -187.5372772216797, 0.0, 0.03200000151991844, 1.055999994277954, 0.0, 0.0, 0.0, 0.0, 0.0, 1.6203133734718847E9, 2021-05-06 17:02:53.471
59.0, 144.91925048828125, 214.70578002929688, 350.23602294921875, -182.72402954101562, 0.0, 0.03200000151991844, 1.055999994277954, 0.0, 0.0, 0.0, 0.0, 0.0, 1.6203133734718847E9, 2021-05-06 17:02:53.471
60.0, 150.14389038085938, 211.0743408203125, 356.788330078125, -184.49301147460938, 0.0, 0.03200000151991844, 1.0720000267028809, 0.0, 0.0, 0.0, 0.0, 0.0, 1.6203133734726489E9, 2021-05-06 17:02:53.472
60.0, 141.2130126953125, 208.49755859375, 341.8399353027344, -187.57467651367188, 0.0, 0.03200000151991844, 1.0720000267028809, 0.0, 0.0, 0.0, 0.0, 0.0, 1.6203133734726489E9, 2021-05-06 17:02:53.472
61.0, 135.01974487304688, 201.9639434814453, 334.158203125, -189.59422302246094, 0.0, 0.03200000151991844, 1.0720000267028809, 0.0, 0.0, 0.0, 0.0, 0.0, 1.6203133734841287E9, 2021-05-06 17:02:53.484
61.0, 145.34559631347656, 207.0950927734375, 339.67828369140625, -178.65501403808594, 0.0, 0.03200000151991844, 1.0720000267028809, 0.0, 0.0, 0.0, 0.0, 0.0, 1.6203133734841287E9, 2021-05-06 17:02:53.484
62.0, 140.25933837890625, 195.92774963378906, 345.1048889160156, -187.94119262695312, 0.0, 0.03200000151991844, 1.0720000267028809, 0.0, 0.0, 0.0, 0.0, 0.0, 1.6203133734997787E9, 2021-05-06 17:02:53.499
62.0, 135.68917846679688, 194.2111358642578, 333.1745910644531, -187.66070556640625, 0.0, 0.03200000151991844, 1.0720000267028809, 0.0, 0.0, 0.0, 0.0, 0.0, 1.6203133734997787E9, 2021-05-06 17:02:53.499
63.0, 140.0723419189453, 195.1348876953125, 324.67755126953125, -191.56141662597656, 0.0, 0.03200000151991844, 1.0720000267028809, 0.0, 0.0, 0.0, 0.0, 0.0, 1.620313373500514E9, 2021-05-06 17:02:53.500
63.0, 144.04037475585938, 204.8062744140625, 338.1299743652344, -182.4210968017578, 0.0, 0.03200000151991844, 1.0720000267028809, 0.0, 0.0, 0.0, 0.0, 0.0, 1.620313373500514E9, 2021-05-06 17:02:53.500
64.0, 134.40638732910156, 196.4027099609375, 340.8152160644531, -197.28720092773438, 0.0, 0.03200000151991844, 1.0720000267028809, 0.0, 0.0, 0.0, 0.0, 0.0, 1.6203133735140939E9, 2021-05-06 17:02:53.514
64.0, 135.3226776123047, 200.62879943847656, 328.61566162109375, -201.86483764648438, 0.0, 0.03200000151991844, 1.0720000267028809, 0.0, 0.0, 0.0, 0.0, 0.0, 1.6203133735140939E9, 2021-05-06 17:02:53.514
65.0, 136.52691650390625, 195.49766540527344, 323.68646240234375, -199.57228088378906, 0.0, 0.03200000151991844, 1.0720000267028809, 0.0, 0.0, 0.0, 0.0, 0.0, 1.6203133735298996E9, 2021-05-06 17:02:53.529
65.0, 151.265869140625, 209.65318298339844, 342.3149108886719, -201.31881713867188, 0.0, 0.03200000151991844, 1.0720000267028809, 0.0, 0.0, 0.0, 0.0, 0.0, 1.6203133735298996E9, 2021-05-06 17:02:53.529
66.0, 149.49688720703125, 197.40875244140625, 342.73004150390625, -202.1677703857422, 0.0, 0.03200000151991844, 1.0720000267028809, 0.0, 0.0, 0.0, 0.0, 0.0, 1.6203133735305183E9, 2021-05-06 17:02:53.530
66.0, 144.59388732910156, 204.57814025878906, 338.126220703125, -202.79608154296875, 0.0, 0.03200000151991844, 1.0720000267028809, 0.0, 0.0, 0.0, 0.0, 0.0, 1.6203133735305183E9, 2021-05-06 17:02:53.530
67.0, 142.2601776123047, 208.4489288330078, 333.8403015136719, -201.43475341796875, 0.0, 0.03200000151991844, 1.0720000267028809, 0.0, 0.0, 0.0, 0.0, 0.0, 1.6203133735442977E9, 2021-05-06 17:02:53.544
67.0, 149.7811279296875, 209.5522003173828, 348.1716003417969, -193.1546173095703, 0.0, 0.03200000151991844, 1.0720000267028809, 0.0, 0.0, 0.0, 0.0, 0.0, 1.6203133735442977E9, 2021-05-06 17:02:53.544
68.0, 146.01878356933594, 212.28607177734375, 352.1246643066406, -193.24063110351562, 0.0, 0.03200000151991844, 1.0720000267028809, 0.0, 0.0, 0.0, 0.0, 0.0, 1.620313373559872E9, 2021-05-06 17:02:53.559
68.0, 139.79559326171875, 208.46763610839844, 343.2424011230469, -190.4693603515625, 0.0, 0.03200000151991844, 1.0720000267028809, 0.0, 0.0, 0.0, 0.0, 0.0, 1.620313373559872E9, 2021-05-06 17:02:53.559
69.0, 141.4673309326172, 205.27749633789062, 344.21478271484375, -183.9058380126953, 0.0, 0.03200000151991844, 1.0720000267028809, 0.0, 0.0, 0.0, 0.0, 0.0, 1.6203133735605347E9, 2021-05-06 17:02:53.560
69.0, 144.63502502441406, 203.0597381591797, 346.3577575683594, -182.73524475097656, 0.0, 0.03200000151991844, 1.0720000267028809, 0.0, 0.0, 0.0, 0.0, 0.0, 1.6203133735605347E9, 2021-05-06 17:02:53.560
70.0, 141.3925323486328, 206.0366973876953, 349.3309631347656, -184.29852294921875, 0.0, 0.03200000151991844, 1.055999994277954, 0.0, 0.0, 0.0, 0.0, 0.0, 1.6203133736075425E9, 2021-05-06 17:02:53.607
70.0, 141.70294189453125, 205.4345703125, 346.08099365234375, -181.04481506347656, 0.0, 0.03200000151991844, 1.055999994277954, 0.0, 0.0, 0.0, 0.0, 0.0, 1.6203133736075425E9, 2021-05-06 17:02:53.607
71.0, 137.50303649902344, 209.4287872314453, 338.5413513183594, -176.2165985107422, 0.0, 0.03200000151991844, 1.055999994277954, 0.0, 0.0, 0.0, 0.0, 0.0, 1.6203133736082947E9, 2021-05-06 17:02:53.608
71.0, 152.94882202148438, 206.01051330566406, 343.9081115722656, -183.24014282226562, 0.0, 0.03200000151991844, 1.055999994277954, 0.0, 0.0, 0.0, 0.0, 0.0, 1.6203133736082947E9, 2021-05-06 17:02:53.608
72.0, 140.18453979492188, 196.64207458496094, 345.1572265625, -192.3468017578125, 0.0, 0.03200000151991844, 1.055999994277954, 0.0, 0.0, 0.0, 0.0, 0.0, 1.620313373608998E9, 2021-05-06 17:02:53.608
72.0, 153.0011749267578, 205.29994201660156, 343.78094482421875, -182.60435485839844, 0.0, 0.03200000151991844, 1.055999994277954, 0.0, 0.0, 0.0, 0.0, 0.0, 1.620313373608998E9, 2021-05-06 17:02:53.608
73.0, 135.64430236816406, 205.03814697265625, 330.39959716796875, -184.82958984375, 0.0, 0.03200000151991844, 1.055999994277954, 0.0, 0.0, 0.0, 0.0, 0.0, 1.6203133736097736E9, 2021-05-06 17:02:53.609
73.0, 150.8470001220703, 203.37388610839844, 346.03985595703125, -188.9173126220703, 0.0, 0.03200000151991844, 1.055999994277954, 0.0, 0.0, 0.0, 0.0, 0.0, 1.6203133736097736E9, 2021-05-06 17:02:53.609
74.0, 154.08200073242188, 202.28932189941406, 350.45294189453125, -188.995849609375, 0.0, 0.03200000151991844, 1.055999994277954, 0.0, 0.0, 0.0, 0.0, 0.0, 1.6203133736197472E9, 2021-05-06 17:02:53.619
74.0, 141.48976135253906, 204.22283935546875, 332.80059814453125, -200.45489501953125, 0.0, 0.03200000151991844, 1.055999994277954, 0.0, 0.0, 0.0, 0.0, 0.0, 1.6203133736197472E9, 2021-05-06 17:02:53.619
75.0, 145.00152587890625, 205.9095458984375, 327.4637756347656, -198.45779418945312, 0.0, 0.03200000151991844, 1.055999994277954, 0.0, 0.0, 0.0, 0.0, 0.0, 1.6203133736204903E9, 2021-05-06 17:02:53.620
75.0, 144.25729370117188, 206.43687438964844, 332.550048828125, -196.55792236328125, 0.0, 0.03200000151991844, 1.055999994277954, 0.0, 0.0, 0.0, 0.0, 0.0, 1.6203133736204903E9, 2021-05-06 17:02:53.620
76.0, 151.37057495117188, 204.45472717285156, 343.9530029296875, -194.5795135498047, 0.0, 0.03200000151991844, 1.055999994277954, 0.0, 0.0, 0.0, 0.0, 0.0, 1.6203133736340995E9, 2021-05-06 17:02:53.634
76.0, 152.7506103515625, 210.1842498779297, 345.00762939453125, -187.77664184570312, 0.0, 0.03200000151991844, 1.055999994277954, 0.0, 0.0, 0.0, 0.0, 0.0, 1.6203133736340995E9, 2021-05-06 17:02:53.634
77.0, 145.12869262695312, 208.2021026611328, 334.6219482421875, -190.58529663085938, 0.0, 0.03200000151991844, 1.055999994277954, 0.0, 0.0, 0.0, 0.0, 0.0, 1.62031337364985E9, 2021-05-06 17:02:53.649
77.0, 148.19166564941406, 214.39910888671875, 349.4244689941406, -190.3496856689453, 0.0, 0.03200000151991844, 1.055999994277954, 0.0, 0.0, 0.0, 0.0, 0.0, 1.62031337364985E9, 2021-05-06 17:02:53.649
78.0, 159.28421020507812, 215.18075561523438, 355.6775817871094, -188.78640747070312, 0.0, 0.03200000151991844, 1.055999994277954, 0.0, 0.0, 0.0, 0.0, 0.0, 1.6203133736505725E9, 2021-05-06 17:02:53.650
78.0, 142.85482788085938, 216.82257080078125, 349.22998046875, -184.85951232910156, 0.0, 0.03200000151991844, 1.055999994277954, 0.0, 0.0, 0.0, 0.0, 0.0, 1.6203133736505725E9, 2021-05-06 17:02:53.650
79.0, 141.70668029785156, 211.24264526367188, 337.69989013671875, -189.78121948242188, 0.0, 0.03200000151991844, 1.055999994277954, 0.0, 0.0, 0.0, 0.0, 0.0, 1.6203133736641843E9, 2021-05-06 17:02:53.664
79.0, 144.33209228515625, 207.1736297607422, 342.5692138671875, -191.7932891845703, 0.0, 0.03200000151991844, 1.055999994277954, 0.0, 0.0, 0.0, 0.0, 0.0, 1.6203133736641843E9, 2021-05-06 17:02:53.664
80.0, 151.10879516601562, 215.29295349121094, 352.3677673339844, -188.83877563476562, 0.0, 0.03200000151991844, 1.055999994277954, 0.0, 0.0, 0.0, 0.0, 0.0, 1.620313373679855E9, 2021-05-06 17:02:53.679
80.0, 150.79837036132812, 207.28956604003906, 341.58563232421875, -188.5246124267578, 0.0, 0.03200000151991844, 1.055999994277954, 0.0, 0.0, 0.0, 0.0, 0.0, 1.620313373679855E9, 2021-05-06 17:02:53.679
81.0, 143.88330078125, 208.89024353027344, 338.1187438964844, -183.58421325683594, 0.0, 0.03200000151991844, 1.055999994277954, 0.0, 0.0, 0.0, 0.0, 0.0, 1.6203133736805964E9, 2021-05-06 17:02:53.680
81.0, 135.85748291015625, 208.34422302246094, 341.7389831542969, -196.98426818847656, 0.0, 0.03200000151991844, 1.055999994277954, 0.0, 0.0, 0.0, 0.0, 0.0, 1.6203133736805964E9, 2021-05-06 17:02:53.680
82.0, 140.30047607421875, 205.1017303466797, 344.7009582519531, -201.31881713867188, 0.0, 0.03200000151991844, 1.055999994277954, 0.0, 0.0, 0.0, 0.0, 0.0, 1.620313373694128E9, 2021-05-06 17:02:53.694
82.0, 138.74093627929688, 210.80506896972656, 338.373046875, -194.12698364257812, 0.0, 0.03200000151991844, 1.055999994277954, 0.0, 0.0, 0.0, 0.0, 0.0, 1.620313373694128E9, 2021-05-06 17:02:53.694
83.0, 144.33956909179688, 205.6888885498047, 330.9269104003906, -199.57228088378906, 0.0, 0.03200000151991844, 1.055999994277954, 0.0, 0.0, 0.0, 0.0, 0.0, 1.6203133737099786E9, 2021-05-06 17:02:53.709
83.0, 153.36021423339844, 203.9535675048828, 345.3816223144531, -188.03094482421875, 0.0, 0.03200000151991844, 1.055999994277954, 0.0, 0.0, 0.0, 0.0, 0.0, 1.6203133737099786E9, 2021-05-06 17:02:53.709
84.0, 147.7391357421875, 201.99012756347656, 345.1983642578125, -194.77398681640625, 0.0, 0.03200000151991844, 1.055999994277954, 0.0, 0.0, 0.0, 0.0, 0.0, 1.6203133737105644E9, 2021-05-06 17:02:53.710
84.0, 155.69390869140625, 205.70010375976562, 341.78759765625, -192.18597412109375, 0.0, 0.03200000151991844, 1.055999994277954, 0.0, 0.0, 0.0, 0.0, 0.0, 1.6203133737105644E9, 2021-05-06 17:02:53.710
85.0, 139.54501342773438, 206.9641876220703, 338.0776062011719, -191.00790405273438, 0.0, 0.03200000151991844, 1.055999994277954, 0.0, 0.0, 0.0, 0.0, 0.0, 1.6203133737241893E9, 2021-05-06 17:02:53.724
85.0, 147.2379913330078, 201.00653076171875, 343.2274475097656, -195.03952026367188, 0.0, 0.03200000151991844, 1.055999994277954, 0.0, 0.0, 0.0, 0.0, 0.0, 1.6203133737241893E9, 2021-05-06 17:02:53.724
86.0, 150.30470275878906, 199.7274932861328, 344.6560974121094, -195.099365234375, 0.0, 0.03200000151991844, 1.055999994277954, 0.0, 0.0, 0.0, 0.0, 0.0, 1.6203133737562623E9, 2021-05-06 17:02:53.756
86.0, 132.96279907226562, 202.06118774414062, 336.2936706542969, -194.2877960205078, 0.0, 0.03200000151991844, 1.055999994277954, 0.0, 0.0, 0.0, 0.0, 0.0, 1.6203133737562623E9, 2021-05-06 17:02:53.756
87.0, 143.60655212402344, 201.64979553222656, 336.6302795410156, -190.6414031982422, 0.0, 0.03200000151991844, 1.055999994277954, 0.0, 0.0, 0.0, 0.0, 0.0, 1.6203133737569735E9, 2021-05-06 17:02:53.756
87.0, 151.05642700195312, 206.22743225097656, 350.06024169921875, -187.00621032714844, 0.0, 0.03200000151991844, 1.055999994277954, 0.0, 0.0, 0.0, 0.0, 0.0, 1.6203133737569735E9, 2021-05-06 17:02:53.756
88.0, 143.22508239746094, 201.82557678222656, 347.30767822265625, -185.4317169189453, 0.0, 0.03200000151991844, 1.055999994277954, 0.0, 0.0, 0.0, 0.0, 0.0, 1.6203133737577324E9, 2021-05-06 17:02:53.757
88.0, 140.05364990234375, 201.93777465820312, 336.7237548828125, -193.71559143066406, 0.0, 0.03200000151991844, 1.055999994277954, 0.0, 0.0, 0.0, 0.0, 0.0, 1.6203133737577324E9, 2021-05-06 17:02:53.757
89.0, 141.5159454345703, 204.59683227539062, 334.9510498046875, -189.64659118652344, 0.0, 0.03200000151991844, 1.055999994277954, 0.0, 0.0, 0.0, 0.0, 0.0, 1.620313373758456E9, 2021-05-06 17:02:53.758
89.0, 146.3105010986328, 204.55569458007812, 340.9236755371094, -190.81716918945312, 0.0, 0.03200000151991844, 1.055999994277954, 0.0, 0.0, 0.0, 0.0, 0.0, 1.620313373758456E9, 2021-05-06 17:02:53.758
90.0, 140.37901306152344, 196.47377014160156, 344.10260009765625, -207.02964782714844, 0.0, 0.03200000151991844, 1.055999994277954, 0.0, 0.0, 0.0, 0.0, 0.0, 1.6203133737691572E9, 2021-05-06 17:02:53.769
90.0, 153.5060577392578, 210.09823608398438, 345.0338134765625, -195.55189514160156, 0.0, 0.03200000151991844, 1.055999994277954, 0.0, 0.0, 0.0, 0.0, 0.0, 1.6203133737691572E9, 2021-05-06 17:02:53.769
91.0, 139.62728881835938, 209.3689422607422, 339.6969909667969, -189.68772888183594, 0.0, 0.03200000151991844, 1.055999994277954, 0.0, 0.0, 0.0, 0.0, 0.0, 1.620313373784284E9, 2021-05-06 17:02:53.784
91.0, 153.23678588867188, 213.34072875976562, 351.3243408203125, -185.83563232421875, 0.0, 0.03200000151991844, 1.055999994277954, 0.0, 0.0, 0.0, 0.0, 0.0, 1.620313373784284E9, 2021-05-06 17:02:53.784
92.0, 147.1557159423828, 202.5436248779297, 347.5058898925781, -190.1252899169922, 0.0, 0.03200000151991844, 1.055999994277954, 0.0, 0.0, 0.0, 0.0, 0.0, 1.62031337379984E9, 2021-05-06 17:02:53.799
92.0, 142.84361267089844, 203.84512329101562, 339.076171875, -188.83877563476562, 0.0, 0.03200000151991844, 1.055999994277954, 0.0, 0.0, 0.0, 0.0, 0.0, 1.62031337379984E9, 2021-05-06 17:02:53.799
93.0, 139.27200317382812, 206.05540466308594, 329.4945373535156, -188.23291015625, 0.0, 0.03200000151991844, 1.055999994277954, 0.0, 0.0, 0.0, 0.0, 0.0, 1.6203133738005068E9, 2021-05-06 17:02:53.800
93.0, 152.09237670898438, 209.83644104003906, 343.2573547363281, -180.9774932861328, 0.0, 0.03200000151991844, 1.055999994277954, 0.0, 0.0, 0.0, 0.0, 0.0, 1.6203133738005068E9, 2021-05-06 17:02:53.800
94.0, 132.53269958496094, 203.60202026367188, 343.911865234375, -188.11697387695312, 0.0, 0.03200000151991844, 1.055999994277954, 0.0, 0.0, 0.0, 0.0, 0.0, 1.6203133738141677E9, 2021-05-06 17:02:53.814
94.0, 135.24038696289062, 205.4794464111328, 334.2890930175781, -189.60919189453125, 0.0, 0.03200000151991844, 1.055999994277954, 0.0, 0.0, 0.0, 0.0, 0.0, 1.6203133738141677E9, 2021-05-06 17:02:53.814
95.0, 139.64599609375, 202.39028930664062, 333.3241882324219, -184.2461700439453, 0.0, 0.03200000151991844, 1.055999994277954, 0.0, 0.0, 0.0, 0.0, 0.0, 1.6203133738298562E9, 2021-05-06 17:02:53.829
95.0, 151.18357849121094, 200.9878387451172, 343.9754333496094, -188.00851440429688, 0.0, 0.03200000151991844, 1.055999994277954, 0.0, 0.0, 0.0, 0.0, 0.0, 1.6203133738298562E9, 2021-05-06 17:02:53.829
96.0, 147.14450073242188, 204.2901611328125, 344.1923522949219, -193.573486328125, 0.0, 0.03200000151991844, 1.055999994277954, 0.0, 0.0, 0.0, 0.0, 0.0, 1.620313373830558E9, 2021-05-06 17:02:53.830
96.0, 147.0135955810547, 205.41587829589844, 339.67828369140625, -192.4552459716797, 0.0, 0.03200000151991844, 1.055999994277954, 0.0, 0.0, 0.0, 0.0, 0.0, 1.620313373830558E9, 2021-05-06 17:02:53.830
97.0, 142.4546661376953, 202.22573852539062, 333.384033203125, -192.69461059570312, 0.0, 0.03200000151991844, 1.055999994277954, 0.0, 0.0, 0.0, 0.0, 0.0, 1.6203133738441963E9, 2021-05-06 17:02:53.844
97.0, 147.42498779296875, 206.50418090820312, 347.15435791015625, -189.5830078125, 0.0, 0.03200000151991844, 1.055999994277954, 0.0, 0.0, 0.0, 0.0, 0.0, 1.6203133738441963E9, 2021-05-06 17:02:53.844
98.0, 145.31568908691406, 200.70359802246094, 349.7797546386719, -186.46392822265625, 0.0, 0.03200000151991844, 1.055999994277954, 0.0, 0.0, 0.0, 0.0, 0.0, 1.620313373859768E9, 2021-05-06 17:02:53.859
98.0, 144.89682006835938, 200.5315704345703, 339.84283447265625, -191.87930297851562, 0.0, 0.03200000151991844, 1.055999994277954, 0.0, 0.0, 0.0, 0.0, 0.0, 1.620313373859768E9, 2021-05-06 17:02:53.859
99.0, 139.24208068847656, 207.40550231933594, 328.4249267578125, -189.92333984375, 0.0, 0.03200000151991844, 1.055999994277954, 0.0, 0.0, 0.0, 0.0, 0.0, 1.620313373860498E9, 2021-05-06 17:02:53.860
99.0, 153.52476501464844, 208.75559997558594, 340.3551940917969, -185.8468475341797, 0.0, 0.03200000151991844, 1.055999994277954, 0.0, 0.0, 0.0, 0.0, 0.0, 1.620313373860498E9, 2021-05-06 17:02:53.860
100.0, 144.3919219970703, 199.43203735351562, 341.2228698730469, -198.4091796875, 0.0, 0.03200000151991844, 1.055999994277954, 0.0, 0.0, 0.0, 0.0, 0.0, 1.620313373874921E9, 2021-05-06 17:02:53.874
100.0, 140.068603515625, 201.54881286621094, 330.2724304199219, -198.07632446289062, 0.0, 0.03200000151991844, 1.055999994277954, 0.0, 0.0, 0.0, 0.0, 0.0, 1.620313373874921E9, 2021-05-06 17:02:53.874
0.0, 141.8880615234375, 199.02999877929688, 332.5369567871094, -188.42364501953125, 0.0, 0.03200000151991844, 1.055999994277954, 0.0, 0.0, 0.0, 0.0, 0.0, 1.6203133738755643E9, 2021-05-06 17:02:53.875
1.0, 152.67393493652344, 199.83407592773438, 343.5097961425781, -188.16184997558594, 0.0, 0.03200000151991844, 1.055999994277954, 0.0, 0.0, 0.0, 0.0, 0.0, 1.620313373889176E9, 2021-05-06 17:02:53.889
1.0, 137.4749755859375, 199.07861328125, 347.5750732421875, -190.31976318359375, 0.0, 0.03200000151991844, 1.055999994277954, 0.0, 0.0, 0.0, 0.0, 0.0, 1.620313373889176E9, 2021-05-06 17:02:53.889
2.0, 148.2870330810547, 207.71778869628906, 343.2442932128906, -185.3045654296875, 0.0, 0.03200000151991844, 1.055999994277954, 0.0, 0.0, 0.0, 0.0, 0.0, 1.6203133739047792E9, 2021-05-06 17:02:53.904
2.0, 137.99856567382812, 207.1754913330078, 335.2932434082031, -178.83079528808594, 0.0, 0.03200000151991844, 1.055999994277954, 0.0, 0.0, 0.0, 0.0, 0.0, 1.6203133739047792E9, 2021-05-06 17:02:53.904
3.0, 145.97576904296875, 197.470458984375, 341.45660400390625, -186.26197814941406, 0.0, 0.03200000151991844, 1.055999994277954, 0.0, 0.0, 0.0, 0.0, 0.0, 1.6203133739054844E9, 2021-05-06 17:02:53.905
3.0, 144.5134735107422, 208.7088623046875, 347.7695617675781, -185.66358947753906, 0.0, 0.03200000151991844, 1.055999994277954, 0.0, 0.0, 0.0, 0.0, 0.0, 1.6203133739054844E9, 2021-05-06 17:02:53.905
4.0, 138.76150512695312, 201.81622314453125, 338.81622314453125, -187.02865600585938, 0.0, 0.03200000151991844, 1.055999994277954, 0.0, 0.0, 0.0, 0.0, 0.0, 1.620313373919252E9, 2021-05-06 17:02:53.919
4.0, 145.94212341308594, 198.1548614501953, 325.23291015625, -189.324951171875, 0.0, 0.03200000151991844, 1.055999994277954, 0.0, 0.0, 0.0, 0.0, 0.0, 1.620313373919252E9, 2021-05-06 17:02:53.919
5.0, 146.83221435546875, 195.99319458007812, 339.7175598144531, -187.00621032714844, 0.0, 0.03200000151991844, 1.055999994277954, 0.0, 0.0, 0.0, 0.0, 0.0, 1.6203133739351623E9, 2021-05-06 17:02:53.935
5.0, 153.3284149169922, 203.82455444335938, 345.45831298828125, -187.98606872558594, 0.0, 0.03200000151991844, 1.055999994277954, 0.0, 0.0, 0.0, 0.0, 0.0, 1.6203133739351623E9, 2021-05-06 17:02:53.935
6.0, 137.8639373779297, 193.08729553222656, 329.2682800292969, -193.8577117919922, 0.0, 0.03200000151991844, 1.055999994277954, 0.0, 0.0, 0.0, 0.0, 0.0, 1.6203133739502296E9, 2021-05-06 17:02:53.950
6.0, 144.8949432373047, 196.93939208984375, 331.34765625, -188.48721313476562, 0.0, 0.03200000151991844, 1.055999994277954, 0.0, 0.0, 0.0, 0.0, 0.0, 1.6203133739502296E9, 2021-05-06 17:02:53.950
7.0, 147.8719024658203, 207.0894775390625, 341.5014953613281, -186.16099548339844, 0.0, 0.03200000151991844, 1.055999994277954, 0.0, 0.0, 0.0, 0.0, 0.0, 1.6203133739654822E9, 2021-05-06 17:02:53.965
7.0, 150.92739868164062, 204.8904266357422, 347.3731384277344, -190.9705047607422, 0.0, 0.03200000151991844, 1.055999994277954, 0.0, 0.0, 0.0, 0.0, 0.0, 1.6203133739654822E9, 2021-05-06 17:02:53.965
8.0, 147.281005859375, 199.66952514648438, 337.9336242675781, -197.81826782226562, 0.0, 0.03200000151991844, 1.055999994277954, 0.0, 0.0, 0.0, 0.0, 0.0, 1.6203133739661534E9, 2021-05-06 17:02:53.966
8.0, 150.44122314453125, 201.5843505859375, 329.0064697265625, -199.7630157470703, 0.0, 0.03200000151991844, 1.055999994277954, 0.0, 0.0, 0.0, 0.0, 0.0, 1.6203133739661534E9, 2021-05-06 17:02:53.966
9.0, 143.6345977783203, 199.75927734375, 340.31219482421875, -183.7225799560547, 0.0, 0.03200000151991844, 1.055999994277954, 0.0, 0.0, 0.0, 0.0, 0.0, 1.6203133739669604E9, 2021-05-06 17:02:53.966
9.0, 142.7407684326172, 201.0420684814453, 340.10650634765625, -185.11009216308594, 0.0, 0.03200000151991844, 1.055999994277954, 0.0, 0.0, 0.0, 0.0, 0.0, 1.6203133739669604E9, 2021-05-06 17:02:53.966
10.0, 138.68670654296875, 210.51522827148438, 334.1600646972656, -188.68544006347656, 0.0, 0.03200000151991844, 1.055999994277954, 0.0, 0.0, 0.0, 0.0, 0.0, 1.6203133739792445E9, 2021-05-06 17:02:53.979
10.0, 150.18690490722656, 203.67869567871094, 334.67242431640625, -183.29623413085938, 0.0, 0.03200000151991844, 1.055999994277954, 0.0, 0.0, 0.0, 0.0, 0.0, 1.6203133739792445E9, 2021-05-06 17:02:53.979
11.0, 143.0063018798828, 209.6737518310547, 345.3049621582031, -179.5712890625, 0.0, 0.03200000151991844, 1.055999994277954, 0.0, 0.0, 0.0, 0.0, 0.0, 1.6203133739954069E9, 2021-05-06 17:02:53.995
11.0, 146.589111328125, 205.42523193359375, 349.82275390625, -187.85891723632812, 0.0, 0.03200000151991844, 1.055999994277954, 0.0, 0.0, 0.0, 0.0, 0.0, 1.6203133739954069E9, 2021-05-06 17:02:53.995
12.0, 144.20680236816406, 206.37515258789062, 339.2575378417969, -178.87940979003906, 0.0, 0.03200000151991844, 1.055999994277954, 0.0, 0.0, 0.0, 0.0, 0.0, 1.620313374009896E9, 2021-05-06 17:02:54.009
12.0, 136.4203338623047, 206.26670837402344, 330.0312194824219, -181.83767700195312, 0.0, 0.03200000151991844, 1.055999994277954, 0.0, 0.0, 0.0, 0.0, 0.0, 1.620313374009896E9, 2021-05-06 17:02:54.009
13.0, 142.0675811767578, 212.87510681152344, 340.9779052734375, -183.88714599609375, 0.0, 0.03200000151991844, 1.055999994277954, 0.0, 0.0, 0.0, 0.0, 0.0, 1.6203133740106287E9, 2021-05-06 17:02:54.010
13.0, 140.4481964111328, 205.55238342285156, 349.3253479003906, -181.97230529785156, 0.0, 0.03200000151991844, 1.055999994277954, 0.0, 0.0, 0.0, 0.0, 0.0, 1.6203133740106287E9, 2021-05-06 17:02:54.010
14.0, 138.14816284179688, 207.47842407226562, 337.6867980957031, -188.49844360351562, 0.0, 0.03200000151991844, 1.055999994277954, 0.0, 0.0, 0.0, 0.0, 0.0, 1.620313374024983E9, 2021-05-06 17:02:54.024
14.0, 134.7785186767578, 206.8800506591797, 333.8085021972656, -187.5559844970703, 0.0, 0.03200000151991844, 1.055999994277954, 0.0, 0.0, 0.0, 0.0, 0.0, 1.620313374024983E9, 2021-05-06 17:02:54.024
15.0, 158.467041015625, 216.49159240722656, 354.0301513671875, -182.23036193847656, 0.0, 0.03200000151991844, 1.055999994277954, 0.0, 0.0, 0.0, 0.0, 0.0, 1.6203133740255773E9, 2021-05-06 17:02:54.025
15.0, 138.6567840576172, 210.81442260742188, 348.4427490234375, -186.46018981933594, 0.0, 0.03200000151991844, 1.055999994277954, 0.0, 0.0, 0.0, 0.0, 0.0, 1.6203133740255773E9, 2021-05-06 17:02:54.025
16.0, 145.66909790039062, 211.5885772705078, 335.6373291015625, -191.7446746826172, 0.0, 0.03200000151991844, 1.055999994277954, 0.0, 0.0, 0.0, 0.0, 0.0, 1.6203133740554993E9, 2021-05-06 17:02:54.055
16.0, 150.50852966308594, 200.862548828125, 332.3349914550781, -201.86109924316406, 0.0, 0.03200000151991844, 1.055999994277954, 0.0, 0.0, 0.0, 0.0, 0.0, 1.6203133740554993E9, 2021-05-06 17:02:54.055
17.0, 146.03561401367188, 217.17225646972656, 344.4859313964844, -186.13108825683594, 0.0, 0.03200000151991844, 1.055999994277954, 0.0, 0.0, 0.0, 0.0, 0.0, 1.6203133740562007E9, 2021-05-06 17:02:54.056
17.0, 143.48126220703125, 202.2687530517578, 343.636962890625, -191.21360778808594, 0.0, 0.03200000151991844, 1.055999994277954, 0.0, 0.0, 0.0, 0.0, 0.0, 1.6203133740562007E9, 2021-05-06 17:02:54.056
18.0, 137.2730255126953, 208.7873992919922, 338.06451416015625, -194.04844665527344, 0.0, 0.03200000151991844, 1.055999994277954, 0.0, 0.0, 0.0, 0.0, 0.0, 1.6203133740569634E9, 2021-05-06 17:02:54.056
18.0, 137.83775329589844, 208.1104736328125, 337.7727966308594, -187.0885009765625, 0.0, 0.03200000151991844, 1.055999994277954, 0.0, 0.0, 0.0, 0.0, 0.0, 1.6203133740569634E9, 2021-05-06 17:02:54.056
19.0, 146.41708374023438, 214.01577758789062, 351.3000183105469, -188.4011993408203, 0.0, 0.03200000151991844, 1.055999994277954, 0.0, 0.0, 0.0, 0.0, 0.0, 1.620313374069079E9, 2021-05-06 17:02:54.069
19.0, 144.78274536132812, 216.04653930664062, 356.46856689453125, -187.77664184570312, 0.0, 0.03200000151991844, 1.055999994277954, 0.0, 0.0, 0.0, 0.0, 0.0, 1.620313374069079E9, 2021-05-06 17:02:54.069
20.0, 137.63206481933594, 210.7022247314453, 347.4292297363281, -187.38394165039062, 0.0, 0.03200000151991844, 1.055999994277954, 0.0, 0.0, 0.0, 0.0, 0.0, 1.6203133740845308E9, 2021-05-06 17:02:54.084
20.0, 134.33346557617188, 215.85580444335938, 340.33837890625, -179.148681640625, 0.0, 0.03200000151991844, 1.055999994277954, 0.0, 0.0, 0.0, 0.0, 0.0, 1.6203133740845308E9, 2021-05-06 17:02:54.084
21.0, 145.09315490722656, 217.16851806640625, 354.4751892089844, -177.5554962158203, 0.0, 0.03200000151991844, 1.055999994277954, 0.0, 0.0, 0.0, 0.0, 0.0, 1.620313374099799E9, 2021-05-06 17:02:54.099
21.0, 141.31211853027344, 208.9182891845703, 353.6412048339844, -184.59771728515625, 0.0, 0.03200000151991844, 1.055999994277954, 0.0, 0.0, 0.0, 0.0, 0.0, 1.620313374099799E9, 2021-05-06 17:02:54.099
22.0, 134.32225036621094, 213.1555938720703, 340.55902099609375, -188.04217529296875, 0.0, 0.03200000151991844, 1.055999994277954, 0.0, 0.0, 0.0, 0.0, 0.0, 1.6203133741005032E9, 2021-05-06 17:02:54.100
22.0, 143.5037078857422, 209.82708740234375, 338.3599548339844, -193.9175567626953, 0.0, 0.03200000151991844, 1.055999994277954, 0.0, 0.0, 0.0, 0.0, 0.0, 1.6203133741005032E9, 2021-05-06 17:02:54.100
23.0, 136.7681427001953, 211.367919921875, 350.51837158203125, -193.24063110351562, 0.0, 0.03200000151991844, 1.055999994277954, 0.0, 0.0, 0.0, 0.0, 0.0, 1.620313374114906E9, 2021-05-06 17:02:54.114
23.0, 137.11968994140625, 209.8495330810547, 357.4521484375, -194.59446716308594, 0.0, 0.03200000151991844, 1.055999994277954, 0.0, 0.0, 0.0, 0.0, 0.0, 1.620313374114906E9, 2021-05-06 17:02:54.114
24.0, 139.0120849609375, 211.44271850585938, 344.6803894042969, -199.48626708984375, 0.0, 0.03200000151991844, 1.055999994277954, 0.0, 0.0, 0.0, 0.0, 0.0, 1.6203133741155565E9, 2021-05-06 17:02:54.115
24.0, 137.71434020996094, 220.04823303222656, 339.3547668457031, -187.469970703125, 0.0, 0.03200000151991844, 1.055999994277954, 0.0, 0.0, 0.0, 0.0, 0.0, 1.6203133741155565E9, 2021-05-06 17:02:54.115
25.0, 150.7104949951172, 207.2914276123047, 350.10699462890625, -209.0005645751953, 0.0, 0.03200000151991844, 1.055999994277954, 0.0, 0.0, 0.0, 0.0, 0.0, 1.6203133741291568E9, 2021-05-06 17:02:54.129
25.0, 137.60214233398438, 203.55152893066406, 346.0417175292969, -201.59182739257812, 0.0, 0.03200000151991844, 1.055999994277954, 0.0, 0.0, 0.0, 0.0, 0.0, 1.6203133741291568E9, 2021-05-06 17:02:54.129
26.0, 134.86453247070312, 207.74769592285156, 334.904296875, -194.77398681640625, 0.0, 0.03200000151991844, 1.055999994277954, 0.0, 0.0, 0.0, 0.0, 0.0, 1.620313374144812E9, 2021-05-06 17:02:54.144
26.0, 141.9030303955078, 210.51522827148438, 332.6640930175781, -196.04180908203125, 0.0, 0.03200000151991844, 1.055999994277954, 0.0, 0.0, 0.0, 0.0, 0.0, 1.620313374144812E9, 2021-05-06 17:02:54.144
27.0, 145.68780517578125, 210.08140563964844, 346.56158447265625, -194.10081481933594, 0.0, 0.03200000151991844, 1.055999994277954, 0.0, 0.0, 0.0, 0.0, 0.0, 1.6203133741455748E9, 2021-05-06 17:02:54.145
27.0, 140.5267333984375, 203.63755798339844, 342.369140625, -190.17391967773438, 0.0, 0.03200000151991844, 1.055999994277954, 0.0, 0.0, 0.0, 0.0, 0.0, 1.6203133741455748E9, 2021-05-06 17:02:54.145
28.0, 141.7085418701172, 205.2344970703125, 334.05908203125, -185.345703125, 0.0, 0.03200000151991844, 1.055999994277954, 0.0, 0.0, 0.0, 0.0, 0.0, 1.6203133741753502E9, 2021-05-06 17:02:54.175
28.0, 135.25721740722656, 211.7157440185547, 326.9831848144531, -188.08331298828125, 0.0, 0.03200000151991844, 1.055999994277954, 0.0, 0.0, 0.0, 0.0, 0.0, 1.6203133741753502E9, 2021-05-06 17:02:54.175
29.0, 144.20680236816406, 201.47215270996094, 332.4284973144531, -193.50616455078125, 0.0, 0.03200000151991844, 1.055999994277954, 0.0, 0.0, 0.0, 0.0, 0.0, 1.6203133741759644E9, 2021-05-06 17:02:54.175
29.0, 148.36183166503906, 209.07162475585938, 346.59149169921875, -190.49180603027344, 0.0, 0.03200000151991844, 1.055999994277954, 0.0, 0.0, 0.0, 0.0, 0.0, 1.6203133741759644E9, 2021-05-06 17:02:54.175
30.0, 124.84159851074219, 206.5060577392578, 336.5012512207031, -193.00875854492188, 0.0, 0.03200000151991844, 1.055999994277954, 0.0, 0.0, 0.0, 0.0, 0.0, 1.6203133741898327E9, 2021-05-06 17:02:54.189
30.0, 141.19244384765625, 214.4608154296875, 332.2377624511719, -190.63392639160156, 0.0, 0.03200000151991844, 1.055999994277954, 0.0, 0.0, 0.0, 0.0, 0.0, 1.6203133741898327E9, 2021-05-06 17:02:54.189
31.0, 148.77696228027344, 212.39639282226562, 347.4329528808594, -188.29273986816406, 0.0, 0.03200000151991844, 1.055999994277954, 0.0, 0.0, 0.0, 0.0, 0.0, 1.6203133741905472E9, 2021-05-06 17:02:54.190
31.0, 143.5747528076172, 216.98526000976562, 350.1817932128906, -193.96990966796875, 0.0, 0.03200000151991844, 1.055999994277954, 0.0, 0.0, 0.0, 0.0, 0.0, 1.6203133741905472E9, 2021-05-06 17:02:54.190
32.0, 133.33865356445312, 202.8559112548828, 329.90032958984375, -202.61656188964844, 0.0, 0.03200000151991844, 1.055999994277954, 0.0, 0.0, 0.0, 0.0, 0.0, 1.6203133742047708E9, 2021-05-06 17:02:54.204
32.0, 131.8913116455078, 205.79547119140625, 322.9366149902344, -196.03807067871094, 0.0, 0.03200000151991844, 1.055999994277954, 0.0, 0.0, 0.0, 0.0, 0.0, 1.6203133742047708E9, 2021-05-06 17:02:54.204
33.0, 145.32876586914062, 211.5848388671875, 338.9845275878906, -199.1646270751953, 0.0, 0.03200000151991844, 1.055999994277954, 0.0, 0.0, 0.0, 0.0, 0.0, 1.6203133742055E9, 2021-05-06 17:02:54.205
33.0, 148.56752014160156, 201.883544921875, 341.84930419921875, -200.11456298828125, 0.0, 0.03200000151991844, 1.055999994277954, 0.0, 0.0, 0.0, 0.0, 0.0, 1.6203133742055E9, 2021-05-06 17:02:54.205
34.0, 137.26181030273438, 203.4542999267578, 328.6549377441406, -201.09815979003906, 0.0, 0.03200000151991844, 1.055999994277954, 0.0, 0.0, 0.0, 0.0, 0.0, 1.6203133742192483E9, 2021-05-06 17:02:54.219
34.0, 147.68490600585938, 207.5120849609375, 333.6551818847656, -193.50242614746094, 0.0, 0.03200000151991844, 1.055999994277954, 0.0, 0.0, 0.0, 0.0, 0.0, 1.6203133742192483E9, 2021-05-06 17:02:54.219
35.0, 141.49163818359375, 212.31411743164062, 338.95086669921875, -193.38275146484375, 0.0, 0.03200000151991844, 1.055999994277954, 0.0, 0.0, 0.0, 0.0, 0.0, 1.6203133742511945E9, 2021-05-06 17:02:54.251
35.0, 151.5631866455078, 214.35610961914062, 341.48651123046875, -194.02601623535156, 0.0, 0.03200000151991844, 1.055999994277954, 0.0, 0.0, 0.0, 0.0, 0.0, 1.6203133742511945E9, 2021-05-06 17:02:54.251
36.0, 134.1763916015625, 206.4873504638672, 332.450927734375, -189.51942443847656, 0.0, 0.03200000151991844, 1.055999994277954, 0.0, 0.0, 0.0, 0.0, 0.0, 1.6203133742519011E9, 2021-05-06 17:02:54.251
36.0, 137.7704315185547, 199.6246337890625, 326.9009094238281, -184.6239013671875, 0.0, 0.03200000151991844, 1.055999994277954, 0.0, 0.0, 0.0, 0.0, 0.0, 1.6203133742519011E9, 2021-05-06 17:02:54.251
37.0, 141.8431854248047, 206.37515258789062, 341.4753112792969, -182.13687133789062, 0.0, 0.03200000151991844, 1.055999994277954, 0.0, 0.0, 0.0, 0.0, 0.0, 1.6203133742527456E9, 2021-05-06 17:02:54.252
37.0, 143.72808837890625, 206.40133666992188, 343.37518310546875, -187.04360961914062, 0.0, 0.03200000151991844, 1.055999994277954, 0.0, 0.0, 0.0, 0.0, 0.0, 1.6203133742527456E9, 2021-05-06 17:02:54.252
38.0, 137.3104248046875, 198.54380798339844, 329.5300598144531, -186.5761260986328, 0.0, 0.03200000151991844, 1.055999994277954, 0.0, 0.0, 0.0, 0.0, 0.0, 1.6203133742534125E9, 2021-05-06 17:02:54.253
38.0, 137.75921630859375, 202.05557250976562, 321.6276550292969, -184.1564178466797, 0.0, 0.03200000151991844, 1.055999994277954, 0.0, 0.0, 0.0, 0.0, 0.0, 1.6203133742534125E9, 2021-05-06 17:02:54.253
39.0, 148.72085571289062, 200.57083129882812, 336.4077453613281, -188.67794799804688, 0.0, 0.03200000151991844, 1.055999994277954, 0.0, 0.0, 0.0, 0.0, 0.0, 1.62031337426412E9, 2021-05-06 17:02:54.264
39.0, 145.47088623046875, 200.9822235107422, 343.2667236328125, -193.9998321533203, 0.0, 0.03200000151991844, 1.055999994277954, 0.0, 0.0, 0.0, 0.0, 0.0, 1.62031337426412E9, 2021-05-06 17:02:54.264
40.0, 149.37535095214844, 200.3501739501953, 327.6227111816406, -196.18019104003906, 0.0, 0.03200000151991844, 1.055999994277954, 0.0, 0.0, 0.0, 0.0, 0.0, 1.620313374279301E9, 2021-05-06 17:02:54.279
40.0, 152.5654754638672, 201.5394744873047, 328.2622375488281, -196.78231811523438, 0.0, 0.03200000151991844, 1.055999994277954, 0.0, 0.0, 0.0, 0.0, 0.0, 1.620313374279301E9, 2021-05-06 17:02:54.279
41.0, 148.4254150390625, 207.9496612548828, 339.8409729003906, -197.2572784423828, 0.0, 0.03200000151991844, 1.055999994277954, 0.0, 0.0, 0.0, 0.0, 0.0, 1.6203133742949111E9, 2021-05-06 17:02:54.294
41.0, 157.89857482910156, 207.0894775390625, 341.5762939453125, -204.8829345703125, 0.0, 0.03200000151991844, 1.055999994277954, 0.0, 0.0, 0.0, 0.0, 0.0, 1.6203133742949111E9, 2021-05-06 17:02:54.294
42.0, 143.36532592773438, 204.7221221923828, 339.5716857910156, -202.07427978515625, 0.0, 0.03200000151991844, 1.055999994277954, 0.0, 0.0, 0.0, 0.0, 0.0, 1.6203133742956493E9, 2021-05-06 17:02:54.295
42.0, 149.96250915527344, 203.46177673339844, 330.6183776855469, -200.82888793945312, 0.0, 0.03200000151991844, 1.055999994277954, 0.0, 0.0, 0.0, 0.0, 0.0, 1.6203133742956493E9, 2021-05-06 17:02:54.295
43.0, 157.2403564453125, 210.13002014160156, 343.48736572265625, -199.62838745117188, 0.0, 0.03200000151991844, 1.055999994277954, 0.0, 0.0, 0.0, 0.0, 0.0, 1.620313374309246E9, 2021-05-06 17:02:54.309
43.0, 146.1253662109375, 210.17489624023438, 344.49713134765625, -198.1024932861328, 0.0, 0.03200000151991844, 1.055999994277954, 0.0, 0.0, 0.0, 0.0, 0.0, 1.620313374309246E9, 2021-05-06 17:02:54.309
44.0, 140.1527557373047, 205.79920959472656, 332.52197265625, -200.9859619140625, 0.0, 0.03200000151991844, 1.055999994277954, 0.0, 0.0, 0.0, 0.0, 0.0, 1.6203133743249247E9, 2021-05-06 17:02:54.324
44.0, 149.2743682861328, 213.84747314453125, 330.5884704589844, -190.3833465576172, 0.0, 0.03200000151991844, 1.055999994277954, 0.0, 0.0, 0.0, 0.0, 0.0, 1.6203133743249247E9, 2021-05-06 17:02:54.324
45.0, 140.60528564453125, 203.70486450195312, 330.8652038574219, -194.08958435058594, 0.0, 0.03200000151991844, 1.055999994277954, 0.0, 0.0, 0.0, 0.0, 0.0, 1.6203133743256545E9, 2021-05-06 17:02:54.325
45.0, 142.64352416992188, 211.4053192138672, 340.2673034667969, -182.62680053710938, 0.0, 0.03200000151991844, 1.055999994277954, 0.0, 0.0, 0.0, 0.0, 0.0, 1.6203133743256545E9, 2021-05-06 17:02:54.325
46.0, 134.07167053222656, 201.00840759277344, 330.6595153808594, -191.26222229003906, 0.0, 0.03200000151991844, 1.055999994277954, 0.0, 0.0, 0.0, 0.0, 0.0, 1.620313374339155E9, 2021-05-06 17:02:54.339
46.0, 145.44845581054688, 204.13870239257812, 327.3272705078125, -180.39781188964844, 0.0, 0.03200000151991844, 1.055999994277954, 0.0, 0.0, 0.0, 0.0, 0.0, 1.620313374339155E9, 2021-05-06 17:02:54.339
47.0, 136.1622772216797, 204.61366271972656, 340.2860107421875, -183.71136474609375, 0.0, 0.03200000151991844, 1.055999994277954, 0.0, 0.0, 0.0, 0.0, 0.0, 1.620313374354911E9, 2021-05-06 17:02:54.354
47.0, 144.92860412597656, 209.92807006835938, 347.0215759277344, -179.37681579589844, 0.0, 0.03200000151991844, 1.055999994277954, 0.0, 0.0, 0.0, 0.0, 0.0, 1.620313374354911E9, 2021-05-06 17:02:54.354
48.0, 139.49827575683594, 202.0892333984375, 337.7428894042969, -176.57937622070312, 0.0, 0.03200000151991844, 1.055999994277954, 0.0, 0.0, 0.0, 0.0, 0.0, 1.6203133743556745E9, 2021-05-06 17:02:54.355
48.0, 136.7120361328125, 206.00491333007812, 336.2282409667969, -183.75624084472656, 0.0, 0.03200000151991844, 1.055999994277954, 0.0, 0.0, 0.0, 0.0, 0.0, 1.6203133743556745E9, 2021-05-06 17:02:54.355
49.0, 140.91195678710938, 205.97499084472656, 336.852783203125, -189.73260498046875, 0.0, 0.03200000151991844, 1.055999994277954, 0.0, 0.0, 0.0, 0.0, 0.0, 1.6203133743691285E9, 2021-05-06 17:02:54.369
49.0, 150.25796508789062, 205.1035919189453, 341.3892822265625, -193.26307678222656, 0.0, 0.03200000151991844, 1.055999994277954, 0.0, 0.0, 0.0, 0.0, 0.0, 1.6203133743691285E9, 2021-05-06 17:02:54.369
50.0, 144.49102783203125, 208.33486938476562, 333.7411804199219, -196.03433227539062, 0.0, 0.03200000151991844, 1.055999994277954, 0.0, 0.0, 0.0, 0.0, 0.0, 1.6203133743846138E9, 2021-05-06 17:02:54.384
50.0, 137.19822692871094, 206.1619873046875, 324.68316650390625, -196.35223388671875, 0.0, 0.03200000151991844, 1.055999994277954, 0.0, 0.0, 0.0, 0.0, 0.0, 1.6203133743846138E9, 2021-05-06 17:02:54.384
51.0, 145.0258331298828, 215.9941864013672, 339.6689453125, -200.53343200683594, 0.0, 0.03200000151991844, 1.055999994277954, 0.0, 0.0, 0.0, 0.0, 0.0, 1.620313374400268E9, 2021-05-06 17:02:54.400
51.0, 150.0709686279297, 213.05462646484375, 346.2885437011719, -200.6418914794922, 0.0, 0.03200000151991844, 1.055999994277954, 0.0, 0.0, 0.0, 0.0, 0.0, 1.620313374400268E9, 2021-05-06 17:02:54.400
52.0, 143.05491638183594, 211.55117797851562, 339.62030029296875, -206.61077880859375, 0.0, 0.03200000151991844, 1.055999994277954, 0.0, 0.0, 0.0, 0.0, 0.0, 1.620313374415646E9, 2021-05-06 17:02:54.415
52.0, 150.96853637695312, 219.84254455566406, 340.9554443359375, -196.11660766601562, 0.0, 0.03200000151991844, 1.055999994277954, 0.0, 0.0, 0.0, 0.0, 0.0, 1.620313374415646E9, 2021-05-06 17:02:54.415
53.0, 148.7283477783203, 211.89898681640625, 353.38690185546875, -198.4465789794922, 0.0, 0.03200000151991844, 1.055999994277954, 0.0, 0.0, 0.0, 0.0, 0.0, 1.6203133744163797E9, 2021-05-06 17:02:54.416
53.0, 146.36473083496094, 217.3218536376953, 354.2283630371094, -192.31314086914062, 0.0, 0.03200000151991844, 1.055999994277954, 0.0, 0.0, 0.0, 0.0, 0.0, 1.6203133744163797E9, 2021-05-06 17:02:54.416
54.0, 141.0465850830078, 213.234130859375, 340.4580383300781, -189.95700073242188, 0.0, 0.03200000151991844, 1.055999994277954, 0.0, 0.0, 0.0, 0.0, 0.0, 1.6203133744171045E9, 2021-05-06 17:02:54.417
54.0, 142.3106689453125, 214.3000030517578, 337.9598083496094, -175.77529907226562, 0.0, 0.03200000151991844, 1.055999994277954, 0.0, 0.0, 0.0, 0.0, 0.0, 1.6203133744171045E9, 2021-05-06 17:02:54.417
55.0, 144.53965759277344, 215.45938110351562, 350.0733337402344, -181.62075805664062, 0.0, 0.03200000151991844, 1.055999994277954, 0.0, 0.0, 0.0, 0.0, 0.0, 1.6203133744292607E9, 2021-05-06 17:02:54.429
55.0, 148.20101928710938, 210.29083251953125, 355.668212890625, -175.2891082763672, 0.0, 0.03200000151991844, 1.055999994277954, 0.0, 0.0, 0.0, 0.0, 0.0, 1.6203133744292607E9, 2021-05-06 17:02:54.429
56.0, 141.9329376220703, 211.39784240722656, 340.5664978027344, -186.00765991210938, 0.0, 0.03200000151991844, 1.055999994277954, 0.0, 0.0, 0.0, 0.0, 0.0, 1.6203133744450884E9, 2021-05-06 17:02:54.445
56.0, 135.88552856445312, 211.379150390625, 330.337890625, -184.73983764648438, 0.0, 0.03200000151991844, 1.055999994277954, 0.0, 0.0, 0.0, 0.0, 0.0, 1.6203133744450884E9, 2021-05-06 17:02:54.445
57.0, 152.20645141601562, 212.7853546142578, 343.22930908203125, -187.3727264404297, 0.0, 0.03200000151991844, 1.055999994277954, 0.0, 0.0, 0.0, 0.0, 0.0, 1.6203133744456224E9, 2021-05-06 17:02:54.445
57.0, 141.34951782226562, 205.67205810546875, 347.9677734375, -183.2176971435547, 0.0, 0.03200000151991844, 1.055999994277954, 0.0, 0.0, 0.0, 0.0, 0.0, 1.6203133744456224E9, 2021-05-06 17:02:54.445
58.0, 145.1006317138672, 217.25079345703125, 333.06427001953125, -191.15750122070312, 0.0, 0.03200000151991844, 1.055999994277954, 0.0, 0.0, 0.0, 0.0, 0.0, 1.6203133744591627E9, 2021-05-06 17:02:54.459
58.0, 145.77008056640625, 217.8903045654297, 333.3671875, -187.6756591796875, 0.0, 0.03200000151991844, 1.055999994277954, 0.0, 0.0, 0.0, 0.0, 0.0, 1.6203133744591627E9, 2021-05-06 17:02:54.459
59.0, 145.42974853515625, 216.91793823242188, 353.6037902832031, -179.19357299804688, 0.0, 0.03200000151991844, 1.055999994277954, 0.0, 0.0, 0.0, 0.0, 0.0, 1.6203133744748228E9, 2021-05-06 17:02:54.474
59.0, 148.6273651123047, 215.77352905273438, 352.814697265625, -193.573486328125, 0.0, 0.03200000151991844, 1.055999994277954, 0.0, 0.0, 0.0, 0.0, 0.0, 1.6203133744748228E9, 2021-05-06 17:02:54.474
60.0, 140.9979705810547, 218.85894775390625, 343.2854309082031, -193.6146240234375, 0.0, 0.03200000151991844, 1.055999994277954, 0.0, 0.0, 0.0, 0.0, 0.0, 1.6203133744756043E9, 2021-05-06 17:02:54.475
60.0, 146.39463806152344, 215.73239135742188, 334.05908203125, -197.24606323242188, 0.0, 0.03200000151991844, 1.055999994277954, 0.0, 0.0, 0.0, 0.0, 0.0, 1.6203133744756043E9, 2021-05-06 17:02:54.475
61.0, 150.84886169433594, 218.36154174804688, 351.782470703125, -195.24522399902344, 0.0, 0.03200000151991844, 1.055999994277954, 0.0, 0.0, 0.0, 0.0, 0.0, 1.6203133744890592E9, 2021-05-06 17:02:54.489
61.0, 154.48779296875, 216.6748504638672, 359.4567565917969, -196.5691375732422, 0.0, 0.03200000151991844, 1.055999994277954, 0.0, 0.0, 0.0, 0.0, 0.0, 1.6203133744890592E9, 2021-05-06 17:02:54.489
62.0, 132.4298553466797, 211.0649871826172, 338.8199768066406, -185.932861328125, 0.0, 0.03200000151991844, 1.055999994277954, 0.0, 0.0, 0.0, 0.0, 0.0, 1.6203133745212307E9, 2021-05-06 17:02:54.521
62.0, 147.3483123779297, 215.76979064941406, 332.5780944824219, -182.0732879638672, 0.0, 0.03200000151991844, 1.055999994277954, 0.0, 0.0, 0.0, 0.0, 0.0, 1.6203133745212307E9, 2021-05-06 17:02:54.521
63.0, 143.5897216796875, 225.63565063476562, 345.678955078125, -178.6961669921875, 0.0, 0.03200000151991844, 1.055999994277954, 0.0, 0.0, 0.0, 0.0, 0.0, 1.620313374522014E9, 2021-05-06 17:02:54.522
63.0, 136.59609985351562, 211.05751037597656, 348.1435546875, -176.272705078125, 0.0, 0.03200000151991844, 1.055999994277954, 0.0, 0.0, 0.0, 0.0, 0.0, 1.620313374522014E9, 2021-05-06 17:02:54.522
64.0, 142.69961547851562, 212.50111389160156, 337.709228515625, -179.840576171875, 0.0, 0.03200000151991844, 1.055999994277954, 0.0, 0.0, 0.0, 0.0, 0.0, 1.6203133745228071E9, 2021-05-06 17:02:54.522
64.0, 149.0499725341797, 209.57276916503906, 335.17730712890625, -178.27354431152344, 0.0, 0.03200000151991844, 1.055999994277954, 0.0, 0.0, 0.0, 0.0, 0.0, 1.6203133745228071E9, 2021-05-06 17:02:54.522
65.0, 134.4755859375, 207.1867218017578, 340.8208312988281, -176.02212524414062, 0.0, 0.03200000151991844, 1.055999994277954, 0.0, 0.0, 0.0, 0.0, 0.0, 1.6203133745235226E9, 2021-05-06 17:02:54.523
65.0, 139.86477661132812, 196.1053924560547, 343.2891540527344, -181.871337890625, 0.0, 0.03200000151991844, 1.055999994277954, 0.0, 0.0, 0.0, 0.0, 0.0, 1.6203133745235226E9, 2021-05-06 17:02:54.523
66.0, 143.2867889404297, 201.79751586914062, 337.1407470703125, -188.6143798828125, 0.0, 0.03200000151991844, 1.055999994277954, 0.0, 0.0, 0.0, 0.0, 0.0, 1.6203133745341508E9, 2021-05-06 17:02:54.534
66.0, 141.8880615234375, 201.23654174804688, 335.09503173828125, -183.4757537841797, 0.0, 0.03200000151991844, 1.055999994277954, 0.0, 0.0, 0.0, 0.0, 0.0, 1.6203133745341508E9, 2021-05-06 17:02:54.534
67.0, 150.5010528564453, 210.41050720214844, 347.95281982421875, -181.62075805664062, 0.0, 0.03200000151991844, 1.055999994277954, 0.0, 0.0, 0.0, 0.0, 0.0, 1.6203133745492811E9, 2021-05-06 17:02:54.549
67.0, 142.28823852539062, 205.20831298828125, 346.1464538574219, -191.0228729248047, 0.0, 0.03200000151991844, 1.055999994277954, 0.0, 0.0, 0.0, 0.0, 0.0, 1.6203133745492811E9, 2021-05-06 17:02:54.549
68.0, 138.5894775390625, 207.3437957763672, 330.0873107910156, -193.37527465820312, 0.0, 0.03200000151991844, 1.055999994277954, 0.0, 0.0, 0.0, 0.0, 0.0, 1.6203133745818768E9, 2021-05-06 17:02:54.581
68.0, 141.78334045410156, 213.9933319091797, 337.52972412109375, -186.6658935546875, 0.0, 0.03200000151991844, 1.055999994277954, 0.0, 0.0, 0.0, 0.0, 0.0, 1.6203133745818768E9, 2021-05-06 17:02:54.581
69.0, 149.12477111816406, 213.59317016601562, 339.9082946777344, -194.17185974121094, 0.0, 0.03200000151991844, 1.055999994277954, 0.0, 0.0, 0.0, 0.0, 0.0, 1.6203133745825636E9, 2021-05-06 17:02:54.582
69.0, 149.981201171875, 209.853271484375, 343.1246032714844, -193.40518188476562, 0.0, 0.03200000151991844, 1.055999994277954, 0.0, 0.0, 0.0, 0.0, 0.0, 1.6203133745825636E9, 2021-05-06 17:02:54.582
70.0, 139.8946990966797, 206.36767578125, 328.7409362792969, -205.15969848632812, 0.0, 0.03200000151991844, 1.055999994277954, 0.0, 0.0, 0.0, 0.0, 0.0, 1.6203133745833936E9, 2021-05-06 17:02:54.583
70.0, 146.35350036621094, 211.4090576171875, 330.7305603027344, -199.68821716308594, 0.0, 0.03200000151991844, 1.055999994277954, 0.0, 0.0, 0.0, 0.0, 0.0, 1.6203133745833936E9, 2021-05-06 17:02:54.583
71.0, 144.3563995361328, 207.06329345703125, 350.2154541015625, -184.6276397705078, 0.0, 0.03200000151991844, 1.055999994277954, 0.0, 0.0, 0.0, 0.0, 0.0, 1.6203133745841188E9, 2021-05-06 17:02:54.584
71.0, 153.26858520507812, 217.14981079101562, 352.1714172363281, -184.93431091308594, 0.0, 0.03200000151991844, 1.055999994277954, 0.0, 0.0, 0.0, 0.0, 0.0, 1.6203133745841188E9, 2021-05-06 17:02:54.584
72.0, 133.2526397705078, 208.11795043945312, 332.9782409667969, -180.3903350830078, 0.0, 0.03200000151991844, 1.055999994277954, 0.0, 0.0, 0.0, 0.0, 0.0, 1.620313374594165E9, 2021-05-06 17:02:54.594
72.0, 134.16143798828125, 199.9612274169922, 325.3226623535156, -178.50917053222656, 0.0, 0.03200000151991844, 1.055999994277954, 0.0, 0.0, 0.0, 0.0, 0.0, 1.620313374594165E9, 2021-05-06 17:02:54.594
73.0, 146.06553649902344, 215.8595428466797, 341.2434387207031, -177.71630859375, 0.0, 0.03200000151991844, 1.055999994277954, 0.0, 0.0, 0.0, 0.0, 0.0, 1.620313374609232E9, 2021-05-06 17:02:54.609
73.0, 140.1116180419922, 207.77761840820312, 342.8254089355469, -177.30865478515625, 0.0, 0.03200000151991844, 1.055999994277954, 0.0, 0.0, 0.0, 0.0, 0.0, 1.620313374609232E9, 2021-05-06 17:02:54.609
74.0, 129.980224609375, 194.91236877441406, 330.76422119140625, -180.58106994628906, 0.0, 0.03200000151991844, 1.055999994277954, 0.0, 0.0, 0.0, 0.0, 0.0, 1.6203133746256108E9, 2021-05-06 17:02:54.625
74.0, 136.02015686035156, 196.1053924560547, 331.79644775390625, -173.03768920898438, 0.0, 0.03200000151991844, 1.055999994277954, 0.0, 0.0, 0.0, 0.0, 0.0, 1.6203133746256108E9, 2021-05-06 17:02:54.625
75.0, 134.75607299804688, 203.49917602539062, 339.8409729003906, -178.92803955078125, 0.0, 0.03200000151991844, 1.055999994277954, 0.0, 0.0, 0.0, 0.0, 0.0, 1.620313374626268E9, 2021-05-06 17:02:54.626
75.0, 147.7709197998047, 207.55322265625, 345.1104736328125, -188.4385986328125, 0.0, 0.03200000151991844, 1.055999994277954, 0.0, 0.0, 0.0, 0.0, 0.0, 1.620313374626268E9, 2021-05-06 17:02:54.626
76.0, 128.5403594970703, 197.8070526123047, 330.1097412109375, -187.8963165283203, 0.0, 0.03200000151991844, 1.055999994277954, 0.0, 0.0, 0.0, 0.0, 0.0, 1.620313374639181E9, 2021-05-06 17:02:54.639
76.0, 144.33021545410156, 205.16343688964844, 326.3137512207031, -189.22398376464844, 0.0, 0.03200000151991844, 1.055999994277954, 0.0, 0.0, 0.0, 0.0, 0.0, 1.620313374639181E9, 2021-05-06 17:02:54.639
77.0, 146.8883056640625, 198.6597442626953, 339.81854248046875, -196.39710998535156, 0.0, 0.03200000151991844, 1.055999994277954, 0.0, 0.0, 0.0, 0.0, 0.0, 1.6203133746548717E9, 2021-05-06 17:02:54.654
77.0, 131.43504333496094, 199.05616760253906, 341.7296142578125, -191.67735290527344, 0.0, 0.03200000151991844, 1.055999994277954, 0.0, 0.0, 0.0, 0.0, 0.0, 1.6203133746548717E9, 2021-05-06 17:02:54.654
78.0, 135.1861572265625, 204.9278106689453, 331.8936767578125, -197.85940551757812, 0.0, 0.03200000151991844, 1.055999994277954, 0.0, 0.0, 0.0, 0.0, 0.0, 1.6203133746556244E9, 2021-05-06 17:02:54.655
78.0, 136.58114624023438, 214.19154357910156, 333.6589050292969, -190.06919860839844, 0.0, 0.03200000151991844, 1.055999994277954, 0.0, 0.0, 0.0, 0.0, 0.0, 1.6203133746556244E9, 2021-05-06 17:02:54.655
79.0, 141.8880615234375, 213.17056274414062, 343.5733947753906, -192.1298828125, 0.0, 0.03200000151991844, 1.055999994277954, 0.0, 0.0, 0.0, 0.0, 0.0, 1.6203133746691504E9, 2021-05-06 17:02:54.669
79.0, 142.81930541992188, 214.78993225097656, 351.3262023925781, -197.48167419433594, 0.0, 0.03200000151991844, 1.055999994277954, 0.0, 0.0, 0.0, 0.0, 0.0, 1.6203133746691504E9, 2021-05-06 17:02:54.669
80.0, 127.3922119140625, 208.60787963867188, 333.41583251953125, -196.9169464111328, 0.0, 0.03200000151991844, 1.055999994277954, 0.0, 0.0, 0.0, 0.0, 0.0, 1.620313374684877E9, 2021-05-06 17:02:54.684
80.0, 133.48451232910156, 209.78594970703125, 333.87957763671875, -192.46273803710938, 0.0, 0.03200000151991844, 1.055999994277954, 0.0, 0.0, 0.0, 0.0, 0.0, 1.620313374684877E9, 2021-05-06 17:02:54.684
81.0, 145.4447021484375, 213.59317016601562, 347.5227355957031, -190.2075653076172, 0.0, 0.03200000151991844, 1.055999994277954, 0.0, 0.0, 0.0, 0.0, 0.0, 1.62031337468562E9, 2021-05-06 17:02:54.685
81.0, 141.13633728027344, 209.4231719970703, 346.699951171875, -188.75274658203125, 0.0, 0.03200000151991844, 1.055999994277954, 0.0, 0.0, 0.0, 0.0, 0.0, 1.62031337468562E9, 2021-05-06 17:02:54.685
82.0, 133.89590454101562, 199.8789520263672, 332.2414855957031, -189.78121948242188, 0.0, 0.03200000151991844, 1.055999994277954, 0.0, 0.0, 0.0, 0.0, 0.0, 1.62031337469915E9, 2021-05-06 17:02:54.699
82.0, 134.46435546875, 207.16053771972656, 328.5090637207031, -186.448974609375, 0.0, 0.03200000151991844, 1.055999994277954, 0.0, 0.0, 0.0, 0.0, 0.0, 1.62031337469915E9, 2021-05-06 17:02:54.699
83.0, 155.56861877441406, 203.3682861328125, 344.6803894042969, -183.58795166015625, 0.0, 0.03200000151991844, 1.055999994277954, 0.0, 0.0, 0.0, 0.0, 0.0, 1.6203133747148857E9, 2021-05-06 17:02:54.714
83.0, 126.79756927490234, 204.1199951171875, 341.10504150390625, -193.5360870361328, 0.0, 0.03200000151991844, 1.055999994277954, 0.0, 0.0, 0.0, 0.0, 0.0, 1.6203133747148857E9, 2021-05-06 17:02:54.714
84.0, 138.22669982910156, 210.4815673828125, 331.9161071777344, -185.9777374267578, 0.0, 0.03200000151991844, 1.055999994277954, 0.0, 0.0, 0.0, 0.0, 0.0, 1.6203133747156188E9, 2021-05-06 17:02:54.715
84.0, 142.96890258789062, 206.8688201904297, 329.75445556640625, -183.7338104248047, 0.0, 0.03200000151991844, 1.055999994277954, 0.0, 0.0, 0.0, 0.0, 0.0, 1.6203133747156188E9, 2021-05-06 17:02:54.715
85.0, 139.2327423095703, 208.16282653808594, 340.2860107421875, -192.1298828125, 0.0, 0.03200000151991844, 1.055999994277954, 0.0, 0.0, 0.0, 0.0, 0.0, 1.6203133747292612E9, 2021-05-06 17:02:54.729
85.0, 149.40899658203125, 205.97872924804688, 341.1200256347656, -192.3804473876953, 0.0, 0.03200000151991844, 1.055999994277954, 0.0, 0.0, 0.0, 0.0, 0.0, 1.6203133747292612E9, 2021-05-06 17:02:54.729
86.0, 135.6573944091797, 200.96353149414062, 327.9593200683594, -194.10829162597656, 0.0, 0.03200000151991844, 1.055999994277954, 0.0, 0.0, 0.0, 0.0, 0.0, 1.6203133747451055E9, 2021-05-06 17:02:54.745
86.0, 136.57740783691406, 204.65853881835938, 325.6069030761719, -197.39566040039062, 0.0, 0.03200000151991844, 1.055999994277954, 0.0, 0.0, 0.0, 0.0, 0.0, 1.6203133747451055E9, 2021-05-06 17:02:54.745
87.0, 140.50430297851562, 202.81851196289062, 334.6499938964844, -197.3358154296875, 0.0, 0.03200000151991844, 1.055999994277954, 0.0, 0.0, 0.0, 0.0, 0.0, 1.6203133747455795E9, 2021-05-06 17:02:54.745
87.0, 141.44676208496094, 207.8486785888672, 345.6041564941406, -195.41351318359375, 0.0, 0.03200000151991844, 1.055999994277954, 0.0, 0.0, 0.0, 0.0, 0.0, 1.6203133747455795E9, 2021-05-06 17:02:54.745
88.0, 142.29197692871094, 205.63465881347656, 331.6019592285156, -195.8211669921875, 0.0, 0.03200000151991844, 1.055999994277954, 0.0, 0.0, 0.0, 0.0, 0.0, 1.6203133747590597E9, 2021-05-06 17:02:54.759
88.0, 143.7505340576172, 217.65843200683594, 331.5309143066406, -193.3565673828125, 0.0, 0.03200000151991844, 1.055999994277954, 0.0, 0.0, 0.0, 0.0, 0.0, 1.6203133747590597E9, 2021-05-06 17:02:54.759
89.0, 153.2947540283203, 207.11192321777344, 347.3506774902344, -186.9987335205078, 0.0, 0.03200000151991844, 1.055999994277954, 0.0, 0.0, 0.0, 0.0, 0.0, 1.6203133747748165E9, 2021-05-06 17:02:54.774
89.0, 141.846923828125, 209.10154724121094, 348.06500244140625, -191.98776245117188, 0.0, 0.03200000151991844, 1.055999994277954, 0.0, 0.0, 0.0, 0.0, 0.0, 1.6203133747748165E9, 2021-05-06 17:02:54.774
90.0, 136.6858673095703, 212.84144592285156, 337.7391357421875, -190.77976989746094, 0.0, 0.03200000151991844, 1.055999994277954, 0.0, 0.0, 0.0, 0.0, 0.0, 1.6203133747755027E9, 2021-05-06 17:02:54.775
90.0, 142.5687255859375, 222.4268035888672, 336.4339294433594, -176.40359497070312, 0.0, 0.03200000151991844, 1.055999994277954, 0.0, 0.0, 0.0, 0.0, 0.0, 1.6203133747755027E9, 2021-05-06 17:02:54.775
91.0, 150.6319580078125, 216.2821502685547, 348.3978576660156, -176.83743286132812, 0.0, 0.03200000151991844, 1.055999994277954, 0.0, 0.0, 0.0, 0.0, 0.0, 1.6203133747891355E9, 2021-05-06 17:02:54.789
91.0, 140.76609802246094, 215.36587524414062, 346.9879150390625, -187.1259002685547, 0.0, 0.03200000151991844, 1.055999994277954, 0.0, 0.0, 0.0, 0.0, 0.0, 1.6203133747891355E9, 2021-05-06 17:02:54.789
92.0, 131.32284545898438, 201.25149536132812, 332.69775390625, -181.22059631347656, 0.0, 0.03200000151991844, 1.055999994277954, 0.0, 0.0, 0.0, 0.0, 0.0, 1.6203133748048575E9, 2021-05-06 17:02:54.804
92.0, 133.43963623046875, 211.45394897460938, 330.4276428222656, -184.5790252685547, 0.0, 0.03200000151991844, 1.055999994277954, 0.0, 0.0, 0.0, 0.0, 0.0, 1.6203133748048575E9, 2021-05-06 17:02:54.804
93.0, 143.52613830566406, 213.9521942138672, 346.1090393066406, -187.2979278564453, 0.0, 0.03200000151991844, 1.055999994277954, 0.0, 0.0, 0.0, 0.0, 0.0, 1.6203133748055007E9, 2021-05-06 17:02:54.805
93.0, 141.8618927001953, 207.2615203857422, 339.62030029296875, -193.1957550048828, 0.0, 0.03200000151991844, 1.055999994277954, 0.0, 0.0, 0.0, 0.0, 0.0, 1.6203133748055007E9, 2021-05-06 17:02:54.805
94.0, 147.445556640625, 213.81007385253906, 337.1557312011719, -183.80487060546875, 0.0, 0.03200000151991844, 1.055999994277954, 0.0, 0.0, 0.0, 0.0, 0.0, 1.6203133748192282E9, 2021-05-06 17:02:54.819
94.0, 152.89833068847656, 215.85580444335938, 331.934814453125, -190.95928955078125, 0.0, 0.03200000151991844, 1.055999994277954, 0.0, 0.0, 0.0, 0.0, 0.0, 1.6203133748192282E9, 2021-05-06 17:02:54.819
95.0, 144.92112731933594, 203.90309143066406, 341.7071838378906, -197.01419067382812, 0.0, 0.03200000151991844, 1.055999994277954, 0.0, 0.0, 0.0, 0.0, 0.0, 1.6203133748348196E9, 2021-05-06 17:02:54.834
95.0, 139.53941345214844, 204.52764892578125, 343.8164978027344, -192.28695678710938, 0.0, 0.03200000151991844, 1.055999994277954, 0.0, 0.0, 0.0, 0.0, 0.0, 1.6203133748348196E9, 2021-05-06 17:02:54.834
96.0, 144.15818786621094, 200.57456970214844, 335.6073913574219, -196.90573120117188, 0.0, 0.03200000151991844, 1.055999994277954, 0.0, 0.0, 0.0, 0.0, 0.0, 1.620313374835557E9, 2021-05-06 17:02:54.835
96.0, 141.4691925048828, 207.72152709960938, 334.3695068359375, -191.35572814941406, 0.0, 0.03200000151991844, 1.055999994277954, 0.0, 0.0, 0.0, 0.0, 0.0, 1.620313374835557E9, 2021-05-06 17:02:54.835
97.0, 154.22225952148438, 211.0425567626953, 348.85040283203125, -194.9273223876953, 0.0, 0.03200000151991844, 1.055999994277954, 0.0, 0.0, 0.0, 0.0, 0.0, 1.620313374849185E9, 2021-05-06 17:02:54.849
97.0, 139.57681274414062, 203.63381958007812, 341.30328369140625, -202.52305603027344, 0.0, 0.03200000151991844, 1.055999994277954, 0.0, 0.0, 0.0, 0.0, 0.0, 1.620313374849185E9, 2021-05-06 17:02:54.849
98.0, 146.11415100097656, 205.06993103027344, 336.2170104980469, -190.0018768310547, 0.0, 0.03200000151991844, 1.055999994277954, 0.0, 0.0, 0.0, 0.0, 0.0, 1.6203133748646538E9, 2021-05-06 17:02:54.864
98.0, 133.23019409179688, 207.75892639160156, 328.7222595214844, -178.92430114746094, 0.0, 0.03200000151991844, 1.055999994277954, 0.0, 0.0, 0.0, 0.0, 0.0, 1.6203133748646538E9, 2021-05-06 17:02:54.864
99.0, 144.2628936767578, 210.3132781982422, 344.9945373535156, -176.788818359375, 0.0, 0.03200000151991844, 1.055999994277954, 0.0, 0.0, 0.0, 0.0, 0.0, 1.6203133748806436E9, 2021-05-06 17:02:54.880
99.0, 139.32249450683594, 201.29263305664062, 342.5523986816406, -178.25111389160156, 0.0, 0.03200000151991844, 1.055999994277954, 0.0, 0.0, 0.0, 0.0, 0.0, 1.6203133748806436E9, 2021-05-06 17:02:54.880
100.0, 139.95452880859375, 208.30494689941406, 336.0412292480469, -183.32989501953125, 0.0, 0.03200000151991844, 1.055999994277954, 0.0, 0.0, 0.0, 0.0, 0.0, 1.6203133748812406E9, 2021-05-06 17:02:54.881
100.0, 137.785400390625, 207.0894775390625, 331.4748229980469, -183.96942138671875, 0.0, 0.03200000151991844, 1.055999994277954, 0.0, 0.0, 0.0, 0.0, 0.0, 1.6203133748812406E9, 2021-05-06 17:02:54.881
0.0, 142.19473266601562, 212.57029724121094, 342.4588928222656, -179.27210998535156, 0.0, 0.03200000151991844, 1.055999994277954, 0.0, 0.0, 0.0, 0.0, 0.0, 1.6203133748820336E9, 2021-05-06 17:02:54.882
1.0, 141.67489624023438, 199.31983947753906, 340.0466613769531, -192.70208740234375, 0.0, 0.03200000151991844, 1.055999994277954, 0.0, 0.0, 0.0, 0.0, 0.0, 1.6203133748941655E9, 2021-05-06 17:02:54.894
1.0, 148.2047576904297, 207.04647827148438, 330.39398193359375, -193.24810791015625, 0.0, 0.03200000151991844, 1.055999994277954, 0.0, 0.0, 0.0, 0.0, 0.0, 1.6203133748941655E9, 2021-05-06 17:02:54.894
2.0, 133.60418701171875, 207.71217346191406, 328.8643493652344, -184.87448120117188, 0.0, 0.03200000151991844, 1.055999994277954, 0.0, 0.0, 0.0, 0.0, 0.0, 1.6203133749097967E9, 2021-05-06 17:02:54.909
2.0, 140.43324279785156, 205.25506591796875, 344.7738952636719, -189.841064453125, 0.0, 0.03200000151991844, 1.055999994277954, 0.0, 0.0, 0.0, 0.0, 0.0, 1.6203133749097967E9, 2021-05-06 17:02:54.909
3.0, 141.6300048828125, 209.13333129882812, 347.6162109375, -187.75045776367188, 0.0, 0.03200000151991844, 1.055999994277954, 0.0, 0.0, 0.0, 0.0, 0.0, 1.620313374910555E9, 2021-05-06 17:02:54.910
3.0, 147.03042602539062, 211.13418579101562, 337.1632080078125, -186.10116577148438, 0.0, 0.03200000151991844, 1.055999994277954, 0.0, 0.0, 0.0, 0.0, 0.0, 1.620313374910555E9, 2021-05-06 17:02:54.910
4.0, 141.45797729492188, 208.2843780517578, 333.58038330078125, -188.6405487060547, 0.0, 0.03200000151991844, 1.055999994277954, 0.0, 0.0, 0.0, 0.0, 0.0, 1.6203133749241707E9, 2021-05-06 17:02:54.924
4.0, 154.63363647460938, 205.7786407470703, 339.2014465332031, -190.49928283691406, 0.0, 0.03200000151991844, 1.055999994277954, 0.0, 0.0, 0.0, 0.0, 0.0, 1.6203133749241707E9, 2021-05-06 17:02:54.924
5.0, 138.2528839111328, 210.98458862304688, 343.7528991699219, -190.05422973632812, 0.0, 0.03200000151991844, 1.055999994277954, 0.0, 0.0, 0.0, 0.0, 0.0, 1.6203133749397871E9, 2021-05-06 17:02:54.939
5.0, 136.22586059570312, 207.4391632080078, 326.0594482421875, -193.77169799804688, 0.0, 0.03200000151991844, 1.055999994277954, 0.0, 0.0, 0.0, 0.0, 0.0, 1.6203133749397871E9, 2021-05-06 17:02:54.939
6.0, 138.17434692382812, 215.37896728515625, 329.4178771972656, -186.2769317626953, 0.0, 0.03200000151991844, 1.055999994277954, 0.0, 0.0, 0.0, 0.0, 0.0, 1.620313374940519E9, 2021-05-06 17:02:54.940
6.0, 149.1397247314453, 214.94140625, 352.0928955078125, -183.56924438476562, 0.0, 0.03200000151991844, 1.055999994277954, 0.0, 0.0, 0.0, 0.0, 0.0, 1.620313374940519E9, 2021-05-06 17:02:54.940
7.0, 158.83355712890625, 200.23611450195312, 342.5561218261719, -198.4129180908203, 0.0, 0.03200000151991844, 1.055999994277954, 0.0, 0.0, 0.0, 0.0, 0.0, 1.62031337495418E9, 2021-05-06 17:02:54.954
7.0, 122.5378189086914, 204.37619018554688, 330.9736633300781, -188.63681030273438, 0.0, 0.03200000151991844, 1.055999994277954, 0.0, 0.0, 0.0, 0.0, 0.0, 1.62031337495418E9, 2021-05-06 17:02:54.954
8.0, 141.54025268554688, 209.90750122070312, 332.91094970703125, -186.56491088867188, 0.0, 0.03200000151991844, 1.055999994277954, 0.0, 0.0, 0.0, 0.0, 0.0, 1.620313374986906E9, 2021-05-06 17:02:54.986
8.0, 138.5520782470703, 217.83982849121094, 349.9200134277344, -182.36874389648438, 0.0, 0.03200000151991844, 1.055999994277954, 0.0, 0.0, 0.0, 0.0, 0.0, 1.620313374986906E9, 2021-05-06 17:02:54.986
9.0, 140.321044921875, 203.650634765625, 346.50921630859375, -189.81488037109375, 0.0, 0.03200000151991844, 1.055999994277954, 0.0, 0.0, 0.0, 0.0, 0.0, 1.620313374987595E9, 2021-05-06 17:02:54.987
9.0, 139.640380859375, 210.2328643798828, 338.0869445800781, -185.02032470703125, 0.0, 0.03200000151991844, 1.055999994277954, 0.0, 0.0, 0.0, 0.0, 0.0, 1.620313374987595E9, 2021-05-06 17:02:54.987
10.0, 134.50550842285156, 209.22683715820312, 329.58990478515625, -184.90065002441406, 0.0, 0.03200000151991844, 1.055999994277954, 0.0, 0.0, 0.0, 0.0, 0.0, 1.6203133749882915E9, 2021-05-06 17:02:54.988
10.0, 140.0779571533203, 211.57174682617188, 342.275634765625, -191.6586456298828, 0.0, 0.03200000151991844, 1.055999994277954, 0.0, 0.0, 0.0, 0.0, 0.0, 1.6203133749882915E9, 2021-05-06 17:02:54.988
11.0, 143.2344207763672, 209.79530334472656, 344.6542053222656, -190.9405975341797, 0.0, 0.03200000151991844, 1.055999994277954, 0.0, 0.0, 0.0, 0.0, 0.0, 1.6203133749892228E9, 2021-05-06 17:02:54.989
11.0, 142.55377197265625, 205.8646697998047, 334.4629821777344, -190.4656219482422, 0.0, 0.03200000151991844, 1.055999994277954, 0.0, 0.0, 0.0, 0.0, 0.0, 1.6203133749892228E9, 2021-05-06 17:02:54.989
12.0, 135.38064575195312, 208.09738159179688, 335.2745361328125, -188.9173126220703, 0.0, 0.03200000151991844, 1.055999994277954, 0.0, 0.0, 0.0, 0.0, 0.0, 1.6203133749991868E9, 2021-05-06 17:02:54.999
12.0, 138.14068603515625, 209.7616424560547, 346.41571044921875, -190.33099365234375, 0.0, 0.03200000151991844, 1.055999994277954, 0.0, 0.0, 0.0, 0.0, 0.0, 1.6203133749991868E9, 2021-05-06 17:02:54.999
13.0, 141.7085418701172, 205.4345703125, 341.3144836425781, -194.47105407714844, 0.0, 0.03200000151991844, 1.055999994277954, 0.0, 0.0, 0.0, 0.0, 0.0, 1.6203133750142553E9, 2021-05-06 17:02:55.014
13.0, 146.83969116210938, 213.5763397216797, 330.7978820800781, -194.12698364257812, 0.0, 0.03200000151991844, 1.055999994277954, 0.0, 0.0, 0.0, 0.0, 0.0, 1.6203133750142553E9, 2021-05-06 17:02:55.014
14.0, 144.2329864501953, 210.857421875, 328.73345947265625, -190.76107788085938, 0.0, 0.03200000151991844, 1.055999994277954, 0.0, 0.0, 0.0, 0.0, 0.0, 1.6203133750299067E9, 2021-05-06 17:02:55.029
14.0, 143.19703674316406, 200.67742919921875, 340.31219482421875, -194.26162719726562, 0.0, 0.03200000151991844, 1.055999994277954, 0.0, 0.0, 0.0, 0.0, 0.0, 1.6203133750299067E9, 2021-05-06 17:02:55.029
15.0, 137.0635986328125, 197.59201049804688, 340.2934875488281, -196.29612731933594, 0.0, 0.03200000151991844, 1.055999994277954, 0.0, 0.0, 0.0, 0.0, 0.0, 1.6203133750306466E9, 2021-05-06 17:02:55.030
15.0, 132.96466064453125, 202.0387420654297, 327.966796875, -187.77664184570312, 0.0, 0.03200000151991844, 1.055999994277954, 0.0, 0.0, 0.0, 0.0, 0.0, 1.6203133750306466E9, 2021-05-06 17:02:55.030
16.0, 137.55726623535156, 204.88107299804688, 327.4282531738281, -188.90234375, 0.0, 0.03200000151991844, 1.055999994277954, 0.0, 0.0, 0.0, 0.0, 0.0, 1.6203133750442104E9, 2021-05-06 17:02:55.044
16.0, 142.6248321533203, 209.26797485351562, 343.62200927734375, -187.4176025390625, 0.0, 0.03200000151991844, 1.055999994277954, 0.0, 0.0, 0.0, 0.0, 0.0, 1.6203133750442104E9, 2021-05-06 17:02:55.044
17.0, 149.92510986328125, 210.93222045898438, 347.9378662109375, -185.82066345214844, 0.0, 0.03200000151991844, 1.055999994277954, 0.0, 0.0, 0.0, 0.0, 0.0, 1.6203133750599933E9, 2021-05-06 17:02:55.059
17.0, 129.48281860351562, 206.5341033935547, 334.6499938964844, -182.01719665527344, 0.0, 0.03200000151991844, 1.055999994277954, 0.0, 0.0, 0.0, 0.0, 0.0, 1.6203133750599933E9, 2021-05-06 17:02:55.059
18.0, 137.03367614746094, 211.13418579101562, 335.8617248535156, -178.6063995361328, 0.0, 0.03200000151991844, 1.055999994277954, 0.0, 0.0, 0.0, 0.0, 0.0, 1.6203133750607421E9, 2021-05-06 17:02:55.060
18.0, 143.73558044433594, 214.07000732421875, 353.7533874511719, -172.12889099121094, 0.0, 0.03200000151991844, 1.055999994277954, 0.0, 0.0, 0.0, 0.0, 0.0, 1.6203133750607421E9, 2021-05-06 17:02:55.060
19.0, 133.89215087890625, 207.12875366210938, 344.0259094238281, -185.39805603027344, 0.0, 0.03200000151991844, 1.055999994277954, 0.0, 0.0, 0.0, 0.0, 0.0, 1.6203133750741513E9, 2021-05-06 17:02:55.074
19.0, 140.63145446777344, 209.66065979003906, 333.77484130859375, -182.90728759765625, 0.0, 0.03200000151991844, 1.055999994277954, 0.0, 0.0, 0.0, 0.0, 0.0, 1.6203133750741513E9, 2021-05-06 17:02:55.074
20.0, 136.6858673095703, 201.4927215576172, 327.7685852050781, -188.70413208007812, 0.0, 0.03200000151991844, 1.055999994277954, 0.0, 0.0, 0.0, 0.0, 0.0, 1.6203133750905855E9, 2021-05-06 17:02:55.090
20.0, 137.6133575439453, 208.84536743164062, 344.7813720703125, -189.87472534179688, 0.0, 0.03200000151991844, 1.055999994277954, 0.0, 0.0, 0.0, 0.0, 0.0, 1.6203133750905855E9, 2021-05-06 17:02:55.090
21.0, 138.42117309570312, 200.82701110839844, 336.0299987792969, -196.6289825439453, 0.0, 0.03200000151991844, 1.055999994277954, 0.0, 0.0, 0.0, 0.0, 0.0, 1.6203133750912595E9, 2021-05-06 17:02:55.091
21.0, 131.2106475830078, 199.5442352294922, 323.7145080566406, -202.24256896972656, 0.0, 0.03200000151991844, 1.055999994277954, 0.0, 0.0, 0.0, 0.0, 0.0, 1.6203133750912595E9, 2021-05-06 17:02:55.091
22.0, 140.24998474121094, 212.4805450439453, 334.05908203125, -194.20925903320312, 0.0, 0.03200000151991844, 1.055999994277954, 0.0, 0.0, 0.0, 0.0, 0.0, 1.620313375120592E9, 2021-05-06 17:02:55.120
22.0, 144.12078857421875, 214.91148376464844, 348.8466491699219, -190.61521911621094, 0.0, 0.03200000151991844, 1.055999994277954, 0.0, 0.0, 0.0, 0.0, 0.0, 1.620313375120592E9, 2021-05-06 17:02:55.120
23.0, 145.25396728515625, 211.6166229248047, 350.35382080078125, -190.9443359375, 0.0, 0.03200000151991844, 1.055999994277954, 0.0, 0.0, 0.0, 0.0, 0.0, 1.6203133751213405E9, 2021-05-06 17:02:55.121
23.0, 133.30125427246094, 217.0955810546875, 336.75927734375, -185.11009216308594, 0.0, 0.03200000151991844, 1.055999994277954, 0.0, 0.0, 0.0, 0.0, 0.0, 1.6203133751213405E9, 2021-05-06 17:02:55.121
24.0, 136.6297607421875, 207.91038513183594, 333.4382629394531, -187.73550415039062, 0.0, 0.03200000151991844, 1.055999994277954, 0.0, 0.0, 0.0, 0.0, 0.0, 1.6203133751219535E9, 2021-05-06 17:02:55.121
24.0, 147.7073516845703, 211.04441833496094, 351.5767822265625, -186.47889709472656, 0.0, 0.03200000151991844, 1.055999994277954, 0.0, 0.0, 0.0, 0.0, 0.0, 1.6203133751219535E9, 2021-05-06 17:02:55.121
25.0, 159.38705444335938, 203.84136962890625, 349.1570739746094, -191.71849060058594, 0.0, 0.03200000151991844, 1.055999994277954, 0.0, 0.0, 0.0, 0.0, 0.0, 1.6203133751342337E9, 2021-05-06 17:02:55.134
25.0, 132.28025817871094, 197.04971313476562, 327.08416748046875, -196.4532012939453, 0.0, 0.03200000151991844, 1.055999994277954, 0.0, 0.0, 0.0, 0.0, 0.0, 1.6203133751342337E9, 2021-05-06 17:02:55.134
26.0, 130.84788513183594, 201.58995056152344, 326.49700927734375, -193.07608032226562, 0.0, 0.03200000151991844, 1.055999994277954, 0.0, 0.0, 0.0, 0.0, 0.0, 1.6203133751498916E9, 2021-05-06 17:02:55.149
26.0, 139.3524169921875, 205.53929138183594, 338.6441955566406, -196.89825439453125, 0.0, 0.03200000151991844, 1.055999994277954, 0.0, 0.0, 0.0, 0.0, 0.0, 1.6203133751498916E9, 2021-05-06 17:02:55.149
27.0, 141.71603393554688, 197.5022430419922, 337.1407470703125, -201.8311767578125, 0.0, 0.03200000151991844, 1.055999994277954, 0.0, 0.0, 0.0, 0.0, 0.0, 1.6203133751505945E9, 2021-05-06 17:02:55.150
27.0, 132.68417358398438, 197.2628936767578, 323.26947021484375, -203.65625, 0.0, 0.03200000151991844, 1.055999994277954, 0.0, 0.0, 0.0, 0.0, 0.0, 1.6203133751505945E9, 2021-05-06 17:02:55.150
28.0, 138.03970336914062, 200.92051696777344, 326.4296875, -197.41061401367188, 0.0, 0.03200000151991844, 1.055999994277954, 0.0, 0.0, 0.0, 0.0, 0.0, 1.6203133751643252E9, 2021-05-06 17:02:55.164
28.0, 158.41468811035156, 214.8030242919922, 345.9781494140625, -191.38563537597656, 0.0, 0.03200000151991844, 1.055999994277954, 0.0, 0.0, 0.0, 0.0, 0.0, 1.6203133751643252E9, 2021-05-06 17:02:55.164
29.0, 148.28329467773438, 212.8134002685547, 348.566162109375, -197.86314392089844, 0.0, 0.03200000151991844, 1.055999994277954, 0.0, 0.0, 0.0, 0.0, 0.0, 1.620313375179821E9, 2021-05-06 17:02:55.179
29.0, 138.31646728515625, 209.15203857421875, 338.378662109375, -194.57577514648438, 0.0, 0.03200000151991844, 1.055999994277954, 0.0, 0.0, 0.0, 0.0, 0.0, 1.620313375179821E9, 2021-05-06 17:02:55.179
30.0, 147.35580444335938, 206.33963012695312, 336.1758728027344, -193.19949340820312, 0.0, 0.03200000151991844, 1.055999994277954, 0.0, 0.0, 0.0, 0.0, 0.0, 1.6203133751805496E9, 2021-05-06 17:02:55.180
30.0, 145.7401580810547, 205.93197631835938, 345.5929260253906, -192.7581787109375, 0.0, 0.03200000151991844, 1.055999994277954, 0.0, 0.0, 0.0, 0.0, 0.0, 1.6203133751805496E9, 2021-05-06 17:02:55.180
31.0, 143.8515167236328, 204.0807342529297, 343.0909423828125, -197.47793579101562, 0.0, 0.03200000151991844, 1.055999994277954, 0.0, 0.0, 0.0, 0.0, 0.0, 1.6203133751942732E9, 2021-05-06 17:02:55.194
31.0, 142.8230438232422, 208.0375518798828, 327.62646484375, -200.23049926757812, 0.0, 0.03200000151991844, 1.055999994277954, 0.0, 0.0, 0.0, 0.0, 0.0, 1.6203133751942732E9, 2021-05-06 17:02:55.194
32.0, 137.35903930664062, 194.21487426757812, 318.882568359375, -207.90103149414062, 0.0, 0.03200000151991844, 1.055999994277954, 0.0, 0.0, 0.0, 0.0, 0.0, 1.6203133752097793E9, 2021-05-06 17:02:55.209
32.0, 141.01666259765625, 197.9248504638672, 328.0453186035156, -205.9824676513672, 0.0, 0.03200000151991844, 1.055999994277954, 0.0, 0.0, 0.0, 0.0, 0.0, 1.6203133752097793E9, 2021-05-06 17:02:55.209
33.0, 142.6136016845703, 201.2122344970703, 335.0613708496094, -197.99778747558594, 0.0, 0.03200000151991844, 1.055999994277954, 0.0, 0.0, 0.0, 0.0, 0.0, 1.620313375210534E9, 2021-05-06 17:02:55.210
33.0, 137.07107543945312, 203.65438842773438, 322.76458740234375, -196.8459014892578, 0.0, 0.03200000151991844, 1.055999994277954, 0.0, 0.0, 0.0, 0.0, 0.0, 1.620313375210534E9, 2021-05-06 17:02:55.210
34.0, 135.08145141601562, 211.68020629882812, 327.81719970703125, -190.850830078125, 0.0, 0.03200000151991844, 1.055999994277954, 0.0, 0.0, 0.0, 0.0, 0.0, 1.6203133752242048E9, 2021-05-06 17:02:55.224
34.0, 142.28074645996094, 209.0398406982422, 346.82708740234375, -187.7130584716797, 0.0, 0.03200000151991844, 1.055999994277954, 0.0, 0.0, 0.0, 0.0, 0.0, 1.6203133752242048E9, 2021-05-06 17:02:55.224
35.0, 144.7752685546875, 205.72628784179688, 341.2583923339844, -181.4113311767578, 0.0, 0.03200000151991844, 1.055999994277954, 0.0, 0.0, 0.0, 0.0, 0.0, 1.6203133752398727E9, 2021-05-06 17:02:55.239
35.0, 135.38812255859375, 204.86610412597656, 330.78668212890625, -189.5867462158203, 0.0, 0.03200000151991844, 1.055999994277954, 0.0, 0.0, 0.0, 0.0, 0.0, 1.6203133752398727E9, 2021-05-06 17:02:55.239
36.0, 135.90048217773438, 206.01800537109375, 330.1209716796875, -188.6106414794922, 0.0, 0.03200000151991844, 1.055999994277954, 0.0, 0.0, 0.0, 0.0, 0.0, 1.6203133752404935E9, 2021-05-06 17:02:55.240
36.0, 145.743896484375, 198.22030639648438, 347.4292297363281, -191.69979858398438, 0.0, 0.03200000151991844, 1.055999994277954, 0.0, 0.0, 0.0, 0.0, 0.0, 1.6203133752404935E9, 2021-05-06 17:02:55.240
37.0, 146.48440551757812, 200.06407165527344, 342.97125244140625, -203.2785186767578, 0.0, 0.03200000151991844, 1.055999994277954, 0.0, 0.0, 0.0, 0.0, 0.0, 1.620313375254344E9, 2021-05-06 17:02:55.254
37.0, 152.3186492919922, 201.3206787109375, 331.8226318359375, -196.9132080078125, 0.0, 0.03200000151991844, 1.055999994277954, 0.0, 0.0, 0.0, 0.0, 0.0, 1.620313375254344E9, 2021-05-06 17:02:55.254
38.0, 147.95791625976562, 194.52528381347656, 328.02288818359375, -199.43763732910156, 0.0, 0.03200000151991844, 1.055999994277954, 0.0, 0.0, 0.0, 0.0, 0.0, 1.62031337526988E9, 2021-05-06 17:02:55.269
38.0, 145.17543029785156, 204.18919372558594, 339.1640319824219, -202.36972045898438, 0.0, 0.03200000151991844, 1.055999994277954, 0.0, 0.0, 0.0, 0.0, 0.0, 1.62031337526988E9, 2021-05-06 17:02:55.269
39.0, 152.6589813232422, 203.1943817138672, 341.23968505859375, -197.3844451904297, 0.0, 0.03200000151991844, 1.055999994277954, 0.0, 0.0, 0.0, 0.0, 0.0, 1.620313375270625E9, 2021-05-06 17:02:55.270
39.0, 137.11221313476562, 198.85235595703125, 326.3062744140625, -200.0135955810547, 0.0, 0.03200000151991844, 1.055999994277954, 0.0, 0.0, 0.0, 0.0, 0.0, 1.620313375270625E9, 2021-05-06 17:02:55.270
40.0, 139.0943603515625, 211.6689910888672, 325.48724365234375, -194.6804962158203, 0.0, 0.03200000151991844, 1.055999994277954, 0.0, 0.0, 0.0, 0.0, 0.0, 1.6203133752842774E9, 2021-05-06 17:02:55.284
40.0, 142.37799072265625, 209.89627075195312, 341.4117126464844, -190.24496459960938, 0.0, 0.03200000151991844, 1.055999994277954, 0.0, 0.0, 0.0, 0.0, 0.0, 1.6203133752842774E9, 2021-05-06 17:02:55.284
41.0, 132.00350952148438, 205.89083862304688, 338.0981750488281, -200.65684509277344, 0.0, 0.03200000151991844, 1.055999994277954, 0.0, 0.0, 0.0, 0.0, 0.0, 1.6203133752998712E9, 2021-05-06 17:02:55.299
41.0, 129.35940551757812, 205.2737579345703, 332.30133056640625, -196.52052307128906, 0.0, 0.03200000151991844, 1.055999994277954, 0.0, 0.0, 0.0, 0.0, 0.0, 1.6203133752998712E9, 2021-05-06 17:02:55.299
42.0, 139.23648071289062, 210.01220703125, 335.78692626953125, -188.16932678222656, 0.0, 0.03200000151991844, 1.055999994277954, 0.0, 0.0, 0.0, 0.0, 0.0, 1.6203133753006048E9, 2021-05-06 17:02:55.300
42.0, 140.95309448242188, 214.94140625, 347.2833557128906, -183.9881134033203, 0.0, 0.03200000151991844, 1.055999994277954, 0.0, 0.0, 0.0, 0.0, 0.0, 1.6203133753006048E9, 2021-05-06 17:02:55.300
43.0, 136.8429412841797, 200.8681640625, 338.5993347167969, -189.72512817382812, 0.0, 0.03200000151991844, 1.055999994277954, 0.0, 0.0, 0.0, 0.0, 0.0, 1.6203133753143306E9, 2021-05-06 17:02:55.314
43.0, 146.6414794921875, 206.1526336669922, 334.05535888671875, -189.57553100585938, 0.0, 0.03200000151991844, 1.055999994277954, 0.0, 0.0, 0.0, 0.0, 0.0, 1.6203133753143306E9, 2021-05-06 17:02:55.314
44.0, 130.96755981445312, 213.28836059570312, 336.1309814453125, -182.69036865234375, 0.0, 0.03200000151991844, 1.055999994277954, 0.0, 0.0, 0.0, 0.0, 0.0, 1.6203133753301675E9, 2021-05-06 17:02:55.330
44.0, 139.62916564941406, 209.39512634277344, 343.96234130859375, -192.72451782226562, 0.0, 0.03200000151991844, 1.055999994277954, 0.0, 0.0, 0.0, 0.0, 0.0, 1.6203133753301675E9, 2021-05-06 17:02:55.330
45.0, 137.1496124267578, 208.55738830566406, 344.0296630859375, -188.62559509277344, 0.0, 0.03200000151991844, 1.055999994277954, 0.0, 0.0, 0.0, 0.0, 0.0, 1.6203133753447936E9, 2021-05-06 17:02:55.344
45.0, 128.73109436035156, 209.929931640625, 327.20758056640625, -191.21360778808594, 0.0, 0.03200000151991844, 1.055999994277954, 0.0, 0.0, 0.0, 0.0, 0.0, 1.6203133753447936E9, 2021-05-06 17:02:55.344
46.0, 135.9565887451172, 203.5646209716797, 328.0154113769531, -191.09019470214844, 0.0, 0.03200000151991844, 1.055999994277954, 0.0, 0.0, 0.0, 0.0, 0.0, 1.6203133753455083E9, 2021-05-06 17:02:55.345
46.0, 145.97950744628906, 203.75161743164062, 340.4954528808594, -198.0164794921875, 0.0, 0.03200000151991844, 1.055999994277954, 0.0, 0.0, 0.0, 0.0, 0.0, 1.6203133753455083E9, 2021-05-06 17:02:55.345
47.0, 142.1012420654297, 203.54592895507812, 341.3070068359375, -198.8355255126953, 0.0, 0.03200000151991844, 1.055999994277954, 0.0, 0.0, 0.0, 0.0, 0.0, 1.6203133753599133E9, 2021-05-06 17:02:55.359
47.0, 135.578857421875, 218.89073181152344, 334.66119384765625, -187.294189453125, 0.0, 0.03200000151991844, 1.055999994277954, 0.0, 0.0, 0.0, 0.0, 0.0, 1.6203133753599133E9, 2021-05-06 17:02:55.359
48.0, 141.19618225097656, 216.0072784423828, 336.3890380859375, -192.1261444091797, 0.0, 0.03200000151991844, 1.055999994277954, 0.0, 0.0, 0.0, 0.0, 0.0, 1.6203133753605928E9, 2021-05-06 17:02:55.360
48.0, 140.4182891845703, 211.44085693359375, 351.63287353515625, -182.14060974121094, 0.0, 0.03200000151991844, 1.055999994277954, 0.0, 0.0, 0.0, 0.0, 0.0, 1.6203133753605928E9, 2021-05-06 17:02:55.360
49.0, 134.71119689941406, 215.42010498046875, 343.92120361328125, -186.273193359375, 0.0, 0.03200000151991844, 1.055999994277954, 0.0, 0.0, 0.0, 0.0, 0.0, 1.6203133753742392E9, 2021-05-06 17:02:55.374
49.0, 137.8639373779297, 209.2455291748047, 341.7370910644531, -180.79049682617188, 0.0, 0.03200000151991844, 1.055999994277954, 0.0, 0.0, 0.0, 0.0, 0.0, 1.6203133753742392E9, 2021-05-06 17:02:55.374
50.0, 151.45472717285156, 218.47186279296875, 343.7828369140625, -176.3923797607422, 0.0, 0.03200000151991844, 1.055999994277954, 0.0, 0.0, 0.0, 0.0, 0.0, 1.6203133753903232E9, 2021-05-06 17:02:55.390
50.0, 128.67874145507812, 206.85948181152344, 344.0633239746094, -177.72378540039062, 0.0, 0.03200000151991844, 1.055999994277954, 0.0, 0.0, 0.0, 0.0, 0.0, 1.6203133753903232E9, 2021-05-06 17:02:55.390
51.0, 132.9048309326172, 213.8680419921875, 346.5989685058594, -180.54367065429688, 0.0, 0.03200000151991844, 1.055999994277954, 0.0, 0.0, 0.0, 0.0, 0.0, 1.6203133754048545E9, 2021-05-06 17:02:55.404
51.0, 136.21463012695312, 209.20065307617188, 335.8654479980469, -183.7749481201172, 0.0, 0.03200000151991844, 1.055999994277954, 0.0, 0.0, 0.0, 0.0, 0.0, 1.6203133754048545E9, 2021-05-06 17:02:55.404
52.0, 133.7089080810547, 212.67501831054688, 337.9373474121094, -177.64898681640625, 0.0, 0.03200000151991844, 1.055999994277954, 0.0, 0.0, 0.0, 0.0, 0.0, 1.6203133754056249E9, 2021-05-06 17:02:55.405
52.0, 139.6815185546875, 209.91123962402344, 344.64300537109375, -186.44149780273438, 0.0, 0.03200000151991844, 1.055999994277954, 0.0, 0.0, 0.0, 0.0, 0.0, 1.6203133754056249E9, 2021-05-06 17:02:55.405
53.0, 135.4890899658203, 209.54098510742188, 343.9698181152344, -188.04217529296875, 0.0, 0.03200000151991844, 1.055999994277954, 0.0, 0.0, 0.0, 0.0, 0.0, 1.6203133754199147E9, 2021-05-06 17:02:55.419
53.0, 132.8636932373047, 210.75271606445312, 330.0574035644531, -187.1333770751953, 0.0, 0.03200000151991844, 1.055999994277954, 0.0, 0.0, 0.0, 0.0, 0.0, 1.6203133754199147E9, 2021-05-06 17:02:55.419
54.0, 147.04913330078125, 219.16000366210938, 336.00384521484375, -183.93576049804688, 0.0, 0.03200000151991844, 1.055999994277954, 0.0, 0.0, 0.0, 0.0, 0.0, 1.6203133754207203E9, 2021-05-06 17:02:55.420
54.0, 137.15708923339844, 212.59274291992188, 343.5359802246094, -189.33242797851562, 0.0, 0.03200000151991844, 1.055999994277954, 0.0, 0.0, 0.0, 0.0, 0.0, 1.6203133754207203E9, 2021-05-06 17:02:55.420
55.0, 137.0673370361328, 215.49490356445312, 343.0946960449219, -192.79183959960938, 0.0, 0.03200000151991844, 1.055999994277954, 0.0, 0.0, 0.0, 0.0, 0.0, 1.620313375434273E9, 2021-05-06 17:02:55.434
55.0, 132.60189819335938, 200.63253784179688, 329.0550842285156, -194.68797302246094, 0.0, 0.03200000151991844, 1.055999994277954, 0.0, 0.0, 0.0, 0.0, 0.0, 1.620313375434273E9, 2021-05-06 17:02:55.434
56.0, 136.27821350097656, 220.951416015625, 341.0078125, -185.05772399902344, 0.0, 0.03200000151991844, 1.055999994277954, 0.0, 0.0, 0.0, 0.0, 0.0, 1.620313375450282E9, 2021-05-06 17:02:55.450
56.0, 155.1534881591797, 214.82171630859375, 346.2287292480469, -191.26596069335938, 0.0, 0.03200000151991844, 1.055999994277954, 0.0, 0.0, 0.0, 0.0, 0.0, 1.620313375450282E9, 2021-05-06 17:02:55.450
57.0, 135.9565887451172, 217.98193359375, 346.7111511230469, -188.50965881347656, 0.0, 0.03200000151991844, 1.055999994277954, 0.0, 0.0, 0.0, 0.0, 0.0, 1.6203133754813004E9, 2021-05-06 17:02:55.481
57.0, 133.2825469970703, 213.97276306152344, 338.9022521972656, -195.67530822753906, 0.0, 0.03200000151991844, 1.055999994277954, 0.0, 0.0, 0.0, 0.0, 0.0, 1.6203133754813004E9, 2021-05-06 17:02:55.481
58.0, 147.610107421875, 213.72967529296875, 337.6905212402344, -196.98052978515625, 0.0, 0.03200000151991844, 1.055999994277954, 0.0, 0.0, 0.0, 0.0, 0.0, 1.6203133754819345E9, 2021-05-06 17:02:55.481
58.0, 147.5315704345703, 219.35073852539062, 350.24163818359375, -184.13397216796875, 0.0, 0.03200000151991844, 1.055999994277954, 0.0, 0.0, 0.0, 0.0, 0.0, 1.6203133754819345E9, 2021-05-06 17:02:55.481
59.0, 143.20077514648438, 215.704345703125, 346.0716552734375, -191.52401733398438, 0.0, 0.03200000151991844, 1.055999994277954, 0.0, 0.0, 0.0, 0.0, 0.0, 1.6203133754827368E9, 2021-05-06 17:02:55.482
59.0, 147.03042602539062, 224.15650939941406, 343.4387512207031, -184.56031799316406, 0.0, 0.03200000151991844, 1.055999994277954, 0.0, 0.0, 0.0, 0.0, 0.0, 1.6203133754827368E9, 2021-05-06 17:02:55.482
60.0, 140.63893127441406, 215.22189331054688, 342.0886535644531, -188.36380004882812, 0.0, 0.03200000151991844, 1.055999994277954, 0.0, 0.0, 0.0, 0.0, 0.0, 1.6203133754834764E9, 2021-05-06 17:02:55.483
60.0, 145.755126953125, 214.87408447265625, 346.58026123046875, -186.50506591796875, 0.0, 0.03200000151991844, 1.055999994277954, 0.0, 0.0, 0.0, 0.0, 0.0, 1.6203133754834764E9, 2021-05-06 17:02:55.483
61.0, 144.41622924804688, 209.7279815673828, 343.1283264160156, -187.78038024902344, 0.0, 0.03200000151991844, 1.055999994277954, 0.0, 0.0, 0.0, 0.0, 0.0, 1.620313375494308E9, 2021-05-06 17:02:55.494
61.0, 138.2005157470703, 205.1727752685547, 336.16839599609375, -190.14773559570312, 0.0, 0.03200000151991844, 1.055999994277954, 0.0, 0.0, 0.0, 0.0, 0.0, 1.620313375494308E9, 2021-05-06 17:02:55.494
62.0, 126.50211334228516, 207.08387756347656, 333.29241943359375, -191.20986938476562, 0.0, 0.03200000151991844, 1.055999994277954, 0.0, 0.0, 0.0, 0.0, 0.0, 1.6203133755097947E9, 2021-05-06 17:02:55.509
62.0, 146.23008728027344, 215.6519775390625, 345.6303405761719, -181.11961364746094, 0.0, 0.03200000151991844, 1.055999994277954, 0.0, 0.0, 0.0, 0.0, 0.0, 1.6203133755097947E9, 2021-05-06 17:02:55.509
63.0, 143.4289093017578, 208.14599609375, 344.0782775878906, -188.24786376953125, 0.0, 0.03200000151991844, 1.055999994277954, 0.0, 0.0, 0.0, 0.0, 0.0, 1.62031337551051E9, 2021-05-06 17:02:55.510
63.0, 140.47064208984375, 204.6753692626953, 334.9790954589844, -187.02117919921875, 0.0, 0.03200000151991844, 1.055999994277954, 0.0, 0.0, 0.0, 0.0, 0.0, 1.62031337551051E9, 2021-05-06 17:02:55.510
64.0, 144.65933227539062, 214.5113067626953, 335.7158508300781, -180.169677734375, 0.0, 0.03200000151991844, 1.055999994277954, 0.0, 0.0, 0.0, 0.0, 0.0, 1.6203133755241504E9, 2021-05-06 17:02:55.524
64.0, 145.33251953125, 210.7377471923828, 340.85821533203125, -189.24267578125, 0.0, 0.03200000151991844, 1.055999994277954, 0.0, 0.0, 0.0, 0.0, 0.0, 1.6203133755241504E9, 2021-05-06 17:02:55.524
65.0, 147.47174072265625, 202.61468505859375, 341.3780822753906, -185.91790771484375, 0.0, 0.03200000151991844, 1.055999994277954, 0.0, 0.0, 0.0, 0.0, 0.0, 1.6203133755397937E9, 2021-05-06 17:02:55.539
65.0, 138.35760498046875, 209.8102569580078, 330.7941589355469, -188.12445068359375, 0.0, 0.03200000151991844, 1.055999994277954, 0.0, 0.0, 0.0, 0.0, 0.0, 1.6203133755397937E9, 2021-05-06 17:02:55.539
66.0, 145.87106323242188, 210.70034790039062, 333.7823181152344, -185.18862915039062, 0.0, 0.03200000151991844, 1.055999994277954, 0.0, 0.0, 0.0, 0.0, 0.0, 1.6203133755405507E9, 2021-05-06 17:02:55.540
66.0, 147.7896270751953, 214.10366821289062, 340.7572326660156, -181.42628479003906, 0.0, 0.03200000151991844, 1.055999994277954, 0.0, 0.0, 0.0, 0.0, 0.0, 1.6203133755405507E9, 2021-05-06 17:02:55.540
67.0, 147.50540161132812, 205.83474731445312, 345.3161926269531, -185.40553283691406, 0.0, 0.03200000151991844, 1.055999994277954, 0.0, 0.0, 0.0, 0.0, 0.0, 1.620313375570656E9, 2021-05-06 17:02:55.570
67.0, 141.43927001953125, 205.3896942138672, 336.1235046386719, -182.32760620117188, 0.0, 0.03200000151991844, 1.055999994277954, 0.0, 0.0, 0.0, 0.0, 0.0, 1.620313375570656E9, 2021-05-06 17:02:55.570
68.0, 146.2450408935547, 216.94598388671875, 334.2236328125, -177.97061157226562, 0.0, 0.03200000151991844, 1.055999994277954, 0.0, 0.0, 0.0, 0.0, 0.0, 1.6203133755712206E9, 2021-05-06 17:02:55.571
68.0, 154.26339721679688, 216.1306915283203, 342.80670166015625, -183.18777465820312, 0.0, 0.03200000151991844, 1.055999994277954, 0.0, 0.0, 0.0, 0.0, 0.0, 1.6203133755712206E9, 2021-05-06 17:02:55.571
69.0, 130.38038635253906, 210.33758544921875, 336.9799499511719, -190.99295043945312, 0.0, 0.03200000151991844, 1.055999994277954, 0.0, 0.0, 0.0, 0.0, 0.0, 1.6203133755719545E9, 2021-05-06 17:02:55.571
69.0, 132.3064422607422, 214.10740661621094, 334.3507995605469, -185.0427703857422, 0.0, 0.03200000151991844, 1.055999994277954, 0.0, 0.0, 0.0, 0.0, 0.0, 1.6203133755719545E9, 2021-05-06 17:02:55.571
70.0, 137.7779083251953, 215.97361755371094, 337.720458984375, -185.4242401123047, 0.0, 0.03200000151991844, 1.055999994277954, 0.0, 0.0, 0.0, 0.0, 0.0, 1.6203133755843148E9, 2021-05-06 17:02:55.584
70.0, 145.12681579589844, 208.8827667236328, 345.8360290527344, -184.64634704589844, 0.0, 0.03200000151991844, 1.055999994277954, 0.0, 0.0, 0.0, 0.0, 0.0, 1.6203133755843148E9, 2021-05-06 17:02:55.584
71.0, 139.25143432617188, 206.7510223388672, 342.1447448730469, -192.3916778564453, 0.0, 0.03200000151991844, 1.055999994277954, 0.0, 0.0, 0.0, 0.0, 0.0, 1.6203133755998714E9, 2021-05-06 17:02:55.599
71.0, 133.9744415283203, 204.5108184814453, 332.2414855957031, -187.91127014160156, 0.0, 0.03200000151991844, 1.055999994277954, 0.0, 0.0, 0.0, 0.0, 0.0, 1.6203133755998714E9, 2021-05-06 17:02:55.599
72.0, 141.09893798828125, 193.15647888183594, 332.7575988769531, -188.37501525878906, 0.0, 0.03200000151991844, 1.055999994277954, 0.0, 0.0, 0.0, 0.0, 0.0, 1.6203133756004865E9, 2021-05-06 17:02:55.600
72.0, 146.084228515625, 204.23033142089844, 344.0932312011719, -179.73585510253906, 0.0, 0.03200000151991844, 1.055999994277954, 0.0, 0.0, 0.0, 0.0, 0.0, 1.6203133756004865E9, 2021-05-06 17:02:55.600
73.0, 130.7394256591797, 200.8531951904297, 336.6695251464844, -186.46392822265625, 0.0, 0.03200000151991844, 1.055999994277954, 0.0, 0.0, 0.0, 0.0, 0.0, 1.6203133756141877E9, 2021-05-06 17:02:55.614
73.0, 136.13983154296875, 204.91847229003906, 333.74493408203125, -175.94732666015625, 0.0, 0.03200000151991844, 1.055999994277954, 0.0, 0.0, 0.0, 0.0, 0.0, 1.6203133756141877E9, 2021-05-06 17:02:55.614
74.0, 149.70819091796875, 202.40899658203125, 334.3545227050781, -184.7884521484375, 0.0, 0.03200000151991844, 1.055999994277954, 0.0, 0.0, 0.0, 0.0, 0.0, 1.6203133756299863E9, 2021-05-06 17:02:55.629
74.0, 127.69514465332031, 200.34083557128906, 338.64794921875, -186.00392150878906, 0.0, 0.03200000151991844, 1.055999994277954, 0.0, 0.0, 0.0, 0.0, 0.0, 1.6203133756299863E9, 2021-05-06 17:02:55.629
75.0, 136.13235473632812, 195.82676696777344, 341.6286315917969, -188.62185668945312, 0.0, 0.03200000151991844, 1.055999994277954, 0.0, 0.0, 0.0, 0.0, 0.0, 1.6203133756305542E9, 2021-05-06 17:02:55.630
75.0, 130.6870574951172, 194.7085418701172, 331.4224548339844, -191.8269500732422, 0.0, 0.03200000151991844, 1.055999994277954, 0.0, 0.0, 0.0, 0.0, 0.0, 1.6203133756305542E9, 2021-05-06 17:02:55.630
76.0, 128.9143524169922, 195.04139709472656, 331.86749267578125, -198.0576171875, 0.0, 0.03200000151991844, 1.055999994277954, 0.0, 0.0, 0.0, 0.0, 0.0, 1.6203133756441207E9, 2021-05-06 17:02:55.644
76.0, 134.83087158203125, 200.434326171875, 344.4410400390625, -193.44631958007812, 0.0, 0.03200000151991844, 1.055999994277954, 0.0, 0.0, 0.0, 0.0, 0.0, 1.6203133756441207E9, 2021-05-06 17:02:55.644
77.0, 131.85391235351562, 192.5992431640625, 336.4114685058594, -196.93565368652344, 0.0, 0.03200000151991844, 1.055999994277954, 0.0, 0.0, 0.0, 0.0, 0.0, 1.6203133756599262E9, 2021-05-06 17:02:55.659
77.0, 130.50755310058594, 195.692138671875, 328.0453186035156, -199.5984649658203, 0.0, 0.03200000151991844, 1.055999994277954, 0.0, 0.0, 0.0, 0.0, 0.0, 1.6203133756599262E9, 2021-05-06 17:02:55.659
78.0, 129.6436309814453, 202.3454132080078, 325.3189392089844, -201.28515625, 0.0, 0.03200000151991844, 1.055999994277954, 0.0, 0.0, 0.0, 0.0, 0.0, 1.6203133756606517E9, 2021-05-06 17:02:55.660
78.0, 131.2443084716797, 197.558349609375, 332.2003479003906, -202.54550170898438, 0.0, 0.03200000151991844, 1.055999994277954, 0.0, 0.0, 0.0, 0.0, 0.0, 1.6203133756606517E9, 2021-05-06 17:02:55.660
79.0, 136.73448181152344, 196.38775634765625, 336.2731018066406, -204.23219299316406, 0.0, 0.03200000151991844, 1.055999994277954, 0.0, 0.0, 0.0, 0.0, 0.0, 1.6203133756903117E9, 2021-05-06 17:02:55.690
79.0, 133.2900390625, 195.96514892578125, 331.759033203125, -200.88497924804688, 0.0, 0.03200000151991844, 1.055999994277954, 0.0, 0.0, 0.0, 0.0, 0.0, 1.6203133756903117E9, 2021-05-06 17:02:55.690
80.0, 137.62083435058594, 194.67861938476562, 332.2340087890625, -194.68423461914062, 0.0, 0.03200000151991844, 1.055999994277954, 0.0, 0.0, 0.0, 0.0, 0.0, 1.6203133756909451E9, 2021-05-06 17:02:55.690
80.0, 131.82025146484375, 208.6172332763672, 336.32171630859375, -192.48516845703125, 0.0, 0.03200000151991844, 1.055999994277954, 0.0, 0.0, 0.0, 0.0, 0.0, 1.6203133756909451E9, 2021-05-06 17:02:55.690
81.0, 133.712646484375, 196.25686645507812, 340.00177001953125, -195.6491241455078, 0.0, 0.03200000151991844, 1.055999994277954, 0.0, 0.0, 0.0, 0.0, 0.0, 1.6203133757049828E9, 2021-05-06 17:02:55.704
81.0, 129.4379425048828, 193.3472137451172, 327.039306640625, -194.93479919433594, 0.0, 0.03200000151991844, 1.055999994277954, 0.0, 0.0, 0.0, 0.0, 0.0, 1.6203133757049828E9, 2021-05-06 17:02:55.704
82.0, 136.45025634765625, 191.19677734375, 325.4535827636719, -189.1155242919922, 0.0, 0.03200000151991844, 1.055999994277954, 0.0, 0.0, 0.0, 0.0, 0.0, 1.620313375705541E9, 2021-05-06 17:02:55.705
82.0, 128.84329223632812, 207.20355224609375, 332.1180725097656, -189.59422302246094, 0.0, 0.03200000151991844, 1.055999994277954, 0.0, 0.0, 0.0, 0.0, 0.0, 1.620313375705541E9, 2021-05-06 17:02:55.705
83.0, 121.13909912109375, 194.74220275878906, 335.2483825683594, -185.27090454101562, 0.0, 0.03200000151991844, 1.055999994277954, 0.0, 0.0, 0.0, 0.0, 0.0, 1.620313375719836E9, 2021-05-06 17:02:55.719
83.0, 123.40547943115234, 195.3892059326172, 325.18804931640625, -186.1535186767578, 0.0, 0.03200000151991844, 1.055999994277954, 0.0, 0.0, 0.0, 0.0, 0.0, 1.620313375719836E9, 2021-05-06 17:02:55.719
84.0, 133.64906311035156, 195.37423706054688, 327.79473876953125, -194.25039672851562, 0.0, 0.03200000151991844, 1.055999994277954, 0.0, 0.0, 0.0, 0.0, 0.0, 1.6203133757205565E9, 2021-05-06 17:02:55.720
84.0, 136.35675048828125, 199.36471557617188, 332.5668640136719, -187.9598846435547, 0.0, 0.03200000151991844, 1.055999994277954, 0.0, 0.0, 0.0, 0.0, 0.0, 1.6203133757205565E9, 2021-05-06 17:02:55.720
85.0, 145.1529998779297, 198.81495666503906, 343.96234130859375, -187.02865600585938, 0.0, 0.03200000151991844, 1.055999994277954, 0.0, 0.0, 0.0, 0.0, 0.0, 1.6203133757343223E9, 2021-05-06 17:02:55.734
85.0, 136.3380584716797, 192.44216918945312, 329.29071044921875, -198.38673400878906, 0.0, 0.03200000151991844, 1.055999994277954, 0.0, 0.0, 0.0, 0.0, 0.0, 1.6203133757343223E9, 2021-05-06 17:02:55.734
86.0, 128.9180908203125, 198.88601684570312, 332.7388916015625, -188.41241455078125, 0.0, 0.03200000151991844, 1.055999994277954, 0.0, 0.0, 0.0, 0.0, 0.0, 1.6203133757499409E9, 2021-05-06 17:02:55.749
86.0, 129.2584228515625, 200.7709197998047, 336.8714904785156, -189.57179260253906, 0.0, 0.03200000151991844, 1.055999994277954, 0.0, 0.0, 0.0, 0.0, 0.0, 1.6203133757499409E9, 2021-05-06 17:02:55.749
87.0, 134.19883728027344, 206.08157348632812, 341.2209777832031, -182.5108642578125, 0.0, 0.03200000151991844, 1.055999994277954, 0.0, 0.0, 0.0, 0.0, 0.0, 1.6203133757506008E9, 2021-05-06 17:02:55.750
87.0, 130.30184936523438, 199.2113800048828, 332.00213623046875, -185.36065673828125, 0.0, 0.03200000151991844, 1.055999994277954, 0.0, 0.0, 0.0, 0.0, 0.0, 1.6203133757506008E9, 2021-05-06 17:02:55.750
88.0, 138.52215576171875, 195.5948944091797, 328.4380187988281, -189.09681701660156, 0.0, 0.03200000151991844, 1.055999994277954, 0.0, 0.0, 0.0, 0.0, 0.0, 1.6203133757643003E9, 2021-05-06 17:02:55.764
88.0, 132.28025817871094, 187.8907012939453, 334.5976257324219, -185.62245178222656, 0.0, 0.03200000151991844, 1.055999994277954, 0.0, 0.0, 0.0, 0.0, 0.0, 1.6203133757643003E9, 2021-05-06 17:02:55.764
89.0, 132.43359375, 195.680908203125, 337.9971923828125, -184.63511657714844, 0.0, 0.03200000151991844, 1.055999994277954, 0.0, 0.0, 0.0, 0.0, 0.0, 1.6203133757798233E9, 2021-05-06 17:02:55.779
89.0, 127.38473510742188, 190.90879821777344, 324.2268981933594, -198.7008819580078, 0.0, 0.03200000151991844, 1.055999994277954, 0.0, 0.0, 0.0, 0.0, 0.0, 1.6203133757798233E9, 2021-05-06 17:02:55.779
90.0, 136.78309631347656, 204.69781494140625, 336.7779846191406, -188.29647827148438, 0.0, 0.03200000151991844, 1.055999994277954, 0.0, 0.0, 0.0, 0.0, 0.0, 1.6203133757805128E9, 2021-05-06 17:02:55.780
90.0, 145.8336639404297, 213.05274963378906, 345.1815490722656, -189.89715576171875, 0.0, 0.03200000151991844, 1.055999994277954, 0.0, 0.0, 0.0, 0.0, 0.0, 1.6203133757805128E9, 2021-05-06 17:02:55.780
91.0, 139.22525024414062, 205.32986450195312, 349.07476806640625, -186.38165283203125, 0.0, 0.03200000151991844, 1.055999994277954, 0.0, 0.0, 0.0, 0.0, 0.0, 1.6203133757942193E9, 2021-05-06 17:02:55.794
91.0, 140.4818572998047, 195.5948944091797, 332.7463684082031, -189.8260955810547, 0.0, 0.03200000151991844, 1.055999994277954, 0.0, 0.0, 0.0, 0.0, 0.0, 1.6203133757942193E9, 2021-05-06 17:02:55.794
92.0, 131.56219482421875, 202.0948486328125, 338.43475341796875, -176.85986328125, 0.0, 0.03200000151991844, 1.055999994277954, 0.0, 0.0, 0.0, 0.0, 0.0, 1.620313375809823E9, 2021-05-06 17:02:55.809
92.0, 130.2681884765625, 198.11184692382812, 342.1821594238281, -190.42822265625, 0.0, 0.03200000151991844, 1.055999994277954, 0.0, 0.0, 0.0, 0.0, 0.0, 1.620313375809823E9, 2021-05-06 17:02:55.809
93.0, 135.09640502929688, 190.2617950439453, 336.32171630859375, -187.58590698242188, 0.0, 0.03200000151991844, 1.055999994277954, 0.0, 0.0, 0.0, 0.0, 0.0, 1.6203133758105185E9, 2021-05-06 17:02:55.810
93.0, 135.20860290527344, 196.57101440429688, 328.96533203125, -185.70098876953125, 0.0, 0.03200000151991844, 1.055999994277954, 0.0, 0.0, 0.0, 0.0, 0.0, 1.6203133758105185E9, 2021-05-06 17:02:55.810
94.0, 139.0494842529297, 195.69961547851562, 335.8205871582031, -188.07208251953125, 0.0, 0.03200000151991844, 1.055999994277954, 0.0, 0.0, 0.0, 0.0, 0.0, 1.6203133758242629E9, 2021-05-06 17:02:55.824
94.0, 138.2117462158203, 206.86695861816406, 343.0086669921875, -191.00790405273438, 0.0, 0.03200000151991844, 1.055999994277954, 0.0, 0.0, 0.0, 0.0, 0.0, 1.6203133758242629E9, 2021-05-06 17:02:55.824
95.0, 142.19473266601562, 207.383056640625, 344.90106201171875, -182.9783477783203, 0.0, 0.03200000151991844, 1.055999994277954, 0.0, 0.0, 0.0, 0.0, 0.0, 1.6203133758398485E9, 2021-05-06 17:02:55.839
95.0, 132.77392578125, 195.86416625976562, 330.6146240234375, -194.0746307373047, 0.0, 0.03200000151991844, 1.055999994277954, 0.0, 0.0, 0.0, 0.0, 0.0, 1.6203133758398485E9, 2021-05-06 17:02:55.839
96.0, 134.21005249023438, 200.5315704345703, 334.986572265625, -196.25498962402344, 0.0, 0.03200000151991844, 1.055999994277954, 0.0, 0.0, 0.0, 0.0, 0.0, 1.6203133758405392E9, 2021-05-06 17:02:55.840
96.0, 149.58477783203125, 202.4314422607422, 345.28253173828125, -188.3114471435547, 0.0, 0.03200000151991844, 1.055999994277954, 0.0, 0.0, 0.0, 0.0, 0.0, 1.6203133758405392E9, 2021-05-06 17:02:55.840
97.0, 148.35435485839844, 190.32164001464844, 338.5207824707031, -192.0326385498047, 0.0, 0.03200000151991844, 1.055999994277954, 0.0, 0.0, 0.0, 0.0, 0.0, 1.6203133758542323E9, 2021-05-06 17:02:55.854
97.0, 140.85585021972656, 200.50912475585938, 335.8093566894531, -184.30601501464844, 0.0, 0.03200000151991844, 1.055999994277954, 0.0, 0.0, 0.0, 0.0, 0.0, 1.6203133758542323E9, 2021-05-06 17:02:55.854
98.0, 131.77163696289062, 187.0043487548828, 330.32293701171875, -193.8577117919922, 0.0, 0.03200000151991844, 1.055999994277954, 0.0, 0.0, 0.0, 0.0, 0.0, 1.620313375869872E9, 2021-05-06 17:02:55.869
98.0, 142.28074645996094, 194.39065551757812, 338.5918273925781, -194.5047149658203, 0.0, 0.03200000151991844, 1.055999994277954, 0.0, 0.0, 0.0, 0.0, 0.0, 1.620313375869872E9, 2021-05-06 17:02:55.869
99.0, 140.9605712890625, 200.0902557373047, 341.770751953125, -189.7064208984375, 0.0, 0.03200000151991844, 1.055999994277954, 0.0, 0.0, 0.0, 0.0, 0.0, 1.6203133758706565E9, 2021-05-06 17:02:55.870
