Sample Index, EXG Channel 0, EXG Channel 1, EXG Channel 2, EXG Channel 3, Accel Channel 0, Accel Channel 1, Accel Channel 2, Other, Other, Other, Other, Other, Timestamp, Timestamp (Formatted)
0.0, 126.6105728149414, 212.0448455810547, 350.61187744140625, -192.4272003173828, 0.0, 0.0, 0.0, 0.0, 0.0, 0.0, 0.0, 0.0, 1.620313698752617E9, 2021-05-06 17:08:18.752
1.0, 140.0592498779297, 233.9307403564453, 356.4087219238281, -182.45663452148438, 0.0, 0.03200000151991844, 0.0, 0.0, 0.0, 0.0, 0.0, 0.0, 1.620313698766193E9, 2021-05-06 17:08:18.766
1.0, 132.19798278808594, 197.78460693359375, 343.21435546875, -189.28195190429688, 0.0, 0.03200000151991844, 0.0, 0.0, 0.0, 0.0, 0.0, 0.0, 1.620313698766193E9, 2021-05-06 17:08:18.766
2.0, 146.4656982421875, 222.55023193359375, 354.9352111816406, -178.82144165039062, 0.01600000075995922, 0.03200000151991844, 0.0, 0.0, 0.0, 0.0, 0.0, 0.0, 1.6203136987972891E9, 2021-05-06 17:08:18.797
2.0, 120.95210266113281, 216.73468017578125, 352.463134765625, -188.37315368652344, 0.01600000075995922, 0.03200000151991844, 0.0, 0.0, 0.0, 0.0, 0.0, 0.0, 1.6203136987972891E9, 2021-05-06 17:08:18.797
3.0, 144.19932556152344, 220.4035186767578, 359.8157653808594, -186.0170135498047, 0.01600000075995922, 0.03200000151991844, 0.0, 0.0, 0.0, 0.0, 0.0, 0.0, 1.620313698798056E9, 2021-05-06 17:08:18.798
3.0, 140.4519500732422, 218.97862243652344, 349.5796813964844, -189.04632568359375, 0.01600000075995922, 0.03200000151991844, 0.0, 0.0, 0.0, 0.0, 0.0, 0.0, 1.620313698798056E9, 2021-05-06 17:08:18.798
4.0, 131.0049591064453, 223.3730010986328, 350.79888916015625, -188.02908325195312, 0.01600000075995922, 0.03200000151991844, 0.0, 0.0, 0.0, 0.0, 0.0, 0.0, 1.6203136987986937E9, 2021-05-06 17:08:18.798
4.0, 145.92715454101562, 221.83216857910156, 365.7696838378906, -187.5017547607422, 0.01600000075995922, 0.03200000151991844, 0.0, 0.0, 0.0, 0.0, 0.0, 0.0, 1.6203136987986937E9, 2021-05-06 17:08:18.798
5.0, 136.45399475097656, 222.50160217285156, 356.853759765625, -186.88841247558594, 0.01600000075995922, 0.03200000151991844, 0.0, 0.0, 0.0, 0.0, 0.0, 0.0, 1.620313698811905E9, 2021-05-06 17:08:18.811
5.0, 134.95428466796875, 232.6180419921875, 346.77099609375, -193.41453552246094, 0.01600000075995922, 0.03200000151991844, 0.0, 0.0, 0.0, 0.0, 0.0, 0.0, 1.620313698811905E9, 2021-05-06 17:08:18.811
6.0, 135.21607971191406, 228.01422119140625, 344.73651123046875, -187.10533142089844, 0.01600000075995922, 0.03200000151991844, 0.0, 0.0, 0.0, 0.0, 0.0, 0.0, 1.6203136988123767E9, 2021-05-06 17:08:18.812
6.0, 140.4481964111328, 223.5712127685547, 350.1406555175781, -193.83340454101562, 0.01600000075995922, 0.03200000151991844, 0.0, 0.0, 0.0, 0.0, 0.0, 0.0, 1.6203136988123767E9, 2021-05-06 17:08:18.812
7.0, 136.9326934814453, 212.893798828125, 344.8000793457031, -204.4509735107422, 0.01600000075995922, 0.03200000151991844, 0.0, 0.0, 0.0, 0.0, 0.0, 0.0, 1.620313698842462E9, 2021-05-06 17:08:18.842
7.0, 147.21368408203125, 230.13475036621094, 346.3783264160156, -188.97528076171875, 0.01600000075995922, 0.03200000151991844, 0.0, 0.0, 0.0, 0.0, 0.0, 0.0, 1.620313698842462E9, 2021-05-06 17:08:18.842
8.0, 132.87864685058594, 229.95523071289062, 346.535400390625, -190.46376037597656, 0.01600000075995922, 0.03200000151991844, 0.0, 0.0, 0.0, 0.0, 0.0, 0.0, 1.620313698843086E9, 2021-05-06 17:08:18.843
8.0, 145.77755737304688, 222.76339721679688, 351.8460388183594, -196.34288024902344, 0.01600000075995922, 0.03200000151991844, 0.0, 0.0, 0.0, 0.0, 0.0, 0.0, 1.620313698843086E9, 2021-05-06 17:08:18.843
9.0, 140.496826171875, 222.9915313720703, 345.6303405761719, -195.1797637939453, 0.01600000075995922, 0.03200000151991844, 0.0, 0.0, 0.0, 0.0, 0.0, 0.0, 1.6203136988437884E9, 2021-05-06 17:08:18.843
9.0, 135.97901916503906, 230.92385864257812, 347.3170166015625, -188.28338623046875, 0.01600000075995922, 0.03200000151991844, 0.0, 0.0, 0.0, 0.0, 0.0, 0.0, 1.6203136988437884E9, 2021-05-06 17:08:18.843
10.0, 142.81930541992188, 228.5901641845703, 353.6898193359375, -182.81939697265625, 0.01600000075995922, 0.03200000151991844, 1.055999994277954, 0.0, 0.0, 0.0, 0.0, 0.0, 1.6203136988560264E9, 2021-05-06 17:08:18.856
10.0, 147.1912384033203, 235.3743438720703, 362.9198913574219, -177.57980346679688, 0.01600000075995922, 0.03200000151991844, 1.055999994277954, 0.0, 0.0, 0.0, 0.0, 0.0, 1.6203136988560264E9, 2021-05-06 17:08:18.856
11.0, 133.10304260253906, 232.76014709472656, 354.93145751953125, -184.50234985351562, 0.01600000075995922, 0.03200000151991844, 1.055999994277954, 0.0, 0.0, 0.0, 0.0, 0.0, 1.6203136988717484E9, 2021-05-06 17:08:18.871
11.0, 128.3159637451172, 235.5725555419922, 343.8837890625, -184.6257781982422, 0.01600000075995922, 0.03200000151991844, 1.055999994277954, 0.0, 0.0, 0.0, 0.0, 0.0, 1.6203136988717484E9, 2021-05-06 17:08:18.871
12.0, 141.9329376220703, 216.09141540527344, 348.8990173339844, -182.74085998535156, 0.01600000075995922, 0.03200000151991844, 1.055999994277954, 0.0, 0.0, 0.0, 0.0, 0.0, 1.620313698872396E9, 2021-05-06 17:08:18.872
12.0, 134.61395263671875, 236.82168579101562, 354.22088623046875, -183.88153076171875, 0.01600000075995922, 0.03200000151991844, 1.055999994277954, 0.0, 0.0, 0.0, 0.0, 0.0, 1.620313698872396E9, 2021-05-06 17:08:18.872
13.0, 121.87586212158203, 204.0377197265625, 344.7215270996094, -186.64157104492188, 0.01600000075995922, 0.03200000151991844, 1.055999994277954, 0.0, 0.0, 0.0, 0.0, 0.0, 1.6203136989029584E9, 2021-05-06 17:08:18.902
13.0, 146.02439880371094, 228.57147216796875, 348.4539489746094, -187.44940185546875, 0.01600000075995922, 0.03200000151991844, 1.055999994277954, 0.0, 0.0, 0.0, 0.0, 0.0, 1.6203136989029584E9, 2021-05-06 17:08:18.902
14.0, 123.42791748046875, 224.42391967773438, 340.7834167480469, -187.90191650390625, 0.01600000075995922, 0.03200000151991844, 1.055999994277954, 0.0, 0.0, 0.0, 0.0, 0.0, 1.6203136989035676E9, 2021-05-06 17:08:18.903
14.0, 124.4638671875, 232.33380126953125, 348.4950866699219, -186.29376220703125, 0.01600000075995922, 0.03200000151991844, 1.055999994277954, 0.0, 0.0, 0.0, 0.0, 0.0, 1.6203136989035676E9, 2021-05-06 17:08:18.903
15.0, 132.5570068359375, 247.6561737060547, 345.2152099609375, -184.1994171142578, 0.01600000075995922, 0.03200000151991844, 1.055999994277954, 0.0, 0.0, 0.0, 0.0, 0.0, 1.6203136989044435E9, 2021-05-06 17:08:18.904
15.0, 137.58717346191406, 219.6405792236328, 346.3521423339844, -185.19422912597656, 0.01600000075995922, 0.03200000151991844, 1.055999994277954, 0.0, 0.0, 0.0, 0.0, 0.0, 1.6203136989044435E9, 2021-05-06 17:08:18.904
16.0, 137.62831115722656, 229.92156982421875, 347.12628173828125, -183.4327392578125, 0.01600000075995922, 0.03200000151991844, 1.055999994277954, 0.0, 0.0, 0.0, 0.0, 0.0, 1.6203136989158652E9, 2021-05-06 17:08:18.915
16.0, 133.6341094970703, 238.47471618652344, 355.0473937988281, -180.99058532714844, 0.01600000075995922, 0.03200000151991844, 1.055999994277954, 0.0, 0.0, 0.0, 0.0, 0.0, 1.6203136989158652E9, 2021-05-06 17:08:18.915
17.0, 119.90867614746094, 225.38880920410156, 344.4522705078125, -185.43359375, 0.01600000075995922, 0.03200000151991844, 1.055999994277954, 0.0, 0.0, 0.0, 0.0, 0.0, 1.6203136989319873E9, 2021-05-06 17:08:18.931
17.0, 123.52515411376953, 223.33560180664062, 339.927001953125, -187.47930908203125, 0.01600000075995922, 0.03200000151991844, 1.055999994277954, 0.0, 0.0, 0.0, 0.0, 0.0, 1.6203136989319873E9, 2021-05-06 17:08:18.931
18.0, 139.52444458007812, 221.80224609375, 347.09637451171875, -183.23826599121094, 0.01600000075995922, 0.03200000151991844, 1.055999994277954, 0.0, 0.0, 0.0, 0.0, 0.0, 1.6203136989473596E9, 2021-05-06 17:08:18.947
18.0, 118.65580749511719, 240.84580993652344, 349.0224304199219, -175.53033447265625, 0.01600000075995922, 0.03200000151991844, 1.055999994277954, 0.0, 0.0, 0.0, 0.0, 0.0, 1.6203136989473596E9, 2021-05-06 17:08:18.947
19.0, 126.45723724365234, 212.7703857421875, 345.24139404296875, -192.2963104248047, 0.01600000075995922, 0.03200000151991844, 1.055999994277954, 0.0, 0.0, 0.0, 0.0, 0.0, 1.620313698948135E9, 2021-05-06 17:08:18.948
19.0, 134.22500610351562, 216.4579315185547, 345.76123046875, -183.38038635253906, 0.01600000075995922, 0.03200000151991844, 1.055999994277954, 0.0, 0.0, 0.0, 0.0, 0.0, 1.620313698948135E9, 2021-05-06 17:08:18.948
20.0, 134.40826416015625, 226.52574157714844, 346.2586364746094, -186.26010131835938, 0.01600000075995922, 0.03200000151991844, 1.055999994277954, 0.0, 0.0, 0.0, 0.0, 0.0, 1.6203136989616828E9, 2021-05-06 17:08:18.961
20.0, 141.846923828125, 225.08587646484375, 355.3017272949219, -184.16575622558594, 0.01600000075995922, 0.03200000151991844, 1.055999994277954, 0.0, 0.0, 0.0, 0.0, 0.0, 1.6203136989616828E9, 2021-05-06 17:08:18.961
21.0, 129.41549682617188, 222.66990661621094, 347.7845153808594, -185.66920471191406, 0.01600000075995922, 0.03200000151991844, 1.055999994277954, 0.0, 0.0, 0.0, 0.0, 0.0, 1.620313698962426E9, 2021-05-06 17:08:18.962
21.0, 139.70770263671875, 231.4586639404297, 352.26116943359375, -178.81396484375, 0.01600000075995922, 0.03200000151991844, 1.055999994277954, 0.0, 0.0, 0.0, 0.0, 0.0, 1.620313698962426E9, 2021-05-06 17:08:18.962
22.0, 137.46749877929688, 222.95787048339844, 342.7506103515625, -187.9281005859375, 0.01600000075995922, 0.03200000151991844, 1.055999994277954, 0.0, 0.0, 0.0, 0.0, 0.0, 1.6203136989760678E9, 2021-05-06 17:08:18.976
22.0, 128.89939880371094, 214.853515625, 350.43609619140625, -192.69647216796875, 0.01600000075995922, 0.03200000151991844, 1.055999994277954, 0.0, 0.0, 0.0, 0.0, 0.0, 1.6203136989760678E9, 2021-05-06 17:08:18.976
23.0, 136.6035919189453, 224.45758056640625, 342.5112609863281, -189.62228393554688, 0.01600000075995922, 0.03200000151991844, 1.055999994277954, 0.0, 0.0, 0.0, 0.0, 0.0, 1.6203136990087905E9, 2021-05-06 17:08:19.008
23.0, 116.53528594970703, 212.29168701171875, 332.9146728515625, -193.9044647216797, 0.01600000075995922, 0.03200000151991844, 1.055999994277954, 0.0, 0.0, 0.0, 0.0, 0.0, 1.6203136990087905E9, 2021-05-06 17:08:19.008
24.0, 128.42068481445312, 222.2659912109375, 338.3150939941406, -193.56787109375, 0.01600000075995922, 0.03200000151991844, 1.055999994277954, 0.0, 0.0, 0.0, 0.0, 0.0, 1.6203136990095503E9, 2021-05-06 17:08:19.009
24.0, 120.29388427734375, 223.99757385253906, 341.0302429199219, -196.00254821777344, 0.01600000075995922, 0.03200000151991844, 1.055999994277954, 0.0, 0.0, 0.0, 0.0, 0.0, 1.6203136990095503E9, 2021-05-06 17:08:19.009
25.0, 121.94317626953125, 245.98069763183594, 342.5785827636719, -189.4577178955078, 0.01600000075995922, 0.03200000151991844, 1.055999994277954, 0.0, 0.0, 0.0, 0.0, 0.0, 1.6203136990100892E9, 2021-05-06 17:08:19.010
25.0, 132.3064422607422, 202.9456787109375, 339.6390075683594, -195.1498565673828, 0.01600000075995922, 0.03200000151991844, 1.055999994277954, 0.0, 0.0, 0.0, 0.0, 0.0, 1.6203136990100892E9, 2021-05-06 17:08:19.010
26.0, 132.44107055664062, 222.142578125, 341.4079895019531, -190.97238159179688, 0.01600000075995922, 0.03200000151991844, 1.055999994277954, 0.0, 0.0, 0.0, 0.0, 0.0, 1.620313699010856E9, 2021-05-06 17:08:19.010
26.0, 137.11595153808594, 228.85943603515625, 356.2067565917969, -186.28628540039062, 0.01600000075995922, 0.03200000151991844, 1.055999994277954, 0.0, 0.0, 0.0, 0.0, 0.0, 1.620313699010856E9, 2021-05-06 17:08:19.010
27.0, 132.08578491210938, 222.50909423828125, 350.6305847167969, -188.3507080078125, 0.01600000075995922, 0.03200000151991844, 1.055999994277954, 0.0, 0.0, 0.0, 0.0, 0.0, 1.62031369902098E9, 2021-05-06 17:08:19.020
27.0, 136.47642517089844, 231.31280517578125, 353.4392395019531, -189.01268005371094, 0.01600000075995922, 0.03200000151991844, 1.055999994277954, 0.0, 0.0, 0.0, 0.0, 0.0, 1.62031369902098E9, 2021-05-06 17:08:19.020
28.0, 147.6998748779297, 228.81082153320312, 357.0108642578125, -183.5673828125, 0.01600000075995922, 0.03200000151991844, 1.055999994277954, 0.0, 0.0, 0.0, 0.0, 0.0, 1.6203136990358908E9, 2021-05-06 17:08:19.035
28.0, 138.86996459960938, 230.02255249023438, 359.95416259765625, -174.22885131835938, 0.01600000075995922, 0.03200000151991844, 1.055999994277954, 0.0, 0.0, 0.0, 0.0, 0.0, 1.6203136990358908E9, 2021-05-06 17:08:19.035
29.0, 133.96694946289062, 223.56373596191406, 353.7646179199219, -188.33201599121094, 0.01600000075995922, 0.03200000151991844, 1.055999994277954, 0.0, 0.0, 0.0, 0.0, 0.0, 1.6203136990515602E9, 2021-05-06 17:08:19.051
29.0, 116.25852966308594, 220.874755859375, 340.4543151855469, -184.1956787109375, 0.01600000075995922, 0.03200000151991844, 1.055999994277954, 0.0, 0.0, 0.0, 0.0, 0.0, 1.6203136990515602E9, 2021-05-06 17:08:19.051
30.0, 124.16841888427734, 221.5479278564453, 342.7431335449219, -181.8208465576172, 0.01600000075995922, 0.03200000151991844, 1.055999994277954, 0.0, 0.0, 0.0, 0.0, 0.0, 1.6203136990522728E9, 2021-05-06 17:08:19.052
30.0, 130.0251007080078, 244.0583953857422, 347.9490661621094, -184.02365112304688, 0.01600000075995922, 0.03200000151991844, 1.055999994277954, 0.0, 0.0, 0.0, 0.0, 0.0, 1.6203136990522728E9, 2021-05-06 17:08:19.052
31.0, 115.80226135253906, 218.23812866210938, 337.92987060546875, -191.34263610839844, 0.01600000075995922, 0.03200000151991844, 1.055999994277954, 0.0, 0.0, 0.0, 0.0, 0.0, 1.620313699082121E9, 2021-05-06 17:08:19.082
31.0, 124.95005798339844, 219.2179718017578, 336.2581481933594, -185.8188018798828, 0.01600000075995922, 0.03200000151991844, 1.055999994277954, 0.0, 0.0, 0.0, 0.0, 0.0, 1.620313699082121E9, 2021-05-06 17:08:19.082
32.0, 125.75039672851562, 211.59231567382812, 332.5519104003906, -195.66221618652344, 0.01600000075995922, 0.03200000151991844, 1.055999994277954, 0.0, 0.0, 0.0, 0.0, 0.0, 1.6203136990828505E9, 2021-05-06 17:08:19.082
32.0, 138.27906799316406, 226.15548706054688, 344.1007080078125, -193.47438049316406, 0.01600000075995922, 0.03200000151991844, 1.055999994277954, 0.0, 0.0, 0.0, 0.0, 0.0, 1.6203136990828505E9, 2021-05-06 17:08:19.082
33.0, 126.85366821289062, 227.25875854492188, 341.7595520019531, -196.60841369628906, 0.01600000075995922, 0.03200000151991844, 1.055999994277954, 0.0, 0.0, 0.0, 0.0, 0.0, 1.62031369909663E9, 2021-05-06 17:08:19.096
33.0, 143.51492309570312, 220.54190063476562, 331.7104187011719, -195.2321319580078, 0.01600000075995922, 0.03200000151991844, 1.055999994277954, 0.0, 0.0, 0.0, 0.0, 0.0, 1.62031369909663E9, 2021-05-06 17:08:19.096
34.0, 122.54156494140625, 219.60317993164062, 336.9911804199219, -191.26409912109375, 0.01600000075995922, 0.03200000151991844, 1.055999994277954, 0.0, 0.0, 0.0, 0.0, 0.0, 1.6203136990972629E9, 2021-05-06 17:08:19.097
34.0, 129.78575134277344, 221.4993133544922, 342.7842712402344, -196.34661865234375, 0.01600000075995922, 0.03200000151991844, 1.055999994277954, 0.0, 0.0, 0.0, 0.0, 0.0, 1.6203136990972629E9, 2021-05-06 17:08:19.097
35.0, 133.2339324951172, 218.85894775390625, 343.0161437988281, -194.24853515625, 0.01600000075995922, 0.03200000151991844, 1.055999994277954, 0.0, 0.0, 0.0, 0.0, 0.0, 1.6203136991113188E9, 2021-05-06 17:08:19.111
35.0, 129.45289611816406, 212.92745971679688, 336.60595703125, -193.03680419921875, 0.01600000075995922, 0.03200000151991844, 1.055999994277954, 0.0, 0.0, 0.0, 0.0, 0.0, 1.6203136991113188E9, 2021-05-06 17:08:19.111
36.0, 129.89047241210938, 226.08816528320312, 339.4034118652344, -188.50778198242188, 0.01600000075995922, 0.03200000151991844, 1.055999994277954, 0.0, 0.0, 0.0, 0.0, 0.0, 1.6203136991267014E9, 2021-05-06 17:08:19.126
36.0, 131.43504333496094, 234.96295166015625, 347.720947265625, -184.07974243164062, 0.01600000075995922, 0.03200000151991844, 1.055999994277954, 0.0, 0.0, 0.0, 0.0, 0.0, 1.6203136991267014E9, 2021-05-06 17:08:19.126
37.0, 131.165771484375, 208.76121520996094, 336.78173828125, -192.24020385742188, 0.01600000075995922, 0.03200000151991844, 1.055999994277954, 0.0, 0.0, 0.0, 0.0, 0.0, 1.620313699127412E9, 2021-05-06 17:08:19.127
37.0, 131.35276794433594, 221.74989318847656, 338.0719909667969, -184.0760040283203, 0.01600000075995922, 0.03200000151991844, 1.055999994277954, 0.0, 0.0, 0.0, 0.0, 0.0, 1.620313699127412E9, 2021-05-06 17:08:19.127
38.0, 138.1182403564453, 229.0501708984375, 347.9976806640625, -183.90771484375, 0.01600000075995922, 0.03200000151991844, 1.055999994277954, 0.0, 0.0, 0.0, 0.0, 0.0, 1.6203136991415825E9, 2021-05-06 17:08:19.141
38.0, 137.9536895751953, 223.1224365234375, 342.0923767089844, -179.4497528076172, 0.01600000075995922, 0.03200000151991844, 1.055999994277954, 0.0, 0.0, 0.0, 0.0, 0.0, 1.6203136991415825E9, 2021-05-06 17:08:19.141
39.0, 138.73533630371094, 224.3939971923828, 346.9093933105469, -196.64207458496094, 0.01600000075995922, 0.03200000151991844, 1.055999994277954, 0.0, 0.0, 0.0, 0.0, 0.0, 1.620313699142434E9, 2021-05-06 17:08:19.142
39.0, 123.7196273803711, 219.7976531982422, 340.6188659667969, -184.0273895263672, 0.01600000075995922, 0.03200000151991844, 1.055999994277954, 0.0, 0.0, 0.0, 0.0, 0.0, 1.620313699142434E9, 2021-05-06 17:08:19.142
40.0, 135.75836181640625, 226.32005310058594, 344.5008850097656, -186.17782592773438, 0.01600000075995922, 0.03200000151991844, 1.055999994277954, 0.0, 0.0, 0.0, 0.0, 0.0, 1.620313699156005E9, 2021-05-06 17:08:19.156
40.0, 130.4439697265625, 217.53128051757812, 346.19879150390625, -192.2626495361328, 0.01600000075995922, 0.03200000151991844, 1.055999994277954, 0.0, 0.0, 0.0, 0.0, 0.0, 1.620313699156005E9, 2021-05-06 17:08:19.156
41.0, 135.1525115966797, 223.1074676513672, 336.6807556152344, -196.90760803222656, 0.01600000075995922, 0.03200000151991844, 1.055999994277954, 0.0, 0.0, 0.0, 0.0, 0.0, 1.620313699171625E9, 2021-05-06 17:08:19.171
41.0, 121.86090087890625, 221.35719299316406, 332.2340087890625, -193.53794860839844, 0.01600000075995922, 0.03200000151991844, 1.055999994277954, 0.0, 0.0, 0.0, 0.0, 0.0, 1.620313699171625E9, 2021-05-06 17:08:19.171
42.0, 145.77381896972656, 224.18081665039062, 341.3668518066406, -186.4470977783203, 0.01600000075995922, 0.03200000151991844, 1.055999994277954, 0.0, 0.0, 0.0, 0.0, 0.0, 1.6203136991724072E9, 2021-05-06 17:08:19.172
42.0, 130.156005859375, 233.02194213867188, 345.64154052734375, -183.5262451171875, 0.01600000075995922, 0.03200000151991844, 1.055999994277954, 0.0, 0.0, 0.0, 0.0, 0.0, 1.6203136991724072E9, 2021-05-06 17:08:19.172
43.0, 133.3311767578125, 219.3937530517578, 342.1185607910156, -187.38955688476562, 0.01600000075995922, 0.03200000151991844, 1.055999994277954, 0.0, 0.0, 0.0, 0.0, 0.0, 1.6203136991859171E9, 2021-05-06 17:08:19.185
43.0, 139.11305236816406, 221.90696716308594, 344.8561706542969, -184.22560119628906, 0.01600000075995922, 0.03200000151991844, 1.055999994277954, 0.0, 0.0, 0.0, 0.0, 0.0, 1.6203136991859171E9, 2021-05-06 17:08:19.185
44.0, 125.11461639404297, 220.9532928466797, 341.3107604980469, -191.4024658203125, 0.01600000075995922, 0.03200000151991844, 1.055999994277954, 0.0, 0.0, 0.0, 0.0, 0.0, 1.6203136992015483E9, 2021-05-06 17:08:19.201
44.0, 139.01956176757812, 217.1872100830078, 349.9573974609375, -185.34756469726562, 0.01600000075995922, 0.03200000151991844, 1.055999994277954, 0.0, 0.0, 0.0, 0.0, 0.0, 1.6203136992015483E9, 2021-05-06 17:08:19.201
45.0, 128.3982391357422, 216.4242706298828, 342.4327087402344, -196.22694396972656, 0.01600000075995922, 0.03200000151991844, 1.055999994277954, 0.0, 0.0, 0.0, 0.0, 0.0, 1.6203136992023225E9, 2021-05-06 17:08:19.202
45.0, 135.4890899658203, 224.6408233642578, 338.10565185546875, -195.8940887451172, 0.01600000075995922, 0.03200000151991844, 1.055999994277954, 0.0, 0.0, 0.0, 0.0, 0.0, 1.6203136992023225E9, 2021-05-06 17:08:19.202
46.0, 137.55726623535156, 218.00250244140625, 345.503173828125, -188.1038818359375, 0.01600000075995922, 0.03200000151991844, 1.055999994277954, 0.0, 0.0, 0.0, 0.0, 0.0, 1.620313699215976E9, 2021-05-06 17:08:19.215
46.0, 136.7082977294922, 234.79092407226562, 357.7326354980469, -193.49681091308594, 0.01600000075995922, 0.03200000151991844, 1.055999994277954, 0.0, 0.0, 0.0, 0.0, 0.0, 1.620313699215976E9, 2021-05-06 17:08:19.215
47.0, 131.05731201171875, 214.0531768798828, 343.7005310058594, -204.91847229003906, 0.01600000075995922, 0.03200000151991844, 1.055999994277954, 0.0, 0.0, 0.0, 0.0, 0.0, 1.6203136992315767E9, 2021-05-06 17:08:19.231
47.0, 144.49851989746094, 222.1014404296875, 346.29229736328125, -199.74244689941406, 0.01600000075995922, 0.03200000151991844, 1.055999994277954, 0.0, 0.0, 0.0, 0.0, 0.0, 1.6203136992315767E9, 2021-05-06 17:08:19.231
48.0, 133.619140625, 226.01336669921875, 352.8446044921875, -195.72206115722656, 0.01600000075995922, 0.03200000151991844, 1.055999994277954, 0.0, 0.0, 0.0, 0.0, 0.0, 1.6203136992323103E9, 2021-05-06 17:08:19.232
48.0, 138.29776000976562, 225.80020141601562, 357.58306884765625, -192.06443786621094, 0.01600000075995922, 0.03200000151991844, 1.055999994277954, 0.0, 0.0, 0.0, 0.0, 0.0, 1.6203136992323103E9, 2021-05-06 17:08:19.232
49.0, 135.35072326660156, 220.42596435546875, 344.8524475097656, -192.8834686279297, 0.01600000075995922, 0.03200000151991844, 1.055999994277954, 0.0, 0.0, 0.0, 0.0, 0.0, 1.6203136992459185E9, 2021-05-06 17:08:19.245
49.0, 126.03462982177734, 240.68873596191406, 346.0417175292969, -183.04379272460938, 0.01600000075995922, 0.03200000151991844, 1.055999994277954, 0.0, 0.0, 0.0, 0.0, 0.0, 1.6203136992459185E9, 2021-05-06 17:08:19.245
50.0, 134.18386840820312, 215.34344482421875, 345.091796875, -193.5641326904297, 0.01600000075995922, 0.03200000151991844, 1.055999994277954, 0.0, 0.0, 0.0, 0.0, 0.0, 1.6203136992615983E9, 2021-05-06 17:08:19.261
50.0, 136.79058837890625, 226.22280883789062, 355.1820373535156, -190.7592010498047, 0.01600000075995922, 0.03200000151991844, 1.055999994277954, 0.0, 0.0, 0.0, 0.0, 0.0, 1.6203136992615983E9, 2021-05-06 17:08:19.261
51.0, 128.2336883544922, 218.39894104003906, 346.4381408691406, -187.3372039794922, 0.01600000075995922, 0.03200000151991844, 1.055999994277954, 0.0, 0.0, 0.0, 0.0, 0.0, 1.6203136992622712E9, 2021-05-06 17:08:19.262
51.0, 134.37460327148438, 222.7821044921875, 343.2330627441406, -188.76583862304688, 0.01600000075995922, 0.03200000151991844, 1.055999994277954, 0.0, 0.0, 0.0, 0.0, 0.0, 1.6203136992622712E9, 2021-05-06 17:08:19.262
52.0, 136.74569702148438, 227.50186157226562, 343.0722351074219, -191.64183044433594, 0.01600000075995922, 0.03200000151991844, 1.055999994277954, 0.0, 0.0, 0.0, 0.0, 0.0, 1.6203136992760067E9, 2021-05-06 17:08:19.276
52.0, 128.6637725830078, 208.46575927734375, 343.9137268066406, -193.3472137451172, 0.01600000075995922, 0.03200000151991844, 1.055999994277954, 0.0, 0.0, 0.0, 0.0, 0.0, 1.6203136992760067E9, 2021-05-06 17:08:19.276
53.0, 141.506591796875, 222.34078979492188, 351.9395446777344, -189.588623046875, 0.01600000075995922, 0.03200000151991844, 1.055999994277954, 0.0, 0.0, 0.0, 0.0, 0.0, 1.6203136992915452E9, 2021-05-06 17:08:19.291
53.0, 137.6956329345703, 219.56578063964844, 342.12603759765625, -195.24708557128906, 0.01600000075995922, 0.03200000151991844, 1.055999994277954, 0.0, 0.0, 0.0, 0.0, 0.0, 1.6203136992915452E9, 2021-05-06 17:08:19.291
54.0, 133.9145965576172, 222.2285919189453, 348.48388671875, -184.59585571289062, 0.01600000075995922, 0.03200000151991844, 1.055999994277954, 0.0, 0.0, 0.0, 0.0, 0.0, 1.6203136992922971E9, 2021-05-06 17:08:19.292
54.0, 139.0906219482422, 220.8261260986328, 349.9461669921875, -189.33804321289062, 0.01600000075995922, 0.03200000151991844, 1.055999994277954, 0.0, 0.0, 0.0, 0.0, 0.0, 1.6203136992922971E9, 2021-05-06 17:08:19.292
55.0, 123.42791748046875, 227.6103057861328, 342.3728942871094, -193.6875457763672, 0.01600000075995922, 0.03200000151991844, 1.055999994277954, 0.0, 0.0, 0.0, 0.0, 0.0, 1.620313699321388E9, 2021-05-06 17:08:19.321
55.0, 146.70506286621094, 234.69741821289062, 343.461181640625, -200.75596618652344, 0.01600000075995922, 0.03200000151991844, 1.055999994277954, 0.0, 0.0, 0.0, 0.0, 0.0, 1.620313699321388E9, 2021-05-06 17:08:19.321
56.0, 132.74400329589844, 216.6785888671875, 346.4306640625, -197.2217559814453, 0.01600000075995922, 0.03200000151991844, 1.055999994277954, 0.0, 0.0, 0.0, 0.0, 0.0, 1.6203136993372748E9, 2021-05-06 17:08:19.337
56.0, 142.3256378173828, 226.27142333984375, 360.05511474609375, -194.8057861328125, 0.01600000075995922, 0.03200000151991844, 1.055999994277954, 0.0, 0.0, 0.0, 0.0, 0.0, 1.6203136993372748E9, 2021-05-06 17:08:19.337
57.0, 125.41754150390625, 219.82009887695312, 342.1522216796875, -210.01220703125, 0.01600000075995922, 0.03200000151991844, 1.055999994277954, 0.0, 0.0, 0.0, 0.0, 0.0, 1.620313699337962E9, 2021-05-06 17:08:19.337
57.0, 134.58778381347656, 227.67015075683594, 344.6990966796875, -196.00254821777344, 0.01600000075995922, 0.03200000151991844, 1.055999994277954, 0.0, 0.0, 0.0, 0.0, 0.0, 1.620313699337962E9, 2021-05-06 17:08:19.337
58.0, 130.84788513183594, 234.4805145263672, 343.5173034667969, -193.13031005859375, 0.01600000075995922, 0.03200000151991844, 1.055999994277954, 0.0, 0.0, 0.0, 0.0, 0.0, 1.620313699338703E9, 2021-05-06 17:08:19.338
58.0, 143.13719177246094, 213.8287811279297, 352.7735290527344, -190.5946502685547, 0.01600000075995922, 0.03200000151991844, 1.055999994277954, 0.0, 0.0, 0.0, 0.0, 0.0, 1.620313699338703E9, 2021-05-06 17:08:19.338
59.0, 156.21188354492188, 209.8457794189453, 344.916015625, -189.9962615966797, 0.01600000075995922, 0.03200000151991844, 1.055999994277954, 0.0, 0.0, 0.0, 0.0, 0.0, 1.6203136993516653E9, 2021-05-06 17:08:19.351
59.0, 131.99603271484375, 210.50027465820312, 340.6375732421875, -184.30039978027344, 0.01600000075995922, 0.03200000151991844, 1.055999994277954, 0.0, 0.0, 0.0, 0.0, 0.0, 1.6203136993516653E9, 2021-05-06 17:08:19.351
60.0, 136.64846801757812, 221.3385009765625, 348.3380126953125, -181.84703063964844, 0.01600000075995922, 0.03200000151991844, 1.055999994277954, 0.0, 0.0, 0.0, 0.0, 0.0, 1.6203136993523636E9, 2021-05-06 17:08:19.352
60.0, 143.3279266357422, 220.50450134277344, 346.3820495605469, -189.9139862060547, 0.01600000075995922, 0.03200000151991844, 1.055999994277954, 0.0, 0.0, 0.0, 0.0, 0.0, 1.6203136993523636E9, 2021-05-06 17:08:19.352
61.0, 134.44940185546875, 205.83660888671875, 335.173583984375, -197.7602996826172, 0.01600000075995922, 0.03200000151991844, 1.055999994277954, 0.0, 0.0, 0.0, 0.0, 0.0, 1.6203136993659904E9, 2021-05-06 17:08:19.365
61.0, 135.8668212890625, 221.65264892578125, 338.18792724609375, -195.28074645996094, 0.01600000075995922, 0.03200000151991844, 1.055999994277954, 0.0, 0.0, 0.0, 0.0, 0.0, 1.6203136993659904E9, 2021-05-06 17:08:19.365
62.0, 137.4488067626953, 216.03158569335938, 345.0843200683594, -192.1691436767578, 0.01600000075995922, 0.03200000151991844, 1.055999994277954, 0.0, 0.0, 0.0, 0.0, 0.0, 1.6203136993815627E9, 2021-05-06 17:08:19.381
62.0, 134.56907653808594, 219.48350524902344, 339.4744567871094, -198.2240447998047, 0.01600000075995922, 0.03200000151991844, 1.055999994277954, 0.0, 0.0, 0.0, 0.0, 0.0, 1.6203136993815627E9, 2021-05-06 17:08:19.381
63.0, 134.24371337890625, 218.21194458007812, 341.2957763671875, -204.66041564941406, 0.01600000075995922, 0.03200000151991844, 1.055999994277954, 0.0, 0.0, 0.0, 0.0, 0.0, 1.6203136993822937E9, 2021-05-06 17:08:19.382
63.0, 145.58682250976562, 218.9524383544922, 344.4485168457031, -201.47027587890625, 0.01600000075995922, 0.03200000151991844, 1.055999994277954, 0.0, 0.0, 0.0, 0.0, 0.0, 1.6203136993822937E9, 2021-05-06 17:08:19.382
64.0, 150.0186004638672, 228.68740844726562, 344.94219970703125, -200.64376831054688, 0.01600000075995922, 0.03200000151991844, 1.055999994277954, 0.0, 0.0, 0.0, 0.0, 0.0, 1.6203136993960462E9, 2021-05-06 17:08:19.396
64.0, 130.53372192382812, 217.0525665283203, 345.0880432128906, -202.45013427734375, 0.01600000075995922, 0.03200000151991844, 1.055999994277954, 0.0, 0.0, 0.0, 0.0, 0.0, 1.6203136993960462E9, 2021-05-06 17:08:19.396
65.0, 127.093017578125, 227.57290649414062, 340.7946472167969, -198.9495849609375, 0.01600000075995922, 0.03200000151991844, 1.055999994277954, 0.0, 0.0, 0.0, 0.0, 0.0, 1.620313699411729E9, 2021-05-06 17:08:19.411
65.0, 133.05442810058594, 218.24560546875, 336.1609191894531, -203.744140625, 0.01600000075995922, 0.03200000151991844, 1.055999994277954, 0.0, 0.0, 0.0, 0.0, 0.0, 1.620313699411729E9, 2021-05-06 17:08:19.411
66.0, 143.9674530029297, 225.05221557617188, 345.4844665527344, -197.898681640625, 0.01600000075995922, 0.03200000151991844, 1.055999994277954, 0.0, 0.0, 0.0, 0.0, 0.0, 1.62031369941241E9, 2021-05-06 17:08:19.412
66.0, 131.02365112304688, 229.36431884765625, 347.69476318359375, -195.32188415527344, 0.01600000075995922, 0.03200000151991844, 1.055999994277954, 0.0, 0.0, 0.0, 0.0, 0.0, 1.62031369941241E9, 2021-05-06 17:08:19.412
67.0, 142.50514221191406, 223.1074676513672, 351.2962951660156, -186.7051544189453, 0.01600000075995922, 0.03200000151991844, 1.055999994277954, 0.0, 0.0, 0.0, 0.0, 0.0, 1.6203136994259565E9, 2021-05-06 17:08:19.425
67.0, 136.2445526123047, 226.9221649169922, 340.9779052734375, -188.00289916992188, 0.01600000075995922, 0.03200000151991844, 1.055999994277954, 0.0, 0.0, 0.0, 0.0, 0.0, 1.6203136994259565E9, 2021-05-06 17:08:19.425
68.0, 149.24444580078125, 211.26321411132812, 341.0414733886719, -183.30184936523438, 0.01600000075995922, 0.03200000151991844, 1.055999994277954, 0.0, 0.0, 0.0, 0.0, 0.0, 1.620313699441672E9, 2021-05-06 17:08:19.441
68.0, 126.79756927490234, 211.4053192138672, 344.91973876953125, -183.80673217773438, 0.01600000075995922, 0.03200000151991844, 1.055999994277954, 0.0, 0.0, 0.0, 0.0, 0.0, 1.620313699441672E9, 2021-05-06 17:08:19.441
69.0, 128.80589294433594, 210.2721405029297, 338.1280822753906, -191.5632781982422, 0.01600000075995922, 0.03200000151991844, 1.055999994277954, 0.0, 0.0, 0.0, 0.0, 0.0, 1.6203136994423866E9, 2021-05-06 17:08:19.442
69.0, 137.29547119140625, 215.9119110107422, 343.93243408203125, -194.77960205078125, 0.01600000075995922, 0.03200000151991844, 1.055999994277954, 0.0, 0.0, 0.0, 0.0, 0.0, 1.6203136994423866E9, 2021-05-06 17:08:19.442
70.0, 149.27810668945312, 208.02072143554688, 352.05548095703125, -184.28170776367188, 0.01600000075995922, 0.03200000151991844, 1.055999994277954, 0.0, 0.0, 0.0, 0.0, 0.0, 1.6203136994559383E9, 2021-05-06 17:08:19.455
70.0, 137.08602905273438, 225.34019470214844, 356.6181640625, -189.01641845703125, 0.01600000075995922, 0.03200000151991844, 1.055999994277954, 0.0, 0.0, 0.0, 0.0, 0.0, 1.6203136994559383E9, 2021-05-06 17:08:19.455
71.0, 130.6234893798828, 204.52391052246094, 348.85040283203125, -195.71456909179688, 0.01600000075995922, 0.03200000151991844, 1.055999994277954, 0.0, 0.0, 0.0, 0.0, 0.0, 1.6203136994715784E9, 2021-05-06 17:08:19.471
71.0, 136.95887756347656, 223.4552764892578, 349.5160827636719, -200.9093017578125, 0.01600000075995922, 0.03200000151991844, 1.055999994277954, 0.0, 0.0, 0.0, 0.0, 0.0, 1.6203136994715784E9, 2021-05-06 17:08:19.471
72.0, 145.2016143798828, 215.9979248046875, 355.6009216308594, -197.92111206054688, 0.01600000075995922, 0.03200000151991844, 1.055999994277954, 0.0, 0.0, 0.0, 0.0, 0.0, 1.6203136994722445E9, 2021-05-06 17:08:19.472
72.0, 135.08518981933594, 220.0669403076172, 348.7606201171875, -202.1733856201172, 0.01600000075995922, 0.03200000151991844, 1.055999994277954, 0.0, 0.0, 0.0, 0.0, 0.0, 1.6203136994722445E9, 2021-05-06 17:08:19.472
73.0, 140.9643096923828, 219.62936401367188, 346.9243469238281, -205.9095458984375, 0.01600000075995922, 0.03200000151991844, 1.055999994277954, 0.0, 0.0, 0.0, 0.0, 0.0, 1.6203136994859123E9, 2021-05-06 17:08:19.485
73.0, 138.63809204101562, 236.802978515625, 338.8760681152344, -200.50164794921875, 0.01600000075995922, 0.03200000151991844, 1.055999994277954, 0.0, 0.0, 0.0, 0.0, 0.0, 1.6203136994859123E9, 2021-05-06 17:08:19.485
74.0, 141.77586364746094, 217.49388122558594, 342.5224914550781, -201.30198669433594, 0.01600000075995922, 0.03200000151991844, 1.055999994277954, 0.0, 0.0, 0.0, 0.0, 0.0, 1.620313699501533E9, 2021-05-06 17:08:19.501
74.0, 153.10028076171875, 228.2086944580078, 346.2885437011719, -194.57015991210938, 0.01600000075995922, 0.03200000151991844, 1.055999994277954, 0.0, 0.0, 0.0, 0.0, 0.0, 1.620313699501533E9, 2021-05-06 17:08:19.501
75.0, 132.4784698486328, 215.40701293945312, 343.5546875, -200.7783966064453, 0.01600000075995922, 0.03200000151991844, 1.055999994277954, 0.0, 0.0, 0.0, 0.0, 0.0, 1.620313699502248E9, 2021-05-06 17:08:19.502
75.0, 129.9353485107422, 228.26853942871094, 341.430419921875, -190.44879150390625, 0.01600000075995922, 0.03200000151991844, 1.055999994277954, 0.0, 0.0, 0.0, 0.0, 0.0, 1.620313699502248E9, 2021-05-06 17:08:19.502
76.0, 135.7060089111328, 233.11544799804688, 340.3869934082031, -199.084228515625, 0.01600000075995922, 0.03200000151991844, 1.055999994277954, 0.0, 0.0, 0.0, 0.0, 0.0, 1.620313699515878E9, 2021-05-06 17:08:19.515
76.0, 143.2942657470703, 212.0224151611328, 345.18902587890625, -188.50778198242188, 0.01600000075995922, 0.03200000151991844, 1.055999994277954, 0.0, 0.0, 0.0, 0.0, 0.0, 1.620313699515878E9, 2021-05-06 17:08:19.515
77.0, 135.32080078125, 217.66966247558594, 343.7528991699219, -187.39703369140625, 0.01600000075995922, 0.03200000151991844, 1.055999994277954, 0.0, 0.0, 0.0, 0.0, 0.0, 1.6203136995627291E9, 2021-05-06 17:08:19.562
77.0, 132.15684509277344, 222.7259979248047, 338.28515625, -189.43154907226562, 0.01600000075995922, 0.03200000151991844, 1.055999994277954, 0.0, 0.0, 0.0, 0.0, 0.0, 1.6203136995627291E9, 2021-05-06 17:08:19.562
78.0, 154.8206329345703, 207.90478515625, 347.8144226074219, -181.30099487304688, 0.01600000075995922, 0.03200000151991844, 1.055999994277954, 0.0, 0.0, 0.0, 0.0, 0.0, 1.6203136995634463E9, 2021-05-06 17:08:19.563
78.0, 139.22898864746094, 215.80718994140625, 354.1573181152344, -186.80987548828125, 0.01600000075995922, 0.03200000151991844, 1.055999994277954, 0.0, 0.0, 0.0, 0.0, 0.0, 1.6203136995634463E9, 2021-05-06 17:08:19.563
79.0, 142.03765869140625, 206.3227996826172, 343.9960021972656, -195.5126190185547, 0.01600000075995922, 0.03200000151991844, 1.055999994277954, 0.0, 0.0, 0.0, 0.0, 0.0, 1.620313699564215E9, 2021-05-06 17:08:19.564
79.0, 132.26156616210938, 220.73263549804688, 346.8944091796875, -188.87429809570312, 0.01600000075995922, 0.03200000151991844, 1.055999994277954, 0.0, 0.0, 0.0, 0.0, 0.0, 1.620313699564215E9, 2021-05-06 17:08:19.564
80.0, 133.52938842773438, 225.20181274414062, 342.85906982421875, -188.8668212890625, 0.01600000075995922, 0.03200000151991844, 1.055999994277954, 0.0, 0.0, 0.0, 0.0, 0.0, 1.6203136995773747E9, 2021-05-06 17:08:19.577
80.0, 136.07626342773438, 207.8935546875, 342.5935363769531, -192.124267578125, 0.01600000075995922, 0.03200000151991844, 1.055999994277954, 0.0, 0.0, 0.0, 0.0, 0.0, 1.6203136995773747E9, 2021-05-06 17:08:19.577
81.0, 142.54627990722656, 216.40182495117188, 337.08465576171875, -201.2010040283203, 0.01600000075995922, 0.03200000151991844, 1.055999994277954, 0.0, 0.0, 0.0, 0.0, 0.0, 1.6203136995780458E9, 2021-05-06 17:08:19.578
81.0, 128.89190673828125, 218.48495483398438, 327.7012634277344, -200.5540008544922, 0.01600000075995922, 0.03200000151991844, 1.055999994277954, 0.0, 0.0, 0.0, 0.0, 0.0, 1.6203136995780458E9, 2021-05-06 17:08:19.578
82.0, 138.0359649658203, 225.54962158203125, 338.8050231933594, -200.0565948486328, 0.01600000075995922, 0.03200000151991844, 1.055999994277954, 0.0, 0.0, 0.0, 0.0, 0.0, 1.6203136995787675E9, 2021-05-06 17:08:19.578
82.0, 142.7407684326172, 215.04798889160156, 346.4830322265625, -201.56378173828125, 0.01600000075995922, 0.03200000151991844, 1.055999994277954, 0.0, 0.0, 0.0, 0.0, 0.0, 1.6203136995787675E9, 2021-05-06 17:08:19.578
83.0, 141.03163146972656, 217.49014282226562, 336.10479736328125, -203.9236602783203, 0.01600000075995922, 0.03200000151991844, 1.055999994277954, 0.0, 0.0, 0.0, 0.0, 0.0, 1.620313699607244E9, 2021-05-06 17:08:19.607
83.0, 131.56219482421875, 219.73782348632812, 342.38409423828125, -197.82762145996094, 0.01600000075995922, 0.03200000151991844, 1.055999994277954, 0.0, 0.0, 0.0, 0.0, 0.0, 1.620313699607244E9, 2021-05-06 17:08:19.607
84.0, 149.6558380126953, 226.0956573486328, 345.58172607421875, -191.19677734375, 0.01600000075995922, 0.03200000151991844, 1.055999994277954, 0.0, 0.0, 0.0, 0.0, 0.0, 1.620313699607973E9, 2021-05-06 17:08:19.607
84.0, 143.9263153076172, 238.6243133544922, 345.091796875, -186.81361389160156, 0.01600000075995922, 0.03200000151991844, 1.055999994277954, 0.0, 0.0, 0.0, 0.0, 0.0, 1.620313699607973E9, 2021-05-06 17:08:19.607
85.0, 119.83761596679688, 213.54080200195312, 342.122314453125, -195.49017333984375, 0.01600000075995922, 0.03200000151991844, 1.055999994277954, 0.0, 0.0, 0.0, 0.0, 0.0, 1.6203136996087964E9, 2021-05-06 17:08:19.608
85.0, 132.38124084472656, 222.97283935546875, 336.95001220703125, -180.67269897460938, 0.01600000075995922, 0.03200000151991844, 1.055999994277954, 0.0, 0.0, 0.0, 0.0, 0.0, 1.6203136996087964E9, 2021-05-06 17:08:19.608
86.0, 133.7986602783203, 210.87425231933594, 340.1551208496094, -185.14561462402344, 0.01600000075995922, 0.03200000151991844, 1.055999994277954, 0.0, 0.0, 0.0, 0.0, 0.0, 1.6203136996215987E9, 2021-05-06 17:08:19.621
86.0, 130.73568725585938, 227.4457550048828, 348.4389953613281, -191.00230407714844, 0.01600000075995922, 0.03200000151991844, 1.055999994277954, 0.0, 0.0, 0.0, 0.0, 0.0, 1.6203136996215987E9, 2021-05-06 17:08:19.621
87.0, 124.6807861328125, 207.61306762695312, 334.84820556640625, -195.07879638671875, 0.01600000075995922, 0.03200000151991844, 1.055999994277954, 0.0, 0.0, 0.0, 0.0, 0.0, 1.6203136996223667E9, 2021-05-06 17:08:19.622
87.0, 135.47787475585938, 201.22157287597656, 339.9905700683594, -195.5687255859375, 0.01600000075995922, 0.03200000151991844, 1.055999994277954, 0.0, 0.0, 0.0, 0.0, 0.0, 1.6203136996223667E9, 2021-05-06 17:08:19.622
88.0, 133.712646484375, 209.90188598632812, 343.5210266113281, -184.6257781982422, 0.01600000075995922, 0.03200000151991844, 1.055999994277954, 0.0, 0.0, 0.0, 0.0, 0.0, 1.6203136996358557E9, 2021-05-06 17:08:19.635
88.0, 146.084228515625, 217.3106231689453, 351.5767822265625, -185.95343017578125, 0.01600000075995922, 0.03200000151991844, 1.055999994277954, 0.0, 0.0, 0.0, 0.0, 0.0, 1.6203136996358557E9, 2021-05-06 17:08:19.635
89.0, 141.083984375, 208.21145629882812, 343.3976135253906, -191.4398651123047, 0.01600000075995922, 0.03200000151991844, 1.055999994277954, 0.0, 0.0, 0.0, 0.0, 0.0, 1.6203136996522691E9, 2021-05-06 17:08:19.652
89.0, 124.6396484375, 220.0968475341797, 340.62261962890625, -193.23501586914062, 0.01600000075995922, 0.03200000151991844, 1.055999994277954, 0.0, 0.0, 0.0, 0.0, 0.0, 1.6203136996522691E9, 2021-05-06 17:08:19.652
90.0, 139.2626495361328, 218.55227661132812, 348.63348388671875, -189.8878173828125, 0.01600000075995922, 0.03200000151991844, 1.055999994277954, 0.0, 0.0, 0.0, 0.0, 0.0, 1.6203136996530232E9, 2021-05-06 17:08:19.653
90.0, 139.48704528808594, 224.06861877441406, 347.0365295410156, -187.27362060546875, 0.01600000075995922, 0.03200000151991844, 1.055999994277954, 0.0, 0.0, 0.0, 0.0, 0.0, 1.6203136996530232E9, 2021-05-06 17:08:19.653
91.0, 130.69454956054688, 234.9853973388672, 338.01214599609375, -207.31948852539062, 0.01600000075995922, 0.03200000151991844, 1.055999994277954, 0.0, 0.0, 0.0, 0.0, 0.0, 1.6203136996658816E9, 2021-05-06 17:08:19.665
91.0, 131.423828125, 218.01747131347656, 330.44635009765625, -205.187744140625, 0.01600000075995922, 0.03200000151991844, 1.055999994277954, 0.0, 0.0, 0.0, 0.0, 0.0, 1.6203136996658816E9, 2021-05-06 17:08:19.665
92.0, 135.2834014892578, 221.7050018310547, 339.3622741699219, -198.2726593017578, 0.01600000075995922, 0.03200000151991844, 1.055999994277954, 0.0, 0.0, 0.0, 0.0, 0.0, 1.6203136996816492E9, 2021-05-06 17:08:19.681
92.0, 139.92462158203125, 244.608154296875, 340.6749572753906, -204.73147583007812, 0.01600000075995922, 0.03200000151991844, 1.055999994277954, 0.0, 0.0, 0.0, 0.0, 0.0, 1.6203136996816492E9, 2021-05-06 17:08:19.681
93.0, 137.21693420410156, 212.8489227294922, 335.831787109375, -202.82412719726562, 0.01600000075995922, 0.03200000151991844, 1.055999994277954, 0.0, 0.0, 0.0, 0.0, 0.0, 1.620313699682399E9, 2021-05-06 17:08:19.682
93.0, 139.5169677734375, 220.75881958007812, 330.2929992675781, -195.2171630859375, 0.01600000075995922, 0.03200000151991844, 1.055999994277954, 0.0, 0.0, 0.0, 0.0, 0.0, 1.620313699682399E9, 2021-05-06 17:08:19.682
94.0, 135.0664825439453, 227.85340881347656, 341.03399658203125, -192.2589111328125, 0.01600000075995922, 0.03200000151991844, 1.055999994277954, 0.0, 0.0, 0.0, 0.0, 0.0, 1.6203136996959589E9, 2021-05-06 17:08:19.695
94.0, 151.6417236328125, 226.1293182373047, 352.57159423828125, -185.0558624267578, 0.01600000075995922, 0.03200000151991844, 1.055999994277954, 0.0, 0.0, 0.0, 0.0, 0.0, 1.6203136996959589E9, 2021-05-06 17:08:19.695
95.0, 119.23922729492188, 216.5963134765625, 336.7705078125, -191.0733642578125, 0.01600000075995922, 0.03200000151991844, 1.055999994277954, 0.0, 0.0, 0.0, 0.0, 0.0, 1.6203136997124228E9, 2021-05-06 17:08:19.712
95.0, 126.3487777709961, 210.37310791015625, 332.26019287109375, -181.68246459960938, 0.01600000075995922, 0.03200000151991844, 1.055999994277954, 0.0, 0.0, 0.0, 0.0, 0.0, 1.6203136997124228E9, 2021-05-06 17:08:19.712
96.0, 126.32633972167969, 223.72454833984375, 338.3150939941406, -189.76065063476562, 0.01600000075995922, 0.03200000151991844, 1.055999994277954, 0.0, 0.0, 0.0, 0.0, 0.0, 1.620313699713107E9, 2021-05-06 17:08:19.713
96.0, 127.02570343017578, 222.51657104492188, 338.9732971191406, -189.59983825683594, 0.01600000075995922, 0.03200000151991844, 1.055999994277954, 0.0, 0.0, 0.0, 0.0, 0.0, 1.620313699713107E9, 2021-05-06 17:08:19.713
97.0, 125.11087036132812, 217.11988830566406, 340.18878173828125, -187.51296997070312, 0.01600000075995922, 0.03200000151991844, 1.055999994277954, 0.0, 0.0, 0.0, 0.0, 0.0, 1.620313699726028E9, 2021-05-06 17:08:19.726
97.0, 126.40861511230469, 205.52993774414062, 337.4549255371094, -191.103271484375, 0.01600000075995922, 0.03200000151991844, 1.055999994277954, 0.0, 0.0, 0.0, 0.0, 0.0, 1.620313699726028E9, 2021-05-06 17:08:19.726
98.0, 131.95489501953125, 227.68136596679688, 342.48883056640625, -187.64013671875, 0.01600000075995922, 0.03200000151991844, 1.055999994277954, 0.0, 0.0, 0.0, 0.0, 0.0, 1.6203136997415829E9, 2021-05-06 17:08:19.741
98.0, 137.93873596191406, 203.88064575195312, 339.9494323730469, -196.87020874023438, 0.01600000075995922, 0.03200000151991844, 1.055999994277954, 0.0, 0.0, 0.0, 0.0, 0.0, 1.6203136997415829E9, 2021-05-06 17:08:19.741
99.0, 119.35142517089844, 207.38119506835938, 334.89306640625, -202.22573852539062, 0.01600000075995922, 0.03200000151991844, 1.055999994277954, 0.0, 0.0, 0.0, 0.0, 0.0, 1.6203136997422993E9, 2021-05-06 17:08:19.742
99.0, 126.86114501953125, 214.9806671142578, 327.8658142089844, -197.68923950195312, 0.01600000075995922, 0.03200000151991844, 1.055999994277954, 0.0, 0.0, 0.0, 0.0, 0.0, 1.6203136997422993E9, 2021-05-06 17:08:19.742
100.0, 137.88636779785156, 223.7095947265625, 334.317138671875, -210.41612243652344, 0.01600000075995922, 0.03200000151991844, 1.055999994277954, 0.0, 0.0, 0.0, 0.0, 0.0, 1.6203136997565892E9, 2021-05-06 17:08:19.756
100.0, 129.53517150878906, 210.88922119140625, 336.07489013671875, -211.2501220703125, 0.01600000075995922, 0.03200000151991844, 1.055999994277954, 0.0, 0.0, 0.0, 0.0, 0.0, 1.6203136997565892E9, 2021-05-06 17:08:19.756
0.0, 142.9071807861328, 216.19052124023438, 339.4744567871094, -205.67018127441406, 0.01600000075995922, 0.03200000151991844, 1.055999994277954, 0.0, 0.0, 0.0, 0.0, 0.0, 1.6203136997572706E9, 2021-05-06 17:08:19.757
1.0, 122.61448669433594, 213.9578094482422, 331.3925476074219, -204.17796325683594, 0.01600000075995922, 0.03200000151991844, 1.055999994277954, 0.0, 0.0, 0.0, 0.0, 0.0, 1.6203136997869985E9, 2021-05-06 17:08:19.786
1.0, 144.85568237304688, 225.364501953125, 343.56591796875, -193.7735595703125, 0.01600000075995922, 0.03200000151991844, 1.055999994277954, 0.0, 0.0, 0.0, 0.0, 0.0, 1.6203136997869985E9, 2021-05-06 17:08:19.786
2.0, 128.6619110107422, 223.82366943359375, 343.0572814941406, -195.89035034179688, 0.01600000075995922, 0.03200000151991844, 1.055999994277954, 0.0, 0.0, 0.0, 0.0, 0.0, 1.6203136997876816E9, 2021-05-06 17:08:19.787
2.0, 122.24797821044922, 225.4019012451172, 342.46636962890625, -193.2238006591797, 0.01600000075995922, 0.03200000151991844, 1.055999994277954, 0.0, 0.0, 0.0, 0.0, 0.0, 1.6203136997876816E9, 2021-05-06 17:08:19.787
3.0, 141.5159454345703, 206.208740234375, 344.29144287109375, -183.3953399658203, 0.01600000075995922, 0.03200000151991844, 1.055999994277954, 0.0, 0.0, 0.0, 0.0, 0.0, 1.6203136998016677E9, 2021-05-06 17:08:19.801
3.0, 137.3945770263672, 223.48333740234375, 344.9646301269531, -187.18760681152344, 0.01600000075995922, 0.03200000151991844, 1.055999994277954, 0.0, 0.0, 0.0, 0.0, 0.0, 1.6203136998016677E9, 2021-05-06 17:08:19.801
4.0, 113.49287414550781, 219.66488647460938, 340.7198486328125, -190.50489807128906, 0.01600000075995922, 0.03200000151991844, 1.055999994277954, 0.0, 0.0, 0.0, 0.0, 0.0, 1.62031369980228E9, 2021-05-06 17:08:19.802
4.0, 128.0635223388672, 209.54098510742188, 348.48388671875, -183.96380615234375, 0.01600000075995922, 0.03200000151991844, 1.055999994277954, 0.0, 0.0, 0.0, 0.0, 0.0, 1.62031369980228E9, 2021-05-06 17:08:19.802
5.0, 128.81524658203125, 211.5081787109375, 340.3159484863281, -185.82254028320312, 0.01600000075995922, 0.03200000151991844, 1.055999994277954, 0.0, 0.0, 0.0, 0.0, 0.0, 1.6203136998166316E9, 2021-05-06 17:08:19.816
5.0, 132.00912475585938, 215.43507385253906, 346.3072509765625, -181.6488037109375, 0.01600000075995922, 0.03200000151991844, 1.055999994277954, 0.0, 0.0, 0.0, 0.0, 0.0, 1.6203136998166316E9, 2021-05-06 17:08:19.816
6.0, 136.0407257080078, 213.31454467773438, 349.3216247558594, -193.58657836914062, 0.01600000075995922, 0.03200000151991844, 1.055999994277954, 0.0, 0.0, 0.0, 0.0, 0.0, 1.6203136998173077E9, 2021-05-06 17:08:19.817
6.0, 122.55838775634766, 222.95974731445312, 343.74542236328125, -198.47462463378906, 0.01600000075995922, 0.03200000151991844, 1.055999994277954, 0.0, 0.0, 0.0, 0.0, 0.0, 1.6203136998173077E9, 2021-05-06 17:08:19.817
7.0, 122.9623031616211, 213.35194396972656, 337.193115234375, -202.41647338867188, 0.01600000075995922, 0.03200000151991844, 1.055999994277954, 0.0, 0.0, 0.0, 0.0, 0.0, 1.6203136998471537E9, 2021-05-06 17:08:19.847
7.0, 135.19924926757812, 215.1022186279297, 345.0319519042969, -196.455078125, 0.01600000075995922, 0.03200000151991844, 1.055999994277954, 0.0, 0.0, 0.0, 0.0, 0.0, 1.6203136998471537E9, 2021-05-06 17:08:19.847
8.0, 131.69122314453125, 212.91812133789062, 342.1185607910156, -203.84512329101562, 0.01600000075995922, 0.03200000151991844, 1.055999994277954, 0.0, 0.0, 0.0, 0.0, 0.0, 1.6203136998477194E9, 2021-05-06 17:08:19.847
8.0, 120.95771789550781, 227.9487762451172, 334.8519287109375, -210.34132385253906, 0.01600000075995922, 0.03200000151991844, 1.055999994277954, 0.0, 0.0, 0.0, 0.0, 0.0, 1.6203136998477194E9, 2021-05-06 17:08:19.847
9.0, 129.37997436523438, 223.7600860595703, 338.41607666015625, -208.64715576171875, 0.01600000075995922, 0.03200000151991844, 1.055999994277954, 0.0, 0.0, 0.0, 0.0, 0.0, 1.6203136998615625E9, 2021-05-06 17:08:19.861
9.0, 126.38056945800781, 219.14878845214844, 334.1451110839844, -206.9230499267578, 0.01600000075995922, 0.03200000151991844, 1.055999994277954, 0.0, 0.0, 0.0, 0.0, 0.0, 1.6203136998615625E9, 2021-05-06 17:08:19.861
10.0, 129.66046142578125, 224.70628356933594, 347.21978759765625, -206.1937713623047, 0.01600000075995922, 0.03200000151991844, 1.055999994277954, 0.0, 0.0, 0.0, 0.0, 0.0, 1.6203136998622892E9, 2021-05-06 17:08:19.862
10.0, 128.67312622070312, 215.528564453125, 348.3829040527344, -197.30029296875, 0.01600000075995922, 0.03200000151991844, 1.055999994277954, 0.0, 0.0, 0.0, 0.0, 0.0, 1.6203136998622892E9, 2021-05-06 17:08:19.862
11.0, 121.9450454711914, 218.18016052246094, 342.02508544921875, -201.67971801757812, 0.01600000075995922, 0.03200000151991844, 1.055999994277954, 0.0, 0.0, 0.0, 0.0, 0.0, 1.6203136998765519E9, 2021-05-06 17:08:19.876
11.0, 127.26692199707031, 214.2233428955078, 345.338623046875, -194.55894470214844, 0.01600000075995922, 0.03200000151991844, 1.055999994277954, 0.0, 0.0, 0.0, 0.0, 0.0, 1.6203136998765519E9, 2021-05-06 17:08:19.876
12.0, 121.87773132324219, 216.4149169921875, 348.46893310546875, -192.23646545410156, 0.01600000075995922, 0.03200000151991844, 1.055999994277954, 0.0, 0.0, 0.0, 0.0, 0.0, 1.6203136998772275E9, 2021-05-06 17:08:19.877
12.0, 125.34087371826172, 224.1752166748047, 342.978759765625, -187.5428924560547, 0.01600000075995922, 0.03200000151991844, 1.055999994277954, 0.0, 0.0, 0.0, 0.0, 0.0, 1.6203136998772275E9, 2021-05-06 17:08:19.877
13.0, 138.0341033935547, 213.9578094482422, 337.5671081542969, -190.1383819580078, 0.01600000075995922, 0.03200000151991844, 1.055999994277954, 0.0, 0.0, 0.0, 0.0, 0.0, 1.6203136998909752E9, 2021-05-06 17:08:19.890
13.0, 124.74623107910156, 220.8242645263672, 344.38494873046875, -186.88841247558594, 0.01600000075995922, 0.03200000151991844, 1.055999994277954, 0.0, 0.0, 0.0, 0.0, 0.0, 1.6203136998909752E9, 2021-05-06 17:08:19.890
14.0, 130.50567626953125, 227.49624633789062, 349.14208984375, -184.92495727539062, 0.01600000075995922, 0.03200000151991844, 1.055999994277954, 0.0, 0.0, 0.0, 0.0, 0.0, 1.620313699906525E9, 2021-05-06 17:08:19.906
14.0, 127.06123352050781, 202.26687622070312, 335.6709899902344, -194.4504852294922, 0.01600000075995922, 0.03200000151991844, 1.055999994277954, 0.0, 0.0, 0.0, 0.0, 0.0, 1.620313699906525E9, 2021-05-06 17:08:19.906
15.0, 132.7346649169922, 223.8423614501953, 338.87982177734375, -188.9042205810547, 0.01600000075995922, 0.03200000151991844, 1.055999994277954, 0.0, 0.0, 0.0, 0.0, 0.0, 1.6203136999072986E9, 2021-05-06 17:08:19.907
15.0, 128.62451171875, 213.497802734375, 329.7694091796875, -193.4481964111328, 0.01600000075995922, 0.03200000151991844, 1.055999994277954, 0.0, 0.0, 0.0, 0.0, 0.0, 1.6203136999072986E9, 2021-05-06 17:08:19.907
16.0, 130.7113800048828, 224.63522338867188, 335.1286926269531, -189.7943115234375, 0.01600000075995922, 0.03200000151991844, 1.055999994277954, 0.0, 0.0, 0.0, 0.0, 0.0, 1.620313699920842E9, 2021-05-06 17:08:19.920
16.0, 128.81898498535156, 213.2846221923828, 332.7613525390625, -196.3166961669922, 0.01600000075995922, 0.03200000151991844, 1.055999994277954, 0.0, 0.0, 0.0, 0.0, 0.0, 1.620313699920842E9, 2021-05-06 17:08:19.920
17.0, 131.45187377929688, 228.57333374023438, 332.50701904296875, -194.9553680419922, 0.01600000075995922, 0.03200000151991844, 1.055999994277954, 0.0, 0.0, 0.0, 0.0, 0.0, 1.6203136999366093E9, 2021-05-06 17:08:19.936
17.0, 134.67567443847656, 225.67117309570312, 338.33380126953125, -198.6129913330078, 0.01600000075995922, 0.03200000151991844, 1.055999994277954, 0.0, 0.0, 0.0, 0.0, 0.0, 1.6203136999366093E9, 2021-05-06 17:08:19.936
18.0, 129.99331665039062, 228.23300170898438, 338.79754638671875, -203.9049530029297, 0.01600000075995922, 0.03200000151991844, 1.055999994277954, 0.0, 0.0, 0.0, 0.0, 0.0, 1.6203136999372566E9, 2021-05-06 17:08:19.937
18.0, 127.8802719116211, 218.498046875, 338.19915771484375, -207.1736297607422, 0.01600000075995922, 0.03200000151991844, 1.055999994277954, 0.0, 0.0, 0.0, 0.0, 0.0, 1.6203136999372566E9, 2021-05-06 17:08:19.937
19.0, 138.1051483154297, 220.88035583496094, 333.4083557128906, -202.6782684326172, 0.01600000075995922, 0.03200000151991844, 1.055999994277954, 0.0, 0.0, 0.0, 0.0, 0.0, 1.6203136999509156E9, 2021-05-06 17:08:19.950
19.0, 138.19117736816406, 225.07278442382812, 349.77789306640625, -193.49307250976562, 0.01600000075995922, 0.03200000151991844, 1.055999994277954, 0.0, 0.0, 0.0, 0.0, 0.0, 1.6203136999509156E9, 2021-05-06 17:08:19.950
20.0, 132.59628295898438, 232.0290069580078, 358.8733215332031, -190.97238159179688, 0.01600000075995922, 0.03200000151991844, 1.055999994277954, 0.0, 0.0, 0.0, 0.0, 0.0, 1.6203136999666276E9, 2021-05-06 17:08:19.966
20.0, 133.49386596679688, 220.05384826660156, 351.41595458984375, -192.86851501464844, 0.01600000075995922, 0.03200000151991844, 1.055999994277954, 0.0, 0.0, 0.0, 0.0, 0.0, 1.6203136999666276E9, 2021-05-06 17:08:19.966
21.0, 144.33209228515625, 211.34361267089844, 352.814697265625, -181.51417541503906, 0.01600000075995922, 0.03200000151991844, 1.055999994277954, 0.0, 0.0, 0.0, 0.0, 0.0, 1.6203136999674315E9, 2021-05-06 17:08:19.967
21.0, 134.14834594726562, 223.23275756835938, 350.3575744628906, -183.5935516357422, 0.01600000075995922, 0.03200000151991844, 1.055999994277954, 0.0, 0.0, 0.0, 0.0, 0.0, 1.6203136999674315E9, 2021-05-06 17:08:19.967
22.0, 127.0799331665039, 214.25326538085938, 346.0529479980469, -188.56015014648438, 0.01600000075995922, 0.03200000151991844, 1.055999994277954, 0.0, 0.0, 0.0, 0.0, 0.0, 1.6203136999810495E9, 2021-05-06 17:08:19.981
22.0, 136.1304931640625, 225.00921630859375, 353.3008728027344, -177.26939392089844, 0.01600000075995922, 0.03200000151991844, 1.055999994277954, 0.0, 0.0, 0.0, 0.0, 0.0, 1.6203136999810495E9, 2021-05-06 17:08:19.981
23.0, 131.32472229003906, 222.1893310546875, 347.6162109375, -182.0863800048828, 0.01600000075995922, 0.03200000151991844, 1.055999994277954, 0.0, 0.0, 0.0, 0.0, 0.0, 1.6203136999966257E9, 2021-05-06 17:08:19.996
23.0, 126.00657653808594, 217.5630645751953, 339.3248596191406, -187.43443298339844, 0.01600000075995922, 0.03200000151991844, 1.055999994277954, 0.0, 0.0, 0.0, 0.0, 0.0, 1.6203136999966257E9, 2021-05-06 17:08:19.996
24.0, 140.44259643554688, 211.26881408691406, 349.5796813964844, -193.68006896972656, 0.01600000075995922, 0.03200000151991844, 1.055999994277954, 0.0, 0.0, 0.0, 0.0, 0.0, 1.620313699997309E9, 2021-05-06 17:08:19.997
24.0, 130.97315979003906, 219.30960083007812, 347.94158935546875, -192.94705200195312, 0.01600000075995922, 0.03200000151991844, 1.055999994277954, 0.0, 0.0, 0.0, 0.0, 0.0, 1.620313699997309E9, 2021-05-06 17:08:19.997
25.0, 128.74044799804688, 218.415771484375, 339.0892639160156, -197.0459747314453, 0.01600000075995922, 0.03200000151991844, 1.055999994277954, 0.0, 0.0, 0.0, 0.0, 0.0, 1.6203137000276828E9, 2021-05-06 17:08:20.027
25.0, 123.38117218017578, 216.0858154296875, 342.6459045410156, -203.16819763183594, 0.01600000075995922, 0.03200000151991844, 1.055999994277954, 0.0, 0.0, 0.0, 0.0, 0.0, 1.6203137000276828E9, 2021-05-06 17:08:20.027
26.0, 132.51026916503906, 237.17510986328125, 345.0618591308594, -196.12969970703125, 0.01600000075995922, 0.03200000151991844, 1.055999994277954, 0.0, 0.0, 0.0, 0.0, 0.0, 1.6203137000284078E9, 2021-05-06 17:08:20.028
26.0, 123.78134155273438, 224.18643188476562, 334.32086181640625, -208.01510620117188, 0.01600000075995922, 0.03200000151991844, 1.055999994277954, 0.0, 0.0, 0.0, 0.0, 0.0, 1.6203137000284078E9, 2021-05-06 17:08:20.028
27.0, 132.54393005371094, 221.90509033203125, 345.1404113769531, -199.2113800048828, 0.01600000075995922, 0.03200000151991844, 1.055999994277954, 0.0, 0.0, 0.0, 0.0, 0.0, 1.620313700041568E9, 2021-05-06 17:08:20.041
27.0, 137.59652709960938, 223.838623046875, 344.83746337890625, -198.73641967773438, 0.01600000075995922, 0.03200000151991844, 1.055999994277954, 0.0, 0.0, 0.0, 0.0, 0.0, 1.620313700041568E9, 2021-05-06 17:08:20.041
28.0, 137.6563720703125, 219.75839233398438, 350.67919921875, -194.36073303222656, 0.01600000075995922, 0.03200000151991844, 1.055999994277954, 0.0, 0.0, 0.0, 0.0, 0.0, 1.6203137000422835E9, 2021-05-06 17:08:20.042
28.0, 133.86036682128906, 235.8848419189453, 356.3077392578125, -190.22439575195312, 0.01600000075995922, 0.03200000151991844, 1.055999994277954, 0.0, 0.0, 0.0, 0.0, 0.0, 1.6203137000422835E9, 2021-05-06 17:08:20.042
29.0, 142.48831176757812, 213.0751953125, 358.32354736328125, -192.71517944335938, 0.01600000075995922, 0.03200000151991844, 1.055999994277954, 0.0, 0.0, 0.0, 0.0, 0.0, 1.6203137000565355E9, 2021-05-06 17:08:20.056
29.0, 135.38624572753906, 225.1475830078125, 356.3900146484375, -180.8409881591797, 0.01600000075995922, 0.03200000151991844, 1.055999994277954, 0.0, 0.0, 0.0, 0.0, 0.0, 1.6203137000565355E9, 2021-05-06 17:08:20.056
30.0, 145.84300231933594, 220.5325469970703, 365.4368591308594, -185.32887268066406, 0.01600000075995922, 0.03200000151991844, 1.055999994277954, 0.0, 0.0, 0.0, 0.0, 0.0, 1.620313700057276E9, 2021-05-06 17:08:20.057
30.0, 125.19876098632812, 213.65487670898438, 354.153564453125, -186.41343688964844, 0.01600000075995922, 0.03200000151991844, 1.055999994277954, 0.0, 0.0, 0.0, 0.0, 0.0, 1.620313700057276E9, 2021-05-06 17:08:20.057
31.0, 128.0672607421875, 220.270751953125, 347.95281982421875, -177.68077087402344, 0.01600000075995922, 0.03200000151991844, 1.055999994277954, 0.0, 0.0, 0.0, 0.0, 0.0, 1.620313700070953E9, 2021-05-06 17:08:20.070
31.0, 155.27877807617188, 223.42349243164062, 357.99444580078125, -183.0475311279297, 0.01600000075995922, 0.03200000151991844, 1.055999994277954, 0.0, 0.0, 0.0, 0.0, 0.0, 1.620313700070953E9, 2021-05-06 17:08:20.070
32.0, 116.93357849121094, 218.64016723632812, 347.9976806640625, -182.27337646484375, 0.01600000075995922, 0.03200000151991844, 1.055999994277954, 0.0, 0.0, 0.0, 0.0, 0.0, 1.6203137000866551E9, 2021-05-06 17:08:20.086
32.0, 131.43316650390625, 227.24566650390625, 351.5842590332031, -181.75352478027344, 0.01600000075995922, 0.03200000151991844, 1.055999994277954, 0.0, 0.0, 0.0, 0.0, 0.0, 1.6203137000866551E9, 2021-05-06 17:08:20.086
33.0, 134.43630981445312, 217.36111450195312, 343.3265686035156, -178.49981689453125, 0.01600000075995922, 0.03200000151991844, 1.055999994277954, 0.0, 0.0, 0.0, 0.0, 0.0, 1.6203137000872676E9, 2021-05-06 17:08:20.087
33.0, 128.8339385986328, 215.1022186279297, 345.52935791015625, -179.3749542236328, 0.01600000075995922, 0.03200000151991844, 1.055999994277954, 0.0, 0.0, 0.0, 0.0, 0.0, 1.6203137000872676E9, 2021-05-06 17:08:20.087
34.0, 131.7174072265625, 213.69601440429688, 349.4188537597656, -185.08204650878906, 0.01600000075995922, 0.03200000151991844, 1.055999994277954, 0.0, 0.0, 0.0, 0.0, 0.0, 1.6203137001009147E9, 2021-05-06 17:08:20.100
34.0, 128.4898681640625, 216.5944366455078, 342.451416015625, -193.97178649902344, 0.01600000075995922, 0.03200000151991844, 1.055999994277954, 0.0, 0.0, 0.0, 0.0, 0.0, 1.6203137001009147E9, 2021-05-06 17:08:20.100
35.0, 142.08815002441406, 225.77215576171875, 348.6409606933594, -189.25576782226562, 0.01600000075995922, 0.03200000151991844, 1.055999994277954, 0.0, 0.0, 0.0, 0.0, 0.0, 1.6203137001165564E9, 2021-05-06 17:08:20.116
35.0, 156.84579467773438, 216.1232147216797, 355.9562072753906, -193.908203125, 0.01600000075995922, 0.03200000151991844, 1.055999994277954, 0.0, 0.0, 0.0, 0.0, 0.0, 1.6203137001165564E9, 2021-05-06 17:08:20.116
36.0, 127.08740997314453, 226.28077697753906, 348.3193359375, -204.7165069580078, 0.01600000075995922, 0.03200000151991844, 1.055999994277954, 0.0, 0.0, 0.0, 0.0, 0.0, 1.6203137001172943E9, 2021-05-06 17:08:20.117
36.0, 143.44198608398438, 212.03175354003906, 352.7847595214844, -199.64146423339844, 0.01600000075995922, 0.03200000151991844, 1.055999994277954, 0.0, 0.0, 0.0, 0.0, 0.0, 1.6203137001172943E9, 2021-05-06 17:08:20.117
37.0, 142.6416473388672, 222.83633422851562, 350.2341613769531, -206.74728393554688, 0.01600000075995922, 0.03200000151991844, 1.055999994277954, 0.0, 0.0, 0.0, 0.0, 0.0, 1.6203137001309423E9, 2021-05-06 17:08:20.130
37.0, 146.4563446044922, 232.88917541503906, 359.1014404296875, -192.37484741210938, 0.01600000075995922, 0.03200000151991844, 1.055999994277954, 0.0, 0.0, 0.0, 0.0, 0.0, 1.6203137001309423E9, 2021-05-06 17:08:20.130
38.0, 145.78317260742188, 223.416015625, 366.1062927246094, -189.34925842285156, 0.01600000075995922, 0.03200000151991844, 1.055999994277954, 0.0, 0.0, 0.0, 0.0, 0.0, 1.6203137001465764E9, 2021-05-06 17:08:20.146
38.0, 137.24124145507812, 240.0398712158203, 361.4127197265625, -190.2543182373047, 0.01600000075995922, 0.03200000151991844, 1.055999994277954, 0.0, 0.0, 0.0, 0.0, 0.0, 1.6203137001465764E9, 2021-05-06 17:08:20.146
39.0, 141.54212951660156, 216.23915100097656, 356.876220703125, -186.03945922851562, 0.01600000075995922, 0.03200000151991844, 1.055999994277954, 0.0, 0.0, 0.0, 0.0, 0.0, 1.620313700147296E9, 2021-05-06 17:08:20.147
39.0, 147.0958709716797, 224.22756958007812, 364.1839904785156, -176.04269409179688, 0.01600000075995922, 0.03200000151991844, 1.055999994277954, 0.0, 0.0, 0.0, 0.0, 0.0, 1.620313700147296E9, 2021-05-06 17:08:20.147
40.0, 139.23086547851562, 228.57333374023438, 365.5340881347656, -182.49403381347656, 0.01600000075995922, 0.03200000151991844, 1.055999994277954, 0.0, 0.0, 0.0, 0.0, 0.0, 1.620313700160919E9, 2021-05-06 17:08:20.160
40.0, 147.1482391357422, 209.20065307617188, 361.1770935058594, -178.8999786376953, 0.01600000075995922, 0.03200000151991844, 1.055999994277954, 0.0, 0.0, 0.0, 0.0, 0.0, 1.620313700160919E9, 2021-05-06 17:08:20.160
41.0, 133.8304443359375, 210.67417907714844, 345.1852722167969, -186.17408752441406, 0.01600000075995922, 0.03200000151991844, 1.055999994277954, 0.0, 0.0, 0.0, 0.0, 0.0, 1.6203137001765828E9, 2021-05-06 17:08:20.176
41.0, 130.913330078125, 217.32745361328125, 351.2177429199219, -182.2509307861328, 0.01600000075995922, 0.03200000151991844, 1.055999994277954, 0.0, 0.0, 0.0, 0.0, 0.0, 1.6203137001765828E9, 2021-05-06 17:08:20.176
42.0, 134.5634765625, 221.807861328125, 355.96368408203125, -176.02774047851562, 0.01600000075995922, 0.03200000151991844, 1.055999994277954, 0.0, 0.0, 0.0, 0.0, 0.0, 1.6203137001772368E9, 2021-05-06 17:08:20.177
42.0, 129.03590393066406, 211.80735778808594, 347.556396484375, -189.64097595214844, 0.01600000075995922, 0.03200000151991844, 1.055999994277954, 0.0, 0.0, 0.0, 0.0, 0.0, 1.6203137001772368E9, 2021-05-06 17:08:20.177
43.0, 128.1495361328125, 219.41432189941406, 342.43646240234375, -186.85848999023438, 0.01600000075995922, 0.03200000151991844, 1.055999994277954, 0.0, 0.0, 0.0, 0.0, 0.0, 1.6203137001909752E9, 2021-05-06 17:08:20.190
43.0, 132.11009216308594, 217.8959197998047, 343.5584411621094, -183.97877502441406, 0.01600000075995922, 0.03200000151991844, 1.055999994277954, 0.0, 0.0, 0.0, 0.0, 0.0, 1.6203137001909752E9, 2021-05-06 17:08:20.190
44.0, 127.93262481689453, 222.07339477539062, 343.8763122558594, -191.33140563964844, 0.01600000075995922, 0.03200000151991844, 1.055999994277954, 0.0, 0.0, 0.0, 0.0, 0.0, 1.6203137002065349E9, 2021-05-06 17:08:20.206
44.0, 123.3475112915039, 215.25555419921875, 337.50726318359375, -191.76898193359375, 0.01600000075995922, 0.03200000151991844, 1.055999994277954, 0.0, 0.0, 0.0, 0.0, 0.0, 1.6203137002065349E9, 2021-05-06 17:08:20.206
45.0, 138.59133911132812, 233.5399169921875, 334.3470458984375, -196.77296447753906, 0.01600000075995922, 0.03200000151991844, 1.055999994277954, 0.0, 0.0, 0.0, 0.0, 0.0, 1.6203137002072997E9, 2021-05-06 17:08:20.207
45.0, 132.67481994628906, 209.7092742919922, 330.0760803222656, -205.66644287109375, 0.01600000075995922, 0.03200000151991844, 1.055999994277954, 0.0, 0.0, 0.0, 0.0, 0.0, 1.6203137002072997E9, 2021-05-06 17:08:20.207
46.0, 137.016845703125, 226.49395751953125, 342.8777770996094, -203.75161743164062, 0.01600000075995922, 0.03200000151991844, 1.055999994277954, 0.0, 0.0, 0.0, 0.0, 0.0, 1.6203137002209928E9, 2021-05-06 17:08:20.220
46.0, 140.40145874023438, 215.65945434570312, 346.97296142578125, -205.8983154296875, 0.01600000075995922, 0.03200000151991844, 1.055999994277954, 0.0, 0.0, 0.0, 0.0, 0.0, 1.6203137002209928E9, 2021-05-06 17:08:20.220
47.0, 141.56082153320312, 217.10679626464844, 344.317626953125, -194.506591796875, 0.01600000075995922, 0.03200000151991844, 1.055999994277954, 0.0, 0.0, 0.0, 0.0, 0.0, 1.620313700236566E9, 2021-05-06 17:08:20.236
47.0, 134.7729034423828, 214.89651489257812, 342.6496276855469, -208.16470336914062, 0.01600000075995922, 0.03200000151991844, 1.055999994277954, 0.0, 0.0, 0.0, 0.0, 0.0, 1.620313700236566E9, 2021-05-06 17:08:20.236
48.0, 139.9713592529297, 232.313232421875, 361.3641052246094, -189.82049560546875, 0.01600000075995922, 0.03200000151991844, 1.055999994277954, 0.0, 0.0, 0.0, 0.0, 0.0, 1.6203137002372797E9, 2021-05-06 17:08:20.237
48.0, 136.53439331054688, 223.69650268554688, 354.3106384277344, -192.01580810546875, 0.01600000075995922, 0.03200000151991844, 1.055999994277954, 0.0, 0.0, 0.0, 0.0, 0.0, 1.6203137002372797E9, 2021-05-06 17:08:20.237
49.0, 138.81199645996094, 227.55233764648438, 353.04656982421875, -184.40138244628906, 0.01600000075995922, 0.03200000151991844, 1.055999994277954, 0.0, 0.0, 0.0, 0.0, 0.0, 1.6203137002511632E9, 2021-05-06 17:08:20.251
49.0, 144.28721618652344, 235.42483520507812, 362.3589172363281, -177.95753479003906, 0.01600000075995922, 0.03200000151991844, 1.055999994277954, 0.0, 0.0, 0.0, 0.0, 0.0, 1.6203137002511632E9, 2021-05-06 17:08:20.251
50.0, 127.4801025390625, 227.66453552246094, 356.18060302734375, -186.80987548828125, 0.01600000075995922, 0.03200000151991844, 1.055999994277954, 0.0, 0.0, 0.0, 0.0, 0.0, 1.620313700266572E9, 2021-05-06 17:08:20.266
50.0, 128.4599609375, 230.08799743652344, 351.5693054199219, -186.76126098632812, 0.01600000075995922, 0.03200000151991844, 1.055999994277954, 0.0, 0.0, 0.0, 0.0, 0.0, 1.620313700266572E9, 2021-05-06 17:08:20.266
51.0, 133.2395477294922, 222.58201599121094, 357.1268005371094, -178.5521697998047, 0.01600000075995922, 0.03200000151991844, 1.055999994277954, 0.0, 0.0, 0.0, 0.0, 0.0, 1.620313700267287E9, 2021-05-06 17:08:20.267
51.0, 144.15257263183594, 223.7152099609375, 352.287353515625, -180.6427764892578, 0.01600000075995922, 0.03200000151991844, 1.055999994277954, 0.0, 0.0, 0.0, 0.0, 0.0, 1.620313700267287E9, 2021-05-06 17:08:20.267
52.0, 112.95433044433594, 213.52772521972656, 347.3058166503906, -188.0664825439453, 0.01600000075995922, 0.03200000151991844, 1.055999994277954, 0.0, 0.0, 0.0, 0.0, 0.0, 1.6203137002808995E9, 2021-05-06 17:08:20.280
52.0, 130.59544372558594, 226.35931396484375, 350.0060119628906, -179.60308837890625, 0.01600000075995922, 0.03200000151991844, 1.055999994277954, 0.0, 0.0, 0.0, 0.0, 0.0, 1.6203137002808995E9, 2021-05-06 17:08:20.280
53.0, 128.19442749023438, 219.40684509277344, 351.1728515625, -181.38328552246094, 0.01600000075995922, 0.03200000151991844, 1.055999994277954, 0.0, 0.0, 0.0, 0.0, 0.0, 1.620313700312284E9, 2021-05-06 17:08:20.312
53.0, 141.1681365966797, 226.27330017089844, 349.9611511230469, -178.3539581298828, 0.01600000075995922, 0.03200000151991844, 1.055999994277954, 0.0, 0.0, 0.0, 0.0, 0.0, 1.620313700312284E9, 2021-05-06 17:08:20.312
54.0, 136.77749633789062, 218.89447021484375, 352.134033203125, -193.3659210205078, 0.01600000075995922, 0.03200000151991844, 1.055999994277954, 0.0, 0.0, 0.0, 0.0, 0.0, 1.6203137003129578E9, 2021-05-06 17:08:20.312
54.0, 132.16993713378906, 231.8532257080078, 350.06585693359375, -192.14297485351562, 0.01600000075995922, 0.03200000151991844, 1.055999994277954, 0.0, 0.0, 0.0, 0.0, 0.0, 1.6203137003129578E9, 2021-05-06 17:08:20.312
55.0, 137.1776580810547, 233.50625610351562, 348.0949401855469, -203.63194274902344, 0.01600000075995922, 0.03200000151991844, 1.055999994277954, 0.0, 0.0, 0.0, 0.0, 0.0, 1.620313700313748E9, 2021-05-06 17:08:20.313
55.0, 147.68304443359375, 238.38308715820312, 355.8514709472656, -196.97866821289062, 0.01600000075995922, 0.03200000151991844, 1.055999994277954, 0.0, 0.0, 0.0, 0.0, 0.0, 1.620313700313748E9, 2021-05-06 17:08:20.313
56.0, 134.5223388671875, 219.28341674804688, 346.56158447265625, -204.4098358154297, 0.01600000075995922, 0.03200000151991844, 1.055999994277954, 0.0, 0.0, 0.0, 0.0, 0.0, 1.620313700326646E9, 2021-05-06 17:08:20.326
56.0, 143.8047637939453, 230.55174255371094, 354.9052734375, -197.73411560058594, 0.01600000075995922, 0.03200000151991844, 1.055999994277954, 0.0, 0.0, 0.0, 0.0, 0.0, 1.620313700326646E9, 2021-05-06 17:08:20.326
57.0, 136.4147186279297, 231.24362182617188, 349.7741394042969, -199.0804901123047, 0.01600000075995922, 0.03200000151991844, 1.055999994277954, 0.0, 0.0, 0.0, 0.0, 0.0, 1.620313700327366E9, 2021-05-06 17:08:20.327
57.0, 129.0919952392578, 222.15940856933594, 346.4942626953125, -190.03366088867188, 0.01600000075995922, 0.03200000151991844, 1.055999994277954, 0.0, 0.0, 0.0, 0.0, 0.0, 1.620313700327366E9, 2021-05-06 17:08:20.327
58.0, 134.4662322998047, 225.17750549316406, 353.66363525390625, -181.7423095703125, 0.01600000075995922, 0.03200000151991844, 1.055999994277954, 0.0, 0.0, 0.0, 0.0, 0.0, 1.620313700340984E9, 2021-05-06 17:08:20.340
58.0, 129.6492462158203, 219.5601806640625, 343.1358337402344, -190.92750549316406, 0.01600000075995922, 0.03200000151991844, 1.055999994277954, 0.0, 0.0, 0.0, 0.0, 0.0, 1.620313700340984E9, 2021-05-06 17:08:20.340
59.0, 137.24124145507812, 225.3083953857422, 351.11676025390625, -179.61056518554688, 0.01600000075995922, 0.03200000151991844, 1.055999994277954, 0.0, 0.0, 0.0, 0.0, 0.0, 1.6203137003566127E9, 2021-05-06 17:08:20.356
59.0, 132.3157958984375, 215.4014129638672, 350.185546875, -183.5673828125, 0.01600000075995922, 0.03200000151991844, 1.055999994277954, 0.0, 0.0, 0.0, 0.0, 0.0, 1.6203137003566127E9, 2021-05-06 17:08:20.356
60.0, 134.24183654785156, 211.94573974609375, 357.64288330078125, -183.32054138183594, 0.01600000075995922, 0.03200000151991844, 1.055999994277954, 0.0, 0.0, 0.0, 0.0, 0.0, 1.6203137003573124E9, 2021-05-06 17:08:20.357
60.0, 132.65237426757812, 214.07000732421875, 354.2956848144531, -177.43768310546875, 0.01600000075995922, 0.03200000151991844, 1.055999994277954, 0.0, 0.0, 0.0, 0.0, 0.0, 1.6203137003573124E9, 2021-05-06 17:08:20.357
61.0, 134.80282592773438, 214.29066467285156, 344.8561706542969, -187.45314025878906, 0.01600000075995922, 0.03200000151991844, 1.055999994277954, 0.0, 0.0, 0.0, 0.0, 0.0, 1.620313700371021E9, 2021-05-06 17:08:20.371
61.0, 150.47674560546875, 217.2751007080078, 354.3480529785156, -178.1482696533203, 0.01600000075995922, 0.03200000151991844, 1.055999994277954, 0.0, 0.0, 0.0, 0.0, 0.0, 1.620313700371021E9, 2021-05-06 17:08:20.371
62.0, 133.81922912597656, 218.24746704101562, 358.2076110839844, -176.89540100097656, 0.01600000075995922, 0.03200000151991844, 1.055999994277954, 0.0, 0.0, 0.0, 0.0, 0.0, 1.6203137003866248E9, 2021-05-06 17:08:20.386
62.0, 146.74806213378906, 225.6898651123047, 353.8992614746094, -179.90602111816406, 0.01600000075995922, 0.03200000151991844, 1.055999994277954, 0.0, 0.0, 0.0, 0.0, 0.0, 1.6203137003866248E9, 2021-05-06 17:08:20.386
63.0, 133.42654418945312, 232.0701446533203, 352.9605407714844, -180.67269897460938, 0.01600000075995922, 0.03200000151991844, 1.055999994277954, 0.0, 0.0, 0.0, 0.0, 0.0, 1.620313700387318E9, 2021-05-06 17:08:20.387
63.0, 133.95013427734375, 212.3159942626953, 353.1737060546875, -179.24404907226562, 0.01600000075995922, 0.03200000151991844, 1.055999994277954, 0.0, 0.0, 0.0, 0.0, 0.0, 1.620313700387318E9, 2021-05-06 17:08:20.387
64.0, 137.92564392089844, 223.2926025390625, 357.029541015625, -195.84547424316406, 0.01600000075995922, 0.03200000151991844, 1.055999994277954, 0.0, 0.0, 0.0, 0.0, 0.0, 1.6203137004010208E9, 2021-05-06 17:08:20.401
64.0, 138.73719787597656, 234.40383911132812, 350.2154541015625, -202.71566772460938, 0.01600000075995922, 0.03200000151991844, 1.055999994277954, 0.0, 0.0, 0.0, 0.0, 0.0, 1.6203137004010208E9, 2021-05-06 17:08:20.401
65.0, 152.7393798828125, 241.57322692871094, 352.4593811035156, -203.55714416503906, 0.01600000075995922, 0.03200000151991844, 1.055999994277954, 0.0, 0.0, 0.0, 0.0, 0.0, 1.6203137004172509E9, 2021-05-06 17:08:20.417
65.0, 130.6926727294922, 225.2448272705078, 347.29833984375, -206.27978515625, 0.01600000075995922, 0.03200000151991844, 1.055999994277954, 0.0, 0.0, 0.0, 0.0, 0.0, 1.6203137004172509E9, 2021-05-06 17:08:20.417
66.0, 141.3813018798828, 239.7332000732422, 363.91845703125, -201.91159057617188, 0.01600000075995922, 0.03200000151991844, 1.055999994277954, 0.0, 0.0, 0.0, 0.0, 0.0, 1.6203137004180217E9, 2021-05-06 17:08:20.418
66.0, 141.56829833984375, 241.59193420410156, 366.8580017089844, -193.07420349121094, 0.01600000075995922, 0.03200000151991844, 1.055999994277954, 0.0, 0.0, 0.0, 0.0, 0.0, 1.6203137004180217E9, 2021-05-06 17:08:20.418
67.0, 141.95726013183594, 235.55946350097656, 357.48956298828125, -191.20425415039062, 0.01600000075995922, 0.03200000151991844, 1.055999994277954, 0.0, 0.0, 0.0, 0.0, 0.0, 1.6203137004472227E9, 2021-05-06 17:08:20.447
67.0, 140.92129516601562, 233.52496337890625, 358.1328125, -184.7566680908203, 0.01600000075995922, 0.03200000151991844, 1.055999994277954, 0.0, 0.0, 0.0, 0.0, 0.0, 1.6203137004472227E9, 2021-05-06 17:08:20.447
68.0, 125.34461975097656, 216.20175170898438, 351.1317138671875, -185.9796142578125, 0.01600000075995922, 0.03200000151991844, 1.055999994277954, 0.0, 0.0, 0.0, 0.0, 0.0, 1.6203137004479337E9, 2021-05-06 17:08:20.447
68.0, 140.30421447753906, 230.1216583251953, 350.9709167480469, -178.67184448242188, 0.01600000075995922, 0.03200000151991844, 1.055999994277954, 0.0, 0.0, 0.0, 0.0, 0.0, 1.6203137004479337E9, 2021-05-06 17:08:20.447
69.0, 133.17970275878906, 216.5458221435547, 339.3659973144531, -175.27975463867188, 0.01600000075995922, 0.03200000151991844, 1.055999994277954, 0.0, 0.0, 0.0, 0.0, 0.0, 1.6203137004486864E9, 2021-05-06 17:08:20.448
69.0, 128.50857543945312, 225.540283203125, 337.14825439453125, -180.18650817871094, 0.01600000075995922, 0.03200000151991844, 1.055999994277954, 0.0, 0.0, 0.0, 0.0, 0.0, 1.6203137004486864E9, 2021-05-06 17:08:20.448
70.0, 143.8870391845703, 214.05503845214844, 347.2534484863281, -180.19398498535156, 0.01600000075995922, 0.03200000151991844, 1.055999994277954, 0.0, 0.0, 0.0, 0.0, 0.0, 1.6203137004609668E9, 2021-05-06 17:08:20.460
70.0, 140.4874725341797, 212.3982696533203, 337.9560546875, -180.093017578125, 0.01600000075995922, 0.03200000151991844, 1.055999994277954, 0.0, 0.0, 0.0, 0.0, 0.0, 1.6203137004609668E9, 2021-05-06 17:08:20.460
71.0, 141.75155639648438, 222.79144287109375, 340.16259765625, -181.9105987548828, 0.01600000075995922, 0.03200000151991844, 1.055999994277954, 0.0, 0.0, 0.0, 0.0, 0.0, 1.620313700476564E9, 2021-05-06 17:08:20.476
71.0, 126.40674591064453, 225.2373504638672, 344.657958984375, -175.83700561523438, 0.01600000075995922, 0.03200000151991844, 1.055999994277954, 0.0, 0.0, 0.0, 0.0, 0.0, 1.620313700476564E9, 2021-05-06 17:08:20.476
72.0, 151.49026489257812, 215.3602752685547, 354.6060791015625, -171.0611572265625, 0.01600000075995922, 0.03200000151991844, 1.055999994277954, 0.0, 0.0, 0.0, 0.0, 0.0, 1.620313700477268E9, 2021-05-06 17:08:20.477
72.0, 135.76397705078125, 222.5670623779297, 346.4344177246094, -176.92906188964844, 0.01600000075995922, 0.03200000151991844, 1.055999994277954, 0.0, 0.0, 0.0, 0.0, 0.0, 1.620313700477268E9, 2021-05-06 17:08:20.477
73.0, 128.38140869140625, 237.01803588867188, 339.6053466796875, -184.46121215820312, 0.01600000075995922, 0.03200000151991844, 1.055999994277954, 0.0, 0.0, 0.0, 0.0, 0.0, 1.620313700491018E9, 2021-05-06 17:08:20.491
73.0, 133.81922912597656, 210.5245819091797, 344.9758605957031, -182.82313537597656, 0.01600000075995922, 0.03200000151991844, 1.055999994277954, 0.0, 0.0, 0.0, 0.0, 0.0, 1.620313700491018E9, 2021-05-06 17:08:20.491
74.0, 135.98463439941406, 221.39273071289062, 352.21630859375, -188.732177734375, 0.01600000075995922, 0.03200000151991844, 1.055999994277954, 0.0, 0.0, 0.0, 0.0, 0.0, 1.6203137005070283E9, 2021-05-06 17:08:20.507
74.0, 140.41641235351562, 224.18643188476562, 348.9401550292969, -188.50030517578125, 0.01600000075995922, 0.03200000151991844, 1.055999994277954, 0.0, 0.0, 0.0, 0.0, 0.0, 1.6203137005070283E9, 2021-05-06 17:08:20.507
75.0, 139.79933166503906, 240.63076782226562, 343.7491760253906, -200.3969268798828, 0.01600000075995922, 0.03200000151991844, 1.055999994277954, 0.0, 0.0, 0.0, 0.0, 0.0, 1.6203137005213459E9, 2021-05-06 17:08:20.521
75.0, 145.8691864013672, 220.75694274902344, 341.2995300292969, -206.8744354248047, 0.01600000075995922, 0.03200000151991844, 1.055999994277954, 0.0, 0.0, 0.0, 0.0, 0.0, 1.6203137005213459E9, 2021-05-06 17:08:20.521
76.0, 157.30953979492188, 230.27499389648438, 359.3669738769531, -202.4613494873047, 0.01600000075995922, 0.03200000151991844, 1.055999994277954, 0.0, 0.0, 0.0, 0.0, 0.0, 1.6203137005372834E9, 2021-05-06 17:08:20.537
76.0, 150.749755859375, 237.59771728515625, 353.74591064453125, -200.06033325195312, 0.01600000075995922, 0.03200000151991844, 1.055999994277954, 0.0, 0.0, 0.0, 0.0, 0.0, 1.6203137005372834E9, 2021-05-06 17:08:20.537
77.0, 149.61282348632812, 243.42822265625, 356.26287841796875, -190.84896850585938, 0.01600000075995922, 0.03200000151991844, 1.055999994277954, 0.0, 0.0, 0.0, 0.0, 0.0, 1.6203137005381632E9, 2021-05-06 17:08:20.538
77.0, 146.172119140625, 253.8139190673828, 359.3819580078125, -178.98226928710938, 0.01600000075995922, 0.03200000151991844, 1.055999994277954, 0.0, 0.0, 0.0, 0.0, 0.0, 1.6203137005381632E9, 2021-05-06 17:08:20.538
78.0, 141.8151397705078, 239.01513671875, 365.3022155761719, -180.2949676513672, 0.01600000075995922, 0.03200000151991844, 1.055999994277954, 0.0, 0.0, 0.0, 0.0, 0.0, 1.6203137005387611E9, 2021-05-06 17:08:20.538
78.0, 148.43849182128906, 236.6066436767578, 362.4598693847656, -174.12786865234375, 0.01600000075995922, 0.03200000151991844, 1.055999994277954, 0.0, 0.0, 0.0, 0.0, 0.0, 1.6203137005387611E9, 2021-05-06 17:08:20.538
79.0, 143.70004272460938, 238.8879852294922, 351.0793762207031, -173.5594024658203, 0.01600000075995922, 0.03200000151991844, 1.055999994277954, 0.0, 0.0, 0.0, 0.0, 0.0, 1.6203137005511034E9, 2021-05-06 17:08:20.551
79.0, 138.23231506347656, 224.3996124267578, 347.42547607421875, -169.77088928222656, 0.01600000075995922, 0.03200000151991844, 1.055999994277954, 0.0, 0.0, 0.0, 0.0, 0.0, 1.6203137005511034E9, 2021-05-06 17:08:20.551
80.0, 145.78317260742188, 231.87193298339844, 354.20965576171875, -165.79537963867188, 0.01600000075995922, 0.03200000151991844, 1.055999994277954, 0.0, 0.0, 0.0, 0.0, 0.0, 1.6203137005667129E9, 2021-05-06 17:08:20.566
80.0, 150.3682861328125, 223.81617736816406, 350.9035949707031, -172.29905700683594, 0.01600000075995922, 0.03200000151991844, 1.055999994277954, 0.0, 0.0, 0.0, 0.0, 0.0, 1.6203137005667129E9, 2021-05-06 17:08:20.566
81.0, 132.5775909423828, 229.3923797607422, 347.6349182128906, -166.8088836669922, 0.01600000075995922, 0.03200000151991844, 1.055999994277954, 0.0, 0.0, 0.0, 0.0, 0.0, 1.6203137005674236E9, 2021-05-06 17:08:20.567
81.0, 146.70318603515625, 239.24700927734375, 357.874755859375, -162.39581298828125, 0.01600000075995922, 0.03200000151991844, 1.055999994277954, 0.0, 0.0, 0.0, 0.0, 0.0, 1.6203137005674236E9, 2021-05-06 17:08:20.567
82.0, 149.6876220703125, 216.00352478027344, 356.38629150390625, -172.09336853027344, 0.01600000075995922, 0.03200000151991844, 1.055999994277954, 0.0, 0.0, 0.0, 0.0, 0.0, 1.6203137005808797E9, 2021-05-06 17:08:20.580
82.0, 136.60919189453125, 220.8728790283203, 356.1095275878906, -166.27407836914062, 0.01600000075995922, 0.03200000151991844, 1.055999994277954, 0.0, 0.0, 0.0, 0.0, 0.0, 1.6203137005808797E9, 2021-05-06 17:08:20.580
83.0, 148.43101501464844, 233.17715454101562, 353.9852600097656, -163.45045471191406, 0.01600000075995922, 0.03200000151991844, 1.055999994277954, 0.0, 0.0, 0.0, 0.0, 0.0, 1.6203137005963633E9, 2021-05-06 17:08:20.596
83.0, 145.0838165283203, 227.00257873535156, 342.55987548828125, -176.0988006591797, 0.01600000075995922, 0.03200000151991844, 1.055999994277954, 0.0, 0.0, 0.0, 0.0, 0.0, 1.6203137005963633E9, 2021-05-06 17:08:20.596
84.0, 148.14305114746094, 226.1723175048828, 350.5782165527344, -178.2118377685547, 0.01600000075995922, 0.03200000151991844, 1.055999994277954, 0.0, 0.0, 0.0, 0.0, 0.0, 1.620313700611534E9, 2021-05-06 17:08:20.611
84.0, 136.58302307128906, 225.07652282714844, 342.27191162109375, -182.81939697265625, 0.01600000075995922, 0.03200000151991844, 1.055999994277954, 0.0, 0.0, 0.0, 0.0, 0.0, 1.620313700611534E9, 2021-05-06 17:08:20.611
85.0, 138.34825134277344, 221.17581176757812, 341.0078125, -188.55267333984375, 0.01600000075995922, 0.03200000151991844, 1.055999994277954, 0.0, 0.0, 0.0, 0.0, 0.0, 1.6203137006122687E9, 2021-05-06 17:08:20.612
85.0, 147.8775177001953, 235.14808654785156, 350.9148254394531, -177.02255249023438, 0.01600000075995922, 0.03200000151991844, 1.055999994277954, 0.0, 0.0, 0.0, 0.0, 0.0, 1.6203137006122687E9, 2021-05-06 17:08:20.612
86.0, 152.2906036376953, 234.62449645996094, 353.6823425292969, -192.0008544921875, 0.01600000075995922, 0.03200000151991844, 1.055999994277954, 0.0, 0.0, 0.0, 0.0, 0.0, 1.6203137006266627E9, 2021-05-06 17:08:20.626
86.0, 148.76760864257812, 228.00860595703125, 352.10784912109375, -192.57679748535156, 0.01600000075995922, 0.03200000151991844, 1.055999994277954, 0.0, 0.0, 0.0, 0.0, 0.0, 1.6203137006266627E9, 2021-05-06 17:08:20.626
87.0, 155.1067352294922, 237.21624755859375, 356.019775390625, -180.3361053466797, 0.01600000075995922, 0.03200000151991844, 1.055999994277954, 0.0, 0.0, 0.0, 0.0, 0.0, 1.6203137006273165E9, 2021-05-06 17:08:20.627
87.0, 129.36874389648438, 237.47430419921875, 356.4909973144531, -182.22100830078125, 0.01600000075995922, 0.03200000151991844, 1.055999994277954, 0.0, 0.0, 0.0, 0.0, 0.0, 1.6203137006273165E9, 2021-05-06 17:08:20.627
88.0, 136.6727752685547, 237.62014770507812, 359.6250305175781, -172.60198974609375, 0.01600000075995922, 0.03200000151991844, 1.055999994277954, 0.0, 0.0, 0.0, 0.0, 0.0, 1.620313700640973E9, 2021-05-06 17:08:20.640
88.0, 142.08815002441406, 221.23191833496094, 353.5028381347656, -173.7277069091797, 0.01600000075995922, 0.03200000151991844, 1.055999994277954, 0.0, 0.0, 0.0, 0.0, 0.0, 1.620313700640973E9, 2021-05-06 17:08:20.640
89.0, 143.31109619140625, 231.06036376953125, 359.4642333984375, -171.1471710205078, 0.01600000075995922, 0.03200000151991844, 1.055999994277954, 0.0, 0.0, 0.0, 0.0, 0.0, 1.6203137006564004E9, 2021-05-06 17:08:20.656
89.0, 147.60824584960938, 242.76998901367188, 363.51080322265625, -174.85714721679688, 0.01600000075995922, 0.03200000151991844, 1.055999994277954, 0.0, 0.0, 0.0, 0.0, 0.0, 1.6203137006564004E9, 2021-05-06 17:08:20.656
90.0, 135.3675537109375, 232.11875915527344, 358.0916748046875, -177.22825622558594, 0.01600000075995922, 0.03200000151991844, 1.055999994277954, 0.0, 0.0, 0.0, 0.0, 0.0, 1.6203137006721864E9, 2021-05-06 17:08:20.672
90.0, 143.01937866210938, 235.80630493164062, 359.9691162109375, -172.47857666015625, 0.01600000075995922, 0.03200000151991844, 1.055999994277954, 0.0, 0.0, 0.0, 0.0, 0.0, 1.6203137006721864E9, 2021-05-06 17:08:20.672
91.0, 136.4969940185547, 244.29212951660156, 356.9772033691406, -172.41873168945312, 0.01600000075995922, 0.03200000151991844, 1.055999994277954, 0.0, 0.0, 0.0, 0.0, 0.0, 1.6203137006873672E9, 2021-05-06 17:08:20.687
91.0, 142.58555603027344, 223.39730834960938, 360.1261901855469, -181.7797088623047, 0.01600000075995922, 0.03200000151991844, 1.055999994277954, 0.0, 0.0, 0.0, 0.0, 0.0, 1.6203137006873672E9, 2021-05-06 17:08:20.687
92.0, 152.69076538085938, 231.41566467285156, 361.289306640625, -181.67498779296875, 0.01600000075995922, 0.03200000151991844, 1.055999994277954, 0.0, 0.0, 0.0, 0.0, 0.0, 1.6203137006880853E9, 2021-05-06 17:08:20.688
92.0, 132.2222900390625, 219.54147338867188, 344.2877197265625, -192.26638793945312, 0.01600000075995922, 0.03200000151991844, 1.055999994277954, 0.0, 0.0, 0.0, 0.0, 0.0, 1.6203137006880853E9, 2021-05-06 17:08:20.688
93.0, 135.94723510742188, 226.50143432617188, 343.0310974121094, -191.25286865234375, 0.01600000075995922, 0.03200000151991844, 1.055999994277954, 0.0, 0.0, 0.0, 0.0, 0.0, 1.6203137006887567E9, 2021-05-06 17:08:20.688
93.0, 147.4848175048828, 226.56500244140625, 352.627685546875, -184.30787658691406, 0.01600000075995922, 0.03200000151991844, 1.055999994277954, 0.0, 0.0, 0.0, 0.0, 0.0, 1.6203137006887567E9, 2021-05-06 17:08:20.688
94.0, 135.6966552734375, 235.9671173095703, 351.9694519042969, -186.68646240234375, 0.01600000075995922, 0.03200000151991844, 1.055999994277954, 0.0, 0.0, 0.0, 0.0, 0.0, 1.6203137007010252E9, 2021-05-06 17:08:20.701
94.0, 141.16065979003906, 222.48477172851562, 345.02447509765625, -191.6231231689453, 0.01600000075995922, 0.03200000151991844, 1.055999994277954, 0.0, 0.0, 0.0, 0.0, 0.0, 1.6203137007010252E9, 2021-05-06 17:08:20.701
95.0, 146.78919982910156, 221.48622131347656, 345.2974853515625, -191.20799255371094, 0.01600000075995922, 0.03200000151991844, 1.055999994277954, 0.0, 0.0, 0.0, 0.0, 0.0, 1.6203137007165573E9, 2021-05-06 17:08:20.716
95.0, 152.80296325683594, 233.7530975341797, 345.9444885253906, -184.6669158935547, 0.01600000075995922, 0.03200000151991844, 1.055999994277954, 0.0, 0.0, 0.0, 0.0, 0.0, 1.6203137007165573E9, 2021-05-06 17:08:20.716
96.0, 143.01190185546875, 223.7451171875, 344.0820007324219, -185.53456115722656, 0.01600000075995922, 0.03200000151991844, 1.055999994277954, 0.0, 0.0, 0.0, 0.0, 0.0, 1.6203137007172525E9, 2021-05-06 17:08:20.717
96.0, 146.5984649658203, 224.40708923339844, 347.7508544921875, -198.07444763183594, 0.01600000075995922, 0.03200000151991844, 1.055999994277954, 0.0, 0.0, 0.0, 0.0, 0.0, 1.6203137007172525E9, 2021-05-06 17:08:20.717
97.0, 156.92807006835938, 230.3236083984375, 346.019287109375, -193.33226013183594, 0.01600000075995922, 0.03200000151991844, 1.055999994277954, 0.0, 0.0, 0.0, 0.0, 0.0, 1.6203137007309475E9, 2021-05-06 17:08:20.730
97.0, 138.29588317871094, 238.83187866210938, 351.2962951660156, -183.4364776611328, 0.01600000075995922, 0.03200000151991844, 1.055999994277954, 0.0, 0.0, 0.0, 0.0, 0.0, 1.6203137007309475E9, 2021-05-06 17:08:20.730
98.0, 153.62574768066406, 227.95999145507812, 362.5496520996094, -180.14910888671875, 0.01600000075995922, 0.03200000151991844, 1.055999994277954, 0.0, 0.0, 0.0, 0.0, 0.0, 1.6203137007465096E9, 2021-05-06 17:08:20.746
98.0, 155.52186584472656, 226.74452209472656, 354.75567626953125, -186.34613037109375, 0.01600000075995922, 0.03200000151991844, 1.055999994277954, 0.0, 0.0, 0.0, 0.0, 0.0, 1.6203137007465096E9, 2021-05-06 17:08:20.746
99.0, 135.1880340576172, 223.72268676757812, 346.8869323730469, -183.1709442138672, 0.01600000075995922, 0.03200000151991844, 1.055999994277954, 0.0, 0.0, 0.0, 0.0, 0.0, 1.6203137007472613E9, 2021-05-06 17:08:20.747
99.0, 148.31507873535156, 248.9782257080078, 358.6938171386719, -175.679931640625, 0.01600000075995922, 0.03200000151991844, 1.055999994277954, 0.0, 0.0, 0.0, 0.0, 0.0, 1.6203137007472613E9, 2021-05-06 17:08:20.747
100.0, 139.8629150390625, 213.8418731689453, 352.3397216796875, -192.2551727294922, 0.01600000075995922, 0.03200000151991844, 1.055999994277954, 0.0, 0.0, 0.0, 0.0, 0.0, 1.620313700761717E9, 2021-05-06 17:08:20.761
100.0, 129.387451171875, 207.23345947265625, 338.5731506347656, -191.103271484375, 0.01600000075995922, 0.03200000151991844, 1.055999994277954, 0.0, 0.0, 0.0, 0.0, 0.0, 1.620313700761717E9, 2021-05-06 17:08:20.761
0.0, 144.93795776367188, 219.1824493408203, 345.03009033203125, -180.69888305664062, 0.01600000075995922, 0.03200000151991844, 1.055999994277954, 0.0, 0.0, 0.0, 0.0, 0.0, 1.6203137007623584E9, 2021-05-06 17:08:20.762
1.0, 137.70498657226562, 219.6798553466797, 335.14178466796875, -200.4305877685547, 0.01600000075995922, 0.03200000151991844, 1.055999994277954, 0.0, 0.0, 0.0, 0.0, 0.0, 1.6203137007923164E9, 2021-05-06 17:08:20.792
1.0, 145.33811950683594, 227.70567321777344, 343.54534912109375, -196.64207458496094, 0.01600000075995922, 0.03200000151991844, 1.055999994277954, 0.0, 0.0, 0.0, 0.0, 0.0, 1.6203137007923164E9, 2021-05-06 17:08:20.792
2.0, 130.1466522216797, 200.5166015625, 328.82135009765625, -209.94114685058594, 0.01600000075995922, 0.03200000151991844, 1.055999994277954, 0.0, 0.0, 0.0, 0.0, 0.0, 1.620313700792963E9, 2021-05-06 17:08:20.792
2.0, 129.44354248046875, 213.5763397216797, 328.1444396972656, -199.18893432617188, 0.01600000075995922, 0.03200000151991844, 1.055999994277954, 0.0, 0.0, 0.0, 0.0, 0.0, 1.620313700792963E9, 2021-05-06 17:08:20.792
3.0, 130.67398071289062, 215.0087127685547, 331.3944091796875, -200.34083557128906, 0.01600000075995922, 0.03200000151991844, 1.055999994277954, 0.0, 0.0, 0.0, 0.0, 0.0, 1.6203137007937777E9, 2021-05-06 17:08:20.793
3.0, 120.84552001953125, 218.21755981445312, 334.88372802734375, -202.35289001464844, 0.01600000075995922, 0.03200000151991844, 1.055999994277954, 0.0, 0.0, 0.0, 0.0, 0.0, 1.6203137007937777E9, 2021-05-06 17:08:20.793
4.0, 128.56092834472656, 200.42311096191406, 333.1708679199219, -206.2760467529297, 0.01600000075995922, 0.03200000151991844, 1.055999994277954, 0.0, 0.0, 0.0, 0.0, 0.0, 1.6203137008059652E9, 2021-05-06 17:08:20.805
4.0, 126.57130432128906, 215.89134216308594, 333.1259765625, -200.90554809570312, 0.01600000075995922, 0.03200000151991844, 1.055999994277954, 0.0, 0.0, 0.0, 0.0, 0.0, 1.6203137008059652E9, 2021-05-06 17:08:20.805
5.0, 115.11225128173828, 199.98179626464844, 329.0606994628906, -202.0387420654297, 0.01600000075995922, 0.03200000151991844, 1.055999994277954, 0.0, 0.0, 0.0, 0.0, 0.0, 1.6203137008216417E9, 2021-05-06 17:08:20.821
5.0, 122.40879821777344, 203.86007690429688, 333.2606201171875, -199.5853729248047, 0.01600000075995922, 0.03200000151991844, 1.055999994277954, 0.0, 0.0, 0.0, 0.0, 0.0, 1.6203137008216417E9, 2021-05-06 17:08:20.821
6.0, 123.94963073730469, 208.35543823242188, 328.8662414550781, -203.98348999023438, 0.01600000075995922, 0.03200000151991844, 1.055999994277954, 0.0, 0.0, 0.0, 0.0, 0.0, 1.620313700822358E9, 2021-05-06 17:08:20.822
6.0, 125.14640045166016, 200.37823486328125, 325.3507385253906, -206.34710693359375, 0.01600000075995922, 0.03200000151991844, 1.055999994277954, 0.0, 0.0, 0.0, 0.0, 0.0, 1.620313700822358E9, 2021-05-06 17:08:20.822
7.0, 119.51411437988281, 206.2872772216797, 328.31646728515625, -200.78587341308594, 0.01600000075995922, 0.03200000151991844, 1.055999994277954, 0.0, 0.0, 0.0, 0.0, 0.0, 1.6203137008360102E9, 2021-05-06 17:08:20.836
7.0, 128.51231384277344, 220.75320434570312, 338.02899169921875, -198.6466522216797, 0.01600000075995922, 0.03200000151991844, 1.055999994277954, 0.0, 0.0, 0.0, 0.0, 0.0, 1.6203137008360102E9, 2021-05-06 17:08:20.836
8.0, 122.2405014038086, 198.07444763183594, 331.4766845703125, -208.54617309570312, 0.01600000075995922, 0.03200000151991844, 1.055999994277954, 0.0, 0.0, 0.0, 0.0, 0.0, 1.6203137008515787E9, 2021-05-06 17:08:20.851
8.0, 126.49650573730469, 209.97854614257812, 332.7744140625, -204.61553955078125, 0.01600000075995922, 0.03200000151991844, 1.055999994277954, 0.0, 0.0, 0.0, 0.0, 0.0, 1.6203137008515787E9, 2021-05-06 17:08:20.851
9.0, 126.26463317871094, 222.5595703125, 335.9832763671875, -202.96249389648438, 0.01600000075995922, 0.03200000151991844, 1.055999994277954, 0.0, 0.0, 0.0, 0.0, 0.0, 1.6203137008522923E9, 2021-05-06 17:08:20.852
9.0, 125.00802612304688, 213.10885620117188, 334.77154541015625, -204.24154663085938, 0.01600000075995922, 0.03200000151991844, 1.055999994277954, 0.0, 0.0, 0.0, 0.0, 0.0, 1.6203137008522923E9, 2021-05-06 17:08:20.852
10.0, 126.32447052001953, 208.82666015625, 333.4251708984375, -206.52288818359375, 0.01600000075995922, 0.03200000151991844, 1.055999994277954, 0.0, 0.0, 0.0, 0.0, 0.0, 1.6203137008659737E9, 2021-05-06 17:08:20.865
10.0, 128.47865295410156, 219.6424560546875, 334.9959411621094, -205.9058074951172, 0.01600000075995922, 0.03200000151991844, 1.055999994277954, 0.0, 0.0, 0.0, 0.0, 0.0, 1.6203137008659737E9, 2021-05-06 17:08:20.865
11.0, 142.10684204101562, 199.69757080078125, 339.1883544921875, -196.38401794433594, 0.01600000075995922, 0.03200000151991844, 1.055999994277954, 0.0, 0.0, 0.0, 0.0, 0.0, 1.620313700882183E9, 2021-05-06 17:08:20.882
11.0, 125.15762329101562, 218.2960968017578, 332.0862731933594, -207.8056640625, 0.01600000075995922, 0.03200000151991844, 1.055999994277954, 0.0, 0.0, 0.0, 0.0, 0.0, 1.620313700882183E9, 2021-05-06 17:08:20.882
12.0, 117.28887176513672, 226.90907287597656, 327.3815002441406, -203.76283264160156, 0.01600000075995922, 0.03200000151991844, 1.055999994277954, 0.0, 0.0, 0.0, 0.0, 0.0, 1.6203137008829138E9, 2021-05-06 17:08:20.882
12.0, 134.72802734375, 204.0059356689453, 328.95599365234375, -196.30174255371094, 0.01600000075995922, 0.03200000151991844, 1.055999994277954, 0.0, 0.0, 0.0, 0.0, 0.0, 1.6203137008829138E9, 2021-05-06 17:08:20.882
13.0, 124.00572967529297, 216.34759521484375, 331.88433837890625, -195.5126190185547, 0.01600000075995922, 0.03200000151991844, 1.055999994277954, 0.0, 0.0, 0.0, 0.0, 0.0, 1.620313700896E9, 2021-05-06 17:08:20.896
13.0, 131.94180297851562, 222.46234130859375, 346.4587097167969, -191.4062042236328, 0.01600000075995922, 0.03200000151991844, 1.055999994277954, 0.0, 0.0, 0.0, 0.0, 0.0, 1.620313700896E9, 2021-05-06 17:08:20.896
14.0, 140.56600952148438, 239.06748962402344, 347.37872314453125, -187.03427124023438, 0.01600000075995922, 0.03200000151991844, 1.055999994277954, 0.0, 0.0, 0.0, 0.0, 0.0, 1.6203137009115555E9, 2021-05-06 17:08:20.911
14.0, 122.23301696777344, 213.63990783691406, 330.7922668457031, -195.92027282714844, 0.01600000075995922, 0.03200000151991844, 1.055999994277954, 0.0, 0.0, 0.0, 0.0, 0.0, 1.6203137009115555E9, 2021-05-06 17:08:20.911
15.0, 127.37164306640625, 215.88385009765625, 335.9496154785156, -192.3411865234375, 0.01600000075995922, 0.03200000151991844, 1.055999994277954, 0.0, 0.0, 0.0, 0.0, 0.0, 1.6203137009122725E9, 2021-05-06 17:08:20.912
15.0, 127.9849853515625, 215.9474334716797, 343.49298095703125, -198.67657470703125, 0.01600000075995922, 0.03200000151991844, 1.055999994277954, 0.0, 0.0, 0.0, 0.0, 0.0, 1.6203137009122725E9, 2021-05-06 17:08:20.912
16.0, 128.38890075683594, 219.53773498535156, 335.4895935058594, -203.4898223876953, 0.01600000075995922, 0.03200000151991844, 1.055999994277954, 0.0, 0.0, 0.0, 0.0, 0.0, 1.6203137009259353E9, 2021-05-06 17:08:20.925
16.0, 139.1448516845703, 215.37149047851562, 336.177734375, -190.14585876464844, 0.01600000075995922, 0.03200000151991844, 1.055999994277954, 0.0, 0.0, 0.0, 0.0, 0.0, 1.6203137009259353E9, 2021-05-06 17:08:20.925
17.0, 138.77833557128906, 212.95176696777344, 342.2176818847656, -195.48269653320312, 0.01600000075995922, 0.03200000151991844, 1.055999994277954, 0.0, 0.0, 0.0, 0.0, 0.0, 1.6203137009417238E9, 2021-05-06 17:08:20.941
17.0, 125.01176452636719, 214.1709747314453, 335.7476501464844, -206.63882446289062, 0.01600000075995922, 0.03200000151991844, 1.055999994277954, 0.0, 0.0, 0.0, 0.0, 0.0, 1.6203137009417238E9, 2021-05-06 17:08:20.941
18.0, 122.47985076904297, 211.17906188964844, 338.08135986328125, -198.38111877441406, 0.01600000075995922, 0.03200000151991844, 1.055999994277954, 0.0, 0.0, 0.0, 0.0, 0.0, 1.6203137009423492E9, 2021-05-06 17:08:20.942
18.0, 124.20768737792969, 217.6116943359375, 331.5103454589844, -198.6578826904297, 0.01600000075995922, 0.03200000151991844, 1.055999994277954, 0.0, 0.0, 0.0, 0.0, 0.0, 1.6203137009423492E9, 2021-05-06 17:08:20.942
19.0, 133.89776611328125, 223.04202270507812, 339.5361633300781, -187.99542236328125, 0.01600000075995922, 0.03200000151991844, 1.055999994277954, 0.0, 0.0, 0.0, 0.0, 0.0, 1.620313700955898E9, 2021-05-06 17:08:20.955
19.0, 136.15292358398438, 218.60276794433594, 348.8971252441406, -189.65968322753906, 0.01600000075995922, 0.03200000151991844, 1.055999994277954, 0.0, 0.0, 0.0, 0.0, 0.0, 1.620313700955898E9, 2021-05-06 17:08:20.955
20.0, 123.62052154541016, 228.00860595703125, 336.4769287109375, -199.67138671875, 0.01600000075995922, 0.03200000151991844, 1.055999994277954, 0.0, 0.0, 0.0, 0.0, 0.0, 1.6203137009716215E9, 2021-05-06 17:08:20.971
20.0, 134.15208435058594, 219.53399658203125, 338.5076904296875, -199.61529541015625, 0.01600000075995922, 0.03200000151991844, 1.055999994277954, 0.0, 0.0, 0.0, 0.0, 0.0, 1.6203137009716215E9, 2021-05-06 17:08:20.971
21.0, 119.5702133178711, 207.71591186523438, 333.6719970703125, -202.66705322265625, 0.01600000075995922, 0.03200000151991844, 1.055999994277954, 0.0, 0.0, 0.0, 0.0, 0.0, 1.6203137009723034E9, 2021-05-06 17:08:20.972
21.0, 129.19297790527344, 217.47705078125, 345.28814697265625, -196.1558837890625, 0.01600000075995922, 0.03200000151991844, 1.055999994277954, 0.0, 0.0, 0.0, 0.0, 0.0, 1.6203137009723034E9, 2021-05-06 17:08:20.972
22.0, 126.36560821533203, 220.52133178710938, 343.5191650390625, -196.4102020263672, 0.01600000075995922, 0.03200000151991844, 1.055999994277954, 0.0, 0.0, 0.0, 0.0, 0.0, 1.6203137009859977E9, 2021-05-06 17:08:20.985
22.0, 126.75830078125, 221.15711975097656, 338.73583984375, -195.4303436279297, 0.01600000075995922, 0.03200000151991844, 1.055999994277954, 0.0, 0.0, 0.0, 0.0, 0.0, 1.6203137009859977E9, 2021-05-06 17:08:20.985
23.0, 131.95301818847656, 220.2408447265625, 334.7827453613281, -194.10267639160156, 0.01600000075995922, 0.03200000151991844, 1.055999994277954, 0.0, 0.0, 0.0, 0.0, 0.0, 1.6203137010015984E9, 2021-05-06 17:08:21.001
23.0, 122.8837661743164, 206.46678161621094, 339.6969909667969, -195.50140380859375, 0.01600000075995922, 0.03200000151991844, 1.055999994277954, 0.0, 0.0, 0.0, 0.0, 0.0, 1.6203137010015984E9, 2021-05-06 17:08:21.001
24.0, 114.95891571044922, 205.4794464111328, 333.14093017578125, -201.89662170410156, 0.01600000075995922, 0.03200000151991844, 1.055999994277954, 0.0, 0.0, 0.0, 0.0, 0.0, 1.6203137010023272E9, 2021-05-06 17:08:21.002
24.0, 119.98534393310547, 211.72882080078125, 332.17230224609375, -196.52239990234375, 0.01600000075995922, 0.03200000151991844, 1.055999994277954, 0.0, 0.0, 0.0, 0.0, 0.0, 1.6203137010023272E9, 2021-05-06 17:08:21.002
25.0, 138.8419189453125, 214.86660766601562, 340.1607360839844, -195.28448486328125, 0.01600000075995922, 0.03200000151991844, 1.055999994277954, 0.0, 0.0, 0.0, 0.0, 0.0, 1.62031370101585E9, 2021-05-06 17:08:21.015
25.0, 117.89847564697266, 205.52059936523438, 341.99700927734375, -201.6759796142578, 0.01600000075995922, 0.03200000151991844, 1.055999994277954, 0.0, 0.0, 0.0, 0.0, 0.0, 1.62031370101585E9, 2021-05-06 17:08:21.015
26.0, 116.68675231933594, 215.3191375732422, 332.7370300292969, -199.30113220214844, 0.01600000075995922, 0.03200000151991844, 1.055999994277954, 0.0, 0.0, 0.0, 0.0, 0.0, 1.620313701031639E9, 2021-05-06 17:08:21.031
26.0, 131.9193572998047, 216.8076171875, 334.0235595703125, -196.4924774169922, 0.01600000075995922, 0.03200000151991844, 1.055999994277954, 0.0, 0.0, 0.0, 0.0, 0.0, 1.620313701031639E9, 2021-05-06 17:08:21.031
27.0, 129.54452514648438, 215.84271240234375, 332.8043518066406, -199.0692596435547, 0.01600000075995922, 0.03200000151991844, 1.055999994277954, 0.0, 0.0, 0.0, 0.0, 0.0, 1.620313701032343E9, 2021-05-06 17:08:21.032
27.0, 129.27525329589844, 210.53579711914062, 340.74041748046875, -191.18556213378906, 0.01600000075995922, 0.03200000151991844, 1.055999994277954, 0.0, 0.0, 0.0, 0.0, 0.0, 1.620313701032343E9, 2021-05-06 17:08:21.032
28.0, 126.08885955810547, 216.11572265625, 337.88311767578125, -197.97348022460938, 0.01600000075995922, 0.03200000151991844, 1.055999994277954, 0.0, 0.0, 0.0, 0.0, 0.0, 1.620313701045889E9, 2021-05-06 17:08:21.045
28.0, 142.8623046875, 224.91571044921875, 339.0350341796875, -188.9042205810547, 0.01600000075995922, 0.03200000151991844, 1.055999994277954, 0.0, 0.0, 0.0, 0.0, 0.0, 1.620313701045889E9, 2021-05-06 17:08:21.045
29.0, 128.77784729003906, 224.53797912597656, 335.8037414550781, -189.22210693359375, 0.01600000075995922, 0.03200000151991844, 1.055999994277954, 0.0, 0.0, 0.0, 0.0, 0.0, 1.620313701061692E9, 2021-05-06 17:08:21.061
29.0, 136.62416076660156, 237.2835693359375, 340.519775390625, -182.7259063720703, 0.01600000075995922, 0.03200000151991844, 1.055999994277954, 0.0, 0.0, 0.0, 0.0, 0.0, 1.620313701061692E9, 2021-05-06 17:08:21.061
30.0, 119.68988800048828, 215.94369506835938, 333.28680419921875, -190.3104248046875, 0.01600000075995922, 0.03200000151991844, 1.055999994277954, 0.0, 0.0, 0.0, 0.0, 0.0, 1.620313701062384E9, 2021-05-06 17:08:21.062
30.0, 140.25933837890625, 223.4608917236328, 344.734619140625, -178.26046752929688, 0.01600000075995922, 0.03200000151991844, 1.055999994277954, 0.0, 0.0, 0.0, 0.0, 0.0, 1.620313701062384E9, 2021-05-06 17:08:21.062
31.0, 146.62091064453125, 223.2439727783203, 347.8873596191406, -182.59873962402344, 0.01600000075995922, 0.03200000151991844, 1.055999994277954, 0.0, 0.0, 0.0, 0.0, 0.0, 1.620313701075924E9, 2021-05-06 17:08:21.075
31.0, 136.3922882080078, 222.12574768066406, 347.18798828125, -183.58233642578125, 0.01600000075995922, 0.03200000151991844, 1.055999994277954, 0.0, 0.0, 0.0, 0.0, 0.0, 1.620313701075924E9, 2021-05-06 17:08:21.075
32.0, 145.22592163085938, 228.25918579101562, 348.4483337402344, -192.4608612060547, 0.01600000075995922, 0.03200000151991844, 1.055999994277954, 0.0, 0.0, 0.0, 0.0, 0.0, 1.6203137010916433E9, 2021-05-06 17:08:21.091
32.0, 136.32496643066406, 219.02537536621094, 345.1908874511719, -185.9422149658203, 0.01600000075995922, 0.03200000151991844, 1.055999994277954, 0.0, 0.0, 0.0, 0.0, 0.0, 1.6203137010916433E9, 2021-05-06 17:08:21.091
33.0, 156.40447998046875, 233.1285400390625, 353.5832214355469, -186.42466735839844, 0.01600000075995922, 0.03200000151991844, 1.055999994277954, 0.0, 0.0, 0.0, 0.0, 0.0, 1.6203137010922625E9, 2021-05-06 17:08:21.092
33.0, 138.82321166992188, 226.12744140625, 355.07171630859375, -186.701416015625, 0.01600000075995922, 0.03200000151991844, 1.055999994277954, 0.0, 0.0, 0.0, 0.0, 0.0, 1.6203137010922625E9, 2021-05-06 17:08:21.092
34.0, 141.27659606933594, 227.0699005126953, 351.8778381347656, -188.57884216308594, 0.01600000075995922, 0.03200000151991844, 1.055999994277954, 0.0, 0.0, 0.0, 0.0, 0.0, 1.6203137011212945E9, 2021-05-06 17:08:21.121
34.0, 152.16717529296875, 234.5609130859375, 357.57745361328125, -178.9373779296875, 0.01600000075995922, 0.03200000151991844, 1.055999994277954, 0.0, 0.0, 0.0, 0.0, 0.0, 1.6203137011212945E9, 2021-05-06 17:08:21.121
35.0, 147.0958709716797, 236.92453002929688, 354.406005859375, -177.1123046875, 0.01600000075995922, 0.03200000151991844, 1.055999994277954, 0.0, 0.0, 0.0, 0.0, 0.0, 1.6203137011387177E9, 2021-05-06 17:08:21.138
35.0, 144.53778076171875, 236.13916015625, 361.5230407714844, -181.84703063964844, 0.01600000075995922, 0.03200000151991844, 1.055999994277954, 0.0, 0.0, 0.0, 0.0, 0.0, 1.6203137011387177E9, 2021-05-06 17:08:21.138
36.0, 152.6945037841797, 234.07472229003906, 362.8880920410156, -179.072021484375, 0.01600000075995922, 0.03200000151991844, 1.055999994277954, 0.0, 0.0, 0.0, 0.0, 0.0, 1.620313701139335E9, 2021-05-06 17:08:21.139
36.0, 143.73370361328125, 233.91017150878906, 356.01416015625, -176.81312561035156, 0.01600000075995922, 0.03200000151991844, 1.055999994277954, 0.0, 0.0, 0.0, 0.0, 0.0, 1.620313701139335E9, 2021-05-06 17:08:21.139
37.0, 149.33607482910156, 238.4317169189453, 354.4396667480469, -179.27023315429688, 0.01600000075995922, 0.03200000151991844, 1.055999994277954, 0.0, 0.0, 0.0, 0.0, 0.0, 1.6203137011401112E9, 2021-05-06 17:08:21.140
37.0, 149.23135375976562, 232.0140380859375, 359.1070556640625, -175.15634155273438, 0.01600000075995922, 0.03200000151991844, 1.055999994277954, 0.0, 0.0, 0.0, 0.0, 0.0, 1.6203137011401112E9, 2021-05-06 17:08:21.140
38.0, 151.69595336914062, 233.65960693359375, 360.0457763671875, -177.62841796875, 0.01600000075995922, 0.03200000151991844, 1.055999994277954, 0.0, 0.0, 0.0, 0.0, 0.0, 1.6203137011409829E9, 2021-05-06 17:08:21.140
38.0, 157.33946228027344, 242.54185485839844, 357.56622314453125, -166.29652404785156, 0.01600000075995922, 0.03200000151991844, 1.055999994277954, 0.0, 0.0, 0.0, 0.0, 0.0, 1.6203137011409829E9, 2021-05-06 17:08:21.140
39.0, 141.19805908203125, 235.8848419189453, 354.8772277832031, -183.8590850830078, 0.01600000075995922, 0.03200000151991844, 1.055999994277954, 0.0, 0.0, 0.0, 0.0, 0.0, 1.6203137011509705E9, 2021-05-06 17:08:21.150
39.0, 156.03050231933594, 240.9224853515625, 364.9749755859375, -172.40377807617188, 0.01600000075995922, 0.03200000151991844, 1.055999994277954, 0.0, 0.0, 0.0, 0.0, 0.0, 1.6203137011509705E9, 2021-05-06 17:08:21.150
40.0, 155.68643188476562, 222.9036407470703, 357.7494812011719, -178.2230682373047, 0.01600000075995922, 0.03200000151991844, 1.055999994277954, 0.0, 0.0, 0.0, 0.0, 0.0, 1.6203137011659567E9, 2021-05-06 17:08:21.165
40.0, 148.91720581054688, 239.6920623779297, 354.0058288574219, -169.0229034423828, 0.01600000075995922, 0.03200000151991844, 1.055999994277954, 0.0, 0.0, 0.0, 0.0, 0.0, 1.6203137011659567E9, 2021-05-06 17:08:21.165
41.0, 159.12713623046875, 235.43231201171875, 357.2296447753906, -168.66761779785156, 0.01600000075995922, 0.03200000151991844, 1.055999994277954, 0.0, 0.0, 0.0, 0.0, 0.0, 1.6203137011815844E9, 2021-05-06 17:08:21.181
41.0, 140.97740173339844, 241.4759979248047, 355.18389892578125, -176.02774047851562, 0.01600000075995922, 0.03200000151991844, 1.055999994277954, 0.0, 0.0, 0.0, 0.0, 0.0, 1.6203137011815844E9, 2021-05-06 17:08:21.181
42.0, 146.2169952392578, 224.94937133789062, 354.3648681640625, -179.8312225341797, 0.01600000075995922, 0.03200000151991844, 1.055999994277954, 0.0, 0.0, 0.0, 0.0, 0.0, 1.620313701182284E9, 2021-05-06 17:08:21.182
42.0, 151.2696075439453, 233.850341796875, 353.9646911621094, -179.54324340820312, 0.01600000075995922, 0.03200000151991844, 1.055999994277954, 0.0, 0.0, 0.0, 0.0, 0.0, 1.620313701182284E9, 2021-05-06 17:08:21.182
43.0, 149.57168579101562, 226.44158935546875, 353.71038818359375, -181.55531311035156, 0.01600000075995922, 0.03200000151991844, 1.055999994277954, 0.0, 0.0, 0.0, 0.0, 0.0, 1.6203137011961088E9, 2021-05-06 17:08:21.196
43.0, 144.82949829101562, 230.04685974121094, 356.47418212890625, -175.69862365722656, 0.01600000075995922, 0.03200000151991844, 1.055999994277954, 0.0, 0.0, 0.0, 0.0, 0.0, 1.6203137011961088E9, 2021-05-06 17:08:21.196
44.0, 144.2273712158203, 223.6366729736328, 347.2478332519531, -186.11050415039062, 0.01600000075995922, 0.03200000151991844, 1.055999994277954, 0.0, 0.0, 0.0, 0.0, 0.0, 1.6203137012116857E9, 2021-05-06 17:08:21.211
44.0, 137.92190551757812, 224.3958740234375, 337.2286376953125, -182.9315948486328, 0.01600000075995922, 0.03200000151991844, 1.055999994277954, 0.0, 0.0, 0.0, 0.0, 0.0, 1.6203137012116857E9, 2021-05-06 17:08:21.211
45.0, 137.25245666503906, 231.82330322265625, 346.5783996582031, -176.97393798828125, 0.01600000075995922, 0.03200000151991844, 1.055999994277954, 0.0, 0.0, 0.0, 0.0, 0.0, 1.6203137012123384E9, 2021-05-06 17:08:21.212
45.0, 144.7733917236328, 230.43580627441406, 359.1407165527344, -177.63963317871094, 0.01600000075995922, 0.03200000151991844, 1.055999994277954, 0.0, 0.0, 0.0, 0.0, 0.0, 1.6203137012123384E9, 2021-05-06 17:08:21.212
46.0, 132.77206420898438, 238.2970733642578, 349.7984619140625, -179.1505584716797, 0.01600000075995922, 0.03200000151991844, 1.055999994277954, 0.0, 0.0, 0.0, 0.0, 0.0, 1.6203137012430344E9, 2021-05-06 17:08:21.243
46.0, 149.43331909179688, 235.6267852783203, 349.0242919921875, -182.54638671875, 0.01600000075995922, 0.03200000151991844, 1.055999994277954, 0.0, 0.0, 0.0, 0.0, 0.0, 1.6203137012430344E9, 2021-05-06 17:08:21.243
47.0, 132.08016967773438, 216.36630249023438, 349.6825256347656, -187.97671508789062, 0.01600000075995922, 0.03200000151991844, 1.055999994277954, 0.0, 0.0, 0.0, 0.0, 0.0, 1.6203137012436507E9, 2021-05-06 17:08:21.243
47.0, 135.04591369628906, 219.48912048339844, 348.7176208496094, -183.96380615234375, 0.01600000075995922, 0.03200000151991844, 1.055999994277954, 0.0, 0.0, 0.0, 0.0, 0.0, 1.6203137012436507E9, 2021-05-06 17:08:21.243
48.0, 138.72972106933594, 222.39501953125, 344.757080078125, -191.2379150390625, 0.01600000075995922, 0.03200000151991844, 1.055999994277954, 0.0, 0.0, 0.0, 0.0, 0.0, 1.6203137012444165E9, 2021-05-06 17:08:21.244
48.0, 130.03819274902344, 236.9432373046875, 344.2521667480469, -186.65280151367188, 0.01600000075995922, 0.03200000151991844, 1.055999994277954, 0.0, 0.0, 0.0, 0.0, 0.0, 1.6203137012444165E9, 2021-05-06 17:08:21.244
49.0, 126.18983459472656, 212.33468627929688, 339.06866455078125, -183.11111450195312, 0.01600000075995922, 0.03200000151991844, 1.055999994277954, 0.0, 0.0, 0.0, 0.0, 0.0, 1.6203137012559962E9, 2021-05-06 17:08:21.255
49.0, 138.8045196533203, 227.2718505859375, 350.37066650390625, -193.07794189453125, 0.01600000075995922, 0.03200000151991844, 1.055999994277954, 0.0, 0.0, 0.0, 0.0, 0.0, 1.6203137012559962E9, 2021-05-06 17:08:21.255
50.0, 125.40445709228516, 226.82305908203125, 343.24615478515625, -193.38461303710938, 0.01600000075995922, 0.03200000151991844, 1.055999994277954, 0.0, 0.0, 0.0, 0.0, 0.0, 1.620313701271608E9, 2021-05-06 17:08:21.271
50.0, 128.19442749023438, 216.0783233642578, 335.8186950683594, -197.79022216796875, 0.01600000075995922, 0.03200000151991844, 1.055999994277954, 0.0, 0.0, 0.0, 0.0, 0.0, 1.620313701271608E9, 2021-05-06 17:08:21.271
51.0, 137.00563049316406, 226.95022583007812, 343.35833740234375, -191.18556213378906, 0.01600000075995922, 0.03200000151991844, 1.055999994277954, 0.0, 0.0, 0.0, 0.0, 0.0, 1.6203137012723637E9, 2021-05-06 17:08:21.272
51.0, 144.49664306640625, 215.75296020507812, 350.23974609375, -188.45169067382812, 0.01600000075995922, 0.03200000151991844, 1.055999994277954, 0.0, 0.0, 0.0, 0.0, 0.0, 1.6203137012723637E9, 2021-05-06 17:08:21.272
52.0, 134.2119140625, 219.45919799804688, 341.4846496582031, -193.7810516357422, 0.01600000075995922, 0.03200000151991844, 1.055999994277954, 0.0, 0.0, 0.0, 0.0, 0.0, 1.6203137012859206E9, 2021-05-06 17:08:21.285
52.0, 128.7853240966797, 220.04635620117188, 336.7125549316406, -191.3762969970703, 0.01600000075995922, 0.03200000151991844, 1.055999994277954, 0.0, 0.0, 0.0, 0.0, 0.0, 1.6203137012859206E9, 2021-05-06 17:08:21.285
53.0, 144.35452270507812, 224.76611328125, 346.4138488769531, -187.13897705078125, 0.01600000075995922, 0.03200000151991844, 1.055999994277954, 0.0, 0.0, 0.0, 0.0, 0.0, 1.6203137013014643E9, 2021-05-06 17:08:21.301
53.0, 125.1912841796875, 219.27967834472656, 344.13250732421875, -196.24563598632812, 0.01600000075995922, 0.03200000151991844, 1.055999994277954, 0.0, 0.0, 0.0, 0.0, 0.0, 1.6203137013014643E9, 2021-05-06 17:08:21.301
54.0, 129.727783203125, 223.9582977294922, 344.0726623535156, -194.66366577148438, 0.01600000075995922, 0.03200000151991844, 1.055999994277954, 0.0, 0.0, 0.0, 0.0, 0.0, 1.6203137013165593E9, 2021-05-06 17:08:21.316
54.0, 118.77735137939453, 243.0467529296875, 336.3497619628906, -195.0563507080078, 0.01600000075995922, 0.03200000151991844, 1.055999994277954, 0.0, 0.0, 0.0, 0.0, 0.0, 1.6203137013165593E9, 2021-05-06 17:08:21.316
55.0, 132.3120574951172, 200.40066528320312, 341.7950744628906, -193.64266967773438, 0.01600000075995922, 0.03200000151991844, 1.055999994277954, 0.0, 0.0, 0.0, 0.0, 0.0, 1.6203137013172681E9, 2021-05-06 17:08:21.317
55.0, 128.72547912597656, 214.6272430419922, 344.9964294433594, -194.18869018554688, 0.01600000075995922, 0.03200000151991844, 1.055999994277954, 0.0, 0.0, 0.0, 0.0, 0.0, 1.6203137013172681E9, 2021-05-06 17:08:21.317
56.0, 127.4614028930664, 208.13478088378906, 335.68408203125, -190.20196533203125, 0.01600000075995922, 0.03200000151991844, 1.055999994277954, 0.0, 0.0, 0.0, 0.0, 0.0, 1.620313701331662E9, 2021-05-06 17:08:21.331
56.0, 134.44378662109375, 212.24493408203125, 331.9217224121094, -190.9798583984375, 0.01600000075995922, 0.03200000151991844, 1.055999994277954, 0.0, 0.0, 0.0, 0.0, 0.0, 1.620313701331662E9, 2021-05-06 17:08:21.331
57.0, 128.84890747070312, 209.65692138671875, 337.1912536621094, -187.07540893554688, 0.01600000075995922, 0.03200000151991844, 1.055999994277954, 0.0, 0.0, 0.0, 0.0, 0.0, 1.6203137013323689E9, 2021-05-06 17:08:21.332
57.0, 134.49615478515625, 226.80810546875, 345.4564208984375, -187.65509033203125, 0.01600000075995922, 0.03200000151991844, 1.055999994277954, 0.0, 0.0, 0.0, 0.0, 0.0, 1.6203137013323689E9, 2021-05-06 17:08:21.332
58.0, 129.88485717773438, 202.9849395751953, 345.04876708984375, -187.5503692626953, 0.01600000075995922, 0.03200000151991844, 1.055999994277954, 0.0, 0.0, 0.0, 0.0, 0.0, 1.6203137013623905E9, 2021-05-06 17:08:21.362
58.0, 121.03999328613281, 217.6977081298828, 333.2007751464844, -189.05755615234375, 0.01600000075995922, 0.03200000151991844, 1.055999994277954, 0.0, 0.0, 0.0, 0.0, 0.0, 1.6203137013623905E9, 2021-05-06 17:08:21.362
59.0, 148.1654815673828, 215.83897399902344, 346.11090087890625, -179.86114501953125, 0.01600000075995922, 0.03200000151991844, 1.055999994277954, 0.0, 0.0, 0.0, 0.0, 0.0, 1.620313701363099E9, 2021-05-06 17:08:21.363
59.0, 118.8110122680664, 212.11029052734375, 341.8923034667969, -179.59934997558594, 0.01600000075995922, 0.03200000151991844, 1.055999994277954, 0.0, 0.0, 0.0, 0.0, 0.0, 1.620313701363099E9, 2021-05-06 17:08:21.363
60.0, 126.65731811523438, 215.9474334716797, 336.2899475097656, -192.06817626953125, 0.01600000075995922, 0.03200000151991844, 1.055999994277954, 0.0, 0.0, 0.0, 0.0, 0.0, 1.6203137013638072E9, 2021-05-06 17:08:21.363
60.0, 128.86012268066406, 217.5967254638672, 329.6142272949219, -188.97901916503906, 0.01600000075995922, 0.03200000151991844, 1.055999994277954, 0.0, 0.0, 0.0, 0.0, 0.0, 1.6203137013638072E9, 2021-05-06 17:08:21.363
61.0, 125.89064025878906, 216.23915100097656, 329.7151794433594, -189.10617065429688, 0.01600000075995922, 0.03200000151991844, 1.055999994277954, 0.0, 0.0, 0.0, 0.0, 0.0, 1.6203137013758254E9, 2021-05-06 17:08:21.375
61.0, 132.0128631591797, 204.1293487548828, 338.2197265625, -193.2425079345703, 0.01600000075995922, 0.03200000151991844, 1.055999994277954, 0.0, 0.0, 0.0, 0.0, 0.0, 1.6203137013758254E9, 2021-05-06 17:08:21.375
62.0, 129.74273681640625, 215.9137725830078, 339.0125732421875, -195.87913513183594, 0.01600000075995922, 0.03200000151991844, 1.055999994277954, 0.0, 0.0, 0.0, 0.0, 0.0, 1.6203137013917456E9, 2021-05-06 17:08:21.391
62.0, 133.8865509033203, 214.9825439453125, 335.3811340332031, -198.29136657714844, 0.01600000075995922, 0.03200000151991844, 1.055999994277954, 0.0, 0.0, 0.0, 0.0, 0.0, 1.6203137013917456E9, 2021-05-06 17:08:21.391
63.0, 137.12530517578125, 212.03175354003906, 339.71942138671875, -194.68235778808594, 0.01600000075995922, 0.03200000151991844, 1.055999994277954, 0.0, 0.0, 0.0, 0.0, 0.0, 1.6203137013923132E9, 2021-05-06 17:08:21.392
63.0, 147.75784301757812, 210.1468505859375, 349.88446044921875, -199.98553466796875, 0.01600000075995922, 0.03200000151991844, 1.055999994277954, 0.0, 0.0, 0.0, 0.0, 0.0, 1.6203137013923132E9, 2021-05-06 17:08:21.392
64.0, 142.4546661376953, 214.9002685546875, 341.7688903808594, -207.11752319335938, 0.01600000075995922, 0.03200000151991844, 1.055999994277954, 0.0, 0.0, 0.0, 0.0, 0.0, 1.620313701422279E9, 2021-05-06 17:08:21.422
64.0, 135.44235229492188, 238.27088928222656, 342.0306701660156, -190.48245239257812, 0.01600000075995922, 0.03200000151991844, 1.055999994277954, 0.0, 0.0, 0.0, 0.0, 0.0, 1.620313701422279E9, 2021-05-06 17:08:21.422
65.0, 136.6316375732422, 222.29029846191406, 344.3756103515625, -186.29376220703125, 0.01600000075995922, 0.03200000151991844, 1.055999994277954, 0.0, 0.0, 0.0, 0.0, 0.0, 1.6203137014230607E9, 2021-05-06 17:08:21.423
65.0, 132.79449462890625, 219.01040649414062, 342.1354064941406, -181.76849365234375, 0.01600000075995922, 0.03200000151991844, 1.055999994277954, 0.0, 0.0, 0.0, 0.0, 0.0, 1.6203137014230607E9, 2021-05-06 17:08:21.423
66.0, 137.75733947753906, 228.3190155029297, 343.5266418457031, -189.46519470214844, 0.01600000075995922, 0.03200000151991844, 1.055999994277954, 0.0, 0.0, 0.0, 0.0, 0.0, 1.6203137014238677E9, 2021-05-06 17:08:21.423
66.0, 122.35643768310547, 210.7078399658203, 334.33770751953125, -191.21920776367188, 0.01600000075995922, 0.03200000151991844, 1.055999994277954, 0.0, 0.0, 0.0, 0.0, 0.0, 1.6203137014238677E9, 2021-05-06 17:08:21.423
67.0, 130.68519592285156, 229.51205444335938, 338.4703063964844, -188.1076202392578, 0.01600000075995922, 0.03200000151991844, 1.055999994277954, 0.0, 0.0, 0.0, 0.0, 0.0, 1.6203137014361124E9, 2021-05-06 17:08:21.436
67.0, 126.43292999267578, 213.5239715576172, 342.68890380859375, -194.24853515625, 0.01600000075995922, 0.03200000151991844, 1.055999994277954, 0.0, 0.0, 0.0, 0.0, 0.0, 1.6203137014361124E9, 2021-05-06 17:08:21.436
68.0, 132.71221923828125, 221.52362060546875, 340.05975341796875, -194.86935424804688, 0.01600000075995922, 0.03200000151991844, 1.055999994277954, 0.0, 0.0, 0.0, 0.0, 0.0, 1.620313701451568E9, 2021-05-06 17:08:21.451
68.0, 133.20962524414062, 213.76333618164062, 335.3549499511719, -193.03306579589844, 0.01600000075995922, 0.03200000151991844, 1.055999994277954, 0.0, 0.0, 0.0, 0.0, 0.0, 1.620313701451568E9, 2021-05-06 17:08:21.451
69.0, 147.3539276123047, 206.04791259765625, 336.37969970703125, -193.56787109375, 0.01600000075995922, 0.03200000151991844, 1.055999994277954, 0.0, 0.0, 0.0, 0.0, 0.0, 1.6203137014522753E9, 2021-05-06 17:08:21.452
69.0, 141.8114013671875, 218.01559448242188, 339.2818603515625, -195.40789794921875, 0.01600000075995922, 0.03200000151991844, 1.055999994277954, 0.0, 0.0, 0.0, 0.0, 0.0, 1.6203137014522753E9, 2021-05-06 17:08:21.452
70.0, 131.6800079345703, 229.1380615234375, 333.877685546875, -204.26023864746094, 0.01600000075995922, 0.03200000151991844, 1.055999994277954, 0.0, 0.0, 0.0, 0.0, 0.0, 1.620313701465982E9, 2021-05-06 17:08:21.465
70.0, 137.4768524169922, 209.4287872314453, 336.1553039550781, -198.81121826171875, 0.01600000075995922, 0.03200000151991844, 1.055999994277954, 0.0, 0.0, 0.0, 0.0, 0.0, 1.620313701465982E9, 2021-05-06 17:08:21.465
71.0, 151.31822204589844, 219.35073852539062, 343.5528259277344, -191.47726440429688, 0.01600000075995922, 0.03200000151991844, 1.055999994277954, 0.0, 0.0, 0.0, 0.0, 0.0, 1.620313701481526E9, 2021-05-06 17:08:21.481
71.0, 134.77664184570312, 224.23504638671875, 344.9590148925781, -189.7943115234375, 0.01600000075995922, 0.03200000151991844, 1.055999994277954, 0.0, 0.0, 0.0, 0.0, 0.0, 1.620313701481526E9, 2021-05-06 17:08:21.481
72.0, 139.07752990722656, 233.0500030517578, 355.70001220703125, -182.10133361816406, 0.01600000075995922, 0.03200000151991844, 1.055999994277954, 0.0, 0.0, 0.0, 0.0, 0.0, 1.6203137014822595E9, 2021-05-06 17:08:21.482
72.0, 140.48373413085938, 226.52760314941406, 354.03948974609375, -182.63987731933594, 0.01600000075995922, 0.03200000151991844, 1.055999994277954, 0.0, 0.0, 0.0, 0.0, 0.0, 1.6203137014822595E9, 2021-05-06 17:08:21.482
73.0, 135.4049530029297, 226.5089111328125, 348.53436279296875, -180.20895385742188, 0.01600000075995922, 0.03200000151991844, 1.055999994277954, 0.0, 0.0, 0.0, 0.0, 0.0, 1.6203137014960833E9, 2021-05-06 17:08:21.496
73.0, 139.88160705566406, 222.1893310546875, 352.23687744140625, -186.21522521972656, 0.01600000075995922, 0.03200000151991844, 1.055999994277954, 0.0, 0.0, 0.0, 0.0, 0.0, 1.6203137014960833E9, 2021-05-06 17:08:21.496
74.0, 157.42921447753906, 224.3397674560547, 354.1517028808594, -186.47328186035156, 0.01600000075995922, 0.03200000151991844, 1.055999994277954, 0.0, 0.0, 0.0, 0.0, 0.0, 1.6203137015117066E9, 2021-05-06 17:08:21.511
74.0, 131.4743194580078, 225.75344848632812, 342.5729675292969, -189.2034149169922, 0.01600000075995922, 0.03200000151991844, 1.055999994277954, 0.0, 0.0, 0.0, 0.0, 0.0, 1.6203137015117066E9, 2021-05-06 17:08:21.511
75.0, 140.43511962890625, 229.63172912597656, 346.2792053222656, -185.25033569335938, 0.01600000075995922, 0.03200000151991844, 1.055999994277954, 0.0, 0.0, 0.0, 0.0, 0.0, 1.620313701512401E9, 2021-05-06 17:08:21.512
75.0, 138.202392578125, 230.106689453125, 348.42218017578125, -186.68270874023438, 0.01600000075995922, 0.03200000151991844, 1.055999994277954, 0.0, 0.0, 0.0, 0.0, 0.0, 1.620313701512401E9, 2021-05-06 17:08:21.512
76.0, 139.563720703125, 225.869384765625, 348.6839599609375, -193.2238006591797, 0.01600000075995922, 0.03200000151991844, 1.055999994277954, 0.0, 0.0, 0.0, 0.0, 0.0, 1.6203137015259373E9, 2021-05-06 17:08:21.525
76.0, 158.0537872314453, 236.6702117919922, 358.61712646484375, -184.52479553222656, 0.01600000075995922, 0.03200000151991844, 1.055999994277954, 0.0, 0.0, 0.0, 0.0, 0.0, 1.6203137015259373E9, 2021-05-06 17:08:21.525
