Sample Index, EXG Channel 0, EXG Channel 1, EXG Channel 2, EXG Channel 3, Accel Channel 0, Accel Channel 1, Accel Channel 2, Other, Other, Other, Other, Other, Timestamp, Timestamp (Formatted)
0.0, 140.9175567626953, 175.7266845703125, 315.4661560058594, -208.1927490234375, 0.0, 0.0, 0.0, 0.0, 0.0, 0.0, 0.0, 0.0, 1.6203129845169878E9, 2021-05-06 16:56:24.516
1.0, 147.29408264160156, 175.2891082763672, 322.0708312988281, -207.61680603027344, 0.0, 0.03200000151991844, 0.0, 0.0, 0.0, 0.0, 0.0, 0.0, 1.6203129845304453E9, 2021-05-06 16:56:24.530
1.0, 135.60690307617188, 166.76962280273438, 306.50537109375, -214.28504943847656, 0.0, 0.03200000151991844, 0.0, 0.0, 0.0, 0.0, 0.0, 0.0, 1.6203129845304453E9, 2021-05-06 16:56:24.530
2.0, 130.0269775390625, 179.4628448486328, 309.3439636230469, -206.25921630859375, 0.0, 0.03200000151991844, 0.0, 0.0, 0.0, 0.0, 0.0, 0.0, 1.6203129845469792E9, 2021-05-06 16:56:24.546
2.0, 135.8686981201172, 181.014892578125, 316.91351318359375, -204.5388641357422, 0.0, 0.03200000151991844, 0.0, 0.0, 0.0, 0.0, 0.0, 0.0, 1.6203129845469792E9, 2021-05-06 16:56:24.546
3.0, 133.4863739013672, 177.32736206054688, 323.9407958984375, -211.61849975585938, 0.0, 0.03200000151991844, 0.0, 0.0, 0.0, 0.0, 0.0, 0.0, 1.62031298454777E9, 2021-05-06 16:56:24.547
3.0, 132.24847412109375, 179.51145935058594, 321.19195556640625, -209.27732849121094, 0.0, 0.03200000151991844, 0.0, 0.0, 0.0, 0.0, 0.0, 0.0, 1.62031298454777E9, 2021-05-06 16:56:24.547
4.0, 156.29603576660156, 188.42738342285156, 318.1776123046875, -210.25343322753906, 0.0, 0.03200000151991844, 0.0, 0.0, 0.0, 0.0, 0.0, 0.0, 1.6203129845600705E9, 2021-05-06 16:56:24.560
4.0, 149.3472900390625, 188.2216796875, 331.5365295410156, -210.3207550048828, 0.0, 0.03200000151991844, 0.0, 0.0, 0.0, 0.0, 0.0, 0.0, 1.6203129845600705E9, 2021-05-06 16:56:24.560
5.0, 139.3094024658203, 176.72523498535156, 325.23480224609375, -213.44357299804688, 0.0, 0.03200000151991844, 0.0, 0.0, 0.0, 0.0, 0.0, 0.0, 1.6203129845759847E9, 2021-05-06 16:56:24.575
5.0, 130.47201538085938, 168.2057342529297, 316.5096130371094, -212.71055603027344, 0.0, 0.03200000151991844, 0.0, 0.0, 0.0, 0.0, 0.0, 0.0, 1.6203129845759847E9, 2021-05-06 16:56:24.575
6.0, 131.98667907714844, 172.14759826660156, 309.5234680175781, -209.512939453125, 0.0, 0.03200000151991844, 0.0, 0.0, 0.0, 0.0, 0.0, 0.0, 1.6203129845766368E9, 2021-05-06 16:56:24.576
6.0, 140.43511962890625, 177.70509338378906, 324.6812744140625, -200.50726318359375, 0.0, 0.03200000151991844, 0.0, 0.0, 0.0, 0.0, 0.0, 0.0, 1.6203129845766368E9, 2021-05-06 16:56:24.576
7.0, 137.03553771972656, 175.15447998046875, 328.6717529296875, -197.51907348632812, 0.0, 0.03200000151991844, 0.0, 0.0, 0.0, 0.0, 0.0, 0.0, 1.620312984607194E9, 2021-05-06 16:56:24.607
7.0, 137.4805908203125, 179.71714782714844, 322.45977783203125, -203.39071655273438, 0.0, 0.03200000151991844, 0.0, 0.0, 0.0, 0.0, 0.0, 0.0, 1.620312984607194E9, 2021-05-06 16:56:24.607
8.0, 138.883056640625, 181.84889221191406, 313.64483642578125, -206.1657257080078, 0.0, 0.03200000151991844, 0.0, 0.0, 0.0, 0.0, 0.0, 0.0, 1.6203129846079352E9, 2021-05-06 16:56:24.607
8.0, 148.30760192871094, 181.6170196533203, 323.4321594238281, -205.86279296875, 0.0, 0.03200000151991844, 0.0, 0.0, 0.0, 0.0, 0.0, 0.0, 1.6203129846079352E9, 2021-05-06 16:56:24.607
9.0, 139.57867431640625, 174.17088317871094, 335.601806640625, -197.0515899658203, 0.0, 0.03200000151991844, 0.0, 0.0, 0.0, 0.0, 0.0, 0.0, 1.6203129846086912E9, 2021-05-06 16:56:24.608
9.0, 133.29190063476562, 180.35667419433594, 327.0523681640625, -199.35162353515625, 0.0, 0.03200000151991844, 0.0, 0.0, 0.0, 0.0, 0.0, 0.0, 1.6203129846086912E9, 2021-05-06 16:56:24.608
10.0, 136.18284606933594, 179.829345703125, 326.869140625, -202.5118408203125, 0.0, 0.03200000151991844, 1.055999994277954, 0.0, 0.0, 0.0, 0.0, 0.0, 1.62031298462009E9, 2021-05-06 16:56:24.620
10.0, 127.31554412841797, 173.40794372558594, 325.4853515625, -207.5569610595703, 0.0, 0.03200000151991844, 1.055999994277954, 0.0, 0.0, 0.0, 0.0, 0.0, 1.62031298462009E9, 2021-05-06 16:56:24.620
11.0, 148.2589874267578, 181.7815704345703, 340.8675842285156, -201.47215270996094, 0.0, 0.03200000151991844, 1.055999994277954, 0.0, 0.0, 0.0, 0.0, 0.0, 1.6203129846359308E9, 2021-05-06 16:56:24.635
11.0, 138.81199645996094, 176.272705078125, 320.1522521972656, -209.15390014648438, 0.0, 0.03200000151991844, 1.055999994277954, 0.0, 0.0, 0.0, 0.0, 0.0, 1.6203129846359308E9, 2021-05-06 16:56:24.635
12.0, 136.49325561523438, 175.7304229736328, 315.3016052246094, -204.90911865234375, 0.0, 0.03200000151991844, 1.055999994277954, 0.0, 0.0, 0.0, 0.0, 0.0, 1.6203129846366622E9, 2021-05-06 16:56:24.636
12.0, 144.21615600585938, 178.49420166015625, 329.00836181640625, -200.862548828125, 0.0, 0.03200000151991844, 1.055999994277954, 0.0, 0.0, 0.0, 0.0, 0.0, 1.6203129846366622E9, 2021-05-06 16:56:24.636
13.0, 142.17042541503906, 169.1930694580078, 328.0883483886719, -207.1268768310547, 0.0, 0.03200000151991844, 1.055999994277954, 0.0, 0.0, 0.0, 0.0, 0.0, 1.620312984666433E9, 2021-05-06 16:56:24.666
13.0, 142.1405029296875, 172.87313842773438, 320.4364929199219, -207.69534301757812, 0.0, 0.03200000151991844, 1.055999994277954, 0.0, 0.0, 0.0, 0.0, 0.0, 1.620312984666433E9, 2021-05-06 16:56:24.666
14.0, 138.366943359375, 173.44534301757812, 311.7150573730469, -204.56130981445312, 0.0, 0.03200000151991844, 1.055999994277954, 0.0, 0.0, 0.0, 0.0, 0.0, 1.6203129846671677E9, 2021-05-06 16:56:24.667
14.0, 146.44512939453125, 179.42544555664062, 324.6925048828125, -205.02879333496094, 0.0, 0.03200000151991844, 1.055999994277954, 0.0, 0.0, 0.0, 0.0, 0.0, 1.6203129846671677E9, 2021-05-06 16:56:24.667
15.0, 150.6113739013672, 174.1035614013672, 327.46002197265625, -203.17755126953125, 0.0, 0.03200000151991844, 1.055999994277954, 0.0, 0.0, 0.0, 0.0, 0.0, 1.6203129846679077E9, 2021-05-06 16:56:24.667
15.0, 138.45297241210938, 176.82620239257812, 313.83184814453125, -203.71983337402344, 0.0, 0.03200000151991844, 1.055999994277954, 0.0, 0.0, 0.0, 0.0, 0.0, 1.6203129846679077E9, 2021-05-06 16:56:24.667
16.0, 144.89682006835938, 180.53993225097656, 309.4524230957031, -209.01927185058594, 0.0, 0.03200000151991844, 1.055999994277954, 0.0, 0.0, 0.0, 0.0, 0.0, 1.6203129846801238E9, 2021-05-06 16:56:24.680
16.0, 139.23086547851562, 178.91680908203125, 318.61517333984375, -206.61077880859375, 0.0, 0.03200000151991844, 1.055999994277954, 0.0, 0.0, 0.0, 0.0, 0.0, 1.6203129846801238E9, 2021-05-06 16:56:24.680
17.0, 137.81344604492188, 179.79568481445312, 325.0515441894531, -203.12518310546875, 0.0, 0.03200000151991844, 1.055999994277954, 0.0, 0.0, 0.0, 0.0, 0.0, 1.6203129846957514E9, 2021-05-06 16:56:24.695
17.0, 144.19371032714844, 184.3621063232422, 324.898193359375, -198.80186462402344, 0.0, 0.03200000151991844, 1.055999994277954, 0.0, 0.0, 0.0, 0.0, 0.0, 1.6203129846957514E9, 2021-05-06 16:56:24.695
18.0, 140.8689422607422, 175.0834197998047, 312.36578369140625, -203.03543090820312, 0.0, 0.03200000151991844, 1.055999994277954, 0.0, 0.0, 0.0, 0.0, 0.0, 1.6203129846964452E9, 2021-05-06 16:56:24.696
18.0, 141.2130126953125, 177.3759765625, 320.23455810546875, -199.66952514648438, 0.0, 0.03200000151991844, 1.055999994277954, 0.0, 0.0, 0.0, 0.0, 0.0, 1.6203129846964452E9, 2021-05-06 16:56:24.696
19.0, 134.71681213378906, 171.3958740234375, 327.58343505859375, -203.28225708007812, 0.0, 0.03200000151991844, 1.055999994277954, 0.0, 0.0, 0.0, 0.0, 0.0, 1.6203129847264462E9, 2021-05-06 16:56:24.726
19.0, 135.93601989746094, 178.50543212890625, 320.7207336425781, -204.841796875, 0.0, 0.03200000151991844, 1.055999994277954, 0.0, 0.0, 0.0, 0.0, 0.0, 1.6203129847264462E9, 2021-05-06 16:56:24.726
20.0, 140.18080139160156, 176.4110870361328, 315.9934997558594, -203.00924682617188, 0.0, 0.03200000151991844, 1.055999994277954, 0.0, 0.0, 0.0, 0.0, 0.0, 1.6203129847272644E9, 2021-05-06 16:56:24.727
20.0, 141.56082153320312, 170.8348846435547, 321.7417297363281, -207.19793701171875, 0.0, 0.03200000151991844, 1.055999994277954, 0.0, 0.0, 0.0, 0.0, 0.0, 1.6203129847272644E9, 2021-05-06 16:56:24.727
21.0, 152.34669494628906, 172.60012817382812, 328.57452392578125, -205.2718963623047, 0.0, 0.03200000151991844, 1.055999994277954, 0.0, 0.0, 0.0, 0.0, 0.0, 1.6203129847279208E9, 2021-05-06 16:56:24.727
21.0, 132.6598663330078, 174.4027557373047, 320.0550231933594, -205.50376892089844, 0.0, 0.03200000151991844, 1.055999994277954, 0.0, 0.0, 0.0, 0.0, 0.0, 1.6203129847279208E9, 2021-05-06 16:56:24.727
22.0, 134.32037353515625, 177.4545135498047, 316.1019592285156, -201.42727661132812, 0.0, 0.03200000151991844, 1.055999994277954, 0.0, 0.0, 0.0, 0.0, 0.0, 1.6203129847401533E9, 2021-05-06 16:56:24.740
22.0, 151.0040740966797, 183.79737854003906, 329.6441345214844, -204.69969177246094, 0.0, 0.03200000151991844, 1.055999994277954, 0.0, 0.0, 0.0, 0.0, 0.0, 1.6203129847401533E9, 2021-05-06 16:56:24.740
23.0, 142.33123779296875, 177.22264099121094, 334.44989013671875, -208.58169555664062, 0.0, 0.03200000151991844, 1.055999994277954, 0.0, 0.0, 0.0, 0.0, 0.0, 1.620312984755855E9, 2021-05-06 16:56:24.755
23.0, 141.8001708984375, 174.2045440673828, 326.9327087402344, -216.12881469726562, 0.0, 0.03200000151991844, 1.055999994277954, 0.0, 0.0, 0.0, 0.0, 0.0, 1.620312984755855E9, 2021-05-06 16:56:24.755
24.0, 140.3229217529297, 171.16026306152344, 314.4264831542969, -222.70730590820312, 0.0, 0.03200000151991844, 1.055999994277954, 0.0, 0.0, 0.0, 0.0, 0.0, 1.6203129847564795E9, 2021-05-06 16:56:24.756
24.0, 150.9666748046875, 173.9876251220703, 329.7002258300781, -201.8760528564453, 0.0, 0.03200000151991844, 1.055999994277954, 0.0, 0.0, 0.0, 0.0, 0.0, 1.6203129847564795E9, 2021-05-06 16:56:24.756
25.0, 145.68592834472656, 176.17172241210938, 329.5207214355469, -203.11770629882812, 0.0, 0.03200000151991844, 1.055999994277954, 0.0, 0.0, 0.0, 0.0, 0.0, 1.6203129847865384E9, 2021-05-06 16:56:24.786
25.0, 142.55189514160156, 171.59408569335938, 319.6922607421875, -209.0005645751953, 0.0, 0.03200000151991844, 1.055999994277954, 0.0, 0.0, 0.0, 0.0, 0.0, 1.6203129847865384E9, 2021-05-06 16:56:24.786
26.0, 143.7449188232422, 175.8949737548828, 317.67645263671875, -205.5224609375, 0.0, 0.03200000151991844, 1.055999994277954, 0.0, 0.0, 0.0, 0.0, 0.0, 1.62031298478721E9, 2021-05-06 16:56:24.787
26.0, 150.03916931152344, 172.13262939453125, 323.30499267578125, -208.2301483154297, 0.0, 0.03200000151991844, 1.055999994277954, 0.0, 0.0, 0.0, 0.0, 0.0, 1.62031298478721E9, 2021-05-06 16:56:24.787
27.0, 137.92564392089844, 167.91403198242188, 325.9640808105469, -210.2721405029297, 0.0, 0.03200000151991844, 1.055999994277954, 0.0, 0.0, 0.0, 0.0, 0.0, 1.6203129847878883E9, 2021-05-06 16:56:24.787
27.0, 133.2058868408203, 169.7091827392578, 316.4572448730469, -207.3437957763672, 0.0, 0.03200000151991844, 1.055999994277954, 0.0, 0.0, 0.0, 0.0, 0.0, 1.6203129847878883E9, 2021-05-06 16:56:24.787
28.0, 139.3019256591797, 173.2620849609375, 310.4360046386719, -207.99453735351562, 0.0, 0.03200000151991844, 1.055999994277954, 0.0, 0.0, 0.0, 0.0, 0.0, 1.6203129848000436E9, 2021-05-06 16:56:24.800
28.0, 148.05328369140625, 180.26318359375, 332.4079284667969, -200.49229431152344, 0.0, 0.03200000151991844, 1.055999994277954, 0.0, 0.0, 0.0, 0.0, 0.0, 1.6203129848000436E9, 2021-05-06 16:56:24.800
29.0, 140.6146240234375, 175.76034545898438, 336.4844055175781, -210.96401977539062, 0.0, 0.03200000151991844, 1.055999994277954, 0.0, 0.0, 0.0, 0.0, 0.0, 1.620312984815731E9, 2021-05-06 16:56:24.815
29.0, 132.57009887695312, 164.9969024658203, 317.30621337890625, -222.6212921142578, 0.0, 0.03200000151991844, 1.055999994277954, 0.0, 0.0, 0.0, 0.0, 0.0, 1.620312984815731E9, 2021-05-06 16:56:24.815
30.0, 141.28033447265625, 166.63497924804688, 311.412109375, -221.379638671875, 0.0, 0.03200000151991844, 1.055999994277954, 0.0, 0.0, 0.0, 0.0, 0.0, 1.6203129848164425E9, 2021-05-06 16:56:24.816
30.0, 137.34970092773438, 170.81993103027344, 324.0118408203125, -211.59231567382812, 0.0, 0.03200000151991844, 1.055999994277954, 0.0, 0.0, 0.0, 0.0, 0.0, 1.6203129848164425E9, 2021-05-06 16:56:24.816
31.0, 143.95062255859375, 170.0083770751953, 329.4683532714844, -211.0836944580078, 0.0, 0.03200000151991844, 1.055999994277954, 0.0, 0.0, 0.0, 0.0, 0.0, 1.6203129848463194E9, 2021-05-06 16:56:24.846
31.0, 135.52088928222656, 171.33229064941406, 318.93304443359375, -213.48471069335938, 0.0, 0.03200000151991844, 1.055999994277954, 0.0, 0.0, 0.0, 0.0, 0.0, 1.6203129848463194E9, 2021-05-06 16:56:24.846
32.0, 148.56192016601562, 167.80931091308594, 315.41754150390625, -214.06439208984375, 0.0, 0.03200000151991844, 1.055999994277954, 0.0, 0.0, 0.0, 0.0, 0.0, 1.6203129848470592E9, 2021-05-06 16:56:24.847
32.0, 147.275390625, 171.08920288085938, 328.4698181152344, -214.74131774902344, 0.0, 0.03200000151991844, 1.055999994277954, 0.0, 0.0, 0.0, 0.0, 0.0, 1.6203129848470592E9, 2021-05-06 16:56:24.847
33.0, 146.44886779785156, 171.5230255126953, 333.9225769042969, -211.3267822265625, 0.0, 0.03200000151991844, 1.055999994277954, 0.0, 0.0, 0.0, 0.0, 0.0, 1.6203129848608377E9, 2021-05-06 16:56:24.860
33.0, 136.43716430664062, 161.7319793701172, 316.74896240234375, -222.72225952148438, 0.0, 0.03200000151991844, 1.055999994277954, 0.0, 0.0, 0.0, 0.0, 0.0, 1.6203129848608377E9, 2021-05-06 16:56:24.860
34.0, 150.3234100341797, 172.82452392578125, 316.0234069824219, -215.51173400878906, 0.0, 0.03200000151991844, 1.055999994277954, 0.0, 0.0, 0.0, 0.0, 0.0, 1.620312984861532E9, 2021-05-06 16:56:24.861
34.0, 137.58531188964844, 174.03997802734375, 320.5561828613281, -212.45997619628906, 0.0, 0.03200000151991844, 1.055999994277954, 0.0, 0.0, 0.0, 0.0, 0.0, 1.620312984861532E9, 2021-05-06 16:56:24.861
35.0, 145.9925994873047, 177.54052734375, 332.54254150390625, -208.76495361328125, 0.0, 0.03200000151991844, 1.055999994277954, 0.0, 0.0, 0.0, 0.0, 0.0, 1.6203129848929653E9, 2021-05-06 16:56:24.892
35.0, 141.770263671875, 168.25062561035156, 317.3585510253906, -210.0552215576172, 0.0, 0.03200000151991844, 1.055999994277954, 0.0, 0.0, 0.0, 0.0, 0.0, 1.6203129848929653E9, 2021-05-06 16:56:24.892
36.0, 143.48313903808594, 167.13986206054688, 311.3223571777344, -202.24630737304688, 0.0, 0.03200000151991844, 1.055999994277954, 0.0, 0.0, 0.0, 0.0, 0.0, 1.6203129848936467E9, 2021-05-06 16:56:24.893
36.0, 142.55563354492188, 168.70689392089844, 319.7633056640625, -203.3271484375, 0.0, 0.03200000151991844, 1.055999994277954, 0.0, 0.0, 0.0, 0.0, 0.0, 1.6203129848936467E9, 2021-05-06 16:56:24.893
37.0, 144.2236328125, 180.1846466064453, 323.13671875, -200.3539276123047, 0.0, 0.03200000151991844, 1.055999994277954, 0.0, 0.0, 0.0, 0.0, 0.0, 1.6203129848942924E9, 2021-05-06 16:56:24.894
37.0, 133.9613494873047, 162.5846710205078, 311.5691833496094, -208.16656494140625, 0.0, 0.03200000151991844, 1.055999994277954, 0.0, 0.0, 0.0, 0.0, 0.0, 1.6203129848942924E9, 2021-05-06 16:56:24.894
38.0, 140.9923553466797, 169.45486450195312, 310.1143798828125, -203.72357177734375, 0.0, 0.03200000151991844, 1.055999994277954, 0.0, 0.0, 0.0, 0.0, 0.0, 1.6203129848950565E9, 2021-05-06 16:56:24.895
38.0, 141.52716064453125, 173.45281982421875, 318.1439514160156, -201.4646759033203, 0.0, 0.03200000151991844, 1.055999994277954, 0.0, 0.0, 0.0, 0.0, 0.0, 1.6203129848950565E9, 2021-05-06 16:56:24.895
39.0, 140.1658477783203, 176.18295288085938, 334.393798828125, -203.4468231201172, 0.0, 0.03200000151991844, 1.055999994277954, 0.0, 0.0, 0.0, 0.0, 0.0, 1.620312984905074E9, 2021-05-06 16:56:24.905
39.0, 138.0827178955078, 171.85214233398438, 321.2667541503906, -214.57301330566406, 0.0, 0.03200000151991844, 1.055999994277954, 0.0, 0.0, 0.0, 0.0, 0.0, 1.620312984905074E9, 2021-05-06 16:56:24.905
40.0, 150.81707763671875, 171.20887756347656, 314.2619323730469, -210.40676879882812, 0.0, 0.03200000151991844, 1.055999994277954, 0.0, 0.0, 0.0, 0.0, 0.0, 1.620312984920219E9, 2021-05-06 16:56:24.920
40.0, 142.0208282470703, 176.9907684326172, 317.8484802246094, -212.4749298095703, 0.0, 0.03200000151991844, 1.055999994277954, 0.0, 0.0, 0.0, 0.0, 0.0, 1.620312984920219E9, 2021-05-06 16:56:24.920
41.0, 148.07199096679688, 168.3889923095703, 324.1838684082031, -210.26840209960938, 0.0, 0.03200000151991844, 1.055999994277954, 0.0, 0.0, 0.0, 0.0, 0.0, 1.6203129849357607E9, 2021-05-06 16:56:24.935
41.0, 137.60400390625, 171.7399444580078, 313.3680725097656, -214.31871032714844, 0.0, 0.03200000151991844, 1.055999994277954, 0.0, 0.0, 0.0, 0.0, 0.0, 1.6203129849357607E9, 2021-05-06 16:56:24.935
42.0, 141.81887817382812, 178.02671813964844, 311.56170654296875, -213.74276733398438, 0.0, 0.03200000151991844, 1.055999994277954, 0.0, 0.0, 0.0, 0.0, 0.0, 1.62031298493642E9, 2021-05-06 16:56:24.936
42.0, 151.74456787109375, 183.07931518554688, 328.65679931640625, -203.93299865722656, 0.0, 0.03200000151991844, 1.055999994277954, 0.0, 0.0, 0.0, 0.0, 0.0, 1.62031298493642E9, 2021-05-06 16:56:24.936
43.0, 146.80043029785156, 180.74562072753906, 331.06903076171875, -205.3840789794922, 0.0, 0.03200000151991844, 1.055999994277954, 0.0, 0.0, 0.0, 0.0, 0.0, 1.620312984950236E9, 2021-05-06 16:56:24.950
43.0, 138.11264038085938, 171.51181030273438, 317.1117248535156, -210.32823181152344, 0.0, 0.03200000151991844, 1.055999994277954, 0.0, 0.0, 0.0, 0.0, 0.0, 1.620312984950236E9, 2021-05-06 16:56:24.950
44.0, 138.3632049560547, 172.2784881591797, 311.4158630371094, -206.2442626953125, 0.0, 0.03200000151991844, 1.055999994277954, 0.0, 0.0, 0.0, 0.0, 0.0, 1.6203129849657428E9, 2021-05-06 16:56:24.965
44.0, 149.06680297851562, 176.9384002685547, 320.3841247558594, -204.2920379638672, 0.0, 0.03200000151991844, 1.055999994277954, 0.0, 0.0, 0.0, 0.0, 0.0, 1.6203129849657428E9, 2021-05-06 16:56:24.965
45.0, 142.83987426757812, 174.68324279785156, 326.8466796875, -203.9517059326172, 0.0, 0.03200000151991844, 1.055999994277954, 0.0, 0.0, 0.0, 0.0, 0.0, 1.6203129849663415E9, 2021-05-06 16:56:24.966
45.0, 132.46163940429688, 174.7917022705078, 310.4247741699219, -215.87075805664062, 0.0, 0.03200000151991844, 1.055999994277954, 0.0, 0.0, 0.0, 0.0, 0.0, 1.6203129849663415E9, 2021-05-06 16:56:24.966
46.0, 145.13243103027344, 180.2893524169922, 310.5145568847656, -213.63804626464844, 0.0, 0.03200000151991844, 1.055999994277954, 0.0, 0.0, 0.0, 0.0, 0.0, 1.620312984980198E9, 2021-05-06 16:56:24.980
46.0, 151.58001708984375, 172.06158447265625, 319.5052490234375, -212.80030822753906, 0.0, 0.03200000151991844, 1.055999994277954, 0.0, 0.0, 0.0, 0.0, 0.0, 1.620312984980198E9, 2021-05-06 16:56:24.980
47.0, 132.32327270507812, 170.0308074951172, 323.76873779296875, -219.27781677246094, 0.0, 0.03200000151991844, 1.055999994277954, 0.0, 0.0, 0.0, 0.0, 0.0, 1.620312984995807E9, 2021-05-06 16:56:24.995
47.0, 135.73779296875, 177.39466857910156, 318.3907775878906, -215.20132446289062, 0.0, 0.03200000151991844, 1.055999994277954, 0.0, 0.0, 0.0, 0.0, 0.0, 1.620312984995807E9, 2021-05-06 16:56:24.995
48.0, 138.5464630126953, 177.3311004638672, 314.97625732421875, -212.31785583496094, 0.0, 0.03200000151991844, 1.055999994277954, 0.0, 0.0, 0.0, 0.0, 0.0, 1.6203129849965117E9, 2021-05-06 16:56:24.996
48.0, 152.98622131347656, 186.13108825683594, 328.1706237792969, -204.90538024902344, 0.0, 0.03200000151991844, 1.055999994277954, 0.0, 0.0, 0.0, 0.0, 0.0, 1.6203129849965117E9, 2021-05-06 16:56:24.996
49.0, 142.29383850097656, 178.819580078125, 330.508056640625, -212.1009521484375, 0.0, 0.03200000151991844, 1.055999994277954, 0.0, 0.0, 0.0, 0.0, 0.0, 1.620312985010158E9, 2021-05-06 16:56:25.010
49.0, 142.32376098632812, 173.97640991210938, 319.0452575683594, -214.95823669433594, 0.0, 0.03200000151991844, 1.055999994277954, 0.0, 0.0, 0.0, 0.0, 0.0, 1.620312985010158E9, 2021-05-06 16:56:25.010
50.0, 142.944580078125, 181.1083984375, 315.7354431152344, -209.1987762451172, 0.0, 0.03200000151991844, 1.055999994277954, 0.0, 0.0, 0.0, 0.0, 0.0, 1.620312985042772E9, 2021-05-06 16:56:25.042
50.0, 152.0961151123047, 181.59832763671875, 329.0158386230469, -203.0952606201172, 0.0, 0.03200000151991844, 1.055999994277954, 0.0, 0.0, 0.0, 0.0, 0.0, 1.620312985042772E9, 2021-05-06 16:56:25.042
51.0, 148.41232299804688, 180.23326110839844, 326.2557678222656, -208.33486938476562, 0.0, 0.03200000151991844, 1.055999994277954, 0.0, 0.0, 0.0, 0.0, 0.0, 1.6203129850435293E9, 2021-05-06 16:56:25.043
51.0, 147.55587768554688, 177.3311004638672, 327.64703369140625, -200.58580017089844, 0.0, 0.03200000151991844, 1.055999994277954, 0.0, 0.0, 0.0, 0.0, 0.0, 1.6203129850435293E9, 2021-05-06 16:56:25.043
52.0, 146.86773681640625, 175.35643005371094, 319.29583740234375, -210.92288208007812, 0.0, 0.03200000151991844, 1.055999994277954, 0.0, 0.0, 0.0, 0.0, 0.0, 1.6203129850442567E9, 2021-05-06 16:56:25.044
52.0, 161.35610961914062, 182.34255981445312, 328.619384765625, -203.50665283203125, 0.0, 0.03200000151991844, 1.055999994277954, 0.0, 0.0, 0.0, 0.0, 0.0, 1.6203129850442567E9, 2021-05-06 16:56:25.044
53.0, 140.9512176513672, 176.72523498535156, 333.5560607910156, -197.84445190429688, 0.0, 0.03200000151991844, 1.055999994277954, 0.0, 0.0, 0.0, 0.0, 0.0, 1.6203129850450273E9, 2021-05-06 16:56:25.045
53.0, 142.38734436035156, 169.73910522460938, 322.20172119140625, -197.7247772216797, 0.0, 0.03200000151991844, 1.055999994277954, 0.0, 0.0, 0.0, 0.0, 0.0, 1.6203129850450273E9, 2021-05-06 16:56:25.045
54.0, 139.904052734375, 183.0942840576172, 316.69659423828125, -195.28636169433594, 0.0, 0.03200000151991844, 1.055999994277954, 0.0, 0.0, 0.0, 0.0, 0.0, 1.6203129850550413E9, 2021-05-06 16:56:25.055
54.0, 143.51304626464844, 176.57937622070312, 321.2929382324219, -193.8988494873047, 0.0, 0.03200000151991844, 1.055999994277954, 0.0, 0.0, 0.0, 0.0, 0.0, 1.6203129850550413E9, 2021-05-06 16:56:25.055
55.0, 155.53309631347656, 174.78048706054688, 332.2396240234375, -190.0018768310547, 0.0, 0.03200000151991844, 1.055999994277954, 0.0, 0.0, 0.0, 0.0, 0.0, 1.6203129850700395E9, 2021-05-06 16:56:25.070
55.0, 133.43028259277344, 172.12889099121094, 312.8220520019531, -202.95689392089844, 0.0, 0.03200000151991844, 1.055999994277954, 0.0, 0.0, 0.0, 0.0, 0.0, 1.6203129850700395E9, 2021-05-06 16:56:25.070
56.0, 143.56167602539062, 173.61737060546875, 309.5458984375, -199.89016723632812, 0.0, 0.03200000151991844, 1.055999994277954, 0.0, 0.0, 0.0, 0.0, 0.0, 1.6203129850857809E9, 2021-05-06 16:56:25.085
56.0, 147.60450744628906, 174.08486938476562, 318.2449035644531, -197.0441131591797, 0.0, 0.03200000151991844, 1.055999994277954, 0.0, 0.0, 0.0, 0.0, 0.0, 1.6203129850857809E9, 2021-05-06 16:56:25.085
57.0, 142.42474365234375, 165.65138244628906, 320.3953552246094, -203.39071655273438, 0.0, 0.03200000151991844, 1.055999994277954, 0.0, 0.0, 0.0, 0.0, 0.0, 1.6203129850865571E9, 2021-05-06 16:56:25.086
57.0, 135.50965881347656, 165.66635131835938, 315.226806640625, -207.78884887695312, 0.0, 0.03200000151991844, 1.055999994277954, 0.0, 0.0, 0.0, 0.0, 0.0, 1.6203129850865571E9, 2021-05-06 16:56:25.086
58.0, 133.57614135742188, 166.29464721679688, 299.04052734375, -214.88343811035156, 0.0, 0.03200000151991844, 1.055999994277954, 0.0, 0.0, 0.0, 0.0, 0.0, 1.620312985100035E9, 2021-05-06 16:56:25.100
58.0, 151.50148010253906, 185.7309112548828, 321.0760192871094, -210.1374969482422, 0.0, 0.03200000151991844, 1.055999994277954, 0.0, 0.0, 0.0, 0.0, 0.0, 1.620312985100035E9, 2021-05-06 16:56:25.100
59.0, 146.66204833984375, 178.78591918945312, 319.6997375488281, -212.04110717773438, 0.0, 0.03200000151991844, 1.055999994277954, 0.0, 0.0, 0.0, 0.0, 0.0, 1.6203129851157959E9, 2021-05-06 16:56:25.115
59.0, 127.02009582519531, 172.2560577392578, 308.52490234375, -219.96969604492188, 0.0, 0.03200000151991844, 1.055999994277954, 0.0, 0.0, 0.0, 0.0, 0.0, 1.6203129851157959E9, 2021-05-06 16:56:25.115
60.0, 144.55274963378906, 186.3105926513672, 313.53265380859375, -208.3311309814453, 0.0, 0.03200000151991844, 1.055999994277954, 0.0, 0.0, 0.0, 0.0, 0.0, 1.6203129851165407E9, 2021-05-06 16:56:25.116
60.0, 148.94712829589844, 181.98353576660156, 323.9781799316406, -203.41690063476562, 0.0, 0.03200000151991844, 1.055999994277954, 0.0, 0.0, 0.0, 0.0, 0.0, 1.6203129851165407E9, 2021-05-06 16:56:25.116
61.0, 151.71839904785156, 181.531005859375, 332.9501953125, -196.22506713867188, 0.0, 0.03200000151991844, 1.055999994277954, 0.0, 0.0, 0.0, 0.0, 0.0, 1.6203129851302261E9, 2021-05-06 16:56:25.130
61.0, 145.04266357421875, 172.00921630859375, 319.2621765136719, -206.19564819335938, 0.0, 0.03200000151991844, 1.055999994277954, 0.0, 0.0, 0.0, 0.0, 0.0, 1.6203129851302261E9, 2021-05-06 16:56:25.130
62.0, 135.5695037841797, 177.2899627685547, 311.8421936035156, -201.2066192626953, 0.0, 0.03200000151991844, 1.055999994277954, 0.0, 0.0, 0.0, 0.0, 0.0, 1.6203129851622744E9, 2021-05-06 16:56:25.162
62.0, 141.94976806640625, 178.6849365234375, 321.58465576171875, -204.52764892578125, 0.0, 0.03200000151991844, 1.055999994277954, 0.0, 0.0, 0.0, 0.0, 0.0, 1.6203129851622744E9, 2021-05-06 16:56:25.162
63.0, 142.82864379882812, 176.91970825195312, 327.96490478515625, -204.4715576171875, 0.0, 0.03200000151991844, 1.055999994277954, 0.0, 0.0, 0.0, 0.0, 0.0, 1.6203129851628475E9, 2021-05-06 16:56:25.162
63.0, 131.90066528320312, 172.93670654296875, 314.7144470214844, -203.06161499023438, 0.0, 0.03200000151991844, 1.055999994277954, 0.0, 0.0, 0.0, 0.0, 0.0, 1.6203129851628475E9, 2021-05-06 16:56:25.162
64.0, 138.22483825683594, 178.46054077148438, 311.8122863769531, -197.78086853027344, 0.0, 0.03200000151991844, 1.055999994277954, 0.0, 0.0, 0.0, 0.0, 0.0, 1.620312985163598E9, 2021-05-06 16:56:25.163
64.0, 148.6329803466797, 186.20213317871094, 324.37835693359375, -194.30276489257812, 0.0, 0.03200000151991844, 1.055999994277954, 0.0, 0.0, 0.0, 0.0, 0.0, 1.620312985163598E9, 2021-05-06 16:56:25.163
65.0, 140.80909729003906, 185.87303161621094, 332.25457763671875, -199.28805541992188, 0.0, 0.03200000151991844, 1.055999994277954, 0.0, 0.0, 0.0, 0.0, 0.0, 1.620312985164308E9, 2021-05-06 16:56:25.164
65.0, 136.7176513671875, 181.49734497070312, 319.71844482421875, -207.03712463378906, 0.0, 0.03200000151991844, 1.055999994277954, 0.0, 0.0, 0.0, 0.0, 0.0, 1.620312985164308E9, 2021-05-06 16:56:25.164
66.0, 141.91986083984375, 180.4314727783203, 313.4353942871094, -205.7767791748047, 0.0, 0.03200000151991844, 1.055999994277954, 0.0, 0.0, 0.0, 0.0, 0.0, 1.6203129851751862E9, 2021-05-06 16:56:25.175
66.0, 147.9523162841797, 176.9496307373047, 319.0976257324219, -201.8050079345703, 0.0, 0.03200000151991844, 1.055999994277954, 0.0, 0.0, 0.0, 0.0, 0.0, 1.6203129851751862E9, 2021-05-06 16:56:25.175
67.0, 145.00901794433594, 175.10585021972656, 328.136962890625, -206.0236053466797, 0.0, 0.03200000151991844, 1.055999994277954, 0.0, 0.0, 0.0, 0.0, 0.0, 1.620312985190184E9, 2021-05-06 16:56:25.190
67.0, 145.72706604003906, 181.4936065673828, 323.054443359375, -203.75723266601562, 0.0, 0.03200000151991844, 1.055999994277954, 0.0, 0.0, 0.0, 0.0, 0.0, 1.620312985190184E9, 2021-05-06 16:56:25.190
68.0, 144.54151916503906, 179.9265899658203, 316.423583984375, -212.8152618408203, 0.0, 0.03200000151991844, 1.055999994277954, 0.0, 0.0, 0.0, 0.0, 0.0, 1.620312985206032E9, 2021-05-06 16:56:25.206
68.0, 153.5509490966797, 190.09912109375, 329.1280212402344, -200.0846405029297, 0.0, 0.03200000151991844, 1.055999994277954, 0.0, 0.0, 0.0, 0.0, 0.0, 1.620312985206032E9, 2021-05-06 16:56:25.206
69.0, 154.3437957763672, 178.3446044921875, 331.8057861328125, -202.2575225830078, 0.0, 0.03200000151991844, 1.055999994277954, 0.0, 0.0, 0.0, 0.0, 0.0, 1.6203129852065938E9, 2021-05-06 16:56:25.206
69.0, 155.0281982421875, 187.72801208496094, 330.9269104003906, -202.39590454101562, 0.0, 0.03200000151991844, 1.055999994277954, 0.0, 0.0, 0.0, 0.0, 0.0, 1.6203129852065938E9, 2021-05-06 16:56:25.206
70.0, 158.49134826660156, 191.84938049316406, 327.07855224609375, -196.90573120117188, 0.0, 0.03200000151991844, 1.055999994277954, 0.0, 0.0, 0.0, 0.0, 0.0, 1.6203129852368317E9, 2021-05-06 16:56:25.236
70.0, 144.69485473632812, 186.58360290527344, 329.3150329589844, -198.76820373535156, 0.0, 0.03200000151991844, 1.055999994277954, 0.0, 0.0, 0.0, 0.0, 0.0, 1.6203129852368317E9, 2021-05-06 16:56:25.236
71.0, 155.13291931152344, 187.26426696777344, 334.68927001953125, -195.88473510742188, 0.0, 0.03200000151991844, 1.055999994277954, 0.0, 0.0, 0.0, 0.0, 0.0, 1.6203129852375476E9, 2021-05-06 16:56:25.237
71.0, 135.21795654296875, 180.83538818359375, 319.4529113769531, -200.45489501953125, 0.0, 0.03200000151991844, 1.055999994277954, 0.0, 0.0, 0.0, 0.0, 0.0, 1.6203129852375476E9, 2021-05-06 16:56:25.237
72.0, 138.9615936279297, 180.95880126953125, 310.6641540527344, -200.81393432617188, 0.0, 0.03200000151991844, 1.055999994277954, 0.0, 0.0, 0.0, 0.0, 0.0, 1.6203129852512405E9, 2021-05-06 16:56:25.251
72.0, 150.38699340820312, 183.51315307617188, 325.5152893066406, -189.57179260253906, 0.0, 0.03200000151991844, 1.055999994277954, 0.0, 0.0, 0.0, 0.0, 0.0, 1.6203129852512405E9, 2021-05-06 16:56:25.251
73.0, 148.9695587158203, 183.5168914794922, 333.9637145996094, -191.96533203125, 0.0, 0.03200000151991844, 1.055999994277954, 0.0, 0.0, 0.0, 0.0, 0.0, 1.6203129852663865E9, 2021-05-06 16:56:25.266
73.0, 144.13388061523438, 177.1964569091797, 317.5567626953125, -203.8731689453125, 0.0, 0.03200000151991844, 1.055999994277954, 0.0, 0.0, 0.0, 0.0, 0.0, 1.6203129852663865E9, 2021-05-06 16:56:25.266
74.0, 142.88101196289062, 184.09657287597656, 310.30511474609375, -196.12783813476562, 0.0, 0.03200000151991844, 1.055999994277954, 0.0, 0.0, 0.0, 0.0, 0.0, 1.6203129852671168E9, 2021-05-06 16:56:25.267
74.0, 145.56625366210938, 187.02117919921875, 321.88385009765625, -194.6393585205078, 0.0, 0.03200000151991844, 1.055999994277954, 0.0, 0.0, 0.0, 0.0, 0.0, 1.6203129852671168E9, 2021-05-06 16:56:25.267
75.0, 146.88270568847656, 181.2355499267578, 322.3176574707031, -195.84359741210938, 0.0, 0.03200000151991844, 1.055999994277954, 0.0, 0.0, 0.0, 0.0, 0.0, 1.6203129852678592E9, 2021-05-06 16:56:25.267
75.0, 146.1309814453125, 185.36439514160156, 317.19775390625, -196.3671875, 0.0, 0.03200000151991844, 1.055999994277954, 0.0, 0.0, 0.0, 0.0, 0.0, 1.6203129852678592E9, 2021-05-06 16:56:25.267
76.0, 151.254638671875, 188.2777862548828, 316.83123779296875, -196.78231811523438, 0.0, 0.03200000151991844, 1.055999994277954, 0.0, 0.0, 0.0, 0.0, 0.0, 1.620312985280167E9, 2021-05-06 16:56:25.280
76.0, 154.7776336669922, 184.80715942382812, 322.8038635253906, -201.4609375, 0.0, 0.03200000151991844, 1.055999994277954, 0.0, 0.0, 0.0, 0.0, 0.0, 1.620312985280167E9, 2021-05-06 16:56:25.280
77.0, 164.56869506835938, 183.8235626220703, 333.4775390625, -200.1444854736328, 0.0, 0.03200000151991844, 1.055999994277954, 0.0, 0.0, 0.0, 0.0, 0.0, 1.6203129852958126E9, 2021-05-06 16:56:25.295
77.0, 152.64215087890625, 191.3220672607422, 328.4174499511719, -200.03228759765625, 0.0, 0.03200000151991844, 1.055999994277954, 0.0, 0.0, 0.0, 0.0, 0.0, 1.6203129852958126E9, 2021-05-06 16:56:25.295
78.0, 156.6027069091797, 191.90548706054688, 320.1073913574219, -202.96063232421875, 0.0, 0.03200000151991844, 1.055999994277954, 0.0, 0.0, 0.0, 0.0, 0.0, 1.6203129852964847E9, 2021-05-06 16:56:25.296
78.0, 157.63491821289062, 186.17596435546875, 336.5068359375, -198.55128479003906, 0.0, 0.03200000151991844, 1.055999994277954, 0.0, 0.0, 0.0, 0.0, 0.0, 1.6203129852964847E9, 2021-05-06 16:56:25.296
79.0, 161.2102508544922, 187.66070556640625, 345.1385498046875, -197.16378784179688, 0.0, 0.03200000151991844, 1.055999994277954, 0.0, 0.0, 0.0, 0.0, 0.0, 1.62031298531012E9, 2021-05-06 16:56:25.310
79.0, 148.82745361328125, 180.33798217773438, 326.15106201171875, -199.60968017578125, 0.0, 0.03200000151991844, 1.055999994277954, 0.0, 0.0, 0.0, 0.0, 0.0, 1.62031298531012E9, 2021-05-06 16:56:25.310
80.0, 150.23365783691406, 185.50277709960938, 324.1277770996094, -190.32350158691406, 0.0, 0.03200000151991844, 1.055999994277954, 0.0, 0.0, 0.0, 0.0, 0.0, 1.6203129853258834E9, 2021-05-06 16:56:25.325
80.0, 152.88523864746094, 185.61123657226562, 329.2663879394531, -195.27513122558594, 0.0, 0.03200000151991844, 1.055999994277954, 0.0, 0.0, 0.0, 0.0, 0.0, 1.6203129853258834E9, 2021-05-06 16:56:25.325
81.0, 144.80331420898438, 179.79568481445312, 331.9105224609375, -196.4906005859375, 0.0, 0.03200000151991844, 1.055999994277954, 0.0, 0.0, 0.0, 0.0, 0.0, 1.6203129853266673E9, 2021-05-06 16:56:25.326
81.0, 151.7333526611328, 175.5883026123047, 321.8950500488281, -195.96701049804688, 0.0, 0.03200000151991844, 1.055999994277954, 0.0, 0.0, 0.0, 0.0, 0.0, 1.6203129853266673E9, 2021-05-06 16:56:25.326
82.0, 142.2601776123047, 183.04940795898438, 313.8131408691406, -197.91925048828125, 0.0, 0.03200000151991844, 1.055999994277954, 0.0, 0.0, 0.0, 0.0, 0.0, 1.620312985340142E9, 2021-05-06 16:56:25.340
82.0, 147.4362030029297, 185.37188720703125, 322.25408935546875, -198.34185791015625, 0.0, 0.03200000151991844, 1.055999994277954, 0.0, 0.0, 0.0, 0.0, 0.0, 1.620312985340142E9, 2021-05-06 16:56:25.340
83.0, 134.05857849121094, 170.56935119628906, 317.4034423828125, -208.34234619140625, 0.0, 0.03200000151991844, 1.055999994277954, 0.0, 0.0, 0.0, 0.0, 0.0, 1.6203129853559587E9, 2021-05-06 16:56:25.355
83.0, 148.23654174804688, 182.798828125, 325.82196044921875, -199.5049591064453, 0.0, 0.03200000151991844, 1.055999994277954, 0.0, 0.0, 0.0, 0.0, 0.0, 1.6203129853559587E9, 2021-05-06 16:56:25.355
84.0, 155.76123046875, 187.14085388183594, 318.39825439453125, -198.58868408203125, 0.0, 0.03200000151991844, 1.055999994277954, 0.0, 0.0, 0.0, 0.0, 0.0, 1.620312985356629E9, 2021-05-06 16:56:25.356
84.0, 143.73744201660156, 180.6296844482422, 321.87261962890625, -201.29263305664062, 0.0, 0.03200000151991844, 1.055999994277954, 0.0, 0.0, 0.0, 0.0, 0.0, 1.620312985356629E9, 2021-05-06 16:56:25.356
85.0, 146.03749084472656, 178.24737548828125, 327.69189453125, -207.5607147216797, 0.0, 0.03200000151991844, 1.055999994277954, 0.0, 0.0, 0.0, 0.0, 0.0, 1.6203129853700664E9, 2021-05-06 16:56:25.370
85.0, 147.12205505371094, 183.50567626953125, 326.3642272949219, -202.41835021972656, 0.0, 0.03200000151991844, 1.055999994277954, 0.0, 0.0, 0.0, 0.0, 0.0, 1.6203129853700664E9, 2021-05-06 16:56:25.370
86.0, 149.02940368652344, 184.33592224121094, 316.4161071777344, -203.76844787597656, 0.0, 0.03200000151991844, 1.055999994277954, 0.0, 0.0, 0.0, 0.0, 0.0, 1.6203129853857656E9, 2021-05-06 16:56:25.385
86.0, 149.32859802246094, 184.73609924316406, 325.2460021972656, -205.17091369628906, 0.0, 0.03200000151991844, 1.055999994277954, 0.0, 0.0, 0.0, 0.0, 0.0, 1.6203129853857656E9, 2021-05-06 16:56:25.385
87.0, 150.68617248535156, 181.08221435546875, 330.2051086425781, -207.74769592285156, 0.0, 0.03200000151991844, 1.055999994277954, 0.0, 0.0, 0.0, 0.0, 0.0, 1.6203129853864517E9, 2021-05-06 16:56:25.386
87.0, 155.1067352294922, 175.68179321289062, 328.2117614746094, -202.49314880371094, 0.0, 0.03200000151991844, 1.055999994277954, 0.0, 0.0, 0.0, 0.0, 0.0, 1.6203129853864517E9, 2021-05-06 16:56:25.386
88.0, 138.47914123535156, 166.0552978515625, 308.68572998046875, -213.72779846191406, 0.0, 0.03200000151991844, 1.055999994277954, 0.0, 0.0, 0.0, 0.0, 0.0, 1.6203129854171703E9, 2021-05-06 16:56:25.417
88.0, 147.92613220214844, 182.57443237304688, 331.46173095703125, -202.78485107421875, 0.0, 0.03200000151991844, 1.055999994277954, 0.0, 0.0, 0.0, 0.0, 0.0, 1.6203129854171703E9, 2021-05-06 16:56:25.417
89.0, 147.28660583496094, 171.74368286132812, 327.0262145996094, -209.5092010498047, 0.0, 0.03200000151991844, 1.055999994277954, 0.0, 0.0, 0.0, 0.0, 0.0, 1.6203129854178238E9, 2021-05-06 16:56:25.417
89.0, 155.0843048095703, 176.096923828125, 322.38873291015625, -211.7045135498047, 0.0, 0.03200000151991844, 1.055999994277954, 0.0, 0.0, 0.0, 0.0, 0.0, 1.6203129854178238E9, 2021-05-06 16:56:25.417
90.0, 130.1354217529297, 177.53305053710938, 309.5085144042969, -213.03591918945312, 0.0, 0.03200000151991844, 1.055999994277954, 0.0, 0.0, 0.0, 0.0, 0.0, 1.6203129854185512E9, 2021-05-06 16:56:25.418
90.0, 138.15377807617188, 169.42120361328125, 313.7084045410156, -212.6843719482422, 0.0, 0.03200000151991844, 1.055999994277954, 0.0, 0.0, 0.0, 0.0, 0.0, 1.6203129854185512E9, 2021-05-06 16:56:25.418
91.0, 136.2576446533203, 170.7974853515625, 318.36083984375, -215.37335205078125, 0.0, 0.03200000151991844, 1.055999994277954, 0.0, 0.0, 0.0, 0.0, 0.0, 1.6203129854300363E9, 2021-05-06 16:56:25.430
91.0, 133.63597106933594, 170.674072265625, 310.1854248046875, -216.70849609375, 0.0, 0.03200000151991844, 1.055999994277954, 0.0, 0.0, 0.0, 0.0, 0.0, 1.6203129854300363E9, 2021-05-06 16:56:25.430
92.0, 143.17645263671875, 175.0011444091797, 306.2510681152344, -212.95364379882812, 0.0, 0.03200000151991844, 1.055999994277954, 0.0, 0.0, 0.0, 0.0, 0.0, 1.6203129854458447E9, 2021-05-06 16:56:25.445
92.0, 134.892578125, 158.52688598632812, 307.96392822265625, -225.20928955078125, 0.0, 0.03200000151991844, 1.055999994277954, 0.0, 0.0, 0.0, 0.0, 0.0, 1.6203129854458447E9, 2021-05-06 16:56:25.445
93.0, 138.60630798339844, 164.12550354003906, 312.11895751953125, -221.4581756591797, 0.0, 0.03200000151991844, 1.055999994277954, 0.0, 0.0, 0.0, 0.0, 0.0, 1.620312985446429E9, 2021-05-06 16:56:25.446
93.0, 135.89488220214844, 163.71786499023438, 306.3183898925781, -228.09649658203125, 0.0, 0.03200000151991844, 1.055999994277954, 0.0, 0.0, 0.0, 0.0, 0.0, 1.620312985446429E9, 2021-05-06 16:56:25.446
94.0, 121.75057220458984, 153.97915649414062, 293.7597961425781, -233.32861328125, 0.0, 0.03200000151991844, 1.055999994277954, 0.0, 0.0, 0.0, 0.0, 0.0, 1.6203129854600296E9, 2021-05-06 16:56:25.460
94.0, 129.1855010986328, 159.97796630859375, 305.2712097167969, -231.48484802246094, 0.0, 0.03200000151991844, 1.055999994277954, 0.0, 0.0, 0.0, 0.0, 0.0, 1.6203129854600296E9, 2021-05-06 16:56:25.460
95.0, 130.7786865234375, 159.41323852539062, 310.2265625, -230.0337677001953, 0.0, 0.03200000151991844, 1.055999994277954, 0.0, 0.0, 0.0, 0.0, 0.0, 1.6203129854758096E9, 2021-05-06 16:56:25.475
95.0, 127.861572265625, 164.18161010742188, 301.998779296875, -231.7615966796875, 0.0, 0.03200000151991844, 1.055999994277954, 0.0, 0.0, 0.0, 0.0, 0.0, 1.6203129854758096E9, 2021-05-06 16:56:25.475
96.0, 127.9625473022461, 159.1925811767578, 300.1662292480469, -230.3142547607422, 0.0, 0.03200000151991844, 1.055999994277954, 0.0, 0.0, 0.0, 0.0, 0.0, 1.6203129854764345E9, 2021-05-06 16:56:25.476
96.0, 134.71307373046875, 157.6592254638672, 308.98492431640625, -229.95896911621094, 0.0, 0.03200000151991844, 1.055999994277954, 0.0, 0.0, 0.0, 0.0, 0.0, 1.6203129854764345E9, 2021-05-06 16:56:25.476
97.0, 115.91259002685547, 156.2156219482422, 311.3634948730469, -230.14222717285156, 0.0, 0.03200000151991844, 1.055999994277954, 0.0, 0.0, 0.0, 0.0, 0.0, 1.6203129854900079E9, 2021-05-06 16:56:25.490
97.0, 114.87289428710938, 152.8721466064453, 299.2275390625, -228.14137268066406, 0.0, 0.03200000151991844, 1.055999994277954, 0.0, 0.0, 0.0, 0.0, 0.0, 1.6203129854900079E9, 2021-05-06 16:56:25.490
98.0, 123.3063735961914, 157.1019744873047, 296.23187255859375, -224.34912109375, 0.0, 0.03200000151991844, 1.055999994277954, 0.0, 0.0, 0.0, 0.0, 0.0, 1.6203129855057425E9, 2021-05-06 16:56:25.505
98.0, 125.66625213623047, 151.0919647216797, 299.122802734375, -230.52743530273438, 0.0, 0.03200000151991844, 1.055999994277954, 0.0, 0.0, 0.0, 0.0, 0.0, 1.6203129855057425E9, 2021-05-06 16:56:25.505
99.0, 117.76010131835938, 150.56463623046875, 300.8730773925781, -226.22280883789062, 0.0, 0.03200000151991844, 1.055999994277954, 0.0, 0.0, 0.0, 0.0, 0.0, 1.6203129855064087E9, 2021-05-06 16:56:25.506
99.0, 119.28971862792969, 156.74295043945312, 298.6814880371094, -221.2412567138672, 0.0, 0.03200000151991844, 1.055999994277954, 0.0, 0.0, 0.0, 0.0, 0.0, 1.6203129855064087E9, 2021-05-06 16:56:25.506
100.0, 124.53679656982422, 155.81544494628906, 297.1444091796875, -225.12701416015625, 0.0, 0.03200000151991844, 1.055999994277954, 0.0, 0.0, 0.0, 0.0, 0.0, 1.6203129855207455E9, 2021-05-06 16:56:25.520
100.0, 127.5436782836914, 160.25845336914062, 297.54083251953125, -227.5205535888672, 0.0, 0.03200000151991844, 1.055999994277954, 0.0, 0.0, 0.0, 0.0, 0.0, 1.6203129855207455E9, 2021-05-06 16:56:25.520
0.0, 135.64056396484375, 169.41934204101562, 312.9136962890625, -218.76731872558594, 0.0, 0.03200000151991844, 1.055999994277954, 0.0, 0.0, 0.0, 0.0, 0.0, 1.6203129855214608E9, 2021-05-06 16:56:25.521
1.0, 119.48045349121094, 162.22377014160156, 301.55560302734375, -225.89930725097656, 0.0, 0.03200000151991844, 1.055999994277954, 0.0, 0.0, 0.0, 0.0, 0.0, 1.6203129855349932E9, 2021-05-06 16:56:25.534
1.0, 143.4158172607422, 152.6571044921875, 297.04156494140625, -229.75140380859375, 0.0, 0.03200000151991844, 1.055999994277954, 0.0, 0.0, 0.0, 0.0, 0.0, 1.6203129855349932E9, 2021-05-06 16:56:25.534
2.0, 131.76602172851562, 166.84254455566406, 311.0549621582031, -219.25350952148438, 0.0, 0.03200000151991844, 1.055999994277954, 0.0, 0.0, 0.0, 0.0, 0.0, 1.620312985550821E9, 2021-05-06 16:56:25.550
2.0, 142.55563354492188, 175.73228454589844, 322.8506164550781, -209.09219360351562, 0.0, 0.03200000151991844, 1.055999994277954, 0.0, 0.0, 0.0, 0.0, 0.0, 1.620312985550821E9, 2021-05-06 16:56:25.550
3.0, 142.77255249023438, 176.91409301757812, 320.3336486816406, -212.11402893066406, 0.0, 0.03200000151991844, 1.055999994277954, 0.0, 0.0, 0.0, 0.0, 0.0, 1.620312985551505E9, 2021-05-06 16:56:25.551
3.0, 145.03518676757812, 189.74195861816406, 320.55804443359375, -199.60780334472656, 0.0, 0.03200000151991844, 1.055999994277954, 0.0, 0.0, 0.0, 0.0, 0.0, 1.620312985551505E9, 2021-05-06 16:56:25.551
4.0, 149.9082794189453, 187.0006103515625, 325.8948669433594, -199.0393524169922, 0.0, 0.03200000151991844, 1.055999994277954, 0.0, 0.0, 0.0, 0.0, 0.0, 1.6203129855650604E9, 2021-05-06 16:56:25.565
4.0, 154.9010467529297, 187.91688537597656, 330.50616455078125, -197.48728942871094, 0.0, 0.03200000151991844, 1.055999994277954, 0.0, 0.0, 0.0, 0.0, 0.0, 1.6203129855650604E9, 2021-05-06 16:56:25.565
5.0, 158.99249267578125, 193.23875427246094, 332.7426452636719, -193.17144775390625, 0.0, 0.03200000151991844, 1.055999994277954, 0.0, 0.0, 0.0, 0.0, 0.0, 1.620312985580736E9, 2021-05-06 16:56:25.580
5.0, 158.98875427246094, 202.31924438476562, 332.35369873046875, -195.6510009765625, 0.0, 0.03200000151991844, 1.055999994277954, 0.0, 0.0, 0.0, 0.0, 0.0, 1.620312985580736E9, 2021-05-06 16:56:25.580
6.0, 165.15585327148438, 199.85464477539062, 342.5561218261719, -195.2620391845703, 0.0, 0.03200000151991844, 1.055999994277954, 0.0, 0.0, 0.0, 0.0, 0.0, 1.6203129855814877E9, 2021-05-06 16:56:25.581
6.0, 166.0983123779297, 199.9668426513672, 350.0733337402344, -195.76693725585938, 0.0, 0.03200000151991844, 1.055999994277954, 0.0, 0.0, 0.0, 0.0, 0.0, 1.6203129855814877E9, 2021-05-06 16:56:25.581
7.0, 166.6854705810547, 202.49874877929688, 348.4651794433594, -188.29461669921875, 0.0, 0.03200000151991844, 1.055999994277954, 0.0, 0.0, 0.0, 0.0, 0.0, 1.6203129855950334E9, 2021-05-06 16:56:25.595
7.0, 166.2666015625, 191.1519012451172, 335.48773193359375, -186.35360717773438, 0.0, 0.03200000151991844, 1.055999994277954, 0.0, 0.0, 0.0, 0.0, 0.0, 1.6203129855950334E9, 2021-05-06 16:56:25.595
8.0, 170.31690979003906, 194.05406188964844, 343.1956481933594, -187.26614379882812, 0.0, 0.03200000151991844, 1.055999994277954, 0.0, 0.0, 0.0, 0.0, 0.0, 1.6203129856108267E9, 2021-05-06 16:56:25.610
8.0, 162.94557189941406, 202.5548553466797, 348.6895751953125, -180.22764587402344, 0.0, 0.03200000151991844, 1.055999994277954, 0.0, 0.0, 0.0, 0.0, 0.0, 1.6203129856108267E9, 2021-05-06 16:56:25.610
9.0, 159.55348205566406, 193.81471252441406, 332.23028564453125, -186.9220733642578, 0.0, 0.03200000151991844, 1.055999994277954, 0.0, 0.0, 0.0, 0.0, 0.0, 1.62031298561144E9, 2021-05-06 16:56:25.611
9.0, 155.34983825683594, 189.94390869140625, 318.2729797363281, -194.31585693359375, 0.0, 0.03200000151991844, 1.055999994277954, 0.0, 0.0, 0.0, 0.0, 0.0, 1.62031298561144E9, 2021-05-06 16:56:25.611
10.0, 158.57736206054688, 181.37205505371094, 329.23834228515625, -198.67657470703125, 0.0, 0.03200000151991844, 1.055999994277954, 0.0, 0.0, 0.0, 0.0, 0.0, 1.620312985625E9, 2021-05-06 16:56:25.625
10.0, 154.4373016357422, 175.47048950195312, 333.142822265625, -202.6782684326172, 0.0, 0.03200000151991844, 1.055999994277954, 0.0, 0.0, 0.0, 0.0, 0.0, 1.620312985625E9, 2021-05-06 16:56:25.625
11.0, 149.75120544433594, 180.4370880126953, 325.6181335449219, -205.6888885498047, 0.0, 0.03200000151991844, 1.055999994277954, 0.0, 0.0, 0.0, 0.0, 0.0, 1.6203129856407435E9, 2021-05-06 16:56:25.640
11.0, 147.46238708496094, 176.8617401123047, 321.1264953613281, -211.43338012695312, 0.0, 0.03200000151991844, 1.055999994277954, 0.0, 0.0, 0.0, 0.0, 0.0, 1.6203129856407435E9, 2021-05-06 16:56:25.640
12.0, 154.12689208984375, 175.15260314941406, 333.6589050292969, -210.70408630371094, 0.0, 0.03200000151991844, 1.055999994277954, 0.0, 0.0, 0.0, 0.0, 0.0, 1.6203129856414347E9, 2021-05-06 16:56:25.641
12.0, 145.26332092285156, 173.8174591064453, 341.277099609375, -207.8542938232422, 0.0, 0.03200000151991844, 1.055999994277954, 0.0, 0.0, 0.0, 0.0, 0.0, 1.6203129856414347E9, 2021-05-06 16:56:25.641
13.0, 137.33099365234375, 167.885986328125, 320.67022705078125, -216.65428161621094, 0.0, 0.03200000151991844, 1.055999994277954, 0.0, 0.0, 0.0, 0.0, 0.0, 1.620312985655026E9, 2021-05-06 16:56:25.655
13.0, 144.1675262451172, 174.50933837890625, 322.0465393066406, -209.53350830078125, 0.0, 0.03200000151991844, 1.055999994277954, 0.0, 0.0, 0.0, 0.0, 0.0, 1.620312985655026E9, 2021-05-06 16:56:25.655
14.0, 133.54995727539062, 161.87222290039062, 325.43487548828125, -216.8412628173828, 0.0, 0.03200000151991844, 1.055999994277954, 0.0, 0.0, 0.0, 0.0, 0.0, 1.6203129856711361E9, 2021-05-06 16:56:25.671
14.0, 129.9708709716797, 159.575927734375, 325.9060974121094, -219.6873321533203, 0.0, 0.03200000151991844, 1.055999994277954, 0.0, 0.0, 0.0, 0.0, 0.0, 1.6203129856711361E9, 2021-05-06 16:56:25.671
15.0, 110.68795013427734, 153.132080078125, 309.4879455566406, -229.4821319580078, 0.0, 0.03200000151991844, 1.055999994277954, 0.0, 0.0, 0.0, 0.0, 0.0, 1.6203129856857772E9, 2021-05-06 16:56:25.685
15.0, 120.7594985961914, 160.46975708007812, 311.417724609375, -222.49600219726562, 0.0, 0.03200000151991844, 1.055999994277954, 0.0, 0.0, 0.0, 0.0, 0.0, 1.6203129856857772E9, 2021-05-06 16:56:25.685
16.0, 116.74658966064453, 154.4036407470703, 315.7447814941406, -222.00233459472656, 0.0, 0.03200000151991844, 1.055999994277954, 0.0, 0.0, 0.0, 0.0, 0.0, 1.6203129856864684E9, 2021-05-06 16:56:25.686
16.0, 107.59505462646484, 156.1763458251953, 317.41278076171875, -222.95974731445312, 0.0, 0.03200000151991844, 1.055999994277954, 0.0, 0.0, 0.0, 0.0, 0.0, 1.6203129856864684E9, 2021-05-06 16:56:25.686
17.0, 108.43653106689453, 154.37371826171875, 308.18646240234375, -225.4019012451172, 0.0, 0.03200000151991844, 1.055999994277954, 0.0, 0.0, 0.0, 0.0, 0.0, 1.620312985700806E9, 2021-05-06 16:56:25.700
17.0, 118.0854721069336, 158.70826721191406, 298.6833801269531, -223.77877807617188, 0.0, 0.03200000151991844, 1.055999994277954, 0.0, 0.0, 0.0, 0.0, 0.0, 1.620312985700806E9, 2021-05-06 16:56:25.700
18.0, 126.17487335205078, 158.40907287597656, 314.20770263671875, -216.9684295654297, 0.0, 0.03200000151991844, 1.055999994277954, 0.0, 0.0, 0.0, 0.0, 0.0, 1.6203129857014704E9, 2021-05-06 16:56:25.701
18.0, 114.05011749267578, 155.31617736816406, 314.304931640625, -224.35472106933594, 0.0, 0.03200000151991844, 1.055999994277954, 0.0, 0.0, 0.0, 0.0, 0.0, 1.6203129857014704E9, 2021-05-06 16:56:25.701
19.0, 120.94649505615234, 151.27334594726562, 306.0809020996094, -225.31214904785156, 0.0, 0.03200000151991844, 1.055999994277954, 0.0, 0.0, 0.0, 0.0, 0.0, 1.6203129857150552E9, 2021-05-06 16:56:25.715
19.0, 124.25630950927734, 161.8946533203125, 302.2400207519531, -215.38644409179688, 0.0, 0.03200000151991844, 1.055999994277954, 0.0, 0.0, 0.0, 0.0, 0.0, 1.6203129857150552E9, 2021-05-06 16:56:25.715
20.0, 133.5275115966797, 162.5379180908203, 307.8947448730469, -216.05215454101562, 0.0, 0.03200000151991844, 1.055999994277954, 0.0, 0.0, 0.0, 0.0, 0.0, 1.6203129857307959E9, 2021-05-06 16:56:25.730
20.0, 149.4370574951172, 176.70840454101562, 326.78125, -208.46389770507812, 0.0, 0.03200000151991844, 1.055999994277954, 0.0, 0.0, 0.0, 0.0, 0.0, 1.6203129857307959E9, 2021-05-06 16:56:25.730
21.0, 149.93820190429688, 171.102294921875, 320.1092529296875, -210.0645751953125, 0.0, 0.03200000151991844, 1.055999994277954, 0.0, 0.0, 0.0, 0.0, 0.0, 1.6203129857314773E9, 2021-05-06 16:56:25.731
21.0, 163.74964904785156, 182.72216796875, 324.4325866699219, -208.3666534423828, 0.0, 0.03200000151991844, 1.055999994277954, 0.0, 0.0, 0.0, 0.0, 0.0, 1.6203129857314773E9, 2021-05-06 16:56:25.731
22.0, 168.86582946777344, 195.1722869873047, 348.225830078125, -189.85789489746094, 0.0, 0.03200000151991844, 1.055999994277954, 0.0, 0.0, 0.0, 0.0, 0.0, 1.6203129857450445E9, 2021-05-06 16:56:25.745
22.0, 170.79562377929688, 194.7122802734375, 350.7016296386719, -188.6050262451172, 0.0, 0.03200000151991844, 1.055999994277954, 0.0, 0.0, 0.0, 0.0, 0.0, 1.6203129857450445E9, 2021-05-06 16:56:25.745
23.0, 168.92193603515625, 195.92774963378906, 344.9459228515625, -192.11305236816406, 0.0, 0.03200000151991844, 1.055999994277954, 0.0, 0.0, 0.0, 0.0, 0.0, 1.6203129857607317E9, 2021-05-06 16:56:25.760
23.0, 181.34588623046875, 213.39682006835938, 347.21978759765625, -179.77511596679688, 0.0, 0.03200000151991844, 1.055999994277954, 0.0, 0.0, 0.0, 0.0, 0.0, 1.6203129857607317E9, 2021-05-06 16:56:25.760
24.0, 194.9553680419922, 227.5336456298828, 370.6278381347656, -164.25079345703125, 0.0, 0.03200000151991844, 1.055999994277954, 0.0, 0.0, 0.0, 0.0, 0.0, 1.6203129857614126E9, 2021-05-06 16:56:25.761
24.0, 182.11630249023438, 216.04092407226562, 367.2806091308594, -171.3865203857422, 0.0, 0.03200000151991844, 1.055999994277954, 0.0, 0.0, 0.0, 0.0, 0.0, 1.6203129857614126E9, 2021-05-06 16:56:25.761
25.0, 186.3573455810547, 225.30465698242188, 367.7593078613281, -165.11471557617188, 0.0, 0.03200000151991844, 1.055999994277954, 0.0, 0.0, 0.0, 0.0, 0.0, 1.6203129857751386E9, 2021-05-06 16:56:25.775
25.0, 204.7090301513672, 229.99449157714844, 373.1036376953125, -150.68243408203125, 0.0, 0.03200000151991844, 1.055999994277954, 0.0, 0.0, 0.0, 0.0, 0.0, 1.6203129857751386E9, 2021-05-06 16:56:25.775
26.0, 193.92689514160156, 220.2857208251953, 370.949462890625, -156.69993591308594, 0.0, 0.03200000151991844, 1.055999994277954, 0.0, 0.0, 0.0, 0.0, 0.0, 1.6203129857908065E9, 2021-05-06 16:56:25.790
26.0, 183.74314880371094, 217.2227325439453, 369.7713928222656, -162.26116943359375, 0.0, 0.03200000151991844, 1.055999994277954, 0.0, 0.0, 0.0, 0.0, 0.0, 1.6203129857908065E9, 2021-05-06 16:56:25.790
27.0, 174.22885131835938, 199.27496337890625, 350.99334716796875, -177.6658172607422, 0.0, 0.03200000151991844, 1.055999994277954, 0.0, 0.0, 0.0, 0.0, 0.0, 1.6203129857914598E9, 2021-05-06 16:56:25.791
27.0, 176.64108276367188, 201.92654418945312, 346.7373352050781, -177.62094116210938, 0.0, 0.03200000151991844, 1.055999994277954, 0.0, 0.0, 0.0, 0.0, 0.0, 1.6203129857914598E9, 2021-05-06 16:56:25.791
28.0, 165.07357788085938, 192.8011932373047, 343.9286804199219, -179.7115478515625, 0.0, 0.03200000151991844, 1.055999994277954, 0.0, 0.0, 0.0, 0.0, 0.0, 1.6203129858050344E9, 2021-05-06 16:56:25.805
28.0, 151.78944396972656, 176.97393798828125, 332.6790466308594, -196.67198181152344, 0.0, 0.03200000151991844, 1.055999994277954, 0.0, 0.0, 0.0, 0.0, 0.0, 1.6203129858050344E9, 2021-05-06 16:56:25.805
29.0, 137.9817352294922, 170.3430938720703, 323.2021484375, -199.97805786132812, 0.0, 0.03200000151991844, 1.055999994277954, 0.0, 0.0, 0.0, 0.0, 0.0, 1.6203129858207304E9, 2021-05-06 16:56:25.820
29.0, 133.93890380859375, 161.0606689453125, 311.9936828613281, -210.094482421875, 0.0, 0.03200000151991844, 1.055999994277954, 0.0, 0.0, 0.0, 0.0, 0.0, 1.6203129858207304E9, 2021-05-06 16:56:25.820
30.0, 123.79629516601562, 155.17031860351562, 309.1924743652344, -221.3777618408203, 0.0, 0.03200000151991844, 1.055999994277954, 0.0, 0.0, 0.0, 0.0, 0.0, 1.62031298582141E9, 2021-05-06 16:56:25.821
30.0, 108.2308349609375, 138.01165771484375, 299.726806640625, -245.17849731445312, 0.0, 0.03200000151991844, 1.055999994277954, 0.0, 0.0, 0.0, 0.0, 0.0, 1.62031298582141E9, 2021-05-06 16:56:25.821
31.0, 93.22635650634766, 131.43692016601562, 284.4380798339844, -250.99777221679688, 0.0, 0.03200000151991844, 1.055999994277954, 0.0, 0.0, 0.0, 0.0, 0.0, 1.6203129858350363E9, 2021-05-06 16:56:25.835
31.0, 82.30584716796875, 124.86591339111328, 267.5412292480469, -266.1742858886719, 0.0, 0.03200000151991844, 1.055999994277954, 0.0, 0.0, 0.0, 0.0, 0.0, 1.6203129858350363E9, 2021-05-06 16:56:25.835
32.0, 77.29438018798828, 113.76214599609375, 269.2316589355469, -284.30157470703125, 0.01600000075995922, 0.03200000151991844, 1.055999994277954, 0.0, 0.0, 0.0, 0.0, 0.0, 1.6203129858508182E9, 2021-05-06 16:56:25.850
32.0, 54.48099136352539, 104.0758056640625, 259.7734375, -295.4090881347656, 0.01600000075995922, 0.03200000151991844, 1.055999994277954, 0.0, 0.0, 0.0, 0.0, 0.0, 1.6203129858508182E9, 2021-05-06 16:56:25.850
33.0, 40.62092208862305, 90.38777160644531, 246.2125701904297, -309.31402587890625, 0.01600000075995922, 0.03200000151991844, 1.055999994277954, 0.0, 0.0, 0.0, 0.0, 0.0, 1.6203129858514843E9, 2021-05-06 16:56:25.851
33.0, 37.07175827026367, 87.39958953857422, 231.49606323242188, -316.2141418457031, 0.01600000075995922, 0.03200000151991844, 1.055999994277954, 0.0, 0.0, 0.0, 0.0, 0.0, 1.6203129858514843E9, 2021-05-06 16:56:25.851
34.0, 33.01022720336914, 81.43070983886719, 232.38616943359375, -320.3392639160156, 0.01600000075995922, 0.03200000151991844, 1.055999994277954, 0.0, 0.0, 0.0, 0.0, 0.0, 1.620312985865032E9, 2021-05-06 16:56:25.865
34.0, 20.844331741333008, 84.0822982788086, 238.14187622070312, -307.96392822265625, 0.01600000075995922, 0.03200000151991844, 1.055999994277954, 0.0, 0.0, 0.0, 0.0, 0.0, 1.620312985865032E9, 2021-05-06 16:56:25.865
35.0, 30.104324340820312, 89.23588562011719, 232.80877685546875, -299.47808837890625, 0.01600000075995922, 0.03200000151991844, 1.055999994277954, 0.0, 0.0, 0.0, 0.0, 0.0, 1.6203129858815832E9, 2021-05-06 16:56:25.881
35.0, 48.50837326049805, 101.3830795288086, 241.07394409179688, -282.2259521484375, 0.01600000075995922, 0.03200000151991844, 1.055999994277954, 0.0, 0.0, 0.0, 0.0, 0.0, 1.6203129858815832E9, 2021-05-06 16:56:25.881
36.0, 57.042823791503906, 109.4388198852539, 255.27061462402344, -272.150634765625, 0.01600000075995922, 0.03200000151991844, 1.055999994277954, 0.0, 0.0, 0.0, 0.0, 0.0, 1.6203129858821576E9, 2021-05-06 16:56:25.882
36.0, 74.41091918945312, 123.35498809814453, 273.24456787109375, -254.75637817382812, 0.01600000075995922, 0.03200000151991844, 1.055999994277954, 0.0, 0.0, 0.0, 0.0, 0.0, 1.6203129858821576E9, 2021-05-06 16:56:25.882
37.0, 84.5049057006836, 138.98028564453125, 278.5514831542969, -242.37730407714844, 0.01600000075995922, 0.03200000151991844, 1.055999994277954, 0.0, 0.0, 0.0, 0.0, 0.0, 1.6203129858950324E9, 2021-05-06 16:56:25.895
37.0, 98.4547348022461, 156.84205627441406, 287.78155517578125, -223.00088500976562, 0.01600000075995922, 0.03200000151991844, 1.055999994277954, 0.0, 0.0, 0.0, 0.0, 0.0, 1.6203129858950324E9, 2021-05-06 16:56:25.895
38.0, 124.25630950927734, 180.68765258789062, 307.6254577636719, -207.2970428466797, 0.01600000075995922, 0.03200000151991844, 1.055999994277954, 0.0, 0.0, 0.0, 0.0, 0.0, 1.6203129859107332E9, 2021-05-06 16:56:25.910
38.0, 130.7338104248047, 193.70999145507812, 327.34222412109375, -196.59344482421875, 0.01600000075995922, 0.03200000151991844, 1.055999994277954, 0.0, 0.0, 0.0, 0.0, 0.0, 1.6203129859107332E9, 2021-05-06 16:56:25.910
39.0, 126.78821563720703, 180.96441650390625, 320.8796691894531, -200.4904327392578, 0.01600000075995922, 0.03200000151991844, 1.055999994277954, 0.0, 0.0, 0.0, 0.0, 0.0, 1.6203129859115176E9, 2021-05-06 16:56:25.911
39.0, 145.56251525878906, 204.23033142089844, 325.8088684082031, -192.37110900878906, 0.01600000075995922, 0.03200000151991844, 1.055999994277954, 0.0, 0.0, 0.0, 0.0, 0.0, 1.6203129859115176E9, 2021-05-06 16:56:25.911
40.0, 159.6993408203125, 193.21632385253906, 335.3343811035156, -189.59983825683594, 0.01600000075995922, 0.03200000151991844, 1.055999994277954, 0.0, 0.0, 0.0, 0.0, 0.0, 1.6203129859250524E9, 2021-05-06 16:56:25.925
40.0, 149.29867553710938, 200.80458068847656, 345.7238464355469, -192.9395751953125, 0.01600000075995922, 0.03200000151991844, 1.055999994277954, 0.0, 0.0, 0.0, 0.0, 0.0, 1.6203129859250524E9, 2021-05-06 16:56:25.925
41.0, 155.491943359375, 203.84512329101562, 341.82684326171875, -194.46170043945312, 0.01600000075995922, 0.03200000151991844, 1.055999994277954, 0.0, 0.0, 0.0, 0.0, 0.0, 1.62031298594078E9, 2021-05-06 16:56:25.940
41.0, 155.4134063720703, 202.9849395751953, 334.8968200683594, -194.40187072753906, 0.01600000075995922, 0.03200000151991844, 1.055999994277954, 0.0, 0.0, 0.0, 0.0, 0.0, 1.62031298594078E9, 2021-05-06 16:56:25.940
42.0, 170.95643615722656, 211.1940155029297, 350.9671630859375, -190.69937133789062, 0.0, 0.03200000151991844, 1.055999994277954, 0.0, 0.0, 0.0, 0.0, 0.0, 1.6203129859414344E9, 2021-05-06 16:56:25.941
42.0, 162.9119110107422, 208.0225830078125, 361.6109313964844, -193.8708038330078, 0.0, 0.03200000151991844, 1.055999994277954, 0.0, 0.0, 0.0, 0.0, 0.0, 1.6203129859414344E9, 2021-05-06 16:56:25.941
43.0, 165.679443359375, 211.31744384765625, 353.32330322265625, -189.93643188476562, 0.0, 0.03200000151991844, 1.055999994277954, 0.0, 0.0, 0.0, 0.0, 0.0, 1.6203129859550843E9, 2021-05-06 16:56:25.955
43.0, 163.62623596191406, 209.6681365966797, 347.5264587402344, -184.86512756347656, 0.0, 0.03200000151991844, 1.055999994277954, 0.0, 0.0, 0.0, 0.0, 0.0, 1.6203129859550843E9, 2021-05-06 16:56:25.955
44.0, 163.97030639648438, 207.6859893798828, 351.3187255859375, -190.94619750976562, 0.0, 0.03200000151991844, 1.055999994277954, 0.0, 0.0, 0.0, 0.0, 0.0, 1.620312985970739E9, 2021-05-06 16:56:25.970
44.0, 152.275634765625, 190.70310974121094, 349.0934753417969, -196.10726928710938, 0.0, 0.03200000151991844, 1.055999994277954, 0.0, 0.0, 0.0, 0.0, 0.0, 1.620312985970739E9, 2021-05-06 16:56:25.970
45.0, 151.2172393798828, 190.27676391601562, 341.55010986328125, -200.28099060058594, 0.0, 0.03200000151991844, 1.055999994277954, 0.0, 0.0, 0.0, 0.0, 0.0, 1.620312985971429E9, 2021-05-06 16:56:25.971
45.0, 141.02227783203125, 190.28050231933594, 326.5157165527344, -199.57415771484375, 0.0, 0.03200000151991844, 1.055999994277954, 0.0, 0.0, 0.0, 0.0, 0.0, 1.620312985971429E9, 2021-05-06 16:56:25.971
46.0, 137.697509765625, 184.43878173828125, 325.6854553222656, -205.07554626464844, 0.0, 0.03200000151991844, 1.055999994277954, 0.0, 0.0, 0.0, 0.0, 0.0, 1.6203129859850335E9, 2021-05-06 16:56:25.985
46.0, 136.77749633789062, 167.73263549804688, 321.18634033203125, -215.19944763183594, 0.0, 0.03200000151991844, 1.055999994277954, 0.0, 0.0, 0.0, 0.0, 0.0, 1.6203129859850335E9, 2021-05-06 16:56:25.985
47.0, 123.99825286865234, 163.297119140625, 310.3032531738281, -221.53109741210938, 0.0, 0.03200000151991844, 1.055999994277954, 0.0, 0.0, 0.0, 0.0, 0.0, 1.620312986001407E9, 2021-05-06 16:56:26.001
47.0, 125.15013885498047, 165.53732299804688, 297.3669128417969, -226.3892364501953, 0.0, 0.03200000151991844, 1.055999994277954, 0.0, 0.0, 0.0, 0.0, 0.0, 1.620312986001407E9, 2021-05-06 16:56:26.001
48.0, 116.6830062866211, 152.0250701904297, 297.7708435058594, -239.7332000732422, 0.0, 0.03200000151991844, 1.055999994277954, 0.0, 0.0, 0.0, 0.0, 0.0, 1.6203129860021832E9, 2021-05-06 16:56:26.002
48.0, 121.36162567138672, 160.69415283203125, 307.8648376464844, -234.62449645996094, 0.0, 0.03200000151991844, 1.055999994277954, 0.0, 0.0, 0.0, 0.0, 0.0, 1.6203129860021832E9, 2021-05-06 16:56:26.002
49.0, 116.62690734863281, 157.73214721679688, 299.24810791015625, -237.7099151611328, 0.0, 0.03200000151991844, 1.055999994277954, 0.0, 0.0, 0.0, 0.0, 0.0, 1.620312986015185E9, 2021-05-06 16:56:26.015
49.0, 121.69447326660156, 161.5543212890625, 293.458740234375, -239.12733459472656, 0.0, 0.03200000151991844, 1.055999994277954, 0.0, 0.0, 0.0, 0.0, 0.0, 1.620312986015185E9, 2021-05-06 16:56:26.015
50.0, 134.6307830810547, 175.7659454345703, 312.51727294921875, -229.74766540527344, 0.0, 0.03200000151991844, 1.055999994277954, 0.0, 0.0, 0.0, 0.0, 0.0, 1.6203129860307744E9, 2021-05-06 16:56:26.030
50.0, 132.89547729492188, 162.72865295410156, 322.2260437011719, -227.6907196044922, 0.0, 0.03200000151991844, 1.055999994277954, 0.0, 0.0, 0.0, 0.0, 0.0, 1.6203129860307744E9, 2021-05-06 16:56:26.030
51.0, 135.44235229492188, 174.64772033691406, 317.24822998046875, -225.72352600097656, 0.0, 0.03200000151991844, 1.055999994277954, 0.0, 0.0, 0.0, 0.0, 0.0, 1.6203129860314221E9, 2021-05-06 16:56:26.031
51.0, 142.24896240234375, 180.73252868652344, 316.0439758300781, -224.7810821533203, 0.0, 0.03200000151991844, 1.055999994277954, 0.0, 0.0, 0.0, 0.0, 0.0, 1.6203129860314221E9, 2021-05-06 16:56:26.031
52.0, 151.6398468017578, 189.32308959960938, 335.854248046875, -214.62350463867188, 0.0, 0.03200000151991844, 1.055999994277954, 0.0, 0.0, 0.0, 0.0, 0.0, 1.6203129860450325E9, 2021-05-06 16:56:26.045
52.0, 149.84095764160156, 182.48280334472656, 339.6614685058594, -211.81484985351562, 0.0, 0.03200000151991844, 1.055999994277954, 0.0, 0.0, 0.0, 0.0, 0.0, 1.6203129860450325E9, 2021-05-06 16:56:26.045
53.0, 153.53224182128906, 175.44432067871094, 324.30169677734375, -213.56137084960938, 0.0, 0.03200000151991844, 1.055999994277954, 0.0, 0.0, 0.0, 0.0, 0.0, 1.6203129860607572E9, 2021-05-06 16:56:26.060
53.0, 150.07656860351562, 187.83834838867188, 324.07354736328125, -201.5937042236328, 0.0, 0.03200000151991844, 1.055999994277954, 0.0, 0.0, 0.0, 0.0, 0.0, 1.6203129860607572E9, 2021-05-06 16:56:26.060
54.0, 145.34185791015625, 179.71902465820312, 325.1805725097656, -204.6678924560547, 0.0, 0.03200000151991844, 1.055999994277954, 0.0, 0.0, 0.0, 0.0, 0.0, 1.6203129860614715E9, 2021-05-06 16:56:26.061
54.0, 142.11807250976562, 178.07720947265625, 326.347412109375, -204.6753692626953, 0.0, 0.03200000151991844, 1.055999994277954, 0.0, 0.0, 0.0, 0.0, 0.0, 1.6203129860614715E9, 2021-05-06 16:56:26.061
55.0, 137.6451416015625, 173.32005310058594, 314.04315185546875, -202.11727905273438, 0.0, 0.03200000151991844, 1.055999994277954, 0.0, 0.0, 0.0, 0.0, 0.0, 1.6203129860750492E9, 2021-05-06 16:56:26.075
55.0, 142.30880737304688, 168.49932861328125, 306.3389587402344, -202.60720825195312, 0.0, 0.03200000151991844, 1.055999994277954, 0.0, 0.0, 0.0, 0.0, 0.0, 1.6203129860750492E9, 2021-05-06 16:56:26.075
56.0, 142.71644592285156, 172.34019470214844, 312.4836120605469, -203.76658630371094, 0.0, 0.03200000151991844, 1.055999994277954, 0.0, 0.0, 0.0, 0.0, 0.0, 1.62031298609076E9, 2021-05-06 16:56:26.090
56.0, 154.34005737304688, 174.834716796875, 326.7101745605469, -205.08676147460938, 0.0, 0.03200000151991844, 1.055999994277954, 0.0, 0.0, 0.0, 0.0, 0.0, 1.62031298609076E9, 2021-05-06 16:56:26.090
57.0, 139.69834899902344, 175.48919677734375, 309.2298889160156, -215.7492218017578, 0.0, 0.03200000151991844, 1.055999994277954, 0.0, 0.0, 0.0, 0.0, 0.0, 1.6203129860913959E9, 2021-05-06 16:56:26.091
57.0, 144.03289794921875, 179.44227600097656, 308.3996276855469, -211.39971923828125, 0.0, 0.03200000151991844, 1.055999994277954, 0.0, 0.0, 0.0, 0.0, 0.0, 1.6203129860913959E9, 2021-05-06 16:56:26.091
58.0, 151.62115478515625, 181.1065216064453, 315.8233337402344, -207.78697204589844, 0.0, 0.03200000151991844, 1.055999994277954, 0.0, 0.0, 0.0, 0.0, 0.0, 1.6203129861050408E9, 2021-05-06 16:56:26.105
58.0, 147.77279663085938, 173.83616638183594, 318.6170349121094, -210.11692810058594, 0.0, 0.03200000151991844, 1.055999994277954, 0.0, 0.0, 0.0, 0.0, 0.0, 1.6203129861050408E9, 2021-05-06 16:56:26.105
59.0, 144.65371704101562, 174.56544494628906, 317.4090576171875, -213.24722290039062, 0.0, 0.03200000151991844, 1.055999994277954, 0.0, 0.0, 0.0, 0.0, 0.0, 1.6203129861207688E9, 2021-05-06 16:56:26.120
59.0, 143.98428344726562, 193.47438049316406, 316.07763671875, -208.77804565429688, 0.0, 0.03200000151991844, 1.055999994277954, 0.0, 0.0, 0.0, 0.0, 0.0, 1.6203129861207688E9, 2021-05-06 16:56:26.120
60.0, 152.45889282226562, 194.2896728515625, 329.4477844238281, -207.723388671875, 0.0, 0.03200000151991844, 1.055999994277954, 0.0, 0.0, 0.0, 0.0, 0.0, 1.62031298612145E9, 2021-05-06 16:56:26.121
60.0, 141.99464416503906, 184.56967163085938, 335.48773193359375, -208.94259643554688, 0.0, 0.03200000151991844, 1.055999994277954, 0.0, 0.0, 0.0, 0.0, 0.0, 1.62031298612145E9, 2021-05-06 16:56:26.121
61.0, 134.1745147705078, 183.1410369873047, 324.4849548339844, -216.97964477539062, 0.0, 0.03200000151991844, 1.055999994277954, 0.0, 0.0, 0.0, 0.0, 0.0, 1.620312986135026E9, 2021-05-06 16:56:26.135
61.0, 149.19769287109375, 188.3058319091797, 327.2412414550781, -211.22393798828125, 0.0, 0.03200000151991844, 1.055999994277954, 0.0, 0.0, 0.0, 0.0, 0.0, 1.620312986135026E9, 2021-05-06 16:56:26.135
62.0, 151.92408752441406, 190.66944885253906, 338.0158996582031, -210.72279357910156, 0.0, 0.03200000151991844, 1.055999994277954, 0.0, 0.0, 0.0, 0.0, 0.0, 1.6203129861507344E9, 2021-05-06 16:56:26.150
62.0, 148.1168670654297, 181.0990447998047, 349.8676452636719, -208.07119750976562, 0.0, 0.03200000151991844, 1.055999994277954, 0.0, 0.0, 0.0, 0.0, 0.0, 1.6203129861507344E9, 2021-05-06 16:56:26.150
63.0, 143.7598876953125, 178.86631774902344, 334.94171142578125, -203.22802734375, 0.0, 0.03200000151991844, 1.055999994277954, 0.0, 0.0, 0.0, 0.0, 0.0, 1.6203129861514435E9, 2021-05-06 16:56:26.151
63.0, 144.54151916503906, 178.98974609375, 327.50677490234375, -202.14346313476562, 0.0, 0.03200000151991844, 1.055999994277954, 0.0, 0.0, 0.0, 0.0, 0.0, 1.6203129861514435E9, 2021-05-06 16:56:26.151
64.0, 144.45924377441406, 179.89854431152344, 336.00384521484375, -198.80746459960938, 0.0, 0.03200000151991844, 1.055999994277954, 0.0, 0.0, 0.0, 0.0, 0.0, 1.620312986165017E9, 2021-05-06 16:56:26.165
64.0, 140.76048278808594, 164.56494140625, 331.91986083984375, -202.03500366210938, 0.0, 0.03200000151991844, 1.055999994277954, 0.0, 0.0, 0.0, 0.0, 0.0, 1.620312986165017E9, 2021-05-06 16:56:26.165
65.0, 134.31289672851562, 167.5905303955078, 318.6656494140625, -206.70240783691406, 0.0, 0.03200000151991844, 1.055999994277954, 0.0, 0.0, 0.0, 0.0, 0.0, 1.6203129861807597E9, 2021-05-06 16:56:26.180
65.0, 147.43994140625, 173.01712036132812, 311.32421875, -195.5126190185547, 0.0, 0.03200000151991844, 1.055999994277954, 0.0, 0.0, 0.0, 0.0, 0.0, 1.6203129861807597E9, 2021-05-06 16:56:26.180
66.0, 154.67665100097656, 174.1129150390625, 321.6014709472656, -196.1184844970703, 0.0, 0.03200000151991844, 1.055999994277954, 0.0, 0.0, 0.0, 0.0, 0.0, 1.6203129861814282E9, 2021-05-06 16:56:26.181
66.0, 135.068359375, 174.0755157470703, 330.6894226074219, -197.33395385742188, 0.0, 0.03200000151991844, 1.055999994277954, 0.0, 0.0, 0.0, 0.0, 0.0, 1.6203129861814282E9, 2021-05-06 16:56:26.181
67.0, 146.20204162597656, 172.3701171875, 322.4616394042969, -197.87623596191406, 0.0, 0.03200000151991844, 1.055999994277954, 0.0, 0.0, 0.0, 0.0, 0.0, 1.6203129861950204E9, 2021-05-06 16:56:26.195
67.0, 140.9661865234375, 174.4794158935547, 314.71630859375, -201.99386596679688, 0.0, 0.03200000151991844, 1.055999994277954, 0.0, 0.0, 0.0, 0.0, 0.0, 1.6203129861950204E9, 2021-05-06 16:56:26.195
68.0, 150.51040649414062, 175.3433380126953, 332.2676696777344, -201.4515838623047, 0.0, 0.03200000151991844, 1.055999994277954, 0.0, 0.0, 0.0, 0.0, 0.0, 1.6203129862107377E9, 2021-05-06 16:56:26.210
68.0, 155.61911010742188, 180.67269897460938, 338.5918273925781, -194.69358825683594, 0.0, 0.03200000151991844, 1.055999994277954, 0.0, 0.0, 0.0, 0.0, 0.0, 1.6203129862107377E9, 2021-05-06 16:56:26.210
69.0, 142.12181091308594, 180.39968872070312, 332.7052307128906, -198.1492462158203, 0.0, 0.03200000151991844, 1.055999994277954, 0.0, 0.0, 0.0, 0.0, 0.0, 1.6203129862114232E9, 2021-05-06 16:56:26.211
69.0, 147.00238037109375, 181.76849365234375, 330.1022644042969, -196.61215209960938, 0.0, 0.03200000151991844, 1.055999994277954, 0.0, 0.0, 0.0, 0.0, 0.0, 1.6203129862114232E9, 2021-05-06 16:56:26.211
70.0, 155.01324462890625, 189.2894287109375, 343.0535583496094, -190.66944885253906, 0.0, 0.03200000151991844, 1.055999994277954, 0.0, 0.0, 0.0, 0.0, 0.0, 1.620312986225034E9, 2021-05-06 16:56:26.225
70.0, 149.89706420898438, 178.8999786376953, 346.8046569824219, -196.81410217285156, 0.0, 0.03200000151991844, 1.055999994277954, 0.0, 0.0, 0.0, 0.0, 0.0, 1.620312986225034E9, 2021-05-06 16:56:26.225
71.0, 151.99888610839844, 186.8285675048828, 344.4298400878906, -198.11184692382812, 0.0, 0.03200000151991844, 1.055999994277954, 0.0, 0.0, 0.0, 0.0, 0.0, 1.620312986241168E9, 2021-05-06 16:56:26.241
71.0, 151.74830627441406, 179.17674255371094, 340.6300964355469, -199.7947998046875, 0.0, 0.03200000151991844, 1.055999994277954, 0.0, 0.0, 0.0, 0.0, 0.0, 1.620312986241168E9, 2021-05-06 16:56:26.241
72.0, 154.96836853027344, 188.7808074951172, 351.0569152832031, -187.7186737060547, 0.0, 0.03200000151991844, 1.055999994277954, 0.0, 0.0, 0.0, 0.0, 0.0, 1.6203129862558217E9, 2021-05-06 16:56:26.255
72.0, 154.82998657226562, 192.4234619140625, 359.5278015136719, -183.45892333984375, 0.0, 0.03200000151991844, 1.055999994277954, 0.0, 0.0, 0.0, 0.0, 0.0, 1.6203129862558217E9, 2021-05-06 16:56:26.255
73.0, 159.89007568359375, 183.9525909423828, 346.935546875, -191.08084106445312, 0.0, 0.03200000151991844, 1.055999994277954, 0.0, 0.0, 0.0, 0.0, 0.0, 1.6203129862564614E9, 2021-05-06 16:56:26.256
73.0, 132.03903198242188, 172.1606903076172, 328.8643493652344, -197.37509155273438, 0.0, 0.03200000151991844, 1.055999994277954, 0.0, 0.0, 0.0, 0.0, 0.0, 1.6203129862564614E9, 2021-05-06 16:56:26.256
74.0, 146.92758178710938, 177.2918243408203, 336.3778076171875, -192.5917510986328, 0.0, 0.03200000151991844, 1.055999994277954, 0.0, 0.0, 0.0, 0.0, 0.0, 1.6203129862707367E9, 2021-05-06 16:56:26.270
74.0, 134.7691650390625, 168.2711944580078, 338.47589111328125, -200.8531951904297, 0.0, 0.03200000151991844, 1.055999994277954, 0.0, 0.0, 0.0, 0.0, 0.0, 1.6203129862707367E9, 2021-05-06 16:56:26.270
75.0, 134.55224609375, 169.8382110595703, 324.6382751464844, -208.05624389648438, 0.0, 0.03200000151991844, 1.055999994277954, 0.0, 0.0, 0.0, 0.0, 0.0, 1.620312986271466E9, 2021-05-06 16:56:26.271
75.0, 152.5785675048828, 173.72023010253906, 318.90875244140625, -205.78237915039062, 0.0, 0.03200000151991844, 1.055999994277954, 0.0, 0.0, 0.0, 0.0, 0.0, 1.620312986271466E9, 2021-05-06 16:56:26.271
76.0, 138.0004425048828, 174.7935791015625, 324.7766418457031, -205.0531005859375, 0.0, 0.03200000151991844, 1.055999994277954, 0.0, 0.0, 0.0, 0.0, 0.0, 1.620312986285134E9, 2021-05-06 16:56:26.285
76.0, 136.81863403320312, 173.35745239257812, 329.58990478515625, -205.64027404785156, 0.0, 0.03200000151991844, 1.055999994277954, 0.0, 0.0, 0.0, 0.0, 0.0, 1.620312986285134E9, 2021-05-06 16:56:26.285
77.0, 142.20034790039062, 174.06430053710938, 320.6141357421875, -202.62217712402344, 0.0, 0.03200000151991844, 1.055999994277954, 0.0, 0.0, 0.0, 0.0, 0.0, 1.6203129863007367E9, 2021-05-06 16:56:26.300
77.0, 139.6871337890625, 175.4368438720703, 314.6116027832031, -206.9716796875, 0.0, 0.03200000151991844, 1.055999994277954, 0.0, 0.0, 0.0, 0.0, 0.0, 1.6203129863007367E9, 2021-05-06 16:56:26.300
78.0, 143.0754852294922, 174.13534545898438, 325.3338928222656, -206.96044921875, 0.0, 0.03200000151991844, 1.055999994277954, 0.0, 0.0, 0.0, 0.0, 0.0, 1.6203129863014772E9, 2021-05-06 16:56:26.301
78.0, 147.1071014404297, 169.4380340576172, 338.4945983886719, -199.60780334472656, 0.0, 0.03200000151991844, 1.055999994277954, 0.0, 0.0, 0.0, 0.0, 0.0, 1.6203129863014772E9, 2021-05-06 16:56:26.301
79.0, 143.15028381347656, 174.64398193359375, 328.7259826660156, -203.47860717773438, 0.0, 0.03200000151991844, 1.055999994277954, 0.0, 0.0, 0.0, 0.0, 0.0, 1.6203129863150873E9, 2021-05-06 16:56:26.315
79.0, 145.06137084960938, 172.48231506347656, 319.892333984375, -211.0893096923828, 0.0, 0.03200000151991844, 1.055999994277954, 0.0, 0.0, 0.0, 0.0, 0.0, 1.6203129863150873E9, 2021-05-06 16:56:26.315
80.0, 162.09661865234375, 185.99832153320312, 335.0389404296875, -204.2041473388672, 0.0, 0.03200000151991844, 1.055999994277954, 0.0, 0.0, 0.0, 0.0, 0.0, 1.620312986330732E9, 2021-05-06 16:56:26.330
80.0, 138.3258056640625, 175.48171997070312, 337.55963134765625, -204.37619018554688, 0.0, 0.03200000151991844, 1.055999994277954, 0.0, 0.0, 0.0, 0.0, 0.0, 1.620312986330732E9, 2021-05-06 16:56:26.330
81.0, 133.5050811767578, 173.0956573486328, 328.2659912109375, -213.755859375, 0.0, 0.03200000151991844, 1.055999994277954, 0.0, 0.0, 0.0, 0.0, 0.0, 1.620312986331455E9, 2021-05-06 16:56:26.331
81.0, 136.90464782714844, 171.20701599121094, 324.8551940917969, -208.4190216064453, 0.0, 0.03200000151991844, 1.055999994277954, 0.0, 0.0, 0.0, 0.0, 0.0, 1.620312986331455E9, 2021-05-06 16:56:26.331
82.0, 139.97885131835938, 175.57894897460938, 334.46673583984375, -209.1669921875, 0.0, 0.03200000151991844, 1.055999994277954, 0.0, 0.0, 0.0, 0.0, 0.0, 1.6203129863621063E9, 2021-05-06 16:56:26.362
82.0, 132.83563232421875, 177.3254852294922, 333.4307861328125, -213.21730041503906, 0.0, 0.03200000151991844, 1.055999994277954, 0.0, 0.0, 0.0, 0.0, 0.0, 1.6203129863621063E9, 2021-05-06 16:56:26.362
83.0, 131.5977325439453, 178.29037475585938, 328.1201171875, -205.1914825439453, 0.0, 0.03200000151991844, 1.055999994277954, 0.0, 0.0, 0.0, 0.0, 0.0, 1.6203129863628604E9, 2021-05-06 16:56:26.362
83.0, 126.43292999267578, 176.83555603027344, 320.6365966796875, -207.48777770996094, 0.0, 0.03200000151991844, 1.055999994277954, 0.0, 0.0, 0.0, 0.0, 0.0, 1.6203129863628604E9, 2021-05-06 16:56:26.362
84.0, 125.82706451416016, 172.99093627929688, 325.4947204589844, -206.18255615234375, 0.0, 0.03200000151991844, 1.055999994277954, 0.0, 0.0, 0.0, 0.0, 0.0, 1.62031298636356E9, 2021-05-06 16:56:26.363
84.0, 111.26763153076172, 154.04086303710938, 317.43524169921875, -222.29029846191406, 0.0, 0.03200000151991844, 1.055999994277954, 0.0, 0.0, 0.0, 0.0, 0.0, 1.62031298636356E9, 2021-05-06 16:56:26.363
85.0, 133.29937744140625, 174.3560028076172, 325.0346984863281, -211.4296417236328, 0.0, 0.03200000151991844, 1.055999994277954, 0.0, 0.0, 0.0, 0.0, 0.0, 1.6203129863750348E9, 2021-05-06 16:56:26.375
85.0, 130.3560791015625, 164.28445434570312, 316.9303283691406, -214.73196411132812, 0.0, 0.03200000151991844, 1.055999994277954, 0.0, 0.0, 0.0, 0.0, 0.0, 1.6203129863750348E9, 2021-05-06 16:56:26.375
86.0, 142.59303283691406, 176.9514923095703, 326.8036804199219, -213.56512451171875, 0.0, 0.03200000151991844, 1.055999994277954, 0.0, 0.0, 0.0, 0.0, 0.0, 1.620312986390772E9, 2021-05-06 16:56:26.390
86.0, 158.9812774658203, 180.57545471191406, 338.65167236328125, -208.8715362548828, 0.0, 0.03200000151991844, 1.055999994277954, 0.0, 0.0, 0.0, 0.0, 0.0, 1.620312986390772E9, 2021-05-06 16:56:26.390
87.0, 137.70872497558594, 170.94895935058594, 321.8894348144531, -211.84475708007812, 0.0, 0.03200000151991844, 1.055999994277954, 0.0, 0.0, 0.0, 0.0, 0.0, 1.6203129863914437E9, 2021-05-06 16:56:26.391
87.0, 150.8282928466797, 178.03607177734375, 329.8180236816406, -202.4800567626953, 0.0, 0.03200000151991844, 1.055999994277954, 0.0, 0.0, 0.0, 0.0, 0.0, 1.6203129863914437E9, 2021-05-06 16:56:26.391
88.0, 148.9209442138672, 182.04898071289062, 343.70428466796875, -200.16131591796875, 0.0, 0.03200000151991844, 1.055999994277954, 0.0, 0.0, 0.0, 0.0, 0.0, 1.6203129864051013E9, 2021-05-06 16:56:26.405
88.0, 146.6807403564453, 179.9583740234375, 344.7851257324219, -200.4792022705078, 0.0, 0.03200000151991844, 1.055999994277954, 0.0, 0.0, 0.0, 0.0, 0.0, 1.6203129864051013E9, 2021-05-06 16:56:26.405
89.0, 138.4866180419922, 180.8970947265625, 338.24029541015625, -197.33395385742188, 0.0, 0.03200000151991844, 1.055999994277954, 0.0, 0.0, 0.0, 0.0, 0.0, 1.620312986420798E9, 2021-05-06 16:56:26.420
89.0, 137.09164428710938, 180.24261474609375, 327.9630432128906, -209.9673309326172, 0.0, 0.03200000151991844, 1.055999994277954, 0.0, 0.0, 0.0, 0.0, 0.0, 1.620312986420798E9, 2021-05-06 16:56:26.420
90.0, 144.45550537109375, 183.8291778564453, 338.4684143066406, -208.84910583496094, 0.0, 0.03200000151991844, 1.055999994277954, 0.0, 0.0, 0.0, 0.0, 0.0, 1.6203129864214628E9, 2021-05-06 16:56:26.421
90.0, 145.43910217285156, 191.6231231689453, 354.91650390625, -203.75161743164062, 0.0, 0.03200000151991844, 1.055999994277954, 0.0, 0.0, 0.0, 0.0, 0.0, 1.6203129864214628E9, 2021-05-06 16:56:26.421
91.0, 138.08645629882812, 184.40512084960938, 335.70465087890625, -208.6172332763672, 0.0, 0.03200000151991844, 1.055999994277954, 0.0, 0.0, 0.0, 0.0, 0.0, 1.6203129864350338E9, 2021-05-06 16:56:26.435
91.0, 141.57203674316406, 187.64013671875, 334.08526611328125, -202.34915161132812, 0.0, 0.03200000151991844, 1.055999994277954, 0.0, 0.0, 0.0, 0.0, 0.0, 1.6203129864350338E9, 2021-05-06 16:56:26.435
92.0, 139.12240600585938, 190.6021270751953, 339.7698974609375, -202.57728576660156, 0.01600000075995922, 0.03200000151991844, 1.055999994277954, 0.0, 0.0, 0.0, 0.0, 0.0, 1.6203129864508448E9, 2021-05-06 16:56:26.450
92.0, 141.16065979003906, 180.70262145996094, 344.6205749511719, -197.4274444580078, 0.01600000075995922, 0.03200000151991844, 1.055999994277954, 0.0, 0.0, 0.0, 0.0, 0.0, 1.6203129864508448E9, 2021-05-06 16:56:26.450
93.0, 151.32943725585938, 174.38218688964844, 334.80706787109375, -200.67367553710938, 0.01600000075995922, 0.03200000151991844, 1.055999994277954, 0.0, 0.0, 0.0, 0.0, 0.0, 1.6203129864514563E9, 2021-05-06 16:56:26.451
93.0, 131.8969268798828, 180.0556182861328, 326.14544677734375, -204.57814025878906, 0.01600000075995922, 0.03200000151991844, 1.055999994277954, 0.0, 0.0, 0.0, 0.0, 0.0, 1.6203129864514563E9, 2021-05-06 16:56:26.451
94.0, 143.42703247070312, 185.66920471191406, 341.9053955078125, -199.17771911621094, 0.01600000075995922, 0.03200000151991844, 1.055999994277954, 0.0, 0.0, 0.0, 0.0, 0.0, 1.6203129864814367E9, 2021-05-06 16:56:26.481
94.0, 137.84336853027344, 178.4362335205078, 336.7892150878906, -207.33070373535156, 0.01600000075995922, 0.03200000151991844, 1.055999994277954, 0.0, 0.0, 0.0, 0.0, 0.0, 1.6203129864814367E9, 2021-05-06 16:56:26.481
95.0, 140.39022827148438, 177.8902130126953, 333.8085021972656, -201.54507446289062, 0.01600000075995922, 0.03200000151991844, 1.055999994277954, 0.0, 0.0, 0.0, 0.0, 0.0, 1.6203129864821675E9, 2021-05-06 16:56:26.482
95.0, 136.31748962402344, 182.34817504882812, 322.76458740234375, -207.30825805664062, 0.01600000075995922, 0.03200000151991844, 1.055999994277954, 0.0, 0.0, 0.0, 0.0, 0.0, 1.6203129864821675E9, 2021-05-06 16:56:26.482
96.0, 139.66842651367188, 178.03607177734375, 326.6017150878906, -209.2941436767578, 0.01600000075995922, 0.03200000151991844, 1.055999994277954, 0.0, 0.0, 0.0, 0.0, 0.0, 1.620312986482905E9, 2021-05-06 16:56:26.482
96.0, 132.21481323242188, 178.896240234375, 335.0165100097656, -200.75221252441406, 0.01600000075995922, 0.03200000151991844, 1.055999994277954, 0.0, 0.0, 0.0, 0.0, 0.0, 1.620312986482905E9, 2021-05-06 16:56:26.482
97.0, 130.99560546875, 174.80105590820312, 324.3764953613281, -211.86346435546875, 0.01600000075995922, 0.03200000151991844, 1.055999994277954, 0.0, 0.0, 0.0, 0.0, 0.0, 1.6203129864950414E9, 2021-05-06 16:56:26.495
97.0, 134.4250946044922, 182.95404052734375, 320.6852111816406, -204.14805603027344, 0.01600000075995922, 0.03200000151991844, 1.055999994277954, 0.0, 0.0, 0.0, 0.0, 0.0, 1.6203129864950414E9, 2021-05-06 16:56:26.495
98.0, 140.43885803222656, 189.43902587890625, 335.1099853515625, -194.25975036621094, 0.01600000075995922, 0.03200000151991844, 1.055999994277954, 0.0, 0.0, 0.0, 0.0, 0.0, 1.6203129865107377E9, 2021-05-06 16:56:26.510
98.0, 144.810791015625, 190.57220458984375, 343.7117614746094, -191.5819854736328, 0.01600000075995922, 0.03200000151991844, 1.055999994277954, 0.0, 0.0, 0.0, 0.0, 0.0, 1.6203129865107377E9, 2021-05-06 16:56:26.510
99.0, 134.61956787109375, 183.70950317382812, 329.4066467285156, -196.21946716308594, 0.01600000075995922, 0.03200000151991844, 1.055999994277954, 0.0, 0.0, 0.0, 0.0, 0.0, 1.6203129865113924E9, 2021-05-06 16:56:26.511
99.0, 145.35682678222656, 183.0251007080078, 325.4012145996094, -202.0163116455078, 0.01600000075995922, 0.03200000151991844, 1.055999994277954, 0.0, 0.0, 0.0, 0.0, 0.0, 1.6203129865113924E9, 2021-05-06 16:56:26.511
100.0, 154.68038940429688, 187.3297119140625, 332.92962646484375, -203.05226135253906, 0.01600000075995922, 0.03200000151991844, 1.055999994277954, 0.0, 0.0, 0.0, 0.0, 0.0, 1.6203129865257416E9, 2021-05-06 16:56:26.525
100.0, 138.60630798339844, 183.3130645751953, 334.7696533203125, -201.90037536621094, 0.01600000075995922, 0.03200000151991844, 1.055999994277954, 0.0, 0.0, 0.0, 0.0, 0.0, 1.6203129865257416E9, 2021-05-06 16:56:26.525
0.0, 138.53150939941406, 180.49691772460938, 329.2776184082031, -203.90869140625, 0.01600000075995922, 0.03200000151991844, 1.055999994277954, 0.0, 0.0, 0.0, 0.0, 0.0, 1.6203129865264418E9, 2021-05-06 16:56:26.526
1.0, 144.1263885498047, 185.1343994140625, 329.2177734375, -204.25650024414062, 0.01600000075995922, 0.03200000151991844, 1.055999994277954, 0.0, 0.0, 0.0, 0.0, 0.0, 1.6203129865400014E9, 2021-05-06 16:56:26.540
1.0, 150.00177001953125, 190.0486297607422, 336.9930419921875, -191.47726440429688, 0.01600000075995922, 0.03200000151991844, 1.055999994277954, 0.0, 0.0, 0.0, 0.0, 0.0, 1.6203129865400014E9, 2021-05-06 16:56:26.540
2.0, 141.32521057128906, 183.12232971191406, 340.18316650390625, -195.0563507080078, 0.0, 0.03200000151991844, 1.055999994277954, 0.0, 0.0, 0.0, 0.0, 0.0, 1.6203129865558794E9, 2021-05-06 16:56:26.555
2.0, 144.38070678710938, 189.5923614501953, 334.5321960449219, -199.5517120361328, 0.0, 0.03200000151991844, 1.055999994277954, 0.0, 0.0, 0.0, 0.0, 0.0, 1.6203129865558794E9, 2021-05-06 16:56:26.555
3.0, 143.01564025878906, 175.87440490722656, 320.38787841796875, -207.13623046875, 0.0, 0.03200000151991844, 1.055999994277954, 0.0, 0.0, 0.0, 0.0, 0.0, 1.6203129865564885E9, 2021-05-06 16:56:26.556
3.0, 151.61367797851562, 173.7763214111328, 339.1509704589844, -193.99795532226562, 0.0, 0.03200000151991844, 1.055999994277954, 0.0, 0.0, 0.0, 0.0, 0.0, 1.6203129865564885E9, 2021-05-06 16:56:26.556
4.0, 148.8985137939453, 176.184814453125, 340.5982971191406, -199.47317504882812, 0.0, 0.03200000151991844, 1.055999994277954, 0.0, 0.0, 0.0, 0.0, 0.0, 1.6203129865699923E9, 2021-05-06 16:56:26.569
4.0, 144.21615600585938, 184.60707092285156, 332.2994689941406, -198.50828552246094, 0.0, 0.03200000151991844, 1.055999994277954, 0.0, 0.0, 0.0, 0.0, 0.0, 1.6203129865699923E9, 2021-05-06 16:56:26.569
5.0, 149.3585205078125, 179.73023986816406, 335.17169189453125, -199.01690673828125, 0.0, 0.03200000151991844, 1.055999994277954, 0.0, 0.0, 0.0, 0.0, 0.0, 1.6203129865857227E9, 2021-05-06 16:56:26.585
5.0, 153.64443969726562, 182.3818359375, 346.59710693359375, -195.516357421875, 0.0, 0.03200000151991844, 1.055999994277954, 0.0, 0.0, 0.0, 0.0, 0.0, 1.6203129865857227E9, 2021-05-06 16:56:26.585
6.0, 152.9001922607422, 182.81939697265625, 343.33966064453125, -198.75137329101562, 0.0, 0.03200000151991844, 1.055999994277954, 0.0, 0.0, 0.0, 0.0, 0.0, 1.6203129865864832E9, 2021-05-06 16:56:26.586
6.0, 149.67640686035156, 180.66522216796875, 341.53326416015625, -201.09628295898438, 0.0, 0.03200000151991844, 1.055999994277954, 0.0, 0.0, 0.0, 0.0, 0.0, 1.6203129865864832E9, 2021-05-06 16:56:26.586
7.0, 138.707275390625, 178.33526611328125, 332.4902038574219, -206.115234375, 0.0, 0.03200000151991844, 1.055999994277954, 0.0, 0.0, 0.0, 0.0, 0.0, 1.6203129866000173E9, 2021-05-06 16:56:26.600
7.0, 139.65347290039062, 175.73228454589844, 341.0433349609375, -210.9546661376953, 0.0, 0.03200000151991844, 1.055999994277954, 0.0, 0.0, 0.0, 0.0, 0.0, 1.6203129866000173E9, 2021-05-06 16:56:26.600
8.0, 140.47999572753906, 177.51995849609375, 348.736328125, -203.42999267578125, 0.0, 0.03200000151991844, 1.055999994277954, 0.0, 0.0, 0.0, 0.0, 0.0, 1.6203129866157935E9, 2021-05-06 16:56:26.615
8.0, 139.5188446044922, 183.02134704589844, 336.4395446777344, -206.27978515625, 0.0, 0.03200000151991844, 1.055999994277954, 0.0, 0.0, 0.0, 0.0, 0.0, 1.6203129866157935E9, 2021-05-06 16:56:26.615
9.0, 130.1055145263672, 168.39834594726562, 320.1933898925781, -214.9339141845703, 0.0, 0.03200000151991844, 1.055999994277954, 0.0, 0.0, 0.0, 0.0, 0.0, 1.6203129866164966E9, 2021-05-06 16:56:26.616
9.0, 143.55792236328125, 180.16407775878906, 342.10546875, -203.93487548828125, 0.0, 0.03200000151991844, 1.055999994277954, 0.0, 0.0, 0.0, 0.0, 0.0, 1.6203129866164966E9, 2021-05-06 16:56:26.616
10.0, 144.03289794921875, 174.0343780517578, 334.7827453613281, -209.45870971679688, 0.0, 0.03200000151991844, 1.055999994277954, 0.0, 0.0, 0.0, 0.0, 0.0, 1.6203129866299987E9, 2021-05-06 16:56:26.629
10.0, 125.92056274414062, 168.18516540527344, 316.8274841308594, -217.1329803466797, 0.0, 0.03200000151991844, 1.055999994277954, 0.0, 0.0, 0.0, 0.0, 0.0, 1.6203129866299987E9, 2021-05-06 16:56:26.629
11.0, 123.15303802490234, 163.02410888671875, 312.537841796875, -222.6942138671875, 0.0, 0.03200000151991844, 1.055999994277954, 0.0, 0.0, 0.0, 0.0, 0.0, 1.6203129866457584E9, 2021-05-06 16:56:26.645
11.0, 132.3083038330078, 166.8911590576172, 323.7164001464844, -218.55787658691406, 0.0, 0.03200000151991844, 1.055999994277954, 0.0, 0.0, 0.0, 0.0, 0.0, 1.6203129866457584E9, 2021-05-06 16:56:26.645
12.0, 134.83648681640625, 171.49871826171875, 334.70794677734375, -208.79673767089844, 0.0, 0.03200000151991844, 1.055999994277954, 0.0, 0.0, 0.0, 0.0, 0.0, 1.6203129866464617E9, 2021-05-06 16:56:26.646
12.0, 130.31494140625, 171.2818145751953, 323.8435363769531, -213.41177368164062, 0.0, 0.03200000151991844, 1.055999994277954, 0.0, 0.0, 0.0, 0.0, 0.0, 1.6203129866464617E9, 2021-05-06 16:56:26.646
13.0, 148.86485290527344, 170.23837280273438, 324.2923278808594, -214.42529296875, 0.0, 0.03200000151991844, 1.055999994277954, 0.0, 0.0, 0.0, 0.0, 0.0, 1.620312986660022E9, 2021-05-06 16:56:26.660
13.0, 139.6422576904297, 174.00071716308594, 334.34893798828125, -211.72882080078125, 0.0, 0.03200000151991844, 1.055999994277954, 0.0, 0.0, 0.0, 0.0, 0.0, 1.620312986660022E9, 2021-05-06 16:56:26.660
14.0, 135.73779296875, 173.48460388183594, 336.7312316894531, -211.7512664794922, 0.0, 0.03200000151991844, 1.055999994277954, 0.0, 0.0, 0.0, 0.0, 0.0, 1.6203129866757197E9, 2021-05-06 16:56:26.675
14.0, 137.1439971923828, 163.28964233398438, 326.0126953125, -216.90858459472656, 0.0, 0.03200000151991844, 1.055999994277954, 0.0, 0.0, 0.0, 0.0, 0.0, 1.6203129866757197E9, 2021-05-06 16:56:26.675
15.0, 153.98851013183594, 173.08070373535156, 333.2568664550781, -214.62350463867188, 0.0, 0.03200000151991844, 1.055999994277954, 0.0, 0.0, 0.0, 0.0, 0.0, 1.620312986676446E9, 2021-05-06 16:56:26.676
15.0, 130.5168914794922, 173.8099822998047, 333.7580261230469, -214.2607421875, 0.0, 0.03200000151991844, 1.055999994277954, 0.0, 0.0, 0.0, 0.0, 0.0, 1.620312986676446E9, 2021-05-06 16:56:26.676
16.0, 138.87184143066406, 168.66387939453125, 337.9167785644531, -213.18739318847656, 0.0, 0.03200000151991844, 1.055999994277954, 0.0, 0.0, 0.0, 0.0, 0.0, 1.6203129866900277E9, 2021-05-06 16:56:26.690
16.0, 133.71824645996094, 171.4276580810547, 329.5169677734375, -219.0478057861328, 0.0, 0.03200000151991844, 1.055999994277954, 0.0, 0.0, 0.0, 0.0, 0.0, 1.6203129866900277E9, 2021-05-06 16:56:26.690
17.0, 133.30686950683594, 175.9828643798828, 323.3424072265625, -215.0087127685547, 0.0, 0.03200000151991844, 1.055999994277954, 0.0, 0.0, 0.0, 0.0, 0.0, 1.620312986705478E9, 2021-05-06 16:56:26.705
17.0, 145.2034912109375, 183.69827270507812, 333.7767333984375, -212.20005798339844, 0.0, 0.03200000151991844, 1.055999994277954, 0.0, 0.0, 0.0, 0.0, 0.0, 1.620312986705478E9, 2021-05-06 16:56:26.705
18.0, 130.44210815429688, 165.95993041992188, 329.7451171875, -221.60589599609375, 0.0, 0.03200000151991844, 1.055999994277954, 0.0, 0.0, 0.0, 0.0, 0.0, 1.6203129867208717E9, 2021-05-06 16:56:26.720
18.0, 133.68460083007812, 169.54649353027344, 327.2767639160156, -210.61807250976562, 0.0, 0.03200000151991844, 1.055999994277954, 0.0, 0.0, 0.0, 0.0, 0.0, 1.6203129867208717E9, 2021-05-06 16:56:26.720
19.0, 130.96194458007812, 166.93605041503906, 321.4761962890625, -215.68190002441406, 0.0, 0.03200000151991844, 1.055999994277954, 0.0, 0.0, 0.0, 0.0, 0.0, 1.6203129867215536E9, 2021-05-06 16:56:26.721
19.0, 153.15451049804688, 170.9676513671875, 329.74884033203125, -209.35398864746094, 0.0, 0.03200000151991844, 1.055999994277954, 0.0, 0.0, 0.0, 0.0, 0.0, 1.6203129867215536E9, 2021-05-06 16:56:26.721
20.0, 131.06666564941406, 172.9236297607422, 335.78131103515625, -211.0706024169922, 0.0, 0.03200000151991844, 1.055999994277954, 0.0, 0.0, 0.0, 0.0, 0.0, 1.620312986735712E9, 2021-05-06 16:56:26.735
20.0, 140.26307678222656, 170.91156005859375, 329.68902587890625, -208.69577026367188, 0.0, 0.03200000151991844, 1.055999994277954, 0.0, 0.0, 0.0, 0.0, 0.0, 1.620312986735712E9, 2021-05-06 16:56:26.735
21.0, 149.99803161621094, 165.8065948486328, 324.3484191894531, -211.9345245361328, 0.0, 0.03200000151991844, 1.055999994277954, 0.0, 0.0, 0.0, 0.0, 0.0, 1.6203129867364185E9, 2021-05-06 16:56:26.736
21.0, 139.0438690185547, 170.66098022460938, 333.3204650878906, -208.51998901367188, 0.0, 0.03200000151991844, 1.055999994277954, 0.0, 0.0, 0.0, 0.0, 0.0, 1.6203129867364185E9, 2021-05-06 16:56:26.736
22.0, 142.08815002441406, 177.90890502929688, 342.7786560058594, -208.9987030029297, 0.0, 0.03200000151991844, 1.055999994277954, 0.0, 0.0, 0.0, 0.0, 0.0, 1.6203129867501433E9, 2021-05-06 16:56:26.750
22.0, 139.87039184570312, 171.76425170898438, 324.62518310546875, -214.60107421875, 0.0, 0.03200000151991844, 1.055999994277954, 0.0, 0.0, 0.0, 0.0, 0.0, 1.6203129867501433E9, 2021-05-06 16:56:26.750
23.0, 146.3852996826172, 177.47134399414062, 333.2680969238281, -207.65232849121094, 0.0, 0.03200000151991844, 1.055999994277954, 0.0, 0.0, 0.0, 0.0, 0.0, 1.6203129867657275E9, 2021-05-06 16:56:26.765
23.0, 145.59617614746094, 175.64627075195312, 340.31781005859375, -203.8226776123047, 0.0, 0.03200000151991844, 1.055999994277954, 0.0, 0.0, 0.0, 0.0, 0.0, 1.6203129867657275E9, 2021-05-06 16:56:26.765
24.0, 144.32086181640625, 174.73373413085938, 346.79156494140625, -202.97372436523438, 0.0, 0.03200000151991844, 1.055999994277954, 0.0, 0.0, 0.0, 0.0, 0.0, 1.6203129867664356E9, 2021-05-06 16:56:26.766
24.0, 142.70896911621094, 179.55072021484375, 336.1553039550781, -204.6678924560547, 0.0, 0.03200000151991844, 1.055999994277954, 0.0, 0.0, 0.0, 0.0, 0.0, 1.6203129867664356E9, 2021-05-06 16:56:26.766
25.0, 148.56565856933594, 186.34986877441406, 335.90472412109375, -204.00967407226562, 0.0, 0.03200000151991844, 1.055999994277954, 0.0, 0.0, 0.0, 0.0, 0.0, 1.6203129867800808E9, 2021-05-06 16:56:26.780
25.0, 138.99899291992188, 173.58558654785156, 332.6023864746094, -212.6974639892578, 0.0, 0.03200000151991844, 1.055999994277954, 0.0, 0.0, 0.0, 0.0, 0.0, 1.6203129867800808E9, 2021-05-06 16:56:26.780
26.0, 146.0861053466797, 179.34129333496094, 338.7582702636719, -210.61807250976562, 0.0, 0.03200000151991844, 1.055999994277954, 0.0, 0.0, 0.0, 0.0, 0.0, 1.6203129867957156E9, 2021-05-06 16:56:26.795
26.0, 152.32424926757812, 166.93231201171875, 330.7137451171875, -213.43795776367188, 0.0, 0.03200000151991844, 1.055999994277954, 0.0, 0.0, 0.0, 0.0, 0.0, 1.6203129867957156E9, 2021-05-06 16:56:26.795
27.0, 144.11517333984375, 172.3252410888672, 322.7365417480469, -210.8948211669922, 0.0, 0.03200000151991844, 1.055999994277954, 0.0, 0.0, 0.0, 0.0, 0.0, 1.6203129867964191E9, 2021-05-06 16:56:26.796
27.0, 148.5581817626953, 175.45179748535156, 334.7528381347656, -210.25157165527344, 0.0, 0.03200000151991844, 1.055999994277954, 0.0, 0.0, 0.0, 0.0, 0.0, 1.6203129867964191E9, 2021-05-06 16:56:26.796
28.0, 147.84011840820312, 173.68283081054688, 339.8316345214844, -209.61952209472656, 0.0, 0.03200000151991844, 1.055999994277954, 0.0, 0.0, 0.0, 0.0, 0.0, 1.6203129868100436E9, 2021-05-06 16:56:26.810
28.0, 142.8623046875, 174.42706298828125, 326.341796875, -214.23081970214844, 0.0, 0.03200000151991844, 1.055999994277954, 0.0, 0.0, 0.0, 0.0, 0.0, 1.6203129868100436E9, 2021-05-06 16:56:26.810
29.0, 153.2405242919922, 182.5426483154297, 333.11474609375, -205.24757385253906, 0.0, 0.03200000151991844, 1.055999994277954, 0.0, 0.0, 0.0, 0.0, 0.0, 1.62031298682614E9, 2021-05-06 16:56:26.826
29.0, 156.2511444091797, 188.59007263183594, 339.2070617675781, -202.7680206298828, 0.0, 0.03200000151991844, 1.055999994277954, 0.0, 0.0, 0.0, 0.0, 0.0, 1.62031298682614E9, 2021-05-06 16:56:26.826
30.0, 153.71923828125, 177.72940063476562, 338.466552734375, -204.43601989746094, 0.0, 0.03200000151991844, 1.055999994277954, 0.0, 0.0, 0.0, 0.0, 0.0, 1.6203129868407524E9, 2021-05-06 16:56:26.840
30.0, 146.9313201904297, 175.59017944335938, 330.6651306152344, -209.2866668701172, 0.0, 0.03200000151991844, 1.055999994277954, 0.0, 0.0, 0.0, 0.0, 0.0, 1.6203129868407524E9, 2021-05-06 16:56:26.840
31.0, 151.7146453857422, 168.8172149658203, 318.9106140136719, -218.64016723632812, 0.0, 0.03200000151991844, 1.055999994277954, 0.0, 0.0, 0.0, 0.0, 0.0, 1.6203129868414834E9, 2021-05-06 16:56:26.841
31.0, 156.36708068847656, 172.47483825683594, 334.77154541015625, -215.43507385253906, 0.0, 0.03200000151991844, 1.055999994277954, 0.0, 0.0, 0.0, 0.0, 0.0, 1.6203129868414834E9, 2021-05-06 16:56:26.841
32.0, 152.59727478027344, 183.0625, 345.16845703125, -201.7395477294922, 0.0, 0.03200000151991844, 1.055999994277954, 0.0, 0.0, 0.0, 0.0, 0.0, 1.620312986855961E9, 2021-05-06 16:56:26.855
32.0, 162.1975860595703, 183.9451141357422, 339.1135559082031, -204.3387908935547, 0.0, 0.03200000151991844, 1.055999994277954, 0.0, 0.0, 0.0, 0.0, 0.0, 1.620312986855961E9, 2021-05-06 16:56:26.855
33.0, 154.7813720703125, 180.19772338867188, 334.1843566894531, -204.25650024414062, 0.0, 0.03200000151991844, 1.055999994277954, 0.0, 0.0, 0.0, 0.0, 0.0, 1.6203129868564785E9, 2021-05-06 16:56:26.856
33.0, 160.99334716796875, 177.2432098388672, 341.7389831542969, -203.91616821289062, 0.0, 0.03200000151991844, 1.055999994277954, 0.0, 0.0, 0.0, 0.0, 0.0, 1.6203129868564785E9, 2021-05-06 16:56:26.856
34.0, 140.76795959472656, 169.25477600097656, 337.78216552734375, -206.44435119628906, 0.0, 0.03200000151991844, 1.055999994277954, 0.0, 0.0, 0.0, 0.0, 0.0, 1.6203129868700707E9, 2021-05-06 16:56:26.870
34.0, 140.97366333007812, 176.5214080810547, 331.80206298828125, -204.3051300048828, 0.0, 0.03200000151991844, 1.055999994277954, 0.0, 0.0, 0.0, 0.0, 0.0, 1.6203129868700707E9, 2021-05-06 16:56:26.870
35.0, 148.79379272460938, 179.31137084960938, 327.3403625488281, -203.1494903564453, 0.0, 0.03200000151991844, 1.055999994277954, 0.0, 0.0, 0.0, 0.0, 0.0, 1.620312986885937E9, 2021-05-06 16:56:26.885
35.0, 144.66119384765625, 172.0709228515625, 331.8132629394531, -204.682861328125, 0.0, 0.03200000151991844, 1.055999994277954, 0.0, 0.0, 0.0, 0.0, 0.0, 1.620312986885937E9, 2021-05-06 16:56:26.885
36.0, 140.30795288085938, 171.10977172851562, 339.4651184082031, -201.01026916503906, 0.0, 0.03200000151991844, 1.055999994277954, 0.0, 0.0, 0.0, 0.0, 0.0, 1.6203129868864732E9, 2021-05-06 16:56:26.886
36.0, 153.0423126220703, 173.2938690185547, 334.66680908203125, -200.75970458984375, 0.0, 0.03200000151991844, 1.055999994277954, 0.0, 0.0, 0.0, 0.0, 0.0, 1.6203129868864732E9, 2021-05-06 16:56:26.886
37.0, 144.20118713378906, 168.3534698486328, 331.5664367675781, -199.248779296875, 0.0, 0.03200000151991844, 1.055999994277954, 0.0, 0.0, 0.0, 0.0, 0.0, 1.6203129869000635E9, 2021-05-06 16:56:26.900
37.0, 142.82864379882812, 171.51368713378906, 336.49188232421875, -200.8681640625, 0.0, 0.03200000151991844, 1.055999994277954, 0.0, 0.0, 0.0, 0.0, 0.0, 1.6203129869000635E9, 2021-05-06 16:56:26.900
38.0, 142.42474365234375, 163.82070922851562, 336.3460388183594, -197.65184020996094, 0.0, 0.03200000151991844, 1.055999994277954, 0.0, 0.0, 0.0, 0.0, 0.0, 1.620312986915746E9, 2021-05-06 16:56:26.915
38.0, 136.14544677734375, 164.5387725830078, 324.404541015625, -208.0786895751953, 0.0, 0.03200000151991844, 1.055999994277954, 0.0, 0.0, 0.0, 0.0, 0.0, 1.620312986915746E9, 2021-05-06 16:56:26.915
39.0, 139.21591186523438, 171.2705841064453, 324.744873046875, -206.78842163085938, 0.0, 0.03200000151991844, 1.055999994277954, 0.0, 0.0, 0.0, 0.0, 0.0, 1.6203129869164631E9, 2021-05-06 16:56:26.916
39.0, 139.5487518310547, 164.60983276367188, 328.1219787597656, -209.41383361816406, 0.0, 0.03200000151991844, 1.055999994277954, 0.0, 0.0, 0.0, 0.0, 0.0, 1.6203129869164631E9, 2021-05-06 16:56:26.916
40.0, 135.13194274902344, 159.1046905517578, 324.7261657714844, -211.94200134277344, 0.0, 0.03200000151991844, 1.055999994277954, 0.0, 0.0, 0.0, 0.0, 0.0, 1.6203129869464228E9, 2021-05-06 16:56:26.946
40.0, 143.4644317626953, 163.4167938232422, 313.9178466796875, -213.0602264404297, 0.0, 0.03200000151991844, 1.055999994277954, 0.0, 0.0, 0.0, 0.0, 0.0, 1.6203129869464228E9, 2021-05-06 16:56:26.946
41.0, 135.80885314941406, 170.5450439453125, 316.91351318359375, -211.5867156982422, 0.0, 0.03200000151991844, 1.055999994277954, 0.0, 0.0, 0.0, 0.0, 0.0, 1.6203129869471507E9, 2021-05-06 16:56:26.947
41.0, 141.68797302246094, 166.2254638671875, 328.8811950683594, -209.5035858154297, 0.0, 0.03200000151991844, 1.055999994277954, 0.0, 0.0, 0.0, 0.0, 0.0, 1.6203129869471507E9, 2021-05-06 16:56:26.947
42.0, 140.65576171875, 168.7162322998047, 331.4953918457031, -208.63218688964844, 0.0, 0.03200000151991844, 1.055999994277954, 0.0, 0.0, 0.0, 0.0, 0.0, 1.6203129869479578E9, 2021-05-06 16:56:26.947
42.0, 132.3980712890625, 162.06295776367188, 319.2920837402344, -214.37667846679688, 0.0, 0.03200000151991844, 1.055999994277954, 0.0, 0.0, 0.0, 0.0, 0.0, 1.6203129869479578E9, 2021-05-06 16:56:26.947
43.0, 143.65142822265625, 168.10289001464844, 317.4931945800781, -212.2711181640625, 0.0, 0.03200000151991844, 1.055999994277954, 0.0, 0.0, 0.0, 0.0, 0.0, 1.6203129869600656E9, 2021-05-06 16:56:26.960
43.0, 150.0316925048828, 169.26974487304688, 326.53253173828125, -212.02801513671875, 0.0, 0.03200000151991844, 1.055999994277954, 0.0, 0.0, 0.0, 0.0, 0.0, 1.6203129869600656E9, 2021-05-06 16:56:26.960
44.0, 142.604248046875, 175.14138793945312, 330.52301025390625, -204.07699584960938, 0.0, 0.03200000151991844, 1.055999994277954, 0.0, 0.0, 0.0, 0.0, 0.0, 1.620312986975845E9, 2021-05-06 16:56:26.975
44.0, 129.7689208984375, 172.03726196289062, 325.1973876953125, -206.55654907226562, 0.0, 0.03200000151991844, 1.055999994277954, 0.0, 0.0, 0.0, 0.0, 0.0, 1.620312986975845E9, 2021-05-06 16:56:26.975
45.0, 138.43426513671875, 168.47314453125, 317.1266784667969, -208.1422576904297, 0.0, 0.03200000151991844, 1.055999994277954, 0.0, 0.0, 0.0, 0.0, 0.0, 1.6203129869763932E9, 2021-05-06 16:56:26.976
45.0, 135.51715087890625, 167.4521484375, 319.46038818359375, -211.69891357421875, 0.0, 0.03200000151991844, 1.055999994277954, 0.0, 0.0, 0.0, 0.0, 0.0, 1.6203129869763932E9, 2021-05-06 16:56:26.976
46.0, 142.96702575683594, 170.83676147460938, 332.62481689453125, -207.88795471191406, 0.0, 0.03200000151991844, 1.055999994277954, 0.0, 0.0, 0.0, 0.0, 0.0, 1.6203129869900312E9, 2021-05-06 16:56:26.990
46.0, 145.21470642089844, 158.96632385253906, 316.8050537109375, -218.95431518554688, 0.0, 0.03200000151991844, 1.055999994277954, 0.0, 0.0, 0.0, 0.0, 0.0, 1.6203129869900312E9, 2021-05-06 16:56:26.990
47.0, 135.3675537109375, 171.39401245117188, 314.2918395996094, -213.00413513183594, 0.0, 0.03200000151991844, 1.055999994277954, 0.0, 0.0, 0.0, 0.0, 0.0, 1.6203129870057466E9, 2021-05-06 16:56:27.005
47.0, 145.23715209960938, 163.58883666992188, 323.5032043457031, -210.34506225585938, 0.0, 0.03200000151991844, 1.055999994277954, 0.0, 0.0, 0.0, 0.0, 0.0, 1.6203129870057466E9, 2021-05-06 16:56:27.005
48.0, 143.1240997314453, 164.3555145263672, 331.1139221191406, -210.13937377929688, 0.0, 0.03200000151991844, 1.055999994277954, 0.0, 0.0, 0.0, 0.0, 0.0, 1.6203129870063877E9, 2021-05-06 16:56:27.006
48.0, 146.54611206054688, 163.72720336914062, 318.5553283691406, -217.97071838378906, 0.0, 0.03200000151991844, 1.055999994277954, 0.0, 0.0, 0.0, 0.0, 0.0, 1.6203129870063877E9, 2021-05-06 16:56:27.006
49.0, 152.06246948242188, 161.98068237304688, 313.83184814453125, -216.44857788085938, 0.0, 0.03200000151991844, 1.055999994277954, 0.0, 0.0, 0.0, 0.0, 0.0, 1.6203129870200305E9, 2021-05-06 16:56:27.020
49.0, 147.3614044189453, 173.94461059570312, 327.9723815917969, -216.19801330566406, 0.0, 0.03200000151991844, 1.055999994277954, 0.0, 0.0, 0.0, 0.0, 0.0, 1.6203129870200305E9, 2021-05-06 16:56:27.020
50.0, 150.3682861328125, 165.44007873535156, 327.92376708984375, -220.33059692382812, 0.0, 0.03200000151991844, 1.055999994277954, 0.0, 0.0, 0.0, 0.0, 0.0, 1.6203129870357444E9, 2021-05-06 16:56:27.035
50.0, 142.72393798828125, 164.03387451171875, 325.9939880371094, -216.18304443359375, 0.0, 0.03200000151991844, 1.055999994277954, 0.0, 0.0, 0.0, 0.0, 0.0, 1.6203129870357444E9, 2021-05-06 16:56:27.035
51.0, 138.2397918701172, 164.00770568847656, 310.0433044433594, -217.5742950439453, 0.0, 0.03200000151991844, 1.055999994277954, 0.0, 0.0, 0.0, 0.0, 0.0, 1.6203129870364718E9, 2021-05-06 16:56:27.036
51.0, 146.43765258789062, 171.0162811279297, 325.8294372558594, -211.3323974609375, 0.0, 0.03200000151991844, 1.055999994277954, 0.0, 0.0, 0.0, 0.0, 0.0, 1.6203129870364718E9, 2021-05-06 16:56:27.036
52.0, 142.1143341064453, 172.81143188476562, 331.86187744140625, -203.75909423828125, 0.0, 0.03200000151991844, 1.055999994277954, 0.0, 0.0, 0.0, 0.0, 0.0, 1.6203129870500736E9, 2021-05-06 16:56:27.050
52.0, 141.1307373046875, 176.7794647216797, 321.8800964355469, -203.05599975585938, 0.0, 0.03200000151991844, 1.055999994277954, 0.0, 0.0, 0.0, 0.0, 0.0, 1.6203129870500736E9, 2021-05-06 16:56:27.050
53.0, 151.20602416992188, 173.21533203125, 313.91412353515625, -211.4595489501953, 0.0, 0.03200000151991844, 1.055999994277954, 0.0, 0.0, 0.0, 0.0, 0.0, 1.6203129870658252E9, 2021-05-06 16:56:27.065
53.0, 130.1915283203125, 172.51971435546875, 317.7512512207031, -209.6793670654297, 0.0, 0.03200000151991844, 1.055999994277954, 0.0, 0.0, 0.0, 0.0, 0.0, 1.6203129870658252E9, 2021-05-06 16:56:27.065
54.0, 128.77784729003906, 170.26829528808594, 318.6600341796875, -212.62640380859375, 0.0, 0.03200000151991844, 1.055999994277954, 0.0, 0.0, 0.0, 0.0, 0.0, 1.6203129870664504E9, 2021-05-06 16:56:27.066
54.0, 131.6351318359375, 164.9090118408203, 314.6396484375, -211.6727294921875, 0.0, 0.03200000151991844, 1.055999994277954, 0.0, 0.0, 0.0, 0.0, 0.0, 1.6203129870664504E9, 2021-05-06 16:56:27.066
55.0, 138.80825805664062, 155.6639862060547, 307.2384033203125, -215.5323028564453, 0.0, 0.03200000151991844, 1.055999994277954, 0.0, 0.0, 0.0, 0.0, 0.0, 1.6203129870800183E9, 2021-05-06 16:56:27.080
55.0, 140.49868774414062, 164.77064514160156, 311.165283203125, -216.39996337890625, 0.0, 0.03200000151991844, 1.055999994277954, 0.0, 0.0, 0.0, 0.0, 0.0, 1.6203129870800183E9, 2021-05-06 16:56:27.080
56.0, 136.8148956298828, 165.79164123535156, 317.6166076660156, -209.7691192626953, 0.0, 0.03200000151991844, 1.055999994277954, 0.0, 0.0, 0.0, 0.0, 0.0, 1.620312987095828E9, 2021-05-06 16:56:27.095
56.0, 134.74298095703125, 170.78814697265625, 314.8603210449219, -214.71701049804688, 0.0, 0.03200000151991844, 1.055999994277954, 0.0, 0.0, 0.0, 0.0, 0.0, 1.620312987095828E9, 2021-05-06 16:56:27.095
57.0, 130.4757537841797, 154.5270538330078, 301.3817138671875, -222.26039123535156, 0.0, 0.03200000151991844, 1.055999994277954, 0.0, 0.0, 0.0, 0.0, 0.0, 1.6203129870965207E9, 2021-05-06 16:56:27.096
57.0, 130.46080017089844, 153.8538818359375, 306.3744812011719, -224.75489807128906, 0.0, 0.03200000151991844, 1.055999994277954, 0.0, 0.0, 0.0, 0.0, 0.0, 1.6203129870965207E9, 2021-05-06 16:56:27.096
58.0, 132.9066925048828, 169.04908752441406, 319.7371520996094, -217.38356018066406, 0.0, 0.03200000151991844, 1.055999994277954, 0.0, 0.0, 0.0, 0.0, 0.0, 1.6203129871100993E9, 2021-05-06 16:56:27.110
58.0, 142.44717407226562, 164.822998046875, 315.0398254394531, -219.30960083007812, 0.0, 0.03200000151991844, 1.055999994277954, 0.0, 0.0, 0.0, 0.0, 0.0, 1.6203129871100993E9, 2021-05-06 16:56:27.110
59.0, 153.2592315673828, 167.00709533691406, 310.98577880859375, -226.2620849609375, 0.0, 0.03200000151991844, 1.055999994277954, 0.0, 0.0, 0.0, 0.0, 0.0, 1.620312987126103E9, 2021-05-06 16:56:27.126
59.0, 130.3299102783203, 168.76486206054688, 315.79901123046875, -227.72438049316406, 0.0, 0.03200000151991844, 1.055999994277954, 0.0, 0.0, 0.0, 0.0, 0.0, 1.620312987126103E9, 2021-05-06 16:56:27.126
60.0, 133.7220001220703, 163.7234649658203, 324.2886047363281, -225.6075897216797, 0.0, 0.03200000151991844, 1.055999994277954, 0.0, 0.0, 0.0, 0.0, 0.0, 1.6203129871264956E9, 2021-05-06 16:56:27.126
60.0, 135.26657104492188, 171.7418212890625, 318.45062255859375, -220.51385498046875, 0.0, 0.03200000151991844, 1.055999994277954, 0.0, 0.0, 0.0, 0.0, 0.0, 1.6203129871264956E9, 2021-05-06 16:56:27.126
61.0, 134.76168823242188, 165.59715270996094, 307.0027770996094, -223.70773315429688, 0.0, 0.03200000151991844, 1.055999994277954, 0.0, 0.0, 0.0, 0.0, 0.0, 1.620312987140005E9, 2021-05-06 16:56:27.140
61.0, 126.45536804199219, 161.75254821777344, 316.8349609375, -222.10330200195312, 0.0, 0.03200000151991844, 1.055999994277954, 0.0, 0.0, 0.0, 0.0, 0.0, 1.620312987140005E9, 2021-05-06 16:56:27.140
62.0, 129.99331665039062, 167.0258026123047, 319.5501403808594, -220.7457275390625, 0.0, 0.03200000151991844, 1.055999994277954, 0.0, 0.0, 0.0, 0.0, 0.0, 1.6203129871558363E9, 2021-05-06 16:56:27.155
62.0, 134.14834594726562, 171.0574188232422, 318.970458984375, -215.15830993652344, 0.0, 0.03200000151991844, 1.055999994277954, 0.0, 0.0, 0.0, 0.0, 0.0, 1.6203129871558363E9, 2021-05-06 16:56:27.155
63.0, 137.6114959716797, 167.73638916015625, 314.6920166015625, -222.48477172851562, 0.0, 0.03200000151991844, 1.055999994277954, 0.0, 0.0, 0.0, 0.0, 0.0, 1.6203129871564603E9, 2021-05-06 16:56:27.156
63.0, 123.61304473876953, 161.65530395507812, 304.1754150390625, -221.4151611328125, 0.0, 0.03200000151991844, 1.055999994277954, 0.0, 0.0, 0.0, 0.0, 0.0, 1.6203129871564603E9, 2021-05-06 16:56:27.156
64.0, 125.84202575683594, 164.1385955810547, 316.0495910644531, -218.98423767089844, 0.0, 0.03200000151991844, 1.055999994277954, 0.0, 0.0, 0.0, 0.0, 0.0, 1.6203129871699991E9, 2021-05-06 16:56:27.169
64.0, 129.3724822998047, 164.01144409179688, 309.7964782714844, -219.62001037597656, 0.0, 0.03200000151991844, 1.055999994277954, 0.0, 0.0, 0.0, 0.0, 0.0, 1.6203129871699991E9, 2021-05-06 16:56:27.169
65.0, 133.624755859375, 166.20675659179688, 307.197265625, -214.5487060546875, 0.0, 0.03200000151991844, 1.055999994277954, 0.0, 0.0, 0.0, 0.0, 0.0, 1.6203129871857195E9, 2021-05-06 16:56:27.185
65.0, 127.49505615234375, 165.23439025878906, 304.7625732421875, -224.27244567871094, 0.0, 0.03200000151991844, 1.055999994277954, 0.0, 0.0, 0.0, 0.0, 0.0, 1.6203129871857195E9, 2021-05-06 16:56:27.185
66.0, 132.33448791503906, 163.95159912109375, 321.6744079589844, -216.7515106201172, 0.0, 0.03200000151991844, 1.055999994277954, 0.0, 0.0, 0.0, 0.0, 0.0, 1.6203129871864855E9, 2021-05-06 16:56:27.186
66.0, 126.36934661865234, 163.70103454589844, 311.5093688964844, -222.3912811279297, 0.0, 0.03200000151991844, 1.055999994277954, 0.0, 0.0, 0.0, 0.0, 0.0, 1.6203129871864855E9, 2021-05-06 16:56:27.186
67.0, 134.41761779785156, 162.33970642089844, 298.1616516113281, -229.07073974609375, 0.0, 0.03200000151991844, 1.055999994277954, 0.0, 0.0, 0.0, 0.0, 0.0, 1.6203129872001636E9, 2021-05-06 16:56:27.200
67.0, 138.39686584472656, 173.7688446044922, 315.567138671875, -223.83114624023438, 0.0, 0.03200000151991844, 1.055999994277954, 0.0, 0.0, 0.0, 0.0, 0.0, 1.6203129872001636E9, 2021-05-06 16:56:27.200
68.0, 129.06956481933594, 181.83953857421875, 323.9744567871094, -221.46005249023438, 0.0, 0.03200000151991844, 1.055999994277954, 0.0, 0.0, 0.0, 0.0, 0.0, 1.6203129872157516E9, 2021-05-06 16:56:27.215
68.0, 132.96279907226562, 180.2613067626953, 316.7265319824219, -222.4511260986328, 0.0, 0.03200000151991844, 1.055999994277954, 0.0, 0.0, 0.0, 0.0, 0.0, 1.6203129872157516E9, 2021-05-06 16:56:27.215
69.0, 141.86375427246094, 181.06912231445312, 314.96875, -226.57623291015625, 0.0, 0.03200000151991844, 1.055999994277954, 0.0, 0.0, 0.0, 0.0, 0.0, 1.6203129872164967E9, 2021-05-06 16:56:27.216
69.0, 135.06088256835938, 175.59017944335938, 317.6988830566406, -230.42832946777344, 0.0, 0.03200000151991844, 1.055999994277954, 0.0, 0.0, 0.0, 0.0, 0.0, 1.6203129872164967E9, 2021-05-06 16:56:27.216
70.0, 140.80909729003906, 178.23428344726562, 329.991943359375, -219.7209930419922, 0.0, 0.03200000151991844, 1.055999994277954, 0.0, 0.0, 0.0, 0.0, 0.0, 1.6203129872301035E9, 2021-05-06 16:56:27.230
70.0, 138.94288635253906, 180.38845825195312, 321.94366455078125, -217.06565856933594, 0.0, 0.03200000151991844, 1.055999994277954, 0.0, 0.0, 0.0, 0.0, 0.0, 1.6203129872301035E9, 2021-05-06 16:56:27.230
71.0, 131.39952087402344, 172.0821533203125, 309.92364501953125, -224.35098266601562, 0.0, 0.03200000151991844, 1.055999994277954, 0.0, 0.0, 0.0, 0.0, 0.0, 1.6203129872457173E9, 2021-05-06 16:56:27.245
71.0, 136.8448028564453, 178.33526611328125, 322.8599548339844, -216.90484619140625, 0.0, 0.03200000151991844, 1.055999994277954, 0.0, 0.0, 0.0, 0.0, 0.0, 1.6203129872457173E9, 2021-05-06 16:56:27.245
72.0, 133.19093322753906, 174.7973175048828, 326.1884765625, -217.38729858398438, 0.0, 0.03200000151991844, 1.055999994277954, 0.0, 0.0, 0.0, 0.0, 0.0, 1.620312987246594E9, 2021-05-06 16:56:27.246
72.0, 136.58302307128906, 183.8628387451172, 325.0290832519531, -207.57005310058594, 0.0, 0.03200000151991844, 1.055999994277954, 0.0, 0.0, 0.0, 0.0, 0.0, 1.620312987246594E9, 2021-05-06 16:56:27.246
73.0, 137.41326904296875, 176.16238403320312, 317.8073425292969, -215.61831665039062, 0.0, 0.03200000151991844, 1.055999994277954, 0.0, 0.0, 0.0, 0.0, 0.0, 1.6203129872600229E9, 2021-05-06 16:56:27.260
73.0, 142.50701904296875, 171.11351013183594, 320.82171630859375, -218.34471130371094, 0.0, 0.03200000151991844, 1.055999994277954, 0.0, 0.0, 0.0, 0.0, 0.0, 1.6203129872600229E9, 2021-05-06 16:56:27.260
74.0, 124.54053497314453, 167.82240295410156, 327.59466552734375, -210.69287109375, 0.0, 0.03200000151991844, 1.055999994277954, 0.0, 0.0, 0.0, 0.0, 0.0, 1.6203129872757564E9, 2021-05-06 16:56:27.275
74.0, 134.6831512451172, 173.8511199951172, 321.4836730957031, -211.52687072753906, 0.0, 0.03200000151991844, 1.055999994277954, 0.0, 0.0, 0.0, 0.0, 0.0, 1.6203129872757564E9, 2021-05-06 16:56:27.275
75.0, 134.986083984375, 172.88623046875, 316.0047302246094, -217.08810424804688, 0.0, 0.03200000151991844, 1.055999994277954, 0.0, 0.0, 0.0, 0.0, 0.0, 1.6203129872764504E9, 2021-05-06 16:56:27.276
75.0, 142.1554718017578, 176.17359924316406, 325.48162841796875, -218.59902954101562, 0.0, 0.03200000151991844, 1.055999994277954, 0.0, 0.0, 0.0, 0.0, 0.0, 1.6203129872764504E9, 2021-05-06 16:56:27.276
76.0, 133.6210174560547, 170.82554626464844, 331.7684020996094, -219.45919799804688, 0.0, 0.03200000151991844, 1.055999994277954, 0.0, 0.0, 0.0, 0.0, 0.0, 1.6203129872901647E9, 2021-05-06 16:56:27.290
76.0, 138.4454803466797, 174.86463928222656, 320.1784362792969, -213.96902465820312, 0.0, 0.03200000151991844, 1.055999994277954, 0.0, 0.0, 0.0, 0.0, 0.0, 1.6203129872901647E9, 2021-05-06 16:56:27.290
77.0, 141.45236206054688, 183.309326171875, 323.4957275390625, -209.6868438720703, 0.0, 0.03200000151991844, 1.055999994277954, 0.0, 0.0, 0.0, 0.0, 0.0, 1.6203129873058708E9, 2021-05-06 16:56:27.305
77.0, 134.469970703125, 175.75099182128906, 321.4949035644531, -215.42384338378906, 0.0, 0.03200000151991844, 1.055999994277954, 0.0, 0.0, 0.0, 0.0, 0.0, 1.6203129873058708E9, 2021-05-06 16:56:27.305
78.0, 134.69810485839844, 167.43719482421875, 331.166259765625, -206.98289489746094, 0.0, 0.03200000151991844, 1.055999994277954, 0.0, 0.0, 0.0, 0.0, 0.0, 1.6203129873064244E9, 2021-05-06 16:56:27.306
78.0, 140.97740173339844, 173.43972778320312, 326.7307434082031, -207.9440460205078, 0.0, 0.03200000151991844, 1.055999994277954, 0.0, 0.0, 0.0, 0.0, 0.0, 1.6203129873064244E9, 2021-05-06 16:56:27.306
79.0, 147.64564514160156, 170.33935546875, 315.2417907714844, -213.56886291503906, 0.0, 0.03200000151991844, 1.055999994277954, 0.0, 0.0, 0.0, 0.0, 0.0, 1.6203129873200703E9, 2021-05-06 16:56:27.320
79.0, 134.76168823242188, 165.73553466796875, 324.65509033203125, -212.94802856445312, 0.0, 0.03200000151991844, 1.055999994277954, 0.0, 0.0, 0.0, 0.0, 0.0, 1.6203129873200703E9, 2021-05-06 16:56:27.320
80.0, 138.52401733398438, 165.95619201660156, 333.3765563964844, -210.89857482910156, 0.0, 0.03200000151991844, 1.055999994277954, 0.0, 0.0, 0.0, 0.0, 0.0, 1.6203129873357255E9, 2021-05-06 16:56:27.335
80.0, 151.73709106445312, 177.8079376220703, 329.1429748535156, -204.90350341796875, 0.0, 0.03200000151991844, 1.055999994277954, 0.0, 0.0, 0.0, 0.0, 0.0, 1.6203129873357255E9, 2021-05-06 16:56:27.335
81.0, 139.32810974121094, 173.89599609375, 322.8711853027344, -210.4834442138672, 0.0, 0.03200000151991844, 1.055999994277954, 0.0, 0.0, 0.0, 0.0, 0.0, 1.6203129873364463E9, 2021-05-06 16:56:27.336
81.0, 130.3934783935547, 176.020263671875, 330.0779724121094, -204.66041564941406, 0.0, 0.03200000151991844, 1.055999994277954, 0.0, 0.0, 0.0, 0.0, 0.0, 1.6203129873364463E9, 2021-05-06 16:56:27.336
82.0, 127.57360076904297, 173.1741943359375, 329.8498229980469, -204.6342315673828, 0.0, 0.03200000151991844, 1.055999994277954, 0.0, 0.0, 0.0, 0.0, 0.0, 1.6203129873500783E9, 2021-05-06 16:56:27.350
82.0, 143.95436096191406, 180.67269897460938, 328.87744140625, -204.64170837402344, 0.0, 0.03200000151991844, 1.055999994277954, 0.0, 0.0, 0.0, 0.0, 0.0, 1.6203129873500783E9, 2021-05-06 16:56:27.350
83.0, 134.986083984375, 170.41041564941406, 319.06396484375, -210.31887817382812, 0.0, 0.03200000151991844, 1.055999994277954, 0.0, 0.0, 0.0, 0.0, 0.0, 1.6203129873668592E9, 2021-05-06 16:56:27.366
83.0, 130.72259521484375, 167.68775939941406, 320.6197509765625, -213.92041015625, 0.0, 0.03200000151991844, 1.055999994277954, 0.0, 0.0, 0.0, 0.0, 0.0, 1.6203129873668592E9, 2021-05-06 16:56:27.366
84.0, 131.758544921875, 175.7584686279297, 326.08001708984375, -211.89712524414062, 0.0, 0.03200000151991844, 1.055999994277954, 0.0, 0.0, 0.0, 0.0, 0.0, 1.6203129873808792E9, 2021-05-06 16:56:27.380
84.0, 146.27684020996094, 177.13101196289062, 329.2215270996094, -207.3157501220703, 0.0, 0.03200000151991844, 1.055999994277954, 0.0, 0.0, 0.0, 0.0, 0.0, 1.6203129873808792E9, 2021-05-06 16:56:27.380
85.0, 134.95989990234375, 171.61839294433594, 315.1221008300781, -218.97300720214844, 0.0, 0.03200000151991844, 1.055999994277954, 0.0, 0.0, 0.0, 0.0, 0.0, 1.6203129873814604E9, 2021-05-06 16:56:27.381
85.0, 154.85617065429688, 175.18252563476562, 328.0771179199219, -212.9031524658203, 0.0, 0.03200000151991844, 1.055999994277954, 0.0, 0.0, 0.0, 0.0, 0.0, 1.6203129873814604E9, 2021-05-06 16:56:27.381
86.0, 139.8666534423828, 172.9311065673828, 329.640380859375, -210.96214294433594, 0.0, 0.03200000151991844, 1.055999994277954, 0.0, 0.0, 0.0, 0.0, 0.0, 1.6203129874120953E9, 2021-05-06 16:56:27.412
86.0, 139.21591186523438, 178.84762573242188, 325.29461669921875, -208.93885803222656, 0.0, 0.03200000151991844, 1.055999994277954, 0.0, 0.0, 0.0, 0.0, 0.0, 1.6203129874120953E9, 2021-05-06 16:56:27.412
87.0, 140.58096313476562, 181.81336975097656, 330.7361755371094, -194.64869689941406, 0.0, 0.03200000151991844, 1.055999994277954, 0.0, 0.0, 0.0, 0.0, 0.0, 1.6203129874128046E9, 2021-05-06 16:56:27.412
87.0, 151.45286560058594, 179.4983673095703, 336.9930419921875, -195.50140380859375, 0.0, 0.03200000151991844, 1.055999994277954, 0.0, 0.0, 0.0, 0.0, 0.0, 1.6203129874128046E9, 2021-05-06 16:56:27.412
88.0, 136.06690979003906, 175.30967712402344, 333.20452880859375, -197.45362854003906, 0.0, 0.03200000151991844, 1.055999994277954, 0.0, 0.0, 0.0, 0.0, 0.0, 1.6203129874135597E9, 2021-05-06 16:56:27.413
88.0, 142.5369415283203, 166.28155517578125, 318.6936950683594, -204.9745635986328, 0.0, 0.03200000151991844, 1.055999994277954, 0.0, 0.0, 0.0, 0.0, 0.0, 1.6203129874135597E9, 2021-05-06 16:56:27.413
89.0, 149.4370574951172, 165.85894775390625, 316.0084533691406, -211.52313232421875, 0.0, 0.03200000151991844, 1.055999994277954, 0.0, 0.0, 0.0, 0.0, 0.0, 1.6203129874143243E9, 2021-05-06 16:56:27.414
89.0, 156.6027069091797, 170.65350341796875, 333.9188232421875, -204.3350372314453, 0.0, 0.03200000151991844, 1.055999994277954, 0.0, 0.0, 0.0, 0.0, 0.0, 1.6203129874143243E9, 2021-05-06 16:56:27.414
90.0, 142.9184112548828, 169.142578125, 333.043701171875, -211.05564880371094, 0.0, 0.03200000151991844, 1.055999994277954, 0.0, 0.0, 0.0, 0.0, 0.0, 1.6203129874250338E9, 2021-05-06 16:56:27.425
90.0, 145.12869262695312, 162.01058959960938, 320.8067626953125, -209.24179077148438, 0.0, 0.03200000151991844, 1.055999994277954, 0.0, 0.0, 0.0, 0.0, 0.0, 1.6203129874250338E9, 2021-05-06 16:56:27.425
91.0, 155.93325805664062, 173.4285125732422, 325.2796630859375, -204.01341247558594, 0.0, 0.03200000151991844, 1.055999994277954, 0.0, 0.0, 0.0, 0.0, 0.0, 1.620312987440179E9, 2021-05-06 16:56:27.440
91.0, 148.09068298339844, 162.9979248046875, 323.794921875, -211.77371215820312, 0.0, 0.03200000151991844, 1.055999994277954, 0.0, 0.0, 0.0, 0.0, 0.0, 1.620312987440179E9, 2021-05-06 16:56:27.440
92.0, 136.82984924316406, 161.8123779296875, 325.5264892578125, -212.136474609375, 0.0, 0.03200000151991844, 1.055999994277954, 0.0, 0.0, 0.0, 0.0, 0.0, 1.620312987455774E9, 2021-05-06 16:56:27.455
92.0, 142.21156311035156, 162.22750854492188, 320.61602783203125, -211.6278533935547, 0.0, 0.03200000151991844, 1.055999994277954, 0.0, 0.0, 0.0, 0.0, 0.0, 1.620312987455774E9, 2021-05-06 16:56:27.455
93.0, 146.81912231445312, 164.30316162109375, 317.9419860839844, -214.78057861328125, 0.0, 0.03200000151991844, 1.055999994277954, 0.0, 0.0, 0.0, 0.0, 0.0, 1.6203129874564252E9, 2021-05-06 16:56:27.456
93.0, 152.80296325683594, 173.2602081298828, 334.50225830078125, -211.8896484375, 0.0, 0.03200000151991844, 1.055999994277954, 0.0, 0.0, 0.0, 0.0, 0.0, 1.6203129874564252E9, 2021-05-06 16:56:27.456
94.0, 150.01673889160156, 168.24501037597656, 338.3880310058594, -216.78143310546875, 0.0, 0.03200000151991844, 1.055999994277954, 0.0, 0.0, 0.0, 0.0, 0.0, 1.6203129874700203E9, 2021-05-06 16:56:27.470
94.0, 140.01251220703125, 175.1226806640625, 324.8271484375, -221.94622802734375, 0.0, 0.03200000151991844, 1.055999994277954, 0.0, 0.0, 0.0, 0.0, 0.0, 1.6203129874700203E9, 2021-05-06 16:56:27.470
95.0, 158.06126403808594, 182.66232299804688, 326.5549621582031, -215.28921508789062, 0.0, 0.03200000151991844, 1.055999994277954, 0.0, 0.0, 0.0, 0.0, 0.0, 1.6203129874857376E9, 2021-05-06 16:56:27.485
95.0, 146.52740478515625, 178.78404235839844, 333.94500732421875, -214.37667846679688, 0.0, 0.03200000151991844, 1.055999994277954, 0.0, 0.0, 0.0, 0.0, 0.0, 1.6203129874857376E9, 2021-05-06 16:56:27.485
96.0, 139.6908721923828, 176.71214294433594, 331.7160339355469, -208.63592529296875, 0.0, 0.03200000151991844, 1.055999994277954, 0.0, 0.0, 0.0, 0.0, 0.0, 1.6203129874863992E9, 2021-05-06 16:56:27.486
96.0, 134.3465576171875, 167.77752685546875, 324.41949462890625, -209.73171997070312, 0.0, 0.03200000151991844, 1.055999994277954, 0.0, 0.0, 0.0, 0.0, 0.0, 1.6203129874863992E9, 2021-05-06 16:56:27.486
97.0, 143.2475128173828, 167.64662170410156, 317.1117248535156, -206.50791931152344, 0.0, 0.03200000151991844, 1.055999994277954, 0.0, 0.0, 0.0, 0.0, 0.0, 1.620312987500101E9, 2021-05-06 16:56:27.500
