Sample Index, EXG Channel 0, EXG Channel 1, EXG Channel 2, EXG Channel 3, Accel Channel 0, Accel Channel 1, Accel Channel 2, Other, Other, Other, Other, Other, Timestamp, Timestamp (Formatted)
0.0, -187.5503692626953, -130.80113220214844, 223.8760223388672, -55.20466232299805, 0.0, 0.0, 0.0, 0.0, 0.0, 0.0, 0.0, 0.0, 1.6203961034306233E9, 2021-05-07 16:01:43.430
1.0, -193.08917236328125, -121.11105346679688, 226.29946899414062, -61.708351135253906, 0.0, 0.01600000075995922, 0.0, 0.0, 0.0, 0.0, 0.0, 0.0, 1.6203961034313636E9, 2021-05-07 16:01:43.431
1.0, -194.52528381347656, -132.15496826171875, 224.94937133789062, -56.16581726074219, 0.0, 0.01600000075995922, 0.0, 0.0, 0.0, 0.0, 0.0, 0.0, 1.6203961034313636E9, 2021-05-07 16:01:43.431
2.0, -191.26783752441406, -137.88076782226562, 210.2665252685547, -55.23084259033203, 0.04800000041723251, 0.01600000075995922, 0.0, 0.0, 0.0, 0.0, 0.0, 0.0, 1.6203961034459743E9, 2021-05-07 16:01:43.445
2.0, -183.55990600585938, -135.3525848388672, 217.00209045410156, -54.2509880065918, 0.04800000041723251, 0.01600000075995922, 0.0, 0.0, 0.0, 0.0, 0.0, 0.0, 1.6203961034459743E9, 2021-05-07 16:01:43.445
3.0, -189.48390197753906, -135.52088928222656, 220.73825073242188, -47.71364212036133, 0.04800000041723251, 0.01600000075995922, 0.0, 0.0, 0.0, 0.0, 0.0, 0.0, 1.6203961034473653E9, 2021-05-07 16:01:43.447
3.0, -194.81326293945312, -119.716064453125, 227.08111572265625, -43.266902923583984, 0.04800000041723251, 0.01600000075995922, 0.0, 0.0, 0.0, 0.0, 0.0, 0.0, 1.6203961034473653E9, 2021-05-07 16:01:43.447
4.0, -195.40415954589844, -129.6081085205078, 220.15855407714844, -37.94502639770508, 0.04800000041723251, 0.01600000075995922, 0.0, 0.0, 0.0, 0.0, 0.0, 0.0, 1.6203961034762633E9, 2021-05-07 16:01:43.476
4.0, -182.09011840820312, -123.53450775146484, 230.86962890625, -41.04914093017578, 0.04800000041723251, 0.01600000075995922, 0.0, 0.0, 0.0, 0.0, 0.0, 0.0, 1.6203961034762633E9, 2021-05-07 16:01:43.476
5.0, -187.2436981201172, -132.3943328857422, 232.79568481445312, -45.62303924560547, 0.04800000041723251, 0.01600000075995922, 0.0, 0.0, 0.0, 0.0, 0.0, 0.0, 1.6203961034768355E9, 2021-05-07 16:01:43.476
5.0, -181.3047332763672, -119.10646057128906, 243.8470916748047, -39.3961067199707, 0.04800000041723251, 0.01600000075995922, 0.0, 0.0, 0.0, 0.0, 0.0, 0.0, 1.6203961034768355E9, 2021-05-07 16:01:43.476
6.0, -185.4186248779297, -107.00788879394531, 244.22482299804688, -39.24650955200195, 0.04800000041723251, 0.01600000075995922, 0.0, 0.0, 0.0, 0.0, 0.0, 0.0, 1.6203961034775732E9, 2021-05-07 16:01:43.477
6.0, -181.83206176757812, -110.39997863769531, 240.3689727783203, -46.367279052734375, 0.04800000041723251, 0.01600000075995922, 0.0, 0.0, 0.0, 0.0, 0.0, 0.0, 1.6203961034775732E9, 2021-05-07 16:01:43.477
7.0, -186.73133850097656, -119.36077880859375, 243.06170654296875, -55.83296585083008, 0.04800000041723251, 0.01600000075995922, 0.0, 0.0, 0.0, 0.0, 0.0, 0.0, 1.620396103489797E9, 2021-05-07 16:01:43.489
7.0, -175.11520385742188, -113.77336883544922, 253.7279052734375, -37.0960693359375, 0.04800000041723251, 0.01600000075995922, 0.0, 0.0, 0.0, 0.0, 0.0, 0.0, 1.620396103489797E9, 2021-05-07 16:01:43.489
8.0, -187.40077209472656, -118.03311157226562, 235.8399658203125, -51.96965026855469, 0.04800000041723251, 0.01600000075995922, 0.0, 0.0, 0.0, 0.0, 0.0, 0.0, 1.6203961035055904E9, 2021-05-07 16:01:43.505
8.0, -193.20135498046875, -125.69242858886719, 229.57937622070312, -58.458377838134766, 0.04800000041723251, 0.01600000075995922, 0.0, 0.0, 0.0, 0.0, 0.0, 0.0, 1.6203961035055904E9, 2021-05-07 16:01:43.505
9.0, -192.05320739746094, -120.17981719970703, 237.58274841308594, -51.1693115234375, 0.04800000041723251, 0.01600000075995922, 0.0, 0.0, 0.0, 0.0, 0.0, 0.0, 1.620396103506323E9, 2021-05-07 16:01:43.506
9.0, -191.9185791015625, -129.10694885253906, 237.67999267578125, -46.87964630126953, 0.04800000041723251, 0.01600000075995922, 0.0, 0.0, 0.0, 0.0, 0.0, 0.0, 1.620396103506323E9, 2021-05-07 16:01:43.506
10.0, -198.49331665039062, -128.44873046875, 222.32769775390625, -47.145179748535156, 0.04800000041723251, 0.01600000075995922, 1.055999994277954, 0.0, 0.0, 0.0, 0.0, 0.0, 1.6203961035359776E9, 2021-05-07 16:01:43.535
10.0, -197.18435668945312, -145.55503845214844, 214.89651489257812, -48.49528121948242, 0.04800000041723251, 0.01600000075995922, 1.055999994277954, 0.0, 0.0, 0.0, 0.0, 0.0, 1.6203961035359776E9, 2021-05-07 16:01:43.535
11.0, -201.47776794433594, -142.39108276367188, 214.94888305664062, -46.277523040771484, 0.04800000041723251, 0.01600000075995922, 1.055999994277954, 0.0, 0.0, 0.0, 0.0, 0.0, 1.6203961035522454E9, 2021-05-07 16:01:43.552
11.0, -178.87754821777344, -135.26283264160156, 221.8377685546875, -38.96601867675781, 0.04800000041723251, 0.01600000075995922, 1.055999994277954, 0.0, 0.0, 0.0, 0.0, 0.0, 1.6203961035522454E9, 2021-05-07 16:01:43.552
12.0, -203.6880340576172, -138.99899291992188, 204.18919372558594, -47.605186462402344, 0.04800000041723251, 0.01600000075995922, 1.055999994277954, 0.0, 0.0, 0.0, 0.0, 0.0, 1.6203961035529487E9, 2021-05-07 16:01:43.552
12.0, -197.01231384277344, -128.4861297607422, 211.9232940673828, -45.48466491699219, 0.04800000041723251, 0.01600000075995922, 1.055999994277954, 0.0, 0.0, 0.0, 0.0, 0.0, 1.6203961035529487E9, 2021-05-07 16:01:43.552
13.0, -193.85958862304688, -129.83250427246094, 224.13034057617188, -36.665977478027344, 0.04800000041723251, 0.01600000075995922, 1.055999994277954, 0.0, 0.0, 0.0, 0.0, 0.0, 1.6203961035536823E9, 2021-05-07 16:01:43.553
13.0, -196.17457580566406, -135.7003936767578, 223.39356994628906, -51.6031379699707, 0.04800000041723251, 0.01600000075995922, 1.055999994277954, 0.0, 0.0, 0.0, 0.0, 0.0, 1.6203961035536823E9, 2021-05-07 16:01:43.553
14.0, -189.1622772216797, -126.95277404785156, 226.01150512695312, -44.684326171875, 0.04800000041723251, 0.01600000075995922, 1.055999994277954, 0.0, 0.0, 0.0, 0.0, 0.0, 1.6203961035656788E9, 2021-05-07 16:01:43.565
14.0, -186.185302734375, -125.78592681884766, 224.27993774414062, -48.027793884277344, 0.04800000041723251, 0.01600000075995922, 1.055999994277954, 0.0, 0.0, 0.0, 0.0, 0.0, 1.6203961035656788E9, 2021-05-07 16:01:43.565
15.0, -184.56593322753906, -124.64151763916016, 238.4952850341797, -50.41385269165039, 0.04800000041723251, 0.01600000075995922, 1.055999994277954, 0.0, 0.0, 0.0, 0.0, 0.0, 1.620396103566291E9, 2021-05-07 16:01:43.566
15.0, -182.92037963867188, -136.9383087158203, 233.74935913085938, -59.27367401123047, 0.04800000041723251, 0.01600000075995922, 1.055999994277954, 0.0, 0.0, 0.0, 0.0, 0.0, 1.620396103566291E9, 2021-05-07 16:01:43.566
16.0, -179.08697509765625, -131.9792022705078, 234.83392333984375, -49.43025588989258, 0.04800000041723251, 0.01600000075995922, 1.055999994277954, 0.0, 0.0, 0.0, 0.0, 0.0, 1.6203961035963497E9, 2021-05-07 16:01:43.596
16.0, -188.5638885498047, -139.0887451171875, 218.18389892578125, -75.22808837890625, 0.04800000041723251, 0.01600000075995922, 1.055999994277954, 0.0, 0.0, 0.0, 0.0, 0.0, 1.6203961035963497E9, 2021-05-07 16:01:43.596
17.0, -172.70297241210938, -116.48853302001953, 243.69749450683594, -49.2507438659668, 0.04800000041723251, 0.01600000075995922, 1.055999994277954, 0.0, 0.0, 0.0, 0.0, 0.0, 1.6203961035968692E9, 2021-05-07 16:01:43.596
17.0, -181.36083984375, -120.20973205566406, 245.68338012695312, -50.10343933105469, 0.04800000041723251, 0.01600000075995922, 1.055999994277954, 0.0, 0.0, 0.0, 0.0, 0.0, 1.6203961035968692E9, 2021-05-07 16:01:43.596
18.0, -184.7117919921875, -117.14675903320312, 240.18946838378906, -51.40866470336914, 0.04800000041723251, 0.01600000075995922, 1.055999994277954, 0.0, 0.0, 0.0, 0.0, 0.0, 1.6203961035976148E9, 2021-05-07 16:01:43.597
18.0, -189.21836853027344, -121.9001693725586, 237.49673461914062, -50.944915771484375, 0.04800000041723251, 0.01600000075995922, 1.055999994277954, 0.0, 0.0, 0.0, 0.0, 0.0, 1.6203961035976148E9, 2021-05-07 16:01:43.597
19.0, -183.9525909423828, -110.9198226928711, 241.28900146484375, -51.9023323059082, 0.04800000041723251, 0.01600000075995922, 1.055999994277954, 0.0, 0.0, 0.0, 0.0, 0.0, 1.620396103609751E9, 2021-05-07 16:01:43.609
19.0, -185.77392578125, -119.47297668457031, 245.26077270507812, -45.1181526184082, 0.04800000041723251, 0.01600000075995922, 1.055999994277954, 0.0, 0.0, 0.0, 0.0, 0.0, 1.620396103609751E9, 2021-05-07 16:01:43.609
20.0, -162.76231384277344, -113.41433715820312, 239.9127197265625, -40.37596130371094, 0.04800000041723251, 0.01600000075995922, 1.055999994277954, 0.0, 0.0, 0.0, 0.0, 0.0, 1.6203961036254613E9, 2021-05-07 16:01:43.625
20.0, -191.48849487304688, -119.33085632324219, 227.9076385498047, -49.37416076660156, 0.04800000041723251, 0.01600000075995922, 1.055999994277954, 0.0, 0.0, 0.0, 0.0, 0.0, 1.6203961036254613E9, 2021-05-07 16:01:43.625
21.0, -191.8250732421875, -132.4429473876953, 226.4303741455078, -51.23289108276367, 0.04800000041723251, 0.01600000075995922, 1.055999994277954, 0.0, 0.0, 0.0, 0.0, 0.0, 1.6203961036261764E9, 2021-05-07 16:01:43.626
21.0, -188.15997314453125, -118.68011474609375, 230.2263641357422, -45.47344207763672, 0.04800000041723251, 0.01600000075995922, 1.055999994277954, 0.0, 0.0, 0.0, 0.0, 0.0, 1.6203961036261764E9, 2021-05-07 16:01:43.626
22.0, -196.1110076904297, -127.77555084228516, 216.44483947753906, -52.859745025634766, 0.04800000041723251, 0.01600000075995922, 1.055999994277954, 0.0, 0.0, 0.0, 0.0, 0.0, 1.6203961036558642E9, 2021-05-07 16:01:43.655
22.0, -188.6125030517578, -122.02732849121094, 213.2023468017578, -35.88059997558594, 0.04800000041723251, 0.01600000075995922, 1.055999994277954, 0.0, 0.0, 0.0, 0.0, 0.0, 1.6203961036558642E9, 2021-05-07 16:01:43.655
23.0, -196.4139404296875, -137.6189727783203, 211.85972595214844, -47.15266036987305, 0.04800000041723251, 0.01600000075995922, 1.055999994277954, 0.0, 0.0, 0.0, 0.0, 0.0, 1.6203961036565828E9, 2021-05-07 16:01:43.656
23.0, -186.8697052001953, -133.8267059326172, 224.49684143066406, -44.73294448852539, 0.04800000041723251, 0.01600000075995922, 1.055999994277954, 0.0, 0.0, 0.0, 0.0, 0.0, 1.6203961036565828E9, 2021-05-07 16:01:43.656
24.0, -182.13873291015625, -137.70498657226562, 215.7342529296875, -50.60832595825195, 0.04800000041723251, 0.01600000075995922, 1.055999994277954, 0.0, 0.0, 0.0, 0.0, 0.0, 1.620396103670575E9, 2021-05-07 16:01:43.670
24.0, -178.25672912597656, -133.60980224609375, 220.2782440185547, -48.29332733154297, 0.04800000041723251, 0.01600000075995922, 1.055999994277954, 0.0, 0.0, 0.0, 0.0, 0.0, 1.620396103670575E9, 2021-05-07 16:01:43.670
25.0, -181.9105987548828, -131.8370819091797, 233.5773162841797, -53.042999267578125, 0.04800000041723251, 0.01600000075995922, 1.055999994277954, 0.0, 0.0, 0.0, 0.0, 0.0, 1.6203961036712646E9, 2021-05-07 16:01:43.671
25.0, -180.19398498535156, -126.71341705322266, 232.0290069580078, -53.7872428894043, 0.04800000041723251, 0.01600000075995922, 1.055999994277954, 0.0, 0.0, 0.0, 0.0, 0.0, 1.6203961036712646E9, 2021-05-07 16:01:43.671
26.0, -175.5527801513672, -132.0577392578125, 233.9326171875, -55.806785583496094, 0.04800000041723251, 0.01600000075995922, 1.055999994277954, 0.0, 0.0, 0.0, 0.0, 0.0, 1.6203961036855934E9, 2021-05-07 16:01:43.685
26.0, -180.0406494140625, -131.2087860107422, 232.148681640625, -58.70146942138672, 0.04800000041723251, 0.01600000075995922, 1.055999994277954, 0.0, 0.0, 0.0, 0.0, 0.0, 1.6203961036855934E9, 2021-05-07 16:01:43.685
27.0, -179.6217803955078, -130.48324584960938, 238.7309112548828, -63.03227233886719, 0.04800000041723251, 0.01600000075995922, 1.055999994277954, 0.0, 0.0, 0.0, 0.0, 0.0, 1.620396103686192E9, 2021-05-07 16:01:43.686
27.0, -173.74266052246094, -112.91319274902344, 243.70123291015625, -58.417236328125, 0.04800000041723251, 0.01600000075995922, 1.055999994277954, 0.0, 0.0, 0.0, 0.0, 0.0, 1.620396103686192E9, 2021-05-07 16:01:43.686
28.0, -171.16961669921875, -117.50578308105469, 235.8025665283203, -60.60881805419922, 0.04800000041723251, 0.01600000075995922, 1.055999994277954, 0.0, 0.0, 0.0, 0.0, 0.0, 1.620396103699824E9, 2021-05-07 16:01:43.699
28.0, -177.7967071533203, -122.00862884521484, 237.2760772705078, -60.15629196166992, 0.04800000041723251, 0.01600000075995922, 1.055999994277954, 0.0, 0.0, 0.0, 0.0, 0.0, 1.620396103699824E9, 2021-05-07 16:01:43.699
29.0, -172.0709228515625, -114.7569580078125, 244.15750122070312, -50.16701889038086, 0.04800000041723251, 0.01600000075995922, 1.055999994277954, 0.0, 0.0, 0.0, 0.0, 0.0, 1.6203961037156422E9, 2021-05-07 16:01:43.715
29.0, -167.9121551513672, -122.12830352783203, 243.5142364501953, -49.35171890258789, 0.04800000041723251, 0.01600000075995922, 1.055999994277954, 0.0, 0.0, 0.0, 0.0, 0.0, 1.6203961037156422E9, 2021-05-07 16:01:43.715
30.0, -183.7880401611328, -122.39757537841797, 240.73922729492188, -45.48092269897461, 0.04800000041723251, 0.01600000075995922, 1.055999994277954, 0.0, 0.0, 0.0, 0.0, 0.0, 1.6203961037163713E9, 2021-05-07 16:01:43.716
30.0, -177.65460205078125, -127.72693634033203, 237.94178771972656, -37.9300651550293, 0.04800000041723251, 0.01600000075995922, 1.055999994277954, 0.0, 0.0, 0.0, 0.0, 0.0, 1.6203961037163713E9, 2021-05-07 16:01:43.716
31.0, -189.2856903076172, -141.5907440185547, 232.56007385253906, -46.000770568847656, 0.04800000041723251, 0.01600000075995922, 1.055999994277954, 0.0, 0.0, 0.0, 0.0, 0.0, 1.6203961037298963E9, 2021-05-07 16:01:43.729
31.0, -187.97671508789062, -136.841064453125, 237.45559692382812, -34.55667495727539, 0.04800000041723251, 0.01600000075995922, 1.055999994277954, 0.0, 0.0, 0.0, 0.0, 0.0, 1.6203961037298963E9, 2021-05-07 16:01:43.729
32.0, -180.72879028320312, -126.80691528320312, 235.67539978027344, -27.836074829101562, 0.04800000041723251, 0.01600000075995922, 1.055999994277954, 0.0, 0.0, 0.0, 0.0, 0.0, 1.6203961037455032E9, 2021-05-07 16:01:43.745
32.0, -184.40138244628906, -146.0861053466797, 218.55413818359375, -49.41156005859375, 0.04800000041723251, 0.01600000075995922, 1.055999994277954, 0.0, 0.0, 0.0, 0.0, 0.0, 1.6203961037455032E9, 2021-05-07 16:01:43.745
33.0, -189.4577178955078, -136.1304931640625, 222.6119384765625, -51.898590087890625, 0.04800000041723251, 0.01600000075995922, 1.055999994277954, 0.0, 0.0, 0.0, 0.0, 0.0, 1.6203961037462833E9, 2021-05-07 16:01:43.746
33.0, -176.17359924316406, -138.51280212402344, 231.5054168701172, -35.55522918701172, 0.04800000041723251, 0.01600000075995922, 1.055999994277954, 0.0, 0.0, 0.0, 0.0, 0.0, 1.6203961037462833E9, 2021-05-07 16:01:43.746
34.0, -182.90541076660156, -132.33074951171875, 227.27932739257812, -42.99388885498047, 0.04800000041723251, 0.01600000075995922, 1.055999994277954, 0.0, 0.0, 0.0, 0.0, 0.0, 1.6203961037597573E9, 2021-05-07 16:01:43.759
34.0, -183.68331909179688, -128.9498748779297, 229.6579132080078, -48.8917121887207, 0.04800000041723251, 0.01600000075995922, 1.055999994277954, 0.0, 0.0, 0.0, 0.0, 0.0, 1.6203961037597573E9, 2021-05-07 16:01:43.759
35.0, -175.49293518066406, -129.6081085205078, 243.7722930908203, -46.905826568603516, 0.04800000041723251, 0.01600000075995922, 1.055999994277954, 0.0, 0.0, 0.0, 0.0, 0.0, 1.6203961037755036E9, 2021-05-07 16:01:43.775
35.0, -179.412353515625, -129.09947204589844, 237.6912078857422, -57.03347396850586, 0.04800000041723251, 0.01600000075995922, 1.055999994277954, 0.0, 0.0, 0.0, 0.0, 0.0, 1.6203961037755036E9, 2021-05-07 16:01:43.775
36.0, -163.2111053466797, -121.23072814941406, 246.046142578125, -49.475135803222656, 0.04800000041723251, 0.01600000075995922, 1.055999994277954, 0.0, 0.0, 0.0, 0.0, 0.0, 1.6203961037762632E9, 2021-05-07 16:01:43.776
36.0, -166.13571166992188, -111.82487487792969, 244.179931640625, -45.189212799072266, 0.04800000041723251, 0.01600000075995922, 1.055999994277954, 0.0, 0.0, 0.0, 0.0, 0.0, 1.6203961037762632E9, 2021-05-07 16:01:43.776
37.0, -177.39280700683594, -117.55440521240234, 235.7427215576172, -56.442569732666016, 0.04800000041723251, 0.01600000075995922, 1.055999994277954, 0.0, 0.0, 0.0, 0.0, 0.0, 1.620396103789745E9, 2021-05-07 16:01:43.789
37.0, -179.09820556640625, -115.7966537475586, 236.78240966796875, -57.16810989379883, 0.04800000041723251, 0.01600000075995922, 1.055999994277954, 0.0, 0.0, 0.0, 0.0, 0.0, 1.620396103789745E9, 2021-05-07 16:01:43.789
38.0, -176.25587463378906, -107.81570434570312, 245.00271606445312, -50.234336853027344, 0.04800000041723251, 0.01600000075995922, 1.055999994277954, 0.0, 0.0, 0.0, 0.0, 0.0, 1.6203961038054593E9, 2021-05-07 16:01:43.805
38.0, -163.90672302246094, -109.86517333984375, 245.7544403076172, -52.04444885253906, 0.04800000041723251, 0.01600000075995922, 1.055999994277954, 0.0, 0.0, 0.0, 0.0, 0.0, 1.6203961038054593E9, 2021-05-07 16:01:43.805
39.0, -181.12522888183594, -112.54667663574219, 242.8260955810547, -57.72535705566406, 0.04800000041723251, 0.01600000075995922, 1.055999994277954, 0.0, 0.0, 0.0, 0.0, 0.0, 1.620396103806296E9, 2021-05-07 16:01:43.806
39.0, -180.0518798828125, -115.38526153564453, 243.72366333007812, -56.386470794677734, 0.04800000041723251, 0.01600000075995922, 1.055999994277954, 0.0, 0.0, 0.0, 0.0, 0.0, 1.620396103806296E9, 2021-05-07 16:01:43.806
40.0, -173.2938690185547, -110.35509490966797, 244.68482971191406, -44.358951568603516, 0.04800000041723251, 0.01600000075995922, 1.055999994277954, 0.0, 0.0, 0.0, 0.0, 0.0, 1.6203961038198202E9, 2021-05-07 16:01:43.819
40.0, -179.52828979492188, -121.52992248535156, 236.2513427734375, -53.99667739868164, 0.04800000041723251, 0.01600000075995922, 1.055999994277954, 0.0, 0.0, 0.0, 0.0, 0.0, 1.6203961038198202E9, 2021-05-07 16:01:43.819
41.0, -181.68246459960938, -123.3250732421875, 232.03274536132812, -50.35401153564453, 0.04800000041723251, 0.01600000075995922, 1.055999994277954, 0.0, 0.0, 0.0, 0.0, 0.0, 1.620396103835448E9, 2021-05-07 16:01:43.835
41.0, -183.42526245117188, -124.30492401123047, 228.12454223632812, -42.694698333740234, 0.04800000041723251, 0.01600000075995922, 1.055999994277954, 0.0, 0.0, 0.0, 0.0, 0.0, 1.620396103835448E9, 2021-05-07 16:01:43.835
42.0, -181.04295349121094, -131.758544921875, 222.29029846191406, -44.0335807800293, 0.04800000041723251, 0.01600000075995922, 1.055999994277954, 0.0, 0.0, 0.0, 0.0, 0.0, 1.620396103836206E9, 2021-05-07 16:01:43.836
42.0, -178.38388061523438, -128.76287841796875, 221.26556396484375, -41.251094818115234, 0.04800000041723251, 0.01600000075995922, 1.055999994277954, 0.0, 0.0, 0.0, 0.0, 0.0, 1.620396103836206E9, 2021-05-07 16:01:43.836
43.0, -179.2515411376953, -132.4242401123047, 227.88893127441406, -38.779022216796875, 0.04800000041723251, 0.01600000075995922, 1.055999994277954, 0.0, 0.0, 0.0, 0.0, 0.0, 1.6203961038499205E9, 2021-05-07 16:01:43.849
43.0, -178.2230682373047, -127.73441314697266, 236.78990173339844, -36.50142288208008, 0.04800000041723251, 0.01600000075995922, 1.055999994277954, 0.0, 0.0, 0.0, 0.0, 0.0, 1.6203961038499205E9, 2021-05-07 16:01:43.849
44.0, -181.0653839111328, -129.41737365722656, 226.91282653808594, -45.01343536376953, 0.04800000041723251, 0.01600000075995922, 1.055999994277954, 0.0, 0.0, 0.0, 0.0, 0.0, 1.6203961038656356E9, 2021-05-07 16:01:43.865
44.0, -178.0136260986328, -127.34920501708984, 230.42459106445312, -47.893157958984375, 0.04800000041723251, 0.01600000075995922, 1.055999994277954, 0.0, 0.0, 0.0, 0.0, 0.0, 1.6203961038656356E9, 2021-05-07 16:01:43.865
45.0, -191.0322265625, -134.305419921875, 237.29104614257812, -57.51592254638672, 0.04800000041723251, 0.01600000075995922, 1.055999994277954, 0.0, 0.0, 0.0, 0.0, 0.0, 1.620396103866341E9, 2021-05-07 16:01:43.866
45.0, -176.42042541503906, -116.39129638671875, 250.12637329101562, -46.13166427612305, 0.04800000041723251, 0.01600000075995922, 1.055999994277954, 0.0, 0.0, 0.0, 0.0, 0.0, 1.620396103866341E9, 2021-05-07 16:01:43.866
46.0, -176.50645446777344, -103.14083099365234, 243.35716247558594, -45.78385543823242, 0.04800000041723251, 0.01600000075995922, 1.055999994277954, 0.0, 0.0, 0.0, 0.0, 0.0, 1.620396103879943E9, 2021-05-07 16:01:43.879
46.0, -180.14537048339844, -112.08293151855469, 236.77867126464844, -54.51652145385742, 0.04800000041723251, 0.01600000075995922, 1.055999994277954, 0.0, 0.0, 0.0, 0.0, 0.0, 1.620396103879943E9, 2021-05-07 16:01:43.879
47.0, -183.50753784179688, -110.99088287353516, 247.4112091064453, -50.73922348022461, 0.04800000041723251, 0.01600000075995922, 1.055999994277954, 0.0, 0.0, 0.0, 0.0, 0.0, 1.6203961038953996E9, 2021-05-07 16:01:43.895
47.0, -166.84254455566406, -95.37306213378906, 255.04434204101562, -39.86359405517578, 0.04800000041723251, 0.01600000075995922, 1.055999994277954, 0.0, 0.0, 0.0, 0.0, 0.0, 1.6203961038953996E9, 2021-05-07 16:01:43.895
48.0, -176.37181091308594, -101.52145385742188, 247.72535705566406, -37.305503845214844, 0.04800000041723251, 0.01600000075995922, 1.055999994277954, 0.0, 0.0, 0.0, 0.0, 0.0, 1.6203961038961377E9, 2021-05-07 16:01:43.896
48.0, -182.96151733398438, -106.39080047607422, 248.36114501953125, -42.39176559448242, 0.04800000041723251, 0.01600000075995922, 1.055999994277954, 0.0, 0.0, 0.0, 0.0, 0.0, 1.6203961038961377E9, 2021-05-07 16:01:43.896
49.0, -191.5408477783203, -114.92151641845703, 246.92127990722656, -47.97169494628906, 0.04800000041723251, 0.01600000075995922, 1.055999994277954, 0.0, 0.0, 0.0, 0.0, 0.0, 1.620396103909726E9, 2021-05-07 16:01:43.909
49.0, -183.4439697265625, -116.11454010009766, 251.51388549804688, -44.05602264404297, 0.04800000041723251, 0.01600000075995922, 1.055999994277954, 0.0, 0.0, 0.0, 0.0, 0.0, 1.620396103909726E9, 2021-05-07 16:01:43.909
50.0, -178.08094787597656, -118.54174041748047, 247.80764770507812, -43.61471176147461, 0.04800000041723251, 0.01600000075995922, 1.055999994277954, 0.0, 0.0, 0.0, 0.0, 0.0, 1.6203961039254396E9, 2021-05-07 16:01:43.925
50.0, -179.1505584716797, -116.1407241821289, 243.16268920898438, -38.82390213012695, 0.04800000041723251, 0.01600000075995922, 1.055999994277954, 0.0, 0.0, 0.0, 0.0, 0.0, 1.6203961039254396E9, 2021-05-07 16:01:43.925
51.0, -188.88551330566406, -123.95337677001953, 239.6060333251953, -41.23239517211914, 0.04800000041723251, 0.0, 1.055999994277954, 0.0, 0.0, 0.0, 0.0, 0.0, 1.6203961039261544E9, 2021-05-07 16:01:43.926
51.0, -201.43661499023438, -121.3990249633789, 231.03419494628906, -45.52580261230469, 0.04800000041723251, 0.0, 1.055999994277954, 0.0, 0.0, 0.0, 0.0, 0.0, 1.6203961039261544E9, 2021-05-07 16:01:43.926
52.0, -176.05392456054688, -111.2190170288086, 240.22686767578125, -27.88095474243164, 0.04800000041723251, 0.0, 1.055999994277954, 0.0, 0.0, 0.0, 0.0, 0.0, 1.6203961039398632E9, 2021-05-07 16:01:43.939
52.0, -185.14561462402344, -128.86386108398438, 229.12684631347656, -33.54690170288086, 0.04800000041723251, 0.0, 1.055999994277954, 0.0, 0.0, 0.0, 0.0, 0.0, 1.6203961039398632E9, 2021-05-07 16:01:43.939
53.0, -178.78030395507812, -122.57334899902344, 237.5341339111328, -28.924386978149414, 0.04800000041723251, 0.0, 1.055999994277954, 0.0, 0.0, 0.0, 0.0, 0.0, 1.6203961039553895E9, 2021-05-07 16:01:43.955
53.0, -188.09640502929688, -111.55186462402344, 240.48117065429688, -29.42179298400879, 0.04800000041723251, 0.0, 1.055999994277954, 0.0, 0.0, 0.0, 0.0, 0.0, 1.6203961039553895E9, 2021-05-07 16:01:43.955
54.0, -192.23272705078125, -133.72573852539062, 228.65187072753906, -42.62363815307617, 0.04800000041723251, 0.0, 1.055999994277954, 0.0, 0.0, 0.0, 0.0, 0.0, 1.6203961039561536E9, 2021-05-07 16:01:43.956
54.0, -185.99832153320312, -119.90679931640625, 235.2789764404297, -38.304054260253906, 0.04800000041723251, 0.0, 1.055999994277954, 0.0, 0.0, 0.0, 0.0, 0.0, 1.6203961039561536E9, 2021-05-07 16:01:43.956
55.0, -186.30123901367188, -110.42615509033203, 244.76710510253906, -45.4884033203125, 0.04800000041723251, 0.0, 1.055999994277954, 0.0, 0.0, 0.0, 0.0, 0.0, 1.6203961039860868E9, 2021-05-07 16:01:43.986
55.0, -178.28289794921875, -112.52050018310547, 237.64259338378906, -45.237831115722656, 0.04800000041723251, 0.0, 1.055999994277954, 0.0, 0.0, 0.0, 0.0, 0.0, 1.6203961039860868E9, 2021-05-07 16:01:43.986
56.0, -195.42286682128906, -103.54100036621094, 237.08908081054688, -46.61785125732422, 0.04800000041723251, 0.0, 1.055999994277954, 0.0, 0.0, 0.0, 0.0, 0.0, 1.6203961039868147E9, 2021-05-07 16:01:43.986
56.0, -174.05307006835938, -105.5829849243164, 239.79676818847656, -48.1175537109375, 0.04800000041723251, 0.0, 1.055999994277954, 0.0, 0.0, 0.0, 0.0, 0.0, 1.6203961039868147E9, 2021-05-07 16:01:43.986
57.0, -180.6352996826172, -109.26304626464844, 241.74151611328125, -48.001617431640625, 0.04800000041723251, 0.0, 1.055999994277954, 0.0, 0.0, 0.0, 0.0, 0.0, 1.6203961039876492E9, 2021-05-07 16:01:43.987
57.0, -180.8596954345703, -105.53062438964844, 249.68133544921875, -47.231197357177734, 0.04800000041723251, 0.0, 1.055999994277954, 0.0, 0.0, 0.0, 0.0, 0.0, 1.6203961039876492E9, 2021-05-07 16:01:43.987
58.0, -177.370361328125, -95.81810760498047, 250.8818359375, -44.553428649902344, 0.04800000041723251, 0.0, 1.055999994277954, 0.0, 0.0, 0.0, 0.0, 0.0, 1.620396103999902E9, 2021-05-07 16:01:43.999
58.0, -181.34962463378906, -100.53411865234375, 248.07691955566406, -51.65549850463867, 0.04800000041723251, 0.0, 1.055999994277954, 0.0, 0.0, 0.0, 0.0, 0.0, 1.620396103999902E9, 2021-05-07 16:01:43.999
59.0, -189.8803253173828, -107.85684204101562, 248.36862182617188, -63.028533935546875, 0.04800000041723251, 0.0, 1.055999994277954, 0.0, 0.0, 0.0, 0.0, 0.0, 1.62039610401583E9, 2021-05-07 16:01:44.015
59.0, -177.98744201660156, -102.6322021484375, 252.60218811035156, -52.44087600708008, 0.04800000041723251, 0.0, 1.055999994277954, 0.0, 0.0, 0.0, 0.0, 0.0, 1.62039610401583E9, 2021-05-07 16:01:44.015
60.0, -182.09385681152344, -109.880126953125, 235.34629821777344, -59.04928207397461, 0.04800000041723251, 0.0, 1.055999994277954, 0.0, 0.0, 0.0, 0.0, 0.0, 1.6203961040306494E9, 2021-05-07 16:01:44.030
60.0, -186.08059692382812, -108.7170181274414, 226.94273376464844, -54.901729583740234, 0.04800000041723251, 0.0, 1.055999994277954, 0.0, 0.0, 0.0, 0.0, 0.0, 1.6203961040306494E9, 2021-05-07 16:01:44.030
61.0, -184.9137420654297, -112.91319274902344, 231.04541015625, -50.58588790893555, 0.04800000041723251, 0.01600000075995922, 1.055999994277954, 0.0, 0.0, 0.0, 0.0, 0.0, 1.6203961040312998E9, 2021-05-07 16:01:44.031
61.0, -193.6651153564453, -118.5716552734375, 227.28306579589844, -50.903778076171875, 0.04800000041723251, 0.01600000075995922, 1.055999994277954, 0.0, 0.0, 0.0, 0.0, 0.0, 1.6203961040312998E9, 2021-05-07 16:01:44.031
62.0, -185.7178192138672, -112.81221008300781, 222.25289916992188, -41.400691986083984, 0.04800000041723251, 0.01600000075995922, 1.055999994277954, 0.0, 0.0, 0.0, 0.0, 0.0, 1.620396104077594E9, 2021-05-07 16:01:44.077
62.0, -191.25286865234375, -121.47382354736328, 223.2552032470703, -41.03044128417969, 0.04800000041723251, 0.01600000075995922, 1.055999994277954, 0.0, 0.0, 0.0, 0.0, 0.0, 1.620396104077594E9, 2021-05-07 16:01:44.077
63.0, -188.96778869628906, -124.36102294921875, 226.6772003173828, -40.91450500488281, 0.04800000041723251, 0.01600000075995922, 1.055999994277954, 0.0, 0.0, 0.0, 0.0, 0.0, 1.6203961040783927E9, 2021-05-07 16:01:44.078
63.0, -196.88516235351562, -128.63572692871094, 224.59408569335938, -37.197044372558594, 0.04800000041723251, 0.01600000075995922, 1.055999994277954, 0.0, 0.0, 0.0, 0.0, 0.0, 1.6203961040783927E9, 2021-05-07 16:01:44.078
64.0, -181.39450073242188, -114.2296371459961, 229.7813262939453, -35.686126708984375, 0.04800000041723251, 0.01600000075995922, 1.055999994277954, 0.0, 0.0, 0.0, 0.0, 0.0, 1.6203961040790565E9, 2021-05-07 16:01:44.079
64.0, -184.84642028808594, -120.04518127441406, 229.49334716796875, -37.02874755859375, 0.04800000041723251, 0.01600000075995922, 1.055999994277954, 0.0, 0.0, 0.0, 0.0, 0.0, 1.6203961040790565E9, 2021-05-07 16:01:44.079
65.0, -173.7763214111328, -119.85070037841797, 240.8252410888672, -34.22382354736328, 0.04800000041723251, 0.01600000075995922, 1.055999994277954, 0.0, 0.0, 0.0, 0.0, 0.0, 1.6203961040797796E9, 2021-05-07 16:01:44.079
65.0, -186.25262451171875, -116.63439178466797, 240.56719970703125, -44.4150505065918, 0.04800000041723251, 0.01600000075995922, 1.055999994277954, 0.0, 0.0, 0.0, 0.0, 0.0, 1.6203961040797796E9, 2021-05-07 16:01:44.079
66.0, -186.5817413330078, -116.61943054199219, 232.56007385253906, -48.35690689086914, 0.04800000041723251, 0.01600000075995922, 1.055999994277954, 0.0, 0.0, 0.0, 0.0, 0.0, 1.620396104090424E9, 2021-05-07 16:01:44.090
66.0, -180.7661895751953, -109.16954803466797, 237.911865234375, -55.387916564941406, 0.04800000041723251, 0.01600000075995922, 1.055999994277954, 0.0, 0.0, 0.0, 0.0, 0.0, 1.620396104090424E9, 2021-05-07 16:01:44.090
67.0, -182.17239379882812, -114.84297943115234, 241.0458984375, -63.06593322753906, 0.04800000041723251, 0.01600000075995922, 1.055999994277954, 0.0, 0.0, 0.0, 0.0, 0.0, 1.6203961040911317E9, 2021-05-07 16:01:44.091
67.0, -178.8102264404297, -112.26618957519531, 242.94577026367188, -60.167510986328125, 0.04800000041723251, 0.01600000075995922, 1.055999994277954, 0.0, 0.0, 0.0, 0.0, 0.0, 1.6203961040911317E9, 2021-05-07 16:01:44.091
68.0, -182.48654174804688, -102.00016021728516, 242.72885131835938, -53.525447845458984, 0.04800000041723251, 0.01600000075995922, 1.055999994277954, 0.0, 0.0, 0.0, 0.0, 0.0, 1.6203961041222649E9, 2021-05-07 16:01:44.122
68.0, -191.85499572753906, -110.56827545166016, 232.81063842773438, -65.62776184082031, 0.04800000041723251, 0.01600000075995922, 1.055999994277954, 0.0, 0.0, 0.0, 0.0, 0.0, 1.6203961041222649E9, 2021-05-07 16:01:44.122
69.0, -190.3964385986328, -103.2904281616211, 241.03468322753906, -61.7382698059082, 0.04800000041723251, 0.01600000075995922, 1.055999994277954, 0.0, 0.0, 0.0, 0.0, 0.0, 1.620396104122969E9, 2021-05-07 16:01:44.122
69.0, -175.64627075195312, -100.69867706298828, 246.31541442871094, -46.09052658081055, 0.04800000041723251, 0.01600000075995922, 1.055999994277954, 0.0, 0.0, 0.0, 0.0, 0.0, 1.620396104122969E9, 2021-05-07 16:01:44.122
70.0, -179.56942749023438, -101.40925598144531, 234.0522918701172, -45.58563995361328, 0.04800000041723251, 0.01600000075995922, 1.055999994277954, 0.0, 0.0, 0.0, 0.0, 0.0, 1.6203961041237135E9, 2021-05-07 16:01:44.123
70.0, -186.16287231445312, -109.54354095458984, 237.97544860839844, -40.488155364990234, 0.04800000041723251, 0.01600000075995922, 1.055999994277954, 0.0, 0.0, 0.0, 0.0, 0.0, 1.6203961041237135E9, 2021-05-07 16:01:44.123
71.0, -188.21607971191406, -109.89134979248047, 237.20501708984375, -36.41166687011719, 0.04800000041723251, 0.01600000075995922, 1.055999994277954, 0.0, 0.0, 0.0, 0.0, 0.0, 1.6203961041354487E9, 2021-05-07 16:01:44.135
71.0, -191.619384765625, -117.73017883300781, 239.34051513671875, -32.65680694580078, 0.04800000041723251, 0.01600000075995922, 1.055999994277954, 0.0, 0.0, 0.0, 0.0, 0.0, 1.6203961041354487E9, 2021-05-07 16:01:44.135
72.0, -185.11195373535156, -124.64899444580078, 229.4409942626953, -33.55064392089844, 0.04800000041723251, 0.01600000075995922, 1.055999994277954, 0.0, 0.0, 0.0, 0.0, 0.0, 1.620396104136264E9, 2021-05-07 16:01:44.136
72.0, -194.8319549560547, -138.9241943359375, 215.012451171875, -41.38199234008789, 0.04800000041723251, 0.01600000075995922, 1.055999994277954, 0.0, 0.0, 0.0, 0.0, 0.0, 1.620396104136264E9, 2021-05-07 16:01:44.136
73.0, -191.26783752441406, -137.5740966796875, 217.2676239013672, -39.33252716064453, 0.04800000041723251, 0.01600000075995922, 1.055999994277954, 0.0, 0.0, 0.0, 0.0, 0.0, 1.6203961041497812E9, 2021-05-07 16:01:44.149
73.0, -182.6249237060547, -133.71450805664062, 219.43301391601562, -42.13371276855469, 0.04800000041723251, 0.01600000075995922, 1.055999994277954, 0.0, 0.0, 0.0, 0.0, 0.0, 1.6203961041497812E9, 2021-05-07 16:01:44.149
74.0, -176.2633514404297, -125.3745346069336, 219.70603942871094, -38.88747787475586, 0.04800000041723251, 0.01600000075995922, 1.055999994277954, 0.0, 0.0, 0.0, 0.0, 0.0, 1.6203961041818562E9, 2021-05-07 16:01:44.181
74.0, -166.69668579101562, -131.2012939453125, 219.4629364013672, -42.06265640258789, 0.04800000041723251, 0.01600000075995922, 1.055999994277954, 0.0, 0.0, 0.0, 0.0, 0.0, 1.6203961041818562E9, 2021-05-07 16:01:44.181
75.0, -205.4495391845703, -148.77134704589844, 220.88784790039062, -47.51543045043945, 0.04800000041723251, 0.01600000075995922, 1.055999994277954, 0.0, 0.0, 0.0, 0.0, 0.0, 1.6203961041825688E9, 2021-05-07 16:01:44.182
75.0, -174.9543914794922, -126.47032928466797, 233.76805114746094, -44.418792724609375, 0.04800000041723251, 0.01600000075995922, 1.055999994277954, 0.0, 0.0, 0.0, 0.0, 0.0, 1.6203961041825688E9, 2021-05-07 16:01:44.182
76.0, -179.38243103027344, -150.63755798339844, 221.43760681152344, -55.26824188232422, 0.04800000041723251, 0.01600000075995922, 1.055999994277954, 0.0, 0.0, 0.0, 0.0, 0.0, 1.6203961041832623E9, 2021-05-07 16:01:44.183
76.0, -179.72276306152344, -139.49266052246094, 217.9969024658203, -56.551025390625, 0.04800000041723251, 0.01600000075995922, 1.055999994277954, 0.0, 0.0, 0.0, 0.0, 0.0, 1.6203961041832623E9, 2021-05-07 16:01:44.183
77.0, -174.93568420410156, -136.4334259033203, 228.78651428222656, -64.9209213256836, 0.04800000041723251, 0.01600000075995922, 1.055999994277954, 0.0, 0.0, 0.0, 0.0, 0.0, 1.620396104184074E9, 2021-05-07 16:01:44.184
77.0, -180.48196411132812, -141.5907440185547, 224.62774658203125, -72.03795623779297, 0.04800000041723251, 0.01600000075995922, 1.055999994277954, 0.0, 0.0, 0.0, 0.0, 0.0, 1.620396104184074E9, 2021-05-07 16:01:44.184
78.0, -175.1675567626953, -111.79869842529297, 235.0396270751953, -64.180419921875, 0.04800000041723251, 0.01600000075995922, 1.055999994277954, 0.0, 0.0, 0.0, 0.0, 0.0, 1.620396104210569E9, 2021-05-07 16:01:44.210
78.0, -174.8758544921875, -106.8059310913086, 233.69699096679688, -66.25980377197266, 0.04800000041723251, 0.01600000075995922, 1.055999994277954, 0.0, 0.0, 0.0, 0.0, 0.0, 1.620396104210569E9, 2021-05-07 16:01:44.210
79.0, -181.45433044433594, -105.54558563232422, 241.07208251953125, -70.64671325683594, 0.04800000041723251, 0.01600000075995922, 1.055999994277954, 0.0, 0.0, 0.0, 0.0, 0.0, 1.6203961042113402E9, 2021-05-07 16:01:44.211
79.0, -175.56399536132812, -95.76200866699219, 242.7101593017578, -54.471641540527344, 0.04800000041723251, 0.01600000075995922, 1.055999994277954, 0.0, 0.0, 0.0, 0.0, 0.0, 1.6203961042113402E9, 2021-05-07 16:01:44.211
80.0, -181.607666015625, -100.2424087524414, 236.5131378173828, -48.87301254272461, 0.04800000041723251, 0.01600000075995922, 1.055999994277954, 0.0, 0.0, 0.0, 0.0, 0.0, 1.6203961042417817E9, 2021-05-07 16:01:44.241
80.0, -189.588623046875, -113.68734741210938, 224.2200927734375, -53.55162811279297, 0.04800000041723251, 0.01600000075995922, 1.055999994277954, 0.0, 0.0, 0.0, 0.0, 0.0, 1.6203961042417817E9, 2021-05-07 16:01:44.241
81.0, -194.86187744140625, -123.24653625488281, 222.75030517578125, -56.296714782714844, 0.04800000041723251, 0.01600000075995922, 1.055999994277954, 0.0, 0.0, 0.0, 0.0, 0.0, 1.620396104242604E9, 2021-05-07 16:01:44.242
81.0, -183.87405395507812, -118.83345031738281, 227.58226013183594, -47.519168853759766, 0.04800000041723251, 0.01600000075995922, 1.055999994277954, 0.0, 0.0, 0.0, 0.0, 0.0, 1.620396104242604E9, 2021-05-07 16:01:44.242
82.0, -182.5052490234375, -128.68060302734375, 222.87747192382812, -30.439044952392578, 0.04800000041723251, 0.01600000075995922, 1.055999994277954, 0.0, 0.0, 0.0, 0.0, 0.0, 1.6203961042433732E9, 2021-05-07 16:01:44.243
82.0, -182.87924194335938, -132.779541015625, 215.37522888183594, -32.48102951049805, 0.04800000041723251, 0.01600000075995922, 1.055999994277954, 0.0, 0.0, 0.0, 0.0, 0.0, 1.6203961042433732E9, 2021-05-07 16:01:44.243
83.0, -185.60562133789062, -143.14654541015625, 212.29354858398438, -29.578868865966797, 0.04800000041723251, 0.01600000075995922, 1.055999994277954, 0.0, 0.0, 0.0, 0.0, 0.0, 1.6203961042441394E9, 2021-05-07 16:01:44.244
83.0, -190.37025451660156, -141.32894897460938, 215.3602752685547, -26.433612823486328, 0.04800000041723251, 0.01600000075995922, 1.055999994277954, 0.0, 0.0, 0.0, 0.0, 0.0, 1.6203961042441394E9, 2021-05-07 16:01:44.244
84.0, -175.37326049804688, -154.4784393310547, 214.71327209472656, -27.271350860595703, 0.04800000041723251, 0.01600000075995922, 1.055999994277954, 0.0, 0.0, 0.0, 0.0, 0.0, 1.6203961042547596E9, 2021-05-07 16:01:44.254
84.0, -183.6047821044922, -155.99684143066406, 214.94888305664062, -28.225025177001953, 0.04800000041723251, 0.01600000075995922, 1.055999994277954, 0.0, 0.0, 0.0, 0.0, 0.0, 1.6203961042547596E9, 2021-05-07 16:01:44.254
85.0, -190.86766052246094, -154.0969696044922, 221.61712646484375, -36.26206970214844, 0.04800000041723251, 0.01600000075995922, 1.055999994277954, 0.0, 0.0, 0.0, 0.0, 0.0, 1.620396104269894E9, 2021-05-07 16:01:44.269
85.0, -181.8619842529297, -141.1157684326172, 226.40792846679688, -38.21803665161133, 0.04800000041723251, 0.01600000075995922, 1.055999994277954, 0.0, 0.0, 0.0, 0.0, 0.0, 1.620396104269894E9, 2021-05-07 16:01:44.269
86.0, -183.9937286376953, -122.83514404296875, 230.4993896484375, -36.57622146606445, 0.04800000041723251, 0.01600000075995922, 1.055999994277954, 0.0, 0.0, 0.0, 0.0, 0.0, 1.6203961042862816E9, 2021-05-07 16:01:44.286
86.0, -170.76943969726562, -105.65778350830078, 237.27981567382812, -39.38862609863281, 0.04800000041723251, 0.01600000075995922, 1.055999994277954, 0.0, 0.0, 0.0, 0.0, 0.0, 1.6203961042862816E9, 2021-05-07 16:01:44.286
87.0, -186.16287231445312, -112.92066955566406, 239.36294555664062, -48.64487838745117, 0.04800000041723251, 0.01600000075995922, 1.055999994277954, 0.0, 0.0, 0.0, 0.0, 0.0, 1.6203961042869997E9, 2021-05-07 16:01:44.286
87.0, -184.4986114501953, -101.27462005615234, 238.70846557617188, -54.007896423339844, 0.04800000041723251, 0.01600000075995922, 1.055999994277954, 0.0, 0.0, 0.0, 0.0, 0.0, 1.6203961042869997E9, 2021-05-07 16:01:44.286
88.0, -184.03860473632812, -108.42530822753906, 234.46368408203125, -59.5092887878418, 0.04800000041723251, 0.01600000075995922, 1.055999994277954, 0.0, 0.0, 0.0, 0.0, 0.0, 1.6203961042998073E9, 2021-05-07 16:01:44.299
88.0, -185.5121307373047, -107.34447479248047, 236.88339233398438, -64.31131744384766, 0.04800000041723251, 0.01600000075995922, 1.055999994277954, 0.0, 0.0, 0.0, 0.0, 0.0, 1.6203961042998073E9, 2021-05-07 16:01:44.299
89.0, -180.87091064453125, -109.11344909667969, 241.4311065673828, -51.9210319519043, 0.04800000041723251, 0.01600000075995922, 1.055999994277954, 0.0, 0.0, 0.0, 0.0, 0.0, 1.6203961043156435E9, 2021-05-07 16:01:44.315
89.0, -187.10906982421875, -114.32313537597656, 242.88967895507812, -50.64946365356445, 0.04800000041723251, 0.01600000075995922, 1.055999994277954, 0.0, 0.0, 0.0, 0.0, 0.0, 1.6203961043156435E9, 2021-05-07 16:01:44.315
90.0, -188.69851684570312, -132.85060119628906, 228.94732666015625, -60.208648681640625, 0.04800000041723251, 0.01600000075995922, 1.055999994277954, 0.0, 0.0, 0.0, 0.0, 0.0, 1.6203961043163676E9, 2021-05-07 16:01:44.316
90.0, -178.2716827392578, -143.37094116210938, 234.0934295654297, -57.13819122314453, 0.04800000041723251, 0.01600000075995922, 1.055999994277954, 0.0, 0.0, 0.0, 0.0, 0.0, 1.6203961043163676E9, 2021-05-07 16:01:44.316
91.0, -175.3022003173828, -133.1871795654297, 239.08993530273438, -47.754783630371094, 0.04800000041723251, 0.01600000075995922, 1.055999994277954, 0.0, 0.0, 0.0, 0.0, 0.0, 1.6203961043297865E9, 2021-05-07 16:01:44.329
91.0, -180.14163208007812, -136.74383544921875, 238.58131408691406, -37.61591339111328, 0.04800000041723251, 0.01600000075995922, 1.055999994277954, 0.0, 0.0, 0.0, 0.0, 0.0, 1.6203961043297865E9, 2021-05-07 16:01:44.329
92.0, -192.7076873779297, -133.789306640625, 223.3374786376953, -40.031890869140625, 0.04800000041723251, 0.01600000075995922, 1.055999994277954, 0.0, 0.0, 0.0, 0.0, 0.0, 1.620396104346193E9, 2021-05-07 16:01:44.346
92.0, -187.3035430908203, -140.99609375, 219.83692932128906, -43.18462371826172, 0.04800000041723251, 0.01600000075995922, 1.055999994277954, 0.0, 0.0, 0.0, 0.0, 0.0, 1.620396104346193E9, 2021-05-07 16:01:44.346
93.0, -193.49681091308594, -133.25076293945312, 231.53907775878906, -33.472103118896484, 0.04800000041723251, 0.01600000075995922, 1.055999994277954, 0.0, 0.0, 0.0, 0.0, 0.0, 1.6203961043469489E9, 2021-05-07 16:01:44.346
93.0, -196.64581298828125, -130.80487060546875, 229.3848876953125, -27.80989646911621, 0.04800000041723251, 0.01600000075995922, 1.055999994277954, 0.0, 0.0, 0.0, 0.0, 0.0, 1.6203961043469489E9, 2021-05-07 16:01:44.346
94.0, -186.37229919433594, -122.59953308105469, 229.91221618652344, -22.936805725097656, 0.04800000041723251, 0.01600000075995922, 1.055999994277954, 0.0, 0.0, 0.0, 0.0, 0.0, 1.620396104359825E9, 2021-05-07 16:01:44.359
94.0, -173.76136779785156, -130.34486389160156, 220.34181213378906, -32.26785659790039, 0.04800000041723251, 0.01600000075995922, 1.055999994277954, 0.0, 0.0, 0.0, 0.0, 0.0, 1.620396104359825E9, 2021-05-07 16:01:44.359
95.0, -200.04537963867188, -121.39154052734375, 231.87940979003906, -28.752351760864258, 0.04800000041723251, 0.01600000075995922, 1.055999994277954, 0.0, 0.0, 0.0, 0.0, 0.0, 1.6203961043754783E9, 2021-05-07 16:01:44.375
95.0, -185.23538208007812, -122.21057891845703, 228.81268310546875, -22.925586700439453, 0.04800000041723251, 0.01600000075995922, 1.055999994277954, 0.0, 0.0, 0.0, 0.0, 0.0, 1.6203961043754783E9, 2021-05-07 16:01:44.375
96.0, -185.59814453125, -120.23217010498047, 224.08920288085938, -34.440738677978516, 0.04800000041723251, 0.01600000075995922, 1.055999994277954, 0.0, 0.0, 0.0, 0.0, 0.0, 1.6203961043761818E9, 2021-05-07 16:01:44.376
96.0, -190.3777313232422, -128.17572021484375, 223.2963409423828, -39.4970817565918, 0.04800000041723251, 0.01600000075995922, 1.055999994277954, 0.0, 0.0, 0.0, 0.0, 0.0, 1.6203961043761818E9, 2021-05-07 16:01:44.376
97.0, -189.10243225097656, -120.00404357910156, 232.47779846191406, -37.28680419921875, 0.04800000041723251, 0.01600000075995922, 1.055999994277954, 0.0, 0.0, 0.0, 0.0, 0.0, 1.6203961043897724E9, 2021-05-07 16:01:44.389
97.0, -189.78309631347656, -127.39408111572266, 237.0255126953125, -38.7341423034668, 0.04800000041723251, 0.01600000075995922, 1.055999994277954, 0.0, 0.0, 0.0, 0.0, 0.0, 1.6203961043897724E9, 2021-05-07 16:01:44.389
98.0, -177.68450927734375, -120.22843170166016, 236.5131378173828, -29.593828201293945, 0.04800000041723251, 0.01600000075995922, 1.055999994277954, 0.0, 0.0, 0.0, 0.0, 0.0, 1.6203961044209511E9, 2021-05-07 16:01:44.420
98.0, -183.1859130859375, -121.68325805664062, 234.29537963867188, -33.344947814941406, 0.04800000041723251, 0.01600000075995922, 1.055999994277954, 0.0, 0.0, 0.0, 0.0, 0.0, 1.6203961044209511E9, 2021-05-07 16:01:44.420
99.0, -190.36651611328125, -121.66455841064453, 234.4412384033203, -42.66477966308594, 0.04800000041723251, 0.01600000075995922, 1.055999994277954, 0.0, 0.0, 0.0, 0.0, 0.0, 1.6203961044215734E9, 2021-05-07 16:01:44.421
99.0, -197.1320037841797, -122.27416229248047, 225.76841735839844, -48.21479034423828, 0.04800000041723251, 0.01600000075995922, 1.055999994277954, 0.0, 0.0, 0.0, 0.0, 0.0, 1.6203961044215734E9, 2021-05-07 16:01:44.421
100.0, -176.51766967773438, -101.91414642333984, 244.00416564941406, -26.755245208740234, 0.04800000041723251, 0.01600000075995922, 1.055999994277954, 0.0, 0.0, 0.0, 0.0, 0.0, 1.6203961044524915E9, 2021-05-07 16:01:44.452
100.0, -186.76126098632812, -115.0374526977539, 235.55946350097656, -49.942623138427734, 0.04800000041723251, 0.01600000075995922, 1.055999994277954, 0.0, 0.0, 0.0, 0.0, 0.0, 1.6203961044524915E9, 2021-05-07 16:01:44.452
0.0, -193.309814453125, -115.01127624511719, 232.45535278320312, -64.5431900024414, 0.04800000041723251, 0.01600000075995922, 1.055999994277954, 0.0, 0.0, 0.0, 0.0, 0.0, 1.6203961044532695E9, 2021-05-07 16:01:44.453
1.0, -181.64132690429688, -111.58552551269531, 237.9679718017578, -58.51821517944336, 0.04800000041723251, 0.01600000075995922, 1.055999994277954, 0.0, 0.0, 0.0, 0.0, 0.0, 1.6203961044538908E9, 2021-05-07 16:01:44.453
1.0, -188.61997985839844, -117.48334503173828, 228.251708984375, -60.18621063232422, 0.04800000041723251, 0.01600000075995922, 1.055999994277954, 0.0, 0.0, 0.0, 0.0, 0.0, 1.6203961044538908E9, 2021-05-07 16:01:44.453
2.0, -187.1651611328125, -108.6347427368164, 231.468017578125, -41.29971694946289, 0.04800000041723251, 0.01600000075995922, 1.055999994277954, 0.0, 0.0, 0.0, 0.0, 0.0, 1.620396104454692E9, 2021-05-07 16:01:44.454
2.0, -198.80372619628906, -109.83525085449219, 229.96458435058594, -35.80206298828125, 0.04800000041723251, 0.01600000075995922, 1.055999994277954, 0.0, 0.0, 0.0, 0.0, 0.0, 1.620396104454692E9, 2021-05-07 16:01:44.454
3.0, -201.0775909423828, -118.51930236816406, 227.92633056640625, -29.070241928100586, 0.04800000041723251, 0.01600000075995922, 1.055999994277954, 0.0, 0.0, 0.0, 0.0, 0.0, 1.6203961044654896E9, 2021-05-07 16:01:44.465
3.0, -201.7096405029297, -116.159423828125, 220.09498596191406, -27.85103416442871, 0.04800000041723251, 0.01600000075995922, 1.055999994277954, 0.0, 0.0, 0.0, 0.0, 0.0, 1.6203961044654896E9, 2021-05-07 16:01:44.465
4.0, -176.89540100097656, -127.27814483642578, 230.85467529296875, -20.015945434570312, 0.04800000041723251, 0.01600000075995922, 1.055999994277954, 0.0, 0.0, 0.0, 0.0, 0.0, 1.620396104466144E9, 2021-05-07 16:01:44.466
4.0, -193.9867401123047, -134.72802734375, 229.57562255859375, -29.631227493286133, 0.04800000041723251, 0.01600000075995922, 1.055999994277954, 0.0, 0.0, 0.0, 0.0, 0.0, 1.620396104466144E9, 2021-05-07 16:01:44.466
5.0, -198.9121856689453, -131.8557891845703, 225.4093780517578, -27.8472957611084, 0.04800000041723251, 0.01600000075995922, 1.055999994277954, 0.0, 0.0, 0.0, 0.0, 0.0, 1.6203961044804869E9, 2021-05-07 16:01:44.480
5.0, -183.133544921875, -121.38032531738281, 233.80918884277344, -21.433366775512695, 0.04800000041723251, 0.01600000075995922, 1.055999994277954, 0.0, 0.0, 0.0, 0.0, 0.0, 1.6203961044804869E9, 2021-05-07 16:01:44.480
6.0, -192.68899536132812, -135.25535583496094, 222.2678680419922, -35.3121337890625, 0.04800000041723251, 0.01600000075995922, 1.055999994277954, 0.0, 0.0, 0.0, 0.0, 0.0, 1.620396104481196E9, 2021-05-07 16:01:44.481
6.0, -192.44590759277344, -128.4524688720703, 228.78651428222656, -35.020423889160156, 0.04800000041723251, 0.01600000075995922, 1.055999994277954, 0.0, 0.0, 0.0, 0.0, 0.0, 1.620396104481196E9, 2021-05-07 16:01:44.481
7.0, -184.61080932617188, -118.58661651611328, 231.127685546875, -34.066749572753906, 0.04800000041723251, 0.01600000075995922, 1.055999994277954, 0.0, 0.0, 0.0, 0.0, 0.0, 1.620396104494733E9, 2021-05-07 16:01:44.494
7.0, -188.9939727783203, -116.23422241210938, 221.0860595703125, -39.212852478027344, 0.04800000041723251, 0.01600000075995922, 1.055999994277954, 0.0, 0.0, 0.0, 0.0, 0.0, 1.620396104494733E9, 2021-05-07 16:01:44.494
8.0, -192.07565307617188, -130.73007202148438, 219.8892822265625, -41.03792190551758, 0.04800000041723251, 0.01600000075995922, 1.055999994277954, 0.0, 0.0, 0.0, 0.0, 0.0, 1.6203961045104308E9, 2021-05-07 16:01:44.510
8.0, -193.3247833251953, -127.03504943847656, 230.55921936035156, -38.81642150878906, 0.04800000041723251, 0.01600000075995922, 1.055999994277954, 0.0, 0.0, 0.0, 0.0, 0.0, 1.6203961045104308E9, 2021-05-07 16:01:44.510
9.0, -194.5738983154297, -133.75564575195312, 228.16567993164062, -46.48695755004883, 0.04800000041723251, 0.01600000075995922, 1.055999994277954, 0.0, 0.0, 0.0, 0.0, 0.0, 1.6203961045112495E9, 2021-05-07 16:01:44.511
9.0, -196.7056427001953, -122.83888244628906, 228.77528381347656, -38.22925567626953, 0.04800000041723251, 0.01600000075995922, 1.055999994277954, 0.0, 0.0, 0.0, 0.0, 0.0, 1.6203961045112495E9, 2021-05-07 16:01:44.511
10.0, -201.1112518310547, -127.51375579833984, 218.4606475830078, -44.10089874267578, 0.04800000041723251, 0.01600000075995922, 1.055999994277954, 0.0, 0.0, 0.0, 0.0, 0.0, 1.6203961045249147E9, 2021-05-07 16:01:44.524
10.0, -190.28424072265625, -123.3063735961914, 221.17581176757812, -42.081356048583984, 0.04800000041723251, 0.01600000075995922, 1.055999994277954, 0.0, 0.0, 0.0, 0.0, 0.0, 1.6203961045249147E9, 2021-05-07 16:01:44.524
11.0, -183.01760864257812, -113.74718475341797, 226.3331298828125, -35.01668167114258, 0.04800000041723251, 0.01600000075995922, 1.055999994277954, 0.0, 0.0, 0.0, 0.0, 0.0, 1.620396104540491E9, 2021-05-07 16:01:44.540
11.0, -177.32174682617188, -118.25376892089844, 228.06097412109375, -34.60903549194336, 0.04800000041723251, 0.01600000075995922, 1.055999994277954, 0.0, 0.0, 0.0, 0.0, 0.0, 1.620396104540491E9, 2021-05-07 16:01:44.540
12.0, -185.91229248046875, -118.69507598876953, 227.1858367919922, -38.023563385009766, 0.04800000041723251, 0.01600000075995922, 1.055999994277954, 0.0, 0.0, 0.0, 0.0, 0.0, 1.620396104541126E9, 2021-05-07 16:01:44.541
12.0, -185.62432861328125, -109.26678466796875, 240.34280395507812, -30.06505584716797, 0.04800000041723251, 0.01600000075995922, 1.055999994277954, 0.0, 0.0, 0.0, 0.0, 0.0, 1.620396104541126E9, 2021-05-07 16:01:44.541
13.0, -188.70225524902344, -112.4457015991211, 246.53981018066406, -28.094127655029297, 0.04800000041723251, 0.01600000075995922, 1.055999994277954, 0.0, 0.0, 0.0, 0.0, 0.0, 1.6203961045548012E9, 2021-05-07 16:01:44.554
13.0, -194.17747497558594, -100.39574432373047, 235.04336547851562, -30.476444244384766, 0.04800000041723251, 0.01600000075995922, 1.055999994277954, 0.0, 0.0, 0.0, 0.0, 0.0, 1.6203961045548012E9, 2021-05-07 16:01:44.554
14.0, -185.57569885253906, -91.09835052490234, 240.4213409423828, -26.160600662231445, 0.04800000041723251, 0.01600000075995922, 1.055999994277954, 0.0, 0.0, 0.0, 0.0, 0.0, 1.620396104570536E9, 2021-05-07 16:01:44.570
14.0, -192.18411254882812, -108.52254486083984, 240.33157348632812, -28.344701766967773, 0.04800000041723251, 0.01600000075995922, 1.055999994277954, 0.0, 0.0, 0.0, 0.0, 0.0, 1.620396104570536E9, 2021-05-07 16:01:44.570
15.0, -197.10581970214844, -114.82427978515625, 240.0398712158203, -28.26242446899414, 0.04800000041723251, 0.01600000075995922, 1.055999994277954, 0.0, 0.0, 0.0, 0.0, 0.0, 1.6203961045712237E9, 2021-05-07 16:01:44.571
15.0, -186.17408752441406, -100.7435531616211, 242.665283203125, -21.149133682250977, 0.04800000041723251, 0.01600000075995922, 1.055999994277954, 0.0, 0.0, 0.0, 0.0, 0.0, 1.6203961045712237E9, 2021-05-07 16:01:44.571
16.0, -200.0079803466797, -106.37210083007812, 234.80026245117188, -31.198246002197266, 0.04800000041723251, 0.01600000075995922, 1.055999994277954, 0.0, 0.0, 0.0, 0.0, 0.0, 1.6203961045847895E9, 2021-05-07 16:01:44.584
16.0, -183.1073760986328, -100.3246841430664, 243.2898406982422, -32.34639358520508, 0.04800000041723251, 0.01600000075995922, 1.055999994277954, 0.0, 0.0, 0.0, 0.0, 0.0, 1.6203961045847895E9, 2021-05-07 16:01:44.584
17.0, -180.3024444580078, -110.95722198486328, 240.43629455566406, -33.46088409423828, 0.04800000041723251, 0.01600000075995922, 1.055999994277954, 0.0, 0.0, 0.0, 0.0, 0.0, 1.620396104600512E9, 2021-05-07 16:01:44.600
17.0, -196.3578338623047, -103.98230743408203, 239.34051513671875, -29.930419921875, 0.04800000041723251, 0.01600000075995922, 1.055999994277954, 0.0, 0.0, 0.0, 0.0, 0.0, 1.620396104600512E9, 2021-05-07 16:01:44.600
18.0, -198.31005859375, -128.1083984375, 220.41287231445312, -42.156150817871094, 0.04800000041723251, 0.01600000075995922, 1.055999994277954, 0.0, 0.0, 0.0, 0.0, 0.0, 1.6203961046012032E9, 2021-05-07 16:01:44.601
18.0, -192.28883361816406, -114.80184173583984, 234.9461212158203, -34.193904876708984, 0.04800000041723251, 0.01600000075995922, 1.055999994277954, 0.0, 0.0, 0.0, 0.0, 0.0, 1.6203961046012032E9, 2021-05-07 16:01:44.601
19.0, -191.12197875976562, -105.73632049560547, 229.16424560546875, -36.98760986328125, 0.04800000041723251, 0.01600000075995922, 1.055999994277954, 0.0, 0.0, 0.0, 0.0, 0.0, 1.6203961046149127E9, 2021-05-07 16:01:44.614
19.0, -184.26673889160156, -97.28788757324219, 228.44244384765625, -37.492496490478516, 0.04800000041723251, 0.01600000075995922, 1.055999994277954, 0.0, 0.0, 0.0, 0.0, 0.0, 1.6203961046149127E9, 2021-05-07 16:01:44.614
20.0, -187.57655334472656, -106.59649658203125, 228.2367401123047, -53.25243377685547, 0.04800000041723251, 0.01600000075995922, 1.055999994277954, 0.0, 0.0, 0.0, 0.0, 0.0, 1.6203961046304345E9, 2021-05-07 16:01:44.630
20.0, -184.659423828125, -100.42192077636719, 231.57273864746094, -50.619544982910156, 0.04800000041723251, 0.01600000075995922, 1.055999994277954, 0.0, 0.0, 0.0, 0.0, 0.0, 1.6203961046304345E9, 2021-05-07 16:01:44.630
21.0, -184.3340606689453, -94.57646179199219, 242.56430053710938, -46.56923294067383, 0.04800000041723251, 0.01600000075995922, 1.055999994277954, 0.0, 0.0, 0.0, 0.0, 0.0, 1.6203961046311493E9, 2021-05-07 16:01:44.631
21.0, -187.32223510742188, -107.45667266845703, 231.99160766601562, -49.744407653808594, 0.04800000041723251, 0.01600000075995922, 1.055999994277954, 0.0, 0.0, 0.0, 0.0, 0.0, 1.6203961046311493E9, 2021-05-07 16:01:44.631
22.0, -191.64556884765625, -109.29670715332031, 224.6427001953125, -50.22311782836914, 0.04800000041723251, 0.01600000075995922, 1.055999994277954, 0.0, 0.0, 0.0, 0.0, 0.0, 1.6203961046449084E9, 2021-05-07 16:01:44.644
22.0, -180.19772338867188, -102.41155242919922, 242.1940460205078, -30.267009735107422, 0.04800000041723251, 0.01600000075995922, 1.055999994277954, 0.0, 0.0, 0.0, 0.0, 0.0, 1.6203961046449084E9, 2021-05-07 16:01:44.644
23.0, -187.9281005859375, -104.32263946533203, 238.34194946289062, -34.377159118652344, 0.04800000041723251, 0.01600000075995922, 1.055999994277954, 0.0, 0.0, 0.0, 0.0, 0.0, 1.6203961046604712E9, 2021-05-07 16:01:44.660
23.0, -175.86318969726562, -96.36787414550781, 241.73777770996094, -30.81303596496582, 0.04800000041723251, 0.01600000075995922, 1.055999994277954, 0.0, 0.0, 0.0, 0.0, 0.0, 1.6203961046604712E9, 2021-05-07 16:01:44.660
24.0, -185.22789001464844, -109.38272094726562, 234.67684936523438, -40.794830322265625, 0.04800000041723251, 0.01600000075995922, 1.055999994277954, 0.0, 0.0, 0.0, 0.0, 0.0, 1.6203961046611223E9, 2021-05-07 16:01:44.661
24.0, -183.1485137939453, -100.50045776367188, 251.17355346679688, -30.55872344970703, 0.04800000041723251, 0.01600000075995922, 1.055999994277954, 0.0, 0.0, 0.0, 0.0, 0.0, 1.6203961046611223E9, 2021-05-07 16:01:44.661
25.0, -183.6047821044922, -91.73039245605469, 252.47503662109375, -31.201984405517578, 0.04800000041723251, 0.01600000075995922, 1.055999994277954, 0.0, 0.0, 0.0, 0.0, 0.0, 1.6203961046748304E9, 2021-05-07 16:01:44.674
25.0, -178.19688415527344, -100.60891723632812, 241.984619140625, -35.56270980834961, 0.04800000041723251, 0.01600000075995922, 1.055999994277954, 0.0, 0.0, 0.0, 0.0, 0.0, 1.6203961046748304E9, 2021-05-07 16:01:44.674
26.0, -187.30728149414062, -92.53447723388672, 231.98037719726562, -39.3549690246582, 0.04800000041723251, 0.01600000075995922, 1.055999994277954, 0.0, 0.0, 0.0, 0.0, 0.0, 1.620396104690618E9, 2021-05-07 16:01:44.690
26.0, -182.7670440673828, -109.95867156982422, 232.63861083984375, -41.449310302734375, 0.04800000041723251, 0.01600000075995922, 1.055999994277954, 0.0, 0.0, 0.0, 0.0, 0.0, 1.620396104690618E9, 2021-05-07 16:01:44.690
27.0, -188.54518127441406, -112.86083221435547, 238.4990234375, -34.526756286621094, 0.04800000041723251, 0.01600000075995922, 1.055999994277954, 0.0, 0.0, 0.0, 0.0, 0.0, 1.6203961046912072E9, 2021-05-07 16:01:44.691
27.0, -189.89529418945312, -115.88641357421875, 225.5028839111328, -35.5814094543457, 0.04800000041723251, 0.01600000075995922, 1.055999994277954, 0.0, 0.0, 0.0, 0.0, 0.0, 1.6203961046912072E9, 2021-05-07 16:01:44.691
28.0, -188.84811401367188, -114.43158721923828, 220.12115478515625, -38.835121154785156, 0.04800000041723251, 0.01600000075995922, 1.055999994277954, 0.0, 0.0, 0.0, 0.0, 0.0, 1.6203961047050111E9, 2021-05-07 16:01:44.705
28.0, -189.928955078125, -122.58831024169922, 218.075439453125, -44.833919525146484, 0.04800000041723251, 0.01600000075995922, 1.055999994277954, 0.0, 0.0, 0.0, 0.0, 0.0, 1.6203961047050111E9, 2021-05-07 16:01:44.705
29.0, -191.9559783935547, -107.7483901977539, 226.7220916748047, -34.672611236572266, 0.04800000041723251, 0.01600000075995922, 1.055999994277954, 0.0, 0.0, 0.0, 0.0, 0.0, 1.6203961047206266E9, 2021-05-07 16:01:44.720
29.0, -194.43927001953125, -112.5279769897461, 222.32769775390625, -40.61905288696289, 0.04800000041723251, 0.01600000075995922, 1.055999994277954, 0.0, 0.0, 0.0, 0.0, 0.0, 1.6203961047206266E9, 2021-05-07 16:01:44.720
30.0, -192.27386474609375, -123.81874084472656, 214.71701049804688, -44.91993713378906, 0.04800000041723251, 0.01600000075995922, 1.055999994277954, 0.0, 0.0, 0.0, 0.0, 0.0, 1.6203961047212884E9, 2021-05-07 16:01:44.721
30.0, -191.1406707763672, -117.97701263427734, 226.0077667236328, -40.83970642089844, 0.04800000041723251, 0.01600000075995922, 1.055999994277954, 0.0, 0.0, 0.0, 0.0, 0.0, 1.6203961047212884E9, 2021-05-07 16:01:44.721
31.0, -188.17120361328125, -120.96893310546875, 229.82620239257812, -33.535682678222656, 0.04800000041723251, 0.01600000075995922, 1.055999994277954, 0.0, 0.0, 0.0, 0.0, 0.0, 1.6203961047349293E9, 2021-05-07 16:01:44.734
31.0, -189.27072143554688, -115.32168579101562, 224.4220428466797, -40.630271911621094, 0.04800000041723251, 0.01600000075995922, 1.055999994277954, 0.0, 0.0, 0.0, 0.0, 0.0, 1.6203961047349293E9, 2021-05-07 16:01:44.734
32.0, -191.2753143310547, -112.1278076171875, 225.12889099121094, -47.0853385925293, 0.04800000041723251, 0.01600000075995922, 1.055999994277954, 0.0, 0.0, 0.0, 0.0, 0.0, 1.620396104750526E9, 2021-05-07 16:01:44.750
32.0, -193.3472137451172, -103.06603240966797, 231.09776306152344, -39.56814193725586, 0.04800000041723251, 0.01600000075995922, 1.055999994277954, 0.0, 0.0, 0.0, 0.0, 0.0, 1.620396104750526E9, 2021-05-07 16:01:44.750
33.0, -202.61094665527344, -99.53556823730469, 230.16653442382812, -38.363895416259766, 0.04800000041723251, 0.01600000075995922, 1.055999994277954, 0.0, 0.0, 0.0, 0.0, 0.0, 1.6203961047512732E9, 2021-05-07 16:01:44.751
33.0, -199.61155700683594, -96.81291961669922, 227.72438049316406, -43.16218566894531, 0.04800000041723251, 0.01600000075995922, 1.055999994277954, 0.0, 0.0, 0.0, 0.0, 0.0, 1.6203961047512732E9, 2021-05-07 16:01:44.751
34.0, -207.31201171875, -104.32637786865234, 223.84609985351562, -40.592872619628906, 0.04800000041723251, 0.01600000075995922, 1.055999994277954, 0.0, 0.0, 0.0, 0.0, 0.0, 1.6203961047647636E9, 2021-05-07 16:01:44.764
34.0, -206.58645629882812, -99.5168685913086, 229.48960876464844, -36.81183624267578, 0.04800000041723251, 0.01600000075995922, 1.055999994277954, 0.0, 0.0, 0.0, 0.0, 0.0, 1.6203961047647636E9, 2021-05-07 16:01:44.764
35.0, -215.3153839111328, -126.33943176269531, 219.5601806640625, -43.06120681762695, 0.04800000041723251, 0.01600000075995922, 1.055999994277954, 0.0, 0.0, 0.0, 0.0, 0.0, 1.6203961047805872E9, 2021-05-07 16:01:44.780
35.0, -209.65692138671875, -120.15737915039062, 224.20138549804688, -32.873722076416016, 0.04800000041723251, 0.01600000075995922, 1.055999994277954, 0.0, 0.0, 0.0, 0.0, 0.0, 1.6203961047805872E9, 2021-05-07 16:01:44.780
36.0, -208.97251892089844, -120.72958374023438, 215.7828826904297, -36.60988235473633, 0.04800000041723251, 0.01600000075995922, 1.055999994277954, 0.0, 0.0, 0.0, 0.0, 0.0, 1.620396104781253E9, 2021-05-07 16:01:44.781
36.0, -212.54412841796875, -126.8630142211914, 218.7822723388672, -36.93525314331055, 0.04800000041723251, 0.01600000075995922, 1.055999994277954, 0.0, 0.0, 0.0, 0.0, 0.0, 1.620396104781253E9, 2021-05-07 16:01:44.781
37.0, -199.8845672607422, -120.17233276367188, 220.2857208251953, -25.775390625, 0.04800000041723251, 0.01600000075995922, 1.055999994277954, 0.0, 0.0, 0.0, 0.0, 0.0, 1.6203961047947652E9, 2021-05-07 16:01:44.794
37.0, -209.69432067871094, -135.8761749267578, 205.28123474121094, -34.96058654785156, 0.04800000041723251, 0.01600000075995922, 1.055999994277954, 0.0, 0.0, 0.0, 0.0, 0.0, 1.6203961047947652E9, 2021-05-07 16:01:44.794
38.0, -216.02597045898438, -131.31349182128906, 204.69407653808594, -37.17460632324219, 0.04800000041723251, 0.01600000075995922, 1.055999994277954, 0.0, 0.0, 0.0, 0.0, 0.0, 1.6203961048416767E9, 2021-05-07 16:01:44.841
38.0, -209.35772705078125, -131.14520263671875, 207.2559051513672, -40.72751235961914, 0.04800000041723251, 0.01600000075995922, 1.055999994277954, 0.0, 0.0, 0.0, 0.0, 0.0, 1.6203961048416767E9, 2021-05-07 16:01:44.841
39.0, -197.32273864746094, -126.64236450195312, 218.19137573242188, -41.011741638183594, 0.04800000041723251, 0.01600000075995922, 1.055999994277954, 0.0, 0.0, 0.0, 0.0, 0.0, 1.620396104842294E9, 2021-05-07 16:01:44.842
39.0, -195.54627990722656, -126.159912109375, 224.6053009033203, -39.070735931396484, 0.04800000041723251, 0.01600000075995922, 1.055999994277954, 0.0, 0.0, 0.0, 0.0, 0.0, 1.620396104842294E9, 2021-05-07 16:01:44.842
40.0, -191.25660705566406, -124.50688171386719, 226.5949249267578, -47.49298858642578, 0.04800000041723251, 0.01600000075995922, 1.055999994277954, 0.0, 0.0, 0.0, 0.0, 0.0, 1.620396104843125E9, 2021-05-07 16:01:44.843
40.0, -194.7571563720703, -124.87712860107422, 227.02127075195312, -57.84503173828125, 0.04800000041723251, 0.01600000075995922, 1.055999994277954, 0.0, 0.0, 0.0, 0.0, 0.0, 1.620396104843125E9, 2021-05-07 16:01:44.843
41.0, -193.00314331054688, -113.48165130615234, 229.3923797607422, -58.10682678222656, 0.04800000041723251, 0.01600000075995922, 1.055999994277954, 0.0, 0.0, 0.0, 0.0, 0.0, 1.620396104856922E9, 2021-05-07 16:01:44.856
41.0, -185.1343994140625, -113.15628051757812, 234.49732971191406, -57.59819793701172, 0.04800000041723251, 0.01600000075995922, 1.055999994277954, 0.0, 0.0, 0.0, 0.0, 0.0, 1.620396104856922E9, 2021-05-07 16:01:44.856
42.0, -187.26614379882812, -100.95298767089844, 230.9593963623047, -56.9212760925293, 0.04800000041723251, 0.01600000075995922, 1.055999994277954, 0.0, 0.0, 0.0, 0.0, 0.0, 1.6203961048576772E9, 2021-05-07 16:01:44.857
42.0, -194.31211853027344, -98.80254364013672, 234.7366943359375, -52.93080520629883, 0.04800000041723251, 0.01600000075995922, 1.055999994277954, 0.0, 0.0, 0.0, 0.0, 0.0, 1.6203961048576772E9, 2021-05-07 16:01:44.857
43.0, -199.6676483154297, -96.19957733154297, 233.82041931152344, -46.83476638793945, 0.04800000041723251, 0.01600000075995922, 1.055999994277954, 0.0, 0.0, 0.0, 0.0, 0.0, 1.620396104858425E9, 2021-05-07 16:01:44.858
43.0, -192.2626495361328, -82.98651123046875, 240.0623016357422, -37.79916763305664, 0.04800000041723251, 0.01600000075995922, 1.055999994277954, 0.0, 0.0, 0.0, 0.0, 0.0, 1.620396104858425E9, 2021-05-07 16:01:44.858
44.0, -202.97372436523438, -89.65475463867188, 230.05807495117188, -44.276676177978516, 0.04800000041723251, 0.01600000075995922, 1.055999994277954, 0.0, 0.0, 0.0, 0.0, 0.0, 1.620396104859079E9, 2021-05-07 16:01:44.859
44.0, -204.11439514160156, -97.93115234375, 229.52700805664062, -44.10837936401367, 0.04800000041723251, 0.01600000075995922, 1.055999994277954, 0.0, 0.0, 0.0, 0.0, 0.0, 1.620396104859079E9, 2021-05-07 16:01:44.859
45.0, -198.1903839111328, -84.8078384399414, 240.86639404296875, -35.00920486450195, 0.04800000041723251, 0.01600000075995922, 1.055999994277954, 0.0, 0.0, 0.0, 0.0, 0.0, 1.6203961048698728E9, 2021-05-07 16:01:44.869
45.0, -201.94898986816406, -102.76309967041016, 232.7395782470703, -37.84778594970703, 0.04800000041723251, 0.01600000075995922, 1.055999994277954, 0.0, 0.0, 0.0, 0.0, 0.0, 1.6203961048698728E9, 2021-05-07 16:01:44.869
46.0, -205.70384216308594, -114.91777801513672, 224.91197204589844, -46.801109313964844, 0.04800000041723251, 0.01600000075995922, 1.055999994277954, 0.0, 0.0, 0.0, 0.0, 0.0, 1.6203961048848772E9, 2021-05-07 16:01:44.884
46.0, -204.35748291015625, -117.4870834350586, 223.7526092529297, -47.24241638183594, 0.04800000041723251, 0.01600000075995922, 1.055999994277954, 0.0, 0.0, 0.0, 0.0, 0.0, 1.6203961048848772E9, 2021-05-07 16:01:44.884
47.0, -198.75885009765625, -123.23905181884766, 216.3700408935547, -49.134803771972656, 0.04800000041723251, 0.01600000075995922, 1.055999994277954, 0.0, 0.0, 0.0, 0.0, 0.0, 1.6203961049004445E9, 2021-05-07 16:01:44.900
47.0, -189.98504638671875, -118.56417846679688, 214.17471313476562, -40.821006774902344, 0.04800000041723251, 0.01600000075995922, 1.055999994277954, 0.0, 0.0, 0.0, 0.0, 0.0, 1.6203961049004445E9, 2021-05-07 16:01:44.900
48.0, -194.43927001953125, -122.83514404296875, 216.9347686767578, -40.95938491821289, 0.04800000041723251, 0.01600000075995922, 1.055999994277954, 0.0, 0.0, 0.0, 0.0, 0.0, 1.6203961049012527E9, 2021-05-07 16:01:44.901
48.0, -203.650634765625, -129.44354248046875, 209.15951538085938, -45.49588394165039, 0.04800000041723251, 0.01600000075995922, 1.055999994277954, 0.0, 0.0, 0.0, 0.0, 0.0, 1.6203961049012527E9, 2021-05-07 16:01:44.901
49.0, -200.950439453125, -113.64994812011719, 215.11717224121094, -25.51359748840332, 0.04800000041723251, 0.01600000075995922, 1.055999994277954, 0.0, 0.0, 0.0, 0.0, 0.0, 1.6203961049148507E9, 2021-05-07 16:01:44.914
49.0, -188.0066375732422, -107.51277160644531, 214.5636749267578, -28.27738380432129, 0.04800000041723251, 0.01600000075995922, 1.055999994277954, 0.0, 0.0, 0.0, 0.0, 0.0, 1.6203961049148507E9, 2021-05-07 16:01:44.914
50.0, -191.4847412109375, -107.72220611572266, 215.37522888183594, -37.22322463989258, 0.04800000041723251, 0.01600000075995922, 1.055999994277954, 0.0, 0.0, 0.0, 0.0, 0.0, 1.620396104931144E9, 2021-05-07 16:01:44.931
50.0, -181.71238708496094, -108.91523742675781, 223.72642517089844, -36.65102005004883, 0.04800000041723251, 0.01600000075995922, 1.055999994277954, 0.0, 0.0, 0.0, 0.0, 0.0, 1.620396104931144E9, 2021-05-07 16:01:44.931
51.0, -209.19691467285156, -110.42615509033203, 220.1099395751953, -44.83766174316406, 0.04800000041723251, 0.01600000075995922, 1.055999994277954, 0.0, 0.0, 0.0, 0.0, 0.0, 1.6203961049319067E9, 2021-05-07 16:01:44.931
51.0, -191.17433166503906, -95.45907592773438, 233.78302001953125, -38.93983840942383, 0.04800000041723251, 0.01600000075995922, 1.055999994277954, 0.0, 0.0, 0.0, 0.0, 0.0, 1.6203961049319067E9, 2021-05-07 16:01:44.931
52.0, -192.86851501464844, -103.80279541015625, 229.06326293945312, -50.25303649902344, 0.04800000041723251, 0.01600000075995922, 1.055999994277954, 0.0, 0.0, 0.0, 0.0, 0.0, 1.6203961049448352E9, 2021-05-07 16:01:44.944
52.0, -188.7733154296875, -101.37559509277344, 241.0010223388672, -52.56055450439453, 0.04800000041723251, 0.01600000075995922, 1.055999994277954, 0.0, 0.0, 0.0, 0.0, 0.0, 1.6203961049448352E9, 2021-05-07 16:01:44.944
53.0, -194.44300842285156, -99.0531234741211, 240.01742553710938, -54.684818267822266, 0.04800000041723251, 0.01600000075995922, 1.055999994277954, 0.0, 0.0, 0.0, 0.0, 0.0, 1.6203961049605727E9, 2021-05-07 16:01:44.960
53.0, -185.48968505859375, -100.44062042236328, 241.0832977294922, -51.35256576538086, 0.04800000041723251, 0.01600000075995922, 1.055999994277954, 0.0, 0.0, 0.0, 0.0, 0.0, 1.6203961049605727E9, 2021-05-07 16:01:44.960
54.0, -177.8004608154297, -82.4554443359375, 249.0193634033203, -42.81063461303711, 0.04800000041723251, 0.01600000075995922, 1.055999994277954, 0.0, 0.0, 0.0, 0.0, 0.0, 1.6203961049611676E9, 2021-05-07 16:01:44.961
54.0, -193.63519287109375, -89.87166595458984, 245.376708984375, -42.496482849121094, 0.04800000041723251, 0.01600000075995922, 1.055999994277954, 0.0, 0.0, 0.0, 0.0, 0.0, 1.6203961049611676E9, 2021-05-07 16:01:44.961
55.0, -203.2018585205078, -77.52625274658203, 243.32350158691406, -35.80580139160156, 0.04800000041723251, 0.01600000075995922, 1.055999994277954, 0.0, 0.0, 0.0, 0.0, 0.0, 1.6203961049748425E9, 2021-05-07 16:01:44.974
55.0, -197.73785400390625, -88.30838775634766, 238.38682556152344, -34.721229553222656, 0.04800000041723251, 0.01600000075995922, 1.055999994277954, 0.0, 0.0, 0.0, 0.0, 0.0, 1.6203961049748425E9, 2021-05-07 16:01:44.974
56.0, -202.2631378173828, -86.96202087402344, 240.76914978027344, -37.66453170776367, 0.04800000041723251, 0.01600000075995922, 1.055999994277954, 0.0, 0.0, 0.0, 0.0, 0.0, 1.6203961049905457E9, 2021-05-07 16:01:44.990
56.0, -207.83558654785156, -95.94900512695312, 233.6184539794922, -32.286556243896484, 0.04800000041723251, 0.01600000075995922, 1.055999994277954, 0.0, 0.0, 0.0, 0.0, 0.0, 1.6203961049905457E9, 2021-05-07 16:01:44.990
57.0, -197.32647705078125, -94.29596710205078, 239.66587829589844, -27.877214431762695, 0.04800000041723251, 0.01600000075995922, 1.055999994277954, 0.0, 0.0, 0.0, 0.0, 0.0, 1.6203961049912615E9, 2021-05-07 16:01:44.991
57.0, -196.1558837890625, -108.14481353759766, 232.87796020507812, -29.485370635986328, 0.04800000041723251, 0.01600000075995922, 1.055999994277954, 0.0, 0.0, 0.0, 0.0, 0.0, 1.6203961049912615E9, 2021-05-07 16:01:44.991
58.0, -205.17652893066406, -110.78144836425781, 224.8558807373047, -35.248558044433594, 0.04800000041723251, 0.01600000075995922, 1.055999994277954, 0.0, 0.0, 0.0, 0.0, 0.0, 1.620396105004883E9, 2021-05-07 16:01:45.004
58.0, -213.38560485839844, -122.19187927246094, 221.3478546142578, -37.24940490722656, 0.04800000041723251, 0.01600000075995922, 1.055999994277954, 0.0, 0.0, 0.0, 0.0, 0.0, 1.620396105004883E9, 2021-05-07 16:01:45.004
59.0, -204.82496643066406, -110.43363952636719, 225.3233642578125, -24.627241134643555, 0.04800000041723251, 0.01600000075995922, 1.055999994277954, 0.0, 0.0, 0.0, 0.0, 0.0, 1.6203961050527303E9, 2021-05-07 16:01:45.052
59.0, -188.4479522705078, -111.6042251586914, 225.94044494628906, -22.087848663330078, 0.04800000041723251, 0.01600000075995922, 1.055999994277954, 0.0, 0.0, 0.0, 0.0, 0.0, 1.6203961050527303E9, 2021-05-07 16:01:45.052
60.0, -202.3977813720703, -109.40516662597656, 220.87661743164062, -31.658252716064453, 0.04800000041723251, 0.01600000075995922, 1.055999994277954, 0.0, 0.0, 0.0, 0.0, 0.0, 1.6203961050533073E9, 2021-05-07 16:01:45.053
60.0, -209.5634307861328, -111.27885437011719, 225.00547790527344, -30.30440902709961, 0.04800000041723251, 0.01600000075995922, 1.055999994277954, 0.0, 0.0, 0.0, 0.0, 0.0, 1.6203961050533073E9, 2021-05-07 16:01:45.053
61.0, -187.0828857421875, -107.61375427246094, 231.7672119140625, -33.23649215698242, 0.04800000041723251, 0.01600000075995922, 1.055999994277954, 0.0, 0.0, 0.0, 0.0, 0.0, 1.6203961050541072E9, 2021-05-07 16:01:45.054
61.0, -205.18026733398438, -103.26424407958984, 220.9551544189453, -37.64583206176758, 0.04800000041723251, 0.01600000075995922, 1.055999994277954, 0.0, 0.0, 0.0, 0.0, 0.0, 1.6203961050541072E9, 2021-05-07 16:01:45.054
62.0, -204.83993530273438, -109.19947052001953, 218.8645477294922, -42.85551452636719, 0.04800000041723251, 0.01600000075995922, 1.055999994277954, 0.0, 0.0, 0.0, 0.0, 0.0, 1.620396105054742E9, 2021-05-07 16:01:45.054
62.0, -195.8118133544922, -104.37126159667969, 232.34689331054688, -41.497928619384766, 0.04800000041723251, 0.01600000075995922, 1.055999994277954, 0.0, 0.0, 0.0, 0.0, 0.0, 1.620396105054742E9, 2021-05-07 16:01:45.054
63.0, -196.16709899902344, -104.38621520996094, 235.94842529296875, -42.06265640258789, 0.04800000041723251, 0.01600000075995922, 1.055999994277954, 0.0, 0.0, 0.0, 0.0, 0.0, 1.620396105065483E9, 2021-05-07 16:01:45.065
63.0, -189.06503295898438, -88.71977996826172, 237.81088256835938, -44.54220962524414, 0.04800000041723251, 0.01600000075995922, 1.055999994277954, 0.0, 0.0, 0.0, 0.0, 0.0, 1.620396105065483E9, 2021-05-07 16:01:45.065
64.0, -187.09410095214844, -94.52410125732422, 238.82440185546875, -49.433998107910156, 0.04800000041723251, 0.01600000075995922, 1.055999994277954, 0.0, 0.0, 0.0, 0.0, 0.0, 1.6203961050661428E9, 2021-05-07 16:01:45.066
64.0, -188.88551330566406, -86.65534973144531, 254.4347381591797, -46.21394348144531, 0.04800000041723251, 0.01600000075995922, 1.055999994277954, 0.0, 0.0, 0.0, 0.0, 0.0, 1.6203961050661428E9, 2021-05-07 16:01:45.066
65.0, -189.27072143554688, -86.62543487548828, 253.9897003173828, -42.77323532104492, 0.04800000041723251, 0.01600000075995922, 1.055999994277954, 0.0, 0.0, 0.0, 0.0, 0.0, 1.620396105080482E9, 2021-05-07 16:01:45.080
65.0, -197.1320037841797, -83.79432678222656, 250.9342041015625, -46.50565719604492, 0.04800000041723251, 0.01600000075995922, 1.055999994277954, 0.0, 0.0, 0.0, 0.0, 0.0, 1.620396105080482E9, 2021-05-07 16:01:45.080
66.0, -194.52902221679688, -72.78032684326172, 254.04953002929688, -41.176300048828125, 0.04800000041723251, 0.01600000075995922, 1.055999994277954, 0.0, 0.0, 0.0, 0.0, 0.0, 1.6203961050812545E9, 2021-05-07 16:01:45.081
66.0, -198.90097045898438, -89.3443374633789, 247.97219848632812, -42.61241912841797, 0.04800000041723251, 0.01600000075995922, 1.055999994277954, 0.0, 0.0, 0.0, 0.0, 0.0, 1.6203961050812545E9, 2021-05-07 16:01:45.081
67.0, -196.84776306152344, -92.0108871459961, 244.47164916992188, -43.13600540161133, 0.04800000041723251, 0.01600000075995922, 1.055999994277954, 0.0, 0.0, 0.0, 0.0, 0.0, 1.620396105127597E9, 2021-05-07 16:01:45.127
67.0, -196.94500732421875, -100.560302734375, 232.17486572265625, -42.33566665649414, 0.04800000041723251, 0.01600000075995922, 1.055999994277954, 0.0, 0.0, 0.0, 0.0, 0.0, 1.620396105127597E9, 2021-05-07 16:01:45.127
68.0, -204.331298828125, -103.59709930419922, 230.05807495117188, -39.22407150268555, 0.04800000041723251, 0.01600000075995922, 1.055999994277954, 0.0, 0.0, 0.0, 0.0, 0.0, 1.6203961051282778E9, 2021-05-07 16:01:45.128
68.0, -212.89193725585938, -125.0155029296875, 224.8184814453125, -50.107177734375, 0.04800000041723251, 0.01600000075995922, 1.055999994277954, 0.0, 0.0, 0.0, 0.0, 0.0, 1.6203961051282778E9, 2021-05-07 16:01:45.128
69.0, -202.8129119873047, -118.42206573486328, 233.56610107421875, -38.52845001220703, 0.04800000041723251, 0.01600000075995922, 1.055999994277954, 0.0, 0.0, 0.0, 0.0, 0.0, 1.620396105128899E9, 2021-05-07 16:01:45.128
69.0, -186.92955017089844, -117.47960662841797, 229.24278259277344, -36.688419342041016, 0.04800000041723251, 0.01600000075995922, 1.055999994277954, 0.0, 0.0, 0.0, 0.0, 0.0, 1.620396105128899E9, 2021-05-07 16:01:45.128
70.0, -193.20135498046875, -124.5106201171875, 225.5776824951172, -46.16532516479492, 0.04800000041723251, 0.01600000075995922, 1.055999994277954, 0.0, 0.0, 0.0, 0.0, 0.0, 1.6203961051296513E9, 2021-05-07 16:01:45.129
70.0, -191.114501953125, -122.51351165771484, 232.20103454589844, -38.38259506225586, 0.04800000041723251, 0.01600000075995922, 1.055999994277954, 0.0, 0.0, 0.0, 0.0, 0.0, 1.6203961051296513E9, 2021-05-07 16:01:45.129
71.0, -191.21920776367188, -119.28224182128906, 233.72317504882812, -37.77299118041992, 0.04800000041723251, 0.01600000075995922, 1.055999994277954, 0.0, 0.0, 0.0, 0.0, 0.0, 1.620396105140466E9, 2021-05-07 16:01:45.140
71.0, -187.83834838867188, -111.67902374267578, 234.99099731445312, -36.46402359008789, 0.04800000041723251, 0.01600000075995922, 1.055999994277954, 0.0, 0.0, 0.0, 0.0, 0.0, 1.620396105140466E9, 2021-05-07 16:01:45.140
72.0, -184.1508026123047, -105.48200988769531, 236.7674560546875, -31.317922592163086, 0.04800000041723251, 0.01600000075995922, 1.055999994277954, 0.0, 0.0, 0.0, 0.0, 0.0, 1.6203961051411943E9, 2021-05-07 16:01:45.141
72.0, -196.59719848632812, -114.48768615722656, 232.3282012939453, -47.02924346923828, 0.04800000041723251, 0.01600000075995922, 1.055999994277954, 0.0, 0.0, 0.0, 0.0, 0.0, 1.6203961051411943E9, 2021-05-07 16:01:45.141
73.0, -190.37025451660156, -102.5723648071289, 244.09017944335938, -49.69953155517578, 0.04800000041723251, 0.01600000075995922, 1.055999994277954, 0.0, 0.0, 0.0, 0.0, 0.0, 1.6203961051548653E9, 2021-05-07 16:01:45.154
73.0, -186.54808044433594, -91.80519104003906, 245.08872985839844, -49.97628402709961, 0.04800000041723251, 0.01600000075995922, 1.055999994277954, 0.0, 0.0, 0.0, 0.0, 0.0, 1.6203961051548653E9, 2021-05-07 16:01:45.154
74.0, -193.63893127441406, -102.62846374511719, 235.72402954101562, -53.334712982177734, 0.04800000041723251, 0.01600000075995922, 1.055999994277954, 0.0, 0.0, 0.0, 0.0, 0.0, 1.6203961051702085E9, 2021-05-07 16:01:45.170
74.0, -185.61309814453125, -95.91160583496094, 248.52195739746094, -40.787349700927734, 0.04800000041723251, 0.01600000075995922, 1.055999994277954, 0.0, 0.0, 0.0, 0.0, 0.0, 1.6203961051702085E9, 2021-05-07 16:01:45.170
75.0, -194.1251220703125, -94.75971221923828, 241.37875366210938, -45.87361145019531, 0.04800000041723251, 0.01600000075995922, 1.055999994277954, 0.0, 0.0, 0.0, 0.0, 0.0, 1.6203961051855848E9, 2021-05-07 16:01:45.185
75.0, -217.11802673339844, -101.59251403808594, 233.94009399414062, -43.20332336425781, 0.04800000041723251, 0.01600000075995922, 1.055999994277954, 0.0, 0.0, 0.0, 0.0, 0.0, 1.6203961051855848E9, 2021-05-07 16:01:45.185
76.0, -215.352783203125, -112.07545471191406, 227.8665008544922, -45.230350494384766, 0.04800000041723251, 0.01600000075995922, 1.055999994277954, 0.0, 0.0, 0.0, 0.0, 0.0, 1.6203961051864104E9, 2021-05-07 16:01:45.186
76.0, -206.7921600341797, -117.53944396972656, 227.900146484375, -42.42168426513672, 0.04800000041723251, 0.01600000075995922, 1.055999994277954, 0.0, 0.0, 0.0, 0.0, 0.0, 1.6203961051864104E9, 2021-05-07 16:01:45.186
77.0, -205.03440856933594, -119.58142852783203, 225.67864990234375, -47.29477310180664, 0.04800000041723251, 0.01600000075995922, 1.055999994277954, 0.0, 0.0, 0.0, 0.0, 0.0, 1.6203961052004845E9, 2021-05-07 16:01:45.200
77.0, -202.32672119140625, -117.2813949584961, 224.4332733154297, -44.171958923339844, 0.04800000041723251, 0.01600000075995922, 1.055999994277954, 0.0, 0.0, 0.0, 0.0, 0.0, 1.6203961052004845E9, 2021-05-07 16:01:45.200
78.0, -211.455810546875, -131.15267944335938, 211.2052459716797, -48.23722839355469, 0.04800000041723251, 0.01600000075995922, 1.055999994277954, 0.0, 0.0, 0.0, 0.0, 0.0, 1.6203961052012403E9, 2021-05-07 16:01:45.201
78.0, -212.57029724121094, -134.1820068359375, 211.01451110839844, -47.51543045043945, 0.04800000041723251, 0.01600000075995922, 1.055999994277954, 0.0, 0.0, 0.0, 0.0, 0.0, 1.6203961052012403E9, 2021-05-07 16:01:45.201
79.0, -197.4386749267578, -118.67263793945312, 222.42868041992188, -30.891572952270508, 0.04800000041723251, 0.01600000075995922, 1.055999994277954, 0.0, 0.0, 0.0, 0.0, 0.0, 1.6203961052147524E9, 2021-05-07 16:01:45.214
79.0, -206.60142517089844, -128.4038543701172, 215.97361755371094, -39.594322204589844, 0.04800000041723251, 0.01600000075995922, 1.055999994277954, 0.0, 0.0, 0.0, 0.0, 0.0, 1.6203961052147524E9, 2021-05-07 16:01:45.214
80.0, -203.47113037109375, -124.64899444580078, 224.25375366210938, -33.22901153564453, 0.04800000041723251, 0.01600000075995922, 1.055999994277954, 0.0, 0.0, 0.0, 0.0, 0.0, 1.6203961052304623E9, 2021-05-07 16:01:45.230
80.0, -200.76718139648438, -116.99342346191406, 228.4611358642578, -31.370281219482422, 0.04800000041723251, 0.01600000075995922, 1.055999994277954, 0.0, 0.0, 0.0, 0.0, 0.0, 1.6203961052304623E9, 2021-05-07 16:01:45.230
81.0, -202.58851623535156, -119.41313934326172, 225.94044494628906, -34.61277389526367, 0.04800000041723251, 0.01600000075995922, 1.055999994277954, 0.0, 0.0, 0.0, 0.0, 0.0, 1.620396105231259E9, 2021-05-07 16:01:45.231
81.0, -193.24998474121094, -126.67227935791016, 227.87771606445312, -30.12115478515625, 0.04800000041723251, 0.01600000075995922, 1.055999994277954, 0.0, 0.0, 0.0, 0.0, 0.0, 1.620396105231259E9, 2021-05-07 16:01:45.231
82.0, -199.4170684814453, -124.48444366455078, 222.42868041992188, -35.09148025512695, 0.04800000041723251, 0.01600000075995922, 1.055999994277954, 0.0, 0.0, 0.0, 0.0, 0.0, 1.6203961052448184E9, 2021-05-07 16:01:45.244
82.0, -207.66729736328125, -122.2405014038086, 226.5949249267578, -31.942485809326172, 0.04800000041723251, 0.01600000075995922, 1.055999994277954, 0.0, 0.0, 0.0, 0.0, 0.0, 1.6203961052448184E9, 2021-05-07 16:01:45.244
83.0, -202.02378845214844, -119.42809295654297, 238.76455688476562, -33.59552001953125, 0.04800000041723251, 0.01600000075995922, 1.055999994277954, 0.0, 0.0, 0.0, 0.0, 0.0, 1.620396105260595E9, 2021-05-07 16:01:45.260
83.0, -196.39523315429688, -109.31914520263672, 235.57069396972656, -37.72063064575195, 0.04800000041723251, 0.01600000075995922, 1.055999994277954, 0.0, 0.0, 0.0, 0.0, 0.0, 1.620396105260595E9, 2021-05-07 16:01:45.260
84.0, -194.91796875, -101.0016098022461, 240.2979278564453, -42.649818420410156, 0.04800000041723251, 0.01600000075995922, 1.055999994277954, 0.0, 0.0, 0.0, 0.0, 0.0, 1.6203961052612631E9, 2021-05-07 16:01:45.261
84.0, -207.15118408203125, -114.55500793457031, 236.44583129882812, -53.97797775268555, 0.04800000041723251, 0.01600000075995922, 1.055999994277954, 0.0, 0.0, 0.0, 0.0, 0.0, 1.6203961052612631E9, 2021-05-07 16:01:45.261
85.0, -206.2536163330078, -106.25616455078125, 238.7944793701172, -51.34508514404297, 0.04800000041723251, 0.01600000075995922, 1.055999994277954, 0.0, 0.0, 0.0, 0.0, 0.0, 1.620396105292025E9, 2021-05-07 16:01:45.292
85.0, -176.89913940429688, -85.888671875, 248.06942749023438, -36.157352447509766, 0.04800000041723251, 0.01600000075995922, 1.055999994277954, 0.0, 0.0, 0.0, 0.0, 0.0, 1.620396105292025E9, 2021-05-07 16:01:45.292
86.0, -182.74459838867188, -109.07979583740234, 237.2723388671875, -48.1886100769043, 0.04800000041723251, 0.01600000075995922, 1.055999994277954, 0.0, 0.0, 0.0, 0.0, 0.0, 1.6203961052925794E9, 2021-05-07 16:01:45.292
86.0, -219.24977111816406, -107.849365234375, 234.56838989257812, -42.99388885498047, 0.04800000041723251, 0.01600000075995922, 1.055999994277954, 0.0, 0.0, 0.0, 0.0, 0.0, 1.6203961052925794E9, 2021-05-07 16:01:45.292
87.0, -195.34059143066406, -96.41275024414062, 243.57408142089844, -29.16748046875, 0.04800000041723251, 0.01600000075995922, 1.055999994277954, 0.0, 0.0, 0.0, 0.0, 0.0, 1.6203961052933252E9, 2021-05-07 16:01:45.293
87.0, -197.0048370361328, -116.32772064208984, 237.29478454589844, -26.44109344482422, 0.04800000041723251, 0.01600000075995922, 1.055999994277954, 0.0, 0.0, 0.0, 0.0, 0.0, 1.6203961052933252E9, 2021-05-07 16:01:45.293
88.0, -196.63458251953125, -114.15483856201172, 236.14663696289062, -23.303316116333008, 0.04800000041723251, 0.01600000075995922, 1.055999994277954, 0.0, 0.0, 0.0, 0.0, 0.0, 1.6203961053048E9, 2021-05-07 16:01:45.304
88.0, -200.01171875, -120.23965454101562, 238.83935546875, -21.545562744140625, 0.04800000041723251, 0.01600000075995922, 1.055999994277954, 0.0, 0.0, 0.0, 0.0, 0.0, 1.6203961053048E9, 2021-05-07 16:01:45.304
89.0, -199.47317504882812, -119.14385986328125, 239.76312255859375, -21.919553756713867, 0.04800000041723251, 0.01600000075995922, 1.055999994277954, 0.0, 0.0, 0.0, 0.0, 0.0, 1.6203961053205814E9, 2021-05-07 16:01:45.320
89.0, -200.24732971191406, -115.65827941894531, 225.68612670898438, -19.978546142578125, 0.04800000041723251, 0.01600000075995922, 1.055999994277954, 0.0, 0.0, 0.0, 0.0, 0.0, 1.6203961053205814E9, 2021-05-07 16:01:45.320
90.0, -207.95152282714844, -115.3553466796875, 221.632080078125, -24.638460159301758, 0.04800000041723251, 0.01600000075995922, 1.055999994277954, 0.0, 0.0, 0.0, 0.0, 0.0, 1.6203961053213782E9, 2021-05-07 16:01:45.321
90.0, -206.9193115234375, -120.76698303222656, 230.9257354736328, -36.32190704345703, 0.04800000041723251, 0.01600000075995922, 1.055999994277954, 0.0, 0.0, 0.0, 0.0, 0.0, 1.6203961053213782E9, 2021-05-07 16:01:45.321
91.0, -201.6348419189453, -113.58637237548828, 229.8636016845703, -35.90678024291992, 0.04800000041723251, 0.01600000075995922, 1.055999994277954, 0.0, 0.0, 0.0, 0.0, 0.0, 1.6203961053347633E9, 2021-05-07 16:01:45.334
91.0, -204.7090301513672, -111.66032409667969, 229.03707885742188, -37.89640808105469, 0.04800000041723251, 0.01600000075995922, 1.055999994277954, 0.0, 0.0, 0.0, 0.0, 0.0, 1.6203961053347633E9, 2021-05-07 16:01:45.334
92.0, -199.20016479492188, -110.8375473022461, 226.49020385742188, -38.34519577026367, 0.04800000041723251, 0.01600000075995922, 1.055999994277954, 0.0, 0.0, 0.0, 0.0, 0.0, 1.62039610535049E9, 2021-05-07 16:01:45.350
92.0, -196.81410217285156, -107.35195922851562, 235.5033721923828, -37.634613037109375, 0.04800000041723251, 0.01600000075995922, 1.055999994277954, 0.0, 0.0, 0.0, 0.0, 0.0, 1.62039610535049E9, 2021-05-07 16:01:45.350
93.0, -198.13429260253906, -110.7777099609375, 237.8707275390625, -41.51662826538086, 0.04800000041723251, 0.01600000075995922, 1.055999994277954, 0.0, 0.0, 0.0, 0.0, 0.0, 1.6203961053512876E9, 2021-05-07 16:01:45.351
93.0, -196.4401092529297, -119.54402923583984, 226.14613342285156, -48.9627685546875, 0.04800000041723251, 0.01600000075995922, 1.055999994277954, 0.0, 0.0, 0.0, 0.0, 0.0, 1.6203961053512876E9, 2021-05-07 16:01:45.351
94.0, -199.98553466796875, -119.10272216796875, 224.6464385986328, -51.618099212646484, 0.04800000041723251, 0.01600000075995922, 1.055999994277954, 0.0, 0.0, 0.0, 0.0, 0.0, 1.6203961053647332E9, 2021-05-07 16:01:45.364
94.0, -191.52963256835938, -119.81704711914062, 241.15435791015625, -46.423377990722656, 0.04800000041723251, 0.01600000075995922, 1.055999994277954, 0.0, 0.0, 0.0, 0.0, 0.0, 1.6203961053647332E9, 2021-05-07 16:01:45.364
95.0, -193.96429443359375, -123.70280456542969, 235.8287353515625, -46.516876220703125, 0.04800000041723251, 0.01600000075995922, 1.055999994277954, 0.0, 0.0, 0.0, 0.0, 0.0, 1.6203961053805745E9, 2021-05-07 16:01:45.380
95.0, -188.4442138671875, -115.18331146240234, 231.56900024414062, -44.68806457519531, 0.04800000041723251, 0.01600000075995922, 1.055999994277954, 0.0, 0.0, 0.0, 0.0, 0.0, 1.6203961053805745E9, 2021-05-07 16:01:45.380
96.0, -190.54229736328125, -115.61339569091797, 225.55897521972656, -47.51543045043945, 0.04800000041723251, 0.01600000075995922, 1.055999994277954, 0.0, 0.0, 0.0, 0.0, 0.0, 1.6203961053811908E9, 2021-05-07 16:01:45.381
96.0, -196.29800415039062, -121.51122283935547, 230.51808166503906, -44.81521987915039, 0.04800000041723251, 0.01600000075995922, 1.055999994277954, 0.0, 0.0, 0.0, 0.0, 0.0, 1.6203961053811908E9, 2021-05-07 16:01:45.381
97.0, -201.4141845703125, -115.20574951171875, 229.426025390625, -43.109825134277344, 0.04800000041723251, 0.01600000075995922, 1.055999994277954, 0.0, 0.0, 0.0, 0.0, 0.0, 1.6203961054112592E9, 2021-05-07 16:01:45.411
97.0, -197.27037048339844, -114.83549499511719, 223.50576782226562, -45.024654388427734, 0.04800000041723251, 0.01600000075995922, 1.055999994277954, 0.0, 0.0, 0.0, 0.0, 0.0, 1.6203961054112592E9, 2021-05-07 16:01:45.411
98.0, -191.73158264160156, -107.63619232177734, 233.1621856689453, -36.123695373535156, 0.04800000041723251, 0.01600000075995922, 1.055999994277954, 0.0, 0.0, 0.0, 0.0, 0.0, 1.620396105411988E9, 2021-05-07 16:01:45.411
98.0, -198.46339416503906, -119.67866516113281, 226.86045837402344, -41.845741271972656, 0.04800000041723251, 0.01600000075995922, 1.055999994277954, 0.0, 0.0, 0.0, 0.0, 0.0, 1.620396105411988E9, 2021-05-07 16:01:45.411
99.0, -196.39149475097656, -121.15592956542969, 226.27703857421875, -41.15760040283203, 0.04800000041723251, 0.01600000075995922, 1.055999994277954, 0.0, 0.0, 0.0, 0.0, 0.0, 1.6203961054127138E9, 2021-05-07 16:01:45.412
99.0, -195.10870361328125, -118.5080795288086, 222.92234802246094, -32.23419952392578, 0.04800000041723251, 0.01600000075995922, 1.055999994277954, 0.0, 0.0, 0.0, 0.0, 0.0, 1.6203961054127138E9, 2021-05-07 16:01:45.412
100.0, -196.30921936035156, -134.24557495117188, 211.971923828125, -46.995582580566406, 0.04800000041723251, 0.01600000075995922, 1.055999994277954, 0.0, 0.0, 0.0, 0.0, 0.0, 1.6203961054254353E9, 2021-05-07 16:01:45.425
100.0, -194.6674041748047, -134.645751953125, 225.7908477783203, -36.86045455932617, 0.04800000041723251, 0.01600000075995922, 1.055999994277954, 0.0, 0.0, 0.0, 0.0, 0.0, 1.6203961054254353E9, 2021-05-07 16:01:45.425
0.0, -179.0626678466797, -124.09175109863281, 232.3581085205078, -34.94001388549805, 0.04800000041723251, 0.01600000075995922, 1.055999994277954, 0.0, 0.0, 0.0, 0.0, 0.0, 1.6203961054263003E9, 2021-05-07 16:01:45.426
1.0, -172.9778594970703, -128.19442749023438, 227.96372985839844, -38.4405632019043, 0.04800000041723251, 0.01600000075995922, 1.055999994277954, 0.0, 0.0, 0.0, 0.0, 0.0, 1.620396105439791E9, 2021-05-07 16:01:45.439
1.0, -189.07064819335938, -133.47889709472656, 224.54171752929688, -39.1848030090332, 0.04800000041723251, 0.01600000075995922, 1.055999994277954, 0.0, 0.0, 0.0, 0.0, 0.0, 1.620396105439791E9, 2021-05-07 16:01:45.439
2.0, -190.83587646484375, -123.99451446533203, 231.51663208007812, -38.53031921386719, 0.04800000041723251, 0.01600000075995922, 1.055999994277954, 0.0, 0.0, 0.0, 0.0, 0.0, 1.6203961054554896E9, 2021-05-07 16:01:45.455
2.0, -196.5354766845703, -120.06388092041016, 228.99220275878906, -38.4630012512207, 0.04800000041723251, 0.01600000075995922, 1.055999994277954, 0.0, 0.0, 0.0, 0.0, 0.0, 1.6203961054554896E9, 2021-05-07 16:01:45.455
3.0, -199.45260620117188, -117.59928131103516, 225.90304565429688, -38.19746780395508, 0.04800000041723251, 0.01600000075995922, 1.055999994277954, 0.0, 0.0, 0.0, 0.0, 0.0, 1.6203961054562783E9, 2021-05-07 16:01:45.456
3.0, -198.57373046875, -114.88411712646484, 224.02188110351562, -40.000099182128906, 0.04800000041723251, 0.01600000075995922, 1.055999994277954, 0.0, 0.0, 0.0, 0.0, 0.0, 1.6203961054562783E9, 2021-05-07 16:01:45.456
4.0, -200.61570739746094, -110.72161102294922, 225.34579467773438, -39.41667556762695, 0.04800000041723251, 0.01600000075995922, 1.055999994277954, 0.0, 0.0, 0.0, 0.0, 0.0, 1.6203961054699528E9, 2021-05-07 16:01:45.469
4.0, -192.36923217773438, -119.64501190185547, 218.5429229736328, -47.50981903076172, 0.04800000041723251, 0.01600000075995922, 1.055999994277954, 0.0, 0.0, 0.0, 0.0, 0.0, 1.6203961054699528E9, 2021-05-07 16:01:45.469
5.0, -185.5962677001953, -110.25411987304688, 221.35533142089844, -39.25960159301758, 0.04800000041723251, 0.01600000075995922, 1.055999994277954, 0.0, 0.0, 0.0, 0.0, 0.0, 1.6203961054854505E9, 2021-05-07 16:01:45.485
5.0, -200.1444854736328, -125.48673248291016, 205.9058074951172, -48.983341217041016, 0.04800000041723251, 0.01600000075995922, 1.055999994277954, 0.0, 0.0, 0.0, 0.0, 0.0, 1.6203961054854505E9, 2021-05-07 16:01:45.485
6.0, -185.8468475341797, -121.55236053466797, 223.76382446289062, -45.490272521972656, 0.04800000041723251, 0.01600000075995922, 1.055999994277954, 0.0, 0.0, 0.0, 0.0, 0.0, 1.620396105486215E9, 2021-05-07 16:01:45.486
6.0, -189.1192626953125, -118.11913299560547, 221.99859619140625, -36.421016693115234, 0.04800000041723251, 0.01600000075995922, 1.055999994277954, 0.0, 0.0, 0.0, 0.0, 0.0, 1.620396105486215E9, 2021-05-07 16:01:45.486
7.0, -200.0023651123047, -124.0281753540039, 212.32720947265625, -29.483501434326172, 0.04800000041723251, 0.01600000075995922, 1.055999994277954, 0.0, 0.0, 0.0, 0.0, 0.0, 1.6203961054997988E9, 2021-05-07 16:01:45.499
7.0, -189.61666870117188, -120.7146224975586, 215.38644409179688, -25.650104522705078, 0.04800000041723251, 0.01600000075995922, 1.055999994277954, 0.0, 0.0, 0.0, 0.0, 0.0, 1.6203961054997988E9, 2021-05-07 16:01:45.499
8.0, -199.2394256591797, -131.7996826171875, 215.4313201904297, -33.915283203125, 0.04800000041723251, 0.01600000075995922, 1.055999994277954, 0.0, 0.0, 0.0, 0.0, 0.0, 1.6203961055156012E9, 2021-05-07 16:01:45.515
8.0, -196.0231170654297, -125.7971420288086, 221.51988220214844, -22.112157821655273, 0.04800000041723251, 0.01600000075995922, 1.055999994277954, 0.0, 0.0, 0.0, 0.0, 0.0, 1.6203961055156012E9, 2021-05-07 16:01:45.515
9.0, -193.07608032226562, -121.84033203125, 217.95950317382812, -18.925764083862305, 0.04800000041723251, 0.01600000075995922, 1.055999994277954, 0.0, 0.0, 0.0, 0.0, 0.0, 1.620396105516335E9, 2021-05-07 16:01:45.516
9.0, -197.19744873046875, -134.70932006835938, 215.59962463378906, -29.18804931640625, 0.04800000041723251, 0.01600000075995922, 1.055999994277954, 0.0, 0.0, 0.0, 0.0, 0.0, 1.620396105516335E9, 2021-05-07 16:01:45.516
10.0, -197.46298217773438, -137.17391967773438, 216.05589294433594, -28.866416931152344, 0.04800000041723251, 0.01600000075995922, 1.055999994277954, 0.0, 0.0, 0.0, 0.0, 0.0, 1.6203961055297887E9, 2021-05-07 16:01:45.529
10.0, -191.04530334472656, -121.91886901855469, 226.725830078125, -23.17428970336914, 0.04800000041723251, 0.01600000075995922, 1.055999994277954, 0.0, 0.0, 0.0, 0.0, 0.0, 1.6203961055297887E9, 2021-05-07 16:01:45.529
11.0, -191.89801025390625, -130.5767364501953, 220.6148223876953, -32.66615676879883, 0.04800000041723251, 0.01600000075995922, 1.055999994277954, 0.0, 0.0, 0.0, 0.0, 0.0, 1.6203961055454476E9, 2021-05-07 16:01:45.545
11.0, -194.3326873779297, -130.85348510742188, 217.9520263671875, -35.0185546875, 0.04800000041723251, 0.01600000075995922, 1.055999994277954, 0.0, 0.0, 0.0, 0.0, 0.0, 1.6203961055454476E9, 2021-05-07 16:01:45.545
12.0, -202.5492401123047, -134.44004821777344, 217.79119873046875, -35.13822937011719, 0.04800000041723251, 0.01600000075995922, 1.055999994277954, 0.0, 0.0, 0.0, 0.0, 0.0, 1.6203961055462728E9, 2021-05-07 16:01:45.546
12.0, -191.63995361328125, -114.16605377197266, 223.18788146972656, -28.724302291870117, 0.04800000041723251, 0.01600000075995922, 1.055999994277954, 0.0, 0.0, 0.0, 0.0, 0.0, 1.6203961055462728E9, 2021-05-07 16:01:45.546
13.0, -174.60470581054688, -109.0760498046875, 230.12913513183594, -29.19552993774414, 0.04800000041723251, 0.01600000075995922, 1.055999994277954, 0.0, 0.0, 0.0, 0.0, 0.0, 1.6203961055597966E9, 2021-05-07 16:01:45.559
13.0, -209.9766845703125, -115.62461853027344, 220.8317413330078, -44.04667282104492, 0.04800000041723251, 0.01600000075995922, 1.055999994277954, 0.0, 0.0, 0.0, 0.0, 0.0, 1.6203961055597966E9, 2021-05-07 16:01:45.559
14.0, -199.50869750976562, -114.26329040527344, 227.08485412597656, -42.52827072143555, 0.04800000041723251, 0.01600000075995922, 1.055999994277954, 0.0, 0.0, 0.0, 0.0, 0.0, 1.6203961055754597E9, 2021-05-07 16:01:45.575
14.0, -200.40628051757812, -112.67757415771484, 238.7309112548828, -48.10072326660156, 0.04800000041723251, 0.01600000075995922, 1.055999994277954, 0.0, 0.0, 0.0, 0.0, 0.0, 1.6203961055754597E9, 2021-05-07 16:01:45.575
15.0, -198.0538787841797, -120.00029754638672, 224.4631805419922, -54.10700225830078, 0.04800000041723251, 0.01600000075995922, 1.055999994277954, 0.0, 0.0, 0.0, 0.0, 0.0, 1.6203961055762062E9, 2021-05-07 16:01:45.576
15.0, -205.39157104492188, -112.87579345703125, 228.73414611816406, -53.34032440185547, 0.04800000041723251, 0.01600000075995922, 1.055999994277954, 0.0, 0.0, 0.0, 0.0, 0.0, 1.6203961055762062E9, 2021-05-07 16:01:45.576
16.0, -194.23170471191406, -115.10851287841797, 239.14602661132812, -40.291812896728516, 0.04800000041723251, 0.01600000075995922, 1.055999994277954, 0.0, 0.0, 0.0, 0.0, 0.0, 1.6203961055898385E9, 2021-05-07 16:01:45.589
16.0, -203.94796752929688, -119.46175384521484, 232.17860412597656, -32.793312072753906, 0.04800000041723251, 0.01600000075995922, 1.055999994277954, 0.0, 0.0, 0.0, 0.0, 0.0, 1.6203961055898385E9, 2021-05-07 16:01:45.589
17.0, -198.831787109375, -118.32108306884766, 235.82125854492188, -18.473236083984375, 0.04800000041723251, 0.01600000075995922, 1.055999994277954, 0.0, 0.0, 0.0, 0.0, 0.0, 1.6203961056055307E9, 2021-05-07 16:01:45.605
17.0, -208.67893981933594, -125.72234344482422, 217.3386688232422, -23.073312759399414, 0.04800000041723251, 0.01600000075995922, 1.055999994277954, 0.0, 0.0, 0.0, 0.0, 0.0, 1.6203961056055307E9, 2021-05-07 16:01:45.605
18.0, -217.03387451171875, -133.4639434814453, 220.42782592773438, -14.950249671936035, 0.04800000041723251, 0.01600000075995922, 1.055999994277954, 0.0, 0.0, 0.0, 0.0, 0.0, 1.620396105606311E9, 2021-05-07 16:01:45.606
18.0, -215.20506286621094, -135.490966796875, 211.22393798828125, -14.647317886352539, 0.04800000041723251, 0.01600000075995922, 1.055999994277954, 0.0, 0.0, 0.0, 0.0, 0.0, 1.620396105606311E9, 2021-05-07 16:01:45.606
19.0, -197.28346252441406, -132.39059448242188, 214.9862823486328, -7.044101715087891, 0.04800000041723251, 0.01600000075995922, 1.055999994277954, 0.0, 0.0, 0.0, 0.0, 0.0, 1.6203961056199667E9, 2021-05-07 16:01:45.619
19.0, -207.45973205566406, -148.31134033203125, 200.9467010498047, -12.7848482131958, 0.04800000041723251, 0.01600000075995922, 1.055999994277954, 0.0, 0.0, 0.0, 0.0, 0.0, 1.6203961056199667E9, 2021-05-07 16:01:45.619
20.0, -207.73648071289062, -147.533447265625, 208.33299255371094, -12.178984642028809, 0.04800000041723251, 0.01600000075995922, 1.055999994277954, 0.0, 0.0, 0.0, 0.0, 0.0, 1.620396105635187E9, 2021-05-07 16:01:45.635
20.0, -199.69195556640625, -135.068359375, 215.0087127685547, -20.593759536743164, 0.04800000041723251, 0.01600000075995922, 1.055999994277954, 0.0, 0.0, 0.0, 0.0, 0.0, 1.620396105635187E9, 2021-05-07 16:01:45.635
21.0, -184.4556121826172, -125.65876770019531, 224.20513916015625, -22.47492790222168, 0.04800000041723251, 0.01600000075995922, 1.055999994277954, 0.0, 0.0, 0.0, 0.0, 0.0, 1.620396105651002E9, 2021-05-07 16:01:45.651
21.0, -194.98342895507812, -121.48503875732422, 224.18643188476562, -32.598838806152344, 0.04800000041723251, 0.01600000075995922, 1.055999994277954, 0.0, 0.0, 0.0, 0.0, 0.0, 1.620396105651002E9, 2021-05-07 16:01:45.651
22.0, -187.799072265625, -120.73332214355469, 233.850341796875, -31.88077735900879, 0.04800000041723251, 0.01600000075995922, 1.055999994277954, 0.0, 0.0, 0.0, 0.0, 0.0, 1.6203961056661196E9, 2021-05-07 16:01:45.666
22.0, -189.30625915527344, -108.92645263671875, 236.09426879882812, -34.397727966308594, 0.04800000041723251, 0.01600000075995922, 1.055999994277954, 0.0, 0.0, 0.0, 0.0, 0.0, 1.6203961056661196E9, 2021-05-07 16:01:45.666
23.0, -191.8306884765625, -105.38851165771484, 234.03358459472656, -38.29096603393555, 0.04800000041723251, 0.01600000075995922, 1.055999994277954, 0.0, 0.0, 0.0, 0.0, 0.0, 1.6203961056667905E9, 2021-05-07 16:01:45.666
23.0, -192.66842651367188, -102.54244995117188, 237.88941955566406, -42.18046188354492, 0.04800000041723251, 0.01600000075995922, 1.055999994277954, 0.0, 0.0, 0.0, 0.0, 0.0, 1.6203961056667905E9, 2021-05-07 16:01:45.666
24.0, -189.7849578857422, -100.16761016845703, 243.6301727294922, -35.20554733276367, 0.04800000041723251, 0.01600000075995922, 1.055999994277954, 0.0, 0.0, 0.0, 0.0, 0.0, 1.6203961056675577E9, 2021-05-07 16:01:45.667
24.0, -187.73924255371094, -111.77252197265625, 241.36004638671875, -42.098182678222656, 0.04800000041723251, 0.01600000075995922, 1.055999994277954, 0.0, 0.0, 0.0, 0.0, 0.0, 1.6203961056675577E9, 2021-05-07 16:01:45.667
25.0, -215.59774780273438, -111.54438781738281, 221.69192504882812, -46.92265319824219, 0.04800000041723251, 0.01600000075995922, 1.055999994277954, 0.0, 0.0, 0.0, 0.0, 0.0, 1.6203961056798844E9, 2021-05-07 16:01:45.679
25.0, -210.55262756347656, -126.02153778076172, 222.44363403320312, -49.46578598022461, 0.04800000041723251, 0.01600000075995922, 1.055999994277954, 0.0, 0.0, 0.0, 0.0, 0.0, 1.6203961056798844E9, 2021-05-07 16:01:45.679
26.0, -207.4298095703125, -115.97990417480469, 229.10813903808594, -42.45347595214844, 0.04800000041723251, 0.01600000075995922, 1.055999994277954, 0.0, 0.0, 0.0, 0.0, 0.0, 1.6203961056954906E9, 2021-05-07 16:01:45.695
26.0, -199.34788513183594, -109.85395050048828, 231.05662536621094, -43.52308654785156, 0.04800000041723251, 0.01600000075995922, 1.055999994277954, 0.0, 0.0, 0.0, 0.0, 0.0, 1.6203961056954906E9, 2021-05-07 16:01:45.695
27.0, -208.21145629882812, -113.52279663085938, 223.50950622558594, -42.479652404785156, 0.04800000041723251, 0.01600000075995922, 1.055999994277954, 0.0, 0.0, 0.0, 0.0, 0.0, 1.6203961056961305E9, 2021-05-07 16:01:45.696
27.0, -207.24281311035156, -111.17039489746094, 221.972412109375, -37.25875473022461, 0.04800000041723251, 0.01600000075995922, 1.055999994277954, 0.0, 0.0, 0.0, 0.0, 0.0, 1.6203961056961305E9, 2021-05-07 16:01:45.696
28.0, -211.6409454345703, -112.98424530029297, 222.12948608398438, -29.18804931640625, 0.04800000041723251, 0.01600000075995922, 1.055999994277954, 0.0, 0.0, 0.0, 0.0, 0.0, 1.6203961057097776E9, 2021-05-07 16:01:45.709
28.0, -189.22024536132812, -115.21696472167969, 234.90872192382812, -17.044593811035156, 0.04800000041723251, 0.01600000075995922, 1.055999994277954, 0.0, 0.0, 0.0, 0.0, 0.0, 1.6203961057097776E9, 2021-05-07 16:01:45.709
29.0, -192.17849731445312, -119.98534393310547, 224.1004180908203, -24.67399024963379, 0.04800000041723251, 0.01600000075995922, 1.055999994277954, 0.0, 0.0, 0.0, 0.0, 0.0, 1.6203961057255116E9, 2021-05-07 16:01:45.725
29.0, -193.30421447753906, -116.0958480834961, 234.6170196533203, -17.00719451904297, 0.04800000041723251, 0.01600000075995922, 1.055999994277954, 0.0, 0.0, 0.0, 0.0, 0.0, 1.6203961057255116E9, 2021-05-07 16:01:45.725
30.0, -195.0843963623047, -114.89907836914062, 236.62159729003906, -16.883777618408203, 0.04800000041723251, 0.01600000075995922, 1.055999994277954, 0.0, 0.0, 0.0, 0.0, 0.0, 1.6203961057262475E9, 2021-05-07 16:01:45.726
30.0, -194.14195251464844, -116.78772735595703, 243.69375610351562, -24.550573348999023, 0.04800000041723251, 0.01600000075995922, 1.055999994277954, 0.0, 0.0, 0.0, 0.0, 0.0, 1.6203961057262475E9, 2021-05-07 16:01:45.726
31.0, -189.95326232910156, -120.22843170166016, 243.2973175048828, -23.851211547851562, 0.04800000041723251, 0.01600000075995922, 1.055999994277954, 0.0, 0.0, 0.0, 0.0, 0.0, 1.6203961057398655E9, 2021-05-07 16:01:45.739
31.0, -196.0829620361328, -119.77964782714844, 237.38453674316406, -30.081884384155273, 0.04800000041723251, 0.01600000075995922, 1.055999994277954, 0.0, 0.0, 0.0, 0.0, 0.0, 1.6203961057398655E9, 2021-05-07 16:01:45.739
32.0, -194.39625549316406, -120.7594985961914, 239.02261352539062, -37.041839599609375, 0.04800000041723251, 0.01600000075995922, 1.055999994277954, 0.0, 0.0, 0.0, 0.0, 0.0, 1.6203961057559443E9, 2021-05-07 16:01:45.755
32.0, -201.7040252685547, -118.5492172241211, 243.86578369140625, -36.38361740112305, 0.04800000041723251, 0.01600000075995922, 1.055999994277954, 0.0, 0.0, 0.0, 0.0, 0.0, 1.6203961057559443E9, 2021-05-07 16:01:45.755
33.0, -188.37875366210938, -103.6943359375, 243.7947235107422, -35.61693572998047, 0.04800000041723251, 0.01600000075995922, 1.055999994277954, 0.0, 0.0, 0.0, 0.0, 0.0, 1.6203961057705135E9, 2021-05-07 16:01:45.770
33.0, -197.3096466064453, -113.72100830078125, 241.2216796875, -41.64939498901367, 0.04800000041723251, 0.01600000075995922, 1.055999994277954, 0.0, 0.0, 0.0, 0.0, 0.0, 1.6203961057705135E9, 2021-05-07 16:01:45.770
34.0, -206.0011749267578, -118.36222076416016, 243.46188354492188, -34.68570327758789, 0.04800000041723251, 0.01600000075995922, 1.055999994277954, 0.0, 0.0, 0.0, 0.0, 0.0, 1.620396105771237E9, 2021-05-07 16:01:45.771
34.0, -212.70306396484375, -121.08113098144531, 227.58973693847656, -35.06343078613281, 0.04800000041723251, 0.01600000075995922, 1.055999994277954, 0.0, 0.0, 0.0, 0.0, 0.0, 1.620396105771237E9, 2021-05-07 16:01:45.771
35.0, -215.80345153808594, -117.33000946044922, 218.52047729492188, -37.00444030761719, 0.04800000041723251, 0.01600000075995922, 1.055999994277954, 0.0, 0.0, 0.0, 0.0, 0.0, 1.6203961057856095E9, 2021-05-07 16:01:45.785
35.0, -217.98007202148438, -112.12033081054688, 213.72219848632812, -38.0590934753418, 0.04800000041723251, 0.01600000075995922, 1.055999994277954, 0.0, 0.0, 0.0, 0.0, 0.0, 1.6203961057856095E9, 2021-05-07 16:01:45.785
36.0, -215.12652587890625, -125.68869018554688, 218.29983520507812, -35.650596618652344, 0.04800000041723251, 0.01600000075995922, 1.055999994277954, 0.0, 0.0, 0.0, 0.0, 0.0, 1.6203961057862744E9, 2021-05-07 16:01:45.786
36.0, -201.35621643066406, -110.75526428222656, 228.9361114501953, -23.533321380615234, 0.04800000041723251, 0.01600000075995922, 1.055999994277954, 0.0, 0.0, 0.0, 0.0, 0.0, 1.6203961057862744E9, 2021-05-07 16:01:45.786
37.0, -186.7369384765625, -111.48828887939453, 226.60989379882812, -27.2956600189209, 0.04800000041723251, 0.01600000075995922, 1.055999994277954, 0.0, 0.0, 0.0, 0.0, 0.0, 1.620396105799745E9, 2021-05-07 16:01:45.799
37.0, -211.82418823242188, -125.90933990478516, 207.97023010253906, -40.68450164794922, 0.04800000041723251, 0.01600000075995922, 1.055999994277954, 0.0, 0.0, 0.0, 0.0, 0.0, 1.620396105799745E9, 2021-05-07 16:01:45.799
38.0, -202.31362915039062, -121.17089080810547, 222.22299194335938, -35.38880157470703, 0.04800000041723251, 0.01600000075995922, 1.055999994277954, 0.0, 0.0, 0.0, 0.0, 0.0, 1.6203961058155355E9, 2021-05-07 16:01:45.815
38.0, -193.86892700195312, -120.40046691894531, 227.3915252685547, -30.72140884399414, 0.04800000041723251, 0.01600000075995922, 1.055999994277954, 0.0, 0.0, 0.0, 0.0, 0.0, 1.6203961058155355E9, 2021-05-07 16:01:45.815
39.0, -178.95794677734375, -116.11080169677734, 232.96771240234375, -26.360685348510742, 0.04800000041723251, 0.01600000075995922, 1.055999994277954, 0.0, 0.0, 0.0, 0.0, 0.0, 1.6203961058162045E9, 2021-05-07 16:01:45.816
39.0, -183.19151306152344, -121.2008056640625, 227.7505645751953, -32.23606872558594, 0.04800000041723251, 0.01600000075995922, 1.055999994277954, 0.0, 0.0, 0.0, 0.0, 0.0, 1.6203961058162045E9, 2021-05-07 16:01:45.816
40.0, -182.9783477783203, -120.20973205566406, 241.1768035888672, -28.208194732666016, 0.04800000041723251, 0.01600000075995922, 1.055999994277954, 0.0, 0.0, 0.0, 0.0, 0.0, 1.6203961058297913E9, 2021-05-07 16:01:45.829
40.0, -185.28211975097656, -121.89269256591797, 238.8131866455078, -31.020599365234375, 0.04800000041723251, 0.01600000075995922, 1.055999994277954, 0.0, 0.0, 0.0, 0.0, 0.0, 1.6203961058297913E9, 2021-05-07 16:01:45.829
41.0, -179.67601013183594, -113.91921997070312, 239.3966064453125, -36.15174102783203, 0.04800000041723251, 0.01600000075995922, 1.055999994277954, 0.0, 0.0, 0.0, 0.0, 0.0, 1.6203961058454533E9, 2021-05-07 16:01:45.845
41.0, -190.9293670654297, -128.90499877929688, 229.67660522460938, -42.18046188354492, 0.04800000041723251, 0.01600000075995922, 1.055999994277954, 0.0, 0.0, 0.0, 0.0, 0.0, 1.6203961058454533E9, 2021-05-07 16:01:45.845
42.0, -186.613525390625, -127.61100006103516, 238.18861389160156, -43.64276123046875, 0.04800000041723251, 0.01600000075995922, 1.055999994277954, 0.0, 0.0, 0.0, 0.0, 0.0, 1.6203961058462913E9, 2021-05-07 16:01:45.846
42.0, -182.86988830566406, -124.69013214111328, 236.75250244140625, -48.40739440917969, 0.04800000041723251, 0.01600000075995922, 1.055999994277954, 0.0, 0.0, 0.0, 0.0, 0.0, 1.6203961058462913E9, 2021-05-07 16:01:45.846
43.0, -179.97520446777344, -122.11708068847656, 235.98582458496094, -42.008426666259766, 0.04800000041723251, 0.01600000075995922, 1.055999994277954, 0.0, 0.0, 0.0, 0.0, 0.0, 1.6203961058769147E9, 2021-05-07 16:01:45.876
43.0, -181.355224609375, -118.69507598876953, 239.19839477539062, -40.59474563598633, 0.04800000041723251, 0.01600000075995922, 1.055999994277954, 0.0, 0.0, 0.0, 0.0, 0.0, 1.6203961058769147E9, 2021-05-07 16:01:45.876
44.0, -194.38504028320312, -123.3437728881836, 232.94154357910156, -41.97850799560547, 0.04800000041723251, 0.01600000075995922, 1.055999994277954, 0.0, 0.0, 0.0, 0.0, 0.0, 1.6203961058775232E9, 2021-05-07 16:01:45.877
44.0, -189.14169311523438, -123.06327819824219, 235.98207092285156, -35.990928649902344, 0.04800000041723251, 0.01600000075995922, 1.055999994277954, 0.0, 0.0, 0.0, 0.0, 0.0, 1.6203961058775232E9, 2021-05-07 16:01:45.877
45.0, -190.7311553955078, -128.35897827148438, 225.37945556640625, -42.008426666259766, 0.04800000041723251, 0.01600000075995922, 1.055999994277954, 0.0, 0.0, 0.0, 0.0, 0.0, 1.6203961058782873E9, 2021-05-07 16:01:45.878
45.0, -193.6520233154297, -124.49939727783203, 224.63522338867188, -46.687042236328125, 0.04800000041723251, 0.01600000075995922, 1.055999994277954, 0.0, 0.0, 0.0, 0.0, 0.0, 1.6203961058782873E9, 2021-05-07 16:01:45.878
46.0, -197.78834533691406, -142.533203125, 222.70542907714844, -50.344661712646484, 0.04800000041723251, 0.01600000075995922, 1.055999994277954, 0.0, 0.0, 0.0, 0.0, 0.0, 1.6203961058897247E9, 2021-05-07 16:01:45.889
46.0, -194.81886291503906, -138.8867950439453, 220.2258758544922, -47.117130279541016, 0.04800000041723251, 0.01600000075995922, 1.055999994277954, 0.0, 0.0, 0.0, 0.0, 0.0, 1.6203961058897247E9, 2021-05-07 16:01:45.889
47.0, -191.12010192871094, -133.60980224609375, 218.90570068359375, -39.5849723815918, 0.04800000041723251, 0.01600000075995922, 1.055999994277954, 0.0, 0.0, 0.0, 0.0, 0.0, 1.6203961059055476E9, 2021-05-07 16:01:45.905
47.0, -184.46682739257812, -142.64540100097656, 210.53953552246094, -51.107601165771484, 0.04800000041723251, 0.01600000075995922, 1.055999994277954, 0.0, 0.0, 0.0, 0.0, 0.0, 1.6203961059055476E9, 2021-05-07 16:01:45.905
48.0, -177.1553192138672, -140.30421447753906, 219.5863494873047, -42.11688232421875, 0.04800000041723251, 0.01600000075995922, 1.055999994277954, 0.0, 0.0, 0.0, 0.0, 0.0, 1.6203961059062476E9, 2021-05-07 16:01:45.906
48.0, -193.562255859375, -130.62535095214844, 222.3912811279297, -37.92445373535156, 0.04800000041723251, 0.01600000075995922, 1.055999994277954, 0.0, 0.0, 0.0, 0.0, 0.0, 1.6203961059062476E9, 2021-05-07 16:01:45.906
49.0, -186.45645141601562, -141.54586791992188, 219.2235870361328, -37.60282516479492, 0.04800000041723251, 0.01600000075995922, 1.055999994277954, 0.0, 0.0, 0.0, 0.0, 0.0, 1.6203961059198167E9, 2021-05-07 16:01:45.919
49.0, -177.6190643310547, -139.27574157714844, 228.8426055908203, -30.437175750732422, 0.04800000041723251, 0.01600000075995922, 1.055999994277954, 0.0, 0.0, 0.0, 0.0, 0.0, 1.6203961059198167E9, 2021-05-07 16:01:45.919
50.0, -179.9639892578125, -143.43824768066406, 237.2723388671875, -32.681114196777344, 0.04800000041723251, 0.01600000075995922, 1.055999994277954, 0.0, 0.0, 0.0, 0.0, 0.0, 1.620396105935511E9, 2021-05-07 16:01:45.935
50.0, -178.2174530029297, -138.42678833007812, 237.38827514648438, -31.297351837158203, 0.04800000041723251, 0.01600000075995922, 1.055999994277954, 0.0, 0.0, 0.0, 0.0, 0.0, 1.620396105935511E9, 2021-05-07 16:01:45.935
51.0, -172.4580078125, -125.45307159423828, 243.23001098632812, -30.26140022277832, 0.04800000041723251, 0.01600000075995922, 1.055999994277954, 0.0, 0.0, 0.0, 0.0, 0.0, 1.620396105936271E9, 2021-05-07 16:01:45.936
51.0, -175.06471252441406, -127.51375579833984, 242.0706329345703, -38.06283187866211, 0.04800000041723251, 0.01600000075995922, 1.055999994277954, 0.0, 0.0, 0.0, 0.0, 0.0, 1.620396105936271E9, 2021-05-07 16:01:45.936
52.0, -182.27523803710938, -126.67227935791016, 235.09197998046875, -43.93821334838867, 0.04800000041723251, 0.01600000075995922, 1.055999994277954, 0.0, 0.0, 0.0, 0.0, 0.0, 1.6203961059499025E9, 2021-05-07 16:01:45.949
52.0, -180.44268798828125, -120.82682037353516, 247.97593688964844, -40.11603546142578, 0.04800000041723251, 0.01600000075995922, 1.055999994277954, 0.0, 0.0, 0.0, 0.0, 0.0, 1.6203961059499025E9, 2021-05-07 16:01:45.949
53.0, -177.6265411376953, -113.8481674194336, 244.19863891601562, -46.877777099609375, 0.04800000041723251, 0.01600000075995922, 1.055999994277954, 0.0, 0.0, 0.0, 0.0, 0.0, 1.6203961059654987E9, 2021-05-07 16:01:45.965
53.0, -181.9910125732422, -120.13867950439453, 231.46054077148438, -55.25141143798828, 0.04800000041723251, 0.01600000075995922, 1.055999994277954, 0.0, 0.0, 0.0, 0.0, 0.0, 1.6203961059654987E9, 2021-05-07 16:01:45.965
54.0, -173.84176635742188, -114.2109375, 241.5171356201172, -44.06163024902344, 0.04800000041723251, 0.01600000075995922, 1.055999994277954, 0.0, 0.0, 0.0, 0.0, 0.0, 1.620396105966221E9, 2021-05-07 16:01:45.966
54.0, -179.40673828125, -118.84467315673828, 244.75962829589844, -50.46434020996094, 0.04800000041723251, 0.01600000075995922, 1.055999994277954, 0.0, 0.0, 0.0, 0.0, 0.0, 1.620396105966221E9, 2021-05-07 16:01:45.966
55.0, -182.75021362304688, -119.13264465332031, 237.46307373046875, -51.7920036315918, 0.04800000041723251, 0.01600000075995922, 1.055999994277954, 0.0, 0.0, 0.0, 0.0, 0.0, 1.620396105979853E9, 2021-05-07 16:01:45.979
55.0, -189.4633331298828, -127.5025405883789, 225.4056396484375, -55.72637939453125, 0.04800000041723251, 0.01600000075995922, 1.055999994277954, 0.0, 0.0, 0.0, 0.0, 0.0, 1.620396105979853E9, 2021-05-07 16:01:45.979
56.0, -201.3300323486328, -128.38890075683594, 227.11851501464844, -53.082271575927734, 0.04800000041723251, 0.01600000075995922, 1.055999994277954, 0.0, 0.0, 0.0, 0.0, 0.0, 1.6203961059956439E9, 2021-05-07 16:01:45.995
56.0, -189.51568603515625, -133.2021484375, 221.5946807861328, -57.184940338134766, 0.04800000041723251, 0.01600000075995922, 1.055999994277954, 0.0, 0.0, 0.0, 0.0, 0.0, 1.6203961059956439E9, 2021-05-07 16:01:45.995
57.0, -195.8061981201172, -138.99525451660156, 216.28028869628906, -57.83194351196289, 0.04800000041723251, 0.01600000075995922, 1.055999994277954, 0.0, 0.0, 0.0, 0.0, 0.0, 1.620396105996293E9, 2021-05-07 16:01:45.996
57.0, -197.0515899658203, -141.9796905517578, 211.68394470214844, -56.11532974243164, 0.04800000041723251, 0.01600000075995922, 1.055999994277954, 0.0, 0.0, 0.0, 0.0, 0.0, 1.620396105996293E9, 2021-05-07 16:01:45.996
58.0, -192.8516845703125, -137.25245666503906, 221.44134521484375, -50.89442825317383, 0.04800000041723251, 0.01600000075995922, 1.055999994277954, 0.0, 0.0, 0.0, 0.0, 0.0, 1.6203961060099256E9, 2021-05-07 16:01:46.009
58.0, -179.08511352539062, -132.45042419433594, 230.13661193847656, -44.45058059692383, 0.04800000041723251, 0.01600000075995922, 1.055999994277954, 0.0, 0.0, 0.0, 0.0, 0.0, 1.6203961060099256E9, 2021-05-07 16:01:46.009
59.0, -174.8852081298828, -137.58157348632812, 221.77793884277344, -46.56736373901367, 0.04800000041723251, 0.01600000075995922, 1.055999994277954, 0.0, 0.0, 0.0, 0.0, 0.0, 1.6203961060255735E9, 2021-05-07 16:01:46.025
59.0, -184.59397888183594, -136.52317810058594, 227.04745483398438, -44.51041793823242, 0.04800000041723251, 0.01600000075995922, 1.055999994277954, 0.0, 0.0, 0.0, 0.0, 0.0, 1.6203961060255735E9, 2021-05-07 16:01:46.025
60.0, -188.24786376953125, -134.32785034179688, 235.81752014160156, -42.9770622253418, 0.04800000041723251, 0.01600000075995922, 1.055999994277954, 0.0, 0.0, 0.0, 0.0, 0.0, 1.6203961060263965E9, 2021-05-07 16:01:46.026
60.0, -178.53907775878906, -132.50653076171875, 242.489501953125, -36.14052200317383, 0.04800000041723251, 0.01600000075995922, 1.055999994277954, 0.0, 0.0, 0.0, 0.0, 0.0, 1.6203961060263965E9, 2021-05-07 16:01:46.026
61.0, -177.74996948242188, -127.91018676757812, 241.97340393066406, -35.43368148803711, 0.04800000041723251, 0.01600000075995922, 1.055999994277954, 0.0, 0.0, 0.0, 0.0, 0.0, 1.6203961060399032E9, 2021-05-07 16:01:46.039
61.0, -172.6337890625, -131.40699768066406, 240.48117065429688, -39.255859375, 0.04800000041723251, 0.01600000075995922, 1.055999994277954, 0.0, 0.0, 0.0, 0.0, 0.0, 1.6203961060399032E9, 2021-05-07 16:01:46.039
62.0, -187.4138641357422, -139.6011199951172, 242.2015380859375, -44.18878936767578, 0.04800000041723251, 0.01600000075995922, 1.055999994277954, 0.0, 0.0, 0.0, 0.0, 0.0, 1.6203961060718238E9, 2021-05-07 16:01:46.071
62.0, -186.44149780273438, -131.7211456298828, 239.20960998535156, -37.232574462890625, 0.04800000041723251, 0.01600000075995922, 1.055999994277954, 0.0, 0.0, 0.0, 0.0, 0.0, 1.6203961060718238E9, 2021-05-07 16:01:46.071
63.0, -184.77723693847656, -125.31843566894531, 229.6878204345703, -42.962100982666016, 0.04800000041723251, 0.01600000075995922, 1.055999994277954, 0.0, 0.0, 0.0, 0.0, 0.0, 1.6203961060726528E9, 2021-05-07 16:01:46.072
63.0, -190.15521240234375, -122.07594299316406, 221.3478546142578, -56.14898681640625, 0.04800000041723251, 0.01600000075995922, 1.055999994277954, 0.0, 0.0, 0.0, 0.0, 0.0, 1.6203961060726528E9, 2021-05-07 16:01:46.072
64.0, -186.3704376220703, -123.02587890625, 235.56695556640625, -47.880069732666016, 0.04800000041723251, 0.01600000075995922, 1.055999994277954, 0.0, 0.0, 0.0, 0.0, 0.0, 1.620396106073352E9, 2021-05-07 16:01:46.073
64.0, -184.8408203125, -119.6562271118164, 238.0839080810547, -44.08407211303711, 0.04800000041723251, 0.01600000075995922, 1.055999994277954, 0.0, 0.0, 0.0, 0.0, 0.0, 1.620396106073352E9, 2021-05-07 16:01:46.073
65.0, -181.87881469726562, -120.44908905029297, 228.98098754882812, -53.48244094848633, 0.04800000041723251, 0.01600000075995922, 1.055999994277954, 0.0, 0.0, 0.0, 0.0, 0.0, 1.620396106074082E9, 2021-05-07 16:01:46.074
65.0, -205.37660217285156, -122.63318634033203, 228.80520629882812, -55.748817443847656, 0.04800000041723251, 0.01600000075995922, 1.055999994277954, 0.0, 0.0, 0.0, 0.0, 0.0, 1.620396106074082E9, 2021-05-07 16:01:46.074
66.0, -193.221923828125, -123.33628845214844, 229.4821319580078, -56.3397216796875, 0.04800000041723251, 0.01600000075995922, 1.055999994277954, 0.0, 0.0, 0.0, 0.0, 0.0, 1.620396106084782E9, 2021-05-07 16:01:46.084
66.0, -189.30252075195312, -123.75515747070312, 231.32589721679688, -50.56905746459961, 0.04800000041723251, 0.01600000075995922, 1.055999994277954, 0.0, 0.0, 0.0, 0.0, 0.0, 1.620396106084782E9, 2021-05-07 16:01:46.084
67.0, -187.52606201171875, -120.50518798828125, 222.54835510253906, -55.883453369140625, 0.04800000041723251, 0.01600000075995922, 1.055999994277954, 0.0, 0.0, 0.0, 0.0, 0.0, 1.6203961060997858E9, 2021-05-07 16:01:46.099
67.0, -197.7546844482422, -130.07933044433594, 213.2846221923828, -59.657012939453125, 0.04800000041723251, 0.01600000075995922, 1.055999994277954, 0.0, 0.0, 0.0, 0.0, 0.0, 1.6203961060997858E9, 2021-05-07 16:01:46.099
68.0, -191.67361450195312, -134.53729248046875, 221.47874450683594, -59.01375198364258, 0.04800000041723251, 0.01600000075995922, 1.055999994277954, 0.0, 0.0, 0.0, 0.0, 0.0, 1.6203961061155791E9, 2021-05-07 16:01:46.115
68.0, -184.8707275390625, -122.82018280029297, 233.1173095703125, -45.65482711791992, 0.04800000041723251, 0.01600000075995922, 1.055999994277954, 0.0, 0.0, 0.0, 0.0, 0.0, 1.6203961061155791E9, 2021-05-07 16:01:46.115
69.0, -182.56695556640625, -131.7622833251953, 226.79689025878906, -43.826019287109375, 0.04800000041723251, 0.01600000075995922, 1.055999994277954, 0.0, 0.0, 0.0, 0.0, 0.0, 1.6203961061162503E9, 2021-05-07 16:01:46.116
69.0, -189.60919189453125, -136.25390625, 225.03538513183594, -50.14270782470703, 0.04800000041723251, 0.01600000075995922, 1.055999994277954, 0.0, 0.0, 0.0, 0.0, 0.0, 1.6203961061162503E9, 2021-05-07 16:01:46.116
70.0, -187.88134765625, -127.5810775756836, 236.32240295410156, -36.69776916503906, 0.04800000041723251, 0.01600000075995922, 1.055999994277954, 0.0, 0.0, 0.0, 0.0, 0.0, 1.6203961061298516E9, 2021-05-07 16:01:46.129
70.0, -187.9337158203125, -137.12530517578125, 232.16363525390625, -38.18251037597656, 0.04800000041723251, 0.01600000075995922, 1.055999994277954, 0.0, 0.0, 0.0, 0.0, 0.0, 1.6203961061298516E9, 2021-05-07 16:01:46.129
71.0, -182.8848419189453, -143.2063751220703, 227.9562530517578, -42.707786560058594, 0.04800000041723251, 0.0, 1.055999994277954, 0.0, 0.0, 0.0, 0.0, 0.0, 1.6203961061454692E9, 2021-05-07 16:01:46.145
71.0, -171.25375366210938, -136.98692321777344, 229.1006622314453, -39.54383087158203, 0.04800000041723251, 0.0, 1.055999994277954, 0.0, 0.0, 0.0, 0.0, 0.0, 1.6203961061454692E9, 2021-05-07 16:01:46.145
72.0, -190.2262725830078, -140.573486328125, 234.36643981933594, -42.71152877807617, 0.04800000041723251, 0.0, 1.055999994277954, 0.0, 0.0, 0.0, 0.0, 0.0, 1.6203961061462376E9, 2021-05-07 16:01:46.146
72.0, -185.2073211669922, -132.57383728027344, 235.67166137695312, -42.50209426879883, 0.04800000041723251, 0.0, 1.055999994277954, 0.0, 0.0, 0.0, 0.0, 0.0, 1.6203961061462376E9, 2021-05-07 16:01:46.146
73.0, -173.85299682617188, -128.1869354248047, 233.2968292236328, -43.61284255981445, 0.04800000041723251, 0.0, 1.055999994277954, 0.0, 0.0, 0.0, 0.0, 0.0, 1.620396106159928E9, 2021-05-07 16:01:46.159
73.0, -184.26487731933594, -137.1028594970703, 227.21575927734375, -56.3397216796875, 0.04800000041723251, 0.0, 1.055999994277954, 0.0, 0.0, 0.0, 0.0, 0.0, 1.620396106159928E9, 2021-05-07 16:01:46.159
74.0, -191.2472686767578, -138.6661376953125, 223.10934448242188, -57.33827590942383, 0.04800000041723251, 0.0, 1.055999994277954, 0.0, 0.0, 0.0, 0.0, 0.0, 1.620396106175521E9, 2021-05-07 16:01:46.175
74.0, -193.8577117919922, -139.5188446044922, 223.00462341308594, -58.76691818237305, 0.04800000041723251, 0.0, 1.055999994277954, 0.0, 0.0, 0.0, 0.0, 0.0, 1.620396106175521E9, 2021-05-07 16:01:46.175
