Sample Index, EXG Channel 0, EXG Channel 1, EXG Channel 2, EXG Channel 3, Accel Channel 0, Accel Channel 1, Accel Channel 2, Other, Other, Other, Other, Other, Timestamp, Timestamp (Formatted)
0.0, -176.43539428710938, -149.37159729003906, 239.1815643310547, -33.402915954589844, 0.0, 0.0, 0.0, 0.0, 0.0, 0.0, 0.0, 0.0, 1.6203974156293962E9, 2021-05-07 16:23:35.629
1.0, -186.9632110595703, -155.44146728515625, 231.4736328125, -50.19880676269531, 0.0, 0.06400000303983688, 0.0, 0.0, 0.0, 0.0, 0.0, 0.0, 1.620397415642712E9, 2021-05-07 16:23:35.642
1.0, -175.91928100585938, -154.66729736328125, 244.26034545898438, -47.32282257080078, 0.0, 0.06400000303983688, 0.0, 0.0, 0.0, 0.0, 0.0, 0.0, 1.620397415642712E9, 2021-05-07 16:23:35.642
2.0, -176.9851531982422, -142.9501953125, 243.6282958984375, -52.46892547607422, 0.01600000075995922, 0.06400000303983688, 0.0, 0.0, 0.0, 0.0, 0.0, 0.0, 1.62039741565932E9, 2021-05-07 16:23:35.659
2.0, -174.84967041015625, -145.8000030517578, 240.6326446533203, -49.308712005615234, 0.01600000075995922, 0.06400000303983688, 0.0, 0.0, 0.0, 0.0, 0.0, 0.0, 1.62039741565932E9, 2021-05-07 16:23:35.659
3.0, -178.41754150390625, -136.2931671142578, 243.39268493652344, -57.60380935668945, 0.01600000075995922, 0.06400000303983688, 0.0, 0.0, 0.0, 0.0, 0.0, 0.0, 1.620397415660039E9, 2021-05-07 16:23:35.660
3.0, -170.85171508789062, -141.05780029296875, 251.8186798095703, -52.36420822143555, 0.01600000075995922, 0.06400000303983688, 0.0, 0.0, 0.0, 0.0, 0.0, 0.0, 1.620397415660039E9, 2021-05-07 16:23:35.660
4.0, -188.97528076171875, -148.58248901367188, 245.3299560546875, -58.568702697753906, 0.01600000075995922, 0.06400000303983688, 0.0, 0.0, 0.0, 0.0, 0.0, 0.0, 1.62039741568856E9, 2021-05-07 16:23:35.688
4.0, -179.1094207763672, -140.85958862304688, 235.20230102539062, -49.398468017578125, 0.01600000075995922, 0.06400000303983688, 0.0, 0.0, 0.0, 0.0, 0.0, 0.0, 1.62039741568856E9, 2021-05-07 16:23:35.688
5.0, -171.00131225585938, -132.88238525390625, 241.3095703125, -42.2552604675293, 0.01600000075995922, 0.06400000303983688, 0.0, 0.0, 0.0, 0.0, 0.0, 0.0, 1.620397415689231E9, 2021-05-07 16:23:35.689
5.0, -183.19338989257812, -145.66909790039062, 244.39498901367188, -40.665802001953125, 0.01600000075995922, 0.06400000303983688, 0.0, 0.0, 0.0, 0.0, 0.0, 0.0, 1.620397415689231E9, 2021-05-07 16:23:35.689
6.0, -179.25527954101562, -140.02932739257812, 242.917724609375, -38.06283187866211, 0.01600000075995922, 0.06400000303983688, 0.0, 0.0, 0.0, 0.0, 0.0, 0.0, 1.6203974157031333E9, 2021-05-07 16:23:35.703
6.0, -186.1815643310547, -156.67562866210938, 230.31051635742188, -45.13872146606445, 0.01600000075995922, 0.06400000303983688, 0.0, 0.0, 0.0, 0.0, 0.0, 0.0, 1.6203974157031333E9, 2021-05-07 16:23:35.703
7.0, -182.78199768066406, -153.5041961669922, 229.37928771972656, -43.98309326171875, 0.01600000075995922, 0.06400000303983688, 0.0, 0.0, 0.0, 0.0, 0.0, 0.0, 1.6203974157037923E9, 2021-05-07 16:23:35.703
7.0, -178.63070678710938, -146.36473083496094, 239.60791015625, -30.87848472595215, 0.01600000075995922, 0.06400000303983688, 0.0, 0.0, 0.0, 0.0, 0.0, 0.0, 1.6203974157037923E9, 2021-05-07 16:23:35.703
8.0, -188.99771118164062, -156.1744842529297, 230.1160430908203, -40.482547760009766, 0.01600000075995922, 0.06400000303983688, 0.0, 0.0, 0.0, 0.0, 0.0, 0.0, 1.62039741571861E9, 2021-05-07 16:23:35.718
8.0, -192.49078369140625, -151.65667724609375, 220.69149780273438, -47.865108489990234, 0.01600000075995922, 0.06400000303983688, 0.0, 0.0, 0.0, 0.0, 0.0, 0.0, 1.62039741571861E9, 2021-05-07 16:23:35.718
9.0, -185.0072479248047, -148.86671447753906, 228.95294189453125, -41.335243225097656, 0.01600000075995922, 0.06400000303983688, 0.0, 0.0, 0.0, 0.0, 0.0, 0.0, 1.6203974157331252E9, 2021-05-07 16:23:35.733
9.0, -176.49896240234375, -152.07180786132812, 234.86572265625, -48.388694763183594, 0.01600000075995922, 0.06400000303983688, 0.0, 0.0, 0.0, 0.0, 0.0, 0.0, 1.6203974157331252E9, 2021-05-07 16:23:35.733
10.0, -174.43080139160156, -152.01197814941406, 245.17288208007812, -43.063079833984375, 0.01600000075995922, 0.06400000303983688, 1.055999994277954, 0.0, 0.0, 0.0, 0.0, 0.0, 1.6203974157337904E9, 2021-05-07 16:23:35.733
10.0, -186.67523193359375, -158.6465606689453, 230.09735107421875, -53.87138748168945, 0.01600000075995922, 0.06400000303983688, 1.055999994277954, 0.0, 0.0, 0.0, 0.0, 0.0, 1.6203974157337904E9, 2021-05-07 16:23:35.733
11.0, -179.84991455078125, -152.6178436279297, 243.3029327392578, -53.87138748168945, 0.01600000075995922, 0.06400000303983688, 1.055999994277954, 0.0, 0.0, 0.0, 0.0, 0.0, 1.620397415748224E9, 2021-05-07 16:23:35.748
11.0, -182.34817504882812, -154.40176391601562, 239.72010803222656, -58.35178756713867, 0.01600000075995922, 0.06400000303983688, 1.055999994277954, 0.0, 0.0, 0.0, 0.0, 0.0, 1.620397415748224E9, 2021-05-07 16:23:35.748
12.0, -168.3759002685547, -133.86224365234375, 255.83534240722656, -46.67582321166992, 0.01600000075995922, 0.06400000303983688, 1.055999994277954, 0.0, 0.0, 0.0, 0.0, 0.0, 1.6203974157489429E9, 2021-05-07 16:23:35.748
12.0, -178.8925018310547, -131.001220703125, 242.33055114746094, -58.280731201171875, 0.01600000075995922, 0.06400000303983688, 1.055999994277954, 0.0, 0.0, 0.0, 0.0, 0.0, 1.6203974157489429E9, 2021-05-07 16:23:35.748
13.0, -167.60174560546875, -132.2727813720703, 246.34347534179688, -57.25973892211914, 0.01600000075995922, 0.06400000303983688, 1.055999994277954, 0.0, 0.0, 0.0, 0.0, 0.0, 1.6203974157788868E9, 2021-05-07 16:23:35.778
13.0, -182.10507202148438, -139.04574584960938, 249.1072540283203, -62.873329162597656, 0.01600000075995922, 0.06400000303983688, 1.055999994277954, 0.0, 0.0, 0.0, 0.0, 0.0, 1.6203974157788868E9, 2021-05-07 16:23:35.778
14.0, -175.4181365966797, -141.73846435546875, 252.3609619140625, -53.35154342651367, 0.01600000075995922, 0.06400000303983688, 1.055999994277954, 0.0, 0.0, 0.0, 0.0, 0.0, 1.6203974157797413E9, 2021-05-07 16:23:35.779
14.0, -176.3082275390625, -139.50949096679688, 242.97381591796875, -47.71551513671875, 0.01600000075995922, 0.06400000303983688, 1.055999994277954, 0.0, 0.0, 0.0, 0.0, 0.0, 1.6203974157797413E9, 2021-05-07 16:23:35.779
15.0, -173.5145263671875, -145.39234924316406, 244.51092529296875, -46.24199295043945, 0.01600000075995922, 0.06400000303983688, 1.055999994277954, 0.0, 0.0, 0.0, 0.0, 0.0, 1.6203974157802784E9, 2021-05-07 16:23:35.780
15.0, -181.9517364501953, -150.86756896972656, 245.4159698486328, -43.94943618774414, 0.01600000075995922, 0.06400000303983688, 1.055999994277954, 0.0, 0.0, 0.0, 0.0, 0.0, 1.6203974157802784E9, 2021-05-07 16:23:35.780
16.0, -193.79974365234375, -160.86805725097656, 229.1287078857422, -52.1734733581543, 0.01600000075995922, 0.06400000303983688, 1.055999994277954, 0.0, 0.0, 0.0, 0.0, 0.0, 1.620397415792566E9, 2021-05-07 16:23:35.792
16.0, -195.0077362060547, -163.33265686035156, 221.3385009765625, -45.527671813964844, 0.01600000075995922, 0.06400000303983688, 1.055999994277954, 0.0, 0.0, 0.0, 0.0, 0.0, 1.620397415792566E9, 2021-05-07 16:23:35.792
17.0, -173.72396850585938, -150.19064331054688, 229.3456268310547, -35.0185546875, 0.01600000075995922, 0.06400000303983688, 1.055999994277954, 0.0, 0.0, 0.0, 0.0, 0.0, 1.6203974158082254E9, 2021-05-07 16:23:35.808
17.0, -183.4065704345703, -162.4462890625, 230.6134490966797, -39.25960159301758, 0.01600000075995922, 0.06400000303983688, 1.055999994277954, 0.0, 0.0, 0.0, 0.0, 0.0, 1.6203974158082254E9, 2021-05-07 16:23:35.808
18.0, -185.010986328125, -163.48599243164062, 237.483642578125, -44.40944290161133, 0.01600000075995922, 0.06400000303983688, 1.055999994277954, 0.0, 0.0, 0.0, 0.0, 0.0, 1.6203974158089163E9, 2021-05-07 16:23:35.808
18.0, -179.10194396972656, -156.52976989746094, 236.1298065185547, -42.2776985168457, 0.01600000075995922, 0.06400000303983688, 1.055999994277954, 0.0, 0.0, 0.0, 0.0, 0.0, 1.6203974158089163E9, 2021-05-07 16:23:35.808
19.0, -166.76400756835938, -153.82208251953125, 244.7278289794922, -38.49665832519531, 0.01600000075995922, 0.06400000303983688, 1.055999994277954, 0.0, 0.0, 0.0, 0.0, 0.0, 1.6203974158225105E9, 2021-05-07 16:23:35.822
19.0, -184.85015869140625, -162.91378784179688, 238.11195373535156, -55.25889205932617, 0.01600000075995922, 0.06400000303983688, 1.055999994277954, 0.0, 0.0, 0.0, 0.0, 0.0, 1.6203974158225105E9, 2021-05-07 16:23:35.822
20.0, -173.8922576904297, -154.1773681640625, 251.9121856689453, -44.74977111816406, 0.01600000075995922, 0.06400000303983688, 1.055999994277954, 0.0, 0.0, 0.0, 0.0, 0.0, 1.6203974158380587E9, 2021-05-07 16:23:35.838
20.0, -176.20726013183594, -155.58731079101562, 240.09783935546875, -54.267818450927734, 0.01600000075995922, 0.06400000303983688, 1.055999994277954, 0.0, 0.0, 0.0, 0.0, 0.0, 1.6203974158380587E9, 2021-05-07 16:23:35.838
21.0, -166.00106811523438, -150.84512329101562, 250.31524658203125, -42.2552604675293, 0.01600000075995922, 0.06400000303983688, 1.055999994277954, 0.0, 0.0, 0.0, 0.0, 0.0, 1.6203974158387752E9, 2021-05-07 16:23:35.838
21.0, -183.8703155517578, -167.23336791992188, 236.90396118164062, -63.04536437988281, 0.01600000075995922, 0.06400000303983688, 1.055999994277954, 0.0, 0.0, 0.0, 0.0, 0.0, 1.6203974158387752E9, 2021-05-07 16:23:35.838
22.0, -184.7080535888672, -156.2642364501953, 237.4013671875, -56.93436813354492, 0.01600000075995922, 0.06400000303983688, 1.055999994277954, 0.0, 0.0, 0.0, 0.0, 0.0, 1.6203974158525105E9, 2021-05-07 16:23:35.852
22.0, -182.56507873535156, -149.6072235107422, 237.12088012695312, -54.81758499145508, 0.01600000075995922, 0.06400000303983688, 1.055999994277954, 0.0, 0.0, 0.0, 0.0, 0.0, 1.6203974158525105E9, 2021-05-07 16:23:35.852
23.0, -180.1341552734375, -149.80543518066406, 235.8306121826172, -60.97345733642578, 0.01600000075995922, 0.06400000303983688, 1.055999994277954, 0.0, 0.0, 0.0, 0.0, 0.0, 1.6203974158677597E9, 2021-05-07 16:23:35.867
23.0, -174.31112670898438, -143.03994750976562, 252.18893432617188, -50.58027648925781, 0.01600000075995922, 0.06400000303983688, 1.055999994277954, 0.0, 0.0, 0.0, 0.0, 0.0, 1.6203974158677597E9, 2021-05-07 16:23:35.867
24.0, -165.26431274414062, -147.07530212402344, 258.5804138183594, -56.620216369628906, 0.01600000075995922, 0.06400000303983688, 1.055999994277954, 0.0, 0.0, 0.0, 0.0, 0.0, 1.620397415883248E9, 2021-05-07 16:23:35.883
24.0, -171.04244995117188, -146.4619598388672, 253.82701110839844, -60.01978302001953, 0.01600000075995922, 0.06400000303983688, 1.055999994277954, 0.0, 0.0, 0.0, 0.0, 0.0, 1.620397415883248E9, 2021-05-07 16:23:35.883
25.0, -168.3123321533203, -152.9132843017578, 246.2686767578125, -62.682594299316406, 0.01600000075995922, 0.06400000303983688, 1.055999994277954, 0.0, 0.0, 0.0, 0.0, 0.0, 1.6203974158839202E9, 2021-05-07 16:23:35.883
25.0, -166.24041748046875, -153.82955932617188, 258.47943115234375, -56.620216369628906, 0.01600000075995922, 0.06400000303983688, 1.055999994277954, 0.0, 0.0, 0.0, 0.0, 0.0, 1.6203974158839202E9, 2021-05-07 16:23:35.883
26.0, -167.78126525878906, -162.0610809326172, 241.2534637451172, -61.433467864990234, 0.01600000075995922, 0.06400000303983688, 1.055999994277954, 0.0, 0.0, 0.0, 0.0, 0.0, 1.6203974158981216E9, 2021-05-07 16:23:35.898
26.0, -173.12557983398438, -161.78433227539062, 235.44166564941406, -63.07528305053711, 0.01600000075995922, 0.06400000303983688, 1.055999994277954, 0.0, 0.0, 0.0, 0.0, 0.0, 1.6203974158981216E9, 2021-05-07 16:23:35.898
27.0, -167.81866455078125, -162.3602752685547, 233.3697509765625, -57.49909210205078, 0.01600000075995922, 0.06400000303983688, 1.055999994277954, 0.0, 0.0, 0.0, 0.0, 0.0, 1.6203974158988664E9, 2021-05-07 16:23:35.898
27.0, -189.753173828125, -177.99679565429688, 224.1696014404297, -61.73265838623047, 0.01600000075995922, 0.06400000303983688, 1.055999994277954, 0.0, 0.0, 0.0, 0.0, 0.0, 1.6203974158988664E9, 2021-05-07 16:23:35.898
28.0, -180.5193634033203, -161.66091918945312, 231.58209228515625, -40.093597412109375, 0.01600000075995922, 0.06400000303983688, 1.055999994277954, 0.0, 0.0, 0.0, 0.0, 0.0, 1.620397415912552E9, 2021-05-07 16:23:35.912
28.0, -179.52455139160156, -158.5119171142578, 222.7671356201172, -46.27939224243164, 0.01600000075995922, 0.06400000303983688, 1.055999994277954, 0.0, 0.0, 0.0, 0.0, 0.0, 1.620397415912552E9, 2021-05-07 16:23:35.912
29.0, -187.86451721191406, -159.17013549804688, 227.21014404296875, -45.08262252807617, 0.01600000075995922, 0.06400000303983688, 1.055999994277954, 0.0, 0.0, 0.0, 0.0, 0.0, 1.6203974159282813E9, 2021-05-07 16:23:35.928
29.0, -186.10302734375, -159.63014221191406, 230.10482788085938, -44.78717041015625, 0.01600000075995922, 0.06400000303983688, 1.055999994277954, 0.0, 0.0, 0.0, 0.0, 0.0, 1.6203974159282813E9, 2021-05-07 16:23:35.928
30.0, -180.16781616210938, -162.56971740722656, 237.0760040283203, -48.27275848388672, 0.01600000075995922, 0.06400000303983688, 1.055999994277954, 0.0, 0.0, 0.0, 0.0, 0.0, 1.6203974159290257E9, 2021-05-07 16:23:35.929
30.0, -167.31378173828125, -146.1365966796875, 243.34033203125, -41.11458969116211, 0.01600000075995922, 0.06400000303983688, 1.055999994277954, 0.0, 0.0, 0.0, 0.0, 0.0, 1.6203974159290257E9, 2021-05-07 16:23:35.929
31.0, -169.8718719482422, -158.95323181152344, 239.53684997558594, -56.00687026977539, 0.01600000075995922, 0.06400000303983688, 1.055999994277954, 0.0, 0.0, 0.0, 0.0, 0.0, 1.6203974159425073E9, 2021-05-07 16:23:35.942
31.0, -179.4160919189453, -156.70181274414062, 246.20509338378906, -56.130287170410156, 0.01600000075995922, 0.06400000303983688, 1.055999994277954, 0.0, 0.0, 0.0, 0.0, 0.0, 1.6203974159425073E9, 2021-05-07 16:23:35.942
32.0, -174.1989288330078, -151.57440185546875, 251.8710479736328, -57.35323715209961, 0.01600000075995922, 0.06400000303983688, 1.055999994277954, 0.0, 0.0, 0.0, 0.0, 0.0, 1.62039741595811E9, 2021-05-07 16:23:35.958
32.0, -173.76510620117188, -157.00474548339844, 242.05380249023438, -58.123653411865234, 0.01600000075995922, 0.06400000303983688, 1.055999994277954, 0.0, 0.0, 0.0, 0.0, 0.0, 1.62039741595811E9, 2021-05-07 16:23:35.958
33.0, -167.76255798339844, -153.69493103027344, 247.12510681152344, -58.82301712036133, 0.01600000075995922, 0.06400000303983688, 1.055999994277954, 0.0, 0.0, 0.0, 0.0, 0.0, 1.6203974159588425E9, 2021-05-07 16:23:35.958
33.0, -175.04788208007812, -152.31491088867188, 251.27639770507812, -54.56700897216797, 0.01600000075995922, 0.06400000303983688, 1.055999994277954, 0.0, 0.0, 0.0, 0.0, 0.0, 1.6203974159588425E9, 2021-05-07 16:23:35.958
34.0, -174.39340209960938, -153.93801879882812, 249.17457580566406, -54.33887481689453, 0.01600000075995922, 0.06400000303983688, 1.055999994277954, 0.0, 0.0, 0.0, 0.0, 0.0, 1.620397415972381E9, 2021-05-07 16:23:35.972
34.0, -181.525390625, -160.5539093017578, 238.82252502441406, -57.17372131347656, 0.01600000075995922, 0.06400000303983688, 1.055999994277954, 0.0, 0.0, 0.0, 0.0, 0.0, 1.620397415972381E9, 2021-05-07 16:23:35.972
35.0, -170.44781494140625, -154.83560180664062, 242.4390106201172, -52.14729690551758, 0.01600000075995922, 0.06400000303983688, 1.055999994277954, 0.0, 0.0, 0.0, 0.0, 0.0, 1.6203974159881063E9, 2021-05-07 16:23:35.988
35.0, -184.6669158935547, -158.53436279296875, 247.98902893066406, -44.04667282104492, 0.01600000075995922, 0.06400000303983688, 1.055999994277954, 0.0, 0.0, 0.0, 0.0, 0.0, 1.6203974159881063E9, 2021-05-07 16:23:35.988
36.0, -164.58738708496094, -152.7898712158203, 254.1074981689453, -42.1954231262207, 0.01600000075995922, 0.06400000303983688, 1.055999994277954, 0.0, 0.0, 0.0, 0.0, 0.0, 1.6203974159888003E9, 2021-05-07 16:23:35.988
36.0, -173.54071044921875, -161.26821899414062, 230.30677795410156, -47.9773063659668, 0.01600000075995922, 0.06400000303983688, 1.055999994277954, 0.0, 0.0, 0.0, 0.0, 0.0, 1.6203974159888003E9, 2021-05-07 16:23:35.988
37.0, -172.4561309814453, -165.8421173095703, 231.0846710205078, -50.87199020385742, 0.01600000075995922, 0.06400000303983688, 1.055999994277954, 0.0, 0.0, 0.0, 0.0, 0.0, 1.6203974160023675E9, 2021-05-07 16:23:36.002
37.0, -182.65110778808594, -166.8631134033203, 240.370849609375, -50.32970428466797, 0.01600000075995922, 0.06400000303983688, 1.055999994277954, 0.0, 0.0, 0.0, 0.0, 0.0, 1.6203974160023675E9, 2021-05-07 16:23:36.002
38.0, -184.6257781982422, -165.1726837158203, 236.99371337890625, -53.934967041015625, 0.01600000075995922, 0.06400000303983688, 1.055999994277954, 0.0, 0.0, 0.0, 0.0, 0.0, 1.6203974160181465E9, 2021-05-07 16:23:36.018
38.0, -174.59161376953125, -160.64739990234375, 234.70115661621094, -57.30087661743164, 0.01600000075995922, 0.06400000303983688, 1.055999994277954, 0.0, 0.0, 0.0, 0.0, 0.0, 1.6203974160181465E9, 2021-05-07 16:23:36.018
39.0, -173.2527313232422, -160.168701171875, 234.5515594482422, -60.76402282714844, 0.01600000075995922, 0.06400000303983688, 1.055999994277954, 0.0, 0.0, 0.0, 0.0, 0.0, 1.6203974160188048E9, 2021-05-07 16:23:36.018
39.0, -184.2891845703125, -171.03311157226562, 237.8202362060547, -58.8978157043457, 0.01600000075995922, 0.06400000303983688, 1.055999994277954, 0.0, 0.0, 0.0, 0.0, 0.0, 1.6203974160188048E9, 2021-05-07 16:23:36.018
40.0, -175.53033447265625, -161.88531494140625, 238.10447692871094, -57.039085388183594, 0.01600000075995922, 0.06400000303983688, 1.055999994277954, 0.0, 0.0, 0.0, 0.0, 0.0, 1.6203974160324504E9, 2021-05-07 16:23:36.032
40.0, -175.36578369140625, -157.47596740722656, 234.71986389160156, -50.70369338989258, 0.01600000075995922, 0.06400000303983688, 1.055999994277954, 0.0, 0.0, 0.0, 0.0, 0.0, 1.6203974160324504E9, 2021-05-07 16:23:36.032
41.0, -166.49099731445312, -156.03610229492188, 238.33261108398438, -48.99829864501953, 0.01600000075995922, 0.06400000303983688, 1.055999994277954, 0.0, 0.0, 0.0, 0.0, 0.0, 1.6203974160481205E9, 2021-05-07 16:23:36.048
41.0, -187.38955688476562, -158.69891357421875, 240.05670166015625, -63.8157844543457, 0.01600000075995922, 0.06400000303983688, 1.055999994277954, 0.0, 0.0, 0.0, 0.0, 0.0, 1.6203974160481205E9, 2021-05-07 16:23:36.048
42.0, -188.62745666503906, -158.9345245361328, 244.50343322753906, -64.06261444091797, 0.01600000075995922, 0.06400000303983688, 1.055999994277954, 0.0, 0.0, 0.0, 0.0, 0.0, 1.6203974160489645E9, 2021-05-07 16:23:36.048
42.0, -175.5490264892578, -153.73606872558594, 238.8412322998047, -58.894073486328125, 0.01600000075995922, 0.06400000303983688, 1.055999994277954, 0.0, 0.0, 0.0, 0.0, 0.0, 1.6203974160489645E9, 2021-05-07 16:23:36.048
43.0, -178.8999786376953, -148.14117431640625, 239.7275848388672, -66.19062042236328, 0.01600000075995922, 0.06400000303983688, 1.055999994277954, 0.0, 0.0, 0.0, 0.0, 0.0, 1.6203974160624914E9, 2021-05-07 16:23:36.062
43.0, -177.4488983154297, -146.22634887695312, 262.45123291015625, -58.40788650512695, 0.01600000075995922, 0.06400000303983688, 1.055999994277954, 0.0, 0.0, 0.0, 0.0, 0.0, 1.6203974160624914E9, 2021-05-07 16:23:36.062
44.0, -176.11001586914062, -148.17483520507812, 251.36614990234375, -55.610443115234375, 0.01600000075995922, 0.06400000303983688, 1.055999994277954, 0.0, 0.0, 0.0, 0.0, 0.0, 1.6203974160780854E9, 2021-05-07 16:23:36.078
44.0, -178.19314575195312, -148.66102600097656, 243.03366088867188, -51.694766998291016, 0.01600000075995922, 0.06400000303983688, 1.055999994277954, 0.0, 0.0, 0.0, 0.0, 0.0, 1.6203974160780854E9, 2021-05-07 16:23:36.078
45.0, -171.03497314453125, -149.1733856201172, 240.68499755859375, -46.780540466308594, 0.01600000075995922, 0.06400000303983688, 1.055999994277954, 0.0, 0.0, 0.0, 0.0, 0.0, 1.6203974160789113E9, 2021-05-07 16:23:36.078
45.0, -193.63519287109375, -166.63497924804688, 226.8174591064453, -61.29508972167969, 0.01600000075995922, 0.06400000303983688, 1.055999994277954, 0.0, 0.0, 0.0, 0.0, 0.0, 1.6203974160789113E9, 2021-05-07 16:23:36.078
46.0, -187.1801300048828, -164.14047241210938, 230.05621337890625, -52.18095397949219, 0.01600000075995922, 0.06400000303983688, 1.055999994277954, 0.0, 0.0, 0.0, 0.0, 0.0, 1.620397416092492E9, 2021-05-07 16:23:36.092
46.0, -177.35914611816406, -157.4049072265625, 227.97308349609375, -46.817935943603516, 0.01600000075995922, 0.06400000303983688, 1.055999994277954, 0.0, 0.0, 0.0, 0.0, 0.0, 1.620397416092492E9, 2021-05-07 16:23:36.092
47.0, -185.99082946777344, -158.90086364746094, 229.95896911621094, -48.212921142578125, 0.01600000075995922, 0.06400000303983688, 1.055999994277954, 0.0, 0.0, 0.0, 0.0, 0.0, 1.6203974161081898E9, 2021-05-07 16:23:36.108
47.0, -192.4683380126953, -164.05445861816406, 240.2100372314453, -43.03315734863281, 0.01600000075995922, 0.06400000303983688, 1.055999994277954, 0.0, 0.0, 0.0, 0.0, 0.0, 1.6203974161081898E9, 2021-05-07 16:23:36.108
48.0, -190.71058654785156, -164.98568725585938, 240.65133666992188, -37.44948959350586, 0.01600000075995922, 0.06400000303983688, 1.055999994277954, 0.0, 0.0, 0.0, 0.0, 0.0, 1.620397416108843E9, 2021-05-07 16:23:36.108
48.0, -184.12461853027344, -153.95298767089844, 237.5397491455078, -36.24898147583008, 0.01600000075995922, 0.06400000303983688, 1.055999994277954, 0.0, 0.0, 0.0, 0.0, 0.0, 1.620397416108843E9, 2021-05-07 16:23:36.108
49.0, -176.85426330566406, -157.8424835205078, 238.0371551513672, -42.206642150878906, 0.01600000075995922, 0.06400000303983688, 1.055999994277954, 0.0, 0.0, 0.0, 0.0, 0.0, 1.6203974161225533E9, 2021-05-07 16:23:36.122
49.0, -191.4810028076172, -156.765380859375, 244.38375854492188, -39.9776611328125, 0.01600000075995922, 0.06400000303983688, 1.055999994277954, 0.0, 0.0, 0.0, 0.0, 0.0, 1.6203974161225533E9, 2021-05-07 16:23:36.122
50.0, -193.0667266845703, -164.55186462402344, 247.7384490966797, -50.05669021606445, 0.01600000075995922, 0.06400000303983688, 1.055999994277954, 0.0, 0.0, 0.0, 0.0, 0.0, 1.6203974161381435E9, 2021-05-07 16:23:36.138
50.0, -175.04788208007812, -148.35809326171875, 247.72349548339844, -42.5768928527832, 0.01600000075995922, 0.06400000303983688, 1.055999994277954, 0.0, 0.0, 0.0, 0.0, 0.0, 1.6203974161381435E9, 2021-05-07 16:23:36.138
51.0, -184.42381286621094, -157.52084350585938, 243.40391540527344, -51.91542053222656, 0.01600000075995922, 0.08000000566244125, 1.055999994277954, 0.0, 0.0, 0.0, 0.0, 0.0, 1.6203974161387992E9, 2021-05-07 16:23:36.138
51.0, -193.28738403320312, -157.457275390625, 246.42201232910156, -55.40848922729492, 0.01600000075995922, 0.08000000566244125, 1.055999994277954, 0.0, 0.0, 0.0, 0.0, 0.0, 1.6203974161387992E9, 2021-05-07 16:23:36.138
52.0, -186.0581512451172, -162.9175262451172, 250.11329650878906, -58.26203155517578, 0.01600000075995922, 0.08000000566244125, 1.055999994277954, 0.0, 0.0, 0.0, 0.0, 0.0, 1.620397416152582E9, 2021-05-07 16:23:36.152
52.0, -176.23342895507812, -153.90061950683594, 249.63458251953125, -49.69392013549805, 0.01600000075995922, 0.08000000566244125, 1.055999994277954, 0.0, 0.0, 0.0, 0.0, 0.0, 1.620397416152582E9, 2021-05-07 16:23:36.152
53.0, -178.57461547851562, -160.755859375, 240.01182556152344, -58.909034729003906, 0.01600000075995922, 0.08000000566244125, 1.055999994277954, 0.0, 0.0, 0.0, 0.0, 0.0, 1.6203974161680589E9, 2021-05-07 16:23:36.168
53.0, -185.30642700195312, -169.24917602539062, 241.1749267578125, -66.20932006835938, 0.01600000075995922, 0.08000000566244125, 1.055999994277954, 0.0, 0.0, 0.0, 0.0, 0.0, 1.6203974161680589E9, 2021-05-07 16:23:36.168
54.0, -176.49896240234375, -155.96878051757812, 247.0690155029297, -47.84640884399414, 0.01600000075995922, 0.08000000566244125, 1.055999994277954, 0.0, 0.0, 0.0, 0.0, 0.0, 1.6203974161687784E9, 2021-05-07 16:23:36.168
54.0, -175.56399536132812, -156.095947265625, 237.55470275878906, -45.299537658691406, 0.01600000075995922, 0.08000000566244125, 1.055999994277954, 0.0, 0.0, 0.0, 0.0, 0.0, 1.6203974161687784E9, 2021-05-07 16:23:36.168
55.0, -170.96017456054688, -160.68479919433594, 233.07057189941406, -54.451072692871094, 0.01600000075995922, 0.08000000566244125, 1.055999994277954, 0.0, 0.0, 0.0, 0.0, 0.0, 1.6203974161825385E9, 2021-05-07 16:23:36.182
55.0, -186.0581512451172, -163.66175842285156, 234.3907470703125, -48.302677154541016, 0.01600000075995922, 0.08000000566244125, 1.055999994277954, 0.0, 0.0, 0.0, 0.0, 0.0, 1.6203974161825385E9, 2021-05-07 16:23:36.182
56.0, -188.04403686523438, -160.8007354736328, 233.18276977539062, -41.15946960449219, 0.01600000075995922, 0.08000000566244125, 1.055999994277954, 0.0, 0.0, 0.0, 0.0, 0.0, 1.6203974162292004E9, 2021-05-07 16:23:36.229
56.0, -173.08444213867188, -154.52145385742188, 235.04148864746094, -42.2963981628418, 0.01600000075995922, 0.08000000566244125, 1.055999994277954, 0.0, 0.0, 0.0, 0.0, 0.0, 1.6203974162292004E9, 2021-05-07 16:23:36.229
57.0, -190.8601837158203, -168.8938751220703, 222.6063232421875, -47.390140533447266, 0.01600000075995922, 0.08000000566244125, 1.055999994277954, 0.0, 0.0, 0.0, 0.0, 0.0, 1.6203974162299385E9, 2021-05-07 16:23:36.229
57.0, -195.34059143066406, -159.21128845214844, 235.89419555664062, -41.77281188964844, 0.01600000075995922, 0.08000000566244125, 1.055999994277954, 0.0, 0.0, 0.0, 0.0, 0.0, 1.6203974162299385E9, 2021-05-07 16:23:36.229
58.0, -192.3262176513672, -159.25616455078125, 231.91493225097656, -48.62057113647461, 0.01600000075995922, 0.08000000566244125, 1.055999994277954, 0.0, 0.0, 0.0, 0.0, 0.0, 1.6203974162306504E9, 2021-05-07 16:23:36.230
58.0, -186.12921142578125, -154.07640075683594, 237.494873046875, -37.621524810791016, 0.01600000075995922, 0.08000000566244125, 1.055999994277954, 0.0, 0.0, 0.0, 0.0, 0.0, 1.6203974162306504E9, 2021-05-07 16:23:36.230
59.0, -179.8760986328125, -144.30404663085938, 244.61563110351562, -42.057044982910156, 0.01600000075995922, 0.08000000566244125, 1.055999994277954, 0.0, 0.0, 0.0, 0.0, 0.0, 1.6203974162438254E9, 2021-05-07 16:23:36.243
59.0, -187.74110412597656, -163.99835205078125, 241.1786651611328, -54.697906494140625, 0.01600000075995922, 0.08000000566244125, 1.055999994277954, 0.0, 0.0, 0.0, 0.0, 0.0, 1.6203974162438254E9, 2021-05-07 16:23:36.243
60.0, -173.62298583984375, -156.3390350341797, 250.35264587402344, -49.772457122802734, 0.01600000075995922, 0.08000000566244125, 1.055999994277954, 0.0, 0.0, 0.0, 0.0, 0.0, 1.6203974162444935E9, 2021-05-07 16:23:36.244
60.0, -178.0659942626953, -154.9365692138672, 242.18470764160156, -57.57014846801758, 0.01600000075995922, 0.08000000566244125, 1.055999994277954, 0.0, 0.0, 0.0, 0.0, 0.0, 1.6203974162444935E9, 2021-05-07 16:23:36.244
61.0, -174.9169921875, -155.52000427246094, 244.772705078125, -64.268310546875, 0.01600000075995922, 0.06400000303983688, 1.055999994277954, 0.0, 0.0, 0.0, 0.0, 0.0, 1.6203974162452333E9, 2021-05-07 16:23:36.245
61.0, -175.60513305664062, -154.5962371826172, 255.98867797851562, -58.02641677856445, 0.01600000075995922, 0.06400000303983688, 1.055999994277954, 0.0, 0.0, 0.0, 0.0, 0.0, 1.6203974162452333E9, 2021-05-07 16:23:36.245
62.0, -175.1787872314453, -153.6350860595703, 250.56581115722656, -59.028709411621094, 0.01600000075995922, 0.06400000303983688, 1.055999994277954, 0.0, 0.0, 0.0, 0.0, 0.0, 1.62039741627379E9, 2021-05-07 16:23:36.273
62.0, -174.43080139160156, -151.33131408691406, 246.14524841308594, -58.43780517578125, 0.01600000075995922, 0.06400000303983688, 1.055999994277954, 0.0, 0.0, 0.0, 0.0, 0.0, 1.62039741627379E9, 2021-05-07 16:23:36.273
63.0, -169.3146209716797, -148.4254150390625, 246.0517578125, -57.78706359863281, 0.01600000075995922, 0.06400000303983688, 1.055999994277954, 0.0, 0.0, 0.0, 0.0, 0.0, 1.620397416274541E9, 2021-05-07 16:23:36.274
63.0, -170.82554626464844, -158.91583251953125, 250.40499877929688, -62.22258377075195, 0.01600000075995922, 0.06400000303983688, 1.055999994277954, 0.0, 0.0, 0.0, 0.0, 0.0, 1.620397416274541E9, 2021-05-07 16:23:36.274
64.0, -179.16925048828125, -159.63014221191406, 239.79864501953125, -69.35831451416016, 0.01600000075995922, 0.06400000303983688, 1.055999994277954, 0.0, 0.0, 0.0, 0.0, 0.0, 1.6203974162752423E9, 2021-05-07 16:23:36.275
64.0, -173.86233520507812, -156.08847045898438, 242.8803253173828, -62.05802917480469, 0.01600000075995922, 0.06400000303983688, 1.055999994277954, 0.0, 0.0, 0.0, 0.0, 0.0, 1.6203974162752423E9, 2021-05-07 16:23:36.275
65.0, -174.92820739746094, -162.17701721191406, 236.50379943847656, -65.16588592529297, 0.01600000075995922, 0.06400000303983688, 1.055999994277954, 0.0, 0.0, 0.0, 0.0, 0.0, 1.6203974162881172E9, 2021-05-07 16:23:36.288
65.0, -170.79562377929688, -153.6874542236328, 254.88540649414062, -56.87078857421875, 0.01600000075995922, 0.06400000303983688, 1.055999994277954, 0.0, 0.0, 0.0, 0.0, 0.0, 1.6203974162881172E9, 2021-05-07 16:23:36.288
66.0, -164.1984405517578, -154.56259155273438, 258.8272705078125, -56.50053787231445, 0.01600000075995922, 0.06400000303983688, 1.055999994277954, 0.0, 0.0, 0.0, 0.0, 0.0, 1.620397416288828E9, 2021-05-07 16:23:36.288
66.0, -170.2608184814453, -152.30368041992188, 248.18350219726562, -57.229820251464844, 0.01600000075995922, 0.06400000303983688, 1.055999994277954, 0.0, 0.0, 0.0, 0.0, 0.0, 1.620397416288828E9, 2021-05-07 16:23:36.288
67.0, -170.64976501464844, -155.2021026611328, 245.9133758544922, -54.24163818359375, 0.01600000075995922, 0.06400000303983688, 1.055999994277954, 0.0, 0.0, 0.0, 0.0, 0.0, 1.620397416302446E9, 2021-05-07 16:23:36.302
67.0, -192.8011932373047, -169.2828369140625, 232.1168975830078, -72.68682861328125, 0.01600000075995922, 0.06400000303983688, 1.055999994277954, 0.0, 0.0, 0.0, 0.0, 0.0, 1.620397416302446E9, 2021-05-07 16:23:36.302
68.0, -194.07275390625, -162.50613403320312, 237.85389709472656, -55.475807189941406, 0.01600000075995922, 0.06400000303983688, 1.055999994277954, 0.0, 0.0, 0.0, 0.0, 0.0, 1.6203974163188667E9, 2021-05-07 16:23:36.318
68.0, -185.3438262939453, -158.33615112304688, 233.7175750732422, -52.52128601074219, 0.01600000075995922, 0.06400000303983688, 1.055999994277954, 0.0, 0.0, 0.0, 0.0, 0.0, 1.6203974163188667E9, 2021-05-07 16:23:36.318
69.0, -183.24200439453125, -154.24842834472656, 233.69139099121094, -52.121116638183594, 0.01600000075995922, 0.06400000303983688, 1.055999994277954, 0.0, 0.0, 0.0, 0.0, 0.0, 1.620397416319487E9, 2021-05-07 16:23:36.319
69.0, -192.9732208251953, -160.01536560058594, 235.74085998535156, -61.40728759765625, 0.01600000075995922, 0.06400000303983688, 1.055999994277954, 0.0, 0.0, 0.0, 0.0, 0.0, 1.620397416319487E9, 2021-05-07 16:23:36.319
70.0, -187.81216430664062, -157.23287963867188, 239.10302734375, -61.85981369018555, 0.01600000075995922, 0.06400000303983688, 1.055999994277954, 0.0, 0.0, 0.0, 0.0, 0.0, 1.6203974163326764E9, 2021-05-07 16:23:36.332
70.0, -177.3292236328125, -151.45472717285156, 240.01182556152344, -58.927734375, 0.01600000075995922, 0.06400000303983688, 1.055999994277954, 0.0, 0.0, 0.0, 0.0, 0.0, 1.6203974163326764E9, 2021-05-07 16:23:36.332
71.0, -178.4773712158203, -158.48948669433594, 248.8080596923828, -64.82929229736328, 0.01600000075995922, 0.06400000303983688, 1.055999994277954, 0.0, 0.0, 0.0, 0.0, 0.0, 1.620397416348333E9, 2021-05-07 16:23:36.348
71.0, -173.61550903320312, -153.83705139160156, 258.516845703125, -63.73724365234375, 0.01600000075995922, 0.06400000303983688, 1.055999994277954, 0.0, 0.0, 0.0, 0.0, 0.0, 1.620397416348333E9, 2021-05-07 16:23:36.348
72.0, -169.88682556152344, -148.78070068359375, 260.27459716796875, -55.59174346923828, 0.01600000075995922, 0.06400000303983688, 1.055999994277954, 0.0, 0.0, 0.0, 0.0, 0.0, 1.6203974163488758E9, 2021-05-07 16:23:36.348
72.0, -177.81915283203125, -160.56512451171875, 238.33261108398438, -69.691162109375, 0.01600000075995922, 0.06400000303983688, 1.055999994277954, 0.0, 0.0, 0.0, 0.0, 0.0, 1.6203974163488758E9, 2021-05-07 16:23:36.348
73.0, -172.8338623046875, -157.4011688232422, 241.96031188964844, -67.16299438476562, 0.01600000075995922, 0.06400000303983688, 1.055999994277954, 0.0, 0.0, 0.0, 0.0, 0.0, 1.6203974163625917E9, 2021-05-07 16:23:36.362
73.0, -171.8278350830078, -151.847412109375, 250.45361328125, -69.71734619140625, 0.01600000075995922, 0.06400000303983688, 1.055999994277954, 0.0, 0.0, 0.0, 0.0, 0.0, 1.6203974163625917E9, 2021-05-07 16:23:36.362
74.0, -184.0348663330078, -164.71267700195312, 244.72035217285156, -69.14140319824219, 0.01600000075995922, 0.06400000303983688, 1.055999994277954, 0.0, 0.0, 0.0, 0.0, 0.0, 1.620397416378946E9, 2021-05-07 16:23:36.378
74.0, -183.51876831054688, -155.72569274902344, 240.10157775878906, -63.9167594909668, 0.01600000075995922, 0.06400000303983688, 1.055999994277954, 0.0, 0.0, 0.0, 0.0, 0.0, 1.620397416378946E9, 2021-05-07 16:23:36.378
75.0, -183.7356719970703, -162.25181579589844, 236.46640014648438, -70.34564971923828, 0.01600000075995922, 0.06400000303983688, 1.055999994277954, 0.0, 0.0, 0.0, 0.0, 0.0, 1.620397416379658E9, 2021-05-07 16:23:36.379
75.0, -172.01483154296875, -159.55535888671875, 251.82241821289062, -52.76063919067383, 0.01600000075995922, 0.06400000303983688, 1.055999994277954, 0.0, 0.0, 0.0, 0.0, 0.0, 1.620397416379658E9, 2021-05-07 16:23:36.379
76.0, -184.3677215576172, -166.8967742919922, 240.1614227294922, -61.83737564086914, 0.01600000075995922, 0.06400000303983688, 1.055999994277954, 0.0, 0.0, 0.0, 0.0, 0.0, 1.6203974163924503E9, 2021-05-07 16:23:36.392
76.0, -172.8712615966797, -152.6514892578125, 240.96923828125, -44.439361572265625, 0.01600000075995922, 0.06400000303983688, 1.055999994277954, 0.0, 0.0, 0.0, 0.0, 0.0, 1.6203974163924503E9, 2021-05-07 16:23:36.392
77.0, -179.25901794433594, -162.65199279785156, 241.2572021484375, -54.58945083618164, 0.01600000075995922, 0.06400000303983688, 1.055999994277954, 0.0, 0.0, 0.0, 0.0, 0.0, 1.6203974164080572E9, 2021-05-07 16:23:36.408
77.0, -191.03970336914062, -171.96807861328125, 230.9986572265625, -66.5384292602539, 0.01600000075995922, 0.06400000303983688, 1.055999994277954, 0.0, 0.0, 0.0, 0.0, 0.0, 1.6203974164080572E9, 2021-05-07 16:23:36.408
78.0, -188.67234802246094, -170.6778106689453, 229.6335906982422, -57.45047378540039, 0.01600000075995922, 0.06400000303983688, 1.055999994277954, 0.0, 0.0, 0.0, 0.0, 0.0, 1.6203974164087725E9, 2021-05-07 16:23:36.408
78.0, -177.69200134277344, -166.8967742919922, 227.47193908691406, -54.92230224609375, 0.01600000075995922, 0.06400000303983688, 1.055999994277954, 0.0, 0.0, 0.0, 0.0, 0.0, 1.6203974164087725E9, 2021-05-07 16:23:36.408
79.0, -179.01217651367188, -160.04901123046875, 236.1709442138672, -49.42464828491211, 0.01600000075995922, 0.06400000303983688, 1.055999994277954, 0.0, 0.0, 0.0, 0.0, 0.0, 1.6203974164225967E9, 2021-05-07 16:23:36.422
79.0, -188.3544464111328, -171.62026977539062, 233.3809814453125, -54.417415618896484, 0.01600000075995922, 0.06400000303983688, 1.055999994277954, 0.0, 0.0, 0.0, 0.0, 0.0, 1.6203974164225967E9, 2021-05-07 16:23:36.422
80.0, -178.6494140625, -161.24952697753906, 246.33973693847656, -46.784278869628906, 0.01600000075995922, 0.06400000303983688, 1.055999994277954, 0.0, 0.0, 0.0, 0.0, 0.0, 1.6203974164387643E9, 2021-05-07 16:23:36.438
80.0, -177.22825622558594, -159.37583923339844, 243.8003387451172, -47.41258239746094, 0.01600000075995922, 0.06400000303983688, 1.055999994277954, 0.0, 0.0, 0.0, 0.0, 0.0, 1.6203974164387643E9, 2021-05-07 16:23:36.438
81.0, -174.47193908691406, -152.41587829589844, 244.95970153808594, -51.96778106689453, 0.01600000075995922, 0.06400000303983688, 1.055999994277954, 0.0, 0.0, 0.0, 0.0, 0.0, 1.620397416439516E9, 2021-05-07 16:23:36.439
81.0, -181.33091735839844, -169.7017059326172, 245.9657440185547, -57.656166076660156, 0.01600000075995922, 0.06400000303983688, 1.055999994277954, 0.0, 0.0, 0.0, 0.0, 0.0, 1.620397416439516E9, 2021-05-07 16:23:36.439
82.0, -189.04258728027344, -167.85418701171875, 240.35589599609375, -67.12559509277344, 0.03200000151991844, 0.06400000303983688, 1.055999994277954, 0.0, 0.0, 0.0, 0.0, 0.0, 1.6203974164525914E9, 2021-05-07 16:23:36.452
82.0, -186.64906311035156, -159.48056030273438, 237.28916931152344, -67.93714904785156, 0.03200000151991844, 0.06400000303983688, 1.055999994277954, 0.0, 0.0, 0.0, 0.0, 0.0, 1.6203974164525914E9, 2021-05-07 16:23:36.452
83.0, -167.79248046875, -142.43409729003906, 249.89263916015625, -52.1734733581543, 0.03200000151991844, 0.06400000303983688, 1.055999994277954, 0.0, 0.0, 0.0, 0.0, 0.0, 1.6203974164682577E9, 2021-05-07 16:23:36.468
83.0, -169.76715087890625, -153.19752502441406, 245.55809020996094, -73.54326629638672, 0.03200000151991844, 0.06400000303983688, 1.055999994277954, 0.0, 0.0, 0.0, 0.0, 0.0, 1.6203974164682577E9, 2021-05-07 16:23:36.468
84.0, -184.2069091796875, -147.6138458251953, 246.08541870117188, -71.25444030761719, 0.03200000151991844, 0.06400000303983688, 1.055999994277954, 0.0, 0.0, 0.0, 0.0, 0.0, 1.620397416468848E9, 2021-05-07 16:23:36.468
84.0, -185.83375549316406, -149.66705322265625, 238.96090698242188, -73.07203674316406, 0.03200000151991844, 0.06400000303983688, 1.055999994277954, 0.0, 0.0, 0.0, 0.0, 0.0, 1.620397416468848E9, 2021-05-07 16:23:36.468
85.0, -175.22740173339844, -144.558349609375, 244.8662109375, -64.67595672607422, 0.03200000151991844, 0.06400000303983688, 1.055999994277954, 0.0, 0.0, 0.0, 0.0, 0.0, 1.6203974164824152E9, 2021-05-07 16:23:36.482
85.0, -201.35433959960938, -151.2565155029297, 241.75086975097656, -65.44264221191406, 0.03200000151991844, 0.06400000303983688, 1.055999994277954, 0.0, 0.0, 0.0, 0.0, 0.0, 1.6203974164824152E9, 2021-05-07 16:23:36.482
86.0, -195.52757263183594, -148.78443908691406, 244.16310119628906, -51.04402542114258, 0.03200000151991844, 0.06400000303983688, 1.055999994277954, 0.0, 0.0, 0.0, 0.0, 0.0, 1.6203974164982262E9, 2021-05-07 16:23:36.498
86.0, -188.93038940429688, -157.5432891845703, 237.55096435546875, -40.82661819458008, 0.03200000151991844, 0.06400000303983688, 1.055999994277954, 0.0, 0.0, 0.0, 0.0, 0.0, 1.6203974164982262E9, 2021-05-07 16:23:36.498
87.0, -183.2233123779297, -156.15203857421875, 237.25177001953125, -41.181907653808594, 0.03200000151991844, 0.06400000303983688, 1.055999994277954, 0.0, 0.0, 0.0, 0.0, 0.0, 1.6203974164988935E9, 2021-05-07 16:23:36.498
87.0, -189.13235473632812, -170.57684326171875, 237.0760040283203, -47.143310546875, 0.03200000151991844, 0.06400000303983688, 1.055999994277954, 0.0, 0.0, 0.0, 0.0, 0.0, 1.6203974164988935E9, 2021-05-07 16:23:36.498
88.0, -174.63275146484375, -151.97084045410156, 247.1961669921875, -30.3474178314209, 0.03200000151991844, 0.06400000303983688, 1.055999994277954, 0.0, 0.0, 0.0, 0.0, 0.0, 1.6203974165125723E9, 2021-05-07 16:23:36.512
88.0, -174.52056884765625, -154.98146057128906, 239.7313232421875, -36.36491775512695, 0.03200000151991844, 0.06400000303983688, 1.055999994277954, 0.0, 0.0, 0.0, 0.0, 0.0, 1.6203974165125723E9, 2021-05-07 16:23:36.512
89.0, -174.9581298828125, -158.4221649169922, 239.45083618164062, -37.72998046875, 0.03200000151991844, 0.06400000303983688, 1.055999994277954, 0.0, 0.0, 0.0, 0.0, 0.0, 1.6203974165281487E9, 2021-05-07 16:23:36.528
89.0, -185.80758666992188, -174.08860778808594, 239.1291961669922, -53.594635009765625, 0.03200000151991844, 0.06400000303983688, 1.055999994277954, 0.0, 0.0, 0.0, 0.0, 0.0, 1.6203974165281487E9, 2021-05-07 16:23:36.528
90.0, -190.2991943359375, -169.0247802734375, 236.37289428710938, -62.966827392578125, 0.03200000151991844, 0.06400000303983688, 1.055999994277954, 0.0, 0.0, 0.0, 0.0, 0.0, 1.6203974165288837E9, 2021-05-07 16:23:36.528
90.0, -178.84762573242188, -159.6563262939453, 239.24139404296875, -54.04342269897461, 0.03200000151991844, 0.06400000303983688, 1.055999994277954, 0.0, 0.0, 0.0, 0.0, 0.0, 1.6203974165288837E9, 2021-05-07 16:23:36.528
91.0, -164.92771911621094, -148.53761291503906, 249.81784057617188, -44.536598205566406, 0.03200000151991844, 0.06400000303983688, 1.055999994277954, 0.0, 0.0, 0.0, 0.0, 0.0, 1.6203974165424168E9, 2021-05-07 16:23:36.542
91.0, -170.90408325195312, -154.71592712402344, 248.30691528320312, -62.20388412475586, 0.03200000151991844, 0.06400000303983688, 1.055999994277954, 0.0, 0.0, 0.0, 0.0, 0.0, 1.6203974165424168E9, 2021-05-07 16:23:36.542
92.0, -184.18446350097656, -161.70953369140625, 243.3440704345703, -69.51538848876953, 0.01600000075995922, 0.06400000303983688, 1.055999994277954, 0.0, 0.0, 0.0, 0.0, 0.0, 1.6203974165582666E9, 2021-05-07 16:23:36.558
92.0, -175.90806579589844, -154.88047790527344, 245.13922119140625, -62.633975982666016, 0.01600000075995922, 0.06400000303983688, 1.055999994277954, 0.0, 0.0, 0.0, 0.0, 0.0, 1.6203974165582666E9, 2021-05-07 16:23:36.558
93.0, -169.8195037841797, -145.52325439453125, 260.6710205078125, -51.22727966308594, 0.01600000075995922, 0.06400000303983688, 1.055999994277954, 0.0, 0.0, 0.0, 0.0, 0.0, 1.6203974165589552E9, 2021-05-07 16:23:36.558
93.0, -180.27252197265625, -151.7239990234375, 259.9006042480469, -54.00602340698242, 0.01600000075995922, 0.06400000303983688, 1.055999994277954, 0.0, 0.0, 0.0, 0.0, 0.0, 1.6203974165589552E9, 2021-05-07 16:23:36.558
94.0, -182.48654174804688, -159.6563262939453, 246.76234436035156, -61.41850662231445, 0.01600000075995922, 0.06400000303983688, 1.055999994277954, 0.0, 0.0, 0.0, 0.0, 0.0, 1.6203974165724757E9, 2021-05-07 16:23:36.572
94.0, -174.52056884765625, -150.7067413330078, 246.19387817382812, -56.88200759887695, 0.01600000075995922, 0.06400000303983688, 1.055999994277954, 0.0, 0.0, 0.0, 0.0, 0.0, 1.6203974165724757E9, 2021-05-07 16:23:36.572
95.0, -181.30099487304688, -156.91871643066406, 241.14500427246094, -59.20822525024414, 0.01600000075995922, 0.06400000303983688, 1.055999994277954, 0.0, 0.0, 0.0, 0.0, 0.0, 1.6203974165888667E9, 2021-05-07 16:23:36.588
95.0, -183.1073760986328, -160.31080627441406, 249.09603881835938, -57.44673156738281, 0.01600000075995922, 0.06400000303983688, 1.055999994277954, 0.0, 0.0, 0.0, 0.0, 0.0, 1.6203974165888667E9, 2021-05-07 16:23:36.588
96.0, -180.61659240722656, -157.00100708007812, 245.1205291748047, -55.1541748046875, 0.01600000075995922, 0.06400000303983688, 1.055999994277954, 0.0, 0.0, 0.0, 0.0, 0.0, 1.62039741658966E9, 2021-05-07 16:23:36.589
96.0, -176.25587463378906, -150.93113708496094, 242.64097595214844, -49.55928421020508, 0.01600000075995922, 0.06400000303983688, 1.055999994277954, 0.0, 0.0, 0.0, 0.0, 0.0, 1.62039741658966E9, 2021-05-07 16:23:36.589
97.0, -183.91519165039062, -157.98085021972656, 238.26902770996094, -55.76751708984375, 0.01600000075995922, 0.06400000303983688, 1.055999994277954, 0.0, 0.0, 0.0, 0.0, 0.0, 1.620397416602383E9, 2021-05-07 16:23:36.602
97.0, -178.49607849121094, -153.24240112304688, 249.4401092529297, -48.650489807128906, 0.01600000075995922, 0.06400000303983688, 1.055999994277954, 0.0, 0.0, 0.0, 0.0, 0.0, 1.620397416602383E9, 2021-05-07 16:23:36.602
98.0, -182.299560546875, -152.72628784179688, 252.918212890625, -52.5250244140625, 0.01600000075995922, 0.06400000303983688, 1.055999994277954, 0.0, 0.0, 0.0, 0.0, 0.0, 1.6203974166351316E9, 2021-05-07 16:23:36.635
98.0, -164.9202423095703, -144.24420166015625, 251.9495849609375, -50.976707458496094, 0.01600000075995922, 0.06400000303983688, 1.055999994277954, 0.0, 0.0, 0.0, 0.0, 0.0, 1.6203974166351316E9, 2021-05-07 16:23:36.635
99.0, -170.29074096679688, -157.31141662597656, 244.6605224609375, -61.34370803833008, 0.01600000075995922, 0.06400000303983688, 1.055999994277954, 0.0, 0.0, 0.0, 0.0, 0.0, 1.6203974166358612E9, 2021-05-07 16:23:36.635
99.0, -176.00904846191406, -158.52688598632812, 253.0977325439453, -57.83942413330078, 0.01600000075995922, 0.06400000303983688, 1.055999994277954, 0.0, 0.0, 0.0, 0.0, 0.0, 1.6203974166358612E9, 2021-05-07 16:23:36.635
100.0, -189.3717041015625, -178.6999053955078, 238.09324645996094, -73.83871459960938, 0.01600000075995922, 0.06400000303983688, 1.055999994277954, 0.0, 0.0, 0.0, 0.0, 0.0, 1.6203974166366088E9, 2021-05-07 16:23:36.636
100.0, -165.64578247070312, -148.60118103027344, 255.5062255859375, -48.36625671386719, 0.01600000075995922, 0.06400000303983688, 1.055999994277954, 0.0, 0.0, 0.0, 0.0, 0.0, 1.6203974166366088E9, 2021-05-07 16:23:36.636
0.0, -171.1490478515625, -163.11012268066406, 247.17185974121094, -62.906986236572266, 0.01600000075995922, 0.06400000303983688, 1.055999994277954, 0.0, 0.0, 0.0, 0.0, 0.0, 1.620397416637463E9, 2021-05-07 16:23:36.637
1.0, -161.61978149414062, -151.39675903320312, 264.4015808105469, -58.456504821777344, 0.01600000075995922, 0.06400000303983688, 1.055999994277954, 0.0, 0.0, 0.0, 0.0, 0.0, 1.6203974166474726E9, 2021-05-07 16:23:36.647
1.0, -171.4332733154297, -158.36419677734375, 255.68386840820312, -68.9095230102539, 0.01600000075995922, 0.06400000303983688, 1.055999994277954, 0.0, 0.0, 0.0, 0.0, 0.0, 1.6203974166474726E9, 2021-05-07 16:23:36.647
2.0, -161.2607421875, -147.33897399902344, 255.552978515625, -59.58595657348633, 0.01600000075995922, 0.06400000303983688, 1.055999994277954, 0.0, 0.0, 0.0, 0.0, 0.0, 1.6203974166630673E9, 2021-05-07 16:23:36.663
2.0, -170.8535919189453, -156.5279083251953, 247.84129333496094, -64.6684799194336, 0.01600000075995922, 0.06400000303983688, 1.055999994277954, 0.0, 0.0, 0.0, 0.0, 0.0, 1.6203974166630673E9, 2021-05-07 16:23:36.663
3.0, -177.8023223876953, -157.22726440429688, 247.76649475097656, -66.9198989868164, 0.01600000075995922, 0.06400000303983688, 1.055999994277954, 0.0, 0.0, 0.0, 0.0, 0.0, 1.62039741666379E9, 2021-05-07 16:23:36.663
3.0, -172.15133666992188, -156.0454559326172, 249.449462890625, -64.26457214355469, 0.01600000075995922, 0.06400000303983688, 1.055999994277954, 0.0, 0.0, 0.0, 0.0, 0.0, 1.62039741666379E9, 2021-05-07 16:23:36.663
4.0, -166.9977569580078, -142.4022979736328, 249.29238891601562, -55.44588851928711, 0.01600000075995922, 0.06400000303983688, 1.055999994277954, 0.0, 0.0, 0.0, 0.0, 0.0, 1.6203974166774368E9, 2021-05-07 16:23:36.677
4.0, -168.8527374267578, -149.6053466796875, 252.61341857910156, -50.105308532714844, 0.01600000075995922, 0.06400000303983688, 1.055999994277954, 0.0, 0.0, 0.0, 0.0, 0.0, 1.6203974166774368E9, 2021-05-07 16:23:36.677
5.0, -179.4516143798828, -162.4481658935547, 253.42123413085938, -57.67112731933594, 0.01600000075995922, 0.06400000303983688, 1.055999994277954, 0.0, 0.0, 0.0, 0.0, 0.0, 1.6203974166930628E9, 2021-05-07 16:23:36.693
5.0, -173.74453735351562, -147.00238037109375, 260.635498046875, -45.105064392089844, 0.01600000075995922, 0.06400000303983688, 1.055999994277954, 0.0, 0.0, 0.0, 0.0, 0.0, 1.6203974166930628E9, 2021-05-07 16:23:36.693
6.0, -172.13636779785156, -143.1577606201172, 250.70980834960938, -42.008426666259766, 0.01600000075995922, 0.06400000303983688, 1.055999994277954, 0.0, 0.0, 0.0, 0.0, 0.0, 1.620397416693784E9, 2021-05-07 16:23:36.693
6.0, -166.2348175048828, -152.3167724609375, 246.78665161132812, -44.207489013671875, 0.01600000075995922, 0.06400000303983688, 1.055999994277954, 0.0, 0.0, 0.0, 0.0, 0.0, 1.620397416693784E9, 2021-05-07 16:23:36.693
7.0, -187.76541137695312, -171.1883087158203, 235.12937927246094, -61.54566192626953, 0.01600000075995922, 0.06400000303983688, 1.055999994277954, 0.0, 0.0, 0.0, 0.0, 0.0, 1.6203974167238154E9, 2021-05-07 16:23:36.723
7.0, -171.5604248046875, -155.0356903076172, 248.82862854003906, -45.46409225463867, 0.01600000075995922, 0.06400000303983688, 1.055999994277954, 0.0, 0.0, 0.0, 0.0, 0.0, 1.6203974167238154E9, 2021-05-07 16:23:36.723
8.0, -173.30322265625, -163.10638427734375, 247.35885620117188, -46.8740348815918, 0.01600000075995922, 0.06400000303983688, 1.055999994277954, 0.0, 0.0, 0.0, 0.0, 0.0, 1.620397416724533E9, 2021-05-07 16:23:36.724
8.0, -173.69590759277344, -152.47010803222656, 243.05796813964844, -50.28856658935547, 0.01600000075995922, 0.06400000303983688, 1.055999994277954, 0.0, 0.0, 0.0, 0.0, 0.0, 1.620397416724533E9, 2021-05-07 16:23:36.724
9.0, -169.6680450439453, -152.8740234375, 258.5149841308594, -44.8956298828125, 0.01600000075995922, 0.06400000303983688, 1.055999994277954, 0.0, 0.0, 0.0, 0.0, 0.0, 1.6203974167252522E9, 2021-05-07 16:23:36.725
9.0, -171.21261596679688, -157.37686157226562, 255.882080078125, -51.90046310424805, 0.01600000075995922, 0.06400000303983688, 1.055999994277954, 0.0, 0.0, 0.0, 0.0, 0.0, 1.6203974167252522E9, 2021-05-07 16:23:36.725
10.0, -169.01356506347656, -155.4059295654297, 250.5003662109375, -47.08346939086914, 0.01600000075995922, 0.06400000303983688, 1.055999994277954, 0.0, 0.0, 0.0, 0.0, 0.0, 1.6203974167373989E9, 2021-05-07 16:23:36.737
10.0, -166.40310668945312, -158.12484741210938, 254.2365264892578, -48.55324935913086, 0.01600000075995922, 0.06400000303983688, 1.055999994277954, 0.0, 0.0, 0.0, 0.0, 0.0, 1.6203974167373989E9, 2021-05-07 16:23:36.737
11.0, -177.2488250732422, -168.02809143066406, 247.65805053710938, -60.816383361816406, 0.01600000075995922, 0.06400000303983688, 1.055999994277954, 0.0, 0.0, 0.0, 0.0, 0.0, 1.6203974167530797E9, 2021-05-07 16:23:36.753
11.0, -178.61013793945312, -165.64952087402344, 242.63536071777344, -62.27494430541992, 0.01600000075995922, 0.06400000303983688, 1.055999994277954, 0.0, 0.0, 0.0, 0.0, 0.0, 1.6203974167530797E9, 2021-05-07 16:23:36.753
12.0, -165.2063446044922, -145.77569580078125, 248.56683349609375, -49.76123809814453, 0.01600000075995922, 0.06400000303983688, 1.055999994277954, 0.0, 0.0, 0.0, 0.0, 0.0, 1.620397416753801E9, 2021-05-07 16:23:36.753
12.0, -175.10585021972656, -155.40219116210938, 241.57696533203125, -58.845455169677734, 0.01600000075995922, 0.06400000303983688, 1.055999994277954, 0.0, 0.0, 0.0, 0.0, 0.0, 1.620397416753801E9, 2021-05-07 16:23:36.753
13.0, -171.45945739746094, -146.23944091796875, 252.6208953857422, -50.741092681884766, 0.01600000075995922, 0.06400000303983688, 1.055999994277954, 0.0, 0.0, 0.0, 0.0, 0.0, 1.6203974167674117E9, 2021-05-07 16:23:36.767
13.0, -171.4931182861328, -153.22930908203125, 244.33326721191406, -57.652427673339844, 0.01600000075995922, 0.06400000303983688, 1.055999994277954, 0.0, 0.0, 0.0, 0.0, 0.0, 1.6203974167674117E9, 2021-05-07 16:23:36.767
14.0, -179.67601013183594, -153.77159118652344, 231.2585906982422, -55.939552307128906, 0.01600000075995922, 0.06400000303983688, 1.055999994277954, 0.0, 0.0, 0.0, 0.0, 0.0, 1.6203974167831233E9, 2021-05-07 16:23:36.783
14.0, -165.1652069091797, -151.49400329589844, 242.87844848632812, -43.7400016784668, 0.01600000075995922, 0.06400000303983688, 1.055999994277954, 0.0, 0.0, 0.0, 0.0, 0.0, 1.6203974167831233E9, 2021-05-07 16:23:36.783
15.0, -180.91766357421875, -151.09756469726562, 244.08644104003906, -42.17298126220703, 0.01600000075995922, 0.06400000303983688, 1.055999994277954, 0.0, 0.0, 0.0, 0.0, 0.0, 1.620397416783818E9, 2021-05-07 16:23:36.783
15.0, -178.62136840820312, -147.51100158691406, 252.46755981445312, -26.585079193115234, 0.01600000075995922, 0.06400000303983688, 1.055999994277954, 0.0, 0.0, 0.0, 0.0, 0.0, 1.620397416783818E9, 2021-05-07 16:23:36.783
16.0, -181.54969787597656, -152.47384643554688, 237.1900634765625, -34.02000045776367, 0.01600000075995922, 0.06400000303983688, 1.055999994277954, 0.0, 0.0, 0.0, 0.0, 0.0, 1.6203974167973564E9, 2021-05-07 16:23:36.797
16.0, -181.8302001953125, -151.35562133789062, 243.48057556152344, -37.756160736083984, 0.01600000075995922, 0.06400000303983688, 1.055999994277954, 0.0, 0.0, 0.0, 0.0, 0.0, 1.6203974167973564E9, 2021-05-07 16:23:36.797
17.0, -184.71739196777344, -163.57386779785156, 236.92453002929688, -47.633235931396484, 0.01600000075995922, 0.06400000303983688, 1.055999994277954, 0.0, 0.0, 0.0, 0.0, 0.0, 1.6203974168131344E9, 2021-05-07 16:23:36.813
17.0, -174.7842254638672, -156.1277313232422, 238.05772399902344, -44.81709289550781, 0.01600000075995922, 0.06400000303983688, 1.055999994277954, 0.0, 0.0, 0.0, 0.0, 0.0, 1.6203974168131344E9, 2021-05-07 16:23:36.813
18.0, -167.83175659179688, -151.03773498535156, 234.06350708007812, -48.411136627197266, 0.01600000075995922, 0.06400000303983688, 1.055999994277954, 0.0, 0.0, 0.0, 0.0, 0.0, 1.6203974168137963E9, 2021-05-07 16:23:36.813
18.0, -173.0489044189453, -152.29434204101562, 238.11007690429688, -48.47471237182617, 0.01600000075995922, 0.06400000303983688, 1.055999994277954, 0.0, 0.0, 0.0, 0.0, 0.0, 1.6203974168137963E9, 2021-05-07 16:23:36.813
19.0, -174.1895751953125, -150.244873046875, 251.83551025390625, -48.205440521240234, 0.01600000075995922, 0.06400000303983688, 1.055999994277954, 0.0, 0.0, 0.0, 0.0, 0.0, 1.6203974168273504E9, 2021-05-07 16:23:36.827
19.0, -167.18849182128906, -153.1732177734375, 257.5613098144531, -51.590049743652344, 0.01600000075995922, 0.06400000303983688, 1.055999994277954, 0.0, 0.0, 0.0, 0.0, 0.0, 1.6203974168273504E9, 2021-05-07 16:23:36.827
20.0, -160.36317443847656, -147.59327697753906, 252.8677215576172, -53.942447662353516, 0.01600000075995922, 0.06400000303983688, 1.055999994277954, 0.0, 0.0, 0.0, 0.0, 0.0, 1.6203974168430507E9, 2021-05-07 16:23:36.843
20.0, -181.7329559326172, -155.90707397460938, 239.35546875, -63.71106719970703, 0.01600000075995922, 0.06400000303983688, 1.055999994277954, 0.0, 0.0, 0.0, 0.0, 0.0, 1.6203974168430507E9, 2021-05-07 16:23:36.843
21.0, -181.2318115234375, -153.9623260498047, 247.48226928710938, -63.77464294433594, 0.01600000075995922, 0.06400000303983688, 1.055999994277954, 0.0, 0.0, 0.0, 0.0, 0.0, 1.6203974168437784E9, 2021-05-07 16:23:36.843
21.0, -170.3786163330078, -149.72128295898438, 250.52655029296875, -61.2576904296875, 0.01600000075995922, 0.06400000303983688, 1.055999994277954, 0.0, 0.0, 0.0, 0.0, 0.0, 1.6203974168437784E9, 2021-05-07 16:23:36.843
22.0, -157.6255645751953, -146.46009826660156, 249.0567626953125, -57.72722625732422, 0.01600000075995922, 0.06400000303983688, 1.055999994277954, 0.0, 0.0, 0.0, 0.0, 0.0, 1.6203974168574605E9, 2021-05-07 16:23:36.857
22.0, -161.93019104003906, -146.7742462158203, 250.7546844482422, -60.337677001953125, 0.01600000075995922, 0.06400000303983688, 1.055999994277954, 0.0, 0.0, 0.0, 0.0, 0.0, 1.6203974168574605E9, 2021-05-07 16:23:36.857
23.0, -172.39442443847656, -154.4859161376953, 250.118896484375, -68.71504974365234, 0.01600000075995922, 0.06400000303983688, 1.055999994277954, 0.0, 0.0, 0.0, 0.0, 0.0, 1.620397416873228E9, 2021-05-07 16:23:36.873
23.0, -160.21731567382812, -142.50328063964844, 257.4939880371094, -58.9800910949707, 0.01600000075995922, 0.06400000303983688, 1.055999994277954, 0.0, 0.0, 0.0, 0.0, 0.0, 1.620397416873228E9, 2021-05-07 16:23:36.873
24.0, -175.94732666015625, -140.76048278808594, 246.4388427734375, -57.476654052734375, 0.01600000075995922, 0.06400000303983688, 1.055999994277954, 0.0, 0.0, 0.0, 0.0, 0.0, 1.620397416873824E9, 2021-05-07 16:23:36.873
24.0, -184.3808135986328, -156.09033203125, 240.3240966796875, -68.55797576904297, 0.01600000075995922, 0.06400000303983688, 1.055999994277954, 0.0, 0.0, 0.0, 0.0, 0.0, 1.620397416873824E9, 2021-05-07 16:23:36.873
25.0, -174.81040954589844, -149.399658203125, 249.34474182128906, -55.25889205932617, 0.01600000075995922, 0.06400000303983688, 1.055999994277954, 0.0, 0.0, 0.0, 0.0, 0.0, 1.620397416887423E9, 2021-05-07 16:23:36.887
25.0, -180.32675170898438, -158.27069091796875, 241.69664001464844, -58.19845199584961, 0.01600000075995922, 0.06400000303983688, 1.055999994277954, 0.0, 0.0, 0.0, 0.0, 0.0, 1.620397416887423E9, 2021-05-07 16:23:36.887
26.0, -182.31263732910156, -156.6101837158203, 232.96397399902344, -53.67691421508789, 0.01600000075995922, 0.06400000303983688, 1.055999994277954, 0.0, 0.0, 0.0, 0.0, 0.0, 1.620397416919E9, 2021-05-07 16:23:36.919
26.0, -177.0767822265625, -161.77871704101562, 232.12623596191406, -59.372779846191406, 0.01600000075995922, 0.06400000303983688, 1.055999994277954, 0.0, 0.0, 0.0, 0.0, 0.0, 1.620397416919E9, 2021-05-07 16:23:36.919
27.0, -181.57962036132812, -163.61502075195312, 234.17196655273438, -60.17686080932617, 0.01600000075995922, 0.06400000303983688, 1.055999994277954, 0.0, 0.0, 0.0, 0.0, 0.0, 1.6203974169195104E9, 2021-05-07 16:23:36.919
27.0, -177.73126220703125, -168.70127868652344, 223.1205596923828, -69.60514831542969, 0.01600000075995922, 0.06400000303983688, 1.055999994277954, 0.0, 0.0, 0.0, 0.0, 0.0, 1.6203974169195104E9, 2021-05-07 16:23:36.919
28.0, -156.776611328125, -149.93446350097656, 242.2688446044922, -52.5549430847168, 0.01600000075995922, 0.06400000303983688, 1.055999994277954, 0.0, 0.0, 0.0, 0.0, 0.0, 1.6203974169202707E9, 2021-05-07 16:23:36.920
28.0, -173.44534301757812, -157.3544158935547, 244.03033447265625, -63.22861862182617, 0.01600000075995922, 0.06400000303983688, 1.055999994277954, 0.0, 0.0, 0.0, 0.0, 0.0, 1.6203974169202707E9, 2021-05-07 16:23:36.920
29.0, -162.29295349121094, -148.90225219726562, 261.8247985839844, -51.017845153808594, 0.01600000075995922, 0.06400000303983688, 1.055999994277954, 0.0, 0.0, 0.0, 0.0, 0.0, 1.620397416948786E9, 2021-05-07 16:23:36.948
29.0, -175.90618896484375, -151.20602416992188, 247.9609832763672, -62.63023376464844, 0.01600000075995922, 0.06400000303983688, 1.055999994277954, 0.0, 0.0, 0.0, 0.0, 0.0, 1.620397416948786E9, 2021-05-07 16:23:36.948
30.0, -174.38404846191406, -144.59388732910156, 250.623779296875, -52.90275573730469, 0.01600000075995922, 0.06400000303983688, 1.055999994277954, 0.0, 0.0, 0.0, 0.0, 0.0, 1.6203974169496405E9, 2021-05-07 16:23:36.949
30.0, -166.96035766601562, -141.3513946533203, 251.56997680664062, -47.07973098754883, 0.01600000075995922, 0.06400000303983688, 1.055999994277954, 0.0, 0.0, 0.0, 0.0, 0.0, 1.6203974169496405E9, 2021-05-07 16:23:36.949
31.0, -169.67552185058594, -137.80596923828125, 260.41485595703125, -39.10252380371094, 0.01600000075995922, 0.06400000303983688, 1.055999994277954, 0.0, 0.0, 0.0, 0.0, 0.0, 1.6203974169502523E9, 2021-05-07 16:23:36.950
31.0, -175.74163818359375, -152.2382354736328, 254.22157287597656, -51.51525115966797, 0.01600000075995922, 0.06400000303983688, 1.055999994277954, 0.0, 0.0, 0.0, 0.0, 0.0, 1.6203974169502523E9, 2021-05-07 16:23:36.950
32.0, -170.5506591796875, -150.2074737548828, 249.13156127929688, -50.023033142089844, 0.01600000075995922, 0.06400000303983688, 1.055999994277954, 0.0, 0.0, 0.0, 0.0, 0.0, 1.6203974169630668E9, 2021-05-07 16:23:36.963
32.0, -172.73849487304688, -155.48446655273438, 249.53921508789062, -50.03425216674805, 0.01600000075995922, 0.06400000303983688, 1.055999994277954, 0.0, 0.0, 0.0, 0.0, 0.0, 1.6203974169630668E9, 2021-05-07 16:23:36.963
33.0, -173.1760711669922, -150.080322265625, 252.501220703125, -47.648197174072266, 0.01600000075995922, 0.06400000303983688, 1.055999994277954, 0.0, 0.0, 0.0, 0.0, 0.0, 1.6203974169638762E9, 2021-05-07 16:23:36.963
33.0, -178.97291564941406, -148.94338989257812, 245.64598083496094, -49.450828552246094, 0.01600000075995922, 0.06400000303983688, 1.055999994277954, 0.0, 0.0, 0.0, 0.0, 0.0, 1.6203974169638762E9, 2021-05-07 16:23:36.963
34.0, -180.73440551757812, -149.25006103515625, 236.15411376953125, -45.66230773925781, 0.01600000075995922, 0.06400000303983688, 1.055999994277954, 0.0, 0.0, 0.0, 0.0, 0.0, 1.620397416977487E9, 2021-05-07 16:23:36.977
34.0, -173.5051727294922, -152.2906036376953, 232.4104766845703, -46.918914794921875, 0.01600000075995922, 0.06400000303983688, 1.055999994277954, 0.0, 0.0, 0.0, 0.0, 0.0, 1.620397416977487E9, 2021-05-07 16:23:36.977
35.0, -193.71185302734375, -173.6005401611328, 226.1237030029297, -55.5655632019043, 0.01600000075995922, 0.06400000303983688, 1.055999994277954, 0.0, 0.0, 0.0, 0.0, 0.0, 1.6203974169931452E9, 2021-05-07 16:23:36.993
35.0, -181.95361328125, -161.5244140625, 235.57069396972656, -46.802978515625, 0.01600000075995922, 0.06400000303983688, 1.055999994277954, 0.0, 0.0, 0.0, 0.0, 0.0, 1.6203974169931452E9, 2021-05-07 16:23:36.993
36.0, -179.27584838867188, -162.51922607421875, 223.157958984375, -54.215457916259766, 0.01600000075995922, 0.06400000303983688, 1.055999994277954, 0.0, 0.0, 0.0, 0.0, 0.0, 1.6203974169939113E9, 2021-05-07 16:23:36.993
36.0, -180.334228515625, -155.7537384033203, 234.37765502929688, -44.805870056152344, 0.01600000075995922, 0.06400000303983688, 1.055999994277954, 0.0, 0.0, 0.0, 0.0, 0.0, 1.6203974169939113E9, 2021-05-07 16:23:36.993
37.0, -184.51544189453125, -159.7030792236328, 238.9291229248047, -46.57484436035156, 0.01600000075995922, 0.06400000303983688, 1.055999994277954, 0.0, 0.0, 0.0, 0.0, 0.0, 1.620397417007406E9, 2021-05-07 16:23:37.007
37.0, -172.6636962890625, -158.8990020751953, 243.91439819335938, -35.654335021972656, 0.01600000075995922, 0.06400000303983688, 1.055999994277954, 0.0, 0.0, 0.0, 0.0, 0.0, 1.620397417007406E9, 2021-05-07 16:23:37.007
38.0, -170.14674377441406, -152.63841247558594, 242.41470336914062, -30.990680694580078, 0.01600000075995922, 0.06400000303983688, 1.055999994277954, 0.0, 0.0, 0.0, 0.0, 0.0, 1.6203974170386083E9, 2021-05-07 16:23:37.038
38.0, -173.28079223632812, -156.172607421875, 252.16836547851562, -30.534412384033203, 0.01600000075995922, 0.06400000303983688, 1.055999994277954, 0.0, 0.0, 0.0, 0.0, 0.0, 1.6203974170386083E9, 2021-05-07 16:23:37.038
39.0, -178.61761474609375, -158.0911865234375, 256.40191650390625, -36.469635009765625, 0.01600000075995922, 0.06400000303983688, 1.055999994277954, 0.0, 0.0, 0.0, 0.0, 0.0, 1.620397417039317E9, 2021-05-07 16:23:37.039
39.0, -186.6509246826172, -160.1219482421875, 249.60279846191406, -47.02363204956055, 0.01600000075995922, 0.06400000303983688, 1.055999994277954, 0.0, 0.0, 0.0, 0.0, 0.0, 1.620397417039317E9, 2021-05-07 16:23:37.039
40.0, -164.58177185058594, -148.8050079345703, 252.23194885253906, -40.07115936279297, 0.01600000075995922, 0.06400000303983688, 1.055999994277954, 0.0, 0.0, 0.0, 0.0, 0.0, 1.6203974170542967E9, 2021-05-07 16:23:37.054
40.0, -176.14181518554688, -150.2486114501953, 250.44801330566406, -53.6395149230957, 0.01600000075995922, 0.06400000303983688, 1.055999994277954, 0.0, 0.0, 0.0, 0.0, 0.0, 1.6203974170542967E9, 2021-05-07 16:23:37.054
41.0, -176.96458435058594, -143.76736450195312, 264.76434326171875, -52.21461486816406, 0.01600000075995922, 0.06400000303983688, 1.055999994277954, 0.0, 0.0, 0.0, 0.0, 0.0, 1.6203974170549533E9, 2021-05-07 16:23:37.054
41.0, -180.36415100097656, -166.53587341308594, 245.24954223632812, -62.574134826660156, 0.01600000075995922, 0.06400000303983688, 1.055999994277954, 0.0, 0.0, 0.0, 0.0, 0.0, 1.6203974170549533E9, 2021-05-07 16:23:37.054
42.0, -171.4519805908203, -142.9595489501953, 256.8282775878906, -52.37168884277344, 0.03200000151991844, 0.06400000303983688, 1.055999994277954, 0.0, 0.0, 0.0, 0.0, 0.0, 1.620397417068221E9, 2021-05-07 16:23:37.068
42.0, -166.62376403808594, -137.37960815429688, 266.0508728027344, -41.28288650512695, 0.03200000151991844, 0.06400000303983688, 1.055999994277954, 0.0, 0.0, 0.0, 0.0, 0.0, 1.620397417068221E9, 2021-05-07 16:23:37.068
43.0, -186.3143310546875, -152.58978271484375, 259.16571044921875, -49.23765182495117, 0.03200000151991844, 0.06400000303983688, 1.055999994277954, 0.0, 0.0, 0.0, 0.0, 0.0, 1.6203974170688195E9, 2021-05-07 16:23:37.068
43.0, -180.2893524169922, -154.4036407470703, 248.32000732421875, -41.40630340576172, 0.03200000151991844, 0.06400000303983688, 1.055999994277954, 0.0, 0.0, 0.0, 0.0, 0.0, 1.6203974170688195E9, 2021-05-07 16:23:37.068
44.0, -173.06761169433594, -148.74142456054688, 245.90777587890625, -37.52802658081055, 0.03200000151991844, 0.06400000303983688, 1.055999994277954, 0.0, 0.0, 0.0, 0.0, 0.0, 1.6203974170832193E9, 2021-05-07 16:23:37.083
44.0, -191.37442016601562, -159.41510009765625, 236.3822479248047, -35.085872650146484, 0.03200000151991844, 0.06400000303983688, 1.055999994277954, 0.0, 0.0, 0.0, 0.0, 0.0, 1.6203974170832193E9, 2021-05-07 16:23:37.083
45.0, -182.8025665283203, -157.00286865234375, 244.94662475585938, -29.992128372192383, 0.03200000151991844, 0.06400000303983688, 1.055999994277954, 0.0, 0.0, 0.0, 0.0, 0.0, 1.620397417083888E9, 2021-05-07 16:23:37.083
45.0, -183.04566955566406, -172.17190551757812, 238.0801544189453, -40.359130859375, 0.03200000151991844, 0.06400000303983688, 1.055999994277954, 0.0, 0.0, 0.0, 0.0, 0.0, 1.620397417083888E9, 2021-05-07 16:23:37.083
46.0, -183.5991668701172, -170.26455688476562, 231.71859741210938, -44.828311920166016, 0.03200000151991844, 0.06400000303983688, 1.055999994277954, 0.0, 0.0, 0.0, 0.0, 0.0, 1.620397417097499E9, 2021-05-07 16:23:37.097
46.0, -187.60086059570312, -165.11471557617188, 238.11007690429688, -39.00154495239258, 0.03200000151991844, 0.06400000303983688, 1.055999994277954, 0.0, 0.0, 0.0, 0.0, 0.0, 1.620397417097499E9, 2021-05-07 16:23:37.097
47.0, -178.2249298095703, -160.14437866210938, 247.0708770751953, -34.73432159423828, 0.03200000151991844, 0.06400000303983688, 1.055999994277954, 0.0, 0.0, 0.0, 0.0, 0.0, 1.6203974171131227E9, 2021-05-07 16:23:37.113
47.0, -188.4348602294922, -168.27867126464844, 235.43978881835938, -48.500892639160156, 0.03200000151991844, 0.06400000303983688, 1.055999994277954, 0.0, 0.0, 0.0, 0.0, 0.0, 1.6203974171131227E9, 2021-05-07 16:23:37.113
48.0, -181.68060302734375, -168.78355407714844, 230.80979919433594, -55.57304382324219, 0.03200000151991844, 0.06400000303983688, 1.055999994277954, 0.0, 0.0, 0.0, 0.0, 0.0, 1.6203974171139193E9, 2021-05-07 16:23:37.113
48.0, -170.0719451904297, -156.92433166503906, 248.6827850341797, -36.87354278564453, 0.03200000151991844, 0.06400000303983688, 1.055999994277954, 0.0, 0.0, 0.0, 0.0, 0.0, 1.6203974171139193E9, 2021-05-07 16:23:37.113
49.0, -177.9219970703125, -161.3448944091797, 249.29238891601562, -52.996253967285156, 0.03200000151991844, 0.06400000303983688, 1.055999994277954, 0.0, 0.0, 0.0, 0.0, 0.0, 1.6203974171274695E9, 2021-05-07 16:23:37.127
49.0, -175.78651428222656, -162.52670288085938, 241.56201171875, -52.734458923339844, 0.03200000151991844, 0.06400000303983688, 1.055999994277954, 0.0, 0.0, 0.0, 0.0, 0.0, 1.6203974171274695E9, 2021-05-07 16:23:37.127
50.0, -167.49142456054688, -151.62489318847656, 248.09934997558594, -49.66773986816406, 0.03200000151991844, 0.06400000303983688, 1.055999994277954, 0.0, 0.0, 0.0, 0.0, 0.0, 1.6203974171431253E9, 2021-05-07 16:23:37.143
50.0, -172.3719940185547, -138.44174194335938, 253.35765075683594, -44.62635803222656, 0.03200000151991844, 0.06400000303983688, 1.055999994277954, 0.0, 0.0, 0.0, 0.0, 0.0, 1.6203974171431253E9, 2021-05-07 16:23:37.143
51.0, -183.6590118408203, -156.9392852783203, 252.8714599609375, -47.83518981933594, 0.03200000151991844, 0.06400000303983688, 1.055999994277954, 0.0, 0.0, 0.0, 0.0, 0.0, 1.6203974171438303E9, 2021-05-07 16:23:37.143
51.0, -171.42953491210938, -147.55587768554688, 260.5046081542969, -40.47880554199219, 0.03200000151991844, 0.06400000303983688, 1.055999994277954, 0.0, 0.0, 0.0, 0.0, 0.0, 1.6203974171438303E9, 2021-05-07 16:23:37.143
52.0, -173.10501098632812, -149.5679473876953, 247.42991638183594, -53.646995544433594, 0.01600000075995922, 0.06400000303983688, 1.055999994277954, 0.0, 0.0, 0.0, 0.0, 0.0, 1.6203974171574864E9, 2021-05-07 16:23:37.157
52.0, -173.54257202148438, -147.33897399902344, 258.48504638671875, -53.01869201660156, 0.01600000075995922, 0.06400000303983688, 1.055999994277954, 0.0, 0.0, 0.0, 0.0, 0.0, 1.6203974171574864E9, 2021-05-07 16:23:37.157
53.0, -169.8325958251953, -146.78172302246094, 263.2197570800781, -44.79839324951172, 0.01600000075995922, 0.06400000303983688, 1.055999994277954, 0.0, 0.0, 0.0, 0.0, 0.0, 1.620397417173152E9, 2021-05-07 16:23:37.173
53.0, -175.9884796142578, -151.9315643310547, 259.5509338378906, -55.07563781738281, 0.01600000075995922, 0.06400000303983688, 1.055999994277954, 0.0, 0.0, 0.0, 0.0, 0.0, 1.620397417173152E9, 2021-05-07 16:23:37.173
54.0, -176.34750366210938, -145.5849609375, 256.0952453613281, -50.71117401123047, 0.01600000075995922, 0.06400000303983688, 1.055999994277954, 0.0, 0.0, 0.0, 0.0, 0.0, 1.6203974171738362E9, 2021-05-07 16:23:37.173
54.0, -177.74249267578125, -156.25863647460938, 243.50302124023438, -63.31837463378906, 0.01600000075995922, 0.06400000303983688, 1.055999994277954, 0.0, 0.0, 0.0, 0.0, 0.0, 1.6203974171738362E9, 2021-05-07 16:23:37.173
55.0, -191.55767822265625, -168.82095336914062, 240.17823791503906, -70.29702758789062, 0.01600000075995922, 0.06400000303983688, 1.055999994277954, 0.0, 0.0, 0.0, 0.0, 0.0, 1.6203974171875987E9, 2021-05-07 16:23:37.187
55.0, -197.84445190429688, -176.75701904296875, 229.20912170410156, -73.47968292236328, 0.01600000075995922, 0.06400000303983688, 1.055999994277954, 0.0, 0.0, 0.0, 0.0, 0.0, 1.6203974171875987E9, 2021-05-07 16:23:37.187
56.0, -182.39117431640625, -163.82070922851562, 228.7603302001953, -59.234405517578125, 0.01600000075995922, 0.06400000303983688, 1.055999994277954, 0.0, 0.0, 0.0, 0.0, 0.0, 1.620397417203221E9, 2021-05-07 16:23:37.203
56.0, -179.38055419921875, -175.7210693359375, 226.13865661621094, -60.16564178466797, 0.01600000075995922, 0.06400000303983688, 1.055999994277954, 0.0, 0.0, 0.0, 0.0, 0.0, 1.620397417203221E9, 2021-05-07 16:23:37.203
57.0, -160.4940643310547, -159.2804718017578, 248.2265167236328, -41.64939498901367, 0.01600000075995922, 0.06400000303983688, 1.055999994277954, 0.0, 0.0, 0.0, 0.0, 0.0, 1.6203974172039387E9, 2021-05-07 16:23:37.203
57.0, -166.8631134033203, -158.5399627685547, 245.94891357421875, -43.8035774230957, 0.01600000075995922, 0.06400000303983688, 1.055999994277954, 0.0, 0.0, 0.0, 0.0, 0.0, 1.6203974172039387E9, 2021-05-07 16:23:37.203
58.0, -169.8662567138672, -157.85931396484375, 238.53268432617188, -47.008670806884766, 0.01600000075995922, 0.06400000303983688, 1.055999994277954, 0.0, 0.0, 0.0, 0.0, 0.0, 1.6203974172175484E9, 2021-05-07 16:23:37.217
58.0, -179.1524200439453, -166.02725219726562, 240.14833068847656, -53.157066345214844, 0.01600000075995922, 0.06400000303983688, 1.055999994277954, 0.0, 0.0, 0.0, 0.0, 0.0, 1.6203974172175484E9, 2021-05-07 16:23:37.217
59.0, -169.17811584472656, -152.97499084472656, 260.0184020996094, -41.02857208251953, 0.01600000075995922, 0.06400000303983688, 1.055999994277954, 0.0, 0.0, 0.0, 0.0, 0.0, 1.6203974172331266E9, 2021-05-07 16:23:37.233
59.0, -170.32626342773438, -161.24017333984375, 254.109375, -53.44878005981445, 0.01600000075995922, 0.06400000303983688, 1.055999994277954, 0.0, 0.0, 0.0, 0.0, 0.0, 1.6203974172331266E9, 2021-05-07 16:23:37.233
60.0, -167.91029357910156, -151.0938262939453, 256.3046875, -46.17841339111328, 0.01600000075995922, 0.06400000303983688, 1.055999994277954, 0.0, 0.0, 0.0, 0.0, 0.0, 1.6203974172339368E9, 2021-05-07 16:23:37.233
60.0, -174.69821166992188, -148.2552490234375, 255.40338134765625, -50.38206100463867, 0.01600000075995922, 0.06400000303983688, 1.055999994277954, 0.0, 0.0, 0.0, 0.0, 0.0, 1.6203974172339368E9, 2021-05-07 16:23:37.233
61.0, -180.19586181640625, -157.017822265625, 254.24026489257812, -57.20737838745117, 0.01600000075995922, 0.06400000303983688, 1.055999994277954, 0.0, 0.0, 0.0, 0.0, 0.0, 1.620397417247458E9, 2021-05-07 16:23:37.247
61.0, -179.81439208984375, -154.81503295898438, 252.2020263671875, -59.410179138183594, 0.01600000075995922, 0.06400000303983688, 1.055999994277954, 0.0, 0.0, 0.0, 0.0, 0.0, 1.620397417247458E9, 2021-05-07 16:23:37.247
62.0, -169.0621795654297, -149.8260040283203, 254.66287231445312, -58.70708084106445, 0.03200000151991844, 0.06400000303983688, 1.055999994277954, 0.0, 0.0, 0.0, 0.0, 0.0, 1.62039741726361E9, 2021-05-07 16:23:37.263
62.0, -175.67431640625, -150.86569213867188, 253.6493682861328, -59.86644744873047, 0.03200000151991844, 0.06400000303983688, 1.055999994277954, 0.0, 0.0, 0.0, 0.0, 0.0, 1.62039741726361E9, 2021-05-07 16:23:37.263
63.0, -176.24278259277344, -156.95799255371094, 258.3990478515625, -61.16045379638672, 0.03200000151991844, 0.06400000303983688, 1.055999994277954, 0.0, 0.0, 0.0, 0.0, 0.0, 1.620397417278508E9, 2021-05-07 16:23:37.278
63.0, -173.65476989746094, -157.3132781982422, 252.72186279296875, -55.71141815185547, 0.03200000151991844, 0.06400000303983688, 1.055999994277954, 0.0, 0.0, 0.0, 0.0, 0.0, 1.620397417278508E9, 2021-05-07 16:23:37.278
64.0, -169.2790985107422, -158.0949249267578, 244.6511688232422, -49.67522048950195, 0.03200000151991844, 0.06400000303983688, 1.055999994277954, 0.0, 0.0, 0.0, 0.0, 0.0, 1.6203974172939067E9, 2021-05-07 16:23:37.293
64.0, -169.1893310546875, -148.13182067871094, 251.79811096191406, -39.15114212036133, 0.03200000151991844, 0.06400000303983688, 1.055999994277954, 0.0, 0.0, 0.0, 0.0, 0.0, 1.6203974172939067E9, 2021-05-07 16:23:37.293
65.0, -172.64874267578125, -156.6475830078125, 256.3794860839844, -51.851844787597656, 0.03200000151991844, 0.06400000303983688, 1.055999994277954, 0.0, 0.0, 0.0, 0.0, 0.0, 1.620397417294602E9, 2021-05-07 16:23:37.294
65.0, -178.65501403808594, -162.52296447753906, 244.98776245117188, -56.58655548095703, 0.03200000151991844, 0.06400000303983688, 1.055999994277954, 0.0, 0.0, 0.0, 0.0, 0.0, 1.620397417294602E9, 2021-05-07 16:23:37.294
66.0, -171.44448852539062, -159.10842895507812, 238.99642944335938, -58.486427307128906, 0.03200000151991844, 0.06400000303983688, 1.055999994277954, 0.0, 0.0, 0.0, 0.0, 0.0, 1.620397417295395E9, 2021-05-07 16:23:37.295
66.0, -184.5453643798828, -170.15609741210938, 230.0692901611328, -72.80650329589844, 0.03200000151991844, 0.06400000303983688, 1.055999994277954, 0.0, 0.0, 0.0, 0.0, 0.0, 1.620397417295395E9, 2021-05-07 16:23:37.295
67.0, -171.87832641601562, -153.82769775390625, 243.31228637695312, -55.270111083984375, 0.03200000151991844, 0.06400000303983688, 1.055999994277954, 0.0, 0.0, 0.0, 0.0, 0.0, 1.6203974173075337E9, 2021-05-07 16:23:37.307
67.0, -172.83200073242188, -162.1078338623047, 238.9702606201172, -58.50886535644531, 0.03200000151991844, 0.06400000303983688, 1.055999994277954, 0.0, 0.0, 0.0, 0.0, 0.0, 1.6203974173075337E9, 2021-05-07 16:23:37.307
68.0, -165.52796936035156, -156.61392211914062, 236.65525817871094, -54.63058853149414, 0.03200000151991844, 0.06400000303983688, 1.055999994277954, 0.0, 0.0, 0.0, 0.0, 0.0, 1.62039741732325E9, 2021-05-07 16:23:37.323
68.0, -169.61941528320312, -159.10842895507812, 236.83851623535156, -51.00288391113281, 0.03200000151991844, 0.06400000303983688, 1.055999994277954, 0.0, 0.0, 0.0, 0.0, 0.0, 1.62039741732325E9, 2021-05-07 16:23:37.323
69.0, -171.42205810546875, -166.2628631591797, 243.65635681152344, -60.02726364135742, 0.03200000151991844, 0.06400000303983688, 1.055999994277954, 0.0, 0.0, 0.0, 0.0, 0.0, 1.620397417323971E9, 2021-05-07 16:23:37.323
69.0, -156.30911254882812, -147.18563842773438, 255.46694946289062, -43.051856994628906, 0.03200000151991844, 0.06400000303983688, 1.055999994277954, 0.0, 0.0, 0.0, 0.0, 0.0, 1.620397417323971E9, 2021-05-07 16:23:37.323
70.0, -160.31454467773438, -147.1145782470703, 251.55128479003906, -45.17986297607422, 0.03200000151991844, 0.06400000303983688, 1.055999994277954, 0.0, 0.0, 0.0, 0.0, 0.0, 1.6203974173376343E9, 2021-05-07 16:23:37.337
70.0, -156.2193603515625, -139.23086547851562, 257.48651123046875, -47.962345123291016, 0.03200000151991844, 0.06400000303983688, 1.055999994277954, 0.0, 0.0, 0.0, 0.0, 0.0, 1.6203974173376343E9, 2021-05-07 16:23:37.337
71.0, -169.6568145751953, -150.21868896484375, 255.1640167236328, -63.80082321166992, 0.03200000151991844, 0.06400000303983688, 1.055999994277954, 0.0, 0.0, 0.0, 0.0, 0.0, 1.6203974173532174E9, 2021-05-07 16:23:37.353
71.0, -172.51783752441406, -146.10853576660156, 250.82948303222656, -66.25045776367188, 0.03200000151991844, 0.06400000303983688, 1.055999994277954, 0.0, 0.0, 0.0, 0.0, 0.0, 1.6203974173532174E9, 2021-05-07 16:23:37.353
72.0, -163.35508728027344, -138.30337524414062, 259.27044677734375, -58.68463897705078, 0.01600000075995922, 0.06400000303983688, 1.055999994277954, 0.0, 0.0, 0.0, 0.0, 0.0, 1.620397417353994E9, 2021-05-07 16:23:37.353
72.0, -164.1928253173828, -134.85891723632812, 263.99017333984375, -55.35239028930664, 0.01600000075995922, 0.06400000303983688, 1.055999994277954, 0.0, 0.0, 0.0, 0.0, 0.0, 1.620397417353994E9, 2021-05-07 16:23:37.353
73.0, -177.26377868652344, -154.45225524902344, 254.4871063232422, -69.37327575683594, 0.01600000075995922, 0.06400000303983688, 1.055999994277954, 0.0, 0.0, 0.0, 0.0, 0.0, 1.6203974173993158E9, 2021-05-07 16:23:37.399
73.0, -166.18994140625, -145.82057189941406, 258.5336608886719, -54.7315673828125, 0.01600000075995922, 0.06400000303983688, 1.055999994277954, 0.0, 0.0, 0.0, 0.0, 0.0, 1.6203974173993158E9, 2021-05-07 16:23:37.399
74.0, -160.77081298828125, -140.1882781982422, 258.26812744140625, -44.23740768432617, 0.01600000075995922, 0.06400000303983688, 1.055999994277954, 0.0, 0.0, 0.0, 0.0, 0.0, 1.620397417400044E9, 2021-05-07 16:23:37.400
74.0, -163.07833862304688, -150.64503479003906, 253.51846313476562, -45.38181686401367, 0.01600000075995922, 0.06400000303983688, 1.055999994277954, 0.0, 0.0, 0.0, 0.0, 0.0, 1.620397417400044E9, 2021-05-07 16:23:37.400
75.0, -172.21116638183594, -162.84832763671875, 248.22276306152344, -49.61538314819336, 0.01600000075995922, 0.06400000303983688, 1.055999994277954, 0.0, 0.0, 0.0, 0.0, 0.0, 1.6203974174008195E9, 2021-05-07 16:23:37.400
75.0, -176.42230224609375, -162.60897827148438, 243.96302795410156, -46.103614807128906, 0.01600000075995922, 0.06400000303983688, 1.055999994277954, 0.0, 0.0, 0.0, 0.0, 0.0, 1.6203974174008195E9, 2021-05-07 16:23:37.400
76.0, -171.76986694335938, -160.7577362060547, 240.0323944091797, -47.2255859375, 0.01600000075995922, 0.06400000303983688, 1.055999994277954, 0.0, 0.0, 0.0, 0.0, 0.0, 1.6203974174137683E9, 2021-05-07 16:23:37.413
76.0, -172.57020568847656, -159.6619415283203, 241.7228240966797, -36.62297058105469, 0.01600000075995922, 0.06400000303983688, 1.055999994277954, 0.0, 0.0, 0.0, 0.0, 0.0, 1.6203974174137683E9, 2021-05-07 16:23:37.413
77.0, -174.406494140625, -160.0247039794922, 247.07835388183594, -38.623817443847656, 0.01600000075995922, 0.06400000303983688, 1.055999994277954, 0.0, 0.0, 0.0, 0.0, 0.0, 1.6203974174145339E9, 2021-05-07 16:23:37.414
77.0, -175.35643005371094, -154.77389526367188, 247.25039672851562, -37.99177551269531, 0.01600000075995922, 0.06400000303983688, 1.055999994277954, 0.0, 0.0, 0.0, 0.0, 0.0, 1.6203974174145339E9, 2021-05-07 16:23:37.414
78.0, -170.52821350097656, -155.9220428466797, 247.5458526611328, -33.91902160644531, 0.01600000075995922, 0.06400000303983688, 1.055999994277954, 0.0, 0.0, 0.0, 0.0, 0.0, 1.6203974174153075E9, 2021-05-07 16:23:37.415
78.0, -182.94842529296875, -162.3733673095703, 240.18572998046875, -44.64879608154297, 0.01600000075995922, 0.06400000303983688, 1.055999994277954, 0.0, 0.0, 0.0, 0.0, 0.0, 1.6203974174153075E9, 2021-05-07 16:23:37.415
79.0, -171.76612854003906, -159.2281036376953, 251.70835876464844, -47.442501068115234, 0.01600000075995922, 0.06400000303983688, 1.055999994277954, 0.0, 0.0, 0.0, 0.0, 0.0, 1.6203974174437313E9, 2021-05-07 16:23:37.443
79.0, -178.13143920898438, -158.57362365722656, 250.78086853027344, -50.41572189331055, 0.01600000075995922, 0.06400000303983688, 1.055999994277954, 0.0, 0.0, 0.0, 0.0, 0.0, 1.6203974174437313E9, 2021-05-07 16:23:37.443
80.0, -168.99111938476562, -153.69679260253906, 247.04095458984375, -48.10820388793945, 0.01600000075995922, 0.06400000303983688, 1.055999994277954, 0.0, 0.0, 0.0, 0.0, 0.0, 1.6203974174444633E9, 2021-05-07 16:23:37.444
80.0, -169.89991760253906, -152.1484832763672, 249.72994995117188, -44.12520980834961, 0.01600000075995922, 0.06400000303983688, 1.055999994277954, 0.0, 0.0, 0.0, 0.0, 0.0, 1.6203974174444633E9, 2021-05-07 16:23:37.444
81.0, -168.0860595703125, -157.13377380371094, 257.1387023925781, -49.447086334228516, 0.01600000075995922, 0.06400000303983688, 1.055999994277954, 0.0, 0.0, 0.0, 0.0, 0.0, 1.620397417445214E9, 2021-05-07 16:23:37.445
81.0, -175.7191925048828, -163.31582641601562, 253.73538208007812, -66.35143280029297, 0.01600000075995922, 0.06400000303983688, 1.055999994277954, 0.0, 0.0, 0.0, 0.0, 0.0, 1.620397417445214E9, 2021-05-07 16:23:37.445
82.0, -172.77963256835938, -150.73106384277344, 249.0642547607422, -60.289058685302734, 0.01600000075995922, 0.06400000303983688, 1.055999994277954, 0.0, 0.0, 0.0, 0.0, 0.0, 1.6203974174576435E9, 2021-05-07 16:23:37.457
82.0, -182.68663024902344, -157.72093200683594, 241.79762268066406, -69.24237823486328, 0.01600000075995922, 0.06400000303983688, 1.055999994277954, 0.0, 0.0, 0.0, 0.0, 0.0, 1.6203974174576435E9, 2021-05-07 16:23:37.457
83.0, -168.37777709960938, -144.23858642578125, 267.69268798828125, -43.8222770690918, 0.01600000075995922, 0.06400000303983688, 1.055999994277954, 0.0, 0.0, 0.0, 0.0, 0.0, 1.6203974174732897E9, 2021-05-07 16:23:37.473
83.0, -166.2983856201172, -145.7943878173828, 254.4123077392578, -48.90480041503906, 0.01600000075995922, 0.06400000303983688, 1.055999994277954, 0.0, 0.0, 0.0, 0.0, 0.0, 1.6203974174732897E9, 2021-05-07 16:23:37.473
84.0, -170.4646453857422, -153.2592315673828, 242.47080993652344, -46.41776657104492, 0.01600000075995922, 0.06400000303983688, 1.055999994277954, 0.0, 0.0, 0.0, 0.0, 0.0, 1.6203974174738348E9, 2021-05-07 16:23:37.473
84.0, -183.84600830078125, -156.78594970703125, 237.93057250976562, -49.301231384277344, 0.01600000075995922, 0.06400000303983688, 1.055999994277954, 0.0, 0.0, 0.0, 0.0, 0.0, 1.6203974174738348E9, 2021-05-07 16:23:37.473
85.0, -179.94154357910156, -167.2726287841797, 242.2351837158203, -54.181800842285156, 0.01600000075995922, 0.06400000303983688, 1.055999994277954, 0.0, 0.0, 0.0, 0.0, 0.0, 1.6203974175036204E9, 2021-05-07 16:23:37.503
85.0, -170.95082092285156, -160.750244140625, 243.6301727294922, -43.40340805053711, 0.01600000075995922, 0.06400000303983688, 1.055999994277954, 0.0, 0.0, 0.0, 0.0, 0.0, 1.6203974175036204E9, 2021-05-07 16:23:37.503
86.0, -165.0380401611328, -156.02674865722656, 248.3386993408203, -33.556251525878906, 0.01600000075995922, 0.06400000303983688, 1.055999994277954, 0.0, 0.0, 0.0, 0.0, 0.0, 1.6203974175043542E9, 2021-05-07 16:23:37.504
86.0, -168.83778381347656, -157.1898651123047, 248.46212768554688, -38.002994537353516, 0.01600000075995922, 0.06400000303983688, 1.055999994277954, 0.0, 0.0, 0.0, 0.0, 0.0, 1.6203974175043542E9, 2021-05-07 16:23:37.504
87.0, -172.55523681640625, -161.31497192382812, 248.6079864501953, -36.21906280517578, 0.01600000075995922, 0.06400000303983688, 1.055999994277954, 0.0, 0.0, 0.0, 0.0, 0.0, 1.6203974175346534E9, 2021-05-07 16:23:37.534
87.0, -169.08836364746094, -158.03134155273438, 248.9782257080078, -36.86232376098633, 0.01600000075995922, 0.06400000303983688, 1.055999994277954, 0.0, 0.0, 0.0, 0.0, 0.0, 1.6203974175346534E9, 2021-05-07 16:23:37.534
88.0, -175.62196350097656, -161.88717651367188, 239.10488891601562, -43.23137283325195, 0.01600000075995922, 0.06400000303983688, 1.055999994277954, 0.0, 0.0, 0.0, 0.0, 0.0, 1.6203974175352287E9, 2021-05-07 16:23:37.535
88.0, -169.74658203125, -151.31822204589844, 246.9063262939453, -38.807071685791016, 0.01600000075995922, 0.06400000303983688, 1.055999994277954, 0.0, 0.0, 0.0, 0.0, 0.0, 1.6203974175352287E9, 2021-05-07 16:23:37.535
89.0, -175.932373046875, -154.20916748046875, 248.65660095214844, -43.7624397277832, 0.01600000075995922, 0.06400000303983688, 1.055999994277954, 0.0, 0.0, 0.0, 0.0, 0.0, 1.6203974175359693E9, 2021-05-07 16:23:37.535
89.0, -171.59408569335938, -152.21205139160156, 252.61341857910156, -40.31051254272461, 0.01600000075995922, 0.06400000303983688, 1.055999994277954, 0.0, 0.0, 0.0, 0.0, 0.0, 1.6203974175359693E9, 2021-05-07 16:23:37.535
90.0, -169.24169921875, -160.2827606201172, 245.75070190429688, -52.65966033935547, 0.01600000075995922, 0.06400000303983688, 1.055999994277954, 0.0, 0.0, 0.0, 0.0, 0.0, 1.6203974175368109E9, 2021-05-07 16:23:37.536
90.0, -167.06881713867188, -156.6027069091797, 249.49807739257812, -49.316192626953125, 0.01600000075995922, 0.06400000303983688, 1.055999994277954, 0.0, 0.0, 0.0, 0.0, 0.0, 1.6203974175368109E9, 2021-05-07 16:23:37.536
91.0, -183.2588348388672, -155.55926513671875, 253.1444854736328, -49.682701110839844, 0.01600000075995922, 0.06400000303983688, 1.055999994277954, 0.0, 0.0, 0.0, 0.0, 0.0, 1.6203974175475E9, 2021-05-07 16:23:37.547
91.0, -160.01910400390625, -144.04037475585938, 260.5868835449219, -44.51041793823242, 0.01600000075995922, 0.06400000303983688, 1.055999994277954, 0.0, 0.0, 0.0, 0.0, 0.0, 1.6203974175475E9, 2021-05-07 16:23:37.547
92.0, -174.7019500732422, -144.822021484375, 251.20347595214844, -48.91602325439453, 0.01600000075995922, 0.06400000303983688, 1.055999994277954, 0.0, 0.0, 0.0, 0.0, 0.0, 1.6203974175631368E9, 2021-05-07 16:23:37.563
92.0, -176.98329162597656, -149.20892333984375, 248.02455139160156, -55.5057258605957, 0.01600000075995922, 0.06400000303983688, 1.055999994277954, 0.0, 0.0, 0.0, 0.0, 0.0, 1.6203974175631368E9, 2021-05-07 16:23:37.563
93.0, -170.83114624023438, -144.39566040039062, 258.64959716796875, -53.792850494384766, 0.01600000075995922, 0.06400000303983688, 1.055999994277954, 0.0, 0.0, 0.0, 0.0, 0.0, 1.6203974175639648E9, 2021-05-07 16:23:37.563
93.0, -171.11912536621094, -139.4328155517578, 253.40626525878906, -52.13981628417969, 0.01600000075995922, 0.06400000303983688, 1.055999994277954, 0.0, 0.0, 0.0, 0.0, 0.0, 1.6203974175639648E9, 2021-05-07 16:23:37.563
94.0, -170.8087158203125, -157.55638122558594, 243.27862548828125, -54.57823181152344, 0.01600000075995922, 0.06400000303983688, 1.055999994277954, 0.0, 0.0, 0.0, 0.0, 0.0, 1.6203974175774305E9, 2021-05-07 16:23:37.577
94.0, -179.1898193359375, -165.65699768066406, 237.35836791992188, -60.49849319458008, 0.01600000075995922, 0.06400000303983688, 1.055999994277954, 0.0, 0.0, 0.0, 0.0, 0.0, 1.6203974175774305E9, 2021-05-07 16:23:37.577
95.0, -173.4640350341797, -151.02276611328125, 250.72476196289062, -44.9068489074707, 0.01600000075995922, 0.06400000303983688, 1.055999994277954, 0.0, 0.0, 0.0, 0.0, 0.0, 1.6203974175932183E9, 2021-05-07 16:23:37.593
95.0, -182.8137969970703, -162.20132446289062, 235.30142211914062, -51.399314880371094, 0.01600000075995922, 0.06400000303983688, 1.055999994277954, 0.0, 0.0, 0.0, 0.0, 0.0, 1.6203974175932183E9, 2021-05-07 16:23:37.593
96.0, -172.22987365722656, -164.54251098632812, 231.55776977539062, -47.82023239135742, 0.01600000075995922, 0.06400000303983688, 1.055999994277954, 0.0, 0.0, 0.0, 0.0, 0.0, 1.6203974175938735E9, 2021-05-07 16:23:37.593
96.0, -175.49481201171875, -164.576171875, 232.85177612304688, -43.0593376159668, 0.01600000075995922, 0.06400000303983688, 1.055999994277954, 0.0, 0.0, 0.0, 0.0, 0.0, 1.6203974175938735E9, 2021-05-07 16:23:37.593
97.0, -171.5753936767578, -169.63999938964844, 235.72776794433594, -46.361671447753906, 0.01600000075995922, 0.06400000303983688, 1.055999994277954, 0.0, 0.0, 0.0, 0.0, 0.0, 1.6203974176074743E9, 2021-05-07 16:23:37.607
97.0, -156.19691467285156, -153.5023193359375, 256.5440368652344, -32.34452438354492, 0.01600000075995922, 0.06400000303983688, 1.055999994277954, 0.0, 0.0, 0.0, 0.0, 0.0, 1.6203974176074743E9, 2021-05-07 16:23:37.607
98.0, -155.17967224121094, -148.52452087402344, 253.45863342285156, -21.9663028717041, 0.01600000075995922, 0.06400000303983688, 1.055999994277954, 0.0, 0.0, 0.0, 0.0, 0.0, 1.6203974176231236E9, 2021-05-07 16:23:37.623
98.0, -179.54885864257812, -170.02894592285156, 236.8459930419922, -51.171180725097656, 0.01600000075995922, 0.06400000303983688, 1.055999994277954, 0.0, 0.0, 0.0, 0.0, 0.0, 1.6203974176231236E9, 2021-05-07 16:23:37.623
99.0, -158.49696350097656, -154.1829833984375, 261.9631652832031, -40.66954040527344, 0.01600000075995922, 0.06400000303983688, 1.055999994277954, 0.0, 0.0, 0.0, 0.0, 0.0, 1.6203974176238763E9, 2021-05-07 16:23:37.623
99.0, -170.58058166503906, -166.11326599121094, 254.34124755859375, -50.75605392456055, 0.01600000075995922, 0.06400000303983688, 1.055999994277954, 0.0, 0.0, 0.0, 0.0, 0.0, 1.6203974176238763E9, 2021-05-07 16:23:37.623
100.0, -167.38296508789062, -151.57254028320312, 249.38961791992188, -47.300384521484375, 0.01600000075995922, 0.06400000303983688, 1.055999994277954, 0.0, 0.0, 0.0, 0.0, 0.0, 1.6203974176381872E9, 2021-05-07 16:23:37.638
100.0, -168.6021728515625, -158.27818298339844, 248.8884735107422, -59.97864532470703, 0.01600000075995922, 0.06400000303983688, 1.055999994277954, 0.0, 0.0, 0.0, 0.0, 0.0, 1.6203974176381872E9, 2021-05-07 16:23:37.638
0.0, -158.62037658691406, -147.75035095214844, 262.6232604980469, -42.969581604003906, 0.01600000075995922, 0.06400000303983688, 1.055999994277954, 0.0, 0.0, 0.0, 0.0, 0.0, 1.6203974176387684E9, 2021-05-07 16:23:37.638
1.0, -171.15652465820312, -147.64190673828125, 253.79708862304688, -46.713218688964844, 0.01600000075995922, 0.06400000303983688, 1.055999994277954, 0.0, 0.0, 0.0, 0.0, 0.0, 1.6203974176525357E9, 2021-05-07 16:23:37.652
1.0, -171.63522338867188, -144.59388732910156, 246.02557373046875, -48.444793701171875, 0.01600000075995922, 0.06400000303983688, 1.055999994277954, 0.0, 0.0, 0.0, 0.0, 0.0, 1.6203974176525357E9, 2021-05-07 16:23:37.652
2.0, -174.55235290527344, -144.17127990722656, 250.6855010986328, -48.84870147705078, 0.01600000075995922, 0.06400000303983688, 1.055999994277954, 0.0, 0.0, 0.0, 0.0, 0.0, 1.6203974176681461E9, 2021-05-07 16:23:37.668
2.0, -183.50193786621094, -155.39471435546875, 246.979248046875, -56.38833999633789, 0.01600000075995922, 0.06400000303983688, 1.055999994277954, 0.0, 0.0, 0.0, 0.0, 0.0, 1.6203974176681461E9, 2021-05-07 16:23:37.668
3.0, -167.68589782714844, -149.12289428710938, 254.29823303222656, -29.105772018432617, 0.01600000075995922, 0.06400000303983688, 1.055999994277954, 0.0, 0.0, 0.0, 0.0, 0.0, 1.6203974176688163E9, 2021-05-07 16:23:37.668
3.0, -176.47091674804688, -152.16343688964844, 249.49246215820312, -35.88621139526367, 0.01600000075995922, 0.06400000303983688, 1.055999994277954, 0.0, 0.0, 0.0, 0.0, 0.0, 1.6203974176688163E9, 2021-05-07 16:23:37.668
4.0, -177.40589904785156, -159.35153198242188, 238.86741638183594, -43.4408073425293, 0.01600000075995922, 0.06400000303983688, 1.055999994277954, 0.0, 0.0, 0.0, 0.0, 0.0, 1.62039741768245E9, 2021-05-07 16:23:37.682
4.0, -184.29852294921875, -160.2416229248047, 245.61793518066406, -42.6367301940918, 0.01600000075995922, 0.06400000303983688, 1.055999994277954, 0.0, 0.0, 0.0, 0.0, 0.0, 1.62039741768245E9, 2021-05-07 16:23:37.682
5.0, -171.42579650878906, -162.3658905029297, 247.67112731933594, -33.268280029296875, 0.01600000075995922, 0.06400000303983688, 1.055999994277954, 0.0, 0.0, 0.0, 0.0, 0.0, 1.6203974176980731E9, 2021-05-07 16:23:37.698
5.0, -172.24856567382812, -166.5695343017578, 242.21087646484375, -36.10312271118164, 0.01600000075995922, 0.06400000303983688, 1.055999994277954, 0.0, 0.0, 0.0, 0.0, 0.0, 1.6203974176980731E9, 2021-05-07 16:23:37.698
6.0, -180.2220458984375, -170.90782165527344, 236.23452758789062, -39.614891052246094, 0.01600000075995922, 0.06400000303983688, 1.055999994277954, 0.0, 0.0, 0.0, 0.0, 0.0, 1.6203974176988404E9, 2021-05-07 16:23:37.698
6.0, -168.52737426757812, -167.7064666748047, 243.74049377441406, -37.423309326171875, 0.01600000075995922, 0.06400000303983688, 1.055999994277954, 0.0, 0.0, 0.0, 0.0, 0.0, 1.6203974176988404E9, 2021-05-07 16:23:37.698
7.0, -171.0966796875, -168.5591583251953, 246.92689514160156, -31.54792594909668, 0.01600000075995922, 0.06400000303983688, 1.055999994277954, 0.0, 0.0, 0.0, 0.0, 0.0, 1.6203974177124841E9, 2021-05-07 16:23:37.712
7.0, -174.88894653320312, -171.10977172851562, 239.95945739746094, -38.964149475097656, 0.01600000075995922, 0.06400000303983688, 1.055999994277954, 0.0, 0.0, 0.0, 0.0, 0.0, 1.6203974177124841E9, 2021-05-07 16:23:37.712
8.0, -178.9467315673828, -165.18577575683594, 243.5572509765625, -41.55963897705078, 0.01600000075995922, 0.06400000303983688, 1.055999994277954, 0.0, 0.0, 0.0, 0.0, 0.0, 1.6203974177279768E9, 2021-05-07 16:23:37.727
8.0, -190.43569946289062, -172.81517028808594, 245.13174438476562, -43.75495910644531, 0.01600000075995922, 0.06400000303983688, 1.055999994277954, 0.0, 0.0, 0.0, 0.0, 0.0, 1.6203974177279768E9, 2021-05-07 16:23:37.727
9.0, -184.16015625, -167.25393676757812, 246.6950225830078, -50.105308532714844, 0.01600000075995922, 0.06400000303983688, 1.055999994277954, 0.0, 0.0, 0.0, 0.0, 0.0, 1.620397417743494E9, 2021-05-07 16:23:37.743
9.0, -171.93067932128906, -156.04171752929688, 253.32212829589844, -45.9989013671875, 0.01600000075995922, 0.06400000303983688, 1.055999994277954, 0.0, 0.0, 0.0, 0.0, 0.0, 1.620397417743494E9, 2021-05-07 16:23:37.743
10.0, -192.69834899902344, -172.13450622558594, 242.20339965820312, -63.64000701904297, 0.01600000075995922, 0.06400000303983688, 1.055999994277954, 0.0, 0.0, 0.0, 0.0, 0.0, 1.6203974177589056E9, 2021-05-07 16:23:37.758
10.0, -181.1121368408203, -166.63311767578125, 255.03500366210938, -57.91796112060547, 0.01600000075995922, 0.06400000303983688, 1.055999994277954, 0.0, 0.0, 0.0, 0.0, 0.0, 1.6203974177589056E9, 2021-05-07 16:23:37.758
11.0, -185.62619018554688, -161.19155883789062, 249.1446533203125, -56.85956954956055, 0.01600000075995922, 0.06400000303983688, 1.055999994277954, 0.0, 0.0, 0.0, 0.0, 0.0, 1.6203974177595696E9, 2021-05-07 16:23:37.759
11.0, -181.17572021484375, -165.73179626464844, 236.4701385498047, -63.46049118041992, 0.01600000075995922, 0.06400000303983688, 1.055999994277954, 0.0, 0.0, 0.0, 0.0, 0.0, 1.6203974177595696E9, 2021-05-07 16:23:37.759
12.0, -179.4965057373047, -166.689208984375, 234.92555236816406, -61.20907211303711, 0.01600000075995922, 0.06400000303983688, 1.055999994277954, 0.0, 0.0, 0.0, 0.0, 0.0, 1.6203974177603035E9, 2021-05-07 16:23:37.760
12.0, -194.1195068359375, -177.4264678955078, 230.64337158203125, -66.06346130371094, 0.01600000075995922, 0.06400000303983688, 1.055999994277954, 0.0, 0.0, 0.0, 0.0, 0.0, 1.6203974177603035E9, 2021-05-07 16:23:37.760
13.0, -173.71087646484375, -161.40098571777344, 245.72264099121094, -52.46892547607422, 0.01600000075995922, 0.06400000303983688, 1.055999994277954, 0.0, 0.0, 0.0, 0.0, 0.0, 1.6203974177725635E9, 2021-05-07 16:23:37.772
13.0, -170.82366943359375, -164.00396728515625, 236.78802490234375, -61.49704360961914, 0.01600000075995922, 0.06400000303983688, 1.055999994277954, 0.0, 0.0, 0.0, 0.0, 0.0, 1.6203974177725635E9, 2021-05-07 16:23:37.772
14.0, -182.5819091796875, -172.8076934814453, 232.1056671142578, -68.58789825439453, 0.01600000075995922, 0.06400000303983688, 1.055999994277954, 0.0, 0.0, 0.0, 0.0, 0.0, 1.620397417788164E9, 2021-05-07 16:23:37.788
14.0, -176.63922119140625, -166.524658203125, 239.97442626953125, -56.10411071777344, 0.01600000075995922, 0.06400000303983688, 1.055999994277954, 0.0, 0.0, 0.0, 0.0, 0.0, 1.620397417788164E9, 2021-05-07 16:23:37.788
15.0, -174.1933135986328, -172.47109985351562, 243.23561096191406, -52.416568756103516, 0.01600000075995922, 0.06400000303983688, 1.055999994277954, 0.0, 0.0, 0.0, 0.0, 0.0, 1.620397417788936E9, 2021-05-07 16:23:37.788
15.0, -170.7713165283203, -168.28988647460938, 233.8896026611328, -48.254058837890625, 0.01600000075995922, 0.06400000303983688, 1.055999994277954, 0.0, 0.0, 0.0, 0.0, 0.0, 1.620397417788936E9, 2021-05-07 16:23:37.788
16.0, -176.12684631347656, -173.74639892578125, 235.21353149414062, -49.877174377441406, 0.01600000075995922, 0.06400000303983688, 1.055999994277954, 0.0, 0.0, 0.0, 0.0, 0.0, 1.6203974178025424E9, 2021-05-07 16:23:37.802
16.0, -177.05809020996094, -177.1272735595703, 238.10072326660156, -52.61852264404297, 0.01600000075995922, 0.06400000303983688, 1.055999994277954, 0.0, 0.0, 0.0, 0.0, 0.0, 1.6203974178025424E9, 2021-05-07 16:23:37.802
17.0, -174.67576599121094, -174.50559997558594, 243.32911682128906, -48.84870147705078, 0.01600000075995922, 0.06400000303983688, 1.055999994277954, 0.0, 0.0, 0.0, 0.0, 0.0, 1.620397417818198E9, 2021-05-07 16:23:37.818
17.0, -167.94395446777344, -167.2427215576172, 236.39907836914062, -40.516204833984375, 0.01600000075995922, 0.06400000303983688, 1.055999994277954, 0.0, 0.0, 0.0, 0.0, 0.0, 1.620397417818198E9, 2021-05-07 16:23:37.818
18.0, -166.78457641601562, -150.00926208496094, 257.60430908203125, -30.627910614013672, 0.01600000075995922, 0.06400000303983688, 1.055999994277954, 0.0, 0.0, 0.0, 0.0, 0.0, 1.620397417818834E9, 2021-05-07 16:23:37.818
18.0, -178.5989227294922, -172.13076782226562, 247.48788452148438, -47.831451416015625, 0.01600000075995922, 0.06400000303983688, 1.055999994277954, 0.0, 0.0, 0.0, 0.0, 0.0, 1.620397417818834E9, 2021-05-07 16:23:37.818
19.0, -180.4239959716797, -168.18142700195312, 244.361328125, -48.411136627197266, 0.01600000075995922, 0.06400000303983688, 1.055999994277954, 0.0, 0.0, 0.0, 0.0, 0.0, 1.620397417832451E9, 2021-05-07 16:23:37.832
19.0, -178.51290893554688, -168.7723388671875, 240.8794708251953, -47.95486831665039, 0.01600000075995922, 0.06400000303983688, 1.055999994277954, 0.0, 0.0, 0.0, 0.0, 0.0, 1.620397417832451E9, 2021-05-07 16:23:37.832
20.0, -169.7316131591797, -162.36962890625, 251.8673095703125, -48.25779724121094, 0.01600000075995922, 0.06400000303983688, 1.055999994277954, 0.0, 0.0, 0.0, 0.0, 0.0, 1.6203974178639092E9, 2021-05-07 16:23:37.863
20.0, -188.52835083007812, -170.02146911621094, 250.4498748779297, -50.33718490600586, 0.01600000075995922, 0.06400000303983688, 1.055999994277954, 0.0, 0.0, 0.0, 0.0, 0.0, 1.6203974178639092E9, 2021-05-07 16:23:37.863
21.0, -178.3894805908203, -162.3733673095703, 253.423095703125, -50.5466194152832, 0.01600000075995922, 0.06400000303983688, 1.055999994277954, 0.0, 0.0, 0.0, 0.0, 0.0, 1.6203974178645313E9, 2021-05-07 16:23:37.864
21.0, -173.1012725830078, -155.0281982421875, 255.06117248535156, -42.84990310668945, 0.01600000075995922, 0.06400000303983688, 1.055999994277954, 0.0, 0.0, 0.0, 0.0, 0.0, 1.6203974178645313E9, 2021-05-07 16:23:37.864
22.0, -175.40130615234375, -152.369140625, 257.91473388671875, -41.94858932495117, 0.01600000075995922, 0.06400000303983688, 1.055999994277954, 0.0, 0.0, 0.0, 0.0, 0.0, 1.620397417865296E9, 2021-05-07 16:23:37.865
22.0, -182.552001953125, -170.39170837402344, 249.12596130371094, -55.214012145996094, 0.01600000075995922, 0.06400000303983688, 1.055999994277954, 0.0, 0.0, 0.0, 0.0, 0.0, 1.620397417865296E9, 2021-05-07 16:23:37.865
23.0, -173.69216918945312, -163.61875915527344, 249.6869354248047, -57.79080581665039, 0.01600000075995922, 0.06400000303983688, 1.055999994277954, 0.0, 0.0, 0.0, 0.0, 0.0, 1.6203974178781085E9, 2021-05-07 16:23:37.878
23.0, -173.33688354492188, -163.70851135253906, 236.14102172851562, -63.24357986450195, 0.01600000075995922, 0.06400000303983688, 1.055999994277954, 0.0, 0.0, 0.0, 0.0, 0.0, 1.6203974178781085E9, 2021-05-07 16:23:37.878
24.0, -179.30577087402344, -172.55711364746094, 235.55760192871094, -74.66522979736328, 0.01600000075995922, 0.06400000303983688, 1.055999994277954, 0.0, 0.0, 0.0, 0.0, 0.0, 1.6203974178787923E9, 2021-05-07 16:23:37.878
24.0, -175.6481475830078, -162.3658905029297, 247.14381408691406, -63.539031982421875, 0.01600000075995922, 0.06400000303983688, 1.055999994277954, 0.0, 0.0, 0.0, 0.0, 0.0, 1.6203974178787923E9, 2021-05-07 16:23:37.878
25.0, -182.43606567382812, -170.10000610351562, 240.94679260253906, -66.0709457397461, 0.01600000075995922, 0.06400000303983688, 1.055999994277954, 0.0, 0.0, 0.0, 0.0, 0.0, 1.6203974178924782E9, 2021-05-07 16:23:37.892
25.0, -172.46922302246094, -157.9528045654297, 241.50030517578125, -53.403900146484375, 0.01600000075995922, 0.06400000303983688, 1.055999994277954, 0.0, 0.0, 0.0, 0.0, 0.0, 1.6203974178924782E9, 2021-05-07 16:23:37.892
26.0, -166.1375732421875, -151.99514770507812, 249.16709899902344, -51.28337860107422, 0.01600000075995922, 0.06400000303983688, 1.055999994277954, 0.0, 0.0, 0.0, 0.0, 0.0, 1.620397417908132E9, 2021-05-07 16:23:37.908
26.0, -185.40928649902344, -165.30545043945312, 246.32102966308594, -57.042823791503906, 0.01600000075995922, 0.06400000303983688, 1.055999994277954, 0.0, 0.0, 0.0, 0.0, 0.0, 1.620397417908132E9, 2021-05-07 16:23:37.908
27.0, -178.41192626953125, -169.17623901367188, 247.92544555664062, -54.903602600097656, 0.01600000075995922, 0.06400000303983688, 1.055999994277954, 0.0, 0.0, 0.0, 0.0, 0.0, 1.6203974179088182E9, 2021-05-07 16:23:37.908
27.0, -175.2891082763672, -162.86329650878906, 250.31524658203125, -56.36216354370117, 0.01600000075995922, 0.06400000303983688, 1.055999994277954, 0.0, 0.0, 0.0, 0.0, 0.0, 1.6203974179088182E9, 2021-05-07 16:23:37.908
28.0, -171.27993774414062, -172.43743896484375, 252.46568298339844, -55.97321319580078, 0.01600000075995922, 0.06400000303983688, 1.055999994277954, 0.0, 0.0, 0.0, 0.0, 0.0, 1.6203974179224708E9, 2021-05-07 16:23:37.922
28.0, -174.63462829589844, -166.1469268798828, 257.91845703125, -50.9467887878418, 0.01600000075995922, 0.06400000303983688, 1.055999994277954, 0.0, 0.0, 0.0, 0.0, 0.0, 1.6203974179224708E9, 2021-05-07 16:23:37.922
29.0, -187.0922393798828, -175.5415496826172, 242.0986785888672, -66.23175811767578, 0.01600000075995922, 0.06400000303983688, 1.055999994277954, 0.0, 0.0, 0.0, 0.0, 0.0, 1.6203974179381013E9, 2021-05-07 16:23:37.938
29.0, -174.01380920410156, -168.28614807128906, 236.84413146972656, -66.29159545898438, 0.01600000075995922, 0.06400000303983688, 1.055999994277954, 0.0, 0.0, 0.0, 0.0, 0.0, 1.6203974179381013E9, 2021-05-07 16:23:37.938
30.0, -170.75634765625, -151.92034912109375, 248.15357971191406, -54.42863464355469, 0.01600000075995922, 0.06400000303983688, 1.055999994277954, 0.0, 0.0, 0.0, 0.0, 0.0, 1.620397417938804E9, 2021-05-07 16:23:37.938
30.0, -187.36151123046875, -162.9530487060547, 248.67343139648438, -65.2706069946289, 0.01600000075995922, 0.06400000303983688, 1.055999994277954, 0.0, 0.0, 0.0, 0.0, 0.0, 1.620397417938804E9, 2021-05-07 16:23:37.938
31.0, -176.17921447753906, -146.6732635498047, 256.8862609863281, -56.12281036376953, 0.01600000075995922, 0.06400000303983688, 1.055999994277954, 0.0, 0.0, 0.0, 0.0, 0.0, 1.6203974179688497E9, 2021-05-07 16:23:37.968
31.0, -187.129638671875, -156.16513061523438, 242.40908813476562, -51.10386276245117, 0.01600000075995922, 0.06400000303983688, 1.055999994277954, 0.0, 0.0, 0.0, 0.0, 0.0, 1.6203974179688497E9, 2021-05-07 16:23:37.968
32.0, -185.79449462890625, -150.5290985107422, 252.89578247070312, -48.403656005859375, 0.01600000075995922, 0.06400000303983688, 1.055999994277954, 0.0, 0.0, 0.0, 0.0, 0.0, 1.620397417969568E9, 2021-05-07 16:23:37.969
32.0, -190.8470916748047, -161.430908203125, 249.95620727539062, -49.45830535888672, 0.01600000075995922, 0.06400000303983688, 1.055999994277954, 0.0, 0.0, 0.0, 0.0, 0.0, 1.620397417969568E9, 2021-05-07 16:23:37.969
33.0, -189.01080322265625, -163.56639099121094, 244.88865661621094, -51.11134338378906, 0.01600000075995922, 0.06400000303983688, 1.055999994277954, 0.0, 0.0, 0.0, 0.0, 0.0, 1.6203974179703698E9, 2021-05-07 16:23:37.970
33.0, -186.46392822265625, -163.49159240722656, 239.6116485595703, -47.65193557739258, 0.01600000075995922, 0.06400000303983688, 1.055999994277954, 0.0, 0.0, 0.0, 0.0, 0.0, 1.6203974179703698E9, 2021-05-07 16:23:37.970
34.0, -182.39866638183594, -171.61465454101562, 240.0267791748047, -58.763179779052734, 0.01600000075995922, 0.06400000303983688, 1.055999994277954, 0.0, 0.0, 0.0, 0.0, 0.0, 1.620397417982437E9, 2021-05-07 16:23:37.982
34.0, -185.31204223632812, -181.9928741455078, 236.57484436035156, -56.58281707763672, 0.01600000075995922, 0.06400000303983688, 1.055999994277954, 0.0, 0.0, 0.0, 0.0, 0.0, 1.620397417982437E9, 2021-05-07 16:23:37.982
35.0, -191.44921875, -177.95753479003906, 236.9002227783203, -60.64060592651367, 0.01600000075995922, 0.06400000303983688, 1.055999994277954, 0.0, 0.0, 0.0, 0.0, 0.0, 1.6203974179981863E9, 2021-05-07 16:23:37.998
35.0, -171.02935791015625, -165.05113220214844, 248.69212341308594, -44.65253448486328, 0.01600000075995922, 0.06400000303983688, 1.055999994277954, 0.0, 0.0, 0.0, 0.0, 0.0, 1.6203974179981863E9, 2021-05-07 16:23:37.998
36.0, -175.3900909423828, -165.3241424560547, 245.9171142578125, -44.637577056884766, 0.01600000075995922, 0.06400000303983688, 1.055999994277954, 0.0, 0.0, 0.0, 0.0, 0.0, 1.620397417998845E9, 2021-05-07 16:23:37.998
36.0, -178.7223358154297, -176.71961975097656, 254.75823974609375, -45.63612747192383, 0.01600000075995922, 0.06400000303983688, 1.055999994277954, 0.0, 0.0, 0.0, 0.0, 0.0, 1.620397417998845E9, 2021-05-07 16:23:37.998
37.0, -178.20249938964844, -162.36215209960938, 254.4403533935547, -36.660369873046875, 0.01600000075995922, 0.06400000303983688, 1.055999994277954, 0.0, 0.0, 0.0, 0.0, 0.0, 1.6203974180124242E9, 2021-05-07 16:23:38.012
37.0, -171.20140075683594, -157.13751220703125, 248.20594787597656, -35.25790786743164, 0.01600000075995922, 0.06400000303983688, 1.055999994277954, 0.0, 0.0, 0.0, 0.0, 0.0, 1.6203974180124242E9, 2021-05-07 16:23:38.012
38.0, -181.03733825683594, -177.7480926513672, 243.6844024658203, -47.68559265136719, 0.01600000075995922, 0.06400000303983688, 1.055999994277954, 0.0, 0.0, 0.0, 0.0, 0.0, 1.62039741802817E9, 2021-05-07 16:23:38.028
38.0, -184.97171020507812, -172.8787384033203, 255.52867126464844, -45.02278518676758, 0.01600000075995922, 0.06400000303983688, 1.055999994277954, 0.0, 0.0, 0.0, 0.0, 0.0, 1.62039741802817E9, 2021-05-07 16:23:38.028
39.0, -179.91162109375, -164.23583984375, 255.4202117919922, -46.0512580871582, 0.01600000075995922, 0.06400000303983688, 1.055999994277954, 0.0, 0.0, 0.0, 0.0, 0.0, 1.6203974180288904E9, 2021-05-07 16:23:38.028
39.0, -178.66250610351562, -166.21798706054688, 246.73989868164062, -57.97779846191406, 0.01600000075995922, 0.06400000303983688, 1.055999994277954, 0.0, 0.0, 0.0, 0.0, 0.0, 1.6203974180288904E9, 2021-05-07 16:23:38.028
40.0, -171.03684997558594, -157.7508544921875, 254.05514526367188, -59.45505905151367, 0.01600000075995922, 0.06400000303983688, 1.055999994277954, 0.0, 0.0, 0.0, 0.0, 0.0, 1.6203974180426595E9, 2021-05-07 16:23:38.042
40.0, -178.3446044921875, -161.35610961914062, 259.22369384765625, -58.164794921875, 0.01600000075995922, 0.06400000303983688, 1.055999994277954, 0.0, 0.0, 0.0, 0.0, 0.0, 1.6203974180426595E9, 2021-05-07 16:23:38.042
41.0, -189.31373596191406, -173.04330444335938, 239.54806518554688, -66.72168731689453, 0.01600000075995922, 0.08000000566244125, 1.055999994277954, 0.0, 0.0, 0.0, 0.0, 0.0, 1.6203974180581772E9, 2021-05-07 16:23:38.058
41.0, -169.89244079589844, -156.1875762939453, 251.78875732421875, -53.17576599121094, 0.01600000075995922, 0.08000000566244125, 1.055999994277954, 0.0, 0.0, 0.0, 0.0, 0.0, 1.6203974180581772E9, 2021-05-07 16:23:38.058
42.0, -183.46827697753906, -163.7159881591797, 242.8279571533203, -57.29713821411133, 0.01600000075995922, 0.08000000566244125, 1.055999994277954, 0.0, 0.0, 0.0, 0.0, 0.0, 1.620397418058862E9, 2021-05-07 16:23:38.058
42.0, -182.974609375, -161.83856201171875, 248.1199188232422, -51.22727966308594, 0.01600000075995922, 0.08000000566244125, 1.055999994277954, 0.0, 0.0, 0.0, 0.0, 0.0, 1.620397418058862E9, 2021-05-07 16:23:38.058
43.0, -193.3191680908203, -179.80877685546875, 238.14561462402344, -56.470619201660156, 0.01600000075995922, 0.08000000566244125, 1.055999994277954, 0.0, 0.0, 0.0, 0.0, 0.0, 1.6203974180725708E9, 2021-05-07 16:23:38.072
43.0, -174.5261688232422, -165.52610778808594, 239.66775512695312, -44.45806121826172, 0.01600000075995922, 0.08000000566244125, 1.055999994277954, 0.0, 0.0, 0.0, 0.0, 0.0, 1.6203974180725708E9, 2021-05-07 16:23:38.072
44.0, -181.45620727539062, -168.2711944580078, 239.29750061035156, -40.54612350463867, 0.01600000075995922, 0.08000000566244125, 1.055999994277954, 0.0, 0.0, 0.0, 0.0, 0.0, 1.620397418088168E9, 2021-05-07 16:23:38.088
44.0, -177.76866149902344, -168.86209106445312, 247.3158416748047, -42.18794250488281, 0.01600000075995922, 0.08000000566244125, 1.055999994277954, 0.0, 0.0, 0.0, 0.0, 0.0, 1.620397418088168E9, 2021-05-07 16:23:38.088
45.0, -188.80885314941406, -165.91131591796875, 237.68186950683594, -42.158023834228516, 0.01600000075995922, 0.08000000566244125, 1.055999994277954, 0.0, 0.0, 0.0, 0.0, 0.0, 1.620397418088818E9, 2021-05-07 16:23:38.088
45.0, -187.8439483642578, -173.20785522460938, 229.2147216796875, -46.634681701660156, 0.01600000075995922, 0.08000000566244125, 1.055999994277954, 0.0, 0.0, 0.0, 0.0, 0.0, 1.620397418088818E9, 2021-05-07 16:23:38.088
46.0, -180.43894958496094, -164.37420654296875, 239.0170135498047, -36.9371223449707, 0.01600000075995922, 0.08000000566244125, 1.055999994277954, 0.0, 0.0, 0.0, 0.0, 0.0, 1.620397418102563E9, 2021-05-07 16:23:38.102
46.0, -178.8607177734375, -172.65809631347656, 253.7783966064453, -37.614044189453125, 0.01600000075995922, 0.08000000566244125, 1.055999994277954, 0.0, 0.0, 0.0, 0.0, 0.0, 1.620397418102563E9, 2021-05-07 16:23:38.102
47.0, -177.42832946777344, -169.3632354736328, 248.19845581054688, -44.07659149169922, 0.01600000075995922, 0.08000000566244125, 1.055999994277954, 0.0, 0.0, 0.0, 0.0, 0.0, 1.6203974181180618E9, 2021-05-07 16:23:38.118
47.0, -167.56622314453125, -157.13377380371094, 252.00193786621094, -32.86063003540039, 0.01600000075995922, 0.08000000566244125, 1.055999994277954, 0.0, 0.0, 0.0, 0.0, 0.0, 1.6203974181180618E9, 2021-05-07 16:23:38.118
48.0, -167.61109924316406, -169.70730590820312, 249.54483032226562, -41.712974548339844, 0.01600000075995922, 0.08000000566244125, 1.055999994277954, 0.0, 0.0, 0.0, 0.0, 0.0, 1.6203974181188033E9, 2021-05-07 16:23:38.118
48.0, -186.63223266601562, -178.14453125, 245.0345001220703, -59.806610107421875, 0.01600000075995922, 0.08000000566244125, 1.055999994277954, 0.0, 0.0, 0.0, 0.0, 0.0, 1.6203974181188033E9, 2021-05-07 16:23:38.118
49.0, -170.34121704101562, -164.33306884765625, 251.93087768554688, -53.17576599121094, 0.01600000075995922, 0.08000000566244125, 1.055999994277954, 0.0, 0.0, 0.0, 0.0, 0.0, 1.6203974181326027E9, 2021-05-07 16:23:38.132
49.0, -164.52194213867188, -158.76809692382812, 243.19073486328125, -58.49390411376953, 0.01600000075995922, 0.08000000566244125, 1.055999994277954, 0.0, 0.0, 0.0, 0.0, 0.0, 1.6203974181326027E9, 2021-05-07 16:23:38.132
50.0, -173.57249450683594, -163.98899841308594, 246.36964416503906, -60.67426681518555, 0.01600000075995922, 0.08000000566244125, 1.055999994277954, 0.0, 0.0, 0.0, 0.0, 0.0, 1.6203974181480584E9, 2021-05-07 16:23:38.148
50.0, -179.47779846191406, -168.15150451660156, 248.75196838378906, -71.47883605957031, 0.01600000075995922, 0.08000000566244125, 1.055999994277954, 0.0, 0.0, 0.0, 0.0, 0.0, 1.6203974181480584E9, 2021-05-07 16:23:38.148
51.0, -157.73402404785156, -148.99200439453125, 259.97540283203125, -49.90335464477539, 0.01600000075995922, 0.08000000566244125, 1.055999994277954, 0.0, 0.0, 0.0, 0.0, 0.0, 1.6203974181487675E9, 2021-05-07 16:23:38.148
51.0, -158.39971923828125, -146.58351135253906, 253.7222900390625, -49.43586730957031, 0.01600000075995922, 0.08000000566244125, 1.055999994277954, 0.0, 0.0, 0.0, 0.0, 0.0, 1.6203974181487675E9, 2021-05-07 16:23:38.148
52.0, -169.39877319335938, -160.3014678955078, 242.58486938476562, -56.653873443603516, 0.01600000075995922, 0.08000000566244125, 1.055999994277954, 0.0, 0.0, 0.0, 0.0, 0.0, 1.6203974181626513E9, 2021-05-07 16:23:38.162
52.0, -173.61737060546875, -152.8702850341797, 249.05116271972656, -54.604408264160156, 0.01600000075995922, 0.08000000566244125, 1.055999994277954, 0.0, 0.0, 0.0, 0.0, 0.0, 1.6203974181626513E9, 2021-05-07 16:23:38.162
53.0, -167.30068969726562, -163.31956481933594, 243.6395263671875, -48.83000564575195, 0.01600000075995922, 0.08000000566244125, 1.055999994277954, 0.0, 0.0, 0.0, 0.0, 0.0, 1.6203974181785767E9, 2021-05-07 16:23:38.178
53.0, -165.10162353515625, -152.76930236816406, 244.19676208496094, -44.28602600097656, 0.01600000075995922, 0.08000000566244125, 1.055999994277954, 0.0, 0.0, 0.0, 0.0, 0.0, 1.6203974181785767E9, 2021-05-07 16:23:38.178
54.0, -176.66165161132812, -158.4240264892578, 241.23851013183594, -49.29001235961914, 0.01600000075995922, 0.08000000566244125, 1.055999994277954, 0.0, 0.0, 0.0, 0.0, 0.0, 1.620397418193006E9, 2021-05-07 16:23:38.193
54.0, -179.38804626464844, -160.6230926513672, 250.76028442382812, -41.611995697021484, 0.01600000075995922, 0.08000000566244125, 1.055999994277954, 0.0, 0.0, 0.0, 0.0, 0.0, 1.620397418193006E9, 2021-05-07 16:23:38.193
55.0, -180.73440551757812, -165.53732299804688, 243.6245574951172, -44.84326934814453, 0.01600000075995922, 0.08000000566244125, 1.055999994277954, 0.0, 0.0, 0.0, 0.0, 0.0, 1.6203974182092996E9, 2021-05-07 16:23:38.209
55.0, -158.11549377441406, -142.9969482421875, 255.89891052246094, -28.30543327331543, 0.01600000075995922, 0.08000000566244125, 1.055999994277954, 0.0, 0.0, 0.0, 0.0, 0.0, 1.6203974182092996E9, 2021-05-07 16:23:38.209
56.0, -179.76202392578125, -162.63890075683594, 241.5152587890625, -44.83953094482422, 0.01600000075995922, 0.08000000566244125, 1.055999994277954, 0.0, 0.0, 0.0, 0.0, 0.0, 1.6203974182099135E9, 2021-05-07 16:23:38.209
56.0, -170.3075714111328, -159.5385284423828, 252.43202209472656, -42.2365608215332, 0.01600000075995922, 0.08000000566244125, 1.055999994277954, 0.0, 0.0, 0.0, 0.0, 0.0, 1.6203974182099135E9, 2021-05-07 16:23:38.209
57.0, -179.37681579589844, -162.54165649414062, 247.05030822753906, -45.6473503112793, 0.01600000075995922, 0.08000000566244125, 1.055999994277954, 0.0, 0.0, 0.0, 0.0, 0.0, 1.620397418223218E9, 2021-05-07 16:23:38.223
57.0, -174.12974548339844, -151.44537353515625, 246.02183532714844, -38.40316390991211, 0.01600000075995922, 0.08000000566244125, 1.055999994277954, 0.0, 0.0, 0.0, 0.0, 0.0, 1.620397418223218E9, 2021-05-07 16:23:38.223
58.0, -166.37318420410156, -156.6924591064453, 250.382568359375, -41.335243225097656, 0.01600000075995922, 0.08000000566244125, 1.055999994277954, 0.0, 0.0, 0.0, 0.0, 0.0, 1.6203974182239108E9, 2021-05-07 16:23:38.223
58.0, -171.0181427001953, -155.3647918701172, 258.2662658691406, -52.21461486816406, 0.01600000075995922, 0.08000000566244125, 1.055999994277954, 0.0, 0.0, 0.0, 0.0, 0.0, 1.6203974182239108E9, 2021-05-07 16:23:38.223
59.0, -170.23277282714844, -154.79632568359375, 259.0965270996094, -54.27903747558594, 0.01600000075995922, 0.08000000566244125, 1.055999994277954, 0.0, 0.0, 0.0, 0.0, 0.0, 1.6203974182380984E9, 2021-05-07 16:23:38.238
59.0, -159.76104736328125, -152.08863830566406, 253.87188720703125, -52.308109283447266, 0.01600000075995922, 0.08000000566244125, 1.055999994277954, 0.0, 0.0, 0.0, 0.0, 0.0, 1.6203974182380984E9, 2021-05-07 16:23:38.238
60.0, -163.55703735351562, -153.132080078125, 255.5099639892578, -51.22727966308594, 0.01600000075995922, 0.08000000566244125, 1.055999994277954, 0.0, 0.0, 0.0, 0.0, 0.0, 1.6203974182388391E9, 2021-05-07 16:23:38.238
60.0, -176.30636596679688, -166.864990234375, 247.25601196289062, -62.245025634765625, 0.01600000075995922, 0.08000000566244125, 1.055999994277954, 0.0, 0.0, 0.0, 0.0, 0.0, 1.6203974182388391E9, 2021-05-07 16:23:38.238
61.0, -182.86988830566406, -170.30943298339844, 235.30328369140625, -62.51055908203125, 0.01600000075995922, 0.06400000303983688, 1.055999994277954, 0.0, 0.0, 0.0, 0.0, 0.0, 1.6203974182524855E9, 2021-05-07 16:23:38.252
61.0, -165.78228759765625, -144.6088409423828, 246.89697265625, -39.88416290283203, 0.01600000075995922, 0.06400000303983688, 1.055999994277954, 0.0, 0.0, 0.0, 0.0, 0.0, 1.6203974182524855E9, 2021-05-07 16:23:38.252
62.0, -168.91632080078125, -153.73419189453125, 241.58631896972656, -45.95402145385742, 0.01600000075995922, 0.06400000303983688, 1.055999994277954, 0.0, 0.0, 0.0, 0.0, 0.0, 1.62039741826809E9, 2021-05-07 16:23:38.268
62.0, -187.39891052246094, -170.83302307128906, 230.11978149414062, -54.91107940673828, 0.01600000075995922, 0.06400000303983688, 1.055999994277954, 0.0, 0.0, 0.0, 0.0, 0.0, 1.62039741826809E9, 2021-05-07 16:23:38.268
63.0, -171.9830322265625, -162.26864624023438, 236.133544921875, -38.01421356201172, 0.01600000075995922, 0.06400000303983688, 1.055999994277954, 0.0, 0.0, 0.0, 0.0, 0.0, 1.6203974182687898E9, 2021-05-07 16:23:38.268
63.0, -174.37657165527344, -147.07717895507812, 242.38665771484375, -29.44984245300293, 0.01600000075995922, 0.06400000303983688, 1.055999994277954, 0.0, 0.0, 0.0, 0.0, 0.0, 1.6203974182687898E9, 2021-05-07 16:23:38.268
64.0, -180.7718048095703, -161.83856201171875, 238.56448364257812, -40.08985900878906, 0.01600000075995922, 0.06400000303983688, 1.055999994277954, 0.0, 0.0, 0.0, 0.0, 0.0, 1.620397418282451E9, 2021-05-07 16:23:38.282
64.0, -183.63282775878906, -163.3943634033203, 241.50778198242188, -40.55734634399414, 0.01600000075995922, 0.06400000303983688, 1.055999994277954, 0.0, 0.0, 0.0, 0.0, 0.0, 1.620397418282451E9, 2021-05-07 16:23:38.282
65.0, -176.93466186523438, -158.99623107910156, 247.37942504882812, -33.33559799194336, 0.01600000075995922, 0.06400000303983688, 1.055999994277954, 0.0, 0.0, 0.0, 0.0, 0.0, 1.6203974182981284E9, 2021-05-07 16:23:38.298
65.0, -169.72039794921875, -158.91769409179688, 244.9858856201172, -37.80851745605469, 0.01600000075995922, 0.06400000303983688, 1.055999994277954, 0.0, 0.0, 0.0, 0.0, 0.0, 1.6203974182981284E9, 2021-05-07 16:23:38.298
66.0, -178.3558349609375, -153.52476501464844, 248.91278076171875, -43.74374008178711, 0.01600000075995922, 0.06400000303983688, 1.055999994277954, 0.0, 0.0, 0.0, 0.0, 0.0, 1.6203974182988732E9, 2021-05-07 16:23:38.298
66.0, -181.6581573486328, -167.5867919921875, 242.8803253173828, -58.11991500854492, 0.01600000075995922, 0.06400000303983688, 1.055999994277954, 0.0, 0.0, 0.0, 0.0, 0.0, 1.6203974182988732E9, 2021-05-07 16:23:38.298
67.0, -163.28402709960938, -145.4465789794922, 265.6002197265625, -30.358638763427734, 0.01600000075995922, 0.06400000303983688, 1.055999994277954, 0.0, 0.0, 0.0, 0.0, 0.0, 1.6203974183124857E9, 2021-05-07 16:23:38.312
67.0, -169.77276611328125, -152.72068786621094, 253.31463623046875, -44.439361572265625, 0.01600000075995922, 0.06400000303983688, 1.055999994277954, 0.0, 0.0, 0.0, 0.0, 0.0, 1.6203974183124857E9, 2021-05-07 16:23:38.312
68.0, -187.0772705078125, -175.14512634277344, 240.9580078125, -64.82181549072266, 0.01600000075995922, 0.06400000303983688, 1.055999994277954, 0.0, 0.0, 0.0, 0.0, 0.0, 1.6203974183281453E9, 2021-05-07 16:23:38.328
68.0, -174.2382049560547, -158.68955993652344, 264.8148498535156, -47.79405212402344, 0.01600000075995922, 0.06400000303983688, 1.055999994277954, 0.0, 0.0, 0.0, 0.0, 0.0, 1.6203974183281453E9, 2021-05-07 16:23:38.328
69.0, -176.4073486328125, -160.95220947265625, 252.60780334472656, -54.35383605957031, 0.01600000075995922, 0.06400000303983688, 1.055999994277954, 0.0, 0.0, 0.0, 0.0, 0.0, 1.6203974183289905E9, 2021-05-07 16:23:38.328
69.0, -166.51156616210938, -159.224365234375, 250.91737365722656, -53.06731033325195, 0.01600000075995922, 0.06400000303983688, 1.055999994277954, 0.0, 0.0, 0.0, 0.0, 0.0, 1.6203974183289905E9, 2021-05-07 16:23:38.328
70.0, -174.59722900390625, -155.95196533203125, 258.516845703125, -47.633235931396484, 0.01600000075995922, 0.06400000303983688, 1.055999994277954, 0.0, 0.0, 0.0, 0.0, 0.0, 1.620397418342344E9, 2021-05-07 16:23:38.342
70.0, -172.8843536376953, -162.2349853515625, 252.918212890625, -55.63288116455078, 0.01600000075995922, 0.06400000303983688, 1.055999994277954, 0.0, 0.0, 0.0, 0.0, 0.0, 1.620397418342344E9, 2021-05-07 16:23:38.342
71.0, -164.46583557128906, -148.12808227539062, 257.9072265625, -43.470726013183594, 0.01600000075995922, 0.06400000303983688, 1.055999994277954, 0.0, 0.0, 0.0, 0.0, 0.0, 1.6203974183581576E9, 2021-05-07 16:23:38.358
71.0, -162.3228759765625, -155.09925842285156, 251.6877899169922, -45.45661544799805, 0.01600000075995922, 0.06400000303983688, 1.055999994277954, 0.0, 0.0, 0.0, 0.0, 0.0, 1.6203974183581576E9, 2021-05-07 16:23:38.358
72.0, -175.02357482910156, -170.597412109375, 245.13922119140625, -58.763179779052734, 0.01600000075995922, 0.06400000303983688, 1.055999994277954, 0.0, 0.0, 0.0, 0.0, 0.0, 1.620397418358896E9, 2021-05-07 16:23:38.358
72.0, -174.47755432128906, -168.0093994140625, 251.227783203125, -60.55084991455078, 0.01600000075995922, 0.06400000303983688, 1.055999994277954, 0.0, 0.0, 0.0, 0.0, 0.0, 1.620397418358896E9, 2021-05-07 16:23:38.358
73.0, -173.6472930908203, -160.94471740722656, 246.61648559570312, -52.72697830200195, 0.01600000075995922, 0.06400000303983688, 1.055999994277954, 0.0, 0.0, 0.0, 0.0, 0.0, 1.6203974183724673E9, 2021-05-07 16:23:38.372
73.0, -165.7598419189453, -156.8682403564453, 242.27072143554688, -45.66604995727539, 0.01600000075995922, 0.06400000303983688, 1.055999994277954, 0.0, 0.0, 0.0, 0.0, 0.0, 1.6203974183724673E9, 2021-05-07 16:23:38.372
74.0, -175.56211853027344, -160.35008239746094, 242.1996612548828, -51.605010986328125, 0.01600000075995922, 0.06400000303983688, 1.055999994277954, 0.0, 0.0, 0.0, 0.0, 0.0, 1.6203974184038315E9, 2021-05-07 16:23:38.403
