Sample Index, EXG Channel 0, EXG Channel 1, EXG Channel 2, EXG Channel 3, Accel Channel 0, Accel Channel 1, Accel Channel 2, Other, Other, Other, Other, Other, Timestamp, Timestamp (Formatted)
0.0, -184.91000366210938, -156.4867706298828, 256.5272216796875, -46.84785842895508, 0.0, 0.0, 0.0, 0.0, 0.0, 0.0, 0.0, 0.0, 1.620397073794778E9, 2021-05-07 16:17:53.794
1.0, -174.7150421142578, -149.63153076171875, 246.06671142578125, -43.137874603271484, 0.0, 0.06400000303983688, 0.0, 0.0, 0.0, 0.0, 0.0, 0.0, 1.6203970738257196E9, 2021-05-07 16:17:53.825
1.0, -185.91603088378906, -159.66567993164062, 237.9623565673828, -39.79066467285156, 0.0, 0.06400000303983688, 0.0, 0.0, 0.0, 0.0, 0.0, 0.0, 1.6203970738257196E9, 2021-05-07 16:17:53.825
2.0, -186.63409423828125, -170.35804748535156, 241.46664428710938, -28.911296844482422, 0.01600000075995922, 0.06400000303983688, 0.0, 0.0, 0.0, 0.0, 0.0, 0.0, 1.6203970738269224E9, 2021-05-07 16:17:53.826
2.0, -161.6104278564453, -162.17889404296875, 240.13897705078125, -35.467342376708984, 0.01600000075995922, 0.06400000303983688, 0.0, 0.0, 0.0, 0.0, 0.0, 0.0, 1.6203970738269224E9, 2021-05-07 16:17:53.826
3.0, -199.91073608398438, -162.89321899414062, 229.83555603027344, -39.087562561035156, 0.01600000075995922, 0.06400000303983688, 0.0, 0.0, 0.0, 0.0, 0.0, 0.0, 1.6203970738277464E9, 2021-05-07 16:17:53.827
3.0, -190.62457275390625, -163.65240478515625, 225.92735290527344, -36.1741828918457, 0.01600000075995922, 0.06400000303983688, 0.0, 0.0, 0.0, 0.0, 0.0, 0.0, 1.6203970738277464E9, 2021-05-07 16:17:53.827
4.0, -181.93304443359375, -180.7213134765625, 234.80587768554688, -39.97018051147461, 0.01600000075995922, 0.06400000303983688, 0.0, 0.0, 0.0, 0.0, 0.0, 0.0, 1.62039707385411E9, 2021-05-07 16:17:53.854
4.0, -179.7003173828125, -171.102294921875, 236.67208862304688, -45.344417572021484, 0.01600000075995922, 0.06400000303983688, 0.0, 0.0, 0.0, 0.0, 0.0, 0.0, 1.62039707385411E9, 2021-05-07 16:17:53.854
5.0, -175.52659606933594, -168.9368896484375, 239.42091369628906, -44.75725173950195, 0.01600000075995922, 0.06400000303983688, 0.0, 0.0, 0.0, 0.0, 0.0, 0.0, 1.620397073869926E9, 2021-05-07 16:17:53.869
5.0, -174.18771362304688, -167.6653289794922, 242.5624237060547, -39.30821990966797, 0.01600000075995922, 0.06400000303983688, 0.0, 0.0, 0.0, 0.0, 0.0, 0.0, 1.620397073869926E9, 2021-05-07 16:17:53.869
6.0, -175.53781127929688, -167.47459411621094, 245.37109375, -47.71177291870117, 0.01600000075995922, 0.06400000303983688, 0.0, 0.0, 0.0, 0.0, 0.0, 0.0, 1.620397073870666E9, 2021-05-07 16:17:53.870
6.0, -181.9068603515625, -168.16647338867188, 240.5503692626953, -53.52357864379883, 0.01600000075995922, 0.06400000303983688, 0.0, 0.0, 0.0, 0.0, 0.0, 0.0, 1.620397073870666E9, 2021-05-07 16:17:53.870
7.0, -155.2899932861328, -145.80186462402344, 253.4754638671875, -34.82781982421875, 0.01600000075995922, 0.06400000303983688, 0.0, 0.0, 0.0, 0.0, 0.0, 0.0, 1.6203970738713844E9, 2021-05-07 16:17:53.871
7.0, -142.04327392578125, -152.89271545410156, 248.86790466308594, -46.926395416259766, 0.01600000075995922, 0.06400000303983688, 0.0, 0.0, 0.0, 0.0, 0.0, 0.0, 1.6203970738713844E9, 2021-05-07 16:17:53.871
8.0, -185.36627197265625, -142.11807250976562, 255.86898803710938, -49.83977508544922, 0.01600000075995922, 0.06400000303983688, 0.0, 0.0, 0.0, 0.0, 0.0, 0.0, 1.620397073872118E9, 2021-05-07 16:17:53.872
8.0, -169.96910095214844, -163.3831329345703, 252.52178955078125, -52.32680892944336, 0.01600000075995922, 0.06400000303983688, 0.0, 0.0, 0.0, 0.0, 0.0, 0.0, 1.620397073872118E9, 2021-05-07 16:17:53.872
9.0, -170.94522094726562, -147.36514282226562, 250.60321044921875, -44.23740768432617, 0.01600000075995922, 0.06400000303983688, 0.0, 0.0, 0.0, 0.0, 0.0, 0.0, 1.6203970738830457E9, 2021-05-07 16:17:53.883
9.0, -177.7630615234375, -157.2384796142578, 251.31005859375, -36.79126739501953, 0.01600000075995922, 0.06400000303983688, 0.0, 0.0, 0.0, 0.0, 0.0, 0.0, 1.6203970738830457E9, 2021-05-07 16:17:53.883
10.0, -175.38821411132812, -142.0619659423828, 258.2214050292969, -49.91831588745117, 0.01600000075995922, 0.06400000303983688, 1.055999994277954, 0.0, 0.0, 0.0, 0.0, 0.0, 1.620397073897922E9, 2021-05-07 16:17:53.897
10.0, -177.43020629882812, -134.4737091064453, 259.04791259765625, -45.51271438598633, 0.01600000075995922, 0.06400000303983688, 1.055999994277954, 0.0, 0.0, 0.0, 0.0, 0.0, 1.620397073897922E9, 2021-05-07 16:17:53.897
11.0, -168.36094665527344, -138.0415802001953, 260.2671203613281, -41.41004180908203, 0.01600000075995922, 0.06400000303983688, 1.055999994277954, 0.0, 0.0, 0.0, 0.0, 0.0, 1.6203970739136608E9, 2021-05-07 16:17:53.913
11.0, -166.7752227783203, -144.3620147705078, 264.69140625, -37.415828704833984, 0.01600000075995922, 0.06400000303983688, 1.055999994277954, 0.0, 0.0, 0.0, 0.0, 0.0, 1.6203970739136608E9, 2021-05-07 16:17:53.913
12.0, -198.45965576171875, -141.88246154785156, 250.0272674560547, -49.48074722290039, 0.01600000075995922, 0.06400000303983688, 1.055999994277954, 0.0, 0.0, 0.0, 0.0, 0.0, 1.6203970739142673E9, 2021-05-07 16:17:53.914
12.0, -181.102783203125, -166.83880615234375, 251.08566284179688, -45.400516510009766, 0.01600000075995922, 0.06400000303983688, 1.055999994277954, 0.0, 0.0, 0.0, 0.0, 0.0, 1.6203970739142673E9, 2021-05-07 16:17:53.914
13.0, -184.1919403076172, -146.66952514648438, 241.88925170898438, -44.12894821166992, 0.01600000075995922, 0.06400000303983688, 1.055999994277954, 0.0, 0.0, 0.0, 0.0, 0.0, 1.6203970739279652E9, 2021-05-07 16:17:53.927
13.0, -160.27528381347656, -165.43634033203125, 240.89443969726562, -46.488826751708984, 0.01600000075995922, 0.06400000303983688, 1.055999994277954, 0.0, 0.0, 0.0, 0.0, 0.0, 1.6203970739279652E9, 2021-05-07 16:17:53.927
14.0, -209.41009521484375, -181.9517364501953, 235.47532653808594, -58.55000305175781, 0.01600000075995922, 0.06400000303983688, 1.055999994277954, 0.0, 0.0, 0.0, 0.0, 0.0, 1.6203970739606905E9, 2021-05-07 16:17:53.960
14.0, -185.3438262939453, -169.12762451171875, 240.84580993652344, -50.830848693847656, 0.01600000075995922, 0.06400000303983688, 1.055999994277954, 0.0, 0.0, 0.0, 0.0, 0.0, 1.6203970739606905E9, 2021-05-07 16:17:53.960
15.0, -175.06285095214844, -167.27638244628906, 235.7109375, -53.11219024658203, 0.01600000075995922, 0.06400000303983688, 1.055999994277954, 0.0, 0.0, 0.0, 0.0, 0.0, 1.6203970739613209E9, 2021-05-07 16:17:53.961
15.0, -178.41754150390625, -170.31690979003906, 239.33489990234375, -53.022430419921875, 0.01600000075995922, 0.06400000303983688, 1.055999994277954, 0.0, 0.0, 0.0, 0.0, 0.0, 1.6203970739613209E9, 2021-05-07 16:17:53.961
16.0, -183.57485961914062, -170.4253692626953, 244.77645874023438, -48.485931396484375, 0.01600000075995922, 0.06400000303983688, 1.055999994277954, 0.0, 0.0, 0.0, 0.0, 0.0, 1.6203970739621449E9, 2021-05-07 16:17:53.962
16.0, -176.02774047851562, -167.0669403076172, 246.23875427246094, -25.668804168701172, 0.01600000075995922, 0.06400000303983688, 1.055999994277954, 0.0, 0.0, 0.0, 0.0, 0.0, 1.6203970739621449E9, 2021-05-07 16:17:53.962
17.0, -169.6998291015625, -156.84205627441406, 237.75665283203125, -64.44782257080078, 0.01600000075995922, 0.06400000303983688, 1.055999994277954, 0.0, 0.0, 0.0, 0.0, 0.0, 1.6203970739627953E9, 2021-05-07 16:17:53.962
17.0, -186.01327514648438, -158.1697235107422, 233.5081329345703, -57.05404281616211, 0.01600000075995922, 0.06400000303983688, 1.055999994277954, 0.0, 0.0, 0.0, 0.0, 0.0, 1.6203970739627953E9, 2021-05-07 16:17:53.962
18.0, -170.36927795410156, -150.8058624267578, 251.02207946777344, -48.59812927246094, 0.01600000075995922, 0.06400000303983688, 1.055999994277954, 0.0, 0.0, 0.0, 0.0, 0.0, 1.6203970739728575E9, 2021-05-07 16:17:53.972
18.0, -184.10592651367188, -147.8251495361328, 238.31390380859375, -54.68294906616211, 0.01600000075995922, 0.06400000303983688, 1.055999994277954, 0.0, 0.0, 0.0, 0.0, 0.0, 1.6203970739728575E9, 2021-05-07 16:17:53.972
19.0, -176.95896911621094, -140.5360870361328, 242.7569122314453, -51.45167541503906, 0.01600000075995922, 0.06400000303983688, 1.055999994277954, 0.0, 0.0, 0.0, 0.0, 0.0, 1.620397073988003E9, 2021-05-07 16:17:53.988
19.0, -184.1695098876953, -133.39288330078125, 247.3981170654297, -57.68982696533203, 0.01600000075995922, 0.06400000303983688, 1.055999994277954, 0.0, 0.0, 0.0, 0.0, 0.0, 1.620397073988003E9, 2021-05-07 16:17:53.988
20.0, -187.28857421875, -150.48422241210938, 249.8253173828125, -51.98273849487305, 0.01600000075995922, 0.06400000303983688, 1.055999994277954, 0.0, 0.0, 0.0, 0.0, 0.0, 1.620397074003596E9, 2021-05-07 16:17:54.003
20.0, -179.37869262695312, -144.53404235839844, 247.84317016601562, -42.65542984008789, 0.01600000075995922, 0.06400000303983688, 1.055999994277954, 0.0, 0.0, 0.0, 0.0, 0.0, 1.620397074003596E9, 2021-05-07 16:17:54.003
21.0, -166.03099060058594, -139.5674591064453, 246.0517578125, -37.86461639404297, 0.01600000075995922, 0.06400000303983688, 1.055999994277954, 0.0, 0.0, 0.0, 0.0, 0.0, 1.620397074004279E9, 2021-05-07 16:17:54.004
21.0, -183.83665466308594, -164.32933044433594, 229.74952697753906, -52.28940963745117, 0.01600000075995922, 0.06400000303983688, 1.055999994277954, 0.0, 0.0, 0.0, 0.0, 0.0, 1.620397074004279E9, 2021-05-07 16:17:54.004
22.0, -215.51734924316406, -169.93917846679688, 232.39364624023438, -44.686195373535156, 0.01600000075995922, 0.06400000303983688, 1.055999994277954, 0.0, 0.0, 0.0, 0.0, 0.0, 1.6203970740180075E9, 2021-05-07 16:17:54.018
22.0, -195.44903564453125, -167.97573852539062, 227.77487182617188, -37.77486038208008, 0.01600000075995922, 0.06400000303983688, 1.055999994277954, 0.0, 0.0, 0.0, 0.0, 0.0, 1.6203970740180075E9, 2021-05-07 16:17:54.018
23.0, -183.8628387451172, -169.58763122558594, 218.55975341796875, -36.78004455566406, 0.01600000075995922, 0.06400000303983688, 1.055999994277954, 0.0, 0.0, 0.0, 0.0, 0.0, 1.620397074048383E9, 2021-05-07 16:17:54.048
23.0, -191.3201904296875, -164.1161651611328, 226.8062286376953, -34.76424026489258, 0.01600000075995922, 0.06400000303983688, 1.055999994277954, 0.0, 0.0, 0.0, 0.0, 0.0, 1.620397074048383E9, 2021-05-07 16:17:54.048
24.0, -185.0558624267578, -160.32763671875, 237.73422241210938, -17.747695922851562, 0.01600000075995922, 0.06400000303983688, 1.055999994277954, 0.0, 0.0, 0.0, 0.0, 0.0, 1.6203970740656023E9, 2021-05-07 16:17:54.065
24.0, -189.52130126953125, -165.7243194580078, 223.13365173339844, -53.48991775512695, 0.01600000075995922, 0.06400000303983688, 1.055999994277954, 0.0, 0.0, 0.0, 0.0, 0.0, 1.6203970740656023E9, 2021-05-07 16:17:54.065
25.0, -177.11605834960938, -158.3380126953125, 231.14451599121094, -47.053550720214844, 0.01600000075995922, 0.06400000303983688, 1.055999994277954, 0.0, 0.0, 0.0, 0.0, 0.0, 1.620397074066383E9, 2021-05-07 16:17:54.066
25.0, -180.30992126464844, -152.85157775878906, 234.0616455078125, -51.163700103759766, 0.01600000075995922, 0.06400000303983688, 1.055999994277954, 0.0, 0.0, 0.0, 0.0, 0.0, 1.620397074066383E9, 2021-05-07 16:17:54.066
26.0, -175.2984619140625, -174.3747100830078, 244.7353057861328, -50.6475944519043, 0.01600000075995922, 0.06400000303983688, 1.055999994277954, 0.0, 0.0, 0.0, 0.0, 0.0, 1.6203970740672202E9, 2021-05-07 16:17:54.067
26.0, -187.86827087402344, -165.6233367919922, 242.50633239746094, -59.526119232177734, 0.01600000075995922, 0.06400000303983688, 1.055999994277954, 0.0, 0.0, 0.0, 0.0, 0.0, 1.6203970740672202E9, 2021-05-07 16:17:54.067
27.0, -173.82493591308594, -154.3138885498047, 241.2310333251953, -42.82372283935547, 0.01600000075995922, 0.06400000303983688, 1.055999994277954, 0.0, 0.0, 0.0, 0.0, 0.0, 1.6203970740679631E9, 2021-05-07 16:17:54.067
27.0, -195.2545623779297, -164.44900512695312, 236.7730712890625, -58.06755828857422, 0.01600000075995922, 0.06400000303983688, 1.055999994277954, 0.0, 0.0, 0.0, 0.0, 0.0, 1.6203970740679631E9, 2021-05-07 16:17:54.067
28.0, -150.25234985351562, -143.56541442871094, 257.4098205566406, -40.60222244262695, 0.01600000075995922, 0.06400000303983688, 1.055999994277954, 0.0, 0.0, 0.0, 0.0, 0.0, 1.6203970740778308E9, 2021-05-07 16:17:54.077
28.0, -188.84437561035156, -154.65420532226562, 242.21461486816406, -49.19277572631836, 0.01600000075995922, 0.06400000303983688, 1.055999994277954, 0.0, 0.0, 0.0, 0.0, 0.0, 1.6203970740778308E9, 2021-05-07 16:17:54.077
29.0, -187.06417846679688, -150.5702362060547, 237.95114135742188, -53.53479766845703, 0.01600000075995922, 0.06400000303983688, 1.055999994277954, 0.0, 0.0, 0.0, 0.0, 0.0, 1.6203970740936215E9, 2021-05-07 16:17:54.093
29.0, -184.4088592529297, -149.3211212158203, 249.58970642089844, -45.13124084472656, 0.01600000075995922, 0.06400000303983688, 1.055999994277954, 0.0, 0.0, 0.0, 0.0, 0.0, 1.6203970740936215E9, 2021-05-07 16:17:54.093
30.0, -202.50997924804688, -138.94664001464844, 245.0831298828125, -43.063079833984375, 0.01600000075995922, 0.06400000303983688, 1.055999994277954, 0.0, 0.0, 0.0, 0.0, 0.0, 1.6203970740943265E9, 2021-05-07 16:17:54.094
30.0, -190.65823364257812, -156.71115112304688, 239.5293731689453, -36.81370544433594, 0.01600000075995922, 0.06400000303983688, 1.055999994277954, 0.0, 0.0, 0.0, 0.0, 0.0, 1.6203970740943265E9, 2021-05-07 16:17:54.094
31.0, -186.9220733642578, -157.9154052734375, 244.35009765625, -43.429588317871094, 0.01600000075995922, 0.06400000303983688, 1.055999994277954, 0.0, 0.0, 0.0, 0.0, 0.0, 1.6203970741077907E9, 2021-05-07 16:17:54.107
31.0, -178.02484130859375, -149.72128295898438, 252.09544372558594, -37.40087127685547, 0.01600000075995922, 0.06400000303983688, 1.055999994277954, 0.0, 0.0, 0.0, 0.0, 0.0, 1.6203970741077907E9, 2021-05-07 16:17:54.107
32.0, -187.99916076660156, -171.30050659179688, 244.21173095703125, -40.145957946777344, 0.01600000075995922, 0.06400000303983688, 1.055999994277954, 0.0, 0.0, 0.0, 0.0, 0.0, 1.6203970741236038E9, 2021-05-07 16:17:54.123
32.0, -182.1686553955078, -163.637451171875, 243.96115112304688, -20.915390014648438, 0.01600000075995922, 0.06400000303983688, 1.055999994277954, 0.0, 0.0, 0.0, 0.0, 0.0, 1.6203970741236038E9, 2021-05-07 16:17:54.123
33.0, -180.57919311523438, -159.00746154785156, 235.26962280273438, -56.43321990966797, 0.01600000075995922, 0.06400000303983688, 1.055999994277954, 0.0, 0.0, 0.0, 0.0, 0.0, 1.6203970741243317E9, 2021-05-07 16:17:54.124
33.0, -185.9010772705078, -172.17564392089844, 230.9949188232422, -50.6475944519043, 0.01600000075995922, 0.06400000303983688, 1.055999994277954, 0.0, 0.0, 0.0, 0.0, 0.0, 1.6203970741243317E9, 2021-05-07 16:17:54.124
34.0, -183.7730712890625, -168.94436645507812, 239.54806518554688, -46.55614471435547, 0.01600000075995922, 0.06400000303983688, 1.055999994277954, 0.0, 0.0, 0.0, 0.0, 0.0, 1.620397074137814E9, 2021-05-07 16:17:54.137
34.0, -188.41055297851562, -173.61924743652344, 228.05535888671875, -48.41861343383789, 0.01600000075995922, 0.06400000303983688, 1.055999994277954, 0.0, 0.0, 0.0, 0.0, 0.0, 1.620397074137814E9, 2021-05-07 16:17:54.137
35.0, -172.8488311767578, -163.24476623535156, 228.6275634765625, -48.20170211791992, 0.01600000075995922, 0.06400000303983688, 1.055999994277954, 0.0, 0.0, 0.0, 0.0, 0.0, 1.6203970741535883E9, 2021-05-07 16:17:54.153
35.0, -168.65640258789062, -158.26321411132812, 245.98817443847656, -45.66230773925781, 0.01600000075995922, 0.06400000303983688, 1.055999994277954, 0.0, 0.0, 0.0, 0.0, 0.0, 1.6203970741535883E9, 2021-05-07 16:17:54.153
36.0, -197.98095703125, -158.0762176513672, 244.4398651123047, -50.27360534667969, 0.01600000075995922, 0.06400000303983688, 1.055999994277954, 0.0, 0.0, 0.0, 0.0, 0.0, 1.6203970741543224E9, 2021-05-07 16:17:54.154
36.0, -193.80722045898438, -170.05137634277344, 238.70285034179688, -61.912174224853516, 0.01600000075995922, 0.06400000303983688, 1.055999994277954, 0.0, 0.0, 0.0, 0.0, 0.0, 1.6203970741543224E9, 2021-05-07 16:17:54.154
37.0, -185.40367126464844, -163.6823272705078, 237.09095764160156, -65.22572326660156, 0.01600000075995922, 0.06400000303983688, 1.055999994277954, 0.0, 0.0, 0.0, 0.0, 0.0, 1.6203970741678095E9, 2021-05-07 16:17:54.167
37.0, -180.65399169921875, -157.6199493408203, 248.5200958251953, -65.8951644897461, 0.01600000075995922, 0.06400000303983688, 1.055999994277954, 0.0, 0.0, 0.0, 0.0, 0.0, 1.6203970741678095E9, 2021-05-07 16:17:54.167
38.0, -157.2721405029297, -151.03773498535156, 260.32696533203125, -53.560977935791016, 0.01600000075995922, 0.06400000303983688, 1.055999994277954, 0.0, 0.0, 0.0, 0.0, 0.0, 1.6203970741836712E9, 2021-05-07 16:17:54.183
38.0, -193.4070587158203, -142.92588806152344, 257.7239990234375, -55.95451354980469, 0.01600000075995922, 0.06400000303983688, 1.055999994277954, 0.0, 0.0, 0.0, 0.0, 0.0, 1.6203970741836712E9, 2021-05-07 16:17:54.183
39.0, -180.53431701660156, -133.49386596679688, 250.70045471191406, -62.56291580200195, 0.01600000075995922, 0.06400000303983688, 1.055999994277954, 0.0, 0.0, 0.0, 0.0, 0.0, 1.6203970741842446E9, 2021-05-07 16:17:54.184
39.0, -184.32284545898438, -149.53054809570312, 246.57908630371094, -58.991310119628906, 0.01600000075995922, 0.06400000303983688, 1.055999994277954, 0.0, 0.0, 0.0, 0.0, 0.0, 1.6203970741842446E9, 2021-05-07 16:17:54.184
40.0, -180.95692443847656, -152.8590545654297, 260.4129638671875, -54.596927642822266, 0.01600000075995922, 0.06400000303983688, 1.055999994277954, 0.0, 0.0, 0.0, 0.0, 0.0, 1.6203970741979291E9, 2021-05-07 16:17:54.197
40.0, -185.5121307373047, -148.4609375, 249.51864624023438, -45.09758377075195, 0.01600000075995922, 0.06400000303983688, 1.055999994277954, 0.0, 0.0, 0.0, 0.0, 0.0, 1.6203970741979291E9, 2021-05-07 16:17:54.197
41.0, -185.36253356933594, -146.78919982910156, 242.9588623046875, -48.3999137878418, 0.01600000075995922, 0.06400000303983688, 1.055999994277954, 0.0, 0.0, 0.0, 0.0, 0.0, 1.6203970742134767E9, 2021-05-07 16:17:54.213
41.0, -192.67404174804688, -160.69415283203125, 238.2017059326172, -62.79104995727539, 0.01600000075995922, 0.06400000303983688, 1.055999994277954, 0.0, 0.0, 0.0, 0.0, 0.0, 1.6203970742134767E9, 2021-05-07 16:17:54.213
42.0, -184.04608154296875, -153.30410766601562, 245.90589904785156, -53.261783599853516, 0.01600000075995922, 0.06400000303983688, 1.055999994277954, 0.0, 0.0, 0.0, 0.0, 0.0, 1.6203970742142804E9, 2021-05-07 16:17:54.214
42.0, -177.71817016601562, -159.6208038330078, 237.2330780029297, -60.60321044921875, 0.01600000075995922, 0.06400000303983688, 1.055999994277954, 0.0, 0.0, 0.0, 0.0, 0.0, 1.6203970742142804E9, 2021-05-07 16:17:54.214
43.0, -201.30572509765625, -164.822998046875, 225.4897918701172, -61.048255920410156, 0.01600000075995922, 0.06400000303983688, 1.055999994277954, 0.0, 0.0, 0.0, 0.0, 0.0, 1.6203970742280052E9, 2021-05-07 16:17:54.228
43.0, -196.08108520507812, -169.37071228027344, 227.97682189941406, -60.8238639831543, 0.01600000075995922, 0.06400000303983688, 1.055999994277954, 0.0, 0.0, 0.0, 0.0, 0.0, 1.6203970742280052E9, 2021-05-07 16:17:54.228
44.0, -189.70455932617188, -164.1161651611328, 243.22813415527344, -52.33803176879883, 0.01600000075995922, 0.06400000303983688, 1.055999994277954, 0.0, 0.0, 0.0, 0.0, 0.0, 1.6203970742435093E9, 2021-05-07 16:17:54.243
44.0, -184.50234985351562, -169.05282592773438, 238.69537353515625, -57.63746643066406, 0.01600000075995922, 0.06400000303983688, 1.055999994277954, 0.0, 0.0, 0.0, 0.0, 0.0, 1.6203970742435093E9, 2021-05-07 16:17:54.243
45.0, -190.6769256591797, -152.73190307617188, 241.99771118164062, -58.6173210144043, 0.01600000075995922, 0.06400000303983688, 1.055999994277954, 0.0, 0.0, 0.0, 0.0, 0.0, 1.620397074244187E9, 2021-05-07 16:17:54.244
45.0, -181.72735595703125, -153.07223510742188, 246.18264770507812, -59.06985092163086, 0.01600000075995922, 0.06400000303983688, 1.055999994277954, 0.0, 0.0, 0.0, 0.0, 0.0, 1.620397074244187E9, 2021-05-07 16:17:54.244
46.0, -179.10194396972656, -159.47494506835938, 257.6267395019531, -48.65422821044922, 0.01600000075995922, 0.06400000303983688, 1.055999994277954, 0.0, 0.0, 0.0, 0.0, 0.0, 1.620397074257908E9, 2021-05-07 16:17:54.257
46.0, -178.86631774902344, -154.63925170898438, 251.8560791015625, -48.411136627197266, 0.01600000075995922, 0.06400000303983688, 1.055999994277954, 0.0, 0.0, 0.0, 0.0, 0.0, 1.620397074257908E9, 2021-05-07 16:17:54.257
47.0, -173.72023010253906, -160.52210998535156, 240.8719940185547, -55.6067008972168, 0.01600000075995922, 0.06400000303983688, 1.055999994277954, 0.0, 0.0, 0.0, 0.0, 0.0, 1.6203970742906933E9, 2021-05-07 16:17:54.290
47.0, -193.28738403320312, -156.62139892578125, 246.9867401123047, -56.407039642333984, 0.01600000075995922, 0.06400000303983688, 1.055999994277954, 0.0, 0.0, 0.0, 0.0, 0.0, 1.6203970742906933E9, 2021-05-07 16:17:54.290
48.0, -191.443603515625, -157.41799926757812, 249.02871704101562, -48.23162078857422, 0.01600000075995922, 0.06400000303983688, 1.055999994277954, 0.0, 0.0, 0.0, 0.0, 0.0, 1.6203970742912931E9, 2021-05-07 16:17:54.291
48.0, -183.0550079345703, -146.46383666992188, 254.31320190429688, -41.45117950439453, 0.01600000075995922, 0.06400000303983688, 1.055999994277954, 0.0, 0.0, 0.0, 0.0, 0.0, 1.6203970742912931E9, 2021-05-07 16:17:54.291
49.0, -177.18336486816406, -134.95989990234375, 251.41477966308594, -34.745540618896484, 0.01600000075995922, 0.06400000303983688, 1.055999994277954, 0.0, 0.0, 0.0, 0.0, 0.0, 1.6203970742920897E9, 2021-05-07 16:17:54.292
49.0, -197.9360809326172, -137.6937713623047, 240.886962890625, -64.61611938476562, 0.01600000075995922, 0.06400000303983688, 1.055999994277954, 0.0, 0.0, 0.0, 0.0, 0.0, 1.6203970742920897E9, 2021-05-07 16:17:54.292
50.0, -157.874267578125, -155.09925842285156, 253.91302490234375, -53.34406280517578, 0.01600000075995922, 0.06400000303983688, 1.055999994277954, 0.0, 0.0, 0.0, 0.0, 0.0, 1.6203970742928963E9, 2021-05-07 16:17:54.292
50.0, -205.75994873046875, -150.55154418945312, 240.2923126220703, -52.551204681396484, 0.01600000075995922, 0.06400000303983688, 1.055999994277954, 0.0, 0.0, 0.0, 0.0, 0.0, 1.6203970742928963E9, 2021-05-07 16:17:54.292
51.0, -198.60177612304688, -152.70571899414062, 230.93133544921875, -55.834835052490234, 0.01600000075995922, 0.06400000303983688, 1.055999994277954, 0.0, 0.0, 0.0, 0.0, 0.0, 1.620397074303017E9, 2021-05-07 16:17:54.303
51.0, -187.6850128173828, -143.4569549560547, 240.0753936767578, -44.03171157836914, 0.01600000075995922, 0.06400000303983688, 1.055999994277954, 0.0, 0.0, 0.0, 0.0, 0.0, 1.620397074303017E9, 2021-05-07 16:17:54.303
52.0, -196.57101440429688, -153.1694793701172, 234.20001220703125, -39.050167083740234, 0.01600000075995922, 0.06400000303983688, 1.055999994277954, 0.0, 0.0, 0.0, 0.0, 0.0, 1.6203970743179448E9, 2021-05-07 16:17:54.317
52.0, -189.7569122314453, -152.70571899414062, 229.68222045898438, -35.34392547607422, 0.01600000075995922, 0.06400000303983688, 1.055999994277954, 0.0, 0.0, 0.0, 0.0, 0.0, 1.6203970743179448E9, 2021-05-07 16:17:54.317
53.0, -189.9738311767578, -161.66278076171875, 230.36288452148438, -40.69572067260742, 0.01600000075995922, 0.06400000303983688, 1.055999994277954, 0.0, 0.0, 0.0, 0.0, 0.0, 1.620397074365398E9, 2021-05-07 16:17:54.365
53.0, -182.21726989746094, -163.26345825195312, 239.37603759765625, -44.12894821166992, 0.01600000075995922, 0.06400000303983688, 1.055999994277954, 0.0, 0.0, 0.0, 0.0, 0.0, 1.620397074365398E9, 2021-05-07 16:17:54.365
54.0, -190.19073486328125, -159.0224151611328, 249.021240234375, -42.50209426879883, 0.01600000075995922, 0.06400000303983688, 1.055999994277954, 0.0, 0.0, 0.0, 0.0, 0.0, 1.6203970743661869E9, 2021-05-07 16:17:54.366
54.0, -184.86512756347656, -158.06500244140625, 243.52732849121094, -45.774505615234375, 0.01600000075995922, 0.06400000303983688, 1.055999994277954, 0.0, 0.0, 0.0, 0.0, 0.0, 1.6203970743661869E9, 2021-05-07 16:17:54.366
55.0, -182.5426483154297, -141.089599609375, 249.68319702148438, -37.415828704833984, 0.01600000075995922, 0.06400000303983688, 1.055999994277954, 0.0, 0.0, 0.0, 0.0, 0.0, 1.6203970743668623E9, 2021-05-07 16:17:54.366
55.0, -175.14886474609375, -145.5886993408203, 256.216796875, -35.43742370605469, 0.01600000075995922, 0.06400000303983688, 1.055999994277954, 0.0, 0.0, 0.0, 0.0, 0.0, 1.6203970743668623E9, 2021-05-07 16:17:54.366
56.0, -178.43997192382812, -166.67051696777344, 252.2338104248047, -33.49641418457031, 0.01600000075995922, 0.06400000303983688, 1.055999994277954, 0.0, 0.0, 0.0, 0.0, 0.0, 1.620397074367519E9, 2021-05-07 16:17:54.367
56.0, -135.85372924804688, -144.92298889160156, 257.48089599609375, -49.4022102355957, 0.01600000075995922, 0.06400000303983688, 1.055999994277954, 0.0, 0.0, 0.0, 0.0, 0.0, 1.620397074367519E9, 2021-05-07 16:17:54.367
57.0, -195.09375, -160.00601196289062, 227.71502685546875, -54.219200134277344, 0.01600000075995922, 0.06400000303983688, 1.055999994277954, 0.0, 0.0, 0.0, 0.0, 0.0, 1.6203970743784993E9, 2021-05-07 16:17:54.378
57.0, -183.78428649902344, -158.62973022460938, 234.50294494628906, -54.57075119018555, 0.01600000075995922, 0.06400000303983688, 1.055999994277954, 0.0, 0.0, 0.0, 0.0, 0.0, 1.6203970743784993E9, 2021-05-07 16:17:54.378
58.0, -184.04608154296875, -150.90309143066406, 247.9553680419922, -55.52068328857422, 0.01600000075995922, 0.06400000303983688, 1.055999994277954, 0.0, 0.0, 0.0, 0.0, 0.0, 1.620397074379174E9, 2021-05-07 16:17:54.379
58.0, -177.90890502929688, -159.04859924316406, 243.1383819580078, -55.04945755004883, 0.01600000075995922, 0.06400000303983688, 1.055999994277954, 0.0, 0.0, 0.0, 0.0, 0.0, 1.620397074379174E9, 2021-05-07 16:17:54.379
59.0, -185.56448364257812, -171.59596252441406, 232.2739715576172, -65.33418273925781, 0.01600000075995922, 0.06400000303983688, 1.055999994277954, 0.0, 0.0, 0.0, 0.0, 0.0, 1.6203970743942635E9, 2021-05-07 16:17:54.394
59.0, -169.4978790283203, -150.69740295410156, 252.42454528808594, -50.79719161987305, 0.01600000075995922, 0.06400000303983688, 1.055999994277954, 0.0, 0.0, 0.0, 0.0, 0.0, 1.6203970743942635E9, 2021-05-07 16:17:54.394
60.0, -174.7898406982422, -139.24581909179688, 253.06781005859375, -53.77415084838867, 0.01600000075995922, 0.06400000303983688, 1.055999994277954, 0.0, 0.0, 0.0, 0.0, 0.0, 1.6203970743949945E9, 2021-05-07 16:17:54.394
60.0, -178.978515625, -160.10699462890625, 246.75860595703125, -61.11931610107422, 0.01600000075995922, 0.06400000303983688, 1.055999994277954, 0.0, 0.0, 0.0, 0.0, 0.0, 1.6203970743949945E9, 2021-05-07 16:17:54.394
61.0, -182.4117431640625, -149.3510284423828, 240.711181640625, -63.95042037963867, 0.01600000075995922, 0.06400000303983688, 1.055999994277954, 0.0, 0.0, 0.0, 0.0, 0.0, 1.6203970744078085E9, 2021-05-07 16:17:54.407
61.0, -181.43563842773438, -143.0380859375, 241.5189971923828, -55.01579666137695, 0.01600000075995922, 0.06400000303983688, 1.055999994277954, 0.0, 0.0, 0.0, 0.0, 0.0, 1.6203970744078085E9, 2021-05-07 16:17:54.407
62.0, -182.49029541015625, -145.0314483642578, 244.37628173828125, -63.142601013183594, 0.01600000075995922, 0.06400000303983688, 1.055999994277954, 0.0, 0.0, 0.0, 0.0, 0.0, 1.6203970744236236E9, 2021-05-07 16:17:54.423
62.0, -181.525390625, -145.6148681640625, 242.28941345214844, -50.827110290527344, 0.01600000075995922, 0.06400000303983688, 1.055999994277954, 0.0, 0.0, 0.0, 0.0, 0.0, 1.6203970744236236E9, 2021-05-07 16:17:54.423
63.0, -171.89515686035156, -147.85507202148438, 244.30148315429688, -44.46928024291992, 0.01600000075995922, 0.06400000303983688, 1.055999994277954, 0.0, 0.0, 0.0, 0.0, 0.0, 1.6203970744243853E9, 2021-05-07 16:17:54.424
63.0, -183.72445678710938, -155.75, 240.35589599609375, -26.211088180541992, 0.01600000075995922, 0.06400000303983688, 1.055999994277954, 0.0, 0.0, 0.0, 0.0, 0.0, 1.6203970744243853E9, 2021-05-07 16:17:54.424
64.0, -181.8806915283203, -154.317626953125, 243.35154724121094, -60.131980895996094, 0.01600000075995922, 0.06400000303983688, 1.055999994277954, 0.0, 0.0, 0.0, 0.0, 0.0, 1.620397074437808E9, 2021-05-07 16:17:54.437
64.0, -156.36708068847656, -156.4344024658203, 243.99855041503906, -38.851951599121094, 0.01600000075995922, 0.06400000303983688, 1.055999994277954, 0.0, 0.0, 0.0, 0.0, 0.0, 1.620397074437808E9, 2021-05-07 16:17:54.437
65.0, -195.18350219726562, -156.6363525390625, 243.927490234375, -28.739261627197266, 0.01600000075995922, 0.06400000303983688, 1.055999994277954, 0.0, 0.0, 0.0, 0.0, 0.0, 1.62039707445369E9, 2021-05-07 16:17:54.453
65.0, -180.2987060546875, -165.86268615722656, 249.05490112304688, -33.52633285522461, 0.01600000075995922, 0.06400000303983688, 1.055999994277954, 0.0, 0.0, 0.0, 0.0, 0.0, 1.62039707445369E9, 2021-05-07 16:17:54.453
66.0, -178.4287567138672, -152.59727478027344, 251.11932373046875, -37.74494171142578, 0.01600000075995922, 0.06400000303983688, 1.055999994277954, 0.0, 0.0, 0.0, 0.0, 0.0, 1.6203970744542613E9, 2021-05-07 16:17:54.454
66.0, -171.67449951171875, -144.95664978027344, 250.62191772460938, -36.237762451171875, 0.01600000075995922, 0.06400000303983688, 1.055999994277954, 0.0, 0.0, 0.0, 0.0, 0.0, 1.6203970744542613E9, 2021-05-07 16:17:54.454
67.0, -166.27407836914062, -147.64938354492188, 247.4168243408203, -39.005287170410156, 0.01600000075995922, 0.06400000303983688, 1.055999994277954, 0.0, 0.0, 0.0, 0.0, 0.0, 1.6203970744842305E9, 2021-05-07 16:17:54.484
67.0, -173.6454315185547, -150.14015197753906, 247.42430114746094, -54.12944030761719, 0.01600000075995922, 0.06400000303983688, 1.055999994277954, 0.0, 0.0, 0.0, 0.0, 0.0, 1.6203970744842305E9, 2021-05-07 16:17:54.484
68.0, -179.85739135742188, -151.41920471191406, 252.1590118408203, -53.87138748168945, 0.01600000075995922, 0.06400000303983688, 1.055999994277954, 0.0, 0.0, 0.0, 0.0, 0.0, 1.620397074484929E9, 2021-05-07 16:17:54.484
68.0, -165.42886352539062, -136.1977996826172, 259.6687316894531, -44.52164077758789, 0.01600000075995922, 0.06400000303983688, 1.055999994277954, 0.0, 0.0, 0.0, 0.0, 0.0, 1.620397074484929E9, 2021-05-07 16:17:54.484
69.0, -198.28762817382812, -113.39937591552734, 242.0575408935547, -49.200252532958984, 0.01600000075995922, 0.06400000303983688, 1.055999994277954, 0.0, 0.0, 0.0, 0.0, 0.0, 1.6203970744857252E9, 2021-05-07 16:17:54.485
69.0, -182.30703735351562, -147.38011169433594, 247.9142303466797, -57.96657943725586, 0.01600000075995922, 0.06400000303983688, 1.055999994277954, 0.0, 0.0, 0.0, 0.0, 0.0, 1.6203970744857252E9, 2021-05-07 16:17:54.485
70.0, -184.64820861816406, -143.40084838867188, 254.9639434814453, -58.370487213134766, 0.01600000075995922, 0.06400000303983688, 1.055999994277954, 0.0, 0.0, 0.0, 0.0, 0.0, 1.6203970744978445E9, 2021-05-07 16:17:54.497
70.0, -178.28663635253906, -137.36839294433594, 249.42140197753906, -58.72203826904297, 0.01600000075995922, 0.06400000303983688, 1.055999994277954, 0.0, 0.0, 0.0, 0.0, 0.0, 1.6203970744978445E9, 2021-05-07 16:17:54.497
71.0, -182.0302734375, -132.274658203125, 239.7275848388672, -59.514896392822266, 0.01600000075995922, 0.06400000303983688, 1.055999994277954, 0.0, 0.0, 0.0, 0.0, 0.0, 1.6203970745141876E9, 2021-05-07 16:17:54.514
71.0, -189.06503295898438, -137.5778350830078, 240.06044006347656, -60.173118591308594, 0.01600000075995922, 0.06400000303983688, 1.055999994277954, 0.0, 0.0, 0.0, 0.0, 0.0, 1.6203970745141876E9, 2021-05-07 16:17:54.514
72.0, -158.12109375, -138.47540283203125, 258.06805419921875, -49.10675811767578, 0.01600000075995922, 0.06400000303983688, 1.055999994277954, 0.0, 0.0, 0.0, 0.0, 0.0, 1.6203970745149093E9, 2021-05-07 16:17:54.514
72.0, -187.61769104003906, -154.75892639160156, 240.00808715820312, -77.36917877197266, 0.01600000075995922, 0.06400000303983688, 1.055999994277954, 0.0, 0.0, 0.0, 0.0, 0.0, 1.6203970745149093E9, 2021-05-07 16:17:54.514
73.0, -194.56268310546875, -137.29733276367188, 234.77969360351562, -61.807456970214844, 0.01600000075995922, 0.06400000303983688, 1.055999994277954, 0.0, 0.0, 0.0, 0.0, 0.0, 1.620397074527925E9, 2021-05-07 16:17:54.527
73.0, -191.7577667236328, -161.27383422851562, 230.33670043945312, -63.69610595703125, 0.01600000075995922, 0.06400000303983688, 1.055999994277954, 0.0, 0.0, 0.0, 0.0, 0.0, 1.620397074527925E9, 2021-05-07 16:17:54.527
74.0, -181.25985717773438, -151.47903442382812, 242.2333221435547, -48.785125732421875, 0.01600000075995922, 0.06400000303983688, 1.055999994277954, 0.0, 0.0, 0.0, 0.0, 0.0, 1.6203970745434923E9, 2021-05-07 16:17:54.543
74.0, -175.8594512939453, -149.6614532470703, 237.29290771484375, -43.010719299316406, 0.01600000075995922, 0.06400000303983688, 1.055999994277954, 0.0, 0.0, 0.0, 0.0, 0.0, 1.6203970745434923E9, 2021-05-07 16:17:54.543
75.0, -175.7173309326172, -156.46058654785156, 235.8904571533203, -37.76737976074219, 0.01600000075995922, 0.06400000303983688, 1.055999994277954, 0.0, 0.0, 0.0, 0.0, 0.0, 1.6203970745441997E9, 2021-05-07 16:17:54.544
75.0, -175.19374084472656, -151.7296142578125, 242.0238800048828, -32.0602912902832, 0.01600000075995922, 0.06400000303983688, 1.055999994277954, 0.0, 0.0, 0.0, 0.0, 0.0, 1.6203970745441997E9, 2021-05-07 16:17:54.544
76.0, -174.77487182617188, -151.17236328125, 251.6092529296875, -31.076698303222656, 0.01600000075995922, 0.06400000303983688, 1.055999994277954, 0.0, 0.0, 0.0, 0.0, 0.0, 1.6203970745579703E9, 2021-05-07 16:17:54.557
76.0, -172.63565063476562, -146.05992126464844, 248.14610290527344, -24.400978088378906, 0.01600000075995922, 0.06400000303983688, 1.055999994277954, 0.0, 0.0, 0.0, 0.0, 0.0, 1.6203970745579703E9, 2021-05-07 16:17:54.557
77.0, -168.4170379638672, -148.5880889892578, 248.3031768798828, -32.33330535888672, 0.01600000075995922, 0.06400000303983688, 1.055999994277954, 0.0, 0.0, 0.0, 0.0, 0.0, 1.620397074573546E9, 2021-05-07 16:17:54.573
77.0, -207.89169311523438, -147.79898071289062, 243.96115112304688, -41.911190032958984, 0.01600000075995922, 0.06400000303983688, 1.055999994277954, 0.0, 0.0, 0.0, 0.0, 0.0, 1.620397074573546E9, 2021-05-07 16:17:54.573
78.0, -181.34588623046875, -142.93336486816406, 261.1385192871094, -37.03062057495117, 0.01600000075995922, 0.06400000303983688, 1.055999994277954, 0.0, 0.0, 0.0, 0.0, 0.0, 1.6203970745741992E9, 2021-05-07 16:17:54.574
78.0, -158.54371643066406, -108.18595886230469, 265.630126953125, -27.493873596191406, 0.01600000075995922, 0.06400000303983688, 1.055999994277954, 0.0, 0.0, 0.0, 0.0, 0.0, 1.6203970745741992E9, 2021-05-07 16:17:54.574
79.0, -173.82493591308594, -151.10504150390625, 248.176025390625, -43.186492919921875, 0.01600000075995922, 0.06400000303983688, 1.055999994277954, 0.0, 0.0, 0.0, 0.0, 0.0, 1.620397074587884E9, 2021-05-07 16:17:54.587
79.0, -190.34408569335938, -139.5263214111328, 256.97601318359375, -28.193235397338867, 0.01600000075995922, 0.06400000303983688, 1.055999994277954, 0.0, 0.0, 0.0, 0.0, 0.0, 1.620397074587884E9, 2021-05-07 16:17:54.587
80.0, -185.6766815185547, -116.27162170410156, 255.8839569091797, -57.63372802734375, 0.01600000075995922, 0.06400000303983688, 1.055999994277954, 0.0, 0.0, 0.0, 0.0, 0.0, 1.6203970746036642E9, 2021-05-07 16:17:54.603
80.0, -171.83531188964844, -125.86072540283203, 260.0876159667969, -42.244041442871094, 0.01600000075995922, 0.06400000303983688, 1.055999994277954, 0.0, 0.0, 0.0, 0.0, 0.0, 1.6203970746036642E9, 2021-05-07 16:17:54.603
81.0, -181.36083984375, -131.62765502929688, 253.50537109375, -45.17612075805664, 0.01600000075995922, 0.06400000303983688, 1.055999994277954, 0.0, 0.0, 0.0, 0.0, 0.0, 1.6203970746043732E9, 2021-05-07 16:17:54.604
81.0, -179.4572296142578, -127.61473846435547, 251.9869842529297, -39.82432556152344, 0.01600000075995922, 0.06400000303983688, 1.055999994277954, 0.0, 0.0, 0.0, 0.0, 0.0, 1.6203970746043732E9, 2021-05-07 16:17:54.604
82.0, -188.3544464111328, -131.4593505859375, 249.19700622558594, -41.095890045166016, 0.01600000075995922, 0.06400000303983688, 1.055999994277954, 0.0, 0.0, 0.0, 0.0, 0.0, 1.6203970746178544E9, 2021-05-07 16:17:54.617
82.0, -186.5817413330078, -139.64599609375, 247.1176300048828, -26.82817268371582, 0.01600000075995922, 0.06400000303983688, 1.055999994277954, 0.0, 0.0, 0.0, 0.0, 0.0, 1.6203970746178544E9, 2021-05-07 16:17:54.617
83.0, -184.41259765625, -145.5363311767578, 238.5906524658203, -31.304832458496094, 0.01600000075995922, 0.06400000303983688, 1.055999994277954, 0.0, 0.0, 0.0, 0.0, 0.0, 1.6203970746334248E9, 2021-05-07 16:17:54.633
83.0, -197.8837127685547, -157.67979431152344, 232.68161010742188, -35.459861755371094, 0.01600000075995922, 0.06400000303983688, 1.055999994277954, 0.0, 0.0, 0.0, 0.0, 0.0, 1.6203970746334248E9, 2021-05-07 16:17:54.633
84.0, -184.78659057617188, -148.3225555419922, 247.6337432861328, -13.760961532592773, 0.01600000075995922, 0.06400000303983688, 1.055999994277954, 0.0, 0.0, 0.0, 0.0, 0.0, 1.6203970746484647E9, 2021-05-07 16:17:54.648
84.0, -176.39425659179688, -134.88136291503906, 252.43951416015625, -9.972443580627441, 0.01600000075995922, 0.06400000303983688, 1.055999994277954, 0.0, 0.0, 0.0, 0.0, 0.0, 1.6203970746484647E9, 2021-05-07 16:17:54.648
85.0, -196.26060485839844, -145.51390075683594, 234.93678283691406, -26.715974807739258, 0.01600000075995922, 0.06400000303983688, 1.055999994277954, 0.0, 0.0, 0.0, 0.0, 0.0, 1.6203970746492748E9, 2021-05-07 16:17:54.649
85.0, -159.6208038330078, -134.74671936035156, 255.2107696533203, -20.90791130065918, 0.01600000075995922, 0.06400000303983688, 1.055999994277954, 0.0, 0.0, 0.0, 0.0, 0.0, 1.6203970746492748E9, 2021-05-07 16:17:54.649
86.0, -202.44639587402344, -139.91900634765625, 245.59548950195312, -37.53176498413086, 0.01600000075995922, 0.06400000303983688, 1.055999994277954, 0.0, 0.0, 0.0, 0.0, 0.0, 1.6203970746635387E9, 2021-05-07 16:17:54.663
86.0, -178.74290466308594, -129.45851135253906, 259.3658142089844, -33.58243179321289, 0.01600000075995922, 0.06400000303983688, 1.055999994277954, 0.0, 0.0, 0.0, 0.0, 0.0, 1.6203970746635387E9, 2021-05-07 16:17:54.663
87.0, -219.09268188476562, -129.57070922851562, 241.11509704589844, -52.67462158203125, 0.01600000075995922, 0.06400000303983688, 1.055999994277954, 0.0, 0.0, 0.0, 0.0, 0.0, 1.6203970746643245E9, 2021-05-07 16:17:54.664
87.0, -194.47293090820312, -115.60218048095703, 256.9722595214844, -43.089256286621094, 0.01600000075995922, 0.06400000303983688, 1.055999994277954, 0.0, 0.0, 0.0, 0.0, 0.0, 1.6203970746643245E9, 2021-05-07 16:17:54.664
88.0, -188.70974731445312, -119.57769012451172, 266.0115966796875, -27.957622528076172, 0.01600000075995922, 0.06400000303983688, 1.055999994277954, 0.0, 0.0, 0.0, 0.0, 0.0, 1.620397074677816E9, 2021-05-07 16:17:54.677
88.0, -190.46002197265625, -143.73744201660156, 245.8797149658203, -69.93799591064453, 0.01600000075995922, 0.06400000303983688, 1.055999994277954, 0.0, 0.0, 0.0, 0.0, 0.0, 1.620397074677816E9, 2021-05-07 16:17:54.677
89.0, -188.3058319091797, -127.861572265625, 245.37857055664062, -52.266971588134766, 0.01600000075995922, 0.06400000303983688, 1.055999994277954, 0.0, 0.0, 0.0, 0.0, 0.0, 1.62039707469353E9, 2021-05-07 16:17:54.693
89.0, -191.95223999023438, -133.4564666748047, 252.17398071289062, -51.03654479980469, 0.01600000075995922, 0.06400000303983688, 1.055999994277954, 0.0, 0.0, 0.0, 0.0, 0.0, 1.62039707469353E9, 2021-05-07 16:17:54.693
90.0, -193.3621826171875, -129.9334716796875, 253.49041748046875, -50.352142333984375, 0.01600000075995922, 0.06400000303983688, 1.055999994277954, 0.0, 0.0, 0.0, 0.0, 0.0, 1.6203970746943705E9, 2021-05-07 16:17:54.694
90.0, -192.81240844726562, -135.068359375, 255.48377990722656, -45.385555267333984, 0.01600000075995922, 0.06400000303983688, 1.055999994277954, 0.0, 0.0, 0.0, 0.0, 0.0, 1.6203970746943705E9, 2021-05-07 16:17:54.694
91.0, -193.64266967773438, -123.73271942138672, 254.2010040283203, -50.916866302490234, 0.01600000075995922, 0.06400000303983688, 1.055999994277954, 0.0, 0.0, 0.0, 0.0, 0.0, 1.620397074707874E9, 2021-05-07 16:17:54.707
91.0, -199.1702423095703, -145.4503173828125, 248.48269653320312, -61.31378936767578, 0.01600000075995922, 0.06400000303983688, 1.055999994277954, 0.0, 0.0, 0.0, 0.0, 0.0, 1.620397074707874E9, 2021-05-07 16:17:54.707
92.0, -197.02728271484375, -155.57423400878906, 244.49969482421875, -64.74327850341797, 0.01600000075995922, 0.06400000303983688, 1.055999994277954, 0.0, 0.0, 0.0, 0.0, 0.0, 1.6203970747236335E9, 2021-05-07 16:17:54.723
92.0, -176.59620666503906, -148.99574279785156, 239.8285675048828, -56.44818115234375, 0.01600000075995922, 0.06400000303983688, 1.055999994277954, 0.0, 0.0, 0.0, 0.0, 0.0, 1.6203970747236335E9, 2021-05-07 16:17:54.723
93.0, -215.55848693847656, -158.7606201171875, 223.18226623535156, -55.49824523925781, 0.01600000075995922, 0.06400000303983688, 1.055999994277954, 0.0, 0.0, 0.0, 0.0, 0.0, 1.6203970747242677E9, 2021-05-07 16:17:54.724
93.0, -212.9442901611328, -150.77593994140625, 222.2398223876953, -53.01495361328125, 0.01600000075995922, 0.06400000303983688, 1.055999994277954, 0.0, 0.0, 0.0, 0.0, 0.0, 1.6203970747242677E9, 2021-05-07 16:17:54.724
94.0, -198.99819946289062, -165.69813537597656, 242.04258728027344, -36.68280792236328, 0.01600000075995922, 0.06400000303983688, 1.055999994277954, 0.0, 0.0, 0.0, 0.0, 0.0, 1.620397074737995E9, 2021-05-07 16:17:54.737
94.0, -202.06492614746094, -156.3895263671875, 233.53057861328125, -39.73830795288086, 0.01600000075995922, 0.06400000303983688, 1.055999994277954, 0.0, 0.0, 0.0, 0.0, 0.0, 1.620397074737995E9, 2021-05-07 16:17:54.737
95.0, -190.87139892578125, -158.87655639648438, 236.92266845703125, -34.10601806640625, 0.01600000075995922, 0.06400000303983688, 1.055999994277954, 0.0, 0.0, 0.0, 0.0, 0.0, 1.6203970747541685E9, 2021-05-07 16:17:54.754
95.0, -203.0634765625, -157.08514404296875, 250.042236328125, -21.446456909179688, 0.01600000075995922, 0.06400000303983688, 1.055999994277954, 0.0, 0.0, 0.0, 0.0, 0.0, 1.6203970747541685E9, 2021-05-07 16:17:54.754
96.0, -213.4416961669922, -167.09312438964844, 234.0878143310547, -44.532859802246094, 0.01600000075995922, 0.06400000303983688, 1.055999994277954, 0.0, 0.0, 0.0, 0.0, 0.0, 1.6203970747684605E9, 2021-05-07 16:17:54.768
96.0, -207.10256958007812, -158.60728454589844, 234.80213928222656, -47.008670806884766, 0.01600000075995922, 0.06400000303983688, 1.055999994277954, 0.0, 0.0, 0.0, 0.0, 0.0, 1.6203970747684605E9, 2021-05-07 16:17:54.768
97.0, -194.61129760742188, -144.21241760253906, 240.52044677734375, -40.59474563598633, 0.01600000075995922, 0.06400000303983688, 1.055999994277954, 0.0, 0.0, 0.0, 0.0, 0.0, 1.6203970747692297E9, 2021-05-07 16:17:54.769
97.0, -216.2877655029297, -165.0249481201172, 231.9747772216797, -55.9283332824707, 0.01600000075995922, 0.06400000303983688, 1.055999994277954, 0.0, 0.0, 0.0, 0.0, 0.0, 1.6203970747692297E9, 2021-05-07 16:17:54.769
98.0, -209.45870971679688, -164.142333984375, 232.97706604003906, -52.39786911010742, 0.01600000075995922, 0.06400000303983688, 1.055999994277954, 0.0, 0.0, 0.0, 0.0, 0.0, 1.6203970747836137E9, 2021-05-07 16:17:54.783
98.0, -199.25625610351562, -137.11407470703125, 240.22872924804688, -43.68016052246094, 0.01600000075995922, 0.06400000303983688, 1.055999994277954, 0.0, 0.0, 0.0, 0.0, 0.0, 1.6203970747836137E9, 2021-05-07 16:17:54.783
99.0, -195.50888061523438, -156.76351928710938, 235.80068969726562, -47.85388946533203, 0.01600000075995922, 0.06400000303983688, 1.055999994277954, 0.0, 0.0, 0.0, 0.0, 0.0, 1.620397074784218E9, 2021-05-07 16:17:54.784
99.0, -186.98190307617188, -152.37661743164062, 232.6554412841797, -58.88285446166992, 0.01600000075995922, 0.06400000303983688, 1.055999994277954, 0.0, 0.0, 0.0, 0.0, 0.0, 1.620397074784218E9, 2021-05-07 16:17:54.784
100.0, -208.0188446044922, -144.20118713378906, 241.83314514160156, -55.513206481933594, 0.01600000075995922, 0.06400000303983688, 1.055999994277954, 0.0, 0.0, 0.0, 0.0, 0.0, 1.620397074798456E9, 2021-05-07 16:17:54.798
100.0, -216.01101684570312, -161.49449157714844, 233.93447875976562, -49.86221694946289, 0.01600000075995922, 0.06400000303983688, 1.055999994277954, 0.0, 0.0, 0.0, 0.0, 0.0, 1.620397074798456E9, 2021-05-07 16:17:54.798
0.0, -205.6533660888672, -157.4049072265625, 231.40631103515625, -54.20610809326172, 0.01600000075995922, 0.06400000303983688, 1.055999994277954, 0.0, 0.0, 0.0, 0.0, 0.0, 1.620397074799163E9, 2021-05-07 16:17:54.799
1.0, -207.4335479736328, -156.5634307861328, 230.0150604248047, -54.03407287597656, 0.01600000075995922, 0.06400000303983688, 1.055999994277954, 0.0, 0.0, 0.0, 0.0, 0.0, 1.620397074812811E9, 2021-05-07 16:17:54.812
1.0, -195.06944274902344, -147.23611450195312, 241.44419860839844, -33.76007843017578, 0.01600000075995922, 0.06400000303983688, 1.055999994277954, 0.0, 0.0, 0.0, 0.0, 0.0, 1.620397074812811E9, 2021-05-07 16:17:54.812
2.0, -197.16004943847656, -157.9097900390625, 234.8918914794922, -39.24277114868164, 0.01600000075995922, 0.06400000303983688, 1.055999994277954, 0.0, 0.0, 0.0, 0.0, 0.0, 1.6203970748285415E9, 2021-05-07 16:17:54.828
2.0, -198.33811950683594, -157.3263702392578, 228.77342224121094, -36.07881546020508, 0.01600000075995922, 0.06400000303983688, 1.055999994277954, 0.0, 0.0, 0.0, 0.0, 0.0, 1.6203970748285415E9, 2021-05-07 16:17:54.828
3.0, -201.4908447265625, -154.92535400390625, 239.53684997558594, -35.91426086425781, 0.01600000075995922, 0.06400000303983688, 1.055999994277954, 0.0, 0.0, 0.0, 0.0, 0.0, 1.6203970748292928E9, 2021-05-07 16:17:54.829
3.0, -194.49349975585938, -137.9462127685547, 255.93630981445312, -15.213912963867188, 0.01600000075995922, 0.06400000303983688, 1.055999994277954, 0.0, 0.0, 0.0, 0.0, 0.0, 1.6203970748292928E9, 2021-05-07 16:17:54.829
4.0, -188.9883575439453, -151.4734344482422, 254.28701782226562, -34.971805572509766, 0.01600000075995922, 0.06400000303983688, 1.055999994277954, 0.0, 0.0, 0.0, 0.0, 0.0, 1.6203970748428051E9, 2021-05-07 16:17:54.842
4.0, -192.43655395507812, -151.37619018554688, 243.9835968017578, -43.54365539550781, 0.01600000075995922, 0.06400000303983688, 1.055999994277954, 0.0, 0.0, 0.0, 0.0, 0.0, 1.6203970748428051E9, 2021-05-07 16:17:54.842
5.0, -185.5551300048828, -149.41275024414062, 254.6049041748047, -40.94442367553711, 0.01600000075995922, 0.06400000303983688, 1.055999994277954, 0.0, 0.0, 0.0, 0.0, 0.0, 1.6203970748748398E9, 2021-05-07 16:17:54.874
5.0, -200.06968688964844, -153.89688110351562, 245.9545135498047, -43.46137619018555, 0.01600000075995922, 0.06400000303983688, 1.055999994277954, 0.0, 0.0, 0.0, 0.0, 0.0, 1.6203970748748398E9, 2021-05-07 16:17:54.874
6.0, -193.74925231933594, -148.3057403564453, 245.5019989013672, -40.74620819091797, 0.01600000075995922, 0.06400000303983688, 1.055999994277954, 0.0, 0.0, 0.0, 0.0, 0.0, 1.6203970748756044E9, 2021-05-07 16:17:54.875
6.0, -218.56349182128906, -152.16531372070312, 234.21498107910156, -54.14253234863281, 0.01600000075995922, 0.06400000303983688, 1.055999994277954, 0.0, 0.0, 0.0, 0.0, 0.0, 1.6203970748756044E9, 2021-05-07 16:17:54.875
7.0, -199.27682495117188, -170.2926025390625, 239.091796875, -55.530033111572266, 0.01600000075995922, 0.06400000303983688, 1.055999994277954, 0.0, 0.0, 0.0, 0.0, 0.0, 1.6203970748763041E9, 2021-05-07 16:17:54.876
7.0, -196.51678466796875, -157.8013458251953, 253.19496154785156, -46.6739501953125, 0.01600000075995922, 0.06400000303983688, 1.055999994277954, 0.0, 0.0, 0.0, 0.0, 0.0, 1.6203970748763041E9, 2021-05-07 16:17:54.876
8.0, -199.56854248046875, -150.55715942382812, 240.5840301513672, -49.63969039916992, 0.01600000075995922, 0.06400000303983688, 1.055999994277954, 0.0, 0.0, 0.0, 0.0, 0.0, 1.6203970748771136E9, 2021-05-07 16:17:54.877
8.0, -203.0952606201172, -164.24143981933594, 224.58099365234375, -57.79267501831055, 0.01600000075995922, 0.06400000303983688, 1.055999994277954, 0.0, 0.0, 0.0, 0.0, 0.0, 1.6203970748771136E9, 2021-05-07 16:17:54.877
9.0, -202.07054138183594, -163.9347686767578, 230.80418395996094, -56.74176025390625, 0.01600000075995922, 0.06400000303983688, 1.055999994277954, 0.0, 0.0, 0.0, 0.0, 0.0, 1.620397074887869E9, 2021-05-07 16:17:54.887
9.0, -198.46900939941406, -147.18002319335938, 242.37168884277344, -51.07207489013672, 0.01600000075995922, 0.06400000303983688, 1.055999994277954, 0.0, 0.0, 0.0, 0.0, 0.0, 1.620397074887869E9, 2021-05-07 16:17:54.887
10.0, -194.22048950195312, -143.68321228027344, 240.7523193359375, -41.70736312866211, 0.01600000075995922, 0.06400000303983688, 1.055999994277954, 0.0, 0.0, 0.0, 0.0, 0.0, 1.6203970749029472E9, 2021-05-07 16:17:54.902
10.0, -199.34414672851562, -154.38307189941406, 239.97816467285156, -22.46183967590332, 0.01600000075995922, 0.06400000303983688, 1.055999994277954, 0.0, 0.0, 0.0, 0.0, 0.0, 1.6203970749029472E9, 2021-05-07 16:17:54.902
11.0, -201.00840759277344, -153.39199829101562, 236.29061889648438, -55.7469482421875, 0.01600000075995922, 0.06400000303983688, 1.055999994277954, 0.0, 0.0, 0.0, 0.0, 0.0, 1.6203970749187074E9, 2021-05-07 16:17:54.918
11.0, -196.73370361328125, -152.62905883789062, 248.9838409423828, -31.44133949279785, 0.01600000075995922, 0.06400000303983688, 1.055999994277954, 0.0, 0.0, 0.0, 0.0, 0.0, 1.6203970749187074E9, 2021-05-07 16:17:54.918
12.0, -160.13504028320312, -143.21572875976562, 256.6094970703125, -22.742332458496094, 0.01600000075995922, 0.06400000303983688, 1.055999994277954, 0.0, 0.0, 0.0, 0.0, 0.0, 1.6203970749193623E9, 2021-05-07 16:17:54.919
12.0, -206.43125915527344, -157.5283203125, 241.87054443359375, -31.59093475341797, 0.01600000075995922, 0.06400000303983688, 1.055999994277954, 0.0, 0.0, 0.0, 0.0, 0.0, 1.6203970749193623E9, 2021-05-07 16:17:54.919
13.0, -206.51727294921875, -153.53411865234375, 241.4329833984375, -34.541717529296875, 0.01600000075995922, 0.06400000303983688, 1.055999994277954, 0.0, 0.0, 0.0, 0.0, 0.0, 1.6203970749330204E9, 2021-05-07 16:17:54.933
13.0, -211.63719177246094, -176.30262756347656, 236.0138702392578, -39.407325744628906, 0.01600000075995922, 0.06400000303983688, 1.055999994277954, 0.0, 0.0, 0.0, 0.0, 0.0, 1.6203970749330204E9, 2021-05-07 16:17:54.933
14.0, -196.98052978515625, -160.68853759765625, 241.63119506835938, -31.347841262817383, 0.01600000075995922, 0.06400000303983688, 1.055999994277954, 0.0, 0.0, 0.0, 0.0, 0.0, 1.6203970749485316E9, 2021-05-07 16:17:54.948
14.0, -187.72427368164062, -131.68936157226562, 249.83279418945312, -19.107149124145508, 0.01600000075995922, 0.06400000303983688, 1.055999994277954, 0.0, 0.0, 0.0, 0.0, 0.0, 1.6203970749485316E9, 2021-05-07 16:17:54.948
15.0, -199.83407592773438, -170.14300537109375, 240.0866241455078, -38.64812469482422, 0.01600000075995922, 0.06400000303983688, 1.055999994277954, 0.0, 0.0, 0.0, 0.0, 0.0, 1.6203970749492333E9, 2021-05-07 16:17:54.949
15.0, -192.82923889160156, -150.8002471923828, 252.1590118408203, -32.23419952392578, 0.01600000075995922, 0.06400000303983688, 1.055999994277954, 0.0, 0.0, 0.0, 0.0, 0.0, 1.6203970749492333E9, 2021-05-07 16:17:54.949
16.0, -194.63186645507812, -159.1028289794922, 244.1406707763672, -41.81956100463867, 0.01600000075995922, 0.06400000303983688, 1.055999994277954, 0.0, 0.0, 0.0, 0.0, 0.0, 1.620397074962962E9, 2021-05-07 16:17:54.962
16.0, -192.62355041503906, -156.32781982421875, 238.51959228515625, -43.83536911010742, 0.01600000075995922, 0.06400000303983688, 1.055999994277954, 0.0, 0.0, 0.0, 0.0, 0.0, 1.620397074962962E9, 2021-05-07 16:17:54.962
17.0, -191.7035369873047, -156.10342407226562, 239.9856414794922, -44.403831481933594, 0.01600000075995922, 0.06400000303983688, 1.055999994277954, 0.0, 0.0, 0.0, 0.0, 0.0, 1.6203970749791722E9, 2021-05-07 16:17:54.979
17.0, -186.19839477539062, -158.65777587890625, 242.6559295654297, -44.321556091308594, 0.01600000075995922, 0.06400000303983688, 1.055999994277954, 0.0, 0.0, 0.0, 0.0, 0.0, 1.6203970749791722E9, 2021-05-07 16:17:54.979
18.0, -176.88230895996094, -152.539306640625, 246.87078857421875, -22.529157638549805, 0.01600000075995922, 0.06400000303983688, 1.055999994277954, 0.0, 0.0, 0.0, 0.0, 0.0, 1.6203970749798577E9, 2021-05-07 16:17:54.979
18.0, -177.40216064453125, -161.694580078125, 233.1229248046875, -66.91055297851562, 0.01600000075995922, 0.06400000303983688, 1.055999994277954, 0.0, 0.0, 0.0, 0.0, 0.0, 1.6203970749798577E9, 2021-05-07 16:17:54.979
19.0, -183.87965393066406, -162.16580200195312, 239.31993103027344, -58.780006408691406, 0.01600000075995922, 0.06400000303983688, 1.055999994277954, 0.0, 0.0, 0.0, 0.0, 0.0, 1.6203970749929254E9, 2021-05-07 16:17:54.992
19.0, -198.820556640625, -169.15940856933594, 236.02882385253906, -64.92840576171875, 0.01600000075995922, 0.06400000303983688, 1.055999994277954, 0.0, 0.0, 0.0, 0.0, 0.0, 1.6203970749929254E9, 2021-05-07 16:17:54.992
20.0, -159.20753479003906, -134.96925354003906, 256.2654113769531, -35.98531723022461, 0.01600000075995922, 0.06400000303983688, 1.055999994277954, 0.0, 0.0, 0.0, 0.0, 0.0, 1.6203970750086272E9, 2021-05-07 16:17:55.008
20.0, -194.00357055664062, -158.71762084960938, 236.53370666503906, -62.01128005981445, 0.01600000075995922, 0.06400000303983688, 1.055999994277954, 0.0, 0.0, 0.0, 0.0, 0.0, 1.6203970750086272E9, 2021-05-07 16:17:55.008
21.0, -181.9087371826172, -151.1630096435547, 244.54832458496094, -55.616050720214844, 0.01600000075995922, 0.06400000303983688, 1.055999994277954, 0.0, 0.0, 0.0, 0.0, 0.0, 1.6203970750092144E9, 2021-05-07 16:17:55.009
21.0, -181.55718994140625, -149.0574493408203, 249.66824340820312, -51.326385498046875, 0.01600000075995922, 0.06400000303983688, 1.055999994277954, 0.0, 0.0, 0.0, 0.0, 0.0, 1.6203970750092144E9, 2021-05-07 16:17:55.009
22.0, -178.19500732421875, -144.4798126220703, 252.85838317871094, -42.99763107299805, 0.01600000075995922, 0.06400000303983688, 1.055999994277954, 0.0, 0.0, 0.0, 0.0, 0.0, 1.6203970750229068E9, 2021-05-07 16:17:55.022
22.0, -182.04710388183594, -146.9032745361328, 242.17347717285156, -43.9924430847168, 0.01600000075995922, 0.06400000303983688, 1.055999994277954, 0.0, 0.0, 0.0, 0.0, 0.0, 1.6203970750229068E9, 2021-05-07 16:17:55.022
23.0, -183.50193786621094, -145.919677734375, 247.7908172607422, -33.40852737426758, 0.01600000075995922, 0.06400000303983688, 1.055999994277954, 0.0, 0.0, 0.0, 0.0, 0.0, 1.6203970750385907E9, 2021-05-07 16:17:55.038
23.0, -176.08944702148438, -142.3592987060547, 257.2714538574219, -31.6320743560791, 0.01600000075995922, 0.06400000303983688, 1.055999994277954, 0.0, 0.0, 0.0, 0.0, 0.0, 1.6203970750385907E9, 2021-05-07 16:17:55.038
24.0, -184.04795837402344, -129.475341796875, 255.4501190185547, -30.682138442993164, 0.01600000075995922, 0.06400000303983688, 1.055999994277954, 0.0, 0.0, 0.0, 0.0, 0.0, 1.6203970750393367E9, 2021-05-07 16:17:55.039
24.0, -185.79449462890625, -157.59564208984375, 246.65762329101562, -31.44881820678711, 0.01600000075995922, 0.06400000303983688, 1.055999994277954, 0.0, 0.0, 0.0, 0.0, 0.0, 1.6203970750393367E9, 2021-05-07 16:17:55.039
25.0, -194.93479919433594, -151.4210662841797, 252.23007202148438, -27.836074829101562, 0.01600000075995922, 0.06400000303983688, 1.055999994277954, 0.0, 0.0, 0.0, 0.0, 0.0, 1.6203970750529675E9, 2021-05-07 16:17:55.052
25.0, -169.67926025390625, -139.7189178466797, 262.5858459472656, -26.841262817382812, 0.01600000075995922, 0.06400000303983688, 1.055999994277954, 0.0, 0.0, 0.0, 0.0, 0.0, 1.6203970750529675E9, 2021-05-07 16:17:55.052
26.0, -188.52835083007812, -160.04153442382812, 244.2304229736328, -61.61859130859375, 0.01600000075995922, 0.06400000303983688, 1.055999994277954, 0.0, 0.0, 0.0, 0.0, 0.0, 1.620397075068698E9, 2021-05-07 16:17:55.068
26.0, -198.6934051513672, -151.63424682617188, 242.5736541748047, -47.73982238769531, 0.01600000075995922, 0.06400000303983688, 1.055999994277954, 0.0, 0.0, 0.0, 0.0, 0.0, 1.620397075068698E9, 2021-05-07 16:17:55.068
27.0, -206.3826446533203, -168.74053955078125, 234.25238037109375, -56.681922912597656, 0.01600000075995922, 0.06400000303983688, 1.055999994277954, 0.0, 0.0, 0.0, 0.0, 0.0, 1.6203970750694053E9, 2021-05-07 16:17:55.069
27.0, -199.65081787109375, -150.44122314453125, 239.8248291015625, -50.17449951171875, 0.01600000075995922, 0.06400000303983688, 1.055999994277954, 0.0, 0.0, 0.0, 0.0, 0.0, 1.6203970750694053E9, 2021-05-07 16:17:55.069
28.0, -196.47938537597656, -171.354736328125, 228.44056701660156, -53.78350067138672, 0.01600000075995922, 0.06400000303983688, 1.055999994277954, 0.0, 0.0, 0.0, 0.0, 0.0, 1.6203970750994062E9, 2021-05-07 16:17:55.099
28.0, -195.0843963623047, -166.07398986816406, 227.88706970214844, -55.27946090698242, 0.01600000075995922, 0.06400000303983688, 1.055999994277954, 0.0, 0.0, 0.0, 0.0, 0.0, 1.6203970750994062E9, 2021-05-07 16:17:55.099
29.0, -197.88185119628906, -161.1410675048828, 233.0294189453125, -43.28560256958008, 0.01600000075995922, 0.06400000303983688, 1.055999994277954, 0.0, 0.0, 0.0, 0.0, 0.0, 1.6203970751001155E9, 2021-05-07 16:17:55.100
29.0, -183.06436157226562, -160.6324462890625, 247.03909301757812, -36.968910217285156, 0.01600000075995922, 0.06400000303983688, 1.055999994277954, 0.0, 0.0, 0.0, 0.0, 0.0, 1.6203970751001155E9, 2021-05-07 16:17:55.100
30.0, -199.56480407714844, -161.76937866210938, 240.09783935546875, -38.449913024902344, 0.01600000075995922, 0.06400000303983688, 1.055999994277954, 0.0, 0.0, 0.0, 0.0, 0.0, 1.620397075100914E9, 2021-05-07 16:17:55.100
30.0, -194.97593688964844, -167.52133178710938, 228.63877868652344, -46.68517303466797, 0.01600000075995922, 0.06400000303983688, 1.055999994277954, 0.0, 0.0, 0.0, 0.0, 0.0, 1.620397075100914E9, 2021-05-07 16:17:55.100
31.0, -202.3921661376953, -163.61688232421875, 230.710693359375, -47.96421813964844, 0.01600000075995922, 0.06400000303983688, 1.055999994277954, 0.0, 0.0, 0.0, 0.0, 0.0, 1.62039707511279E9, 2021-05-07 16:17:55.112
31.0, -195.1367645263672, -167.25955200195312, 243.6395263671875, -42.87421417236328, 0.01600000075995922, 0.06400000303983688, 1.055999994277954, 0.0, 0.0, 0.0, 0.0, 0.0, 1.62039707511279E9, 2021-05-07 16:17:55.112
32.0, -195.181640625, -163.61314392089844, 239.49197387695312, -39.69529724121094, 0.01600000075995922, 0.06400000303983688, 1.055999994277954, 0.0, 0.0, 0.0, 0.0, 0.0, 1.6203970751286068E9, 2021-05-07 16:17:55.128
32.0, -168.99485778808594, -162.4500274658203, 243.93496704101562, -30.525062561035156, 0.01600000075995922, 0.06400000303983688, 1.055999994277954, 0.0, 0.0, 0.0, 0.0, 0.0, 1.6203970751286068E9, 2021-05-07 16:17:55.128
33.0, -205.9899444580078, -153.99786376953125, 251.96827697753906, -33.20283126831055, 0.01600000075995922, 0.06400000303983688, 1.055999994277954, 0.0, 0.0, 0.0, 0.0, 0.0, 1.620397075129281E9, 2021-05-07 16:17:55.129
33.0, -185.88424682617188, -143.9300537109375, 253.9840850830078, -33.0233154296875, 0.01600000075995922, 0.06400000303983688, 1.055999994277954, 0.0, 0.0, 0.0, 0.0, 0.0, 1.620397075129281E9, 2021-05-07 16:17:55.129
34.0, -188.25534057617188, -159.6974639892578, 247.39064025878906, -36.4453239440918, 0.01600000075995922, 0.06400000303983688, 1.055999994277954, 0.0, 0.0, 0.0, 0.0, 0.0, 1.6203970751428156E9, 2021-05-07 16:17:55.142
34.0, -193.1022491455078, -144.3152618408203, 248.08999633789062, -38.59950637817383, 0.01600000075995922, 0.06400000303983688, 1.055999994277954, 0.0, 0.0, 0.0, 0.0, 0.0, 1.6203970751428156E9, 2021-05-07 16:17:55.142
35.0, -201.4646759033203, -163.7290802001953, 245.47955322265625, -48.599998474121094, 0.01600000075995922, 0.06400000303983688, 1.055999994277954, 0.0, 0.0, 0.0, 0.0, 0.0, 1.620397075158543E9, 2021-05-07 16:17:55.158
35.0, -200.1033477783203, -152.77491760253906, 254.49644470214844, -46.01198959350586, 0.01600000075995922, 0.06400000303983688, 1.055999994277954, 0.0, 0.0, 0.0, 0.0, 0.0, 1.620397075158543E9, 2021-05-07 16:17:55.158
36.0, -200.54466247558594, -153.03671264648438, 242.50633239746094, -47.16761779785156, 0.01600000075995922, 0.06400000303983688, 1.055999994277954, 0.0, 0.0, 0.0, 0.0, 0.0, 1.6203970751593475E9, 2021-05-07 16:17:55.159
36.0, -188.37501525878906, -152.51312255859375, 242.94764709472656, -29.25723648071289, 0.01600000075995922, 0.06400000303983688, 1.055999994277954, 0.0, 0.0, 0.0, 0.0, 0.0, 1.6203970751593475E9, 2021-05-07 16:17:55.159
37.0, -198.8654327392578, -163.8450164794922, 237.93243408203125, -45.843692779541016, 0.01600000075995922, 0.06400000303983688, 1.055999994277954, 0.0, 0.0, 0.0, 0.0, 0.0, 1.6203970751729672E9, 2021-05-07 16:17:55.172
37.0, -192.1336212158203, -163.9684295654297, 240.56532287597656, -35.2410774230957, 0.01600000075995922, 0.06400000303983688, 1.055999994277954, 0.0, 0.0, 0.0, 0.0, 0.0, 1.6203970751729672E9, 2021-05-07 16:17:55.172
38.0, -185.28585815429688, -159.0242919921875, 240.86825561523438, -30.76441764831543, 0.01600000075995922, 0.06400000303983688, 1.055999994277954, 0.0, 0.0, 0.0, 0.0, 0.0, 1.62039707518851E9, 2021-05-07 16:17:55.188
38.0, -215.1452178955078, -167.34182739257812, 219.36756896972656, -46.81980895996094, 0.01600000075995922, 0.06400000303983688, 1.055999994277954, 0.0, 0.0, 0.0, 0.0, 0.0, 1.62039707518851E9, 2021-05-07 16:17:55.188
39.0, -171.82595825195312, -166.00668334960938, 237.81275939941406, -34.059268951416016, 0.01600000075995922, 0.06400000303983688, 1.055999994277954, 0.0, 0.0, 0.0, 0.0, 0.0, 1.620397075189377E9, 2021-05-07 16:17:55.189
39.0, -204.6809844970703, -161.66839599609375, 237.5734100341797, -20.86490249633789, 0.01600000075995922, 0.06400000303983688, 1.055999994277954, 0.0, 0.0, 0.0, 0.0, 0.0, 1.620397075189377E9, 2021-05-07 16:17:55.189
40.0, -206.82020568847656, -161.48887634277344, 232.74893188476562, -44.28789520263672, 0.01600000075995922, 0.06400000303983688, 1.055999994277954, 0.0, 0.0, 0.0, 0.0, 0.0, 1.6203970752029955E9, 2021-05-07 16:17:55.202
40.0, -190.1327667236328, -158.28378295898438, 238.95716857910156, -25.625795364379883, 0.01600000075995922, 0.06400000303983688, 1.055999994277954, 0.0, 0.0, 0.0, 0.0, 0.0, 1.6203970752029955E9, 2021-05-07 16:17:55.202
41.0, -198.2296600341797, -150.08966064453125, 243.2169189453125, -27.185333251953125, 0.01600000075995922, 0.06400000303983688, 1.055999994277954, 0.0, 0.0, 0.0, 0.0, 0.0, 1.6203970752190745E9, 2021-05-07 16:17:55.219
41.0, -195.27886962890625, -172.7198028564453, 245.71142578125, -33.16543197631836, 0.01600000075995922, 0.06400000303983688, 1.055999994277954, 0.0, 0.0, 0.0, 0.0, 0.0, 1.6203970752190745E9, 2021-05-07 16:17:55.219
42.0, -193.82778930664062, -159.54412841796875, 240.26239013671875, -30.887834548950195, 0.01600000075995922, 0.06400000303983688, 1.055999994277954, 0.0, 0.0, 0.0, 0.0, 0.0, 1.6203970752334144E9, 2021-05-07 16:17:55.233
42.0, -177.74996948242188, -147.2735137939453, 248.23585510253906, -27.910873413085938, 0.01600000075995922, 0.06400000303983688, 1.055999994277954, 0.0, 0.0, 0.0, 0.0, 0.0, 1.6203970752334144E9, 2021-05-07 16:17:55.233
43.0, -186.90150451660156, -148.2047576904297, 246.87078857421875, -34.97928237915039, 0.01600000075995922, 0.06400000303983688, 1.055999994277954, 0.0, 0.0, 0.0, 0.0, 0.0, 1.6203970752492397E9, 2021-05-07 16:17:55.249
43.0, -195.9857177734375, -152.87588500976562, 248.1797637939453, -49.05626678466797, 0.01600000075995922, 0.06400000303983688, 1.055999994277954, 0.0, 0.0, 0.0, 0.0, 0.0, 1.6203970752492397E9, 2021-05-07 16:17:55.249
44.0, -178.9878692626953, -147.43060302734375, 253.423095703125, -41.94671630859375, 0.01600000075995922, 0.06400000303983688, 1.055999994277954, 0.0, 0.0, 0.0, 0.0, 0.0, 1.6203970752500331E9, 2021-05-07 16:17:55.250
44.0, -183.19151306152344, -143.01377868652344, 249.5784912109375, -44.38139343261719, 0.01600000075995922, 0.06400000303983688, 1.055999994277954, 0.0, 0.0, 0.0, 0.0, 0.0, 1.6203970752500331E9, 2021-05-07 16:17:55.250
45.0, -191.98776245117188, -152.73004150390625, 249.93003845214844, -47.074119567871094, 0.01600000075995922, 0.06400000303983688, 1.055999994277954, 0.0, 0.0, 0.0, 0.0, 0.0, 1.6203970752508872E9, 2021-05-07 16:17:55.250
45.0, -169.60446166992188, -145.17543029785156, 266.34820556640625, -34.160247802734375, 0.01600000075995922, 0.06400000303983688, 1.055999994277954, 0.0, 0.0, 0.0, 0.0, 0.0, 1.6203970752508872E9, 2021-05-07 16:17:55.250
46.0, -180.88400268554688, -144.393798828125, 258.28497314453125, -35.71604537963867, 0.01600000075995922, 0.06400000303983688, 1.055999994277954, 0.0, 0.0, 0.0, 0.0, 0.0, 1.620397075262846E9, 2021-05-07 16:17:55.262
46.0, -194.254150390625, -130.5673828125, 253.14634704589844, -31.14588737487793, 0.01600000075995922, 0.06400000303983688, 1.055999994277954, 0.0, 0.0, 0.0, 0.0, 0.0, 1.620397075262846E9, 2021-05-07 16:17:55.262
47.0, -179.85552978515625, -159.5254364013672, 252.64146423339844, -25.06855010986328, 0.01600000075995922, 0.06400000303983688, 1.055999994277954, 0.0, 0.0, 0.0, 0.0, 0.0, 1.6203970752789223E9, 2021-05-07 16:17:55.278
47.0, -199.14219665527344, -147.11643981933594, 251.41104125976562, -36.27328872680664, 0.01600000075995922, 0.06400000303983688, 1.055999994277954, 0.0, 0.0, 0.0, 0.0, 0.0, 1.6203970752789223E9, 2021-05-07 16:17:55.278
48.0, -191.76710510253906, -153.4705352783203, 242.1510467529297, -42.687217712402344, 0.01600000075995922, 0.06400000303983688, 1.055999994277954, 0.0, 0.0, 0.0, 0.0, 0.0, 1.6203970752936013E9, 2021-05-07 16:17:55.293
48.0, -193.3603057861328, -152.09799194335938, 242.58486938476562, -39.08943557739258, 0.01600000075995922, 0.06400000303983688, 1.055999994277954, 0.0, 0.0, 0.0, 0.0, 0.0, 1.6203970752936013E9, 2021-05-07 16:17:55.293
49.0, -194.3214569091797, -156.5559539794922, 240.40451049804688, -46.16532516479492, 0.01600000075995922, 0.06400000303983688, 1.055999994277954, 0.0, 0.0, 0.0, 0.0, 0.0, 1.6203970752942798E9, 2021-05-07 16:17:55.294
49.0, -184.75479125976562, -131.57342529296875, 256.639404296875, -33.812435150146484, 0.01600000075995922, 0.06400000303983688, 1.055999994277954, 0.0, 0.0, 0.0, 0.0, 0.0, 1.6203970752942798E9, 2021-05-07 16:17:55.294
50.0, -183.12046813964844, -165.5466766357422, 244.64181518554688, -54.02285385131836, 0.01600000075995922, 0.06400000303983688, 1.055999994277954, 0.0, 0.0, 0.0, 0.0, 0.0, 1.6203970753085115E9, 2021-05-07 16:17:55.308
50.0, -184.3396759033203, -153.89688110351562, 244.75027465820312, -49.6546516418457, 0.01600000075995922, 0.06400000303983688, 1.055999994277954, 0.0, 0.0, 0.0, 0.0, 0.0, 1.6203970753085115E9, 2021-05-07 16:17:55.308
51.0, -183.89088439941406, -148.6348419189453, 251.60177612304688, -52.51941680908203, 0.01600000075995922, 0.06400000303983688, 1.055999994277954, 0.0, 0.0, 0.0, 0.0, 0.0, 1.6203970753092136E9, 2021-05-07 16:17:55.309
51.0, -193.2593231201172, -162.034912109375, 251.908447265625, -55.70954895019531, 0.01600000075995922, 0.06400000303983688, 1.055999994277954, 0.0, 0.0, 0.0, 0.0, 0.0, 1.6203970753092136E9, 2021-05-07 16:17:55.309
52.0, -148.0028076171875, -141.4691925048828, 260.4690856933594, -45.843692779541016, 0.01600000075995922, 0.06400000303983688, 1.055999994277954, 0.0, 0.0, 0.0, 0.0, 0.0, 1.620397075354586E9, 2021-05-07 16:17:55.354
52.0, -177.40589904785156, -141.6262664794922, 256.6431579589844, -50.49612808227539, 0.01600000075995922, 0.06400000303983688, 1.055999994277954, 0.0, 0.0, 0.0, 0.0, 0.0, 1.620397075354586E9, 2021-05-07 16:17:55.354
53.0, -189.26512145996094, -150.82643127441406, 252.97805786132812, -53.349674224853516, 0.01600000075995922, 0.06400000303983688, 1.055999994277954, 0.0, 0.0, 0.0, 0.0, 0.0, 1.6203970753553612E9, 2021-05-07 16:17:55.355
53.0, -177.90330505371094, -132.4859619140625, 266.32574462890625, -44.96481704711914, 0.01600000075995922, 0.06400000303983688, 1.055999994277954, 0.0, 0.0, 0.0, 0.0, 0.0, 1.6203970753553612E9, 2021-05-07 16:17:55.355
54.0, -184.9604949951172, -152.363525390625, 255.93630981445312, -58.17788314819336, 0.01600000075995922, 0.06400000303983688, 1.055999994277954, 0.0, 0.0, 0.0, 0.0, 0.0, 1.62039707535614E9, 2021-05-07 16:17:55.356
54.0, -174.20828247070312, -147.6475067138672, 258.3111572265625, -48.139991760253906, 0.01600000075995922, 0.06400000303983688, 1.055999994277954, 0.0, 0.0, 0.0, 0.0, 0.0, 1.62039707535614E9, 2021-05-07 16:17:55.356
55.0, -185.75335693359375, -149.00135803222656, 256.6842956542969, -48.54764175415039, 0.01600000075995922, 0.06400000303983688, 1.055999994277954, 0.0, 0.0, 0.0, 0.0, 0.0, 1.620397075369207E9, 2021-05-07 16:17:55.369
55.0, -160.00787353515625, -136.68212890625, 274.86767578125, -48.798213958740234, 0.01600000075995922, 0.06400000303983688, 1.055999994277954, 0.0, 0.0, 0.0, 0.0, 0.0, 1.620397075369207E9, 2021-05-07 16:17:55.369
56.0, -211.55865478515625, -146.65643310546875, 253.4642333984375, -55.82548522949219, 0.01600000075995922, 0.06400000303983688, 1.055999994277954, 0.0, 0.0, 0.0, 0.0, 0.0, 1.6203970753698924E9, 2021-05-07 16:17:55.369
56.0, -199.2955322265625, -153.2872772216797, 230.03750610351562, -51.89485168457031, 0.01600000075995922, 0.06400000303983688, 1.055999994277954, 0.0, 0.0, 0.0, 0.0, 0.0, 1.6203970753698924E9, 2021-05-07 16:17:55.369
57.0, -201.39735412597656, -145.9570770263672, 235.46409606933594, -43.72690963745117, 0.01600000075995922, 0.06400000303983688, 1.055999994277954, 0.0, 0.0, 0.0, 0.0, 0.0, 1.6203970753707044E9, 2021-05-07 16:17:55.370
57.0, -196.6102752685547, -150.85633850097656, 243.8975830078125, -47.702423095703125, 0.01600000075995922, 0.06400000303983688, 1.055999994277954, 0.0, 0.0, 0.0, 0.0, 0.0, 1.6203970753707044E9, 2021-05-07 16:17:55.370
58.0, -192.26077270507812, -152.89459228515625, 238.61309814453125, -48.76829528808594, 0.01600000075995922, 0.06400000303983688, 1.055999994277954, 0.0, 0.0, 0.0, 0.0, 0.0, 1.6203970753827946E9, 2021-05-07 16:17:55.382
58.0, -186.12359619140625, -153.57525634765625, 235.93533325195312, -45.024654388427734, 0.01600000075995922, 0.06400000303983688, 1.055999994277954, 0.0, 0.0, 0.0, 0.0, 0.0, 1.6203970753827946E9, 2021-05-07 16:17:55.382
59.0, -163.27655029296875, -149.22201538085938, 245.1167755126953, -47.130218505859375, 0.01600000075995922, 0.06400000303983688, 1.055999994277954, 0.0, 0.0, 0.0, 0.0, 0.0, 1.6203970754148335E9, 2021-05-07 16:17:55.414
59.0, -208.76121520996094, -152.38597106933594, 243.01869201660156, -48.82813262939453, 0.01600000075995922, 0.06400000303983688, 1.055999994277954, 0.0, 0.0, 0.0, 0.0, 0.0, 1.6203970754148335E9, 2021-05-07 16:17:55.414
60.0, -193.6520233154297, -153.8931427001953, 245.8722381591797, -46.10922622680664, 0.01600000075995922, 0.06400000303983688, 1.055999994277954, 0.0, 0.0, 0.0, 0.0, 0.0, 1.620397075415597E9, 2021-05-07 16:17:55.415
60.0, -183.49444580078125, -143.26808166503906, 250.9248504638672, -37.974945068359375, 0.01600000075995922, 0.06400000303983688, 1.055999994277954, 0.0, 0.0, 0.0, 0.0, 0.0, 1.620397075415597E9, 2021-05-07 16:17:55.415
61.0, -195.57432556152344, -154.3531494140625, 243.83773803710938, -53.484310150146484, 0.01600000075995922, 0.06400000303983688, 1.055999994277954, 0.0, 0.0, 0.0, 0.0, 0.0, 1.620397075416354E9, 2021-05-07 16:17:55.416
61.0, -185.932861328125, -156.86636352539062, 257.49212646484375, -44.665626525878906, 0.01600000075995922, 0.06400000303983688, 1.055999994277954, 0.0, 0.0, 0.0, 0.0, 0.0, 1.620397075416354E9, 2021-05-07 16:17:55.416
62.0, -179.98268127441406, -146.77610778808594, 257.0208740234375, -46.374759674072266, 0.01600000075995922, 0.06400000303983688, 1.055999994277954, 0.0, 0.0, 0.0, 0.0, 0.0, 1.620397075417117E9, 2021-05-07 16:17:55.417
62.0, -174.41770935058594, -147.1463623046875, 253.06033325195312, -43.839107513427734, 0.01600000075995922, 0.06400000303983688, 1.055999994277954, 0.0, 0.0, 0.0, 0.0, 0.0, 1.620397075417117E9, 2021-05-07 16:17:55.417
63.0, -181.54969787597656, -151.94839477539062, 256.8077087402344, -49.53497314453125, 0.01600000075995922, 0.06400000303983688, 1.055999994277954, 0.0, 0.0, 0.0, 0.0, 0.0, 1.6203970754278412E9, 2021-05-07 16:17:55.427
63.0, -180.91766357421875, -150.38137817382812, 267.04754638671875, -21.923294067382812, 0.01600000075995922, 0.06400000303983688, 1.055999994277954, 0.0, 0.0, 0.0, 0.0, 0.0, 1.6203970754278412E9, 2021-05-07 16:17:55.427
64.0, -179.13746643066406, -136.78683471679688, 252.1178741455078, -50.97857666015625, 0.01600000075995922, 0.06400000303983688, 1.055999994277954, 0.0, 0.0, 0.0, 0.0, 0.0, 1.6203970754588869E9, 2021-05-07 16:17:55.458
64.0, -191.1500244140625, -153.85948181152344, 234.96295166015625, -42.23843002319336, 0.01600000075995922, 0.06400000303983688, 1.055999994277954, 0.0, 0.0, 0.0, 0.0, 0.0, 1.6203970754588869E9, 2021-05-07 16:17:55.458
65.0, -187.15206909179688, -155.70700073242188, 245.53564453125, -31.14588737487793, 0.01600000075995922, 0.06400000303983688, 1.055999994277954, 0.0, 0.0, 0.0, 0.0, 0.0, 1.6203970754740784E9, 2021-05-07 16:17:55.474
65.0, -174.9600067138672, -143.40646362304688, 259.8033752441406, -23.329496383666992, 0.01600000075995922, 0.06400000303983688, 1.055999994277954, 0.0, 0.0, 0.0, 0.0, 0.0, 1.6203970754740784E9, 2021-05-07 16:17:55.474
66.0, -216.09141540527344, -152.5019073486328, 235.7109375, -31.740530014038086, 0.01600000075995922, 0.06400000303983688, 1.055999994277954, 0.0, 0.0, 0.0, 0.0, 0.0, 1.620397075474798E9, 2021-05-07 16:17:55.474
66.0, -180.4239959716797, -149.00509643554688, 230.5311737060547, -31.332881927490234, 0.01600000075995922, 0.06400000303983688, 1.055999994277954, 0.0, 0.0, 0.0, 0.0, 0.0, 1.620397075474798E9, 2021-05-07 16:17:55.474
67.0, -200.0135955810547, -150.47860717773438, 242.26698303222656, -26.388734817504883, 0.01600000075995922, 0.06400000303983688, 1.055999994277954, 0.0, 0.0, 0.0, 0.0, 0.0, 1.620397075489279E9, 2021-05-07 16:17:55.489
67.0, -207.8524169921875, -162.364013671875, 233.56423950195312, -41.542808532714844, 0.01600000075995922, 0.06400000303983688, 1.055999994277954, 0.0, 0.0, 0.0, 0.0, 0.0, 1.620397075489279E9, 2021-05-07 16:17:55.489
68.0, -189.4633331298828, -148.51516723632812, 236.30557250976562, -26.18303871154785, 0.01600000075995922, 0.06400000303983688, 1.055999994277954, 0.0, 0.0, 0.0, 0.0, 0.0, 1.620397075490022E9, 2021-05-07 16:17:55.490
68.0, -193.18453979492188, -158.6016845703125, 235.77450561523438, -44.3552131652832, 0.01600000075995922, 0.06400000303983688, 1.055999994277954, 0.0, 0.0, 0.0, 0.0, 0.0, 1.620397075490022E9, 2021-05-07 16:17:55.490
69.0, -192.0064697265625, -160.9279022216797, 235.9727325439453, -44.28789520263672, 0.01600000075995922, 0.06400000303983688, 1.055999994277954, 0.0, 0.0, 0.0, 0.0, 0.0, 1.6203970754906673E9, 2021-05-07 16:17:55.490
69.0, -188.76771545410156, -155.66586303710938, 242.0201416015625, -48.566341400146484, 0.01600000075995922, 0.06400000303983688, 1.055999994277954, 0.0, 0.0, 0.0, 0.0, 0.0, 1.6203970754906673E9, 2021-05-07 16:17:55.490
70.0, -178.54656982421875, -154.22225952148438, 248.49017333984375, -42.459083557128906, 0.01600000075995922, 0.06400000303983688, 1.055999994277954, 0.0, 0.0, 0.0, 0.0, 0.0, 1.6203970755029595E9, 2021-05-07 16:17:55.502
70.0, -181.366455078125, -154.85055541992188, 240.61019897460938, -48.083892822265625, 0.01600000075995922, 0.06400000303983688, 1.055999994277954, 0.0, 0.0, 0.0, 0.0, 0.0, 1.6203970755029595E9, 2021-05-07 16:17:55.502
71.0, -183.07931518554688, -156.8065185546875, 251.1829071044922, -47.504207611083984, 0.01600000075995922, 0.06400000303983688, 1.055999994277954, 0.0, 0.0, 0.0, 0.0, 0.0, 1.6203970755348792E9, 2021-05-07 16:17:55.534
71.0, -175.8912353515625, -148.35061645507812, 260.8580322265625, -20.55449104309082, 0.01600000075995922, 0.06400000303983688, 1.055999994277954, 0.0, 0.0, 0.0, 0.0, 0.0, 1.6203970755348792E9, 2021-05-07 16:17:55.534
72.0, -176.04083251953125, -147.66995239257812, 253.32586669921875, -56.5211067199707, 0.01600000075995922, 0.06400000303983688, 1.055999994277954, 0.0, 0.0, 0.0, 0.0, 0.0, 1.620397075535629E9, 2021-05-07 16:17:55.535
72.0, -184.17137145996094, -158.21646118164062, 252.46194458007812, -47.63136672973633, 0.01600000075995922, 0.06400000303983688, 1.055999994277954, 0.0, 0.0, 0.0, 0.0, 0.0, 1.620397075535629E9, 2021-05-07 16:17:55.535
73.0, -159.17388916015625, -152.1952362060547, 254.13368225097656, -46.995582580566406, 0.01600000075995922, 0.06400000303983688, 1.055999994277954, 0.0, 0.0, 0.0, 0.0, 0.0, 1.620397075536419E9, 2021-05-07 16:17:55.536
73.0, -194.2877960205078, -150.332763671875, 251.03330993652344, -35.99653625488281, 0.01600000075995922, 0.06400000303983688, 1.055999994277954, 0.0, 0.0, 0.0, 0.0, 0.0, 1.620397075536419E9, 2021-05-07 16:17:55.536
74.0, -186.51629638671875, -154.70095825195312, 243.45626831054688, -39.691558837890625, 0.01600000075995922, 0.06400000303983688, 1.055999994277954, 0.0, 0.0, 0.0, 0.0, 0.0, 1.6203970755372107E9, 2021-05-07 16:17:55.537
74.0, -164.85853576660156, -150.73292541503906, 242.9551239013672, -23.093881607055664, 0.01600000075995922, 0.06400000303983688, 1.055999994277954, 0.0, 0.0, 0.0, 0.0, 0.0, 1.6203970755372107E9, 2021-05-07 16:17:55.537
75.0, -215.2349853515625, -172.29345703125, 225.6730499267578, -41.98411560058594, 0.01600000075995922, 0.06400000303983688, 1.055999994277954, 0.0, 0.0, 0.0, 0.0, 0.0, 1.620397075547799E9, 2021-05-07 16:17:55.547
75.0, -193.5585174560547, -166.6574249267578, 232.6591796875, -23.26591682434082, 0.01600000075995922, 0.06400000303983688, 1.055999994277954, 0.0, 0.0, 0.0, 0.0, 0.0, 1.620397075547799E9, 2021-05-07 16:17:55.547
76.0, -197.32460021972656, -157.8723907470703, 227.38217163085938, -26.235397338867188, 0.01600000075995922, 0.06400000303983688, 1.055999994277954, 0.0, 0.0, 0.0, 0.0, 0.0, 1.620397075562872E9, 2021-05-07 16:17:55.562
76.0, -192.47769165039062, -173.99510192871094, 225.4785614013672, -34.04056930541992, 0.01600000075995922, 0.06400000303983688, 1.055999994277954, 0.0, 0.0, 0.0, 0.0, 0.0, 1.620397075562872E9, 2021-05-07 16:17:55.562
77.0, -187.18572998046875, -171.43701171875, 233.7923583984375, -30.655960083007812, 0.01600000075995922, 0.06400000303983688, 1.055999994277954, 0.0, 0.0, 0.0, 0.0, 0.0, 1.6203970755785468E9, 2021-05-07 16:17:55.578
77.0, -186.4078369140625, -156.12960815429688, 248.6846466064453, -26.654266357421875, 0.01600000075995922, 0.06400000303983688, 1.055999994277954, 0.0, 0.0, 0.0, 0.0, 0.0, 1.6203970755785468E9, 2021-05-07 16:17:55.578
78.0, -180.19586181640625, -153.0853271484375, 245.22149658203125, -30.18473243713379, 0.01600000075995922, 0.06400000303983688, 1.055999994277954, 0.0, 0.0, 0.0, 0.0, 0.0, 1.6203970755792384E9, 2021-05-07 16:17:55.579
78.0, -179.72837829589844, -150.92739868164062, 239.24513244628906, -37.1072883605957, 0.01600000075995922, 0.06400000303983688, 1.055999994277954, 0.0, 0.0, 0.0, 0.0, 0.0, 1.6203970755792384E9, 2021-05-07 16:17:55.579
79.0, -183.58421325683594, -155.8790283203125, 247.155029296875, -45.510841369628906, 0.01600000075995922, 0.06400000303983688, 1.055999994277954, 0.0, 0.0, 0.0, 0.0, 0.0, 1.6203970755928838E9, 2021-05-07 16:17:55.592
79.0, -179.829345703125, -150.77780151367188, 256.7104797363281, -41.082801818847656, 0.01600000075995922, 0.06400000303983688, 1.055999994277954, 0.0, 0.0, 0.0, 0.0, 0.0, 1.6203970755928838E9, 2021-05-07 16:17:55.592
80.0, -177.09173583984375, -146.49935913085938, 256.8974609375, -26.93475914001465, 0.01600000075995922, 0.06400000303983688, 1.055999994277954, 0.0, 0.0, 0.0, 0.0, 0.0, 1.6203970756085837E9, 2021-05-07 16:17:55.608
80.0, -178.47177124023438, -158.96444702148438, 247.9217071533203, -59.161476135253906, 0.01600000075995922, 0.06400000303983688, 1.055999994277954, 0.0, 0.0, 0.0, 0.0, 0.0, 1.6203970756085837E9, 2021-05-07 16:17:55.608
81.0, -184.3658447265625, -155.3778839111328, 254.197265625, -53.439430236816406, 0.01600000075995922, 0.08000000566244125, 1.055999994277954, 0.0, 0.0, 0.0, 0.0, 0.0, 1.6203970756092904E9, 2021-05-07 16:17:55.609
81.0, -145.61300659179688, -140.30982971191406, 270.49200439453125, -39.90473175048828, 0.01600000075995922, 0.08000000566244125, 1.055999994277954, 0.0, 0.0, 0.0, 0.0, 0.0, 1.6203970756092904E9, 2021-05-07 16:17:55.609
82.0, -190.2674102783203, -147.4081573486328, 258.0343933105469, -36.19475173950195, 0.01600000075995922, 0.08000000566244125, 1.055999994277954, 0.0, 0.0, 0.0, 0.0, 0.0, 1.6203970756229024E9, 2021-05-07 16:17:55.622
82.0, -184.39950561523438, -140.90072631835938, 256.7740478515625, -35.386932373046875, 0.01600000075995922, 0.08000000566244125, 1.055999994277954, 0.0, 0.0, 0.0, 0.0, 0.0, 1.6203970756229024E9, 2021-05-07 16:17:55.622
83.0, -172.24856567382812, -140.8221893310547, 265.0242614746094, -40.686370849609375, 0.01600000075995922, 0.08000000566244125, 1.055999994277954, 0.0, 0.0, 0.0, 0.0, 0.0, 1.6203970756387582E9, 2021-05-07 16:17:55.638
83.0, -189.14169311523438, -162.4836883544922, 259.54156494140625, -46.06060791015625, 0.01600000075995922, 0.08000000566244125, 1.055999994277954, 0.0, 0.0, 0.0, 0.0, 0.0, 1.6203970756387582E9, 2021-05-07 16:17:55.638
84.0, -187.0772705078125, -148.50021362304688, 253.06407165527344, -40.6414909362793, 0.01600000075995922, 0.08000000566244125, 1.055999994277954, 0.0, 0.0, 0.0, 0.0, 0.0, 1.6203970756393187E9, 2021-05-07 16:17:55.639
84.0, -171.32481384277344, -157.5358123779297, 253.0453643798828, -35.51034927368164, 0.01600000075995922, 0.08000000566244125, 1.055999994277954, 0.0, 0.0, 0.0, 0.0, 0.0, 1.6203970756393187E9, 2021-05-07 16:17:55.639
85.0, -182.3313446044922, -157.39743041992188, 250.5845184326172, -39.635459899902344, 0.01600000075995922, 0.08000000566244125, 1.055999994277954, 0.0, 0.0, 0.0, 0.0, 0.0, 1.6203970756529665E9, 2021-05-07 16:17:55.652
85.0, -168.302978515625, -163.2578582763672, 257.8548889160156, -31.55353546142578, 0.01600000075995922, 0.08000000566244125, 1.055999994277954, 0.0, 0.0, 0.0, 0.0, 0.0, 1.6203970756529665E9, 2021-05-07 16:17:55.652
86.0, -223.66098022460938, -181.63572692871094, 223.0027618408203, -51.9210319519043, 0.01600000075995922, 0.08000000566244125, 1.055999994277954, 0.0, 0.0, 0.0, 0.0, 0.0, 1.6203970756686296E9, 2021-05-07 16:17:55.668
86.0, -189.2389373779297, -163.05215454101562, 234.0504150390625, -40.611572265625, 0.01600000075995922, 0.08000000566244125, 1.055999994277954, 0.0, 0.0, 0.0, 0.0, 0.0, 1.6203970756686296E9, 2021-05-07 16:17:55.668
87.0, -191.92044067382812, -163.1793212890625, 239.361083984375, -42.95275115966797, 0.01600000075995922, 0.08000000566244125, 1.055999994277954, 0.0, 0.0, 0.0, 0.0, 0.0, 1.6203970756693292E9, 2021-05-07 16:17:55.669
87.0, -184.2012939453125, -155.77430725097656, 249.3466033935547, -33.97698974609375, 0.01600000075995922, 0.08000000566244125, 1.055999994277954, 0.0, 0.0, 0.0, 0.0, 0.0, 1.6203970756693292E9, 2021-05-07 16:17:55.669
88.0, -177.31239318847656, -154.07640075683594, 247.3644561767578, -36.35930633544922, 0.01600000075995922, 0.08000000566244125, 1.055999994277954, 0.0, 0.0, 0.0, 0.0, 0.0, 1.6203970756996453E9, 2021-05-07 16:17:55.699
88.0, -184.81463623046875, -161.67587280273438, 240.18385314941406, -36.018978118896484, 0.01600000075995922, 0.08000000566244125, 1.055999994277954, 0.0, 0.0, 0.0, 0.0, 0.0, 1.6203970756996453E9, 2021-05-07 16:17:55.699
89.0, -174.7917022705078, -151.8511505126953, 245.546875, -52.07436752319336, 0.01600000075995922, 0.08000000566244125, 1.055999994277954, 0.0, 0.0, 0.0, 0.0, 0.0, 1.620397075700352E9, 2021-05-07 16:17:55.700
89.0, -152.5019073486328, -143.5074462890625, 258.67767333984375, -40.81726837158203, 0.01600000075995922, 0.08000000566244125, 1.055999994277954, 0.0, 0.0, 0.0, 0.0, 0.0, 1.620397075700352E9, 2021-05-07 16:17:55.700
90.0, -202.0106964111328, -154.1511993408203, 246.474365234375, -51.25906753540039, 0.01600000075995922, 0.08000000566244125, 1.055999994277954, 0.0, 0.0, 0.0, 0.0, 0.0, 1.6203970757135255E9, 2021-05-07 16:17:55.713
90.0, -180.01260375976562, -150.74789428710938, 245.86476135253906, -55.32059860229492, 0.01600000075995922, 0.08000000566244125, 1.055999994277954, 0.0, 0.0, 0.0, 0.0, 0.0, 1.6203970757135255E9, 2021-05-07 16:17:55.713
91.0, -176.5756378173828, -157.0683135986328, 253.1725311279297, -49.07122802734375, 0.01600000075995922, 0.08000000566244125, 1.055999994277954, 0.0, 0.0, 0.0, 0.0, 0.0, 1.6203970757142377E9, 2021-05-07 16:17:55.714
91.0, -178.15013122558594, -144.6929931640625, 257.65667724609375, -48.04649353027344, 0.01600000075995922, 0.08000000566244125, 1.055999994277954, 0.0, 0.0, 0.0, 0.0, 0.0, 1.6203970757142377E9, 2021-05-07 16:17:55.714
92.0, -178.19500732421875, -148.4702911376953, 249.2418975830078, -44.684326171875, 0.01600000075995922, 0.08000000566244125, 1.055999994277954, 0.0, 0.0, 0.0, 0.0, 0.0, 1.6203970757285316E9, 2021-05-07 16:17:55.728
92.0, -183.31494140625, -148.4628143310547, 244.20425415039062, -38.86878204345703, 0.01600000075995922, 0.08000000566244125, 1.055999994277954, 0.0, 0.0, 0.0, 0.0, 0.0, 1.6203970757285316E9, 2021-05-07 16:17:55.728
93.0, -185.5065155029297, -156.30911254882812, 244.21546936035156, -42.47030258178711, 0.01600000075995922, 0.08000000566244125, 1.055999994277954, 0.0, 0.0, 0.0, 0.0, 0.0, 1.620397075729293E9, 2021-05-07 16:17:55.729
93.0, -181.72921752929688, -156.41009521484375, 253.23236083984375, -31.64703369140625, 0.01600000075995922, 0.08000000566244125, 1.055999994277954, 0.0, 0.0, 0.0, 0.0, 0.0, 1.620397075729293E9, 2021-05-07 16:17:55.729
94.0, -181.7815704345703, -156.70928955078125, 244.47726440429688, -43.749351501464844, 0.01600000075995922, 0.08000000566244125, 1.055999994277954, 0.0, 0.0, 0.0, 0.0, 0.0, 1.6203970757428994E9, 2021-05-07 16:17:55.742
94.0, -168.5572967529297, -159.33470153808594, 244.87368774414062, -39.25025177001953, 0.01600000075995922, 0.08000000566244125, 1.055999994277954, 0.0, 0.0, 0.0, 0.0, 0.0, 1.6203970757428994E9, 2021-05-07 16:17:55.742
95.0, -197.45550537109375, -163.05963134765625, 234.41693115234375, -39.52700424194336, 0.01600000075995922, 0.08000000566244125, 1.055999994277954, 0.0, 0.0, 0.0, 0.0, 0.0, 1.62039707575853E9, 2021-05-07 16:17:55.758
95.0, -185.87677001953125, -156.48489379882812, 248.59115600585938, -35.005462646484375, 0.01600000075995922, 0.08000000566244125, 1.055999994277954, 0.0, 0.0, 0.0, 0.0, 0.0, 1.62039707575853E9, 2021-05-07 16:17:55.758
96.0, -181.55718994140625, -161.74319458007812, 249.21571350097656, -31.39272117614746, 0.01600000075995922, 0.08000000566244125, 1.055999994277954, 0.0, 0.0, 0.0, 0.0, 0.0, 1.6203970757592251E9, 2021-05-07 16:17:55.759
96.0, -181.94239807128906, -158.5455780029297, 245.0681610107422, -29.952857971191406, 0.01600000075995922, 0.08000000566244125, 1.055999994277954, 0.0, 0.0, 0.0, 0.0, 0.0, 1.6203970757592251E9, 2021-05-07 16:17:55.759
97.0, -188.67420959472656, -167.1548309326172, 241.54518127441406, -22.869487762451172, 0.01600000075995922, 0.08000000566244125, 1.055999994277954, 0.0, 0.0, 0.0, 0.0, 0.0, 1.6203970757728083E9, 2021-05-07 16:17:55.772
97.0, -153.3284149169922, -158.90460205078125, 253.41188049316406, -39.4671630859375, 0.01600000075995922, 0.08000000566244125, 1.055999994277954, 0.0, 0.0, 0.0, 0.0, 0.0, 1.6203970757728083E9, 2021-05-07 16:17:55.772
98.0, -197.3732147216797, -146.5105743408203, 244.0060272216797, -35.76466369628906, 0.01600000075995922, 0.08000000566244125, 1.055999994277954, 0.0, 0.0, 0.0, 0.0, 0.0, 1.62039707580567E9, 2021-05-07 16:17:55.805
98.0, -181.8750762939453, -156.58961486816406, 238.05210876464844, -37.64583206176758, 0.01600000075995922, 0.08000000566244125, 1.055999994277954, 0.0, 0.0, 0.0, 0.0, 0.0, 1.62039707580567E9, 2021-05-07 16:17:55.805
99.0, -183.4794921875, -148.0028076171875, 243.5422821044922, -45.69409942626953, 0.01600000075995922, 0.08000000566244125, 1.055999994277954, 0.0, 0.0, 0.0, 0.0, 0.0, 1.6203970758063104E9, 2021-05-07 16:17:55.806
99.0, -173.75201416015625, -165.44943237304688, 242.6222686767578, -49.852867126464844, 0.01600000075995922, 0.08000000566244125, 1.055999994277954, 0.0, 0.0, 0.0, 0.0, 0.0, 1.6203970758063104E9, 2021-05-07 16:17:55.806
100.0, -176.38864135742188, -151.847412109375, 247.7496795654297, -42.115013122558594, 0.01600000075995922, 0.08000000566244125, 1.055999994277954, 0.0, 0.0, 0.0, 0.0, 0.0, 1.620397075807159E9, 2021-05-07 16:17:55.807
100.0, -171.07798767089844, -136.75692749023438, 248.19845581054688, -44.134559631347656, 0.01600000075995922, 0.08000000566244125, 1.055999994277954, 0.0, 0.0, 0.0, 0.0, 0.0, 1.620397075807159E9, 2021-05-07 16:17:55.807
0.0, -173.5238800048828, -151.35562133789062, 252.7499237060547, -49.19651412963867, 0.01600000075995922, 0.08000000566244125, 1.055999994277954, 0.0, 0.0, 0.0, 0.0, 0.0, 1.6203970758078675E9, 2021-05-07 16:17:55.807
1.0, -168.2618408203125, -140.97740173339844, 261.70697021484375, -41.97850799560547, 0.01600000075995922, 0.08000000566244125, 1.055999994277954, 0.0, 0.0, 0.0, 0.0, 0.0, 1.6203970758178294E9, 2021-05-07 16:17:55.817
1.0, -184.43316650390625, -145.5064239501953, 244.3575897216797, -49.125457763671875, 0.01600000075995922, 0.08000000566244125, 1.055999994277954, 0.0, 0.0, 0.0, 0.0, 0.0, 1.6203970758178294E9, 2021-05-07 16:17:55.817
2.0, -178.7821807861328, -135.490966796875, 244.21173095703125, -39.2147216796875, 0.01600000075995922, 0.08000000566244125, 1.055999994277954, 0.0, 0.0, 0.0, 0.0, 0.0, 1.6203970758335412E9, 2021-05-07 16:17:55.833
2.0, -190.61148071289062, -160.8474884033203, 241.75086975097656, -45.18360137939453, 0.01600000075995922, 0.08000000566244125, 1.055999994277954, 0.0, 0.0, 0.0, 0.0, 0.0, 1.6203970758335412E9, 2021-05-07 16:17:55.833
3.0, -182.9708709716797, -153.00865173339844, 251.44094848632812, -27.99502182006836, 0.01600000075995922, 0.08000000566244125, 1.055999994277954, 0.0, 0.0, 0.0, 0.0, 0.0, 1.6203970758343327E9, 2021-05-07 16:17:55.834
3.0, -184.5865020751953, -153.58834838867188, 238.05958557128906, -30.859785079956055, 0.01600000075995922, 0.08000000566244125, 1.055999994277954, 0.0, 0.0, 0.0, 0.0, 0.0, 1.6203970758343327E9, 2021-05-07 16:17:55.834
4.0, -184.81463623046875, -148.8386688232422, 237.2779541015625, -25.29481315612793, 0.01600000075995922, 0.08000000566244125, 1.055999994277954, 0.0, 0.0, 0.0, 0.0, 0.0, 1.6203970758477888E9, 2021-05-07 16:17:55.847
4.0, -188.55453491210938, -153.87257385253906, 237.7005615234375, -24.27008056640625, 0.01600000075995922, 0.08000000566244125, 1.055999994277954, 0.0, 0.0, 0.0, 0.0, 0.0, 1.6203970758477888E9, 2021-05-07 16:17:55.847
5.0, -148.0439453125, -162.17515563964844, 249.85150146484375, -19.583986282348633, 0.01600000075995922, 0.08000000566244125, 1.055999994277954, 0.0, 0.0, 0.0, 0.0, 0.0, 1.6203970758635328E9, 2021-05-07 16:17:55.863
5.0, -207.91600036621094, -169.33706665039062, 231.0098876953125, -17.69159698486328, 0.01600000075995922, 0.08000000566244125, 1.055999994277954, 0.0, 0.0, 0.0, 0.0, 0.0, 1.6203970758635328E9, 2021-05-07 16:17:55.863
6.0, -162.88760375976562, -159.51608276367188, 238.8038330078125, -18.331119537353516, 0.01600000075995922, 0.08000000566244125, 1.055999994277954, 0.0, 0.0, 0.0, 0.0, 0.0, 1.620397075864286E9, 2021-05-07 16:17:55.864
6.0, -214.51318359375, -179.00469970703125, 222.9466552734375, -39.768226623535156, 0.01600000075995922, 0.08000000566244125, 1.055999994277954, 0.0, 0.0, 0.0, 0.0, 0.0, 1.620397075864286E9, 2021-05-07 16:17:55.864
7.0, -179.18234252929688, -154.80380249023438, 242.84666442871094, -24.789926528930664, 0.01600000075995922, 0.08000000566244125, 1.055999994277954, 0.0, 0.0, 0.0, 0.0, 0.0, 1.6203970758778405E9, 2021-05-07 16:17:55.877
7.0, -181.0934295654297, -163.95159912109375, 233.68765258789062, -30.635391235351562, 0.01600000075995922, 0.08000000566244125, 1.055999994277954, 0.0, 0.0, 0.0, 0.0, 0.0, 1.6203970758778405E9, 2021-05-07 16:17:55.877
8.0, -172.94419860839844, -161.2289581298828, 236.56362915039062, -36.92216110229492, 0.01600000075995922, 0.08000000566244125, 1.055999994277954, 0.0, 0.0, 0.0, 0.0, 0.0, 1.620397075893649E9, 2021-05-07 16:17:55.893
8.0, -168.71063232421875, -160.3800048828125, 251.3960723876953, -36.66410827636719, 0.01600000075995922, 0.08000000566244125, 1.055999994277954, 0.0, 0.0, 0.0, 0.0, 0.0, 1.620397075893649E9, 2021-05-07 16:17:55.893
9.0, -177.40216064453125, -158.4352569580078, 250.8089141845703, -45.019046783447266, 0.01600000075995922, 0.08000000566244125, 1.055999994277954, 0.0, 0.0, 0.0, 0.0, 0.0, 1.620397075894319E9, 2021-05-07 16:17:55.894
9.0, -185.944091796875, -152.76182556152344, 241.6835479736328, -54.226680755615234, 0.01600000075995922, 0.08000000566244125, 1.055999994277954, 0.0, 0.0, 0.0, 0.0, 0.0, 1.620397075894319E9, 2021-05-07 16:17:55.894
10.0, -175.32650756835938, -138.4043426513672, 241.72470092773438, -48.65422821044922, 0.01600000075995922, 0.08000000566244125, 1.055999994277954, 0.0, 0.0, 0.0, 0.0, 0.0, 1.620397075924976E9, 2021-05-07 16:17:55.924
10.0, -178.0529022216797, -161.4458770751953, 249.5298614501953, -51.406795501708984, 0.01600000075995922, 0.08000000566244125, 1.055999994277954, 0.0, 0.0, 0.0, 0.0, 0.0, 1.620397075924976E9, 2021-05-07 16:17:55.924
11.0, -178.44558715820312, -146.27310180664062, 256.2654113769531, -50.34840393066406, 0.01600000075995922, 0.06400000303983688, 1.055999994277954, 0.0, 0.0, 0.0, 0.0, 0.0, 1.6203970759256985E9, 2021-05-07 16:17:55.925
11.0, -171.6913299560547, -122.01984405517578, 250.77899169921875, -46.3915901184082, 0.01600000075995922, 0.06400000303983688, 1.055999994277954, 0.0, 0.0, 0.0, 0.0, 0.0, 1.6203970759256985E9, 2021-05-07 16:17:55.925
12.0, -163.2653350830078, -154.41485595703125, 245.19532775878906, -40.467586517333984, 0.01600000075995922, 0.06400000303983688, 1.055999994277954, 0.0, 0.0, 0.0, 0.0, 0.0, 1.6203970759264293E9, 2021-05-07 16:17:55.926
12.0, -180.8092041015625, -160.2864990234375, 243.61334228515625, -64.94149017333984, 0.01600000075995922, 0.06400000303983688, 1.055999994277954, 0.0, 0.0, 0.0, 0.0, 0.0, 1.6203970759264293E9, 2021-05-07 16:17:55.926
13.0, -190.7236785888672, -151.86424255371094, 248.37049865722656, -49.390987396240234, 0.01600000075995922, 0.06400000303983688, 1.055999994277954, 0.0, 0.0, 0.0, 0.0, 0.0, 1.6203970759380171E9, 2021-05-07 16:17:55.938
13.0, -184.23121643066406, -151.265869140625, 237.80902099609375, -50.42320251464844, 0.01600000075995922, 0.06400000303983688, 1.055999994277954, 0.0, 0.0, 0.0, 0.0, 0.0, 1.6203970759380171E9, 2021-05-07 16:17:55.938
14.0, -172.8394775390625, -145.1922607421875, 233.52308654785156, -46.245731353759766, 0.01600000075995922, 0.06400000303983688, 1.055999994277954, 0.0, 0.0, 0.0, 0.0, 0.0, 1.6203970759535902E9, 2021-05-07 16:17:55.953
14.0, -180.24073791503906, -151.62489318847656, 232.31884765625, -51.46663284301758, 0.01600000075995922, 0.06400000303983688, 1.055999994277954, 0.0, 0.0, 0.0, 0.0, 0.0, 1.6203970759535902E9, 2021-05-07 16:17:55.953
15.0, -177.03564453125, -157.44044494628906, 242.25201416015625, -45.93906021118164, 0.01600000075995922, 0.06400000303983688, 1.055999994277954, 0.0, 0.0, 0.0, 0.0, 0.0, 1.6203970759543808E9, 2021-05-07 16:17:55.954
15.0, -179.23471069335938, -154.96836853027344, 230.80418395996094, -47.37518310546875, 0.01600000075995922, 0.06400000303983688, 1.055999994277954, 0.0, 0.0, 0.0, 0.0, 0.0, 1.6203970759543808E9, 2021-05-07 16:17:55.954
16.0, -149.1920928955078, -146.57977294921875, 240.61767578125, -40.65458297729492, 0.01600000075995922, 0.06400000303983688, 1.055999994277954, 0.0, 0.0, 0.0, 0.0, 0.0, 1.6203970759678037E9, 2021-05-07 16:17:55.967
16.0, -201.69281005859375, -153.8800506591797, 223.84048461914062, -55.05319595336914, 0.01600000075995922, 0.06400000303983688, 1.055999994277954, 0.0, 0.0, 0.0, 0.0, 0.0, 1.6203970759678037E9, 2021-05-07 16:17:55.967
17.0, -177.39840698242188, -150.31967163085938, 238.83375549316406, -41.4923210144043, 0.01600000075995922, 0.06400000303983688, 1.055999994277954, 0.0, 0.0, 0.0, 0.0, 0.0, 1.6203970759835076E9, 2021-05-07 16:17:55.983
17.0, -171.66140747070312, -135.09078979492188, 237.08721923828125, -41.754112243652344, 0.01600000075995922, 0.06400000303983688, 1.055999994277954, 0.0, 0.0, 0.0, 0.0, 0.0, 1.6203970759835076E9, 2021-05-07 16:17:55.983
18.0, -178.984130859375, -156.8121337890625, 228.83700561523438, -53.246826171875, 0.01600000075995922, 0.06400000303983688, 1.055999994277954, 0.0, 0.0, 0.0, 0.0, 0.0, 1.6203970759842303E9, 2021-05-07 16:17:55.984
18.0, -168.84152221679688, -151.53140258789062, 234.5665283203125, -49.62286376953125, 0.01600000075995922, 0.06400000303983688, 1.055999994277954, 0.0, 0.0, 0.0, 0.0, 0.0, 1.6203970759842303E9, 2021-05-07 16:17:55.984
19.0, -150.2953643798828, -127.12480926513672, 255.10980224609375, -28.29047393798828, 0.01600000075995922, 0.06400000303983688, 1.055999994277954, 0.0, 0.0, 0.0, 0.0, 0.0, 1.6203970759979312E9, 2021-05-07 16:17:55.997
19.0, -185.5065155029297, -140.68942260742188, 239.80612182617188, -56.67631530761719, 0.01600000075995922, 0.06400000303983688, 1.055999994277954, 0.0, 0.0, 0.0, 0.0, 0.0, 1.6203970759979312E9, 2021-05-07 16:17:55.997
20.0, -173.1237030029297, -144.8893280029297, 239.61538696289062, -55.39726638793945, 0.01600000075995922, 0.06400000303983688, 1.055999994277954, 0.0, 0.0, 0.0, 0.0, 0.0, 1.620397076013513E9, 2021-05-07 16:17:56.013
20.0, -184.39202880859375, -141.57577514648438, 241.42550659179688, -53.35154342651367, 0.01600000075995922, 0.06400000303983688, 1.055999994277954, 0.0, 0.0, 0.0, 0.0, 0.0, 1.620397076013513E9, 2021-05-07 16:17:56.013
21.0, -181.29165649414062, -136.26512145996094, 247.9591064453125, -48.66544723510742, 0.01600000075995922, 0.06400000303983688, 1.055999994277954, 0.0, 0.0, 0.0, 0.0, 0.0, 1.6203970760142145E9, 2021-05-07 16:17:56.014
21.0, -170.28138732910156, -129.78013610839844, 246.7772979736328, -47.71177291870117, 0.01600000075995922, 0.06400000303983688, 1.055999994277954, 0.0, 0.0, 0.0, 0.0, 0.0, 1.6203970760142145E9, 2021-05-07 16:17:56.014
22.0, -170.87228393554688, -138.05279541015625, 236.97128295898438, -48.74398422241211, 0.01600000075995922, 0.06400000303983688, 1.055999994277954, 0.0, 0.0, 0.0, 0.0, 0.0, 1.6203970760279944E9, 2021-05-07 16:17:56.027
22.0, -182.6791534423828, -150.63755798339844, 234.53286743164062, -47.37144088745117, 0.01600000075995922, 0.06400000303983688, 1.055999994277954, 0.0, 0.0, 0.0, 0.0, 0.0, 1.6203970760279944E9, 2021-05-07 16:17:56.027
23.0, -183.03070068359375, -149.0854949951172, 242.92893981933594, -39.87294387817383, 0.01600000075995922, 0.06400000303983688, 1.055999994277954, 0.0, 0.0, 0.0, 0.0, 0.0, 1.6203970760436127E9, 2021-05-07 16:17:56.043
23.0, -191.80450439453125, -153.50979614257812, 233.69886779785156, -37.16525650024414, 0.01600000075995922, 0.06400000303983688, 1.055999994277954, 0.0, 0.0, 0.0, 0.0, 0.0, 1.6203970760436127E9, 2021-05-07 16:17:56.043
24.0, -180.23699951171875, -148.50955200195312, 229.54757690429688, -37.74494171142578, 0.01600000075995922, 0.06400000303983688, 1.055999994277954, 0.0, 0.0, 0.0, 0.0, 0.0, 1.620397076044211E9, 2021-05-07 16:17:56.044
24.0, -178.54656982421875, -158.8990020751953, 229.28204345703125, -31.783540725708008, 0.01600000075995922, 0.06400000303983688, 1.055999994277954, 0.0, 0.0, 0.0, 0.0, 0.0, 1.620397076044211E9, 2021-05-07 16:17:56.044
25.0, -177.86964416503906, -156.62887573242188, 236.96754455566406, -24.692689895629883, 0.01600000075995922, 0.06400000303983688, 1.055999994277954, 0.0, 0.0, 0.0, 0.0, 0.0, 1.6203970760580196E9, 2021-05-07 16:17:56.058
25.0, -160.8755340576172, -149.33233642578125, 241.14126586914062, -17.179229736328125, 0.01600000075995922, 0.06400000303983688, 1.055999994277954, 0.0, 0.0, 0.0, 0.0, 0.0, 1.6203970760580196E9, 2021-05-07 16:17:56.058
26.0, -194.89366149902344, -150.53659057617188, 226.01712036132812, -31.61150360107422, 0.01600000075995922, 0.06400000303983688, 1.055999994277954, 0.0, 0.0, 0.0, 0.0, 0.0, 1.6203970760736763E9, 2021-05-07 16:17:56.073
26.0, -195.18911743164062, -154.71778869628906, 228.8818817138672, -24.831066131591797, 0.01600000075995922, 0.06400000303983688, 1.055999994277954, 0.0, 0.0, 0.0, 0.0, 0.0, 1.6203970760736763E9, 2021-05-07 16:17:56.073
27.0, -185.1437530517578, -175.56399536132812, 231.86631774902344, -37.34477233886719, 0.01600000075995922, 0.06400000303983688, 1.055999994277954, 0.0, 0.0, 0.0, 0.0, 0.0, 1.6203970760742447E9, 2021-05-07 16:17:56.074
27.0, -163.31768798828125, -163.1699676513672, 233.19024658203125, -40.19831466674805, 0.01600000075995922, 0.06400000303983688, 1.055999994277954, 0.0, 0.0, 0.0, 0.0, 0.0, 1.6203970760742447E9, 2021-05-07 16:17:56.074
28.0, -167.39418029785156, -153.90249633789062, 236.9338836669922, -38.64999771118164, 0.01600000075995922, 0.06400000303983688, 1.055999994277954, 0.0, 0.0, 0.0, 0.0, 0.0, 1.6203970760880203E9, 2021-05-07 16:17:56.088
28.0, -185.58505249023438, -154.03338623046875, 239.67149353027344, -42.906002044677734, 0.01600000075995922, 0.06400000303983688, 1.055999994277954, 0.0, 0.0, 0.0, 0.0, 0.0, 1.6203970760880203E9, 2021-05-07 16:17:56.088
29.0, -181.68434143066406, -157.39181518554688, 244.0658721923828, -38.833251953125, 0.01600000075995922, 0.06400000303983688, 1.055999994277954, 0.0, 0.0, 0.0, 0.0, 0.0, 1.6203970761036825E9, 2021-05-07 16:17:56.103
29.0, -182.70533752441406, -151.7258758544922, 236.6907958984375, -47.838932037353516, 0.01600000075995922, 0.06400000303983688, 1.055999994277954, 0.0, 0.0, 0.0, 0.0, 0.0, 1.6203970761036825E9, 2021-05-07 16:17:56.103
30.0, -170.09439086914062, -143.6402130126953, 240.9168701171875, -40.06367874145508, 0.01600000075995922, 0.06400000303983688, 1.055999994277954, 0.0, 0.0, 0.0, 0.0, 0.0, 1.6203970761044161E9, 2021-05-07 16:17:56.104
30.0, -179.4441375732422, -153.6781005859375, 230.16465759277344, -58.894073486328125, 0.01600000075995922, 0.06400000303983688, 1.055999994277954, 0.0, 0.0, 0.0, 0.0, 0.0, 1.6203970761044161E9, 2021-05-07 16:17:56.104
31.0, -173.47900390625, -153.3415069580078, 240.30726623535156, -49.70888137817383, 0.01600000075995922, 0.06400000303983688, 1.055999994277954, 0.0, 0.0, 0.0, 0.0, 0.0, 1.6203970761178412E9, 2021-05-07 16:17:56.117
31.0, -174.50747680664062, -150.5702362060547, 236.7992401123047, -54.19676208496094, 0.01600000075995922, 0.06400000303983688, 1.055999994277954, 0.0, 0.0, 0.0, 0.0, 0.0, 1.6203970761178412E9, 2021-05-07 16:17:56.117
32.0, -180.15846252441406, -146.95750427246094, 223.01023864746094, -52.839176177978516, 0.01600000075995922, 0.06400000303983688, 1.055999994277954, 0.0, 0.0, 0.0, 0.0, 0.0, 1.6203970761334915E9, 2021-05-07 16:17:56.133
32.0, -176.89352416992188, -148.10565185546875, 234.49920654296875, -39.13618469238281, 0.01600000075995922, 0.06400000303983688, 1.055999994277954, 0.0, 0.0, 0.0, 0.0, 0.0, 1.6203970761334915E9, 2021-05-07 16:17:56.133
33.0, -185.169921875, -160.91854858398438, 225.59075927734375, -35.127010345458984, 0.01600000075995922, 0.06400000303983688, 1.055999994277954, 0.0, 0.0, 0.0, 0.0, 0.0, 1.6203970761341937E9, 2021-05-07 16:17:56.134
33.0, -172.16629028320312, -157.698486328125, 232.7003173828125, -24.288780212402344, 0.01600000075995922, 0.06400000303983688, 1.055999994277954, 0.0, 0.0, 0.0, 0.0, 0.0, 1.6203970761341937E9, 2021-05-07 16:17:56.134
34.0, -171.19766235351562, -153.1993865966797, 227.33355712890625, -28.223154067993164, 0.01600000075995922, 0.06400000303983688, 1.055999994277954, 0.0, 0.0, 0.0, 0.0, 0.0, 1.6203970761478004E9, 2021-05-07 16:17:56.147
34.0, -182.17800903320312, -160.42861938476562, 226.0844268798828, -34.62586212158203, 0.01600000075995922, 0.06400000303983688, 1.055999994277954, 0.0, 0.0, 0.0, 0.0, 0.0, 1.6203970761478004E9, 2021-05-07 16:17:56.147
35.0, -164.27883911132812, -153.68557739257812, 244.07708740234375, -19.11275863647461, 0.01600000075995922, 0.06400000303983688, 1.055999994277954, 0.0, 0.0, 0.0, 0.0, 0.0, 1.6203970761639347E9, 2021-05-07 16:17:56.163
35.0, -155.09739685058594, -164.62852478027344, 233.22390747070312, -30.624170303344727, 0.01600000075995922, 0.06400000303983688, 1.055999994277954, 0.0, 0.0, 0.0, 0.0, 0.0, 1.6203970761639347E9, 2021-05-07 16:17:56.163
36.0, -190.58529663085938, -156.91685485839844, 230.359130859375, -43.08551788330078, 0.01600000075995922, 0.06400000303983688, 1.055999994277954, 0.0, 0.0, 0.0, 0.0, 0.0, 1.620397076178563E9, 2021-05-07 16:17:56.178
36.0, -192.4215850830078, -177.09361267089844, 218.7878875732422, -50.939308166503906, 0.01600000075995922, 0.06400000303983688, 1.055999994277954, 0.0, 0.0, 0.0, 0.0, 0.0, 1.620397076178563E9, 2021-05-07 16:17:56.178
37.0, -172.2784881591797, -162.6949920654297, 246.39208984375, -37.07923889160156, 0.01600000075995922, 0.06400000303983688, 1.055999994277954, 0.0, 0.0, 0.0, 0.0, 0.0, 1.6203970761792216E9, 2021-05-07 16:17:56.179
37.0, -170.39358520507812, -162.19384765625, 237.85015869140625, -43.60910415649414, 0.01600000075995922, 0.06400000303983688, 1.055999994277954, 0.0, 0.0, 0.0, 0.0, 0.0, 1.6203970761792216E9, 2021-05-07 16:17:56.179
38.0, -164.58551025390625, -149.1864776611328, 229.36431884765625, -47.36770248413086, 0.01600000075995922, 0.06400000303983688, 1.055999994277954, 0.0, 0.0, 0.0, 0.0, 0.0, 1.620397076193478E9, 2021-05-07 16:17:56.193
38.0, -166.1525421142578, -169.05282592773438, 234.9031219482422, -50.87199020385742, 0.01600000075995922, 0.06400000303983688, 1.055999994277954, 0.0, 0.0, 0.0, 0.0, 0.0, 1.620397076193478E9, 2021-05-07 16:17:56.193
39.0, -183.10923767089844, -169.24729919433594, 240.2923126220703, -56.72867202758789, 0.01600000075995922, 0.06400000303983688, 1.055999994277954, 0.0, 0.0, 0.0, 0.0, 0.0, 1.6203970761943345E9, 2021-05-07 16:17:56.194
39.0, -167.34930419921875, -158.30435180664062, 241.97152709960938, -48.89732360839844, 0.01600000075995922, 0.06400000303983688, 1.055999994277954, 0.0, 0.0, 0.0, 0.0, 0.0, 1.6203970761943345E9, 2021-05-07 16:17:56.194
40.0, -164.61917114257812, -143.63272094726562, 239.21522521972656, -47.06476974487305, 0.01600000075995922, 0.06400000303983688, 1.055999994277954, 0.0, 0.0, 0.0, 0.0, 0.0, 1.6203970762079368E9, 2021-05-07 16:17:56.207
40.0, -178.83827209472656, -160.2902374267578, 232.81251525878906, -52.18095397949219, 0.01600000075995922, 0.06400000303983688, 1.055999994277954, 0.0, 0.0, 0.0, 0.0, 0.0, 1.6203970762079368E9, 2021-05-07 16:17:56.207
41.0, -175.333984375, -158.2183380126953, 240.99166870117188, -46.4514274597168, 0.01600000075995922, 0.06400000303983688, 1.055999994277954, 0.0, 0.0, 0.0, 0.0, 0.0, 1.6203970762236516E9, 2021-05-07 16:17:56.223
41.0, -184.2873077392578, -166.23667907714844, 225.14198303222656, -54.937259674072266, 0.01600000075995922, 0.06400000303983688, 1.055999994277954, 0.0, 0.0, 0.0, 0.0, 0.0, 1.6203970762236516E9, 2021-05-07 16:17:56.223
42.0, -181.97230529785156, -159.6058349609375, 223.7881317138672, -51.590049743652344, 0.01600000075995922, 0.06400000303983688, 1.055999994277954, 0.0, 0.0, 0.0, 0.0, 0.0, 1.6203970762242749E9, 2021-05-07 16:17:56.224
42.0, -171.0181427001953, -160.53334045410156, 234.27854919433594, -49.03569793701172, 0.01600000075995922, 0.06400000303983688, 1.055999994277954, 0.0, 0.0, 0.0, 0.0, 0.0, 1.6203970762242749E9, 2021-05-07 16:17:56.224
43.0, -173.69216918945312, -168.0954132080078, 233.14910888671875, -49.596683502197266, 0.01600000075995922, 0.06400000303983688, 1.055999994277954, 0.0, 0.0, 0.0, 0.0, 0.0, 1.620397076254279E9, 2021-05-07 16:17:56.254
43.0, -157.86865234375, -152.956298828125, 237.95114135742188, -46.97875213623047, 0.01600000075995922, 0.06400000303983688, 1.055999994277954, 0.0, 0.0, 0.0, 0.0, 0.0, 1.620397076254279E9, 2021-05-07 16:17:56.254
44.0, -200.49603271484375, -168.16273498535156, 217.83421325683594, -53.800331115722656, 0.01600000075995922, 0.06400000303983688, 1.055999994277954, 0.0, 0.0, 0.0, 0.0, 0.0, 1.6203970762549622E9, 2021-05-07 16:17:56.254
44.0, -186.778076171875, -166.7453155517578, 234.51416015625, -26.454181671142578, 0.01600000075995922, 0.06400000303983688, 1.055999994277954, 0.0, 0.0, 0.0, 0.0, 0.0, 1.6203970762549622E9, 2021-05-07 16:17:56.254
45.0, -173.0077667236328, -156.53538513183594, 245.793701171875, -62.17396545410156, 0.01600000075995922, 0.06400000303983688, 1.055999994277954, 0.0, 0.0, 0.0, 0.0, 0.0, 1.620397076255738E9, 2021-05-07 16:17:56.255
45.0, -167.1623077392578, -159.80780029296875, 241.4329833984375, -49.00204086303711, 0.01600000075995922, 0.06400000303983688, 1.055999994277954, 0.0, 0.0, 0.0, 0.0, 0.0, 1.620397076255738E9, 2021-05-07 16:17:56.255
46.0, -161.2981414794922, -160.2004852294922, 239.7275848388672, -39.697166442871094, 0.01600000075995922, 0.06400000303983688, 1.055999994277954, 0.0, 0.0, 0.0, 0.0, 0.0, 1.6203970762678266E9, 2021-05-07 16:17:56.267
46.0, -195.69773864746094, -150.0429229736328, 243.3814697265625, -38.908050537109375, 0.01600000075995922, 0.06400000303983688, 1.055999994277954, 0.0, 0.0, 0.0, 0.0, 0.0, 1.6203970762678266E9, 2021-05-07 16:17:56.267
47.0, -181.98353576660156, -155.43585205078125, 241.3544464111328, -43.69886016845703, 0.01600000075995922, 0.06400000303983688, 1.055999994277954, 0.0, 0.0, 0.0, 0.0, 0.0, 1.6203970762834952E9, 2021-05-07 16:17:56.283
47.0, -184.50796508789062, -175.87066650390625, 232.76390075683594, -45.47157287597656, 0.01600000075995922, 0.06400000303983688, 1.055999994277954, 0.0, 0.0, 0.0, 0.0, 0.0, 1.6203970762834952E9, 2021-05-07 16:17:56.283
48.0, -172.47296142578125, -152.6122283935547, 240.34092712402344, -34.850257873535156, 0.01600000075995922, 0.06400000303983688, 1.055999994277954, 0.0, 0.0, 0.0, 0.0, 0.0, 1.6203970762842395E9, 2021-05-07 16:17:56.284
48.0, -181.34400939941406, -165.14837646484375, 234.05789184570312, -42.10566329956055, 0.01600000075995922, 0.06400000303983688, 1.055999994277954, 0.0, 0.0, 0.0, 0.0, 0.0, 1.6203970762842395E9, 2021-05-07 16:17:56.284
49.0, -178.17257690429688, -160.48846435546875, 238.3251190185547, -43.77739715576172, 0.01600000075995922, 0.06400000303983688, 1.055999994277954, 0.0, 0.0, 0.0, 0.0, 0.0, 1.6203970762979715E9, 2021-05-07 16:17:56.297
49.0, -178.70738220214844, -164.28819274902344, 238.49716186523438, -44.480499267578125, 0.01600000075995922, 0.06400000303983688, 1.055999994277954, 0.0, 0.0, 0.0, 0.0, 0.0, 1.6203970762979715E9, 2021-05-07 16:17:56.297
50.0, -182.22288513183594, -164.65097045898438, 223.99757385253906, -57.502830505371094, 0.01600000075995922, 0.06400000303983688, 1.055999994277954, 0.0, 0.0, 0.0, 0.0, 0.0, 1.6203970763135307E9, 2021-05-07 16:17:56.313
50.0, -181.58709716796875, -164.58738708496094, 227.22509765625, -56.77729034423828, 0.01600000075995922, 0.06400000303983688, 1.055999994277954, 0.0, 0.0, 0.0, 0.0, 0.0, 1.6203970763135307E9, 2021-05-07 16:17:56.313
51.0, -168.11224365234375, -170.5824432373047, 236.82168579101562, -52.65217971801758, 0.01600000075995922, 0.08000000566244125, 1.055999994277954, 0.0, 0.0, 0.0, 0.0, 0.0, 1.6203970763142123E9, 2021-05-07 16:17:56.314
51.0, -167.91403198242188, -179.89854431152344, 228.18251037597656, -52.62600326538086, 0.01600000075995922, 0.08000000566244125, 1.055999994277954, 0.0, 0.0, 0.0, 0.0, 0.0, 1.6203970763142123E9, 2021-05-07 16:17:56.314
52.0, -185.63742065429688, -165.94497680664062, 226.66786193847656, -47.34526443481445, 0.01600000075995922, 0.08000000566244125, 1.055999994277954, 0.0, 0.0, 0.0, 0.0, 0.0, 1.620397076327914E9, 2021-05-07 16:17:56.327
52.0, -178.67372131347656, -160.9634246826172, 240.36337280273438, -42.17672348022461, 0.01600000075995922, 0.08000000566244125, 1.055999994277954, 0.0, 0.0, 0.0, 0.0, 0.0, 1.620397076327914E9, 2021-05-07 16:17:56.327
53.0, -179.03274536132812, -161.50196838378906, 242.9962615966797, -32.49412155151367, 0.01600000075995922, 0.08000000566244125, 1.055999994277954, 0.0, 0.0, 0.0, 0.0, 0.0, 1.620397076343562E9, 2021-05-07 16:17:56.343
53.0, -187.02117919921875, -162.09288024902344, 236.72817993164062, -28.24933433532715, 0.01600000075995922, 0.08000000566244125, 1.055999994277954, 0.0, 0.0, 0.0, 0.0, 0.0, 1.620397076343562E9, 2021-05-07 16:17:56.343
54.0, -172.2523193359375, -155.4470672607422, 232.68910217285156, -53.213165283203125, 0.01600000075995922, 0.08000000566244125, 1.055999994277954, 0.0, 0.0, 0.0, 0.0, 0.0, 1.6203970763443046E9, 2021-05-07 16:17:56.344
54.0, -168.24313354492188, -159.0560760498047, 246.6763153076172, -36.88102340698242, 0.01600000075995922, 0.08000000566244125, 1.055999994277954, 0.0, 0.0, 0.0, 0.0, 0.0, 1.6203970763443046E9, 2021-05-07 16:17:56.344
55.0, -173.07508850097656, -145.2034912109375, 245.9657440185547, -31.274913787841797, 0.01600000075995922, 0.08000000566244125, 1.055999994277954, 0.0, 0.0, 0.0, 0.0, 0.0, 1.6203970763579912E9, 2021-05-07 16:17:56.357
55.0, -173.2658233642578, -165.66073608398438, 242.68211364746094, -31.327272415161133, 0.01600000075995922, 0.08000000566244125, 1.055999994277954, 0.0, 0.0, 0.0, 0.0, 0.0, 1.6203970763579912E9, 2021-05-07 16:17:56.357
56.0, -175.88002014160156, -162.25743103027344, 236.5187530517578, -31.323532104492188, 0.01600000075995922, 0.08000000566244125, 1.055999994277954, 0.0, 0.0, 0.0, 0.0, 0.0, 1.620397076374292E9, 2021-05-07 16:17:56.374
56.0, -182.1181640625, -146.3852996826172, 241.12631225585938, -33.8853645324707, 0.01600000075995922, 0.08000000566244125, 1.055999994277954, 0.0, 0.0, 0.0, 0.0, 0.0, 1.620397076374292E9, 2021-05-07 16:17:56.374
57.0, -176.49710083007812, -173.07322692871094, 241.32078552246094, -38.72853469848633, 0.01600000075995922, 0.08000000566244125, 1.055999994277954, 0.0, 0.0, 0.0, 0.0, 0.0, 1.6203970763748817E9, 2021-05-07 16:17:56.374
57.0, -181.08221435546875, -162.45938110351562, 237.04608154296875, -37.26249313354492, 0.01600000075995922, 0.08000000566244125, 1.055999994277954, 0.0, 0.0, 0.0, 0.0, 0.0, 1.6203970763748817E9, 2021-05-07 16:17:56.374
58.0, -171.93067932128906, -159.87510681152344, 242.38291931152344, -40.632144927978516, 0.01600000075995922, 0.08000000566244125, 1.055999994277954, 0.0, 0.0, 0.0, 0.0, 0.0, 1.6203970763878665E9, 2021-05-07 16:17:56.387
58.0, -168.9462432861328, -158.1734619140625, 247.6973114013672, -42.247779846191406, 0.01600000075995922, 0.08000000566244125, 1.055999994277954, 0.0, 0.0, 0.0, 0.0, 0.0, 1.6203970763878665E9, 2021-05-07 16:17:56.387
59.0, -189.05194091796875, -172.4262237548828, 238.2839813232422, -45.400516510009766, 0.01600000075995922, 0.08000000566244125, 1.055999994277954, 0.0, 0.0, 0.0, 0.0, 0.0, 1.620397076403348E9, 2021-05-07 16:17:56.403
59.0, -177.117919921875, -156.58399963378906, 238.47845458984375, -42.92844009399414, 0.01600000075995922, 0.08000000566244125, 1.055999994277954, 0.0, 0.0, 0.0, 0.0, 0.0, 1.620397076403348E9, 2021-05-07 16:17:56.403
60.0, -181.89002990722656, -159.10842895507812, 226.79501342773438, -54.20050048828125, 0.01600000075995922, 0.08000000566244125, 1.055999994277954, 0.0, 0.0, 0.0, 0.0, 0.0, 1.620397076418506E9, 2021-05-07 16:17:56.418
60.0, -148.32069396972656, -156.4718017578125, 241.54518127441406, -52.79429626464844, 0.01600000075995922, 0.08000000566244125, 1.055999994277954, 0.0, 0.0, 0.0, 0.0, 0.0, 1.620397076418506E9, 2021-05-07 16:17:56.418
61.0, -191.8680877685547, -165.14089965820312, 240.74110412597656, -60.569549560546875, 0.01600000075995922, 0.06400000303983688, 1.055999994277954, 0.0, 0.0, 0.0, 0.0, 0.0, 1.6203970764192045E9, 2021-05-07 16:17:56.419
61.0, -200.74661254882812, -166.3077392578125, 220.3997802734375, -71.29558563232422, 0.01600000075995922, 0.06400000303983688, 1.055999994277954, 0.0, 0.0, 0.0, 0.0, 0.0, 1.6203970764192045E9, 2021-05-07 16:17:56.419
62.0, -174.2456817626953, -150.914306640625, 229.96644592285156, -56.14898681640625, 0.01600000075995922, 0.06400000303983688, 1.055999994277954, 0.0, 0.0, 0.0, 0.0, 0.0, 1.6203970764336483E9, 2021-05-07 16:17:56.433
62.0, -181.88255310058594, -173.79501342773438, 234.75726318359375, -53.02617263793945, 0.01600000075995922, 0.06400000303983688, 1.055999994277954, 0.0, 0.0, 0.0, 0.0, 0.0, 1.6203970764336483E9, 2021-05-07 16:17:56.433
63.0, -166.80702209472656, -149.97560119628906, 247.70852661132812, -62.850887298583984, 0.01600000075995922, 0.06400000303983688, 1.055999994277954, 0.0, 0.0, 0.0, 0.0, 0.0, 1.6203970764343507E9, 2021-05-07 16:17:56.434
63.0, -174.49998474121094, -166.4274139404297, 235.12002563476562, -54.29773712158203, 0.01600000075995922, 0.06400000303983688, 1.055999994277954, 0.0, 0.0, 0.0, 0.0, 0.0, 1.6203970764343507E9, 2021-05-07 16:17:56.434
64.0, -171.6539306640625, -164.6434783935547, 238.4186248779297, -50.49799728393555, 0.01600000075995922, 0.06400000303983688, 1.055999994277954, 0.0, 0.0, 0.0, 0.0, 0.0, 1.6203970764478395E9, 2021-05-07 16:17:56.447
64.0, -179.4628448486328, -163.57012939453125, 244.6605224609375, -47.74543380737305, 0.01600000075995922, 0.06400000303983688, 1.055999994277954, 0.0, 0.0, 0.0, 0.0, 0.0, 1.6203970764478395E9, 2021-05-07 16:17:56.447
65.0, -173.4266357421875, -158.60354614257812, 251.69900512695312, -40.25067138671875, 0.01600000075995922, 0.06400000303983688, 1.055999994277954, 0.0, 0.0, 0.0, 0.0, 0.0, 1.6203970764635444E9, 2021-05-07 16:17:56.463
65.0, -175.60325622558594, -154.11940002441406, 246.74737548828125, -37.6776237487793, 0.01600000075995922, 0.06400000303983688, 1.055999994277954, 0.0, 0.0, 0.0, 0.0, 0.0, 1.6203970764635444E9, 2021-05-07 16:17:56.463
66.0, -167.98509216308594, -149.29119873046875, 248.33309936523438, -29.2142276763916, 0.01600000075995922, 0.06400000303983688, 1.055999994277954, 0.0, 0.0, 0.0, 0.0, 0.0, 1.6203970764643395E9, 2021-05-07 16:17:56.464
66.0, -181.04107666015625, -156.9392852783203, 249.16336059570312, -34.25935363769531, 0.01600000075995922, 0.06400000303983688, 1.055999994277954, 0.0, 0.0, 0.0, 0.0, 0.0, 1.6203970764643395E9, 2021-05-07 16:17:56.464
67.0, -178.61761474609375, -156.15017700195312, 250.6742706298828, -37.86835861206055, 0.01600000075995922, 0.06400000303983688, 1.055999994277954, 0.0, 0.0, 0.0, 0.0, 0.0, 1.6203970764778955E9, 2021-05-07 16:17:56.477
67.0, -181.16448974609375, -155.86593627929688, 241.10386657714844, -43.519344329833984, 0.01600000075995922, 0.06400000303983688, 1.055999994277954, 0.0, 0.0, 0.0, 0.0, 0.0, 1.6203970764778955E9, 2021-05-07 16:17:56.477
68.0, -181.6544189453125, -165.5485382080078, 239.0581512451172, -57.21112060546875, 0.01600000075995922, 0.06400000303983688, 1.055999994277954, 0.0, 0.0, 0.0, 0.0, 0.0, 1.620397076493667E9, 2021-05-07 16:17:56.493
68.0, -181.04481506347656, -157.33946228027344, 250.94728088378906, -55.086856842041016, 0.01600000075995922, 0.06400000303983688, 1.055999994277954, 0.0, 0.0, 0.0, 0.0, 0.0, 1.620397076493667E9, 2021-05-07 16:17:56.493
69.0, -170.6291961669922, -149.88583374023438, 262.56341552734375, -44.81709289550781, 0.01600000075995922, 0.06400000303983688, 1.055999994277954, 0.0, 0.0, 0.0, 0.0, 0.0, 1.6203970764943044E9, 2021-05-07 16:17:56.494
69.0, -178.91307067871094, -155.89212036132812, 247.07275390625, -50.80093002319336, 0.01600000075995922, 0.06400000303983688, 1.055999994277954, 0.0, 0.0, 0.0, 0.0, 0.0, 1.6203970764943044E9, 2021-05-07 16:17:56.494
70.0, -154.67852783203125, -143.9693145751953, 242.66714477539062, -49.43586730957031, 0.01600000075995922, 0.06400000303983688, 1.055999994277954, 0.0, 0.0, 0.0, 0.0, 0.0, 1.620397076507913E9, 2021-05-07 16:17:56.507
70.0, -218.97488403320312, -173.61550903320312, 229.0539093017578, -59.855228424072266, 0.01600000075995922, 0.06400000303983688, 1.055999994277954, 0.0, 0.0, 0.0, 0.0, 0.0, 1.620397076507913E9, 2021-05-07 16:17:56.507
71.0, -188.3600616455078, -168.69754028320312, 240.7897186279297, -54.032203674316406, 0.01600000075995922, 0.06400000303983688, 1.055999994277954, 0.0, 0.0, 0.0, 0.0, 0.0, 1.620397076523644E9, 2021-05-07 16:17:56.523
71.0, -158.31744384765625, -155.27877807617188, 249.4812469482422, -49.731319427490234, 0.01600000075995922, 0.06400000303983688, 1.055999994277954, 0.0, 0.0, 0.0, 0.0, 0.0, 1.620397076523644E9, 2021-05-07 16:17:56.523
72.0, -206.70053100585938, -148.06825256347656, 225.0148162841797, -88.41310119628906, 0.01600000075995922, 0.06400000303983688, 1.055999994277954, 0.0, 0.0, 0.0, 0.0, 0.0, 1.6203970765242755E9, 2021-05-07 16:17:56.524
72.0, -183.61038208007812, -144.18997192382812, 238.49342346191406, -71.60599517822266, 0.01600000075995922, 0.06400000303983688, 1.055999994277954, 0.0, 0.0, 0.0, 0.0, 0.0, 1.6203970765242755E9, 2021-05-07 16:17:56.524
73.0, -182.09947204589844, -179.47592163085938, 244.11822509765625, -76.21729278564453, 0.01600000075995922, 0.06400000303983688, 1.055999994277954, 0.0, 0.0, 0.0, 0.0, 0.0, 1.620397076537856E9, 2021-05-07 16:17:56.537
73.0, -169.9971466064453, -164.34056091308594, 246.02931213378906, -61.27265167236328, 0.01600000075995922, 0.06400000303983688, 1.055999994277954, 0.0, 0.0, 0.0, 0.0, 0.0, 1.620397076537856E9, 2021-05-07 16:17:56.537
74.0, -172.06906127929688, -162.94931030273438, 236.32801818847656, -61.2876091003418, 0.01600000075995922, 0.06400000303983688, 1.055999994277954, 0.0, 0.0, 0.0, 0.0, 0.0, 1.620397076553264E9, 2021-05-07 16:17:56.553
