Sample Index, EXG Channel 0, EXG Channel 1, EXG Channel 2, EXG Channel 3, Accel Channel 0, Accel Channel 1, Accel Channel 2, Other, Other, Other, Other, Other, Timestamp, Timestamp (Formatted)
0.0, -110.38688659667969, 141.39813232421875, 162.43507385253906, 12.248172760009766, 0.0, 0.0, 0.0, 0.0, 0.0, 0.0, 0.0, 0.0, 1.6203913087523785E9, 2021-05-07 14:41:48.752
1.0, -103.87572479248047, 149.5137176513672, 163.6692352294922, 9.521785736083984, 0.0, 0.0, 0.0, 0.0, 0.0, 0.0, 0.0, 0.0, 1.6203913087825572E9, 2021-05-07 14:41:48.782
1.0, -115.9256820678711, 153.83705139160156, 157.52084350585938, 6.952474117279053, 0.0, 0.0, 0.0, 0.0, 0.0, 0.0, 0.0, 0.0, 1.6203913087825572E9, 2021-05-07 14:41:48.782
2.0, -123.04644775390625, 141.18496704101562, 150.34771728515625, -4.69357442855835, 0.04800000041723251, 0.0, 0.0, 0.0, 0.0, 0.0, 0.0, 0.0, 1.620391308783275E9, 2021-05-07 14:41:48.783
2.0, -101.82625579833984, 163.41493225097656, 167.2408447265625, 13.744132041931152, 0.04800000041723251, 0.0, 0.0, 0.0, 0.0, 0.0, 0.0, 0.0, 1.620391308783275E9, 2021-05-07 14:41:48.783
3.0, -105.08744812011719, 142.16481018066406, 170.7713165283203, 22.944286346435547, 0.04800000041723251, 0.0, 0.0, 0.0, 0.0, 0.0, 0.0, 0.0, 1.6203913087967567E9, 2021-05-07 14:41:48.796
3.0, -112.45130920410156, 134.48306274414062, 157.47596740722656, -7.876229286193848, 0.04800000041723251, 0.0, 0.0, 0.0, 0.0, 0.0, 0.0, 0.0, 1.6203913087967567E9, 2021-05-07 14:41:48.796
4.0, -115.23753356933594, 146.58163452148438, 158.09304809570312, -0.23935359716415405, 0.04800000041723251, 0.0, 0.0, 0.0, 0.0, 0.0, 0.0, 0.0, 1.6203913087980788E9, 2021-05-07 14:41:48.798
4.0, -91.90804290771484, 160.44171142578125, 174.64584350585938, 15.535544395446777, 0.04800000041723251, 0.0, 0.0, 0.0, 0.0, 0.0, 0.0, 0.0, 1.6203913087980788E9, 2021-05-07 14:41:48.798
5.0, -93.65083312988281, 144.27786254882812, 165.4569091796875, 11.608649253845215, 0.04800000041723251, 0.0, 0.0, 0.0, 0.0, 0.0, 0.0, 0.0, 1.6203913088111556E9, 2021-05-07 14:41:48.811
5.0, -91.23111724853516, 147.32962036132812, 165.09788513183594, 5.187241077423096, 0.04800000041723251, 0.0, 0.0, 0.0, 0.0, 0.0, 0.0, 0.0, 1.6203913088111556E9, 2021-05-07 14:41:48.811
6.0, -124.20581817626953, 150.07470703125, 162.5435333251953, 11.975159645080566, 0.04800000041723251, 0.0, 0.0, 0.0, 0.0, 0.0, 0.0, 0.0, 1.620391308811831E9, 2021-05-07 14:41:48.811
6.0, -113.86125183105469, 141.5514678955078, 171.33602905273438, 13.00737190246582, 0.04800000041723251, 0.0, 0.0, 0.0, 0.0, 0.0, 0.0, 0.0, 1.620391308811831E9, 2021-05-07 14:41:48.811
7.0, -113.17684936523438, 162.4612579345703, 170.6329345703125, 18.493804931640625, 0.04800000041723251, 0.0, 0.0, 0.0, 0.0, 0.0, 0.0, 0.0, 1.6203913088254378E9, 2021-05-07 14:41:48.825
7.0, -118.18083953857422, 132.37750244140625, 162.04238891601562, 18.662099838256836, 0.04800000041723251, 0.0, 0.0, 0.0, 0.0, 0.0, 0.0, 0.0, 1.6203913088254378E9, 2021-05-07 14:41:48.825
8.0, -114.63541412353516, 139.67404174804688, 157.08702087402344, -0.6470026969909668, 0.04800000041723251, 0.0, 0.0, 0.0, 0.0, 0.0, 0.0, 0.0, 1.6203913088411028E9, 2021-05-07 14:41:48.841
8.0, -118.79792022705078, 131.5472412109375, 152.0605926513672, 3.702501058578491, 0.04800000041723251, 0.0, 0.0, 0.0, 0.0, 0.0, 0.0, 0.0, 1.6203913088411028E9, 2021-05-07 14:41:48.841
9.0, -100.32655334472656, 136.4203338623047, 166.48538208007812, 14.817483901977539, 0.04800000041723251, 0.0, 0.0, 0.0, 0.0, 0.0, 0.0, 0.0, 1.6203913088417995E9, 2021-05-07 14:41:48.841
9.0, -125.18940734863281, 151.31634521484375, 150.5945587158203, 0.4338283836841583, 0.04800000041723251, 0.0, 0.0, 0.0, 0.0, 0.0, 0.0, 0.0, 1.6203913088417995E9, 2021-05-07 14:41:48.841
10.0, -120.55193328857422, 155.18341064453125, 157.00474548339844, 4.992766380310059, 0.04800000041723251, 0.0, 1.055999994277954, 0.0, 0.0, 0.0, 0.0, 0.0, 1.6203913088554733E9, 2021-05-07 14:41:48.855
10.0, -91.62754821777344, 160.5501708984375, 173.99510192871094, 17.09134292602539, 0.04800000041723251, 0.0, 1.055999994277954, 0.0, 0.0, 0.0, 0.0, 0.0, 1.6203913088554733E9, 2021-05-07 14:41:48.855
11.0, -126.80130767822266, 122.54156494140625, 152.47198486328125, -4.775852203369141, 0.04800000041723251, 0.0, 1.055999994277954, 0.0, 0.0, 0.0, 0.0, 0.0, 1.6203913088710785E9, 2021-05-07 14:41:48.871
11.0, -107.92603302001953, 151.77261352539062, 169.57827758789062, 8.80372428894043, 0.04800000041723251, 0.0, 1.055999994277954, 0.0, 0.0, 0.0, 0.0, 0.0, 1.6203913088710785E9, 2021-05-07 14:41:48.871
12.0, -111.84918975830078, 146.095458984375, 162.05360412597656, 1.578237771987915, 0.04800000041723251, 0.0, 1.055999994277954, 0.0, 0.0, 0.0, 0.0, 0.0, 1.620391308871801E9, 2021-05-07 14:41:48.871
12.0, -97.85448455810547, 154.45413208007812, 174.04747009277344, 16.246126174926758, 0.04800000041723251, 0.0, 1.055999994277954, 0.0, 0.0, 0.0, 0.0, 0.0, 1.620391308871801E9, 2021-05-07 14:41:48.871
13.0, -85.09394073486328, 160.36691284179688, 163.7627410888672, 1.4174220561981201, 0.04800000041723251, 0.0, 1.055999994277954, 0.0, 0.0, 0.0, 0.0, 0.0, 1.6203913088854656E9, 2021-05-07 14:41:48.885
13.0, -134.5129852294922, 134.16517639160156, 153.0067901611328, -2.561831474304199, 0.04800000041723251, 0.0, 1.055999994277954, 0.0, 0.0, 0.0, 0.0, 0.0, 1.6203913088854656E9, 2021-05-07 14:41:48.885
14.0, -118.3416519165039, 134.5204620361328, 158.631591796875, 2.475813865661621, 0.04800000041723251, 0.0, 1.055999994277954, 0.0, 0.0, 0.0, 0.0, 0.0, 1.62039130890126E9, 2021-05-07 14:41:48.901
14.0, -104.79947662353516, 157.33758544921875, 164.42469787597656, 17.128742218017578, 0.04800000041723251, 0.0, 1.055999994277954, 0.0, 0.0, 0.0, 0.0, 0.0, 1.62039130890126E9, 2021-05-07 14:41:48.901
15.0, -123.65605163574219, 169.67178344726562, 165.64390563964844, 21.085556030273438, 0.04800000041723251, 0.0, 1.055999994277954, 0.0, 0.0, 0.0, 0.0, 0.0, 1.6203913089018505E9, 2021-05-07 14:41:48.901
15.0, -121.06803894042969, 138.40621948242188, 157.9883270263672, -2.232720375061035, 0.04800000041723251, 0.0, 1.055999994277954, 0.0, 0.0, 0.0, 0.0, 0.0, 1.6203913089018505E9, 2021-05-07 14:41:48.901
16.0, -120.42852020263672, 128.74606323242188, 151.35000610351562, -1.3912427425384521, 0.04800000041723251, 0.0, 1.055999994277954, 0.0, 0.0, 0.0, 0.0, 0.0, 1.620391308915469E9, 2021-05-07 14:41:48.915
16.0, -96.47071838378906, 168.69566345214844, 175.58456420898438, 28.056730270385742, 0.04800000041723251, 0.0, 1.055999994277954, 0.0, 0.0, 0.0, 0.0, 0.0, 1.620391308915469E9, 2021-05-07 14:41:48.915
17.0, -114.71395111083984, 143.5897216796875, 159.12899780273438, 2.909642219543457, 0.04800000041723251, 0.0, 1.055999994277954, 0.0, 0.0, 0.0, 0.0, 0.0, 1.6203913089481559E9, 2021-05-07 14:41:48.948
17.0, -126.10942840576172, 144.87998962402344, 159.90316772460938, -5.74074649810791, 0.04800000041723251, 0.0, 1.055999994277954, 0.0, 0.0, 0.0, 0.0, 0.0, 1.6203913089481559E9, 2021-05-07 14:41:48.948
18.0, -115.61152648925781, 134.08663940429688, 160.66236877441406, 3.833397388458252, 0.04800000041723251, 0.0, 1.055999994277954, 0.0, 0.0, 0.0, 0.0, 0.0, 1.6203913089488842E9, 2021-05-07 14:41:48.948
18.0, -106.88259887695312, 150.44122314453125, 169.7914581298828, 9.974312782287598, 0.04800000041723251, 0.0, 1.055999994277954, 0.0, 0.0, 0.0, 0.0, 0.0, 1.6203913089488842E9, 2021-05-07 14:41:48.948
19.0, -115.46566772460938, 152.75994873046875, 162.61085510253906, 8.078184127807617, 0.04800000041723251, 0.0, 1.055999994277954, 0.0, 0.0, 0.0, 0.0, 0.0, 1.6203913089496574E9, 2021-05-07 14:41:48.949
19.0, -118.7418212890625, 141.39065551757812, 158.7138671875, 2.2402000427246094, 0.04800000041723251, 0.0, 1.055999994277954, 0.0, 0.0, 0.0, 0.0, 0.0, 1.6203913089496574E9, 2021-05-07 14:41:48.949
20.0, -117.75823211669922, 141.05032348632812, 160.77830505371094, -0.6806617975234985, 0.04800000041723251, 0.0, 1.055999994277954, 0.0, 0.0, 0.0, 0.0, 0.0, 1.6203913089504128E9, 2021-05-07 14:41:48.950
20.0, -79.38311767578125, 188.28526306152344, 183.7786865234375, 24.268211364746094, 0.04800000041723251, 0.0, 1.055999994277954, 0.0, 0.0, 0.0, 0.0, 0.0, 1.6203913089504128E9, 2021-05-07 14:41:48.950
21.0, -131.65943908691406, 141.45423889160156, 156.19691467285156, -4.869349956512451, 0.04800000041723251, 0.01600000075995922, 1.055999994277954, 0.0, 0.0, 0.0, 0.0, 0.0, 1.6203913089760833E9, 2021-05-07 14:41:48.976
21.0, -137.4712371826172, 120.26022338867188, 150.93113708496094, -7.405002117156982, 0.04800000041723251, 0.01600000075995922, 1.055999994277954, 0.0, 0.0, 0.0, 0.0, 0.0, 1.6203913089760833E9, 2021-05-07 14:41:48.976
22.0, -116.52780151367188, 150.81893920898438, 163.19053649902344, 1.7614928483963013, 0.04800000041723251, 0.01600000075995922, 1.055999994277954, 0.0, 0.0, 0.0, 0.0, 0.0, 1.6203913089768288E9, 2021-05-07 14:41:48.976
22.0, -116.68113708496094, 142.92401123046875, 165.48309326171875, 7.689234256744385, 0.04800000041723251, 0.01600000075995922, 1.055999994277954, 0.0, 0.0, 0.0, 0.0, 0.0, 1.6203913089768288E9, 2021-05-07 14:41:48.976
23.0, -115.00940704345703, 148.58248901367188, 165.40829467773438, 12.020038604736328, 0.04800000041723251, 0.01600000075995922, 1.055999994277954, 0.0, 0.0, 0.0, 0.0, 0.0, 1.6203913090075035E9, 2021-05-07 14:41:49.007
23.0, -104.0066146850586, 147.45677185058594, 163.2241973876953, 3.698760986328125, 0.04800000041723251, 0.01600000075995922, 1.055999994277954, 0.0, 0.0, 0.0, 0.0, 0.0, 1.6203913090075035E9, 2021-05-07 14:41:49.007
24.0, -112.76920318603516, 124.59102630615234, 155.04502868652344, -5.112443447113037, 0.04800000041723251, 0.01600000075995922, 1.055999994277954, 0.0, 0.0, 0.0, 0.0, 0.0, 1.620391309008221E9, 2021-05-07 14:41:49.008
24.0, -111.4340591430664, 153.86322021484375, 160.60252380371094, 8.74388599395752, 0.04800000041723251, 0.01600000075995922, 1.055999994277954, 0.0, 0.0, 0.0, 0.0, 0.0, 1.620391309008221E9, 2021-05-07 14:41:49.008
25.0, -123.5962142944336, 148.5525665283203, 159.46932983398438, 1.525879144668579, 0.04800000041723251, 0.01600000075995922, 1.055999994277954, 0.0, 0.0, 0.0, 0.0, 0.0, 1.620391309008937E9, 2021-05-07 14:41:49.008
25.0, -116.83447265625, 151.0994415283203, 162.95118713378906, -16.650033950805664, 0.04800000041723251, 0.01600000075995922, 1.055999994277954, 0.0, 0.0, 0.0, 0.0, 0.0, 1.620391309008937E9, 2021-05-07 14:41:49.008
26.0, -110.60379791259766, 132.23912048339844, 161.5973358154297, -10.333343505859375, 0.04800000041723251, 0.01600000075995922, 1.055999994277954, 0.0, 0.0, 0.0, 0.0, 0.0, 1.6203913090096753E9, 2021-05-07 14:41:49.009
26.0, -68.52244567871094, 155.72943115234375, 177.68264770507812, 7.008572578430176, 0.04800000041723251, 0.01600000075995922, 1.055999994277954, 0.0, 0.0, 0.0, 0.0, 0.0, 1.6203913090096753E9, 2021-05-07 14:41:49.009
27.0, -144.1731414794922, 138.60069274902344, 145.4596710205078, -13.291604042053223, 0.04800000041723251, 0.01600000075995922, 1.055999994277954, 0.0, 0.0, 0.0, 0.0, 0.0, 1.6203913090204637E9, 2021-05-07 14:41:49.020
27.0, -126.96212005615234, 128.80215454101562, 152.35604858398438, -12.311750411987305, 0.04800000041723251, 0.01600000075995922, 1.055999994277954, 0.0, 0.0, 0.0, 0.0, 0.0, 1.6203913090204637E9, 2021-05-07 14:41:49.020
28.0, -113.39750671386719, 155.47886657714844, 164.17787170410156, 1.0097730159759521, 0.04800000041723251, 0.01600000075995922, 1.055999994277954, 0.0, 0.0, 0.0, 0.0, 0.0, 1.6203913090353744E9, 2021-05-07 14:41:49.035
28.0, -90.75614929199219, 155.08242797851562, 178.22866821289062, 8.788764953613281, 0.04800000041723251, 0.01600000075995922, 1.055999994277954, 0.0, 0.0, 0.0, 0.0, 0.0, 1.6203913090353744E9, 2021-05-07 14:41:49.035
29.0, -114.88224792480469, 149.37908935546875, 170.5132598876953, -0.32163140177726746, 0.04800000041723251, 0.01600000075995922, 1.055999994277954, 0.0, 0.0, 0.0, 0.0, 0.0, 1.6203913090675313E9, 2021-05-07 14:41:49.067
29.0, -127.63904571533203, 146.25253295898438, 162.76419067382812, -0.5048865079879761, 0.04800000041723251, 0.01600000075995922, 1.055999994277954, 0.0, 0.0, 0.0, 0.0, 0.0, 1.6203913090675313E9, 2021-05-07 14:41:49.067
30.0, -119.92362976074219, 128.3571014404297, 160.2135772705078, -12.782978057861328, 0.04800000041723251, 0.01600000075995922, 1.055999994277954, 0.0, 0.0, 0.0, 0.0, 0.0, 1.6203913090681348E9, 2021-05-07 14:41:49.068
30.0, -106.22064208984375, 144.90989685058594, 168.99859619140625, 12.457606315612793, 0.04800000041723251, 0.01600000075995922, 1.055999994277954, 0.0, 0.0, 0.0, 0.0, 0.0, 1.6203913090681348E9, 2021-05-07 14:41:49.068
31.0, -113.06465911865234, 166.8967742919922, 168.28053283691406, -2.258899688720703, 0.04800000041723251, 0.01600000075995922, 1.055999994277954, 0.0, 0.0, 0.0, 0.0, 0.0, 1.6203913090689168E9, 2021-05-07 14:41:49.068
31.0, -117.597412109375, 129.06394958496094, 168.35159301757812, -9.37218952178955, 0.04800000041723251, 0.01600000075995922, 1.055999994277954, 0.0, 0.0, 0.0, 0.0, 0.0, 1.6203913090689168E9, 2021-05-07 14:41:49.068
32.0, -116.50910186767578, 147.17628479003906, 159.33470153808594, -11.447834014892578, 0.04800000041723251, 0.01600000075995922, 1.055999994277954, 0.0, 0.0, 0.0, 0.0, 0.0, 1.6203913090697603E9, 2021-05-07 14:41:49.069
32.0, -109.69874572753906, 147.38571166992188, 165.64764404296875, -3.291111946105957, 0.04800000041723251, 0.01600000075995922, 1.055999994277954, 0.0, 0.0, 0.0, 0.0, 0.0, 1.6203913090697603E9, 2021-05-07 14:41:49.069
33.0, -122.47798156738281, 154.394287109375, 162.56222534179688, -12.764278411865234, 0.04800000041723251, 0.01600000075995922, 1.055999994277954, 0.0, 0.0, 0.0, 0.0, 0.0, 1.6203913090804286E9, 2021-05-07 14:41:49.080
33.0, -110.82071685791016, 126.81253051757812, 155.2357635498047, -18.635921478271484, 0.04800000041723251, 0.01600000075995922, 1.055999994277954, 0.0, 0.0, 0.0, 0.0, 0.0, 1.6203913090804286E9, 2021-05-07 14:41:49.080
34.0, -117.9153060913086, 145.05201721191406, 161.75067138671875, -10.056591033935547, 0.04800000041723251, 0.01600000075995922, 1.055999994277954, 0.0, 0.0, 0.0, 0.0, 0.0, 1.6203913090954895E9, 2021-05-07 14:41:49.095
34.0, -110.65989685058594, 163.77769470214844, 174.85528564453125, 9.686341285705566, 0.04800000041723251, 0.01600000075995922, 1.055999994277954, 0.0, 0.0, 0.0, 0.0, 0.0, 1.6203913090954895E9, 2021-05-07 14:41:49.095
35.0, -105.55119323730469, 147.0079803466797, 167.4166259765625, -5.1274027824401855, 0.04800000041723251, 0.01600000075995922, 1.055999994277954, 0.0, 0.0, 0.0, 0.0, 0.0, 1.6203913091117537E9, 2021-05-07 14:41:49.111
35.0, -130.825439453125, 107.87741088867188, 148.43289184570312, -22.158906936645508, 0.04800000041723251, 0.01600000075995922, 1.055999994277954, 0.0, 0.0, 0.0, 0.0, 0.0, 1.6203913091117537E9, 2021-05-07 14:41:49.111
36.0, -110.25598907470703, 132.62059020996094, 157.52084350585938, -12.266871452331543, 0.04800000041723251, 0.01600000075995922, 1.055999994277954, 0.0, 0.0, 0.0, 0.0, 0.0, 1.6203913091124668E9, 2021-05-07 14:41:49.112
36.0, -77.70016479492188, 140.74365234375, 171.79605102539062, 4.214867115020752, 0.04800000041723251, 0.01600000075995922, 1.055999994277954, 0.0, 0.0, 0.0, 0.0, 0.0, 1.6203913091124668E9, 2021-05-07 14:41:49.112
37.0, -127.42961120605469, 150.35519409179688, 155.34796142578125, 1.1294498443603516, 0.04800000041723251, 0.01600000075995922, 1.055999994277954, 0.0, 0.0, 0.0, 0.0, 0.0, 1.6203913091254177E9, 2021-05-07 14:41:49.125
37.0, -128.48426818847656, 140.7847900390625, 158.2576141357422, 6.817837715148926, 0.04800000041723251, 0.01600000075995922, 1.055999994277954, 0.0, 0.0, 0.0, 0.0, 0.0, 1.6203913091254177E9, 2021-05-07 14:41:49.125
38.0, -116.09771728515625, 130.80299377441406, 155.3330078125, -18.602262496948242, 0.04800000041723251, 0.01600000075995922, 1.055999994277954, 0.0, 0.0, 0.0, 0.0, 0.0, 1.6203913091410875E9, 2021-05-07 14:41:49.141
38.0, -108.47579956054688, 142.68092346191406, 169.88494873046875, 0.4001692831516266, 0.04800000041723251, 0.01600000075995922, 1.055999994277954, 0.0, 0.0, 0.0, 0.0, 0.0, 1.6203913091410875E9, 2021-05-07 14:41:49.141
39.0, -118.82784271240234, 143.537353515625, 158.1304473876953, -8.175421714782715, 0.04800000041723251, 0.01600000075995922, 1.055999994277954, 0.0, 0.0, 0.0, 0.0, 0.0, 1.6203913091418455E9, 2021-05-07 14:41:49.141
39.0, -108.86474609375, 127.7961196899414, 153.18255615234375, -15.255051612854004, 0.04800000041723251, 0.01600000075995922, 1.055999994277954, 0.0, 0.0, 0.0, 0.0, 0.0, 1.6203913091418455E9, 2021-05-07 14:41:49.141
40.0, -140.01437377929688, 134.53541564941406, 154.79820251464844, -11.081323623657227, 0.04800000041723251, 0.01600000075995922, 1.055999994277954, 0.0, 0.0, 0.0, 0.0, 0.0, 1.6203913091554635E9, 2021-05-07 14:41:49.155
40.0, -107.13691711425781, 143.46630859375, 161.49261474609375, -14.536991119384766, 0.04800000041723251, 0.01600000075995922, 1.055999994277954, 0.0, 0.0, 0.0, 0.0, 0.0, 1.6203913091554635E9, 2021-05-07 14:41:49.155
41.0, -113.86125183105469, 138.8737030029297, 162.0386505126953, -14.477152824401855, 0.04800000041723251, 0.01600000075995922, 1.055999994277954, 0.0, 0.0, 0.0, 0.0, 0.0, 1.6203913091717453E9, 2021-05-07 14:41:49.171
41.0, -114.84858703613281, 132.186767578125, 160.31829833984375, -16.612634658813477, 0.04800000041723251, 0.01600000075995922, 1.055999994277954, 0.0, 0.0, 0.0, 0.0, 0.0, 1.6203913091717453E9, 2021-05-07 14:41:49.171
42.0, -114.37735748291016, 141.74220275878906, 159.90316772460938, -12.274352073669434, 0.04800000041723251, 0.01600000075995922, 1.055999994277954, 0.0, 0.0, 0.0, 0.0, 0.0, 1.6203913091724772E9, 2021-05-07 14:41:49.172
42.0, -106.23185729980469, 152.9245147705078, 165.61024475097656, -1.2566063404083252, 0.04800000041723251, 0.01600000075995922, 1.055999994277954, 0.0, 0.0, 0.0, 0.0, 0.0, 1.6203913091724772E9, 2021-05-07 14:41:49.172
43.0, -92.15861511230469, 156.1370849609375, 174.93008422851562, -1.0808310508728027, 0.04800000041723251, 0.01600000075995922, 1.055999994277954, 0.0, 0.0, 0.0, 0.0, 0.0, 1.6203913091854236E9, 2021-05-07 14:41:49.185
43.0, -123.6410903930664, 118.2967758178711, 149.4314422607422, -13.620716094970703, 0.04800000041723251, 0.01600000075995922, 1.055999994277954, 0.0, 0.0, 0.0, 0.0, 0.0, 1.6203913091854236E9, 2021-05-07 14:41:49.185
44.0, -119.7441177368164, 134.7672882080078, 151.28643798828125, -23.325756072998047, 0.04800000041723251, 0.01600000075995922, 1.055999994277954, 0.0, 0.0, 0.0, 0.0, 0.0, 1.620391309201078E9, 2021-05-07 14:41:49.201
44.0, -106.78162384033203, 146.19642639160156, 171.0929412841797, -3.0816776752471924, 0.04800000041723251, 0.01600000075995922, 1.055999994277954, 0.0, 0.0, 0.0, 0.0, 0.0, 1.620391309201078E9, 2021-05-07 14:41:49.201
45.0, -91.33209991455078, 146.57041931152344, 173.0189971923828, -2.5954904556274414, 0.04800000041723251, 0.01600000075995922, 1.055999994277954, 0.0, 0.0, 0.0, 0.0, 0.0, 1.6203913092017736E9, 2021-05-07 14:41:49.201
45.0, -138.47354125976562, 125.2043685913086, 151.5033416748047, -30.943931579589844, 0.04800000041723251, 0.01600000075995922, 1.055999994277954, 0.0, 0.0, 0.0, 0.0, 0.0, 1.6203913092017736E9, 2021-05-07 14:41:49.201
46.0, -117.29822540283203, 143.3316650390625, 167.67466735839844, -9.787318229675293, 0.04800000041723251, 0.01600000075995922, 1.055999994277954, 0.0, 0.0, 0.0, 0.0, 0.0, 1.6203913092154684E9, 2021-05-07 14:41:49.215
46.0, -97.73106384277344, 144.7191619873047, 172.73475646972656, -7.853789806365967, 0.04800000041723251, 0.01600000075995922, 1.055999994277954, 0.0, 0.0, 0.0, 0.0, 0.0, 1.6203913092154684E9, 2021-05-07 14:41:49.215
47.0, -117.62359619140625, 146.47317504882812, 161.3991241455078, -13.568357467651367, 0.04800000041723251, 0.01600000075995922, 1.055999994277954, 0.0, 0.0, 0.0, 0.0, 0.0, 1.620391309231722E9, 2021-05-07 14:41:49.231
47.0, -126.43479919433594, 140.60902404785156, 165.0380401611328, -15.000739097595215, 0.04800000041723251, 0.01600000075995922, 1.055999994277954, 0.0, 0.0, 0.0, 0.0, 0.0, 1.620391309231722E9, 2021-05-07 14:41:49.231
48.0, -104.18987274169922, 132.57945251464844, 166.16001892089844, -12.281831741333008, 0.04800000041723251, 0.01600000075995922, 1.055999994277954, 0.0, 0.0, 0.0, 0.0, 0.0, 1.620391309232452E9, 2021-05-07 14:41:49.232
48.0, -93.46009826660156, 148.3057403564453, 178.5615234375, 1.8811696767807007, 0.04800000041723251, 0.01600000075995922, 1.055999994277954, 0.0, 0.0, 0.0, 0.0, 0.0, 1.620391309232452E9, 2021-05-07 14:41:49.232
49.0, -79.97028350830078, 141.5028533935547, 178.32217407226562, -27.129234313964844, 0.04800000041723251, 0.01600000075995922, 1.055999994277954, 0.0, 0.0, 0.0, 0.0, 0.0, 1.6203913092454195E9, 2021-05-07 14:41:49.245
49.0, -126.52081298828125, 123.35685729980469, 158.47451782226562, -37.32419967651367, 0.04800000041723251, 0.01600000075995922, 1.055999994277954, 0.0, 0.0, 0.0, 0.0, 0.0, 1.6203913092454195E9, 2021-05-07 14:41:49.245
50.0, -129.72216796875, 111.92398834228516, 157.33010864257812, -24.75813865661621, 0.04800000041723251, 0.01600000075995922, 1.055999994277954, 0.0, 0.0, 0.0, 0.0, 0.0, 1.6203913092610917E9, 2021-05-07 14:41:49.261
50.0, -113.0010757446289, 158.19029235839844, 171.71376037597656, -15.105456352233887, 0.04800000041723251, 0.01600000075995922, 1.055999994277954, 0.0, 0.0, 0.0, 0.0, 0.0, 1.6203913092610917E9, 2021-05-07 14:41:49.261
51.0, -94.92987823486328, 139.8984375, 168.4002227783203, -14.694067001342773, 0.04800000041723251, 0.0, 1.055999994277954, 0.0, 0.0, 0.0, 0.0, 0.0, 1.620391309261805E9, 2021-05-07 14:41:49.261
51.0, -122.82579803466797, 130.2681884765625, 160.81944274902344, -14.589349746704102, 0.04800000041723251, 0.0, 1.055999994277954, 0.0, 0.0, 0.0, 0.0, 0.0, 1.620391309261805E9, 2021-05-07 14:41:49.261
52.0, -115.53672790527344, 134.18386840820312, 172.48793029785156, -14.858622550964355, 0.04800000041723251, 0.0, 1.055999994277954, 0.0, 0.0, 0.0, 0.0, 0.0, 1.620391309292541E9, 2021-05-07 14:41:49.292
52.0, -111.3106460571289, 140.55665588378906, 171.79978942871094, -19.72797203063965, 0.04800000041723251, 0.0, 1.055999994277954, 0.0, 0.0, 0.0, 0.0, 0.0, 1.620391309292541E9, 2021-05-07 14:41:49.292
53.0, -87.59219360351562, 146.79481506347656, 176.25399780273438, -16.34336280822754, 0.04800000041723251, 0.0, 1.055999994277954, 0.0, 0.0, 0.0, 0.0, 0.0, 1.6203913092932007E9, 2021-05-07 14:41:49.293
53.0, -129.39305114746094, 130.45144653320312, 157.43109130859375, -22.865747451782227, 0.04800000041723251, 0.0, 1.055999994277954, 0.0, 0.0, 0.0, 0.0, 0.0, 1.6203913092932007E9, 2021-05-07 14:41:49.293
54.0, -104.29833221435547, 131.5846405029297, 164.08810424804688, -27.342409133911133, 0.04800000041723251, 0.0, 1.055999994277954, 0.0, 0.0, 0.0, 0.0, 0.0, 1.6203913092939537E9, 2021-05-07 14:41:49.293
54.0, -94.51475524902344, 160.40057373046875, 187.01744079589844, -10.834489822387695, 0.04800000041723251, 0.0, 1.055999994277954, 0.0, 0.0, 0.0, 0.0, 0.0, 1.6203913092939537E9, 2021-05-07 14:41:49.293
55.0, -111.97260284423828, 143.15963745117188, 170.51699829101562, -28.58031463623047, 0.04800000041723251, 0.0, 1.055999994277954, 0.0, 0.0, 0.0, 0.0, 0.0, 1.6203913093055444E9, 2021-05-07 14:41:49.305
55.0, -117.56375885009766, 127.54180908203125, 161.16351318359375, -41.10898208618164, 0.04800000041723251, 0.0, 1.055999994277954, 0.0, 0.0, 0.0, 0.0, 0.0, 1.6203913093055444E9, 2021-05-07 14:41:49.305
56.0, -116.74097442626953, 134.0791473388672, 167.2408447265625, -22.1663875579834, 0.04800000041723251, 0.0, 1.055999994277954, 0.0, 0.0, 0.0, 0.0, 0.0, 1.62039130932106E9, 2021-05-07 14:41:49.321
56.0, -102.83602905273438, 151.013427734375, 177.77613830566406, -20.80880355834961, 0.04800000041723251, 0.0, 1.055999994277954, 0.0, 0.0, 0.0, 0.0, 0.0, 1.62039130932106E9, 2021-05-07 14:41:49.321
57.0, -95.98078918457031, 147.67369079589844, 179.58251953125, -21.534343719482422, 0.04800000041723251, 0.0, 1.055999994277954, 0.0, 0.0, 0.0, 0.0, 0.0, 1.6203913093217788E9, 2021-05-07 14:41:49.321
57.0, -131.96237182617188, 123.36808013916016, 153.87069702148438, -39.71773910522461, 0.04800000041723251, 0.0, 1.055999994277954, 0.0, 0.0, 0.0, 0.0, 0.0, 1.6203913093217788E9, 2021-05-07 14:41:49.321
58.0, -112.02496337890625, 143.35037231445312, 170.591796875, -15.707579612731934, 0.04800000041723251, 0.0, 1.055999994277954, 0.0, 0.0, 0.0, 0.0, 0.0, 1.6203913093353765E9, 2021-05-07 14:41:49.335
58.0, -97.0167465209961, 147.31466674804688, 183.83851623535156, -3.8520970344543457, 0.04800000041723251, 0.0, 1.055999994277954, 0.0, 0.0, 0.0, 0.0, 0.0, 1.6203913093353765E9, 2021-05-07 14:41:49.335
59.0, -106.35527801513672, 142.43783569335938, 168.75550842285156, -16.975406646728516, 0.04800000041723251, 0.0, 1.055999994277954, 0.0, 0.0, 0.0, 0.0, 0.0, 1.6203913093511503E9, 2021-05-07 14:41:49.351
59.0, -117.27204132080078, 125.61949920654297, 160.95407104492188, -33.04575729370117, 0.04800000041723251, 0.0, 1.055999994277954, 0.0, 0.0, 0.0, 0.0, 0.0, 1.6203913093511503E9, 2021-05-07 14:41:49.351
60.0, -102.49569702148438, 146.1739959716797, 168.41517639160156, -26.175559997558594, 0.04800000041723251, 0.0, 1.055999994277954, 0.0, 0.0, 0.0, 0.0, 0.0, 1.6203913093518825E9, 2021-05-07 14:41:49.351
60.0, -119.71419525146484, 153.7547607421875, 169.7316131591797, -21.130434036254883, 0.04800000041723251, 0.0, 1.055999994277954, 0.0, 0.0, 0.0, 0.0, 0.0, 1.6203913093518825E9, 2021-05-07 14:41:49.351
61.0, -118.35287475585938, 134.07167053222656, 171.32107543945312, -22.529157638549805, 0.04800000041723251, 0.0, 1.055999994277954, 0.0, 0.0, 0.0, 0.0, 0.0, 1.6203913093653476E9, 2021-05-07 14:41:49.365
61.0, -126.57317352294922, 123.95150756835938, 164.03575134277344, -24.668380737304688, 0.04800000041723251, 0.0, 1.055999994277954, 0.0, 0.0, 0.0, 0.0, 0.0, 1.6203913093653476E9, 2021-05-07 14:41:49.365
62.0, -111.74446868896484, 131.6856231689453, 164.2676239013672, -20.707826614379883, 0.04800000041723251, 0.0, 1.055999994277954, 0.0, 0.0, 0.0, 0.0, 0.0, 1.62039130938115E9, 2021-05-07 14:41:49.381
62.0, -101.81877899169922, 153.4518280029297, 181.41506958007812, -11.915321350097656, 0.04800000041723251, 0.0, 1.055999994277954, 0.0, 0.0, 0.0, 0.0, 0.0, 1.62039130938115E9, 2021-05-07 14:41:49.381
63.0, -115.3272933959961, 142.04513549804688, 171.62026977539062, -23.142501831054688, 0.04800000041723251, 0.0, 1.055999994277954, 0.0, 0.0, 0.0, 0.0, 0.0, 1.6203913093819313E9, 2021-05-07 14:41:49.381
63.0, -131.65943908691406, 139.6964874267578, 161.2196044921875, -27.604202270507812, 0.04800000041723251, 0.0, 1.055999994277954, 0.0, 0.0, 0.0, 0.0, 0.0, 1.6203913093819313E9, 2021-05-07 14:41:49.381
64.0, -110.88803100585938, 137.63954162597656, 167.29319763183594, -22.458099365234375, 0.04800000041723251, 0.0, 1.055999994277954, 0.0, 0.0, 0.0, 0.0, 0.0, 1.6203913093953824E9, 2021-05-07 14:41:49.395
64.0, -101.63178253173828, 134.9393310546875, 173.5650177001953, -20.4759521484375, 0.04800000041723251, 0.0, 1.055999994277954, 0.0, 0.0, 0.0, 0.0, 0.0, 1.6203913093953824E9, 2021-05-07 14:41:49.395
65.0, -116.43804168701172, 133.1516571044922, 167.45028686523438, -13.635675430297852, 0.04800000041723251, 0.0, 1.055999994277954, 0.0, 0.0, 0.0, 0.0, 0.0, 1.6203913094111192E9, 2021-05-07 14:41:49.411
65.0, -116.52032470703125, 145.55316162109375, 172.55523681640625, -10.610095977783203, 0.04800000041723251, 0.0, 1.055999994277954, 0.0, 0.0, 0.0, 0.0, 0.0, 1.6203913094111192E9, 2021-05-07 14:41:49.411
66.0, -127.97189331054688, 133.96694946289062, 162.67816162109375, -15.090496063232422, 0.04800000041723251, 0.0, 1.055999994277954, 0.0, 0.0, 0.0, 0.0, 0.0, 1.6203913094118028E9, 2021-05-07 14:41:49.411
66.0, -95.72274017333984, 134.36338806152344, 170.56935119628906, -11.014005661010742, 0.04800000041723251, 0.0, 1.055999994277954, 0.0, 0.0, 0.0, 0.0, 0.0, 1.6203913094118028E9, 2021-05-07 14:41:49.411
67.0, -125.35396575927734, 136.33432006835938, 168.23939514160156, -15.337329864501953, 0.04800000041723251, 0.0, 1.055999994277954, 0.0, 0.0, 0.0, 0.0, 0.0, 1.620391309425412E9, 2021-05-07 14:41:49.425
67.0, -117.02520751953125, 151.45098876953125, 170.25894165039062, -17.379314422607422, 0.04800000041723251, 0.0, 1.055999994277954, 0.0, 0.0, 0.0, 0.0, 0.0, 1.620391309425412E9, 2021-05-07 14:41:49.425
68.0, -128.73483276367188, 137.62831115722656, 166.06651306152344, -17.547611236572266, 0.04800000041723251, 0.0, 1.055999994277954, 0.0, 0.0, 0.0, 0.0, 0.0, 1.6203913094411385E9, 2021-05-07 14:41:49.441
68.0, -122.56026458740234, 156.08473205566406, 171.75115966796875, -16.492958068847656, 0.04800000041723251, 0.0, 1.055999994277954, 0.0, 0.0, 0.0, 0.0, 0.0, 1.6203913094411385E9, 2021-05-07 14:41:49.441
69.0, -127.57920837402344, 133.05067443847656, 172.73475646972656, -12.046217918395996, 0.04800000041723251, 0.0, 1.055999994277954, 0.0, 0.0, 0.0, 0.0, 0.0, 1.620391309441854E9, 2021-05-07 14:41:49.441
69.0, -130.42901611328125, 124.04874420166016, 163.53460693359375, -22.170127868652344, 0.04800000041723251, 0.0, 1.055999994277954, 0.0, 0.0, 0.0, 0.0, 0.0, 1.620391309441854E9, 2021-05-07 14:41:49.441
70.0, -124.13849639892578, 138.72036743164062, 173.87168884277344, -11.653528213500977, 0.04800000041723251, 0.0, 1.055999994277954, 0.0, 0.0, 0.0, 0.0, 0.0, 1.6203913094555023E9, 2021-05-07 14:41:49.455
70.0, -105.30810546875, 148.4927215576172, 175.74537658691406, -3.6838014125823975, 0.04800000041723251, 0.0, 1.055999994277954, 0.0, 0.0, 0.0, 0.0, 0.0, 1.6203913094555023E9, 2021-05-07 14:41:49.455
71.0, -97.71610260009766, 142.20596313476562, 179.81813049316406, -2.614190101623535, 0.04800000041723251, 0.0, 1.055999994277954, 0.0, 0.0, 0.0, 0.0, 0.0, 1.6203913094707916E9, 2021-05-07 14:41:49.470
71.0, -124.08988189697266, 122.14139556884766, 157.08702087402344, -31.201984405517578, 0.04800000041723251, 0.0, 1.055999994277954, 0.0, 0.0, 0.0, 0.0, 0.0, 1.6203913094707916E9, 2021-05-07 14:41:49.470
72.0, -115.21509552001953, 144.93234252929688, 172.5028839111328, -19.57089614868164, 0.04800000041723251, 0.0, 1.055999994277954, 0.0, 0.0, 0.0, 0.0, 0.0, 1.6203913095025272E9, 2021-05-07 14:41:49.502
72.0, -103.09782409667969, 131.44625854492188, 177.15158081054688, -17.611188888549805, 0.04800000041723251, 0.0, 1.055999994277954, 0.0, 0.0, 0.0, 0.0, 0.0, 1.6203913095025272E9, 2021-05-07 14:41:49.502
73.0, -120.89600372314453, 131.95115661621094, 177.9332275390625, -16.492958068847656, 0.04800000041723251, 0.0, 1.055999994277954, 0.0, 0.0, 0.0, 0.0, 0.0, 1.6203913095031888E9, 2021-05-07 14:41:49.503
73.0, -112.31293487548828, 139.22898864746094, 176.4821319580078, -8.55315113067627, 0.04800000041723251, 0.0, 1.055999994277954, 0.0, 0.0, 0.0, 0.0, 0.0, 1.6203913095031888E9, 2021-05-07 14:41:49.503
74.0, -131.0311279296875, 130.08494567871094, 163.0895538330078, -14.196660041809082, 0.04800000041723251, 0.0, 1.055999994277954, 0.0, 0.0, 0.0, 0.0, 0.0, 1.6203913095039315E9, 2021-05-07 14:41:49.503
74.0, -117.25334167480469, 126.6517105102539, 172.23361206054688, -7.068410873413086, 0.04800000041723251, 0.0, 1.055999994277954, 0.0, 0.0, 0.0, 0.0, 0.0, 1.6203913095039315E9, 2021-05-07 14:41:49.503
75.0, -109.37337493896484, 141.083984375, 179.35812377929688, -7.423701286315918, 0.04800000041723251, 0.0, 1.055999994277954, 0.0, 0.0, 0.0, 0.0, 0.0, 1.6203913095046513E9, 2021-05-07 14:41:49.504
75.0, -124.28809356689453, 138.30523681640625, 174.26063537597656, -10.553997993469238, 0.04800000041723251, 0.0, 1.055999994277954, 0.0, 0.0, 0.0, 0.0, 0.0, 1.6203913095046513E9, 2021-05-07 14:41:49.504
76.0, -113.78271484375, 139.18411254882812, 186.4901123046875, -6.297991752624512, 0.04800000041723251, 0.0, 1.055999994277954, 0.0, 0.0, 0.0, 0.0, 0.0, 1.6203913095154383E9, 2021-05-07 14:41:49.515
76.0, -103.864501953125, 139.2140350341797, 176.68783569335938, -16.227426528930664, 0.04800000041723251, 0.0, 1.055999994277954, 0.0, 0.0, 0.0, 0.0, 0.0, 1.6203913095154383E9, 2021-05-07 14:41:49.515
77.0, -134.8832244873047, 131.4200897216797, 167.85044860839844, -19.731712341308594, 0.04800000041723251, 0.0, 1.055999994277954, 0.0, 0.0, 0.0, 0.0, 0.0, 1.6203913095315309E9, 2021-05-07 14:41:49.531
77.0, -131.7155303955078, 126.7713851928711, 161.15603637695312, -21.620361328125, 0.04800000041723251, 0.0, 1.055999994277954, 0.0, 0.0, 0.0, 0.0, 0.0, 1.6203913095315309E9, 2021-05-07 14:41:49.531
78.0, -124.6396484375, 135.63868713378906, 167.85044860839844, -16.15262794494629, 0.04800000041723251, 0.0, 1.055999994277954, 0.0, 0.0, 0.0, 0.0, 0.0, 1.6203913095461164E9, 2021-05-07 14:41:49.546
78.0, -112.40643310546875, 144.0497283935547, 173.4266357421875, -7.01605224609375, 0.04800000041723251, 0.0, 1.055999994277954, 0.0, 0.0, 0.0, 0.0, 0.0, 1.6203913095461164E9, 2021-05-07 14:41:49.546
79.0, -109.6501235961914, 160.43423461914062, 183.20274353027344, -3.7922585010528564, 0.04800000041723251, 0.0, 1.055999994277954, 0.0, 0.0, 0.0, 0.0, 0.0, 1.620391309546846E9, 2021-05-07 14:41:49.546
79.0, -143.57850646972656, 111.6921157836914, 153.8482666015625, -31.602153778076172, 0.04800000041723251, 0.0, 1.055999994277954, 0.0, 0.0, 0.0, 0.0, 0.0, 1.620391309546846E9, 2021-05-07 14:41:49.546
80.0, -125.22306823730469, 141.2223663330078, 166.07025146484375, -11.956459999084473, 0.04800000041723251, 0.0, 1.055999994277954, 0.0, 0.0, 0.0, 0.0, 0.0, 1.6203913095611527E9, 2021-05-07 14:41:49.561
80.0, -104.20109558105469, 147.84947204589844, 179.0626678466797, -6.671981334686279, 0.04800000041723251, 0.0, 1.055999994277954, 0.0, 0.0, 0.0, 0.0, 0.0, 1.6203913095611527E9, 2021-05-07 14:41:49.561
81.0, -127.21643829345703, 131.59959411621094, 159.6937255859375, -18.662099838256836, 0.04800000041723251, 0.01600000075995922, 1.055999994277954, 0.0, 0.0, 0.0, 0.0, 0.0, 1.620391309561793E9, 2021-05-07 14:41:49.561
81.0, -134.2960662841797, 125.58209991455078, 164.75381469726562, -17.390535354614258, 0.04800000041723251, 0.01600000075995922, 1.055999994277954, 0.0, 0.0, 0.0, 0.0, 0.0, 1.620391309561793E9, 2021-05-07 14:41:49.561
82.0, -126.69659423828125, 138.43988037109375, 176.93092346191406, -7.390042304992676, 0.04800000041723251, 0.01600000075995922, 1.055999994277954, 0.0, 0.0, 0.0, 0.0, 0.0, 1.6203913095925472E9, 2021-05-07 14:41:49.592
82.0, -130.29437255859375, 142.20970153808594, 174.53738403320312, -9.274951934814453, 0.04800000041723251, 0.01600000075995922, 1.055999994277954, 0.0, 0.0, 0.0, 0.0, 0.0, 1.6203913095925472E9, 2021-05-07 14:41:49.592
83.0, -134.3409423828125, 134.23248291015625, 168.97242736816406, -5.538791656494141, 0.04800000041723251, 0.01600000075995922, 1.055999994277954, 0.0, 0.0, 0.0, 0.0, 0.0, 1.6203913095932431E9, 2021-05-07 14:41:49.593
83.0, -130.72071838378906, 146.06179809570312, 172.46548461914062, -8.044525146484375, 0.04800000041723251, 0.01600000075995922, 1.055999994277954, 0.0, 0.0, 0.0, 0.0, 0.0, 1.6203913095932431E9, 2021-05-07 14:41:49.593
84.0, -139.92462158203125, 146.01690673828125, 166.23855590820312, -13.422500610351562, 0.04800000041723251, 0.01600000075995922, 1.055999994277954, 0.0, 0.0, 0.0, 0.0, 0.0, 1.6203913095939496E9, 2021-05-07 14:41:49.593
84.0, -113.13945007324219, 143.78793334960938, 176.9496307373047, -2.505733013153076, 0.04800000041723251, 0.01600000075995922, 1.055999994277954, 0.0, 0.0, 0.0, 0.0, 0.0, 1.6203913095939496E9, 2021-05-07 14:41:49.593
85.0, -117.84050750732422, 127.54928588867188, 163.58322143554688, -15.636521339416504, 0.04800000041723251, 0.01600000075995922, 1.055999994277954, 0.0, 0.0, 0.0, 0.0, 0.0, 1.6203913096054368E9, 2021-05-07 14:41:49.605
85.0, -144.58079528808594, 121.18023681640625, 157.21043395996094, -15.88709545135498, 0.04800000041723251, 0.01600000075995922, 1.055999994277954, 0.0, 0.0, 0.0, 0.0, 0.0, 1.6203913096054368E9, 2021-05-07 14:41:49.605
86.0, -130.9114532470703, 136.45025634765625, 174.3616180419922, -12.57728385925293, 0.04800000041723251, 0.01600000075995922, 1.055999994277954, 0.0, 0.0, 0.0, 0.0, 0.0, 1.620391309621136E9, 2021-05-07 14:41:49.621
86.0, -129.82688903808594, 144.4349365234375, 177.03564453125, -6.802877902984619, 0.04800000041723251, 0.01600000075995922, 1.055999994277954, 0.0, 0.0, 0.0, 0.0, 0.0, 1.620391309621136E9, 2021-05-07 14:41:49.621
87.0, -125.33526611328125, 138.69418334960938, 168.62086486816406, -13.168188095092773, 0.04800000041723251, 0.01600000075995922, 1.055999994277954, 0.0, 0.0, 0.0, 0.0, 0.0, 1.62039130962191E9, 2021-05-07 14:41:49.621
87.0, -122.13764953613281, 136.248291015625, 170.98822021484375, -13.08965015411377, 0.04800000041723251, 0.01600000075995922, 1.055999994277954, 0.0, 0.0, 0.0, 0.0, 0.0, 1.62039130962191E9, 2021-05-07 14:41:49.621
88.0, -128.93679809570312, 127.97189331054688, 169.00233459472656, -15.195213317871094, 0.04800000041723251, 0.01600000075995922, 1.055999994277954, 0.0, 0.0, 0.0, 0.0, 0.0, 1.620391309635527E9, 2021-05-07 14:41:49.635
88.0, -126.12812805175781, 140.9605712890625, 175.6294403076172, -0.9798538088798523, 0.04800000041723251, 0.01600000075995922, 1.055999994277954, 0.0, 0.0, 0.0, 0.0, 0.0, 1.620391309635527E9, 2021-05-07 14:41:49.635
89.0, -115.76486206054688, 149.67079162597656, 185.3045654296875, 1.5296190977096558, 0.04800000041723251, 0.01600000075995922, 1.055999994277954, 0.0, 0.0, 0.0, 0.0, 0.0, 1.6203913096516466E9, 2021-05-07 14:41:49.651
89.0, -146.30862426757812, 129.69973754882812, 166.40684509277344, -16.97166633605957, 0.04800000041723251, 0.01600000075995922, 1.055999994277954, 0.0, 0.0, 0.0, 0.0, 0.0, 1.6203913096516466E9, 2021-05-07 14:41:49.651
90.0, -124.01134490966797, 141.33456420898438, 174.01754760742188, -7.285325050354004, 0.04800000041723251, 0.01600000075995922, 1.055999994277954, 0.0, 0.0, 0.0, 0.0, 0.0, 1.6203913096663013E9, 2021-05-07 14:41:49.666
90.0, -112.7205810546875, 143.72434997558594, 180.70448303222656, 0.5572450757026672, 0.04800000041723251, 0.01600000075995922, 1.055999994277954, 0.0, 0.0, 0.0, 0.0, 0.0, 1.6203913096663013E9, 2021-05-07 14:41:49.666
91.0, -126.588134765625, 142.3218994140625, 174.3690948486328, -3.672581672668457, 0.04800000041723251, 0.0, 1.055999994277954, 0.0, 0.0, 0.0, 0.0, 0.0, 1.6203913096668503E9, 2021-05-07 14:41:49.666
91.0, -132.5570068359375, 137.49368286132812, 161.8553924560547, -19.058530807495117, 0.04800000041723251, 0.0, 1.055999994277954, 0.0, 0.0, 0.0, 0.0, 0.0, 1.6203913096668503E9, 2021-05-07 14:41:49.666
92.0, -132.8524627685547, 130.5823516845703, 173.87916564941406, -7.427441120147705, 0.04800000041723251, 0.0, 1.055999994277954, 0.0, 0.0, 0.0, 0.0, 0.0, 1.6203913096810453E9, 2021-05-07 14:41:49.681
92.0, -116.98033142089844, 151.98953247070312, 182.32760620117188, 11.137421607971191, 0.04800000041723251, 0.0, 1.055999994277954, 0.0, 0.0, 0.0, 0.0, 0.0, 1.6203913096810453E9, 2021-05-07 14:41:49.681
93.0, -121.74496459960938, 139.6366424560547, 171.5230255126953, -6.458806991577148, 0.04800000041723251, 0.0, 1.055999994277954, 0.0, 0.0, 0.0, 0.0, 0.0, 1.6203913096818023E9, 2021-05-07 14:41:49.681
93.0, -136.19967651367188, 136.40162658691406, 171.64271545410156, -6.2157135009765625, 0.04800000041723251, 0.0, 1.055999994277954, 0.0, 0.0, 0.0, 0.0, 0.0, 1.6203913096818023E9, 2021-05-07 14:41:49.681
94.0, -120.48835754394531, 141.87310791015625, 178.41566467285156, -6.290511608123779, 0.04800000041723251, 0.0, 1.055999994277954, 0.0, 0.0, 0.0, 0.0, 0.0, 1.6203913097124653E9, 2021-05-07 14:41:49.712
94.0, -104.46288299560547, 154.8131561279297, 188.58819580078125, 4.398122310638428, 0.04800000041723251, 0.0, 1.055999994277954, 0.0, 0.0, 0.0, 0.0, 0.0, 1.6203913097124653E9, 2021-05-07 14:41:49.712
95.0, -124.17215728759766, 133.09556579589844, 173.54257202148438, -4.611296653747559, 0.04800000041723251, 0.0, 1.055999994277954, 0.0, 0.0, 0.0, 0.0, 0.0, 1.6203913097131517E9, 2021-05-07 14:41:49.713
95.0, -138.6680145263672, 134.0380096435547, 167.17726135253906, -17.865501403808594, 0.04800000041723251, 0.0, 1.055999994277954, 0.0, 0.0, 0.0, 0.0, 0.0, 1.6203913097131517E9, 2021-05-07 14:41:49.713
96.0, -128.14767456054688, 142.11619567871094, 174.80667114257812, -6.821577548980713, 0.04800000041723251, 0.0, 1.055999994277954, 0.0, 0.0, 0.0, 0.0, 0.0, 1.6203913097139127E9, 2021-05-07 14:41:49.713
96.0, -119.89371490478516, 147.7447509765625, 176.29139709472656, -4.974066734313965, 0.04800000041723251, 0.0, 1.055999994277954, 0.0, 0.0, 0.0, 0.0, 0.0, 1.6203913097139127E9, 2021-05-07 14:41:49.713
97.0, -102.7425308227539, 156.70555114746094, 185.92538452148438, 2.359876871109009, 0.04800000041723251, 0.0, 1.055999994277954, 0.0, 0.0, 0.0, 0.0, 0.0, 1.620391309725623E9, 2021-05-07 14:41:49.725
97.0, -138.4959716796875, 143.7542724609375, 166.68359375, -16.58271598815918, 0.04800000041723251, 0.0, 1.055999994277954, 0.0, 0.0, 0.0, 0.0, 0.0, 1.620391309725623E9, 2021-05-07 14:41:49.725
98.0, -122.97913360595703, 136.37171936035156, 176.5718994140625, -2.2102808952331543, 0.04800000041723251, 0.0, 1.055999994277954, 0.0, 0.0, 0.0, 0.0, 0.0, 1.6203913097411358E9, 2021-05-07 14:41:49.741
98.0, -113.81637573242188, 157.81629943847656, 181.8750762939453, 13.284124374389648, 0.04800000041723251, 0.0, 1.055999994277954, 0.0, 0.0, 0.0, 0.0, 0.0, 1.6203913097411358E9, 2021-05-07 14:41:49.741
99.0, -123.12124633789062, 153.91184997558594, 172.80581665039062, 1.9971065521240234, 0.04800000041723251, 0.0, 1.055999994277954, 0.0, 0.0, 0.0, 0.0, 0.0, 1.6203913097418313E9, 2021-05-07 14:41:49.741
99.0, -118.34539794921875, 150.8339080810547, 179.99391174316406, 9.488125801086426, 0.04800000041723251, 0.0, 1.055999994277954, 0.0, 0.0, 0.0, 0.0, 0.0, 1.6203913097418313E9, 2021-05-07 14:41:49.741
100.0, -132.2316436767578, 141.1625213623047, 168.27679443359375, -11.066364288330078, 0.04800000041723251, 0.0, 1.055999994277954, 0.0, 0.0, 0.0, 0.0, 0.0, 1.62039130978737E9, 2021-05-07 14:41:49.787
100.0, -131.00869750976562, 144.3376922607422, 172.6749267578125, 3.754859447479248, 0.04800000041723251, 0.0, 1.055999994277954, 0.0, 0.0, 0.0, 0.0, 0.0, 1.62039130978737E9, 2021-05-07 14:41:49.787
0.0, -132.19798278808594, 146.6807403564453, 162.89881896972656, -1.821331262588501, 0.04800000041723251, 0.0, 1.055999994277954, 0.0, 0.0, 0.0, 0.0, 0.0, 1.6203913097879808E9, 2021-05-07 14:41:49.787
1.0, -131.41635131835938, 160.8811492919922, 170.2888641357422, -6.50368595123291, 0.04800000041723251, 0.0, 1.055999994277954, 0.0, 0.0, 0.0, 0.0, 0.0, 1.6203913097887743E9, 2021-05-07 14:41:49.788
1.0, -121.26251983642578, 134.892578125, 169.14071655273438, -10.542778015136719, 0.04800000041723251, 0.0, 1.055999994277954, 0.0, 0.0, 0.0, 0.0, 0.0, 1.6203913097887743E9, 2021-05-07 14:41:49.788
2.0, -114.24272155761719, 148.81996154785156, 171.63148498535156, -0.8115583062171936, 0.04800000041723251, 0.0, 1.055999994277954, 0.0, 0.0, 0.0, 0.0, 0.0, 1.62039130980261E9, 2021-05-07 14:41:49.802
2.0, -112.6570053100586, 161.6478271484375, 181.52352905273438, 7.696713924407959, 0.04800000041723251, 0.0, 1.055999994277954, 0.0, 0.0, 0.0, 0.0, 0.0, 1.62039130980261E9, 2021-05-07 14:41:49.802
3.0, -145.25396728515625, 134.07354736328125, 156.9449005126953, -15.935713768005371, 0.04800000041723251, 0.0, 1.055999994277954, 0.0, 0.0, 0.0, 0.0, 0.0, 1.6203913098033223E9, 2021-05-07 14:41:49.803
3.0, -120.69405364990234, 144.55648803710938, 174.63462829589844, -2.0756444931030273, 0.04800000041723251, 0.0, 1.055999994277954, 0.0, 0.0, 0.0, 0.0, 0.0, 1.6203913098033223E9, 2021-05-07 14:41:49.803
4.0, -124.54988861083984, 163.28216552734375, 179.1225128173828, 10.26976490020752, 0.04800000041723251, 0.0, 1.055999994277954, 0.0, 0.0, 0.0, 0.0, 0.0, 1.6203913098039465E9, 2021-05-07 14:41:49.803
4.0, -115.39087677001953, 148.4197998046875, 178.15013122558594, 3.014359474182129, 0.04800000041723251, 0.0, 1.055999994277954, 0.0, 0.0, 0.0, 0.0, 0.0, 1.6203913098039465E9, 2021-05-07 14:41:49.803
5.0, -126.24032592773438, 136.65406799316406, 169.95974731445312, -6.028718948364258, 0.04800000041723251, 0.0, 1.055999994277954, 0.0, 0.0, 0.0, 0.0, 0.0, 1.6203913098046951E9, 2021-05-07 14:41:49.804
5.0, -116.79707336425781, 167.06320190429688, 184.1564178466797, 4.484139919281006, 0.04800000041723251, 0.0, 1.055999994277954, 0.0, 0.0, 0.0, 0.0, 0.0, 1.6203913098046951E9, 2021-05-07 14:41:49.804
6.0, -115.30111694335938, 122.37887573242188, 175.509765625, -1.8961292505264282, 0.04800000041723251, 0.0, 1.055999994277954, 0.0, 0.0, 0.0, 0.0, 0.0, 1.6203913098312166E9, 2021-05-07 14:41:49.831
6.0, -104.7284164428711, 135.5283660888672, 178.984130859375, -3.564124584197998, 0.04800000041723251, 0.0, 1.055999994277954, 0.0, 0.0, 0.0, 0.0, 0.0, 1.6203913098312166E9, 2021-05-07 14:41:49.831
7.0, -136.55870056152344, 136.5531005859375, 174.89268493652344, -7.584517002105713, 0.04800000041723251, 0.0, 1.055999994277954, 0.0, 0.0, 0.0, 0.0, 0.0, 1.6203913098318584E9, 2021-05-07 14:41:49.831
7.0, -125.8663330078125, 149.30615234375, 173.20599365234375, 3.422008514404297, 0.04800000041723251, 0.0, 1.055999994277954, 0.0, 0.0, 0.0, 0.0, 0.0, 1.6203913098318584E9, 2021-05-07 14:41:49.831
8.0, -123.42791748046875, 149.44827270507812, 179.06640625, 4.626256465911865, 0.04800000041723251, 0.0, 1.055999994277954, 0.0, 0.0, 0.0, 0.0, 0.0, 1.620391309846094E9, 2021-05-07 14:41:49.846
8.0, -112.90383911132812, 143.25125122070312, 181.11961364746094, -0.7180607914924622, 0.04800000041723251, 0.0, 1.055999994277954, 0.0, 0.0, 0.0, 0.0, 0.0, 1.620391309846094E9, 2021-05-07 14:41:49.846
9.0, -120.97828674316406, 141.4149627685547, 170.344970703125, -7.648095607757568, 0.04800000041723251, 0.0, 1.055999994277954, 0.0, 0.0, 0.0, 0.0, 0.0, 1.6203913098468468E9, 2021-05-07 14:41:49.846
9.0, -111.95390319824219, 157.64239501953125, 180.06871032714844, 2.1654021739959717, 0.04800000041723251, 0.0, 1.055999994277954, 0.0, 0.0, 0.0, 0.0, 0.0, 1.6203913098468468E9, 2021-05-07 14:41:49.846
10.0, -115.15151977539062, 130.56552124023438, 171.7399444580078, -8.467133522033691, 0.04800000041723251, 0.0, 1.055999994277954, 0.0, 0.0, 0.0, 0.0, 0.0, 1.6203913098604143E9, 2021-05-07 14:41:49.860
10.0, -124.36663055419922, 143.59532165527344, 175.2666778564453, -7.476059913635254, 0.04800000041723251, 0.0, 1.055999994277954, 0.0, 0.0, 0.0, 0.0, 0.0, 1.6203913098604143E9, 2021-05-07 14:41:49.860
11.0, -113.50970458984375, 145.7121124267578, 176.00717163085938, -0.747979998588562, 0.04800000041723251, 0.0, 1.055999994277954, 0.0, 0.0, 0.0, 0.0, 0.0, 1.6203913098767614E9, 2021-05-07 14:41:49.876
11.0, -118.52490997314453, 148.6292266845703, 178.71859741210938, -2.3000385761260986, 0.04800000041723251, 0.0, 1.055999994277954, 0.0, 0.0, 0.0, 0.0, 0.0, 1.6203913098767614E9, 2021-05-07 14:41:49.876
12.0, -107.40618896484375, 159.78909301757812, 185.61871337890625, 6.582223892211914, 0.04800000041723251, 0.0, 1.055999994277954, 0.0, 0.0, 0.0, 0.0, 0.0, 1.6203913098774765E9, 2021-05-07 14:41:49.877
12.0, -119.20557403564453, 153.4985809326172, 179.4478759765625, -3.6800615787506104, 0.04800000041723251, 0.0, 1.055999994277954, 0.0, 0.0, 0.0, 0.0, 0.0, 1.6203913098774765E9, 2021-05-07 14:41:49.877
13.0, -128.52914428710938, 131.8557891845703, 173.49395751953125, -9.630242347717285, 0.04800000041723251, 0.0, 1.055999994277954, 0.0, 0.0, 0.0, 0.0, 0.0, 1.6203913099068983E9, 2021-05-07 14:41:49.906
13.0, -120.649169921875, 155.5293426513672, 177.09922790527344, 0.6619622707366943, 0.04800000041723251, 0.0, 1.055999994277954, 0.0, 0.0, 0.0, 0.0, 0.0, 1.6203913099068983E9, 2021-05-07 14:41:49.906
14.0, -108.58425903320312, 137.38710021972656, 181.9498748779297, 7.210526943206787, 0.04800000041723251, 0.0, 1.055999994277954, 0.0, 0.0, 0.0, 0.0, 0.0, 1.6203913099075632E9, 2021-05-07 14:41:49.907
14.0, -118.48377227783203, 135.0272216796875, 174.27560424804688, -6.268072128295898, 0.04800000041723251, 0.0, 1.055999994277954, 0.0, 0.0, 0.0, 0.0, 0.0, 1.6203913099075632E9, 2021-05-07 14:41:49.907
15.0, -110.6673812866211, 131.14146423339844, 174.81040954589844, -10.568957328796387, 0.04800000041723251, 0.0, 1.055999994277954, 0.0, 0.0, 0.0, 0.0, 0.0, 1.620391309908283E9, 2021-05-07 14:41:49.908
15.0, -122.02545928955078, 146.7181396484375, 181.190673828125, 6.0511579513549805, 0.04800000041723251, 0.0, 1.055999994277954, 0.0, 0.0, 0.0, 0.0, 0.0, 1.620391309908283E9, 2021-05-07 14:41:49.908
16.0, -107.3800048828125, 155.69017028808594, 184.5416259765625, 8.721446990966797, 0.04800000041723251, 0.0, 1.055999994277954, 0.0, 0.0, 0.0, 0.0, 0.0, 1.6203913099203935E9, 2021-05-07 14:41:49.920
16.0, -115.9294204711914, 151.78196716308594, 178.0977783203125, -1.5071797370910645, 0.04800000041723251, 0.0, 1.055999994277954, 0.0, 0.0, 0.0, 0.0, 0.0, 1.6203913099203935E9, 2021-05-07 14:41:49.920
17.0, -130.4888458251953, 144.33583068847656, 172.85443115234375, -11.8517427444458, 0.04800000041723251, 0.0, 1.055999994277954, 0.0, 0.0, 0.0, 0.0, 0.0, 1.620391309936138E9, 2021-05-07 14:41:49.936
17.0, -119.98721313476562, 157.72093200683594, 180.95880126953125, -1.3388842344284058, 0.04800000041723251, 0.0, 1.055999994277954, 0.0, 0.0, 0.0, 0.0, 0.0, 1.620391309936138E9, 2021-05-07 14:41:49.936
18.0, -112.2568359375, 152.7356414794922, 182.42857360839844, 5.680908203125, 0.04800000041723251, 0.0, 1.055999994277954, 0.0, 0.0, 0.0, 0.0, 0.0, 1.6203913099368725E9, 2021-05-07 14:41:49.936
18.0, -124.54241180419922, 134.6494903564453, 177.26004028320312, -1.4772604703903198, 0.04800000041723251, 0.0, 1.055999994277954, 0.0, 0.0, 0.0, 0.0, 0.0, 1.6203913099368725E9, 2021-05-07 14:41:49.936
19.0, -128.71987915039062, 130.18405151367188, 173.4827423095703, -4.7459330558776855, 0.04800000041723251, 0.0, 1.055999994277954, 0.0, 0.0, 0.0, 0.0, 0.0, 1.6203913099503942E9, 2021-05-07 14:41:49.950
19.0, -113.21051025390625, 143.0754852294922, 179.05892944335938, 1.7839323282241821, 0.04800000041723251, 0.0, 1.055999994277954, 0.0, 0.0, 0.0, 0.0, 0.0, 1.6203913099503942E9, 2021-05-07 14:41:49.950
20.0, -107.16683197021484, 152.2344970703125, 179.59747314453125, 0.7591996788978577, 0.04800000041723251, 0.0, 1.055999994277954, 0.0, 0.0, 0.0, 0.0, 0.0, 1.6203913099661412E9, 2021-05-07 14:41:49.966
20.0, -118.19953918457031, 137.016845703125, 169.1070556640625, -5.875382900238037, 0.04800000041723251, 0.0, 1.055999994277954, 0.0, 0.0, 0.0, 0.0, 0.0, 1.6203913099661412E9, 2021-05-07 14:41:49.966
21.0, -117.50391387939453, 125.18753814697266, 167.3679962158203, -10.677413940429688, 0.04800000041723251, 0.0, 1.055999994277954, 0.0, 0.0, 0.0, 0.0, 0.0, 1.620391309966859E9, 2021-05-07 14:41:49.966
21.0, -116.48666381835938, 140.6595001220703, 169.03225708007812, -4.0353522300720215, 0.04800000041723251, 0.0, 1.055999994277954, 0.0, 0.0, 0.0, 0.0, 0.0, 1.620391309966859E9, 2021-05-07 14:41:49.966
22.0, -108.05693054199219, 127.83538818359375, 177.40589904785156, 7.453620433807373, 0.04800000041723251, 0.0, 1.055999994277954, 0.0, 0.0, 0.0, 0.0, 0.0, 1.6203913099805036E9, 2021-05-07 14:41:49.980
22.0, -105.00143432617188, 148.99574279785156, 183.37477111816406, 9.241292953491211, 0.04800000041723251, 0.0, 1.055999994277954, 0.0, 0.0, 0.0, 0.0, 0.0, 1.6203913099805036E9, 2021-05-07 14:41:49.980
23.0, -122.42188262939453, 116.73162841796875, 164.49949645996094, -8.957060813903809, 0.04800000041723251, 0.0, 1.055999994277954, 0.0, 0.0, 0.0, 0.0, 0.0, 1.620391309996106E9, 2021-05-07 14:41:49.996
23.0, -113.93231201171875, 141.87496948242188, 181.56092834472656, 6.18205451965332, 0.04800000041723251, 0.0, 1.055999994277954, 0.0, 0.0, 0.0, 0.0, 0.0, 1.620391309996106E9, 2021-05-07 14:41:49.996
24.0, -111.1124267578125, 143.64395141601562, 178.3932342529297, 8.833643913269043, 0.04800000041723251, 0.0, 1.055999994277954, 0.0, 0.0, 0.0, 0.0, 0.0, 1.620391309996789E9, 2021-05-07 14:41:49.996
24.0, -112.90757751464844, 133.05255126953125, 165.66635131835938, -2.124263286590576, 0.04800000041723251, 0.0, 1.055999994277954, 0.0, 0.0, 0.0, 0.0, 0.0, 1.620391309996789E9, 2021-05-07 14:41:49.996
25.0, -133.80987548828125, 131.242431640625, 161.78433227539062, -5.3181376457214355, 0.04800000041723251, 0.0, 1.055999994277954, 0.0, 0.0, 0.0, 0.0, 0.0, 1.6203913100104E9, 2021-05-07 14:41:50.010
25.0, -116.48666381835938, 133.10116577148438, 172.364501953125, 6.836536884307861, 0.04800000041723251, 0.0, 1.055999994277954, 0.0, 0.0, 0.0, 0.0, 0.0, 1.6203913100104E9, 2021-05-07 14:41:50.010
26.0, -116.74472045898438, 144.4442901611328, 171.9905242919922, 12.715660095214844, 0.04800000041723251, 0.0, 1.055999994277954, 0.0, 0.0, 0.0, 0.0, 0.0, 1.620391310026163E9, 2021-05-07 14:41:50.026
26.0, -117.9601821899414, 134.7317657470703, 168.07484436035156, 8.044525146484375, 0.04800000041723251, 0.0, 1.055999994277954, 0.0, 0.0, 0.0, 0.0, 0.0, 1.620391310026163E9, 2021-05-07 14:41:50.026
27.0, -130.58982849121094, 125.68494415283203, 151.40611267089844, -9.604063034057617, 0.04800000041723251, 0.0, 1.055999994277954, 0.0, 0.0, 0.0, 0.0, 0.0, 1.62039131002678E9, 2021-05-07 14:41:50.026
27.0, -104.98273468017578, 132.21481323242188, 168.70689392089844, 0.991073489189148, 0.04800000041723251, 0.0, 1.055999994277954, 0.0, 0.0, 0.0, 0.0, 0.0, 1.62039131002678E9, 2021-05-07 14:41:50.026
28.0, -119.53842163085938, 142.32749938964844, 167.30816650390625, 2.4346749782562256, 0.04800000041723251, 0.0, 1.055999994277954, 0.0, 0.0, 0.0, 0.0, 0.0, 1.6203913100404756E9, 2021-05-07 14:41:50.040
28.0, -126.76016998291016, 132.3531951904297, 161.18968200683594, -8.848603248596191, 0.04800000041723251, 0.0, 1.055999994277954, 0.0, 0.0, 0.0, 0.0, 0.0, 1.6203913100404756E9, 2021-05-07 14:41:50.040
29.0, -119.28784942626953, 139.8516845703125, 163.9272918701172, -5.897822380065918, 0.04800000041723251, 0.0, 1.055999994277954, 0.0, 0.0, 0.0, 0.0, 0.0, 1.6203913100722318E9, 2021-05-07 14:41:50.072
29.0, -115.02062225341797, 129.1331329345703, 165.61773681640625, 2.8423240184783936, 0.04800000041723251, 0.0, 1.055999994277954, 0.0, 0.0, 0.0, 0.0, 0.0, 1.6203913100722318E9, 2021-05-07 14:41:50.072
30.0, -117.8330307006836, 136.68399047851562, 167.94020080566406, 0.7442401051521301, 0.04800000041723251, 0.0, 1.055999994277954, 0.0, 0.0, 0.0, 0.0, 0.0, 1.6203913100729232E9, 2021-05-07 14:41:50.072
30.0, -128.24864196777344, 126.17113494873047, 161.12611389160156, -1.7727125883102417, 0.04800000041723251, 0.0, 1.055999994277954, 0.0, 0.0, 0.0, 0.0, 0.0, 1.6203913100729232E9, 2021-05-07 14:41:50.072
31.0, -125.48860168457031, 127.67083740234375, 158.86720275878906, -0.5011466145515442, 0.04800000041723251, 0.01600000075995922, 1.055999994277954, 0.0, 0.0, 0.0, 0.0, 0.0, 1.6203913100868626E9, 2021-05-07 14:41:50.086
31.0, -116.53528594970703, 138.72972106933594, 168.1683349609375, 4.7160139083862305, 0.04800000041723251, 0.01600000075995922, 1.055999994277954, 0.0, 0.0, 0.0, 0.0, 0.0, 1.6203913100868626E9, 2021-05-07 14:41:50.086
32.0, -109.72118377685547, 139.3056640625, 167.798095703125, 8.893482208251953, 0.04800000041723251, 0.01600000075995922, 1.055999994277954, 0.0, 0.0, 0.0, 0.0, 0.0, 1.6203913100876124E9, 2021-05-07 14:41:50.087
32.0, -117.85546875, 136.7176513671875, 165.27740478515625, 2.094343900680542, 0.04800000041723251, 0.01600000075995922, 1.055999994277954, 0.0, 0.0, 0.0, 0.0, 0.0, 1.6203913100876124E9, 2021-05-07 14:41:50.087
33.0, -119.47484588623047, 135.47601318359375, 157.20669555664062, -6.0249786376953125, 0.04800000041723251, 0.01600000075995922, 1.055999994277954, 0.0, 0.0, 0.0, 0.0, 0.0, 1.620391310088339E9, 2021-05-07 14:41:50.088
33.0, -127.30245208740234, 121.14845275878906, 156.06976318359375, -8.317537307739258, 0.04800000041723251, 0.01600000075995922, 1.055999994277954, 0.0, 0.0, 0.0, 0.0, 0.0, 1.620391310088339E9, 2021-05-07 14:41:50.088
34.0, -114.55313873291016, 133.64344787597656, 164.7837371826172, -1.2678260803222656, 0.04800000041723251, 0.01600000075995922, 1.055999994277954, 0.0, 0.0, 0.0, 0.0, 0.0, 1.6203913101005244E9, 2021-05-07 14:41:50.100
34.0, -107.48846435546875, 140.80162048339844, 166.62376403808594, 5.520092487335205, 0.04800000041723251, 0.01600000075995922, 1.055999994277954, 0.0, 0.0, 0.0, 0.0, 0.0, 1.6203913101005244E9, 2021-05-07 14:41:50.100
35.0, -119.68801879882812, 123.07823944091797, 155.3778839111328, -10.26602554321289, 0.04800000041723251, 0.01600000075995922, 1.055999994277954, 0.0, 0.0, 0.0, 0.0, 0.0, 1.620391310115869E9, 2021-05-07 14:41:50.115
35.0, -104.18987274169922, 138.97280883789062, 168.36282348632812, -4.779592037200928, 0.04800000041723251, 0.01600000075995922, 1.055999994277954, 0.0, 0.0, 0.0, 0.0, 0.0, 1.620391310115869E9, 2021-05-07 14:41:50.115
36.0, -110.99275207519531, 134.4662322998047, 163.81509399414062, -2.5169527530670166, 0.04800000041723251, 0.01600000075995922, 1.055999994277954, 0.0, 0.0, 0.0, 0.0, 0.0, 1.620391310131132E9, 2021-05-07 14:41:50.131
36.0, -102.68643188476562, 139.0027313232422, 173.63607788085938, 6.249372959136963, 0.04800000041723251, 0.01600000075995922, 1.055999994277954, 0.0, 0.0, 0.0, 0.0, 0.0, 1.620391310131132E9, 2021-05-07 14:41:50.131
37.0, -120.9296646118164, 114.70460510253906, 164.89593505859375, -17.528911590576172, 0.04800000041723251, 0.01600000075995922, 1.055999994277954, 0.0, 0.0, 0.0, 0.0, 0.0, 1.6203913101319995E9, 2021-05-07 14:41:50.131
37.0, -109.60150909423828, 132.1961212158203, 172.99655151367188, 0.044878799468278885, 0.04800000041723251, 0.01600000075995922, 1.055999994277954, 0.0, 0.0, 0.0, 0.0, 0.0, 1.6203913101319995E9, 2021-05-07 14:41:50.131
38.0, -112.64204406738281, 152.62344360351562, 175.28163146972656, 0.9013158679008484, 0.04800000041723251, 0.01600000075995922, 1.055999994277954, 0.0, 0.0, 0.0, 0.0, 0.0, 1.620391310146094E9, 2021-05-07 14:41:50.146
38.0, -117.14862823486328, 135.79763793945312, 162.8277587890625, -10.568957328796387, 0.04800000041723251, 0.01600000075995922, 1.055999994277954, 0.0, 0.0, 0.0, 0.0, 0.0, 1.620391310146094E9, 2021-05-07 14:41:50.146
39.0, -125.06599426269531, 118.4258041381836, 157.29270935058594, -16.575237274169922, 0.04800000041723251, 0.01600000075995922, 1.055999994277954, 0.0, 0.0, 0.0, 0.0, 0.0, 1.6203913101468687E9, 2021-05-07 14:41:50.146
39.0, -113.85751342773438, 128.41506958007812, 167.2969512939453, -7.049711227416992, 0.04800000041723251, 0.01600000075995922, 1.055999994277954, 0.0, 0.0, 0.0, 0.0, 0.0, 1.6203913101468687E9, 2021-05-07 14:41:50.146
40.0, -119.1008529663086, 144.646240234375, 169.11827087402344, 3.833397388458252, 0.04800000041723251, 0.01600000075995922, 1.055999994277954, 0.0, 0.0, 0.0, 0.0, 0.0, 1.6203913101605403E9, 2021-05-07 14:41:50.160
40.0, -108.68897247314453, 146.5984649658203, 176.25025939941406, 3.130296230316162, 0.04800000041723251, 0.01600000075995922, 1.055999994277954, 0.0, 0.0, 0.0, 0.0, 0.0, 1.6203913101605403E9, 2021-05-07 14:41:50.160
41.0, -131.27423095703125, 122.34521484375, 158.79241943359375, -13.085909843444824, 0.04800000041723251, 0.0, 1.055999994277954, 0.0, 0.0, 0.0, 0.0, 0.0, 1.6203913101761236E9, 2021-05-07 14:41:50.176
41.0, -106.28047943115234, 144.17501831054688, 175.2105712890625, 2.2402000427246094, 0.04800000041723251, 0.0, 1.055999994277954, 0.0, 0.0, 0.0, 0.0, 0.0, 1.6203913101761236E9, 2021-05-07 14:41:50.176
42.0, -112.58220672607422, 136.94204711914062, 175.73789978027344, 2.9582607746124268, 0.04800000041723251, 0.0, 1.055999994277954, 0.0, 0.0, 0.0, 0.0, 0.0, 1.6203913101768181E9, 2021-05-07 14:41:50.176
42.0, -110.92169189453125, 132.9403533935547, 168.73306274414062, -7.595736980438232, 0.04800000041723251, 0.0, 1.055999994277954, 0.0, 0.0, 0.0, 0.0, 0.0, 1.6203913101768181E9, 2021-05-07 14:41:50.176
43.0, -127.7923812866211, 114.02020263671875, 154.97023010253906, -21.010757446289062, 0.04800000041723251, 0.0, 1.055999994277954, 0.0, 0.0, 0.0, 0.0, 0.0, 1.6203913101904912E9, 2021-05-07 14:41:50.190
43.0, -106.16454315185547, 134.48867797851562, 168.15338134765625, -6.795398235321045, 0.04800000041723251, 0.0, 1.055999994277954, 0.0, 0.0, 0.0, 0.0, 0.0, 1.6203913101904912E9, 2021-05-07 14:41:50.190
44.0, -124.62842559814453, 144.19744873046875, 162.26304626464844, -13.613235473632812, 0.04800000041723251, 0.0, 1.055999994277954, 0.0, 0.0, 0.0, 0.0, 0.0, 1.6203913102061503E9, 2021-05-07 14:41:50.206
44.0, -100.36021423339844, 133.78182983398438, 176.17921447753906, 0.8900961875915527, 0.04800000041723251, 0.0, 1.055999994277954, 0.0, 0.0, 0.0, 0.0, 0.0, 1.6203913102061503E9, 2021-05-07 14:41:50.206
45.0, -124.57232666015625, 128.59832763671875, 160.28089904785156, -16.874427795410156, 0.04800000041723251, 0.0, 1.055999994277954, 0.0, 0.0, 0.0, 0.0, 0.0, 1.6203913102069108E9, 2021-05-07 14:41:50.206
45.0, -115.23379516601562, 129.57070922851562, 170.25146484375, -3.642662525177002, 0.04800000041723251, 0.0, 1.055999994277954, 0.0, 0.0, 0.0, 0.0, 0.0, 1.6203913102069108E9, 2021-05-07 14:41:50.206
46.0, -95.9546127319336, 141.86001586914062, 172.82826232910156, 7.131989002227783, 0.04800000041723251, 0.0, 1.055999994277954, 0.0, 0.0, 0.0, 0.0, 0.0, 1.6203913102205136E9, 2021-05-07 14:41:50.220
46.0, -123.66352844238281, 135.4348602294922, 164.04322814941406, 3.014359474182129, 0.04800000041723251, 0.0, 1.055999994277954, 0.0, 0.0, 0.0, 0.0, 0.0, 1.6203913102205136E9, 2021-05-07 14:41:50.220
47.0, -124.07865905761719, 124.80233001708984, 158.9345245361328, -13.501038551330566, 0.04800000041723251, 0.0, 1.055999994277954, 0.0, 0.0, 0.0, 0.0, 0.0, 1.6203913102365525E9, 2021-05-07 14:41:50.236
47.0, -116.65496063232422, 132.84310913085938, 163.9459991455078, -3.7361600399017334, 0.04800000041723251, 0.0, 1.055999994277954, 0.0, 0.0, 0.0, 0.0, 0.0, 1.6203913102365525E9, 2021-05-07 14:41:50.236
48.0, -105.42404174804688, 138.3819122314453, 171.44822692871094, 8.725186347961426, 0.04800000041723251, 0.0, 1.055999994277954, 0.0, 0.0, 0.0, 0.0, 0.0, 1.6203913102511337E9, 2021-05-07 14:41:50.251
48.0, -107.51838684082031, 132.9814910888672, 170.05325317382812, -1.3538438081741333, 0.04800000041723251, 0.0, 1.055999994277954, 0.0, 0.0, 0.0, 0.0, 0.0, 1.6203913102511337E9, 2021-05-07 14:41:50.251
49.0, -122.24610900878906, 113.57888793945312, 157.73028564453125, -25.89506721496582, 0.04800000041723251, 0.0, 1.055999994277954, 0.0, 0.0, 0.0, 0.0, 0.0, 1.6203913102519305E9, 2021-05-07 14:41:50.251
49.0, -104.09637451171875, 127.97377014160156, 170.93960571289062, -12.984932899475098, 0.04800000041723251, 0.0, 1.055999994277954, 0.0, 0.0, 0.0, 0.0, 0.0, 1.6203913102519305E9, 2021-05-07 14:41:50.251
50.0, -99.47760009765625, 154.4859161376953, 177.7537078857422, -3.6090035438537598, 0.04800000041723251, 0.0, 1.055999994277954, 0.0, 0.0, 0.0, 0.0, 0.0, 1.6203913102662685E9, 2021-05-07 14:41:50.266
50.0, -110.47290802001953, 129.72030639648438, 162.704345703125, -14.888542175292969, 0.04800000041723251, 0.0, 1.055999994277954, 0.0, 0.0, 0.0, 0.0, 0.0, 1.6203913102662685E9, 2021-05-07 14:41:50.266
51.0, -122.04041290283203, 119.14012145996094, 159.17013549804688, -19.185686111450195, 0.04800000041723251, 0.0, 1.055999994277954, 0.0, 0.0, 0.0, 0.0, 0.0, 1.62039131026701E9, 2021-05-07 14:41:50.267
51.0, -112.76920318603516, 135.33763122558594, 176.26148986816406, -4.734713554382324, 0.04800000041723251, 0.0, 1.055999994277954, 0.0, 0.0, 0.0, 0.0, 0.0, 1.62039131026701E9, 2021-05-07 14:41:50.267
52.0, -109.1452407836914, 139.33558654785156, 175.78277587890625, -0.5348057150840759, 0.04800000041723251, 0.0, 1.055999994277954, 0.0, 0.0, 0.0, 0.0, 0.0, 1.6203913102804513E9, 2021-05-07 14:41:50.280
52.0, -114.96078491210938, 132.87303161621094, 169.63812255859375, -0.882616400718689, 0.04800000041723251, 0.0, 1.055999994277954, 0.0, 0.0, 0.0, 0.0, 0.0, 1.6203913102804513E9, 2021-05-07 14:41:50.280
53.0, -119.66931915283203, 128.05978393554688, 165.4120330810547, -6.9449944496154785, 0.04800000041723251, 0.0, 1.055999994277954, 0.0, 0.0, 0.0, 0.0, 0.0, 1.6203913102961688E9, 2021-05-07 14:41:50.296
53.0, -103.51669311523438, 134.55972290039062, 175.4125213623047, -0.2879723012447357, 0.04800000041723251, 0.0, 1.055999994277954, 0.0, 0.0, 0.0, 0.0, 0.0, 1.6203913102961688E9, 2021-05-07 14:41:50.296
54.0, -108.32620239257812, 135.84625244140625, 172.4168701171875, 1.3089649677276611, 0.04800000041723251, 0.0, 1.055999994277954, 0.0, 0.0, 0.0, 0.0, 0.0, 1.6203913102969463E9, 2021-05-07 14:41:50.296
54.0, -106.8115463256836, 135.8761749267578, 175.94358825683594, -7.131989002227783, 0.04800000041723251, 0.0, 1.055999994277954, 0.0, 0.0, 0.0, 0.0, 0.0, 1.6203913102969463E9, 2021-05-07 14:41:50.296
55.0, -128.3571014404297, 118.46320343017578, 157.446044921875, -25.023670196533203, 0.04800000041723251, 0.0, 1.055999994277954, 0.0, 0.0, 0.0, 0.0, 0.0, 1.620391310310478E9, 2021-05-07 14:41:50.310
55.0, -99.55239868164062, 138.00418090820312, 174.68698120117188, -2.064424753189087, 0.04800000041723251, 0.0, 1.055999994277954, 0.0, 0.0, 0.0, 0.0, 0.0, 1.620391310310478E9, 2021-05-07 14:41:50.310
56.0, -114.22776794433594, 136.28382873535156, 174.35787963867188, -1.8175914287567139, 0.04800000041723251, 0.0, 1.055999994277954, 0.0, 0.0, 0.0, 0.0, 0.0, 1.6203913103260908E9, 2021-05-07 14:41:50.326
56.0, -114.34370422363281, 133.94638061523438, 168.23939514160156, -9.319830894470215, 0.04800000041723251, 0.0, 1.055999994277954, 0.0, 0.0, 0.0, 0.0, 0.0, 1.6203913103260908E9, 2021-05-07 14:41:50.326
57.0, -116.19121551513672, 131.1227569580078, 161.03260803222656, -18.931373596191406, 0.04800000041723251, 0.0, 1.055999994277954, 0.0, 0.0, 0.0, 0.0, 0.0, 1.6203913103268375E9, 2021-05-07 14:41:50.326
57.0, -115.17395782470703, 112.4681396484375, 164.88844299316406, -9.663901329040527, 0.04800000041723251, 0.0, 1.055999994277954, 0.0, 0.0, 0.0, 0.0, 0.0, 1.6203913103268375E9, 2021-05-07 14:41:50.326
58.0, -105.57737731933594, 126.99017333984375, 164.14794921875, -5.886602401733398, 0.04800000041723251, 0.0, 1.055999994277954, 0.0, 0.0, 0.0, 0.0, 0.0, 1.62039131035689E9, 2021-05-07 14:41:50.356
58.0, -109.36963653564453, 122.91368103027344, 159.21128845214844, -4.734713554382324, 0.04800000041723251, 0.0, 1.055999994277954, 0.0, 0.0, 0.0, 0.0, 0.0, 1.62039131035689E9, 2021-05-07 14:41:50.356
59.0, -128.97044372558594, 117.16919708251953, 155.02259826660156, -17.016544342041016, 0.04800000041723251, 0.0, 1.055999994277954, 0.0, 0.0, 0.0, 0.0, 0.0, 1.620391310357588E9, 2021-05-07 14:41:50.357
59.0, -114.40727996826172, 129.4734649658203, 164.910888671875, -6.496206283569336, 0.04800000041723251, 0.0, 1.055999994277954, 0.0, 0.0, 0.0, 0.0, 0.0, 1.620391310357588E9, 2021-05-07 14:41:50.357
60.0, -98.01903533935547, 138.21734619140625, 179.13372802734375, 6.567264556884766, 0.04800000041723251, 0.0, 1.055999994277954, 0.0, 0.0, 0.0, 0.0, 0.0, 1.620391310358304E9, 2021-05-07 14:41:50.358
60.0, -99.10734558105469, 128.9124755859375, 168.8527374267578, -0.6096037030220032, 0.04800000041723251, 0.0, 1.055999994277954, 0.0, 0.0, 0.0, 0.0, 0.0, 1.620391310358304E9, 2021-05-07 14:41:50.358
61.0, -117.16358947753906, 114.25955200195312, 155.31056213378906, -13.385102272033691, 0.04800000041723251, 0.0, 1.055999994277954, 0.0, 0.0, 0.0, 0.0, 0.0, 1.6203913103704116E9, 2021-05-07 14:41:50.370
61.0, -116.56146240234375, 123.52328491210938, 158.19403076171875, -5.243339538574219, 0.04800000041723251, 0.0, 1.055999994277954, 0.0, 0.0, 0.0, 0.0, 0.0, 1.6203913103704116E9, 2021-05-07 14:41:50.370
62.0, -101.84121704101562, 143.26995849609375, 175.24423217773438, 11.99385929107666, 0.04800000041723251, 0.0, 1.055999994277954, 0.0, 0.0, 0.0, 0.0, 0.0, 1.6203913103862824E9, 2021-05-07 14:41:50.386
62.0, -109.69500732421875, 133.89402770996094, 167.40914916992188, 0.7517198920249939, 0.04800000041723251, 0.0, 1.055999994277954, 0.0, 0.0, 0.0, 0.0, 0.0, 1.6203913103862824E9, 2021-05-07 14:41:50.386
63.0, -126.33382415771484, 127.41278076171875, 159.4917755126953, -14.181700706481934, 0.04800000041723251, 0.0, 1.055999994277954, 0.0, 0.0, 0.0, 0.0, 0.0, 1.6203913103869328E9, 2021-05-07 14:41:50.386
63.0, -117.092529296875, 130.08306884765625, 171.1864471435547, -6.264332294464111, 0.04800000041723251, 0.0, 1.055999994277954, 0.0, 0.0, 0.0, 0.0, 0.0, 1.6203913103869328E9, 2021-05-07 14:41:50.386
64.0, -114.41475677490234, 142.80247497558594, 171.9980010986328, 4.0615315437316895, 0.04800000041723251, 0.0, 1.055999994277954, 0.0, 0.0, 0.0, 0.0, 0.0, 1.620391310400472E9, 2021-05-07 14:41:50.400
64.0, -107.69042205810547, 136.44837951660156, 173.32940673828125, -2.991919994354248, 0.04800000041723251, 0.0, 1.055999994277954, 0.0, 0.0, 0.0, 0.0, 0.0, 1.620391310400472E9, 2021-05-07 14:41:50.400
65.0, -124.11605834960938, 117.6217269897461, 157.33384704589844, -19.45121955871582, 0.04800000041723251, 0.0, 1.055999994277954, 0.0, 0.0, 0.0, 0.0, 0.0, 1.620391310416242E9, 2021-05-07 14:41:50.416
65.0, -119.87875366210938, 125.03794860839844, 168.4002227783203, -7.8163909912109375, 0.04800000041723251, 0.0, 1.055999994277954, 0.0, 0.0, 0.0, 0.0, 0.0, 1.620391310416242E9, 2021-05-07 14:41:50.416
66.0, -105.65591430664062, 134.9449462890625, 175.37887573242188, -1.8624701499938965, 0.04800000041723251, 0.0, 1.055999994277954, 0.0, 0.0, 0.0, 0.0, 0.0, 1.6203913104169765E9, 2021-05-07 14:41:50.416
66.0, -107.40992736816406, 132.63368225097656, 172.31214904785156, -10.049111366271973, 0.04800000041723251, 0.0, 1.055999994277954, 0.0, 0.0, 0.0, 0.0, 0.0, 1.6203913104169765E9, 2021-05-07 14:41:50.416
67.0, -110.77957916259766, 128.6282501220703, 173.78567504882812, -6.152135372161865, 0.04800000041723251, 0.0, 1.055999994277954, 0.0, 0.0, 0.0, 0.0, 0.0, 1.6203913104303768E9, 2021-05-07 14:41:50.430
67.0, -114.75135040283203, 129.2079315185547, 170.00088500976562, -15.550503730773926, 0.04800000041723251, 0.0, 1.055999994277954, 0.0, 0.0, 0.0, 0.0, 0.0, 1.6203913104303768E9, 2021-05-07 14:41:50.430
68.0, -104.78451538085938, 136.62789916992188, 181.7404327392578, -12.128495216369629, 0.04800000041723251, 0.0, 1.055999994277954, 0.0, 0.0, 0.0, 0.0, 0.0, 1.6203913104461195E9, 2021-05-07 14:41:50.446
68.0, -107.08829498291016, 143.14280700683594, 182.91102600097656, -2.2439398765563965, 0.04800000041723251, 0.0, 1.055999994277954, 0.0, 0.0, 0.0, 0.0, 0.0, 1.6203913104461195E9, 2021-05-07 14:41:50.446
69.0, -121.3934097290039, 126.61992645263672, 166.96035766601562, -9.44698715209961, 0.04800000041723251, 0.0, 1.055999994277954, 0.0, 0.0, 0.0, 0.0, 0.0, 1.6203913104468272E9, 2021-05-07 14:41:50.446
69.0, -116.46422576904297, 135.4049530029297, 169.0210418701172, 6.9188151359558105, 0.04800000041723251, 0.0, 1.055999994277954, 0.0, 0.0, 0.0, 0.0, 0.0, 1.6203913104468272E9, 2021-05-07 14:41:50.446
70.0, -98.3257064819336, 144.75096130371094, 185.45416259765625, 16.16010856628418, 0.04800000041723251, 0.0, 1.055999994277954, 0.0, 0.0, 0.0, 0.0, 0.0, 1.620391310460426E9, 2021-05-07 14:41:50.460
70.0, -115.3272933959961, 129.03216552734375, 178.55030822753906, 13.325263977050781, 0.04800000041723251, 0.0, 1.055999994277954, 0.0, 0.0, 0.0, 0.0, 0.0, 1.620391310460426E9, 2021-05-07 14:41:50.460
71.0, -134.18760681152344, 118.71377563476562, 162.034912109375, -1.196768045425415, 0.04800000041723251, 0.0, 1.055999994277954, 0.0, 0.0, 0.0, 0.0, 0.0, 1.6203913104761145E9, 2021-05-07 14:41:50.476
71.0, -136.95513916015625, 118.1303482055664, 159.38331604003906, -2.3523969650268555, 0.04800000041723251, 0.0, 1.055999994277954, 0.0, 0.0, 0.0, 0.0, 0.0, 1.6203913104761145E9, 2021-05-07 14:41:50.476
72.0, -113.68547821044922, 136.05943298339844, 174.33917236328125, 13.441200256347656, 0.04800000041723251, 0.0, 1.055999994277954, 0.0, 0.0, 0.0, 0.0, 0.0, 1.620391310476855E9, 2021-05-07 14:41:50.476
72.0, -122.1563491821289, 123.58686065673828, 171.41458129882812, 0.11219699680805206, 0.04800000041723251, 0.0, 1.055999994277954, 0.0, 0.0, 0.0, 0.0, 0.0, 1.620391310476855E9, 2021-05-07 14:41:50.476
73.0, -133.5892333984375, 118.8297119140625, 157.00100708007812, -22.229965209960938, 0.04800000041723251, 0.0, 1.055999994277954, 0.0, 0.0, 0.0, 0.0, 0.0, 1.6203913104905393E9, 2021-05-07 14:41:50.490
73.0, -134.69248962402344, 119.67118835449219, 159.61892700195312, -16.53409767150879, 0.04800000041723251, 0.0, 1.055999994277954, 0.0, 0.0, 0.0, 0.0, 0.0, 1.6203913104905393E9, 2021-05-07 14:41:50.490
74.0, -123.6410903930664, 136.39602661132812, 170.64788818359375, -13.50851821899414, 0.04800000041723251, 0.0, 1.055999994277954, 0.0, 0.0, 0.0, 0.0, 0.0, 1.6203913105062845E9, 2021-05-07 14:41:50.506
74.0, -133.2414093017578, 132.38685607910156, 162.01620483398438, -14.963339805603027, 0.04800000041723251, 0.0, 1.055999994277954, 0.0, 0.0, 0.0, 0.0, 0.0, 1.6203913105062845E9, 2021-05-07 14:41:50.506
75.0, -142.63230895996094, 117.10935974121094, 155.96878051757812, -30.020177841186523, 0.04800000041723251, 0.0, 1.055999994277954, 0.0, 0.0, 0.0, 0.0, 0.0, 1.6203913105069644E9, 2021-05-07 14:41:50.506
75.0, -125.89625549316406, 134.01744079589844, 167.8429718017578, -21.130434036254883, 0.04800000041723251, 0.0, 1.055999994277954, 0.0, 0.0, 0.0, 0.0, 0.0, 1.6203913105069644E9, 2021-05-07 14:41:50.506
76.0, -123.92532348632812, 142.00213623046875, 175.2068328857422, -7.412481784820557, 0.04800000041723251, 0.0, 1.055999994277954, 0.0, 0.0, 0.0, 0.0, 0.0, 1.6203913105204768E9, 2021-05-07 14:41:50.520
76.0, -121.19145965576172, 141.5084686279297, 180.19586181640625, -12.072397232055664, 0.04800000041723251, 0.0, 1.055999994277954, 0.0, 0.0, 0.0, 0.0, 0.0, 1.6203913105204768E9, 2021-05-07 14:41:50.520
77.0, -138.78395080566406, 125.19876098632812, 173.6472930908203, -20.42733383178711, 0.04800000041723251, 0.0, 1.055999994277954, 0.0, 0.0, 0.0, 0.0, 0.0, 1.6203913105362976E9, 2021-05-07 14:41:50.536
77.0, -129.56509399414062, 131.7959442138672, 175.15821838378906, -10.011712074279785, 0.04800000041723251, 0.0, 1.055999994277954, 0.0, 0.0, 0.0, 0.0, 0.0, 1.6203913105362976E9, 2021-05-07 14:41:50.536
78.0, -127.6689682006836, 132.697265625, 173.25460815429688, -4.723493576049805, 0.04800000041723251, 0.0, 1.055999994277954, 0.0, 0.0, 0.0, 0.0, 0.0, 1.6203913105370347E9, 2021-05-07 14:41:50.537
78.0, -119.72915649414062, 138.707275390625, 177.80979919433594, 4.349503517150879, 0.04800000041723251, 0.0, 1.055999994277954, 0.0, 0.0, 0.0, 0.0, 0.0, 1.6203913105370347E9, 2021-05-07 14:41:50.537
79.0, -137.78164672851562, 119.891845703125, 163.6019287109375, -1.6118968725204468, 0.04800000041723251, 0.0, 1.055999994277954, 0.0, 0.0, 0.0, 0.0, 0.0, 1.620391310550418E9, 2021-05-07 14:41:50.550
79.0, -147.33709716796875, 121.84780883789062, 160.02284240722656, -1.207987666130066, 0.04800000041723251, 0.0, 1.055999994277954, 0.0, 0.0, 0.0, 0.0, 0.0, 1.620391310550418E9, 2021-05-07 14:41:50.550
80.0, -131.8090362548828, 142.37986755371094, 175.67431640625, 23.942838668823242, 0.04800000041723251, 0.0, 1.055999994277954, 0.0, 0.0, 0.0, 0.0, 0.0, 1.6203913105662143E9, 2021-05-07 14:41:50.566
80.0, -140.98675537109375, 132.61123657226562, 169.5670623779297, 14.566910743713379, 0.04800000041723251, 0.0, 1.055999994277954, 0.0, 0.0, 0.0, 0.0, 0.0, 1.6203913105662143E9, 2021-05-07 14:41:50.566
81.0, -146.49188232421875, 117.90221405029297, 156.3053741455078, -1.0583916902542114, 0.04800000041723251, 0.0, 1.055999994277954, 0.0, 0.0, 0.0, 0.0, 0.0, 1.6203913105670257E9, 2021-05-07 14:41:50.567
81.0, -145.32876586914062, 115.76299285888672, 161.41033935546875, -2.550611734390259, 0.04800000041723251, 0.0, 1.055999994277954, 0.0, 0.0, 0.0, 0.0, 0.0, 1.6203913105670257E9, 2021-05-07 14:41:50.567
82.0, -125.87007141113281, 133.460205078125, 179.4628448486328, 7.206787109375, 0.04800000041723251, 0.0, 1.055999994277954, 0.0, 0.0, 0.0, 0.0, 0.0, 1.62039131058036E9, 2021-05-07 14:41:50.580
82.0, -129.77078247070312, 133.78182983398438, 173.84176635742188, 3.6763217449188232, 0.04800000041723251, 0.0, 1.055999994277954, 0.0, 0.0, 0.0, 0.0, 0.0, 1.62039131058036E9, 2021-05-07 14:41:50.580
83.0, -134.61770629882812, 125.10900115966797, 163.91607666015625, -19.14828872680664, 0.04800000041723251, 0.0, 1.055999994277954, 0.0, 0.0, 0.0, 0.0, 0.0, 1.6203913105961576E9, 2021-05-07 14:41:50.596
83.0, -120.40982055664062, 156.6475830078125, 178.23989868164062, -2.1354827880859375, 0.04800000041723251, 0.0, 1.055999994277954, 0.0, 0.0, 0.0, 0.0, 0.0, 1.6203913105961576E9, 2021-05-07 14:41:50.596
84.0, -127.26131439208984, 125.7971420288086, 175.49105834960938, -19.297883987426758, 0.04800000041723251, 0.0, 1.055999994277954, 0.0, 0.0, 0.0, 0.0, 0.0, 1.6203913105969255E9, 2021-05-07 14:41:50.596
84.0, -141.36822509765625, 129.88111877441406, 167.13612365722656, -24.548704147338867, 0.04800000041723251, 0.0, 1.055999994277954, 0.0, 0.0, 0.0, 0.0, 0.0, 1.6203913105969255E9, 2021-05-07 14:41:50.596
85.0, -133.08059692382812, 129.6903839111328, 170.83114624023438, -29.100162506103516, 0.04800000041723251, 0.0, 1.055999994277954, 0.0, 0.0, 0.0, 0.0, 0.0, 1.6203913106105022E9, 2021-05-07 14:41:50.610
85.0, -125.95609283447266, 135.4460906982422, 175.3900909423828, -24.111135482788086, 0.04800000041723251, 0.0, 1.055999994277954, 0.0, 0.0, 0.0, 0.0, 0.0, 1.6203913106105022E9, 2021-05-07 14:41:50.610
86.0, -119.4411849975586, 143.03060913085938, 181.67686462402344, -7.554597854614258, 0.04800000041723251, 0.0, 1.055999994277954, 0.0, 0.0, 0.0, 0.0, 0.0, 1.6203913106262665E9, 2021-05-07 14:41:50.626
86.0, -124.25443267822266, 133.19093322753906, 167.0314178466797, -10.677413940429688, 0.04800000041723251, 0.0, 1.055999994277954, 0.0, 0.0, 0.0, 0.0, 0.0, 1.6203913106262665E9, 2021-05-07 14:41:50.626
87.0, -132.41116333007812, 124.03939056396484, 161.6160430908203, -18.860315322875977, 0.04800000041723251, 0.0, 1.055999994277954, 0.0, 0.0, 0.0, 0.0, 0.0, 1.620391310626953E9, 2021-05-07 14:41:50.626
87.0, -138.37255859375, 124.809814453125, 164.2264862060547, -3.5229856967926025, 0.04800000041723251, 0.0, 1.055999994277954, 0.0, 0.0, 0.0, 0.0, 0.0, 1.620391310626953E9, 2021-05-07 14:41:50.626
88.0, -124.50126647949219, 129.19671630859375, 176.19790649414062, 10.830750465393066, 0.04800000041723251, 0.0, 1.055999994277954, 0.0, 0.0, 0.0, 0.0, 0.0, 1.6203913106405444E9, 2021-05-07 14:41:50.640
88.0, -126.19170379638672, 127.47261810302734, 175.15821838378906, 11.49271297454834, 0.04800000041723251, 0.0, 1.055999994277954, 0.0, 0.0, 0.0, 0.0, 0.0, 1.6203913106405444E9, 2021-05-07 14:41:50.640
89.0, -137.07481384277344, 127.38660430908203, 166.20863342285156, -4.955367565155029, 0.04800000041723251, 0.0, 1.055999994277954, 0.0, 0.0, 0.0, 0.0, 0.0, 1.6203913106562815E9, 2021-05-07 14:41:50.656
89.0, -121.06803894042969, 117.39733123779297, 177.3722381591797, 19.122108459472656, 0.04800000041723251, 0.0, 1.055999994277954, 0.0, 0.0, 0.0, 0.0, 0.0, 1.6203913106562815E9, 2021-05-07 14:41:50.656
90.0, -130.6160125732422, 131.19007873535156, 173.138671875, 13.444940567016602, 0.04800000041723251, 0.0, 1.055999994277954, 0.0, 0.0, 0.0, 0.0, 0.0, 1.6203913106569293E9, 2021-05-07 14:41:50.656
90.0, -139.86477661132812, 133.40036010742188, 163.5233917236328, 3.09663724899292, 0.04800000041723251, 0.0, 1.055999994277954, 0.0, 0.0, 0.0, 0.0, 0.0, 1.6203913106569293E9, 2021-05-07 14:41:50.656
91.0, -138.5819854736328, 124.86216735839844, 168.53485107421875, 7.330204010009766, 0.04800000041723251, 0.0, 1.055999994277954, 0.0, 0.0, 0.0, 0.0, 0.0, 1.6203913106704743E9, 2021-05-07 14:41:50.670
91.0, -136.87286376953125, 129.02467346191406, 170.57308959960938, 6.89637565612793, 0.04800000041723251, 0.0, 1.055999994277954, 0.0, 0.0, 0.0, 0.0, 0.0, 1.6203913106704743E9, 2021-05-07 14:41:50.670
92.0, -126.3076400756836, 132.61497497558594, 168.14964294433594, 12.940053939819336, 0.04800000041723251, 0.0, 1.055999994277954, 0.0, 0.0, 0.0, 0.0, 0.0, 1.6203913106862123E9, 2021-05-07 14:41:50.686
92.0, -133.88467407226562, 122.16944122314453, 159.70494079589844, 0.011219699867069721, 0.04800000041723251, 0.0, 1.055999994277954, 0.0, 0.0, 0.0, 0.0, 0.0, 1.6203913106862123E9, 2021-05-07 14:41:50.686
93.0, -137.8714141845703, 124.41338348388672, 162.59962463378906, -11.49271297454834, 0.04800000041723251, 0.0, 1.055999994277954, 0.0, 0.0, 0.0, 0.0, 0.0, 1.6203913106868763E9, 2021-05-07 14:41:50.686
93.0, -135.0664825439453, 147.50352478027344, 165.4569091796875, -12.573543548583984, 0.04800000041723251, 0.0, 1.055999994277954, 0.0, 0.0, 0.0, 0.0, 0.0, 1.6203913106868763E9, 2021-05-07 14:41:50.686
94.0, -114.51947784423828, 130.63284301757812, 180.70074462890625, -1.6268564462661743, 0.04800000041723251, 0.0, 1.055999994277954, 0.0, 0.0, 0.0, 0.0, 0.0, 1.6203913107004907E9, 2021-05-07 14:41:50.700
94.0, -121.6514663696289, 129.09573364257812, 169.77650451660156, -12.955013275146484, 0.04800000041723251, 0.0, 1.055999994277954, 0.0, 0.0, 0.0, 0.0, 0.0, 1.6203913107004907E9, 2021-05-07 14:41:50.700
95.0, -133.05442810058594, 123.41857147216797, 162.63702392578125, -17.525171279907227, 0.04800000041723251, 0.0, 1.055999994277954, 0.0, 0.0, 0.0, 0.0, 0.0, 1.6203913107164848E9, 2021-05-07 14:41:50.716
95.0, -128.40573120117188, 115.43014526367188, 166.45172119140625, -13.403800964355469, 0.04800000041723251, 0.0, 1.055999994277954, 0.0, 0.0, 0.0, 0.0, 0.0, 1.6203913107164848E9, 2021-05-07 14:41:50.716
96.0, -115.94438171386719, 137.63018798828125, 175.49481201171875, 8.807464599609375, 0.04800000041723251, 0.0, 1.055999994277954, 0.0, 0.0, 0.0, 0.0, 0.0, 1.6203913107311227E9, 2021-05-07 14:41:50.731
96.0, -121.71504211425781, 121.5411376953125, 167.02767944335938, 5.763185977935791, 0.04800000041723251, 0.0, 1.055999994277954, 0.0, 0.0, 0.0, 0.0, 0.0, 1.6203913107311227E9, 2021-05-07 14:41:50.731
97.0, -140.0181121826172, 107.85684204101562, 157.49465942382812, -4.319584369659424, 0.04800000041723251, 0.0, 1.055999994277954, 0.0, 0.0, 0.0, 0.0, 0.0, 1.620391310731836E9, 2021-05-07 14:41:50.731
97.0, -138.26409912109375, 122.30781555175781, 165.4644012451172, 4.749672889709473, 0.04800000041723251, 0.0, 1.055999994277954, 0.0, 0.0, 0.0, 0.0, 0.0, 1.620391310731836E9, 2021-05-07 14:41:50.731
98.0, -116.78211975097656, 135.84251403808594, 175.8126983642578, 6.477506637573242, 0.04800000041723251, 0.0, 1.055999994277954, 0.0, 0.0, 0.0, 0.0, 0.0, 1.6203913107461028E9, 2021-05-07 14:41:50.746
98.0, -117.56001281738281, 133.93890380859375, 176.68783569335938, 10.247325897216797, 0.04800000041723251, 0.0, 1.055999994277954, 0.0, 0.0, 0.0, 0.0, 0.0, 1.6203913107461028E9, 2021-05-07 14:41:50.746
99.0, -128.278564453125, 132.45790100097656, 164.3910369873047, 4.903008937835693, 0.04800000041723251, 0.0, 1.055999994277954, 0.0, 0.0, 0.0, 0.0, 0.0, 1.6203913107468529E9, 2021-05-07 14:41:50.746
99.0, -139.12054443359375, 117.3262710571289, 155.9650421142578, -6.31295108795166, 0.04800000041723251, 0.0, 1.055999994277954, 0.0, 0.0, 0.0, 0.0, 0.0, 1.6203913107468529E9, 2021-05-07 14:41:50.746
100.0, -132.2129364013672, 133.01889038085938, 168.8639678955078, 5.108703136444092, 0.04800000041723251, 0.0, 1.055999994277954, 0.0, 0.0, 0.0, 0.0, 0.0, 1.6203913107612193E9, 2021-05-07 14:41:50.761
100.0, -122.4518051147461, 149.13038635253906, 174.07737731933594, 16.713613510131836, 0.04800000041723251, 0.0, 1.055999994277954, 0.0, 0.0, 0.0, 0.0, 0.0, 1.6203913107612193E9, 2021-05-07 14:41:50.761
0.0, -142.9913330078125, 103.53539276123047, 156.37831115722656, -3.0106194019317627, 0.04800000041723251, 0.0, 1.055999994277954, 0.0, 0.0, 0.0, 0.0, 0.0, 1.6203913107619765E9, 2021-05-07 14:41:50.761
1.0, -138.1182403564453, 118.52490997314453, 155.3685302734375, -7.2180070877075195, 0.04800000041723251, 0.0, 1.055999994277954, 0.0, 0.0, 0.0, 0.0, 0.0, 1.6203913107755048E9, 2021-05-07 14:41:50.775
1.0, -112.8963623046875, 128.6151580810547, 179.7003173828125, 15.292450904846191, 0.04800000041723251, 0.0, 1.055999994277954, 0.0, 0.0, 0.0, 0.0, 0.0, 1.6203913107755048E9, 2021-05-07 14:41:50.775
2.0, -130.98251342773438, 115.37217712402344, 157.38059997558594, 2.831104278564453, 0.04800000041723251, 0.0, 1.055999994277954, 0.0, 0.0, 0.0, 0.0, 0.0, 1.620391310791185E9, 2021-05-07 14:41:50.791
2.0, -138.4997100830078, 119.19061279296875, 160.52210998535156, -1.92978835105896, 0.04800000041723251, 0.0, 1.055999994277954, 0.0, 0.0, 0.0, 0.0, 0.0, 1.620391310791185E9, 2021-05-07 14:41:50.791
3.0, -129.32948303222656, 126.37496185302734, 161.9021453857422, 9.192673683166504, 0.04800000041723251, 0.0, 1.055999994277954, 0.0, 0.0, 0.0, 0.0, 0.0, 1.6203913107918525E9, 2021-05-07 14:41:50.791
3.0, -116.67739868164062, 136.11740112304688, 172.74037170410156, 10.123908996582031, 0.04800000041723251, 0.0, 1.055999994277954, 0.0, 0.0, 0.0, 0.0, 0.0, 1.6203913107918525E9, 2021-05-07 14:41:50.791
4.0, -127.07806396484375, 132.87490844726562, 167.41848754882812, 0.7143208980560303, 0.04800000041723251, 0.0, 1.055999994277954, 0.0, 0.0, 0.0, 0.0, 0.0, 1.620391310821798E9, 2021-05-07 14:41:50.821
4.0, -142.96514892578125, 122.88188934326172, 158.63720703125, -8.915921211242676, 0.04800000041723251, 0.0, 1.055999994277954, 0.0, 0.0, 0.0, 0.0, 0.0, 1.620391310821798E9, 2021-05-07 14:41:50.821
5.0, -126.91724395751953, 134.99917602539062, 176.4840087890625, 11.208479881286621, 0.04800000041723251, 0.0, 1.055999994277954, 0.0, 0.0, 0.0, 0.0, 0.0, 1.620391310822637E9, 2021-05-07 14:41:50.822
5.0, -120.14054870605469, 156.53350830078125, 172.62069702148438, 14.263978004455566, 0.04800000041723251, 0.0, 1.055999994277954, 0.0, 0.0, 0.0, 0.0, 0.0, 1.620391310822637E9, 2021-05-07 14:41:50.822
6.0, -124.23573303222656, 112.2755355834961, 159.9424285888672, -0.044878799468278885, 0.04800000041723251, 0.0, 1.055999994277954, 0.0, 0.0, 0.0, 0.0, 0.0, 1.6203913108233027E9, 2021-05-07 14:41:50.823
6.0, -136.15853881835938, 114.62045288085938, 153.65565490722656, 0.6769219040870667, 0.04800000041723251, 0.0, 1.055999994277954, 0.0, 0.0, 0.0, 0.0, 0.0, 1.6203913108233027E9, 2021-05-07 14:41:50.823
7.0, -134.20257568359375, 113.15441131591797, 153.7566375732422, 7.532158374786377, 0.04800000041723251, 0.0, 1.055999994277954, 0.0, 0.0, 0.0, 0.0, 0.0, 1.620391310835427E9, 2021-05-07 14:41:50.835
7.0, -114.7438735961914, 130.35047912597656, 163.20362854003906, 12.19581413269043, 0.04800000041723251, 0.0, 1.055999994277954, 0.0, 0.0, 0.0, 0.0, 0.0, 1.620391310835427E9, 2021-05-07 14:41:50.835
8.0, -118.12100219726562, 124.25443267822266, 164.04510498046875, 7.838830471038818, 0.04800000041723251, 0.0, 1.055999994277954, 0.0, 0.0, 0.0, 0.0, 0.0, 1.6203913108511183E9, 2021-05-07 14:41:50.851
8.0, -129.3032989501953, 118.34539794921875, 152.93011474609375, 1.6717352867126465, 0.04800000041723251, 0.0, 1.055999994277954, 0.0, 0.0, 0.0, 0.0, 0.0, 1.6203913108511183E9, 2021-05-07 14:41:50.851
9.0, -130.2307891845703, 113.7228775024414, 163.0540313720703, -2.7600462436676025, 0.04800000041723251, 0.0, 1.055999994277954, 0.0, 0.0, 0.0, 0.0, 0.0, 1.620391310851838E9, 2021-05-07 14:41:50.851
9.0, -112.05488586425781, 129.83062744140625, 173.3350067138672, 8.818683624267578, 0.04800000041723251, 0.0, 1.055999994277954, 0.0, 0.0, 0.0, 0.0, 0.0, 1.620391310851838E9, 2021-05-07 14:41:50.851
10.0, -117.01024627685547, 129.464111328125, 160.77642822265625, 2.199061155319214, 0.04800000041723251, 0.0, 1.055999994277954, 0.0, 0.0, 0.0, 0.0, 0.0, 1.6203913108654928E9, 2021-05-07 14:41:50.865
10.0, -122.7509994506836, 125.71299743652344, 160.05088806152344, 1.6231166124343872, 0.04800000041723251, 0.0, 1.055999994277954, 0.0, 0.0, 0.0, 0.0, 0.0, 1.6203913108654928E9, 2021-05-07 14:41:50.865
11.0, -124.2806167602539, 125.59706115722656, 159.1832275390625, -5.5350518226623535, 0.04800000041723251, 0.0, 1.055999994277954, 0.0, 0.0, 0.0, 0.0, 0.0, 1.6203913108811252E9, 2021-05-07 14:41:50.881
11.0, -123.48775482177734, 150.7104949951172, 165.79164123535156, 7.835090637207031, 0.04800000041723251, 0.0, 1.055999994277954, 0.0, 0.0, 0.0, 0.0, 0.0, 1.6203913108811252E9, 2021-05-07 14:41:50.881
12.0, -119.63565826416016, 133.14418029785156, 161.97694396972656, 8.474613189697266, 0.04800000041723251, 0.0, 1.055999994277954, 0.0, 0.0, 0.0, 0.0, 0.0, 1.6203913108818212E9, 2021-05-07 14:41:50.881
12.0, -128.09906005859375, 141.82449340820312, 164.1947021484375, 15.505624771118164, 0.04800000041723251, 0.0, 1.055999994277954, 0.0, 0.0, 0.0, 0.0, 0.0, 1.6203913108818212E9, 2021-05-07 14:41:50.881
13.0, -127.3099365234375, 117.71334838867188, 162.26490783691406, 12.880215644836426, 0.04800000041723251, 0.0, 1.055999994277954, 0.0, 0.0, 0.0, 0.0, 0.0, 1.620391310895436E9, 2021-05-07 14:41:50.895
13.0, -121.6065902709961, 132.1830291748047, 166.1431884765625, 21.16783332824707, 0.04800000041723251, 0.0, 1.055999994277954, 0.0, 0.0, 0.0, 0.0, 0.0, 1.620391310895436E9, 2021-05-07 14:41:50.895
14.0, -124.98745727539062, 124.83038330078125, 159.0224151611328, 13.654375076293945, 0.04800000041723251, 0.0, 1.055999994277954, 0.0, 0.0, 0.0, 0.0, 0.0, 1.6203913109111383E9, 2021-05-07 14:41:50.911
14.0, -141.82449340820312, 112.43635559082031, 143.49435424804688, -1.3314043283462524, 0.04800000041723251, 0.0, 1.055999994277954, 0.0, 0.0, 0.0, 0.0, 0.0, 1.6203913109111383E9, 2021-05-07 14:41:50.911
15.0, -134.35964965820312, 126.63674926757812, 153.52476501464844, 6.25311279296875, 0.04800000041723251, 0.0, 1.055999994277954, 0.0, 0.0, 0.0, 0.0, 0.0, 1.620391310911826E9, 2021-05-07 14:41:50.911
15.0, -122.30594635009766, 134.6850128173828, 157.24595642089844, 8.81494426727295, 0.04800000041723251, 0.0, 1.055999994277954, 0.0, 0.0, 0.0, 0.0, 0.0, 1.620391310911826E9, 2021-05-07 14:41:50.911
16.0, -118.85401916503906, 127.60538482666016, 151.3855438232422, 2.580530881881714, 0.04800000041723251, 0.0, 1.055999994277954, 0.0, 0.0, 0.0, 0.0, 0.0, 1.6203913109255643E9, 2021-05-07 14:41:50.925
16.0, -135.41429138183594, 104.95655059814453, 138.83070373535156, -19.27544403076172, 0.04800000041723251, 0.0, 1.055999994277954, 0.0, 0.0, 0.0, 0.0, 0.0, 1.6203913109255643E9, 2021-05-07 14:41:50.925
17.0, -119.70671844482422, 132.8262939453125, 162.3284912109375, -2.9470412731170654, 0.04800000041723251, 0.0, 1.055999994277954, 0.0, 0.0, 0.0, 0.0, 0.0, 1.6203913109411695E9, 2021-05-07 14:41:50.941
17.0, -110.68234252929688, 139.35989379882812, 167.39231872558594, 1.1668487787246704, 0.04800000041723251, 0.0, 1.055999994277954, 0.0, 0.0, 0.0, 0.0, 0.0, 1.6203913109411695E9, 2021-05-07 14:41:50.941
18.0, -127.0743179321289, 147.12017822265625, 156.33343505859375, -1.6717352867126465, 0.04800000041723251, 0.0, 1.055999994277954, 0.0, 0.0, 0.0, 0.0, 0.0, 1.6203913109419816E9, 2021-05-07 14:41:50.941
18.0, -132.9945831298828, 106.75544738769531, 150.85821533203125, -7.371342658996582, 0.04800000041723251, 0.0, 1.055999994277954, 0.0, 0.0, 0.0, 0.0, 0.0, 1.6203913109419816E9, 2021-05-07 14:41:50.941
19.0, -120.46965789794922, 121.12413787841797, 158.15101623535156, -4.001692771911621, 0.04800000041723251, 0.0, 1.055999994277954, 0.0, 0.0, 0.0, 0.0, 0.0, 1.6203913109554477E9, 2021-05-07 14:41:50.955
19.0, -105.04257202148438, 129.36688232421875, 159.1458282470703, 11.649787902832031, 0.04800000041723251, 0.0, 1.055999994277954, 0.0, 0.0, 0.0, 0.0, 0.0, 1.6203913109554477E9, 2021-05-07 14:41:50.955
20.0, -113.0796127319336, 116.54276275634766, 156.23245239257812, 8.975759506225586, 0.04800000041723251, 0.0, 1.055999994277954, 0.0, 0.0, 0.0, 0.0, 0.0, 1.6203913109713256E9, 2021-05-07 14:41:50.971
20.0, -126.58439636230469, 122.64627838134766, 151.1873321533203, 11.429134368896484, 0.04800000041723251, 0.0, 1.055999994277954, 0.0, 0.0, 0.0, 0.0, 0.0, 1.6203913109713256E9, 2021-05-07 14:41:50.971
21.0, -128.14393615722656, 124.45639038085938, 151.96148681640625, 14.379915237426758, 0.04800000041723251, 0.0, 1.055999994277954, 0.0, 0.0, 0.0, 0.0, 0.0, 1.620391310972042E9, 2021-05-07 14:41:50.972
21.0, -124.59850311279297, 132.15310668945312, 151.69595336914062, 27.44338607788086, 0.04800000041723251, 0.0, 1.055999994277954, 0.0, 0.0, 0.0, 0.0, 0.0, 1.620391310972042E9, 2021-05-07 14:41:50.972
22.0, -132.32887268066406, 129.2958221435547, 152.8216552734375, 13.575837135314941, 0.04800000041723251, 0.0, 1.055999994277954, 0.0, 0.0, 0.0, 0.0, 0.0, 1.620391310985384E9, 2021-05-07 14:41:50.985
22.0, -140.6987762451172, 125.83267211914062, 149.58290100097656, -2.7376067638397217, 0.04800000041723251, 0.0, 1.055999994277954, 0.0, 0.0, 0.0, 0.0, 0.0, 1.620391310985384E9, 2021-05-07 14:41:50.985
23.0, -139.54689025878906, 124.8453369140625, 157.52272033691406, -2.580530881881714, 0.04800000041723251, 0.0, 1.055999994277954, 0.0, 0.0, 0.0, 0.0, 0.0, 1.6203913110011315E9, 2021-05-07 14:41:51.001
23.0, -124.33671569824219, 144.218017578125, 160.4585418701172, 4.349503517150879, 0.04800000041723251, 0.0, 1.055999994277954, 0.0, 0.0, 0.0, 0.0, 0.0, 1.6203913110011315E9, 2021-05-07 14:41:51.001
24.0, -128.9180908203125, 112.21195983886719, 156.44561767578125, -1.5595382452011108, 0.04800000041723251, 0.0, 1.055999994277954, 0.0, 0.0, 0.0, 0.0, 0.0, 1.620391311001855E9, 2021-05-07 14:41:51.001
24.0, -126.6928482055664, 117.41041564941406, 153.15077209472656, -7.206787109375, 0.04800000041723251, 0.0, 1.055999994277954, 0.0, 0.0, 0.0, 0.0, 0.0, 1.620391311001855E9, 2021-05-07 14:41:51.001
25.0, -129.04898071289062, 123.46531677246094, 153.49484252929688, -9.132835388183594, 0.04800000041723251, 0.0, 1.055999994277954, 0.0, 0.0, 0.0, 0.0, 0.0, 1.6203913110156152E9, 2021-05-07 14:41:51.015
25.0, -115.3310317993164, 135.0216064453125, 157.22352600097656, -5.3443169593811035, 0.04800000041723251, 0.0, 1.055999994277954, 0.0, 0.0, 0.0, 0.0, 0.0, 1.6203913110156152E9, 2021-05-07 14:41:51.015
26.0, -117.56375885009766, 138.04344177246094, 167.17539978027344, -6.066117763519287, 0.04800000041723251, 0.0, 1.055999994277954, 0.0, 0.0, 0.0, 0.0, 0.0, 1.6203913110308647E9, 2021-05-07 14:41:51.030
26.0, -124.57232666015625, 125.72047424316406, 161.5206756591797, -18.501285552978516, 0.04800000041723251, 0.0, 1.055999994277954, 0.0, 0.0, 0.0, 0.0, 0.0, 1.6203913110308647E9, 2021-05-07 14:41:51.030
27.0, -122.29846954345703, 137.41514587402344, 168.11785888671875, -2.913382053375244, 0.04800000041723251, 0.0, 1.055999994277954, 0.0, 0.0, 0.0, 0.0, 0.0, 1.620391311046152E9, 2021-05-07 14:41:51.046
27.0, -119.46736145019531, 158.02198791503906, 174.90577697753906, -0.8339976668357849, 0.04800000041723251, 0.0, 1.055999994277954, 0.0, 0.0, 0.0, 0.0, 0.0, 1.620391311046152E9, 2021-05-07 14:41:51.046
28.0, -118.34913635253906, 122.33960723876953, 174.20640563964844, -2.4832935333251953, 0.04800000041723251, 0.0, 1.055999994277954, 0.0, 0.0, 0.0, 0.0, 0.0, 1.620391311046866E9, 2021-05-07 14:41:51.046
28.0, -135.3656768798828, 118.05741882324219, 157.1075897216797, -8.751365661621094, 0.04800000041723251, 0.0, 1.055999994277954, 0.0, 0.0, 0.0, 0.0, 0.0, 1.620391311046866E9, 2021-05-07 14:41:51.046
29.0, -128.17010498046875, 115.29737854003906, 161.29627990722656, -4.75341272354126, 0.04800000041723251, 0.0, 1.055999994277954, 0.0, 0.0, 0.0, 0.0, 0.0, 1.6203913110611348E9, 2021-05-07 14:41:51.061
29.0, -118.30425262451172, 120.91470336914062, 161.8684844970703, 3.747379779815674, 0.04800000041723251, 0.0, 1.055999994277954, 0.0, 0.0, 0.0, 0.0, 0.0, 1.6203913110611348E9, 2021-05-07 14:41:51.061
30.0, -114.54191589355469, 129.1611785888672, 164.20591735839844, 14.316336631774902, 0.04800000041723251, 0.0, 1.055999994277954, 0.0, 0.0, 0.0, 0.0, 0.0, 1.620391311061825E9, 2021-05-07 14:41:51.061
30.0, -129.19110107421875, 110.75713348388672, 154.49713134765625, 5.879122734069824, 0.04800000041723251, 0.0, 1.055999994277954, 0.0, 0.0, 0.0, 0.0, 0.0, 1.620391311061825E9, 2021-05-07 14:41:51.061
31.0, -114.45215606689453, 124.9612808227539, 164.66966247558594, 16.78093147277832, 0.04800000041723251, 0.0, 1.055999994277954, 0.0, 0.0, 0.0, 0.0, 0.0, 1.620391311075536E9, 2021-05-07 14:41:51.075
31.0, -107.3575668334961, 128.7049102783203, 164.67340087890625, 15.763678550720215, 0.04800000041723251, 0.0, 1.055999994277954, 0.0, 0.0, 0.0, 0.0, 0.0, 1.620391311075536E9, 2021-05-07 14:41:51.075
32.0, -112.85896301269531, 128.57028198242188, 162.92312622070312, 17.719646453857422, 0.04800000041723251, 0.0, 1.055999994277954, 0.0, 0.0, 0.0, 0.0, 0.0, 1.6203913110911803E9, 2021-05-07 14:41:51.091
32.0, -131.1620330810547, 135.85186767578125, 156.1688690185547, -0.3291111886501312, 0.04800000041723251, 0.0, 1.055999994277954, 0.0, 0.0, 0.0, 0.0, 0.0, 1.6203913110911803E9, 2021-05-07 14:41:51.091
33.0, -128.6151580810547, 121.69634246826172, 153.9735565185547, 1.8512505292892456, 0.04800000041723251, 0.0, 1.055999994277954, 0.0, 0.0, 0.0, 0.0, 0.0, 1.620391311091843E9, 2021-05-07 14:41:51.091
33.0, -114.75135040283203, 138.21548461914062, 169.3557586669922, 14.361215591430664, 0.04800000041723251, 0.0, 1.055999994277954, 0.0, 0.0, 0.0, 0.0, 0.0, 1.620391311091843E9, 2021-05-07 14:41:51.091
34.0, -127.093017578125, 124.41525268554688, 154.87486267089844, 1.7203539609909058, 0.04800000041723251, 0.0, 1.055999994277954, 0.0, 0.0, 0.0, 0.0, 0.0, 1.620391311105605E9, 2021-05-07 14:41:51.105
34.0, -118.618408203125, 124.28435516357422, 159.83023071289062, -13.938607215881348, 0.04800000041723251, 0.0, 1.055999994277954, 0.0, 0.0, 0.0, 0.0, 0.0, 1.620391311105605E9, 2021-05-07 14:41:51.105
35.0, -107.39496612548828, 119.00735473632812, 168.31980895996094, -3.152735710144043, 0.04800000041723251, 0.0, 1.055999994277954, 0.0, 0.0, 0.0, 0.0, 0.0, 1.620391311121288E9, 2021-05-07 14:41:51.121
35.0, -113.13197326660156, 129.1312713623047, 169.08648681640625, -8.403554916381836, 0.04800000041723251, 0.0, 1.055999994277954, 0.0, 0.0, 0.0, 0.0, 0.0, 1.620391311121288E9, 2021-05-07 14:41:51.121
36.0, -119.51972198486328, 124.87899780273438, 162.05174255371094, -0.6208233833312988, 0.04800000041723251, 0.0, 1.055999994277954, 0.0, 0.0, 0.0, 0.0, 0.0, 1.6203913111220038E9, 2021-05-07 14:41:51.122
36.0, -128.55906677246094, 117.58993530273438, 152.12229919433594, -11.174820899963379, 0.04800000041723251, 0.0, 1.055999994277954, 0.0, 0.0, 0.0, 0.0, 0.0, 1.6203913111220038E9, 2021-05-07 14:41:51.122
37.0, -119.7441177368164, 131.53976440429688, 159.0224151611328, -5.220900535583496, 0.04800000041723251, 0.0, 1.055999994277954, 0.0, 0.0, 0.0, 0.0, 0.0, 1.620391311135599E9, 2021-05-07 14:41:51.135
37.0, -112.34659576416016, 158.8933868408203, 161.63287353515625, 6.675721645355225, 0.04800000041723251, 0.0, 1.055999994277954, 0.0, 0.0, 0.0, 0.0, 0.0, 1.620391311135599E9, 2021-05-07 14:41:51.135
38.0, -114.71021270751953, 128.5328826904297, 155.4620361328125, -10.924247741699219, 0.04800000041723251, 0.0, 1.055999994277954, 0.0, 0.0, 0.0, 0.0, 0.0, 1.6203913111511447E9, 2021-05-07 14:41:51.151
38.0, -114.81867218017578, 127.04440307617188, 154.61306762695312, -15.419607162475586, 0.04800000041723251, 0.0, 1.055999994277954, 0.0, 0.0, 0.0, 0.0, 0.0, 1.6203913111511447E9, 2021-05-07 14:41:51.151
39.0, -118.53987121582031, 136.61854553222656, 161.5618133544922, -9.084217071533203, 0.04800000041723251, 0.0, 1.055999994277954, 0.0, 0.0, 0.0, 0.0, 0.0, 1.6203913111518755E9, 2021-05-07 14:41:51.151
39.0, -108.83856964111328, 146.70880126953125, 170.82180786132812, 1.7801923751831055, 0.04800000041723251, 0.0, 1.055999994277954, 0.0, 0.0, 0.0, 0.0, 0.0, 1.6203913111518755E9, 2021-05-07 14:41:51.151
40.0, -105.92144775390625, 146.83969116210938, 171.12847900390625, 4.6337361335754395, 0.04800000041723251, 0.0, 1.055999994277954, 0.0, 0.0, 0.0, 0.0, 0.0, 1.6203913111655161E9, 2021-05-07 14:41:51.165
40.0, -107.73155975341797, 149.12850952148438, 173.8174591064453, 4.0615315437316895, 0.04800000041723251, 0.0, 1.055999994277954, 0.0, 0.0, 0.0, 0.0, 0.0, 1.6203913111655161E9, 2021-05-07 14:41:51.165
41.0, -130.80299377441406, 141.01292419433594, 164.8753662109375, 12.723139762878418, 0.04800000041723251, 0.0, 1.055999994277954, 0.0, 0.0, 0.0, 0.0, 0.0, 1.6203913111811962E9, 2021-05-07 14:41:51.181
41.0, -122.08155059814453, 141.4280548095703, 167.1978302001953, 16.492958068847656, 0.04800000041723251, 0.0, 1.055999994277954, 0.0, 0.0, 0.0, 0.0, 0.0, 1.6203913111811962E9, 2021-05-07 14:41:51.181
42.0, -120.79876708984375, 131.11715698242188, 164.60983276367188, 2.0008463859558105, 0.04800000041723251, 0.0, 1.055999994277954, 0.0, 0.0, 0.0, 0.0, 0.0, 1.62039131118198E9, 2021-05-07 14:41:51.181
42.0, -120.8847885131836, 148.26084899902344, 161.3897705078125, 3.0031397342681885, 0.04800000041723251, 0.0, 1.055999994277954, 0.0, 0.0, 0.0, 0.0, 0.0, 1.62039131118198E9, 2021-05-07 14:41:51.181
43.0, -119.4860610961914, 134.0081024169922, 158.58859252929688, 11.197260856628418, 0.04800000041723251, 0.0, 1.055999994277954, 0.0, 0.0, 0.0, 0.0, 0.0, 1.6203913111954093E9, 2021-05-07 14:41:51.195
43.0, -93.00009155273438, 152.96939086914062, 173.9745330810547, 15.266271591186523, 0.04800000041723251, 0.0, 1.055999994277954, 0.0, 0.0, 0.0, 0.0, 0.0, 1.6203913111954093E9, 2021-05-07 14:41:51.195
44.0, -103.33717346191406, 148.61988830566406, 172.80393981933594, 10.464240074157715, 0.04800000041723251, 0.0, 1.055999994277954, 0.0, 0.0, 0.0, 0.0, 0.0, 1.620391311211093E9, 2021-05-07 14:41:51.211
44.0, -117.98262023925781, 144.49478149414062, 168.92567443847656, 2.1841015815734863, 0.04800000041723251, 0.0, 1.055999994277954, 0.0, 0.0, 0.0, 0.0, 0.0, 1.620391311211093E9, 2021-05-07 14:41:51.211
45.0, -123.86922454833984, 140.36965942382812, 162.44442749023438, -0.41138899326324463, 0.04800000041723251, 0.0, 1.055999994277954, 0.0, 0.0, 0.0, 0.0, 0.0, 1.6203913112118547E9, 2021-05-07 14:41:51.211
45.0, -91.18250274658203, 155.3367462158203, 178.33526611328125, 8.960800170898438, 0.04800000041723251, 0.0, 1.055999994277954, 0.0, 0.0, 0.0, 0.0, 0.0, 1.6203913112118547E9, 2021-05-07 14:41:51.211
46.0, -108.57303619384766, 140.51177978515625, 169.58763122558594, -8.175421714782715, 0.04800000041723251, 0.0, 1.055999994277954, 0.0, 0.0, 0.0, 0.0, 0.0, 1.6203913112254782E9, 2021-05-07 14:41:51.225
46.0, -129.24720764160156, 147.0192108154297, 164.73324584960938, -16.25734519958496, 0.04800000041723251, 0.0, 1.055999994277954, 0.0, 0.0, 0.0, 0.0, 0.0, 1.6203913112254782E9, 2021-05-07 14:41:51.225
47.0, -127.51563262939453, 121.12787628173828, 156.35586547851562, -20.113182067871094, 0.04800000041723251, 0.0, 1.055999994277954, 0.0, 0.0, 0.0, 0.0, 0.0, 1.620391311241137E9, 2021-05-07 14:41:51.241
47.0, -93.9687271118164, 148.26834106445312, 177.57980346679688, 7.453620433807373, 0.04800000041723251, 0.0, 1.055999994277954, 0.0, 0.0, 0.0, 0.0, 0.0, 1.620391311241137E9, 2021-05-07 14:41:51.241
48.0, -115.42453002929688, 144.0946044921875, 170.8404998779297, -4.297144889831543, 0.04800000041723251, 0.0, 1.055999994277954, 0.0, 0.0, 0.0, 0.0, 0.0, 1.6203913112418993E9, 2021-05-07 14:41:51.241
48.0, -131.17324829101562, 134.65135192871094, 160.6717071533203, -9.892035484313965, 0.04800000041723251, 0.0, 1.055999994277954, 0.0, 0.0, 0.0, 0.0, 0.0, 1.6203913112418993E9, 2021-05-07 14:41:51.241
49.0, -103.99539947509766, 147.1837615966797, 172.85630798339844, 4.259746074676514, 0.04800000041723251, 0.0, 1.055999994277954, 0.0, 0.0, 0.0, 0.0, 0.0, 1.6203913112555683E9, 2021-05-07 14:41:51.255
49.0, -118.2556381225586, 147.52035522460938, 164.67340087890625, 9.454466819763184, 0.04800000041723251, 0.0, 1.055999994277954, 0.0, 0.0, 0.0, 0.0, 0.0, 1.6203913112555683E9, 2021-05-07 14:41:51.255
50.0, -110.3681869506836, 152.03440856933594, 166.17684936523438, 11.604909896850586, 0.04800000041723251, 0.0, 1.055999994277954, 0.0, 0.0, 0.0, 0.0, 0.0, 1.6203913112882671E9, 2021-05-07 14:41:51.288
50.0, -121.93196105957031, 133.26011657714844, 168.58534240722656, 9.686341285705566, 0.04800000041723251, 0.0, 1.055999994277954, 0.0, 0.0, 0.0, 0.0, 0.0, 1.6203913112882671E9, 2021-05-07 14:41:51.288
51.0, -112.11846160888672, 159.6151885986328, 187.1688995361328, 28.666332244873047, 0.04800000041723251, 0.0, 1.055999994277954, 0.0, 0.0, 0.0, 0.0, 0.0, 1.620391311288988E9, 2021-05-07 14:41:51.288
51.0, -115.65640258789062, 170.7189483642578, 171.6931915283203, 9.136575698852539, 0.04800000041723251, 0.0, 1.055999994277954, 0.0, 0.0, 0.0, 0.0, 0.0, 1.620391311288988E9, 2021-05-07 14:41:51.288
52.0, -107.92977142333984, 130.77682495117188, 174.38966369628906, 10.056591033935547, 0.04800000041723251, 0.0, 1.055999994277954, 0.0, 0.0, 0.0, 0.0, 0.0, 1.6203913112897391E9, 2021-05-07 14:41:51.289
52.0, -120.8473892211914, 133.00579833984375, 161.32618713378906, -4.222347259521484, 0.04800000041723251, 0.0, 1.055999994277954, 0.0, 0.0, 0.0, 0.0, 0.0, 1.6203913112897391E9, 2021-05-07 14:41:51.289
53.0, -108.65904998779297, 120.81372833251953, 161.6515655517578, -1.660515546798706, 0.04800000041723251, 0.0, 1.055999994277954, 0.0, 0.0, 0.0, 0.0, 0.0, 1.6203913112903771E9, 2021-05-07 14:41:51.290
53.0, -100.98851776123047, 134.0828857421875, 171.9437713623047, 13.153227806091309, 0.04800000041723251, 0.0, 1.055999994277954, 0.0, 0.0, 0.0, 0.0, 0.0, 1.6203913112903771E9, 2021-05-07 14:41:51.290
54.0, -99.72069549560547, 138.8512725830078, 164.39291381835938, 5.131142616271973, 0.04800000041723251, 0.0, 1.055999994277954, 0.0, 0.0, 0.0, 0.0, 0.0, 1.6203913113003845E9, 2021-05-07 14:41:51.300
54.0, -103.69994354248047, 121.44950866699219, 159.97608947753906, -14.140562057495117, 0.04800000041723251, 0.0, 1.055999994277954, 0.0, 0.0, 0.0, 0.0, 0.0, 1.6203913113003845E9, 2021-05-07 14:41:51.300
55.0, -128.21873474121094, 139.2626495361328, 172.71792602539062, -1.8063716888427734, 0.04800000041723251, 0.0, 1.055999994277954, 0.0, 0.0, 0.0, 0.0, 0.0, 1.6203913113154263E9, 2021-05-07 14:41:51.315
55.0, -89.54442596435547, 148.4291534423828, 186.3199462890625, 10.64749526977539, 0.04800000041723251, 0.0, 1.055999994277954, 0.0, 0.0, 0.0, 0.0, 0.0, 1.6203913113154263E9, 2021-05-07 14:41:51.315
56.0, -90.9132308959961, 136.4614715576172, 179.97708129882812, -4.97780704498291, 0.04800000041723251, 0.0, 1.055999994277954, 0.0, 0.0, 0.0, 0.0, 0.0, 1.6203913113310618E9, 2021-05-07 14:41:51.331
56.0, -124.3217544555664, 126.11316680908203, 167.99069213867188, -14.477152824401855, 0.04800000041723251, 0.0, 1.055999994277954, 0.0, 0.0, 0.0, 0.0, 0.0, 1.6203913113310618E9, 2021-05-07 14:41:51.331
57.0, -123.54385375976562, 136.8915557861328, 166.93978881835938, -17.356876373291016, 0.04800000041723251, 0.0, 1.055999994277954, 0.0, 0.0, 0.0, 0.0, 0.0, 1.6203913113317912E9, 2021-05-07 14:41:51.331
57.0, -101.08575439453125, 158.208984375, 180.02943420410156, -6.1596150398254395, 0.04800000041723251, 0.0, 1.055999994277954, 0.0, 0.0, 0.0, 0.0, 0.0, 1.6203913113317912E9, 2021-05-07 14:41:51.331
58.0, -114.22776794433594, 145.50828552246094, 172.875, -8.67282772064209, 0.04800000041723251, 0.0, 1.055999994277954, 0.0, 0.0, 0.0, 0.0, 0.0, 1.6203913113454196E9, 2021-05-07 14:41:51.345
58.0, -120.83990478515625, 126.08324432373047, 155.81732177734375, -18.908933639526367, 0.04800000041723251, 0.0, 1.055999994277954, 0.0, 0.0, 0.0, 0.0, 0.0, 1.6203913113454196E9, 2021-05-07 14:41:51.345
59.0, -121.25129699707031, 130.97503662109375, 157.017822265625, -22.315982818603516, 0.04800000041723251, 0.0, 1.055999994277954, 0.0, 0.0, 0.0, 0.0, 0.0, 1.6203913113610983E9, 2021-05-07 14:41:51.361
59.0, -121.26251983642578, 158.58297729492188, 166.8163604736328, -0.7292804718017578, 0.04800000041723251, 0.0, 1.055999994277954, 0.0, 0.0, 0.0, 0.0, 0.0, 1.6203913113610983E9, 2021-05-07 14:41:51.361
60.0, -117.18602752685547, 121.17649841308594, 161.3448944091797, -4.1213698387146, 0.04800000041723251, 0.0, 1.055999994277954, 0.0, 0.0, 0.0, 0.0, 0.0, 1.6203913113618183E9, 2021-05-07 14:41:51.361
60.0, -113.8051528930664, 127.62408447265625, 161.41221618652344, -8.096883773803711, 0.04800000041723251, 0.0, 1.055999994277954, 0.0, 0.0, 0.0, 0.0, 0.0, 1.6203913113618183E9, 2021-05-07 14:41:51.361
61.0, -127.38847351074219, 124.98745727539062, 166.78271484375, 3.4631474018096924, 0.04800000041723251, 0.01600000075995922, 1.055999994277954, 0.0, 0.0, 0.0, 0.0, 0.0, 1.620391311375548E9, 2021-05-07 14:41:51.375
61.0, -105.24078369140625, 136.78683471679688, 171.65953063964844, 11.114982604980469, 0.04800000041723251, 0.01600000075995922, 1.055999994277954, 0.0, 0.0, 0.0, 0.0, 0.0, 1.620391311375548E9, 2021-05-07 14:41:51.375
62.0, -88.14944458007812, 131.45375061035156, 177.8004608154297, 10.363263130187988, 0.04800000041723251, 0.01600000075995922, 1.055999994277954, 0.0, 0.0, 0.0, 0.0, 0.0, 1.6203913113918989E9, 2021-05-07 14:41:51.391
62.0, -125.26795196533203, 112.58220672607422, 169.2772216796875, -6.421408176422119, 0.04800000041723251, 0.01600000075995922, 1.055999994277954, 0.0, 0.0, 0.0, 0.0, 0.0, 1.6203913113918989E9, 2021-05-07 14:41:51.391
63.0, -99.18214416503906, 142.9950714111328, 181.53286743164062, 7.906148433685303, 0.04800000041723251, 0.01600000075995922, 1.055999994277954, 0.0, 0.0, 0.0, 0.0, 0.0, 1.6203913113925204E9, 2021-05-07 14:41:51.392
63.0, -99.09613037109375, 142.4827117919922, 184.60707092285156, 9.705039978027344, 0.04800000041723251, 0.01600000075995922, 1.055999994277954, 0.0, 0.0, 0.0, 0.0, 0.0, 1.6203913113925204E9, 2021-05-07 14:41:51.392
64.0, -95.43476867675781, 130.2345428466797, 179.34503173828125, -0.8601769804954529, 0.04800000041723251, 0.01600000075995922, 1.055999994277954, 0.0, 0.0, 0.0, 0.0, 0.0, 1.6203913114054472E9, 2021-05-07 14:41:51.405
64.0, -120.34623718261719, 138.47354125976562, 168.7760772705078, -3.5155060291290283, 0.04800000041723251, 0.01600000075995922, 1.055999994277954, 0.0, 0.0, 0.0, 0.0, 0.0, 1.6203913114054472E9, 2021-05-07 14:41:51.405
65.0, -123.39425659179688, 139.55810546875, 167.2090606689453, -5.377975940704346, 0.04800000041723251, 0.01600000075995922, 1.055999994277954, 0.0, 0.0, 0.0, 0.0, 0.0, 1.620391311421268E9, 2021-05-07 14:41:51.421
65.0, -113.15441131591797, 149.147216796875, 172.1606903076172, 1.1743285655975342, 0.04800000041723251, 0.01600000075995922, 1.055999994277954, 0.0, 0.0, 0.0, 0.0, 0.0, 1.620391311421268E9, 2021-05-07 14:41:51.421
66.0, -104.04401397705078, 149.52493286132812, 175.99407958984375, -6.103516578674316, 0.04800000041723251, 0.01600000075995922, 1.055999994277954, 0.0, 0.0, 0.0, 0.0, 0.0, 1.6203913114219608E9, 2021-05-07 14:41:51.421
66.0, -113.44986724853516, 131.27423095703125, 164.37796020507812, -17.78322410583496, 0.04800000041723251, 0.01600000075995922, 1.055999994277954, 0.0, 0.0, 0.0, 0.0, 0.0, 1.6203913114219608E9, 2021-05-07 14:41:51.421
67.0, -111.80430603027344, 136.75318908691406, 170.32814025878906, -9.660161972045898, 0.04800000041723251, 0.01600000075995922, 1.055999994277954, 0.0, 0.0, 0.0, 0.0, 0.0, 1.6203913114354153E9, 2021-05-07 14:41:51.435
67.0, -96.17900848388672, 149.5735626220703, 185.23162841796875, 3.1377761363983154, 0.04800000041723251, 0.01600000075995922, 1.055999994277954, 0.0, 0.0, 0.0, 0.0, 0.0, 1.6203913114354153E9, 2021-05-07 14:41:51.435
68.0, -115.40957641601562, 129.83810424804688, 176.8280792236328, -6.847756862640381, 0.04800000041723251, 0.01600000075995922, 1.055999994277954, 0.0, 0.0, 0.0, 0.0, 0.0, 1.6203913114512508E9, 2021-05-07 14:41:51.451
68.0, -120.05078887939453, 134.6438751220703, 173.9483642578125, -5.306918144226074, 0.04800000041723251, 0.01600000075995922, 1.055999994277954, 0.0, 0.0, 0.0, 0.0, 0.0, 1.6203913114512508E9, 2021-05-07 14:41:51.451
69.0, -116.7334976196289, 138.03970336914062, 181.13270568847656, 4.461700439453125, 0.04800000041723251, 0.01600000075995922, 1.055999994277954, 0.0, 0.0, 0.0, 0.0, 0.0, 1.6203913114519398E9, 2021-05-07 14:41:51.451
69.0, -89.01709747314453, 150.97227478027344, 186.06936645507812, 20.995798110961914, 0.04800000041723251, 0.01600000075995922, 1.055999994277954, 0.0, 0.0, 0.0, 0.0, 0.0, 1.6203913114519398E9, 2021-05-07 14:41:51.451
70.0, -121.53179168701172, 135.4890899658203, 166.37132263183594, 7.685494422912598, 0.04800000041723251, 0.01600000075995922, 1.055999994277954, 0.0, 0.0, 0.0, 0.0, 0.0, 1.6203913114654083E9, 2021-05-07 14:41:51.465
70.0, -133.76499938964844, 130.30184936523438, 159.9611358642578, 5.22838020324707, 0.04800000041723251, 0.01600000075995922, 1.055999994277954, 0.0, 0.0, 0.0, 0.0, 0.0, 1.6203913114654083E9, 2021-05-07 14:41:51.465
71.0, -115.95933532714844, 134.3521728515625, 160.21543884277344, 11.503931999206543, 0.04800000041723251, 0.01600000075995922, 1.055999994277954, 0.0, 0.0, 0.0, 0.0, 0.0, 1.620391311481224E9, 2021-05-07 14:41:51.481
71.0, -101.26152801513672, 164.75755310058594, 186.54808044433594, 40.951904296875, 0.04800000041723251, 0.01600000075995922, 1.055999994277954, 0.0, 0.0, 0.0, 0.0, 0.0, 1.620391311481224E9, 2021-05-07 14:41:51.481
72.0, -119.10833740234375, 114.91964721679688, 164.5724334716797, 10.01919174194336, 0.04800000041723251, 0.01600000075995922, 1.055999994277954, 0.0, 0.0, 0.0, 0.0, 0.0, 1.6203913114819465E9, 2021-05-07 14:41:51.481
72.0, -126.23284149169922, 117.34310150146484, 169.3744659423828, 0.10097730159759521, 0.04800000041723251, 0.01600000075995922, 1.055999994277954, 0.0, 0.0, 0.0, 0.0, 0.0, 1.6203913114819465E9, 2021-05-07 14:41:51.481
73.0, -104.84435272216797, 128.39076232910156, 180.422119140625, 14.548211097717285, 0.04800000041723251, 0.01600000075995922, 1.055999994277954, 0.0, 0.0, 0.0, 0.0, 0.0, 1.6203913114953957E9, 2021-05-07 14:41:51.495
73.0, -106.37397766113281, 129.78201293945312, 174.33731079101562, 17.427934646606445, 0.04800000041723251, 0.01600000075995922, 1.055999994277954, 0.0, 0.0, 0.0, 0.0, 0.0, 1.6203913114953957E9, 2021-05-07 14:41:51.495
74.0, -114.02581024169922, 117.9564437866211, 169.39315795898438, 11.855483055114746, 0.04800000041723251, 0.01600000075995922, 1.055999994277954, 0.0, 0.0, 0.0, 0.0, 0.0, 1.620391311511216E9, 2021-05-07 14:41:51.511
74.0, -112.17082214355469, 123.29328155517578, 167.4521484375, 0.6208233833312988, 0.04800000041723251, 0.01600000075995922, 1.055999994277954, 0.0, 0.0, 0.0, 0.0, 0.0, 1.620391311511216E9, 2021-05-07 14:41:51.511
75.0, -128.8806915283203, 144.9921875, 159.89755249023438, 0.127156600356102, 0.04800000041723251, 0.01600000075995922, 1.055999994277954, 0.0, 0.0, 0.0, 0.0, 0.0, 1.620391311511887E9, 2021-05-07 14:41:51.511
75.0, -110.25598907470703, 117.58245086669922, 173.32005310058594, 5.247079849243164, 0.04800000041723251, 0.01600000075995922, 1.055999994277954, 0.0, 0.0, 0.0, 0.0, 0.0, 1.620391311511887E9, 2021-05-07 14:41:51.511
76.0, -108.09432983398438, 130.6571502685547, 174.30364990234375, -8.444694519042969, 0.04800000041723251, 0.01600000075995922, 1.055999994277954, 0.0, 0.0, 0.0, 0.0, 0.0, 1.6203913115254982E9, 2021-05-07 14:41:51.525
76.0, -128.68995666503906, 120.76885223388672, 164.04510498046875, -26.269058227539062, 0.04800000041723251, 0.01600000075995922, 1.055999994277954, 0.0, 0.0, 0.0, 0.0, 0.0, 1.6203913115254982E9, 2021-05-07 14:41:51.525
77.0, -126.97334289550781, 136.8055419921875, 171.28929138183594, -14.308856964111328, 0.04800000041723251, 0.01600000075995922, 1.055999994277954, 0.0, 0.0, 0.0, 0.0, 0.0, 1.6203913115411656E9, 2021-05-07 14:41:51.541
77.0, -114.92338562011719, 139.48330688476562, 176.13619995117188, -15.213912963867188, 0.04800000041723251, 0.01600000075995922, 1.055999994277954, 0.0, 0.0, 0.0, 0.0, 0.0, 1.6203913115411656E9, 2021-05-07 14:41:51.541
78.0, -97.5627670288086, 151.8997802734375, 186.4844970703125, 4.3644633293151855, 0.04800000041723251, 0.01600000075995922, 1.055999994277954, 0.0, 0.0, 0.0, 0.0, 0.0, 1.6203913115418985E9, 2021-05-07 14:41:51.541
78.0, -117.90782928466797, 132.9871063232422, 161.84230041503906, -18.37038803100586, 0.04800000041723251, 0.01600000075995922, 1.055999994277954, 0.0, 0.0, 0.0, 0.0, 0.0, 1.6203913115418985E9, 2021-05-07 14:41:51.541
79.0, -110.40184783935547, 156.46994018554688, 167.9271240234375, -5.74074649810791, 0.04800000041723251, 0.01600000075995922, 1.055999994277954, 0.0, 0.0, 0.0, 0.0, 0.0, 1.6203913115555537E9, 2021-05-07 14:41:51.555
79.0, -104.06645965576172, 126.97708129882812, 168.18516540527344, 2.501993179321289, 0.04800000041723251, 0.01600000075995922, 1.055999994277954, 0.0, 0.0, 0.0, 0.0, 0.0, 1.6203913115555537E9, 2021-05-07 14:41:51.555
80.0, -115.80974578857422, 132.8188018798828, 172.41873168945312, -0.32537129521369934, 0.04800000041723251, 0.01600000075995922, 1.055999994277954, 0.0, 0.0, 0.0, 0.0, 0.0, 1.6203913115711408E9, 2021-05-07 14:41:51.571
80.0, -117.29447937011719, 135.90048217773438, 171.2705841064453, 11.126202583312988, 0.04800000041723251, 0.01600000075995922, 1.055999994277954, 0.0, 0.0, 0.0, 0.0, 0.0, 1.6203913115711408E9, 2021-05-07 14:41:51.571
81.0, -127.32489776611328, 125.24176788330078, 160.45480346679688, 2.935821533203125, 0.04800000041723251, 0.0, 1.055999994277954, 0.0, 0.0, 0.0, 0.0, 0.0, 1.62039131157192E9, 2021-05-07 14:41:51.571
81.0, -98.76702117919922, 143.32418823242188, 179.96585083007812, 29.95659828186035, 0.04800000041723251, 0.0, 1.055999994277954, 0.0, 0.0, 0.0, 0.0, 0.0, 1.62039131157192E9, 2021-05-07 14:41:51.571
82.0, -120.57811737060547, 118.1771011352539, 161.03822326660156, 13.613235473632812, 0.04800000041723251, 0.0, 1.055999994277954, 0.0, 0.0, 0.0, 0.0, 0.0, 1.6203913115855284E9, 2021-05-07 14:41:51.585
82.0, -121.45325469970703, 119.68428039550781, 155.4582977294922, 12.63712215423584, 0.04800000041723251, 0.0, 1.055999994277954, 0.0, 0.0, 0.0, 0.0, 0.0, 1.6203913115855284E9, 2021-05-07 14:41:51.585
83.0, -113.13945007324219, 110.69355773925781, 158.94387817382812, 12.083617210388184, 0.04800000041723251, 0.0, 1.055999994277954, 0.0, 0.0, 0.0, 0.0, 0.0, 1.6203913116010935E9, 2021-05-07 14:41:51.601
83.0, -87.53235626220703, 129.49029541015625, 168.52175903320312, 21.0331974029541, 0.04800000041723251, 0.0, 1.055999994277954, 0.0, 0.0, 0.0, 0.0, 0.0, 1.6203913116010935E9, 2021-05-07 14:41:51.601
84.0, -119.46736145019531, 128.38702392578125, 156.2922821044922, 13.669334411621094, 0.04800000041723251, 0.0, 1.055999994277954, 0.0, 0.0, 0.0, 0.0, 0.0, 1.6203913116018448E9, 2021-05-07 14:41:51.601
84.0, -127.76994323730469, 120.89600372314453, 161.92083740234375, 16.040430068969727, 0.04800000041723251, 0.0, 1.055999994277954, 0.0, 0.0, 0.0, 0.0, 0.0, 1.6203913116018448E9, 2021-05-07 14:41:51.601
85.0, -119.81143188476562, 128.51043701171875, 163.20736694335938, -2.206541061401367, 0.04800000041723251, 0.0, 1.055999994277954, 0.0, 0.0, 0.0, 0.0, 0.0, 1.620391311615615E9, 2021-05-07 14:41:51.615
85.0, -123.76451110839844, 137.24684143066406, 166.58822631835938, -2.4608540534973145, 0.04800000041723251, 0.0, 1.055999994277954, 0.0, 0.0, 0.0, 0.0, 0.0, 1.620391311615615E9, 2021-05-07 14:41:51.615
86.0, -101.14185333251953, 133.78744506835938, 175.74351501464844, 2.8124048709869385, 0.04800000041723251, 0.0, 1.055999994277954, 0.0, 0.0, 0.0, 0.0, 0.0, 1.6203913116315045E9, 2021-05-07 14:41:51.631
86.0, -131.31910705566406, 95.24029541015625, 155.27130126953125, -23.763324737548828, 0.04800000041723251, 0.0, 1.055999994277954, 0.0, 0.0, 0.0, 0.0, 0.0, 1.6203913116315045E9, 2021-05-07 14:41:51.631
87.0, -115.14029693603516, 120.78755187988281, 164.92398071289062, -19.5073184967041, 0.04800000041723251, 0.0, 1.055999994277954, 0.0, 0.0, 0.0, 0.0, 0.0, 1.6203913116461709E9, 2021-05-07 14:41:51.646
87.0, -104.83687591552734, 128.2823028564453, 171.49124145507812, -5.351796627044678, 0.04800000041723251, 0.0, 1.055999994277954, 0.0, 0.0, 0.0, 0.0, 0.0, 1.6203913116461709E9, 2021-05-07 14:41:51.646
88.0, -107.1967544555664, 127.02570343017578, 174.43080139160156, -7.879969120025635, 0.04800000041723251, 0.0, 1.055999994277954, 0.0, 0.0, 0.0, 0.0, 0.0, 1.6203913116468933E9, 2021-05-07 14:41:51.646
88.0, -132.82254028320312, 116.16129302978516, 159.49363708496094, -20.891080856323242, 0.04800000041723251, 0.0, 1.055999994277954, 0.0, 0.0, 0.0, 0.0, 0.0, 1.6203913116468933E9, 2021-05-07 14:41:51.646
89.0, -126.30390167236328, 124.50126647949219, 167.89346313476562, 1.630596399307251, 0.04800000041723251, 0.0, 1.055999994277954, 0.0, 0.0, 0.0, 0.0, 0.0, 1.620391311661217E9, 2021-05-07 14:41:51.661
89.0, -104.02906036376953, 138.2341766357422, 174.67764282226562, 12.573543548583984, 0.04800000041723251, 0.0, 1.055999994277954, 0.0, 0.0, 0.0, 0.0, 0.0, 1.620391311661217E9, 2021-05-07 14:41:51.661
90.0, -114.93086242675781, 146.70130920410156, 166.8911590576172, 14.237798690795898, 0.04800000041723251, 0.0, 1.055999994277954, 0.0, 0.0, 0.0, 0.0, 0.0, 1.620391311661873E9, 2021-05-07 14:41:51.661
90.0, -132.9459686279297, 102.24138641357422, 162.17889404296875, 1.073351263999939, 0.04800000041723251, 0.0, 1.055999994277954, 0.0, 0.0, 0.0, 0.0, 0.0, 1.620391311661873E9, 2021-05-07 14:41:51.661
91.0, -123.61491394042969, 117.1336669921875, 160.78016662597656, 6.832797050476074, 0.04800000041723251, 0.01600000075995922, 1.055999994277954, 0.0, 0.0, 0.0, 0.0, 0.0, 1.62039131167553E9, 2021-05-07 14:41:51.675
