Sample Index, EXG Channel 0, EXG Channel 1, EXG Channel 2, EXG Channel 3, Accel Channel 0, Accel Channel 1, Accel Channel 2, Other, Other, Other, Other, Other, Timestamp, Timestamp (Formatted)
0.0, -66.6207046508789, 122.63506317138672, 139.0999755859375, -24.86472511291504, 0.0, 0.0, 0.0, 0.0, 0.0, 0.0, 0.0, 0.0, 1.6206509699204476E9, 2021-05-10 14:49:29.920
1.0, -69.83328247070312, 144.70046997070312, 153.45370483398438, -13.274774551391602, 0.0, -0.01600000075995922, 0.0, 0.0, 0.0, 0.0, 0.0, 0.0, 1.6206509699209824E9, 2021-05-10 14:49:29.920
1.0, -75.96297454833984, 105.52875518798828, 120.62112426757812, -36.36491775512695, 0.0, -0.01600000075995922, 0.0, 0.0, 0.0, 0.0, 0.0, 0.0, 1.6206509699209824E9, 2021-05-10 14:49:29.920
2.0, -80.3087387084961, 93.72563171386719, 107.4491958618164, -40.89019775390625, -0.08000000566244125, -0.01600000075995922, 0.0, 0.0, 0.0, 0.0, 0.0, 0.0, 1.620650969935681E9, 2021-05-10 14:49:29.935
2.0, -54.664249420166016, 106.38519287109375, 134.3839569091797, -16.20685577392578, -0.08000000566244125, -0.01600000075995922, 0.0, 0.0, 0.0, 0.0, 0.0, 0.0, 1.620650969935681E9, 2021-05-10 14:49:29.935
3.0, -67.22283172607422, 131.70431518554688, 145.40170288085938, -6.393359184265137, -0.08000000566244125, -0.01600000075995922, 0.0, 0.0, 0.0, 0.0, 0.0, 0.0, 1.620650969937042E9, 2021-05-10 14:49:29.937
3.0, -63.755943298339844, 118.38653564453125, 116.80268859863281, -22.373950958251953, -0.08000000566244125, -0.01600000075995922, 0.0, 0.0, 0.0, 0.0, 0.0, 0.0, 1.620650969937042E9, 2021-05-10 14:49:29.937
4.0, -67.80625915527344, 89.46588897705078, 117.93587493896484, -8.364286422729492, -0.08000000566244125, -0.01600000075995922, 0.0, 0.0, 0.0, 0.0, 0.0, 0.0, 1.6206509699657805E9, 2021-05-10 14:49:29.965
4.0, -64.84051513671875, 109.65760803222656, 146.14593505859375, 21.038806915283203, -0.08000000566244125, -0.01600000075995922, 0.0, 0.0, 0.0, 0.0, 0.0, 0.0, 1.6206509699657805E9, 2021-05-10 14:49:29.965
5.0, -62.78731155395508, 124.381591796875, 148.34873962402344, -10.039761543273926, -0.08000000566244125, -0.01600000075995922, 0.0, 0.0, 0.0, 0.0, 0.0, 0.0, 1.6206509699664972E9, 2021-05-10 14:49:29.966
5.0, -86.2103042602539, 112.12593841552734, 118.1714859008789, -17.30264663696289, -0.08000000566244125, -0.01600000075995922, 0.0, 0.0, 0.0, 0.0, 0.0, 0.0, 1.6206509699664972E9, 2021-05-10 14:49:29.966
6.0, -94.50166320800781, 115.53672790527344, 120.12745666503906, -9.007549285888672, -0.08000000566244125, -0.01600000075995922, 0.0, 0.0, 0.0, 0.0, 0.0, 0.0, 1.6206509699672236E9, 2021-05-10 14:49:29.967
6.0, -76.62120056152344, 155.9650421142578, 146.5573272705078, 7.795821666717529, -0.08000000566244125, -0.01600000075995922, 0.0, 0.0, 0.0, 0.0, 0.0, 0.0, 1.6206509699672236E9, 2021-05-10 14:49:29.967
7.0, -60.49101257324219, 113.8014144897461, 158.5025634765625, 14.206009864807129, -0.08000000566244125, -0.01600000075995922, 0.0, 0.0, 0.0, 0.0, 0.0, 0.0, 1.620650969979389E9, 2021-05-10 14:49:29.979
7.0, -76.49030303955078, 93.21700286865234, 124.82102966308594, -20.62367820739746, -0.08000000566244125, -0.01600000075995922, 0.0, 0.0, 0.0, 0.0, 0.0, 0.0, 1.620650969979389E9, 2021-05-10 14:49:29.979
8.0, -85.34264373779297, 91.02168273925781, 119.85444641113281, -20.00285530090332, -0.08000000566244125, -0.01600000075995922, 0.0, 0.0, 0.0, 0.0, 0.0, 0.0, 1.620650969995092E9, 2021-05-10 14:49:29.995
8.0, -66.68428802490234, 132.1456298828125, 151.03399658203125, 7.904278755187988, -0.08000000566244125, -0.01600000075995922, 0.0, 0.0, 0.0, 0.0, 0.0, 0.0, 1.620650969995092E9, 2021-05-10 14:49:29.995
9.0, -64.04391479492188, 145.68780517578125, 158.8428955078125, 11.438484191894531, -0.08000000566244125, -0.01600000075995922, 0.0, 0.0, 0.0, 0.0, 0.0, 0.0, 1.620650969995856E9, 2021-05-10 14:49:29.995
9.0, -96.99991607666016, 107.94099426269531, 125.41193389892578, -19.819599151611328, -0.08000000566244125, -0.01600000075995922, 0.0, 0.0, 0.0, 0.0, 0.0, 0.0, 1.620650969995856E9, 2021-05-10 14:49:29.995
10.0, -89.40043640136719, 77.35234832763672, 124.16654968261719, -28.21193504333496, -0.08000000566244125, -0.01600000075995922, 1.055999994277954, 0.0, 0.0, 0.0, 0.0, 0.0, 1.6206509700258875E9, 2021-05-10 14:49:30.025
10.0, -69.93799591064453, 127.7325439453125, 146.2992706298828, -12.137845039367676, -0.08000000566244125, -0.01600000075995922, 1.055999994277954, 0.0, 0.0, 0.0, 0.0, 0.0, 1.6206509700258875E9, 2021-05-10 14:49:30.025
11.0, -61.67655944824219, 122.19001007080078, 148.8798065185547, -10.855059623718262, -0.08000000566244125, -0.01600000075995922, 1.055999994277954, 0.0, 0.0, 0.0, 0.0, 0.0, 1.6206509700265088E9, 2021-05-10 14:49:30.026
11.0, -68.34480285644531, 109.07418060302734, 124.0880126953125, -15.421477317810059, -0.08000000566244125, -0.01600000075995922, 1.055999994277954, 0.0, 0.0, 0.0, 0.0, 0.0, 1.6206509700265088E9, 2021-05-10 14:49:30.026
12.0, -69.4667739868164, 96.02941131591797, 120.78193664550781, -27.078744888305664, -0.09600000083446503, -0.01600000075995922, 1.055999994277954, 0.0, 0.0, 0.0, 0.0, 0.0, 1.6206509700271678E9, 2021-05-10 14:49:30.027
12.0, -55.427188873291016, 117.6385498046875, 144.5677032470703, -5.477083683013916, -0.09600000083446503, -0.01600000075995922, 1.055999994277954, 0.0, 0.0, 0.0, 0.0, 0.0, 1.6206509700271678E9, 2021-05-10 14:49:30.027
13.0, -51.41801452636719, 128.39450073242188, 145.73829650878906, 5.918391704559326, -0.09600000083446503, -0.01600000075995922, 1.055999994277954, 0.0, 0.0, 0.0, 0.0, 0.0, 1.620650970039461E9, 2021-05-10 14:49:30.039
13.0, -51.455413818359375, 107.08455657958984, 119.80208587646484, -30.253921508789062, -0.09600000083446503, -0.01600000075995922, 1.055999994277954, 0.0, 0.0, 0.0, 0.0, 0.0, 1.620650970039461E9, 2021-05-10 14:49:30.039
14.0, -61.044517517089844, 99.05499267578125, 121.241943359375, -18.34981918334961, -0.09600000083446503, -0.01600000075995922, 1.055999994277954, 0.0, 0.0, 0.0, 0.0, 0.0, 1.6206509700550244E9, 2021-05-10 14:49:30.055
14.0, -79.35506439208984, 102.7387924194336, 136.08935546875, -1.4080723524093628, -0.09600000083446503, -0.01600000075995922, 1.055999994277954, 0.0, 0.0, 0.0, 0.0, 0.0, 1.6206509700550244E9, 2021-05-10 14:49:30.055
15.0, -59.23814392089844, 126.89854431152344, 150.4617919921875, 12.814766883850098, -0.09600000083446503, -0.01600000075995922, 1.055999994277954, 0.0, 0.0, 0.0, 0.0, 0.0, 1.6206509700557537E9, 2021-05-10 14:49:30.055
15.0, -83.57367706298828, 96.09298706054688, 124.22638702392578, -4.770242214202881, -0.09600000083446503, -0.01600000075995922, 1.055999994277954, 0.0, 0.0, 0.0, 0.0, 0.0, 1.6206509700557537E9, 2021-05-10 14:49:30.055
16.0, -81.53916931152344, 91.0403823852539, 112.64765930175781, -21.248241424560547, -0.09600000083446503, -0.01600000075995922, 1.055999994277954, 0.0, 0.0, 0.0, 0.0, 0.0, 1.6206509700855017E9, 2021-05-10 14:49:30.085
16.0, -57.080223083496094, 124.20955657958984, 151.6398468017578, 8.416645050048828, -0.09600000083446503, -0.01600000075995922, 1.055999994277954, 0.0, 0.0, 0.0, 0.0, 0.0, 1.6206509700855017E9, 2021-05-10 14:49:30.085
17.0, -59.87018966674805, 130.12608337402344, 160.52210998535156, 8.476483345031738, -0.09600000083446503, -0.01600000075995922, 1.055999994277954, 0.0, 0.0, 0.0, 0.0, 0.0, 1.6206509700861878E9, 2021-05-10 14:49:30.086
17.0, -62.0094108581543, 115.51802825927734, 132.06521606445312, -9.317960739135742, -0.09600000083446503, -0.01600000075995922, 1.055999994277954, 0.0, 0.0, 0.0, 0.0, 0.0, 1.6206509700861878E9, 2021-05-10 14:49:30.086
18.0, -73.90603637695312, 102.7200927734375, 116.24543762207031, -27.228342056274414, -0.09600000083446503, -0.01600000075995922, 1.055999994277954, 0.0, 0.0, 0.0, 0.0, 0.0, 1.6206509701000123E9, 2021-05-10 14:49:30.100
18.0, -62.48064041137695, 101.38868713378906, 147.43994140625, -15.021307945251465, -0.09600000083446503, -0.01600000075995922, 1.055999994277954, 0.0, 0.0, 0.0, 0.0, 0.0, 1.6206509701000123E9, 2021-05-10 14:49:30.100
19.0, -78.69310760498047, 113.86125183105469, 149.71380615234375, -19.524147033691406, -0.09600000083446503, -0.01600000075995922, 1.055999994277954, 0.0, 0.0, 0.0, 0.0, 0.0, 1.620650970100701E9, 2021-05-10 14:49:30.100
19.0, -93.31237030029297, 128.52540588378906, 119.85818481445312, -37.3485107421875, -0.09600000083446503, -0.01600000075995922, 1.055999994277954, 0.0, 0.0, 0.0, 0.0, 0.0, 1.620650970100701E9, 2021-05-10 14:49:30.100
20.0, -86.1878662109375, 112.2568359375, 117.31504821777344, -28.230634689331055, -0.09600000083446503, -0.01600000075995922, 1.055999994277954, 0.0, 0.0, 0.0, 0.0, 0.0, 1.6206509701150432E9, 2021-05-10 14:49:30.115
20.0, -56.97550582885742, 132.37376403808594, 152.26068115234375, -0.1140669509768486, -0.09600000083446503, -0.01600000075995922, 1.055999994277954, 0.0, 0.0, 0.0, 0.0, 0.0, 1.6206509701150432E9, 2021-05-10 14:49:30.115
21.0, -66.46363067626953, 98.82685852050781, 136.27635192871094, -22.36273193359375, -0.09600000083446503, 0.0, 1.055999994277954, 0.0, 0.0, 0.0, 0.0, 0.0, 1.620650970115763E9, 2021-05-10 14:49:30.115
21.0, -73.083251953125, 94.7728042602539, 117.11683654785156, -23.073312759399414, -0.09600000083446503, 0.0, 1.055999994277954, 0.0, 0.0, 0.0, 0.0, 0.0, 1.620650970115763E9, 2021-05-10 14:49:30.115
22.0, -65.37158203125, 105.44274139404297, 115.26932525634766, -15.092366218566895, -0.09600000083446503, 0.0, 1.055999994277954, 0.0, 0.0, 0.0, 0.0, 0.0, 1.620650970129365E9, 2021-05-10 14:49:30.129
22.0, -56.01435089111328, 112.64579010009766, 122.86132049560547, -0.7984686493873596, -0.09600000083446503, 0.0, 1.055999994277954, 0.0, 0.0, 0.0, 0.0, 0.0, 1.620650970129365E9, 2021-05-10 14:49:30.129
23.0, -54.43611526489258, 113.8238525390625, 133.81922912597656, -7.0141825675964355, -0.09600000083446503, 0.0, 1.055999994277954, 0.0, 0.0, 0.0, 0.0, 0.0, 1.6206509701451583E9, 2021-05-10 14:49:30.145
23.0, -68.4420394897461, 93.75929260253906, 114.61858367919922, -24.262601852416992, -0.09600000083446503, 0.0, 1.055999994277954, 0.0, 0.0, 0.0, 0.0, 0.0, 1.6206509701451583E9, 2021-05-10 14:49:30.145
24.0, -79.04839324951172, 109.63890838623047, 112.92066955566406, -13.55152702331543, -0.09600000083446503, 0.0, 1.055999994277954, 0.0, 0.0, 0.0, 0.0, 0.0, 1.620650970145789E9, 2021-05-10 14:49:30.145
24.0, -59.09602737426758, 122.855712890625, 139.79185485839844, 5.196590900421143, -0.09600000083446503, 0.0, 1.055999994277954, 0.0, 0.0, 0.0, 0.0, 0.0, 1.620650970145789E9, 2021-05-10 14:49:30.145
25.0, -62.98552322387695, 111.10121154785156, 143.8459014892578, 2.163532018661499, -0.09600000083446503, 0.0, 1.055999994277954, 0.0, 0.0, 0.0, 0.0, 0.0, 1.6206509701593277E9, 2021-05-10 14:49:30.159
25.0, -63.27349853515625, 95.39736938476562, 134.96737670898438, 0.5927741527557373, -0.09600000083446503, 0.0, 1.055999994277954, 0.0, 0.0, 0.0, 0.0, 0.0, 1.6206509701593277E9, 2021-05-10 14:49:30.159
26.0, -94.9841079711914, 99.29060363769531, 113.76962280273438, -18.577953338623047, -0.09600000083446503, 0.0, 1.055999994277954, 0.0, 0.0, 0.0, 0.0, 0.0, 1.6206509701750753E9, 2021-05-10 14:49:30.175
26.0, -67.67536163330078, 124.93509674072266, 134.11094665527344, -3.872666358947754, -0.09600000083446503, 0.0, 1.055999994277954, 0.0, 0.0, 0.0, 0.0, 0.0, 1.6206509701750753E9, 2021-05-10 14:49:30.175
27.0, -56.134029388427734, 122.14139556884766, 159.82275390625, 15.832866668701172, -0.09600000083446503, 0.0, 1.055999994277954, 0.0, 0.0, 0.0, 0.0, 0.0, 1.6206509701758013E9, 2021-05-10 14:49:30.175
27.0, -66.00362396240234, 105.12858581542969, 128.80776977539062, -14.70341682434082, -0.09600000083446503, 0.0, 1.055999994277954, 0.0, 0.0, 0.0, 0.0, 0.0, 1.6206509701758013E9, 2021-05-10 14:49:30.175
28.0, -73.94717407226562, 96.0368881225586, 117.54692840576172, -11.505802154541016, -0.09600000083446503, 0.0, 1.055999994277954, 0.0, 0.0, 0.0, 0.0, 0.0, 1.620650970189494E9, 2021-05-10 14:49:30.189
28.0, -54.54457092285156, 125.20063018798828, 139.62728881835938, -11.019615173339844, -0.09600000083446503, 0.0, 1.055999994277954, 0.0, 0.0, 0.0, 0.0, 0.0, 1.620650970189494E9, 2021-05-10 14:49:30.189
29.0, -75.60395050048828, 124.3217544555664, 132.29335021972656, -17.067033767700195, -0.09600000083446503, 0.0, 1.055999994277954, 0.0, 0.0, 0.0, 0.0, 0.0, 1.6206509702050433E9, 2021-05-10 14:49:30.205
29.0, -70.89167022705078, 119.94232940673828, 131.44813537597656, -17.38118553161621, -0.09600000083446503, 0.0, 1.055999994277954, 0.0, 0.0, 0.0, 0.0, 0.0, 1.6206509702050433E9, 2021-05-10 14:49:30.205
30.0, -68.21390533447266, 102.12171173095703, 115.66575622558594, -33.87788391113281, -0.09600000083446503, 0.0, 1.055999994277954, 0.0, 0.0, 0.0, 0.0, 0.0, 1.6206509702057796E9, 2021-05-10 14:49:30.205
30.0, -67.92593383789062, 103.78970336914062, 135.76771545410156, -9.46381664276123, -0.09600000083446503, 0.0, 1.055999994277954, 0.0, 0.0, 0.0, 0.0, 0.0, 1.6206509702057796E9, 2021-05-10 14:49:30.205
31.0, -69.35457611083984, 138.1930389404297, 134.67567443847656, -7.956637382507324, -0.09600000083446503, 0.0, 1.055999994277954, 0.0, 0.0, 0.0, 0.0, 0.0, 1.620650970219341E9, 2021-05-10 14:49:30.219
31.0, -79.87491607666016, 105.90274810791016, 119.17378234863281, -14.83431339263916, -0.09600000083446503, 0.0, 1.055999994277954, 0.0, 0.0, 0.0, 0.0, 0.0, 1.620650970219341E9, 2021-05-10 14:49:30.219
32.0, -69.33961486816406, 107.40618896484375, 123.98329162597656, -10.110819816589355, -0.08000000566244125, 0.0, 1.055999994277954, 0.0, 0.0, 0.0, 0.0, 0.0, 1.6206509702352273E9, 2021-05-10 14:49:30.235
32.0, -66.41875457763672, 91.57518768310547, 138.43800354003906, 7.029141902923584, -0.08000000566244125, 0.0, 1.055999994277954, 0.0, 0.0, 0.0, 0.0, 0.0, 1.6206509702352273E9, 2021-05-10 14:49:30.235
33.0, -55.460845947265625, 102.2750473022461, 143.86460876464844, 2.4402847290039062, -0.08000000566244125, 0.0, 1.055999994277954, 0.0, 0.0, 0.0, 0.0, 0.0, 1.6206509702358544E9, 2021-05-10 14:49:30.235
33.0, -77.6795883178711, 101.32137298583984, 123.7663803100586, -2.926471710205078, -0.08000000566244125, 0.0, 1.055999994277954, 0.0, 0.0, 0.0, 0.0, 0.0, 1.6206509702358544E9, 2021-05-10 14:49:30.235
34.0, -81.6700668334961, 107.84749603271484, 113.09270477294922, -13.17753791809082, -0.08000000566244125, 0.0, 1.055999994277954, 0.0, 0.0, 0.0, 0.0, 0.0, 1.6206509702493155E9, 2021-05-10 14:49:30.249
34.0, -51.795745849609375, 126.96212005615234, 144.4368133544922, 19.76350212097168, -0.08000000566244125, 0.0, 1.055999994277954, 0.0, 0.0, 0.0, 0.0, 0.0, 1.6206509702493155E9, 2021-05-10 14:49:30.249
35.0, -61.36988830566406, 117.33187866210938, 136.98692321777344, 19.916837692260742, -0.08000000566244125, 0.0, 1.055999994277954, 0.0, 0.0, 0.0, 0.0, 0.0, 1.6206509702650695E9, 2021-05-10 14:49:30.265
35.0, -75.25613403320312, 95.86485290527344, 130.6515350341797, -20.8630313873291, -0.08000000566244125, 0.0, 1.055999994277954, 0.0, 0.0, 0.0, 0.0, 0.0, 1.6206509702650695E9, 2021-05-10 14:49:30.265
36.0, -81.46063232421875, 107.84001159667969, 122.6631088256836, -20.545141220092773, -0.08000000566244125, 0.0, 1.055999994277954, 0.0, 0.0, 0.0, 0.0, 0.0, 1.6206509702657769E9, 2021-05-10 14:49:30.265
36.0, -60.337677001953125, 118.21075439453125, 147.63067626953125, -0.28984224796295166, -0.08000000566244125, 0.0, 1.055999994277954, 0.0, 0.0, 0.0, 0.0, 0.0, 1.6206509702657769E9, 2021-05-10 14:49:30.265
37.0, -63.49789047241211, 117.88538360595703, 148.87232971191406, -4.007302761077881, -0.08000000566244125, 0.0, 1.055999994277954, 0.0, 0.0, 0.0, 0.0, 0.0, 1.6206509702793949E9, 2021-05-10 14:49:30.279
37.0, -86.74510955810547, 98.02278137207031, 126.72463989257812, -17.758914947509766, -0.08000000566244125, 0.0, 1.055999994277954, 0.0, 0.0, 0.0, 0.0, 0.0, 1.6206509702793949E9, 2021-05-10 14:49:30.279
38.0, -64.24213409423828, 100.89501953125, 124.86591339111328, -23.342586517333984, -0.08000000566244125, 0.0, 1.055999994277954, 0.0, 0.0, 0.0, 0.0, 0.0, 1.6206509702950797E9, 2021-05-10 14:49:30.295
38.0, -52.592342376708984, 137.11968994140625, 147.89620971679688, -11.95458984375, -0.08000000566244125, 0.0, 1.055999994277954, 0.0, 0.0, 0.0, 0.0, 0.0, 1.6206509702950797E9, 2021-05-10 14:49:30.295
39.0, -71.9388427734375, 111.26202392578125, 130.7786865234375, -25.68376350402832, -0.08000000566244125, 0.0, 1.055999994277954, 0.0, 0.0, 0.0, 0.0, 0.0, 1.620650970295792E9, 2021-05-10 14:49:30.295
39.0, -73.07203674316406, 108.3411636352539, 133.76687622070312, -0.8470873236656189, -0.08000000566244125, 0.0, 1.055999994277954, 0.0, 0.0, 0.0, 0.0, 0.0, 1.620650970295792E9, 2021-05-10 14:49:30.295
40.0, -81.72242736816406, 89.35742950439453, 107.04154968261719, -44.18878936767578, -0.08000000566244125, 0.0, 1.055999994277954, 0.0, 0.0, 0.0, 0.0, 0.0, 1.6206509703093514E9, 2021-05-10 14:49:30.309
40.0, -59.466278076171875, 125.2043685913086, 133.22084045410156, -10.062200546264648, -0.08000000566244125, 0.0, 1.055999994277954, 0.0, 0.0, 0.0, 0.0, 0.0, 1.6206509703093514E9, 2021-05-10 14:49:30.309
41.0, -65.82411193847656, 124.43395233154297, 132.05026245117188, -8.801854133605957, -0.08000000566244125, 0.0, 1.055999994277954, 0.0, 0.0, 0.0, 0.0, 0.0, 1.6206509703250551E9, 2021-05-10 14:49:30.325
41.0, -74.47449493408203, 94.89996337890625, 107.62496948242188, -32.01541519165039, -0.08000000566244125, 0.0, 1.055999994277954, 0.0, 0.0, 0.0, 0.0, 0.0, 1.6206509703250551E9, 2021-05-10 14:49:30.325
42.0, -68.89456939697266, 106.29917907714844, 115.02622985839844, -17.16053009033203, -0.09600000083446503, 0.0, 1.055999994277954, 0.0, 0.0, 0.0, 0.0, 0.0, 1.620650970325807E9, 2021-05-10 14:49:30.325
42.0, -66.5346908569336, 127.23513793945312, 134.49615478515625, 3.270542621612549, -0.09600000083446503, 0.0, 1.055999994277954, 0.0, 0.0, 0.0, 0.0, 0.0, 1.620650970325807E9, 2021-05-10 14:49:30.325
43.0, -58.669681549072266, 114.15296936035156, 139.0999755859375, -2.5076029300689697, -0.09600000083446503, 0.0, 1.055999994277954, 0.0, 0.0, 0.0, 0.0, 0.0, 1.6206509703556857E9, 2021-05-10 14:49:30.355
43.0, -73.76017761230469, 90.92070770263672, 111.99691772460938, -23.286487579345703, -0.09600000083446503, 0.0, 1.055999994277954, 0.0, 0.0, 0.0, 0.0, 0.0, 1.6206509703556857E9, 2021-05-10 14:49:30.355
44.0, -64.33563232421875, 113.7415771484375, 123.6878433227539, -2.627279758453369, -0.09600000083446503, 0.0, 1.055999994277954, 0.0, 0.0, 0.0, 0.0, 0.0, 1.6206509703564308E9, 2021-05-10 14:49:30.356
44.0, -67.24153137207031, 113.95475006103516, 127.6633529663086, -7.597606658935547, -0.09600000083446503, 0.0, 1.055999994277954, 0.0, 0.0, 0.0, 0.0, 0.0, 1.6206509703564308E9, 2021-05-10 14:49:30.356
45.0, -46.91517639160156, 121.94317626953125, 147.9149169921875, 3.902585506439209, -0.09600000083446503, 0.0, 1.055999994277954, 0.0, 0.0, 0.0, 0.0, 0.0, 1.6206509703571572E9, 2021-05-10 14:49:30.357
45.0, -67.27519226074219, 101.82999420166016, 121.66455841064453, -16.042301177978516, -0.09600000083446503, 0.0, 1.055999994277954, 0.0, 0.0, 0.0, 0.0, 0.0, 1.6206509703571572E9, 2021-05-10 14:49:30.357
46.0, -75.96672058105469, 116.8943099975586, 118.5903549194336, -19.277315139770508, -0.09600000083446503, 0.0, 1.055999994277954, 0.0, 0.0, 0.0, 0.0, 0.0, 1.6206509703694005E9, 2021-05-10 14:49:30.369
46.0, -66.84883880615234, 128.68995666503906, 131.3808135986328, -6.673851490020752, -0.09600000083446503, 0.0, 1.055999994277954, 0.0, 0.0, 0.0, 0.0, 0.0, 1.6206509703694005E9, 2021-05-10 14:49:30.369
47.0, -66.29907989501953, 117.78814697265625, 143.5467071533203, 1.9952366352081299, -0.09600000083446503, 0.0, 1.055999994277954, 0.0, 0.0, 0.0, 0.0, 0.0, 1.620650970385008E9, 2021-05-10 14:49:30.385
47.0, -55.40100860595703, 113.9809341430664, 133.31808471679688, -14.037714958190918, -0.09600000083446503, 0.0, 1.055999994277954, 0.0, 0.0, 0.0, 0.0, 0.0, 1.620650970385008E9, 2021-05-10 14:49:30.385
48.0, -78.81652069091797, 87.83902740478516, 111.71642303466797, -24.543092727661133, -0.09600000083446503, 0.0, 1.055999994277954, 0.0, 0.0, 0.0, 0.0, 0.0, 1.6206509703857589E9, 2021-05-10 14:49:30.385
48.0, -63.041622161865234, 114.35118103027344, 140.3154296875, -1.9503577947616577, -0.09600000083446503, 0.0, 1.055999994277954, 0.0, 0.0, 0.0, 0.0, 0.0, 1.6206509703857589E9, 2021-05-10 14:49:30.385
49.0, -63.565208435058594, 128.44686889648438, 139.21217346191406, -2.7132973670959473, -0.09600000083446503, 0.0, 1.055999994277954, 0.0, 0.0, 0.0, 0.0, 0.0, 1.6206509703994007E9, 2021-05-10 14:49:30.399
49.0, -64.53384399414062, 94.91866302490234, 118.71377563476562, -15.436436653137207, -0.09600000083446503, 0.0, 1.055999994277954, 0.0, 0.0, 0.0, 0.0, 0.0, 1.6206509703994007E9, 2021-05-10 14:49:30.399
50.0, -67.53697967529297, 94.92613983154297, 111.08063507080078, -20.451642990112305, -0.09600000083446503, 0.0, 1.055999994277954, 0.0, 0.0, 0.0, 0.0, 0.0, 1.6206509704150193E9, 2021-05-10 14:49:30.415
50.0, -65.23694610595703, 123.57003784179688, 130.64779663085938, -4.463570594787598, -0.09600000083446503, 0.0, 1.055999994277954, 0.0, 0.0, 0.0, 0.0, 0.0, 1.6206509704150193E9, 2021-05-10 14:49:30.415
51.0, -53.14210891723633, 125.38014221191406, 136.22772216796875, -8.39046573638916, -0.09600000083446503, 0.0, 1.055999994277954, 0.0, 0.0, 0.0, 0.0, 0.0, 1.62065097041577E9, 2021-05-10 14:49:30.415
51.0, -81.09037780761719, 102.11048889160156, 122.77904510498047, -8.839253425598145, -0.09600000083446503, 0.0, 1.055999994277954, 0.0, 0.0, 0.0, 0.0, 0.0, 1.62065097041577E9, 2021-05-10 14:49:30.415
52.0, -72.79901885986328, 89.69402313232422, 113.18246459960938, -25.829618453979492, -0.09600000083446503, 0.0, 1.055999994277954, 0.0, 0.0, 0.0, 0.0, 0.0, 1.620650970429364E9, 2021-05-10 14:49:30.429
52.0, -78.22935485839844, 131.14332580566406, 133.72947692871094, -3.932504892349243, -0.09600000083446503, 0.0, 1.055999994277954, 0.0, 0.0, 0.0, 0.0, 0.0, 1.620650970429364E9, 2021-05-10 14:49:30.429
53.0, -71.10485076904297, 137.72555541992188, 137.12904357910156, -0.6862716674804688, -0.09600000083446503, 0.0, 1.055999994277954, 0.0, 0.0, 0.0, 0.0, 0.0, 1.620650970461491E9, 2021-05-10 14:49:30.461
53.0, -57.360713958740234, 117.86668395996094, 118.36222076416016, -17.209150314331055, -0.09600000083446503, 0.0, 1.055999994277954, 0.0, 0.0, 0.0, 0.0, 0.0, 1.620650970461491E9, 2021-05-10 14:49:30.461
54.0, -85.81013488769531, 111.40039825439453, 108.49636840820312, -23.02843475341797, -0.09600000083446503, 0.0, 1.055999994277954, 0.0, 0.0, 0.0, 0.0, 0.0, 1.6206509704621253E9, 2021-05-10 14:49:30.462
54.0, -65.52491760253906, 131.6856231689453, 145.9925994873047, 0.12154674530029297, -0.09600000083446503, 0.0, 1.055999994277954, 0.0, 0.0, 0.0, 0.0, 0.0, 1.6206509704621253E9, 2021-05-10 14:49:30.462
55.0, -52.29689025878906, 129.27337646484375, 144.20492553710938, -11.232789993286133, -0.09600000083446503, 0.0, 1.055999994277954, 0.0, 0.0, 0.0, 0.0, 0.0, 1.6206509704628816E9, 2021-05-10 14:49:30.462
55.0, -43.36227035522461, 114.62419128417969, 139.4029083251953, -4.4299116134643555, -0.09600000083446503, 0.0, 1.055999994277954, 0.0, 0.0, 0.0, 0.0, 0.0, 1.6206509704628816E9, 2021-05-10 14:49:30.462
56.0, -78.36773681640625, 124.44891357421875, 128.6207733154297, -8.12867259979248, -0.09600000083446503, 0.0, 1.055999994277954, 0.0, 0.0, 0.0, 0.0, 0.0, 1.6206509704636796E9, 2021-05-10 14:49:30.463
56.0, -71.62095642089844, 120.09192657470703, 149.8260040283203, 10.675544738769531, -0.09600000083446503, 0.0, 1.055999994277954, 0.0, 0.0, 0.0, 0.0, 0.0, 1.6206509704636796E9, 2021-05-10 14:49:30.463
57.0, -65.96248626708984, 131.64822387695312, 154.77015686035156, 9.71438980102539, -0.09600000083446503, 0.0, 1.055999994277954, 0.0, 0.0, 0.0, 0.0, 0.0, 1.6206509704743533E9, 2021-05-10 14:49:30.474
57.0, -72.2193374633789, 111.54251861572266, 127.29684448242188, -0.8844863176345825, -0.09600000083446503, 0.0, 1.055999994277954, 0.0, 0.0, 0.0, 0.0, 0.0, 1.6206509704743533E9, 2021-05-10 14:49:30.474
58.0, -93.23383331298828, 103.30352020263672, 114.11743927001953, -46.197113037109375, -0.09600000083446503, 0.0, 1.055999994277954, 0.0, 0.0, 0.0, 0.0, 0.0, 1.6206509704893115E9, 2021-05-10 14:49:30.489
58.0, -50.15766906738281, 140.95309448242188, 155.47698974609375, -10.791481018066406, -0.09600000083446503, 0.0, 1.055999994277954, 0.0, 0.0, 0.0, 0.0, 0.0, 1.6206509704893115E9, 2021-05-10 14:49:30.489
59.0, -71.74810791015625, 141.85440063476562, 148.27394104003906, -0.8209080696105957, -0.09600000083446503, 0.0, 1.055999994277954, 0.0, 0.0, 0.0, 0.0, 0.0, 1.6206509705204604E9, 2021-05-10 14:49:30.520
59.0, -93.26749420166016, 113.54710388183594, 113.4891357421875, -37.946895599365234, -0.09600000083446503, 0.0, 1.055999994277954, 0.0, 0.0, 0.0, 0.0, 0.0, 1.6206509705204604E9, 2021-05-10 14:49:30.520
60.0, -83.7232666015625, 118.92507934570312, 111.75008392333984, -34.10975646972656, -0.09600000083446503, 0.0, 1.055999994277954, 0.0, 0.0, 0.0, 0.0, 0.0, 1.6206509705364575E9, 2021-05-10 14:49:30.536
60.0, -61.68404006958008, 138.35386657714844, 138.05653381347656, -11.4646635055542, -0.09600000083446503, 0.0, 1.055999994277954, 0.0, 0.0, 0.0, 0.0, 0.0, 1.6206509705364575E9, 2021-05-10 14:49:30.536
61.0, -50.827110290527344, 130.06997680664062, 149.96063232421875, 1.5539283752441406, -0.09600000083446503, 0.0, 1.055999994277954, 0.0, 0.0, 0.0, 0.0, 0.0, 1.620650970537156E9, 2021-05-10 14:49:30.537
61.0, -73.34130859375, 126.9097671508789, 118.1303482055664, -28.690643310546875, -0.09600000083446503, 0.0, 1.055999994277954, 0.0, 0.0, 0.0, 0.0, 0.0, 1.620650970537156E9, 2021-05-10 14:49:30.537
62.0, -77.4140625, 145.58682250976562, 114.45402526855469, -33.97886276245117, -0.08000000566244125, 0.0, 1.055999994277954, 0.0, 0.0, 0.0, 0.0, 0.0, 1.6206509705379515E9, 2021-05-10 14:49:30.537
62.0, -66.46736907958984, 168.55355834960938, 140.9175567626953, 1.7633628845214844, -0.08000000566244125, 0.0, 1.055999994277954, 0.0, 0.0, 0.0, 0.0, 0.0, 1.6206509705379515E9, 2021-05-10 14:49:30.537
63.0, -70.08011627197266, 151.45472717285156, 136.59423828125, -10.668065071105957, -0.08000000566244125, 0.0, 1.055999994277954, 0.0, 0.0, 0.0, 0.0, 0.0, 1.620650970538691E9, 2021-05-10 14:49:30.538
63.0, -68.52057647705078, 136.90652465820312, 120.08631896972656, -27.471435546875, -0.08000000566244125, 0.0, 1.055999994277954, 0.0, 0.0, 0.0, 0.0, 0.0, 1.620650970538691E9, 2021-05-10 14:49:30.538
64.0, -82.83317565917969, 128.66751098632812, 115.9200668334961, -21.629711151123047, -0.08000000566244125, 0.0, 1.055999994277954, 0.0, 0.0, 0.0, 0.0, 0.0, 1.62065097054937E9, 2021-05-10 14:49:30.549
64.0, -68.25504302978516, 156.3876495361328, 138.56141662597656, 1.5240092277526855, -0.08000000566244125, 0.0, 1.055999994277954, 0.0, 0.0, 0.0, 0.0, 0.0, 1.62065097054937E9, 2021-05-10 14:49:30.549
65.0, -56.96054458618164, 178.92054748535156, 154.45973205566406, 6.793528079986572, -0.08000000566244125, 0.0, 1.055999994277954, 0.0, 0.0, 0.0, 0.0, 0.0, 1.6206509705650983E9, 2021-05-10 14:49:30.565
65.0, -86.08314514160156, 157.64425659179688, 121.27186584472656, -24.546833038330078, -0.08000000566244125, 0.0, 1.055999994277954, 0.0, 0.0, 0.0, 0.0, 0.0, 1.6206509705650983E9, 2021-05-10 14:49:30.565
66.0, -66.97599792480469, 156.0398406982422, 124.73875427246094, -15.399038314819336, -0.08000000566244125, 0.0, 1.055999994277954, 0.0, 0.0, 0.0, 0.0, 0.0, 1.6206509705657332E9, 2021-05-10 14:49:30.565
66.0, -66.9385986328125, 167.2408447265625, 137.21131896972656, -8.895352363586426, -0.08000000566244125, 0.0, 1.055999994277954, 0.0, 0.0, 0.0, 0.0, 0.0, 1.6206509705657332E9, 2021-05-10 14:49:30.565
67.0, -67.32380676269531, 184.85577392578125, 147.4100341796875, -11.034574508666992, -0.08000000566244125, 0.0, 1.055999994277954, 0.0, 0.0, 0.0, 0.0, 0.0, 1.6206509705793746E9, 2021-05-10 14:49:30.579
67.0, -65.6520767211914, 140.1602325439453, 143.22508239746094, -5.6304192543029785, -0.08000000566244125, 0.0, 1.055999994277954, 0.0, 0.0, 0.0, 0.0, 0.0, 1.6206509705793746E9, 2021-05-10 14:49:30.579
68.0, -77.75813293457031, 157.5657196044922, 126.27584838867188, -19.011781692504883, -0.08000000566244125, 0.0, 1.055999994277954, 0.0, 0.0, 0.0, 0.0, 0.0, 1.620650970612134E9, 2021-05-10 14:49:30.612
68.0, -73.99578857421875, 152.43458557128906, 129.74273681640625, -19.778461456298828, -0.08000000566244125, 0.0, 1.055999994277954, 0.0, 0.0, 0.0, 0.0, 0.0, 1.620650970612134E9, 2021-05-10 14:49:30.612
69.0, -44.588958740234375, 194.3625946044922, 160.29397583007812, 16.25173568725586, -0.08000000566244125, 0.0, 1.055999994277954, 0.0, 0.0, 0.0, 0.0, 0.0, 1.620650970612794E9, 2021-05-10 14:49:30.612
69.0, -87.54918670654297, 163.82257080078125, 127.41278076171875, -33.81430435180664, -0.08000000566244125, 0.0, 1.055999994277954, 0.0, 0.0, 0.0, 0.0, 0.0, 1.620650970612794E9, 2021-05-10 14:49:30.612
70.0, -98.38367462158203, 147.7410125732422, 107.59505462646484, -55.277591705322266, -0.08000000566244125, 0.0, 1.055999994277954, 0.0, 0.0, 0.0, 0.0, 0.0, 1.6206509706135397E9, 2021-05-10 14:49:30.613
70.0, -63.78212356567383, 162.6183319091797, 138.17994689941406, -17.37370491027832, -0.08000000566244125, 0.0, 1.055999994277954, 0.0, 0.0, 0.0, 0.0, 0.0, 1.6206509706135397E9, 2021-05-10 14:49:30.613
71.0, -68.13910675048828, 180.84286499023438, 136.4147186279297, -16.771581649780273, -0.08000000566244125, 0.0, 1.055999994277954, 0.0, 0.0, 0.0, 0.0, 0.0, 1.6206509706142828E9, 2021-05-10 14:49:30.614
71.0, -76.68852233886719, 134.68875122070312, 116.79520416259766, -27.97258186340332, -0.08000000566244125, 0.0, 1.055999994277954, 0.0, 0.0, 0.0, 0.0, 0.0, 1.6206509706142828E9, 2021-05-10 14:49:30.614
72.0, -72.50730895996094, 152.65524291992188, 119.6936264038086, -27.348018646240234, -0.08000000566244125, 0.0, 1.055999994277954, 0.0, 0.0, 0.0, 0.0, 0.0, 1.620650970624342E9, 2021-05-10 14:49:30.624
72.0, -65.74557495117188, 173.87916564941406, 139.61233520507812, -9.34414005279541, -0.08000000566244125, 0.0, 1.055999994277954, 0.0, 0.0, 0.0, 0.0, 0.0, 1.620650970624342E9, 2021-05-10 14:49:30.624
73.0, -51.58256912231445, 182.06581115722656, 147.193115234375, -2.3879261016845703, -0.08000000566244125, 0.0, 1.055999994277954, 0.0, 0.0, 0.0, 0.0, 0.0, 1.6206509706393723E9, 2021-05-10 14:49:30.639
73.0, -73.49838256835938, 123.00904846191406, 119.49915313720703, -26.308326721191406, -0.08000000566244125, 0.0, 1.055999994277954, 0.0, 0.0, 0.0, 0.0, 0.0, 1.6206509706393723E9, 2021-05-10 14:49:30.639
74.0, -58.08625793457031, 110.42054748535156, 122.65937042236328, -26.547679901123047, -0.08000000566244125, 0.0, 1.055999994277954, 0.0, 0.0, 0.0, 0.0, 0.0, 1.620650970671389E9, 2021-05-10 14:49:30.671
74.0, -81.2100601196289, 140.4070587158203, 131.30601501464844, -9.860246658325195, -0.08000000566244125, 0.0, 1.055999994277954, 0.0, 0.0, 0.0, 0.0, 0.0, 1.620650970671389E9, 2021-05-10 14:49:30.671
75.0, -67.9595947265625, 135.9229278564453, 142.0956268310547, 11.094412803649902, -0.08000000566244125, 0.0, 1.055999994277954, 0.0, 0.0, 0.0, 0.0, 0.0, 1.6206509706721284E9, 2021-05-10 14:49:30.672
75.0, -79.54954528808594, 97.35333251953125, 127.94384765625, -20.21603012084961, -0.08000000566244125, 0.0, 1.055999994277954, 0.0, 0.0, 0.0, 0.0, 0.0, 1.6206509706721284E9, 2021-05-10 14:49:30.672
76.0, -65.3491439819336, 124.06744384765625, 135.91357421875, -9.21324348449707, -0.08000000566244125, 0.0, 1.055999994277954, 0.0, 0.0, 0.0, 0.0, 0.0, 1.620650970672898E9, 2021-05-10 14:49:30.672
76.0, -64.50018310546875, 135.34698486328125, 141.33642578125, -7.317114353179932, -0.08000000566244125, 0.0, 1.055999994277954, 0.0, 0.0, 0.0, 0.0, 0.0, 1.620650970672898E9, 2021-05-10 14:49:30.672
77.0, -54.17058181762695, 148.78070068359375, 153.86883544921875, -1.7671027183532715, -0.08000000566244125, 0.0, 1.055999994277954, 0.0, 0.0, 0.0, 0.0, 0.0, 1.620650970673623E9, 2021-05-10 14:49:30.673
77.0, -91.69300079345703, 104.61996459960938, 112.70001220703125, -28.660722732543945, -0.08000000566244125, 0.0, 1.055999994277954, 0.0, 0.0, 0.0, 0.0, 0.0, 1.620650970673623E9, 2021-05-10 14:49:30.673
78.0, -79.39620971679688, 114.75135040283203, 115.0374526977539, -25.077899932861328, -0.08000000566244125, 0.0, 1.055999994277954, 0.0, 0.0, 0.0, 0.0, 0.0, 1.6206509706843753E9, 2021-05-10 14:49:30.684
78.0, -55.39726638793945, 148.02149963378906, 140.39022827148438, -11.397345542907715, -0.08000000566244125, 0.0, 1.055999994277954, 0.0, 0.0, 0.0, 0.0, 0.0, 1.6206509706843753E9, 2021-05-10 14:49:30.684
79.0, -64.60490417480469, 107.58943939208984, 133.57614135742188, -9.875205993652344, -0.08000000566244125, 0.0, 1.055999994277954, 0.0, 0.0, 0.0, 0.0, 0.0, 1.6206509706993563E9, 2021-05-10 14:49:30.699
79.0, -80.03572845458984, 106.76666259765625, 120.04143524169922, -23.178030014038086, -0.08000000566244125, 0.0, 1.055999994277954, 0.0, 0.0, 0.0, 0.0, 0.0, 1.6206509706993563E9, 2021-05-10 14:49:30.699
80.0, -83.00147247314453, 102.19276428222656, 114.28947448730469, -12.560454368591309, -0.08000000566244125, 0.0, 1.055999994277954, 0.0, 0.0, 0.0, 0.0, 0.0, 1.6206509707156863E9, 2021-05-10 14:49:30.715
80.0, -58.34431076049805, 120.52201843261719, 132.24473571777344, -9.912605285644531, -0.08000000566244125, 0.0, 1.055999994277954, 0.0, 0.0, 0.0, 0.0, 0.0, 1.6206509707156863E9, 2021-05-10 14:49:30.715
81.0, -49.79115676879883, 112.44009399414062, 132.08016967773438, -6.868326187133789, -0.08000000566244125, 0.0, 1.055999994277954, 0.0, 0.0, 0.0, 0.0, 0.0, 1.620650970716448E9, 2021-05-10 14:49:30.716
81.0, -90.98241424560547, 101.52706146240234, 116.03226470947266, -18.15908432006836, -0.08000000566244125, 0.0, 1.055999994277954, 0.0, 0.0, 0.0, 0.0, 0.0, 1.620650970716448E9, 2021-05-10 14:49:30.716
82.0, -79.69913482666016, 106.0934829711914, 113.81824493408203, -31.323532104492188, -0.08000000566244125, 0.0, 1.055999994277954, 0.0, 0.0, 0.0, 0.0, 0.0, 1.6206509707293909E9, 2021-05-10 14:49:30.729
82.0, -57.742183685302734, 126.05332946777344, 133.2881622314453, -19.224956512451172, -0.08000000566244125, 0.0, 1.055999994277954, 0.0, 0.0, 0.0, 0.0, 0.0, 1.6206509707293909E9, 2021-05-10 14:49:30.729
83.0, -54.712867736816406, 121.6888656616211, 145.13243103027344, -0.734890341758728, -0.08000000566244125, 0.0, 1.055999994277954, 0.0, 0.0, 0.0, 0.0, 0.0, 1.6206509707451408E9, 2021-05-10 14:49:30.745
83.0, -69.82205963134766, 115.95559692382812, 124.16654968261719, -15.589773178100586, -0.08000000566244125, 0.0, 1.055999994277954, 0.0, 0.0, 0.0, 0.0, 0.0, 1.6206509707451408E9, 2021-05-10 14:49:30.745
84.0, -74.23888397216797, 106.83772277832031, 124.32362365722656, -3.3752596378326416, -0.08000000566244125, 0.0, 1.055999994277954, 0.0, 0.0, 0.0, 0.0, 0.0, 1.6206509707458036E9, 2021-05-10 14:49:30.745
84.0, -77.31681823730469, 94.13702392578125, 131.32098388671875, -3.41265869140625, -0.08000000566244125, 0.0, 1.055999994277954, 0.0, 0.0, 0.0, 0.0, 0.0, 1.6206509707458036E9, 2021-05-10 14:49:30.745
85.0, -50.94304656982422, 113.9809341430664, 158.48760986328125, 27.643470764160156, -0.08000000566244125, 0.0, 1.055999994277954, 0.0, 0.0, 0.0, 0.0, 0.0, 1.6206509707593665E9, 2021-05-10 14:49:30.759
85.0, -65.27434539794922, 98.52018737792969, 126.55634307861328, -8.192251205444336, -0.08000000566244125, 0.0, 1.055999994277954, 0.0, 0.0, 0.0, 0.0, 0.0, 1.6206509707593665E9, 2021-05-10 14:49:30.759
86.0, -88.60758209228516, 87.6071548461914, 116.43617248535156, -14.045194625854492, -0.08000000566244125, 0.0, 1.055999994277954, 0.0, 0.0, 0.0, 0.0, 0.0, 1.6206509707758193E9, 2021-05-10 14:49:30.775
86.0, -43.814796447753906, 94.91866302490234, 139.2196502685547, 8.857953071594238, -0.08000000566244125, 0.0, 1.055999994277954, 0.0, 0.0, 0.0, 0.0, 0.0, 1.6206509707758193E9, 2021-05-10 14:49:30.775
87.0, -84.13092041015625, 78.28358459472656, 132.80946350097656, 4.53088903427124, -0.08000000566244125, 0.0, 1.055999994277954, 0.0, 0.0, 0.0, 0.0, 0.0, 1.620650970776472E9, 2021-05-10 14:49:30.776
87.0, -83.92522430419922, 84.85832977294922, 114.48768615722656, -14.920331001281738, -0.08000000566244125, 0.0, 1.055999994277954, 0.0, 0.0, 0.0, 0.0, 0.0, 1.620650970776472E9, 2021-05-10 14:49:30.776
88.0, -60.670528411865234, 79.60002899169922, 108.16351318359375, -18.046886444091797, -0.08000000566244125, 0.0, 1.055999994277954, 0.0, 0.0, 0.0, 0.0, 0.0, 1.6206509707893543E9, 2021-05-10 14:49:30.789
88.0, -72.44373321533203, 127.69514465332031, 125.04916381835938, -5.802454948425293, -0.08000000566244125, 0.0, 1.055999994277954, 0.0, 0.0, 0.0, 0.0, 0.0, 1.6206509707893543E9, 2021-05-10 14:49:30.789
89.0, -63.486671447753906, 115.1627426147461, 129.9783477783203, -16.15823745727539, -0.08000000566244125, 0.0, 1.055999994277954, 0.0, 0.0, 0.0, 0.0, 0.0, 1.620650970805189E9, 2021-05-10 14:49:30.805
89.0, -84.8452377319336, 95.1916732788086, 101.36811828613281, -40.57978439331055, -0.08000000566244125, 0.0, 1.055999994277954, 0.0, 0.0, 0.0, 0.0, 0.0, 1.620650970805189E9, 2021-05-10 14:49:30.805
90.0, -88.74221801757812, 96.60161590576172, 101.910400390625, -34.53610610961914, -0.08000000566244125, 0.0, 1.055999994277954, 0.0, 0.0, 0.0, 0.0, 0.0, 1.6206509708057826E9, 2021-05-10 14:49:30.805
90.0, -59.657012939453125, 89.8323974609375, 129.3425750732422, -15.589773178100586, -0.08000000566244125, 0.0, 1.055999994277954, 0.0, 0.0, 0.0, 0.0, 0.0, 1.6206509708057826E9, 2021-05-10 14:49:30.805
91.0, -62.74617004394531, 106.411376953125, 132.81320190429688, -4.396252632141113, -0.08000000566244125, 0.0, 1.055999994277954, 0.0, 0.0, 0.0, 0.0, 0.0, 1.620650970819347E9, 2021-05-10 14:49:30.819
91.0, -82.28340911865234, 81.8028335571289, 107.9727783203125, -7.496629238128662, -0.08000000566244125, 0.0, 1.055999994277954, 0.0, 0.0, 0.0, 0.0, 0.0, 1.620650970819347E9, 2021-05-10 14:49:30.819
92.0, -73.84245300292969, 75.8227310180664, 112.96554565429688, -17.186710357666016, -0.08000000566244125, 0.0, 1.055999994277954, 0.0, 0.0, 0.0, 0.0, 0.0, 1.620650970851612E9, 2021-05-10 14:49:30.851
92.0, -51.32451629638672, 111.61731719970703, 141.1157684326172, 9.837806701660156, -0.08000000566244125, 0.0, 1.055999994277954, 0.0, 0.0, 0.0, 0.0, 0.0, 1.620650970851612E9, 2021-05-10 14:49:30.851
93.0, -59.54855728149414, 99.86654663085938, 144.5602264404297, 10.200576782226562, -0.08000000566244125, 0.0, 1.055999994277954, 0.0, 0.0, 0.0, 0.0, 0.0, 1.6206509708522017E9, 2021-05-10 14:49:30.852
93.0, -83.65221405029297, 83.51944732666016, 115.4600601196289, -5.263909339904785, -0.08000000566244125, 0.0, 1.055999994277954, 0.0, 0.0, 0.0, 0.0, 0.0, 1.6206509708522017E9, 2021-05-10 14:49:30.852
94.0, -86.68153381347656, 94.709228515625, 107.90172576904297, -8.551280975341797, -0.08000000566244125, 0.0, 1.055999994277954, 0.0, 0.0, 0.0, 0.0, 0.0, 1.6206509708528872E9, 2021-05-10 14:49:30.852
94.0, -54.3912353515625, 109.92314147949219, 149.48193359375, 22.61704444885254, -0.08000000566244125, 0.0, 1.055999994277954, 0.0, 0.0, 0.0, 0.0, 0.0, 1.6206509708528872E9, 2021-05-10 14:49:30.852
95.0, -42.55819320678711, 110.88055419921875, 151.606201171875, 16.6556453704834, -0.08000000566244125, 0.0, 1.055999994277954, 0.0, 0.0, 0.0, 0.0, 0.0, 1.6206509708536415E9, 2021-05-10 14:49:30.853
95.0, -81.31103515625, 65.92695617675781, 113.94914245605469, -9.42641830444336, -0.08000000566244125, 0.0, 1.055999994277954, 0.0, 0.0, 0.0, 0.0, 0.0, 1.6206509708536415E9, 2021-05-10 14:49:30.853
96.0, -63.486671447753906, 54.46042251586914, 117.52074432373047, 7.661185264587402, -0.08000000566244125, 0.0, 1.055999994277954, 0.0, 0.0, 0.0, 0.0, 0.0, 1.620650970864333E9, 2021-05-10 14:49:30.864
96.0, -63.5352897644043, 122.08529663085938, 139.95266723632812, 24.060646057128906, -0.08000000566244125, 0.0, 1.055999994277954, 0.0, 0.0, 0.0, 0.0, 0.0, 1.620650970864333E9, 2021-05-10 14:49:30.864
97.0, -51.631187438964844, 87.53235626220703, 136.9308319091797, 3.274282455444336, -0.08000000566244125, 0.0, 1.055999994277954, 0.0, 0.0, 0.0, 0.0, 0.0, 1.6206509708793645E9, 2021-05-10 14:49:30.879
97.0, -76.78949737548828, 94.52223205566406, 109.76045227050781, -23.21916961669922, -0.08000000566244125, 0.0, 1.055999994277954, 0.0, 0.0, 0.0, 0.0, 0.0, 1.6206509708793645E9, 2021-05-10 14:49:30.879
98.0, -90.78046417236328, 74.03880310058594, 105.70640563964844, -21.21084213256836, -0.08000000566244125, 0.0, 1.055999994277954, 0.0, 0.0, 0.0, 0.0, 0.0, 1.620650970895004E9, 2021-05-10 14:49:30.895
98.0, -63.66244888305664, 118.54360961914062, 136.676513671875, 1.2622162103652954, -0.08000000566244125, 0.0, 1.055999994277954, 0.0, 0.0, 0.0, 0.0, 0.0, 1.620650970895004E9, 2021-05-10 14:49:30.895
99.0, -67.81373596191406, 93.31424713134766, 124.20021057128906, -0.6825317144393921, -0.08000000566244125, 0.0, 1.055999994277954, 0.0, 0.0, 0.0, 0.0, 0.0, 1.620650970895719E9, 2021-05-10 14:49:30.895
99.0, -65.38654327392578, 89.10685729980469, 115.21696472167969, -22.317853927612305, -0.08000000566244125, 0.0, 1.055999994277954, 0.0, 0.0, 0.0, 0.0, 0.0, 1.620650970895719E9, 2021-05-10 14:49:30.895
100.0, -78.56221008300781, 76.76519012451172, 102.73318481445312, -30.575551986694336, -0.08000000566244125, 0.0, 1.055999994277954, 0.0, 0.0, 0.0, 0.0, 0.0, 1.62065097092686E9, 2021-05-10 14:49:30.926
100.0, -48.055843353271484, 112.21195983886719, 129.07330322265625, -7.698584079742432, -0.08000000566244125, 0.0, 1.055999994277954, 0.0, 0.0, 0.0, 0.0, 0.0, 1.62065097092686E9, 2021-05-10 14:49:30.926
0.0, -66.71420288085938, 94.39320373535156, 116.24918365478516, -12.480046272277832, -0.08000000566244125, 0.0, 1.055999994277954, 0.0, 0.0, 0.0, 0.0, 0.0, 1.6206509709276059E9, 2021-05-10 14:49:30.927
1.0, -78.56221008300781, 93.1365966796875, 108.26449584960938, -12.56606388092041, -0.08000000566244125, 0.0, 1.055999994277954, 0.0, 0.0, 0.0, 0.0, 0.0, 1.6206509709283147E9, 2021-05-10 14:49:30.928
1.0, -66.2766342163086, 89.6397933959961, 106.31974792480469, -16.4555606842041, -0.08000000566244125, 0.0, 1.055999994277954, 0.0, 0.0, 0.0, 0.0, 0.0, 1.6206509709283147E9, 2021-05-10 14:49:30.928
2.0, -48.53081130981445, 99.12792205810547, 131.0404815673828, -1.8923894166946411, -0.08000000566244125, 0.0, 1.055999994277954, 0.0, 0.0, 0.0, 0.0, 0.0, 1.6206509709401193E9, 2021-05-10 14:49:30.940
2.0, -56.638916015625, 80.24142456054688, 129.6754150390625, 5.703347206115723, -0.08000000566244125, 0.0, 1.055999994277954, 0.0, 0.0, 0.0, 0.0, 0.0, 1.6206509709401193E9, 2021-05-10 14:49:30.940
3.0, -75.6899642944336, 78.03114318847656, 114.97013092041016, -8.904702186584473, -0.08000000566244125, 0.0, 1.055999994277954, 0.0, 0.0, 0.0, 0.0, 0.0, 1.6206509709408329E9, 2021-05-10 14:49:30.940
3.0, -68.84220886230469, 86.81243133544922, 114.9963150024414, -9.978053092956543, -0.08000000566244125, 0.0, 1.055999994277954, 0.0, 0.0, 0.0, 0.0, 0.0, 1.6206509709408329E9, 2021-05-10 14:49:30.940
4.0, -46.148494720458984, 99.87590026855469, 138.34825134277344, 13.06721019744873, -0.08000000566244125, 0.0, 1.055999994277954, 0.0, 0.0, 0.0, 0.0, 0.0, 1.6206509709544811E9, 2021-05-10 14:49:30.954
4.0, -44.9779052734375, 98.89230346679688, 145.0838165283203, 14.48463249206543, -0.08000000566244125, 0.0, 1.055999994277954, 0.0, 0.0, 0.0, 0.0, 0.0, 1.6206509709544811E9, 2021-05-10 14:49:30.954
5.0, -74.1640853881836, 74.38099670410156, 113.8930435180664, -24.436506271362305, -0.08000000566244125, 0.0, 1.055999994277954, 0.0, 0.0, 0.0, 0.0, 0.0, 1.6206509709701657E9, 2021-05-10 14:49:30.970
5.0, -78.03488159179688, 96.88397979736328, 115.2955093383789, -12.319230079650879, -0.08000000566244125, 0.0, 1.055999994277954, 0.0, 0.0, 0.0, 0.0, 0.0, 1.6206509709701657E9, 2021-05-10 14:49:30.970
6.0, -61.98697280883789, 104.28897857666016, 137.5179901123047, 4.536498546600342, -0.08000000566244125, 0.0, 1.055999994277954, 0.0, 0.0, 0.0, 0.0, 0.0, 1.6206509709709094E9, 2021-05-10 14:49:30.970
6.0, -55.24767303466797, 103.3727035522461, 146.3778076171875, 14.843663215637207, -0.08000000566244125, 0.0, 1.055999994277954, 0.0, 0.0, 0.0, 0.0, 0.0, 1.6206509709709094E9, 2021-05-10 14:49:30.970
7.0, -73.7826156616211, 96.21453857421875, 107.46041870117188, -36.4453239440918, -0.08000000566244125, 0.0, 1.055999994277954, 0.0, 0.0, 0.0, 0.0, 0.0, 1.6206509709845045E9, 2021-05-10 14:49:30.984
7.0, -81.19509887695312, 88.58888244628906, 108.75816345214844, -29.444232940673828, -0.08000000566244125, 0.0, 1.055999994277954, 0.0, 0.0, 0.0, 0.0, 0.0, 1.6206509709845045E9, 2021-05-10 14:49:30.984
8.0, -48.90106201171875, 100.59395599365234, 127.5848159790039, -11.86296272277832, -0.08000000566244125, 0.0, 1.055999994277954, 0.0, 0.0, 0.0, 0.0, 0.0, 1.6206509710001948E9, 2021-05-10 14:49:31.000
8.0, -49.31993103027344, 92.13056182861328, 145.0314483642578, 2.0307657718658447, -0.08000000566244125, 0.0, 1.055999994277954, 0.0, 0.0, 0.0, 0.0, 0.0, 1.6206509710001948E9, 2021-05-10 14:49:31.000
9.0, -70.33816528320312, 103.7354736328125, 111.09185791015625, -28.43071937561035, -0.08000000566244125, 0.0, 1.055999994277954, 0.0, 0.0, 0.0, 0.0, 0.0, 1.6206509710009103E9, 2021-05-10 14:49:31.000
9.0, -99.87216186523438, 99.26255798339844, 100.93428802490234, -20.487171173095703, -0.08000000566244125, 0.0, 1.055999994277954, 0.0, 0.0, 0.0, 0.0, 0.0, 1.6206509710009103E9, 2021-05-10 14:49:31.000
10.0, -59.31294250488281, 94.08279418945312, 125.54656982421875, -6.331650733947754, -0.08000000566244125, 0.0, 1.055999994277954, 0.0, 0.0, 0.0, 0.0, 0.0, 1.6206509710144813E9, 2021-05-10 14:49:31.014
10.0, -75.2262191772461, 91.95852661132812, 121.04747009277344, -7.6518354415893555, -0.08000000566244125, 0.0, 1.055999994277954, 0.0, 0.0, 0.0, 0.0, 0.0, 1.6206509710144813E9, 2021-05-10 14:49:31.014
11.0, -74.9307632446289, 96.5286865234375, 111.86975860595703, -9.1814546585083, -0.08000000566244125, 0.0, 1.055999994277954, 0.0, 0.0, 0.0, 0.0, 0.0, 1.6206509710300715E9, 2021-05-10 14:49:31.030
11.0, -66.97599792480469, 109.50240325927734, 112.96929168701172, 0.9274951815605164, -0.08000000566244125, 0.0, 1.055999994277954, 0.0, 0.0, 0.0, 0.0, 0.0, 1.6206509710300715E9, 2021-05-10 14:49:31.030
12.0, -62.29738235473633, 108.54498291015625, 137.75733947753906, 16.175067901611328, -0.09600000083446503, 0.0, 1.055999994277954, 0.0, 0.0, 0.0, 0.0, 0.0, 1.6206509710307727E9, 2021-05-10 14:49:31.030
12.0, -58.377967834472656, 106.02803039550781, 132.48782348632812, 7.3264641761779785, -0.09600000083446503, 0.0, 1.055999994277954, 0.0, 0.0, 0.0, 0.0, 0.0, 1.6206509710307727E9, 2021-05-10 14:49:31.030
13.0, -67.00965881347656, 85.54460144042969, 113.73596954345703, -5.983839988708496, -0.09600000083446503, 0.0, 1.055999994277954, 0.0, 0.0, 0.0, 0.0, 0.0, 1.6206509710446663E9, 2021-05-10 14:49:31.044
13.0, -77.2195816040039, 89.47897338867188, 105.08931732177734, -2.206541061401367, -0.09600000083446503, 0.0, 1.055999994277954, 0.0, 0.0, 0.0, 0.0, 0.0, 1.6206509710446663E9, 2021-05-10 14:49:31.044
14.0, -75.9106216430664, 94.5988998413086, 121.64959716796875, 7.636875629425049, -0.09600000083446503, 0.0, 1.055999994277954, 0.0, 0.0, 0.0, 0.0, 0.0, 1.6206509710602791E9, 2021-05-10 14:49:31.060
14.0, -54.772705078125, 94.58393859863281, 130.2364044189453, 7.289064884185791, -0.09600000083446503, 0.0, 1.055999994277954, 0.0, 0.0, 0.0, 0.0, 0.0, 1.6206509710602791E9, 2021-05-10 14:49:31.060
15.0, -60.87248229980469, 88.65245819091797, 112.67383575439453, -3.560384750366211, -0.09600000083446503, 0.0, 1.055999994277954, 0.0, 0.0, 0.0, 0.0, 0.0, 1.6206509710608628E9, 2021-05-10 14:49:31.060
15.0, -76.52770233154297, 94.5802001953125, 99.8160629272461, -19.907487869262695, -0.09600000083446503, 0.0, 1.055999994277954, 0.0, 0.0, 0.0, 0.0, 0.0, 1.6206509710608628E9, 2021-05-10 14:49:31.060
16.0, -55.28133010864258, 101.85804748535156, 124.09922790527344, 3.9268949031829834, -0.09600000083446503, 0.0, 1.055999994277954, 0.0, 0.0, 0.0, 0.0, 0.0, 1.6206509710907898E9, 2021-05-10 14:49:31.090
16.0, -63.056583404541016, 103.99726867675781, 131.72488403320312, 7.502239227294922, -0.09600000083446503, 0.0, 1.055999994277954, 0.0, 0.0, 0.0, 0.0, 0.0, 1.6206509710907898E9, 2021-05-10 14:49:31.090
17.0, -81.84957885742188, 81.37834930419922, 102.96505737304688, -25.042369842529297, -0.09600000083446503, 0.0, 1.055999994277954, 0.0, 0.0, 0.0, 0.0, 0.0, 1.6206509710914931E9, 2021-05-10 14:49:31.091
17.0, -71.22078704833984, 93.63026428222656, 106.20755004882812, -18.332988739013672, -0.09600000083446503, 0.0, 1.055999994277954, 0.0, 0.0, 0.0, 0.0, 0.0, 1.6206509710914931E9, 2021-05-10 14:49:31.091
18.0, -58.00771713256836, 96.69324493408203, 127.25570678710938, 0.8452174067497253, -0.09600000083446503, 0.0, 1.055999994277954, 0.0, 0.0, 0.0, 0.0, 0.0, 1.620650971092214E9, 2021-05-10 14:49:31.092
18.0, -68.31488037109375, 99.02320098876953, 132.63742065429688, -7.333943843841553, -0.09600000083446503, 0.0, 1.055999994277954, 0.0, 0.0, 0.0, 0.0, 0.0, 1.620650971092214E9, 2021-05-10 14:49:31.092
19.0, -83.98880004882812, 110.396240234375, 107.16122436523438, -25.67815399169922, -0.09600000083446503, 0.0, 1.055999994277954, 0.0, 0.0, 0.0, 0.0, 0.0, 1.620650971104471E9, 2021-05-10 14:49:31.104
19.0, -75.6076889038086, 107.90172576904297, 105.61290740966797, -24.477645874023438, -0.09600000083446503, 0.0, 1.055999994277954, 0.0, 0.0, 0.0, 0.0, 0.0, 1.620650971104471E9, 2021-05-10 14:49:31.104
20.0, -71.88648986816406, 114.33808898925781, 124.83972930908203, -0.938714861869812, -0.09600000083446503, 0.0, 1.055999994277954, 0.0, 0.0, 0.0, 0.0, 0.0, 1.62065097112015E9, 2021-05-10 14:49:31.120
20.0, -71.83039093017578, 122.70050811767578, 127.861572265625, -4.069011211395264, -0.09600000083446503, 0.0, 1.055999994277954, 0.0, 0.0, 0.0, 0.0, 0.0, 1.62065097112015E9, 2021-05-10 14:49:31.120
21.0, -76.0340347290039, 77.54869842529297, 108.99003601074219, -18.609743118286133, -0.09600000083446503, 0.0, 1.055999994277954, 0.0, 0.0, 0.0, 0.0, 0.0, 1.6206509711209357E9, 2021-05-10 14:49:31.120
21.0, -71.4115219116211, 106.40576171875, 111.55186462402344, -2.5169527530670166, -0.09600000083446503, 0.0, 1.055999994277954, 0.0, 0.0, 0.0, 0.0, 0.0, 1.6206509711209357E9, 2021-05-10 14:49:31.120
22.0, -65.70817565917969, 104.74150848388672, 130.38973999023438, 10.894328117370605, -0.09600000083446503, 0.0, 1.055999994277954, 0.0, 0.0, 0.0, 0.0, 0.0, 1.6206509711344812E9, 2021-05-10 14:49:31.134
22.0, -84.79288482666016, 103.23806762695312, 117.43473052978516, 5.303178310394287, -0.09600000083446503, 0.0, 1.055999994277954, 0.0, 0.0, 0.0, 0.0, 0.0, 1.6206509711344812E9, 2021-05-10 14:49:31.134
23.0, -73.66667938232422, 100.85948944091797, 113.5901107788086, -4.94414758682251, -0.09600000083446503, 0.0, 1.055999994277954, 0.0, 0.0, 0.0, 0.0, 0.0, 1.6206509711501603E9, 2021-05-10 14:49:31.150
23.0, -76.12753295898438, 99.28499603271484, 104.56947326660156, -15.299930572509766, -0.09600000083446503, 0.0, 1.055999994277954, 0.0, 0.0, 0.0, 0.0, 0.0, 1.6206509711501603E9, 2021-05-10 14:49:31.150
24.0, -65.54735565185547, 109.8389892578125, 124.00199127197266, 7.936067581176758, -0.09600000083446503, 0.0, 1.055999994277954, 0.0, 0.0, 0.0, 0.0, 0.0, 1.6206509711509402E9, 2021-05-10 14:49:31.150
24.0, -51.638668060302734, 102.77806091308594, 129.8063201904297, 5.759446144104004, -0.09600000083446503, 0.0, 1.055999994277954, 0.0, 0.0, 0.0, 0.0, 0.0, 1.6206509711509402E9, 2021-05-10 14:49:31.150
25.0, -90.58598327636719, 86.43470001220703, 99.10547637939453, -20.10196304321289, -0.09600000083446503, 0.0, 1.055999994277954, 0.0, 0.0, 0.0, 0.0, 0.0, 1.6206509711644082E9, 2021-05-10 14:49:31.164
25.0, -81.97673797607422, 72.33527374267578, 101.7047119140625, -11.488972663879395, -0.09600000083446503, 0.0, 1.055999994277954, 0.0, 0.0, 0.0, 0.0, 0.0, 1.6206509711644082E9, 2021-05-10 14:49:31.164
26.0, -45.187339782714844, 93.9219741821289, 123.44474792480469, -4.46544075012207, -0.09600000083446503, 0.0, 1.055999994277954, 0.0, 0.0, 0.0, 0.0, 0.0, 1.6206509711801243E9, 2021-05-10 14:49:31.180
26.0, -66.9984359741211, 120.04891967773438, 118.33230590820312, 0.48992690443992615, -0.09600000083446503, 0.0, 1.055999994277954, 0.0, 0.0, 0.0, 0.0, 0.0, 1.6206509711801243E9, 2021-05-10 14:49:31.180
27.0, -76.30704498291016, 112.85709381103516, 108.06253814697266, -21.130434036254883, -0.09600000083446503, 0.0, 1.055999994277954, 0.0, 0.0, 0.0, 0.0, 0.0, 1.6206509711808257E9, 2021-05-10 14:49:31.180
27.0, -78.42383575439453, 74.39969635009766, 97.38512420654297, -33.232749938964844, -0.09600000083446503, 0.0, 1.055999994277954, 0.0, 0.0, 0.0, 0.0, 0.0, 1.6206509711808257E9, 2021-05-10 14:49:31.180
28.0, -66.02232360839844, 92.82992553710938, 120.00029754638672, -9.529265403747559, -0.09600000083446503, 0.0, 1.055999994277954, 0.0, 0.0, 0.0, 0.0, 0.0, 1.6206509711943793E9, 2021-05-10 14:49:31.194
28.0, -56.747371673583984, 114.78314208984375, 120.20225524902344, -6.982393264770508, -0.09600000083446503, 0.0, 1.055999994277954, 0.0, 0.0, 0.0, 0.0, 0.0, 1.6206509711943793E9, 2021-05-10 14:49:31.194
29.0, -73.0645523071289, 104.69288635253906, 106.0841293334961, -11.750765800476074, -0.09600000083446503, 0.0, 1.055999994277954, 0.0, 0.0, 0.0, 0.0, 0.0, 1.6206509712101378E9, 2021-05-10 14:49:31.210
29.0, -57.48039245605469, 74.68019104003906, 102.53496551513672, -25.90254783630371, -0.09600000083446503, 0.0, 1.055999994277954, 0.0, 0.0, 0.0, 0.0, 0.0, 1.6206509712101378E9, 2021-05-10 14:49:31.210
30.0, -71.46013641357422, 112.46066284179688, 124.9145278930664, -1.1631089448928833, -0.09600000083446503, 0.0, 1.055999994277954, 0.0, 0.0, 0.0, 0.0, 0.0, 1.6206509712107987E9, 2021-05-10 14:49:31.210
30.0, -59.11098861694336, 111.87723541259766, 135.47975158691406, 20.090742111206055, -0.09600000083446503, 0.0, 1.055999994277954, 0.0, 0.0, 0.0, 0.0, 0.0, 1.6206509712107987E9, 2021-05-10 14:49:31.210
31.0, -75.6525650024414, 83.5811538696289, 104.11320495605469, -19.563417434692383, -0.09600000083446503, 0.0, 1.055999994277954, 0.0, 0.0, 0.0, 0.0, 0.0, 1.6206509712577505E9, 2021-05-10 14:49:31.257
31.0, -85.43614196777344, 111.42471313476562, 103.45124053955078, -19.383901596069336, -0.09600000083446503, 0.0, 1.055999994277954, 0.0, 0.0, 0.0, 0.0, 0.0, 1.6206509712577505E9, 2021-05-10 14:49:31.257
32.0, -71.63217163085938, 127.82791137695312, 120.34436798095703, 6.858976364135742, -0.08000000566244125, 0.0, 1.055999994277954, 0.0, 0.0, 0.0, 0.0, 0.0, 1.6206509712584748E9, 2021-05-10 14:49:31.258
32.0, -61.35866928100586, 109.8165512084961, 130.13168334960938, 7.696713924407959, -0.08000000566244125, 0.0, 1.055999994277954, 0.0, 0.0, 0.0, 0.0, 0.0, 1.6206509712584748E9, 2021-05-10 14:49:31.258
33.0, -83.4577407836914, 81.82714080810547, 104.99581909179688, -16.302223205566406, -0.08000000566244125, 0.0, 1.055999994277954, 0.0, 0.0, 0.0, 0.0, 0.0, 1.6206509712592096E9, 2021-05-10 14:49:31.259
33.0, -82.50780487060547, 98.65669250488281, 109.46874237060547, -7.894928932189941, -0.08000000566244125, 0.0, 1.055999994277954, 0.0, 0.0, 0.0, 0.0, 0.0, 1.6206509712592096E9, 2021-05-10 14:49:31.259
34.0, -63.31089782714844, 113.10018157958984, 136.49325561523438, 8.818683624267578, -0.08000000566244125, 0.0, 1.055999994277954, 0.0, 0.0, 0.0, 0.0, 0.0, 1.6206509712599716E9, 2021-05-10 14:49:31.259
34.0, -65.55109405517578, 107.66610717773438, 129.89981079101562, 2.176621675491333, -0.08000000566244125, 0.0, 1.055999994277954, 0.0, 0.0, 0.0, 0.0, 0.0, 1.6206509712599716E9, 2021-05-10 14:49:31.259
35.0, -72.39511108398438, 97.32902526855469, 110.91608428955078, 1.3650634288787842, -0.08000000566244125, 0.0, 1.055999994277954, 0.0, 0.0, 0.0, 0.0, 0.0, 1.620650971270478E9, 2021-05-10 14:49:31.270
35.0, -86.71893310546875, 69.64254760742188, 102.23951721191406, -15.662700653076172, -0.08000000566244125, 0.0, 1.055999994277954, 0.0, 0.0, 0.0, 0.0, 0.0, 1.620650971270478E9, 2021-05-10 14:49:31.270
36.0, -47.12086868286133, 115.00005340576172, 130.408447265625, 7.505979061126709, -0.08000000566244125, 0.0, 1.055999994277954, 0.0, 0.0, 0.0, 0.0, 0.0, 1.6206509712707987E9, 2021-05-10 14:49:31.270
36.0, -70.20352935791016, 125.64006805419922, 116.39503479003906, -20.004724502563477, -0.08000000566244125, 0.0, 1.055999994277954, 0.0, 0.0, 0.0, 0.0, 0.0, 1.6206509712707987E9, 2021-05-10 14:49:31.270
37.0, -82.23478698730469, 99.95443725585938, 103.07725524902344, -32.64558792114258, -0.08000000566244125, 0.0, 1.055999994277954, 0.0, 0.0, 0.0, 0.0, 0.0, 1.6206509712843878E9, 2021-05-10 14:49:31.284
37.0, -75.91436004638672, 105.26509094238281, 107.45667266845703, -17.850542068481445, -0.08000000566244125, 0.0, 1.055999994277954, 0.0, 0.0, 0.0, 0.0, 0.0, 1.6206509712843878E9, 2021-05-10 14:49:31.284
38.0, -69.59767150878906, 110.28404235839844, 124.33484649658203, 11.04018497467041, -0.08000000566244125, 0.0, 1.055999994277954, 0.0, 0.0, 0.0, 0.0, 0.0, 1.620650971299998E9, 2021-05-10 14:49:31.299
38.0, -68.67765045166016, 113.8930435180664, 114.64102172851562, -18.725679397583008, -0.08000000566244125, 0.0, 1.055999994277954, 0.0, 0.0, 0.0, 0.0, 0.0, 1.620650971299998E9, 2021-05-10 14:49:31.299
39.0, -65.0536880493164, 98.57815551757812, 107.23976135253906, -17.173620223999023, -0.08000000566244125, 0.0, 1.055999994277954, 0.0, 0.0, 0.0, 0.0, 0.0, 1.6206509713007352E9, 2021-05-10 14:49:31.300
39.0, -71.78550720214844, 106.39080047607422, 115.63957977294922, -6.9188151359558105, -0.08000000566244125, 0.0, 1.055999994277954, 0.0, 0.0, 0.0, 0.0, 0.0, 1.6206509713007352E9, 2021-05-10 14:49:31.300
40.0, -65.48004150390625, 99.1578369140625, 125.40819549560547, 5.198461055755615, -0.08000000566244125, 0.0, 1.040000081062317, 0.0, 0.0, 0.0, 0.0, 0.0, 1.6206509713307276E9, 2021-05-10 14:49:31.330
40.0, -60.19181823730469, 106.33470916748047, 130.0120086669922, -5.056344509124756, -0.08000000566244125, 0.0, 1.040000081062317, 0.0, 0.0, 0.0, 0.0, 0.0, 1.6206509713307276E9, 2021-05-10 14:49:31.330
41.0, -90.68696594238281, 83.26700592041016, 101.80194854736328, -26.781423568725586, -0.08000000566244125, 0.0, 1.040000081062317, 0.0, 0.0, 0.0, 0.0, 0.0, 1.6206509713314545E9, 2021-05-10 14:49:31.331
41.0, -76.86429595947266, 82.16747283935547, 116.42495727539062, -7.835090637207031, -0.08000000566244125, 0.0, 1.040000081062317, 0.0, 0.0, 0.0, 0.0, 0.0, 1.6206509713314545E9, 2021-05-10 14:49:31.331
42.0, -54.96343994140625, 117.84237670898438, 136.0108184814453, 9.63398265838623, -0.08000000566244125, 0.0, 1.040000081062317, 0.0, 0.0, 0.0, 0.0, 0.0, 1.6206509713321953E9, 2021-05-10 14:49:31.332
42.0, -53.538536071777344, 109.25556945800781, 138.90174865722656, 11.414175033569336, -0.08000000566244125, 0.0, 1.040000081062317, 0.0, 0.0, 0.0, 0.0, 0.0, 1.6206509713321953E9, 2021-05-10 14:49:31.332
43.0, -65.19954681396484, 93.74993896484375, 115.16835021972656, -6.204493999481201, -0.08000000566244125, 0.0, 1.040000081062317, 0.0, 0.0, 0.0, 0.0, 0.0, 1.6206509713443425E9, 2021-05-10 14:49:31.344
43.0, -84.2393798828125, 111.48828887939453, 111.63788604736328, -4.125109672546387, -0.08000000566244125, 0.0, 1.040000081062317, 0.0, 0.0, 0.0, 0.0, 0.0, 1.6206509713443425E9, 2021-05-10 14:49:31.344
44.0, -53.52357864379883, 116.9859390258789, 129.0097198486328, -2.4122354984283447, -0.08000000566244125, 0.0, 1.040000081062317, 0.0, 0.0, 0.0, 0.0, 0.0, 1.6206509713601065E9, 2021-05-10 14:49:31.360
44.0, -72.87381744384766, 114.33061218261719, 121.8178939819336, -12.599722862243652, -0.08000000566244125, 0.0, 1.040000081062317, 0.0, 0.0, 0.0, 0.0, 0.0, 1.6206509713601065E9, 2021-05-10 14:49:31.360
45.0, -66.17939758300781, 97.68805694580078, 108.60856628417969, -29.156259536743164, -0.08000000566244125, 0.0, 1.040000081062317, 0.0, 0.0, 0.0, 0.0, 0.0, 1.6206509713607235E9, 2021-05-10 14:49:31.360
45.0, -74.97938537597656, 93.01318359375, 111.18535614013672, -24.331789016723633, -0.08000000566244125, 0.0, 1.040000081062317, 0.0, 0.0, 0.0, 0.0, 0.0, 1.6206509713607235E9, 2021-05-10 14:49:31.360
46.0, -59.81034851074219, 122.63693237304688, 132.91043090820312, -2.6029703617095947, -0.08000000566244125, 0.0, 1.040000081062317, 0.0, 0.0, 0.0, 0.0, 0.0, 1.6206509713743112E9, 2021-05-10 14:49:31.374
46.0, -56.60151672363281, 102.32553100585938, 140.584716796875, 7.001092910766602, -0.08000000566244125, 0.0, 1.040000081062317, 0.0, 0.0, 0.0, 0.0, 0.0, 1.6206509713743112E9, 2021-05-10 14:49:31.374
47.0, -59.17456817626953, 80.04695129394531, 119.2747573852539, -7.090850353240967, -0.08000000566244125, 0.0, 1.040000081062317, 0.0, 0.0, 0.0, 0.0, 0.0, 1.620650971406456E9, 2021-05-10 14:49:31.406
47.0, -66.94607543945312, 107.4454574584961, 116.25292205810547, -9.405848503112793, -0.08000000566244125, 0.0, 1.040000081062317, 0.0, 0.0, 0.0, 0.0, 0.0, 1.620650971406456E9, 2021-05-10 14:49:31.406
48.0, -64.44782257080078, 142.604248046875, 138.14630126953125, -1.5632781982421875, -0.08000000566244125, 0.0, 1.040000081062317, 0.0, 0.0, 0.0, 0.0, 0.0, 1.620650971407274E9, 2021-05-10 14:49:31.407
48.0, -65.64459228515625, 108.39539337158203, 135.76771545410156, -8.534451484680176, -0.08000000566244125, 0.0, 1.040000081062317, 0.0, 0.0, 0.0, 0.0, 0.0, 1.620650971407274E9, 2021-05-10 14:49:31.407
49.0, -84.53856658935547, 93.55172729492188, 114.16605377197266, -18.04501724243164, -0.08000000566244125, 0.0, 1.040000081062317, 0.0, 0.0, 0.0, 0.0, 0.0, 1.620650971407936E9, 2021-05-10 14:49:31.407
49.0, -64.68344116210938, 113.1301040649414, 124.21516418457031, -3.9306347370147705, -0.08000000566244125, 0.0, 1.040000081062317, 0.0, 0.0, 0.0, 0.0, 0.0, 1.620650971407936E9, 2021-05-10 14:49:31.407
50.0, -69.37327575683594, 91.03477478027344, 126.88545227050781, 0.6470026969909668, -0.08000000566244125, 0.0, 1.055999994277954, 0.0, 0.0, 0.0, 0.0, 0.0, 1.620650971408672E9, 2021-05-10 14:49:31.408
50.0, -60.26661682128906, 101.82438659667969, 144.8893280029297, 9.536745071411133, -0.08000000566244125, 0.0, 1.055999994277954, 0.0, 0.0, 0.0, 0.0, 0.0, 1.620650971408672E9, 2021-05-10 14:49:31.408
51.0, -81.05672454833984, 101.61869049072266, 111.83609771728516, -12.210773468017578, -0.08000000566244125, -0.01600000075995922, 1.055999994277954, 0.0, 0.0, 0.0, 0.0, 0.0, 1.6206509714193892E9, 2021-05-10 14:49:31.419
51.0, -88.79083251953125, 103.85514831542969, 109.880126953125, -10.714813232421875, -0.08000000566244125, -0.01600000075995922, 1.055999994277954, 0.0, 0.0, 0.0, 0.0, 0.0, 1.6206509714193892E9, 2021-05-10 14:49:31.419
52.0, -52.60356140136719, 144.71730041503906, 142.64540100097656, 14.74642562866211, -0.09600000083446503, -0.01600000075995922, 1.055999994277954, 0.0, 0.0, 0.0, 0.0, 0.0, 1.620650971434368E9, 2021-05-10 14:49:31.434
52.0, -72.6830825805664, 106.8059310913086, 125.03046417236328, -4.5813775062561035, -0.09600000083446503, -0.01600000075995922, 1.055999994277954, 0.0, 0.0, 0.0, 0.0, 0.0, 1.620650971434368E9, 2021-05-10 14:49:31.434
53.0, -77.04754638671875, 94.68865966796875, 112.91319274902344, -17.22597885131836, -0.09600000083446503, -0.01600000075995922, 1.055999994277954, 0.0, 0.0, 0.0, 0.0, 0.0, 1.6206509714501069E9, 2021-05-10 14:49:31.450
53.0, -66.56835174560547, 98.94840240478516, 115.95372772216797, -6.103516578674316, -0.09600000083446503, -0.01600000075995922, 1.055999994277954, 0.0, 0.0, 0.0, 0.0, 0.0, 1.6206509714501069E9, 2021-05-10 14:49:31.450
54.0, -43.3996696472168, 98.57067108154297, 127.65213775634766, -7.947287559509277, -0.09600000083446503, -0.01600000075995922, 1.055999994277954, 0.0, 0.0, 0.0, 0.0, 0.0, 1.6206509714507208E9, 2021-05-10 14:49:31.450
54.0, -65.31548309326172, 105.97941589355469, 142.42848205566406, 3.642662525177002, -0.09600000083446503, -0.01600000075995922, 1.055999994277954, 0.0, 0.0, 0.0, 0.0, 0.0, 1.6206509714507208E9, 2021-05-10 14:49:31.450
55.0, -74.57921600341797, 106.77975463867188, 112.93189239501953, -20.670427322387695, -0.09600000083446503, -0.01600000075995922, 1.055999994277954, 0.0, 0.0, 0.0, 0.0, 0.0, 1.6206509714797647E9, 2021-05-10 14:49:31.479
55.0, -58.76691818237305, 107.63619232177734, 118.5080795288086, -16.253604888916016, -0.09600000083446503, -0.01600000075995922, 1.055999994277954, 0.0, 0.0, 0.0, 0.0, 0.0, 1.6206509714797647E9, 2021-05-10 14:49:31.479
56.0, -54.16310119628906, 84.95743560791016, 135.34884643554688, 1.9671874046325684, -0.09600000083446503, -0.01600000075995922, 1.055999994277954, 0.0, 0.0, 0.0, 0.0, 0.0, 1.6206509714971337E9, 2021-05-10 14:49:31.497
56.0, -37.69632339477539, 130.50567626953125, 144.4330596923828, 9.140315055847168, -0.09600000083446503, -0.01600000075995922, 1.055999994277954, 0.0, 0.0, 0.0, 0.0, 0.0, 1.6206509714971337E9, 2021-05-10 14:49:31.497
57.0, -69.8258056640625, 107.3669204711914, 111.9445571899414, -26.654266357421875, -0.09600000083446503, -0.01600000075995922, 1.055999994277954, 0.0, 0.0, 0.0, 0.0, 0.0, 1.6206509714978392E9, 2021-05-10 14:49:31.497
57.0, -82.65740203857422, 95.0252456665039, 110.72534942626953, -24.967571258544922, -0.09600000083446503, -0.01600000075995922, 1.055999994277954, 0.0, 0.0, 0.0, 0.0, 0.0, 1.6206509714978392E9, 2021-05-10 14:49:31.497
58.0, -64.87043762207031, 110.31395721435547, 135.6966552734375, 0.4861869812011719, -0.09600000083446503, -0.01600000075995922, 1.055999994277954, 0.0, 0.0, 0.0, 0.0, 0.0, 1.62065097149865E9, 2021-05-10 14:49:31.498
58.0, -55.094337463378906, 100.07785034179688, 141.52342224121094, 3.4893267154693604, -0.09600000083446503, -0.01600000075995922, 1.055999994277954, 0.0, 0.0, 0.0, 0.0, 0.0, 1.62065097149865E9, 2021-05-10 14:49:31.498
59.0, -75.5067138671875, 105.12297821044922, 115.96868896484375, -14.578129768371582, -0.09600000083446503, -0.01600000075995922, 1.055999994277954, 0.0, 0.0, 0.0, 0.0, 0.0, 1.6206509714993248E9, 2021-05-10 14:49:31.499
59.0, -90.724365234375, 97.89749145507812, 106.14022827148438, -25.22562599182129, -0.09600000083446503, -0.01600000075995922, 1.055999994277954, 0.0, 0.0, 0.0, 0.0, 0.0, 1.6206509714993248E9, 2021-05-10 14:49:31.499
60.0, -46.630943298339844, 133.77061462402344, 159.1383514404297, 32.2603759765625, -0.09600000083446503, -0.01600000075995922, 1.055999994277954, 0.0, 0.0, 0.0, 0.0, 0.0, 1.6206509715093307E9, 2021-05-10 14:49:31.509
60.0, -66.5795669555664, 100.16387176513672, 131.8931884765625, -11.055144309997559, -0.09600000083446503, -0.01600000075995922, 1.055999994277954, 0.0, 0.0, 0.0, 0.0, 0.0, 1.6206509715093307E9, 2021-05-10 14:49:31.509
61.0, -82.05901336669922, 86.51323699951172, 122.99221801757812, -10.161308288574219, -0.09600000083446503, 0.0, 1.055999994277954, 0.0, 0.0, 0.0, 0.0, 0.0, 1.6206509715243244E9, 2021-05-10 14:49:31.524
61.0, -55.023277282714844, 103.35026550292969, 118.66141510009766, -9.615283012390137, -0.09600000083446503, 0.0, 1.055999994277954, 0.0, 0.0, 0.0, 0.0, 0.0, 1.6206509715243244E9, 2021-05-10 14:49:31.524
62.0, -63.93172073364258, 113.67987060546875, 132.32327270507812, -12.551104545593262, -0.08000000566244125, 0.0, 1.055999994277954, 0.0, 0.0, 0.0, 0.0, 0.0, 1.620650971540104E9, 2021-05-10 14:49:31.540
62.0, -77.31307983398438, 118.92694854736328, 144.822021484375, 0.42634859681129456, -0.08000000566244125, 0.0, 1.055999994277954, 0.0, 0.0, 0.0, 0.0, 0.0, 1.620650971540104E9, 2021-05-10 14:49:31.540
63.0, -90.83656311035156, 98.77262878417969, 113.90426635742188, -16.706132888793945, -0.08000000566244125, 0.0, 1.055999994277954, 0.0, 0.0, 0.0, 0.0, 0.0, 1.6206509715407732E9, 2021-05-10 14:49:31.540
63.0, -74.87092590332031, 120.99137115478516, 119.41687774658203, -3.7847788333892822, -0.08000000566244125, 0.0, 1.055999994277954, 0.0, 0.0, 0.0, 0.0, 0.0, 1.6206509715407732E9, 2021-05-10 14:49:31.540
64.0, -52.8653564453125, 110.40745544433594, 137.6002655029297, 7.90988826751709, -0.08000000566244125, 0.0, 1.055999994277954, 0.0, 0.0, 0.0, 0.0, 0.0, 1.620650971554314E9, 2021-05-10 14:49:31.554
64.0, -47.75291442871094, 112.80099487304688, 139.4290771484375, 0.7180607914924622, -0.08000000566244125, 0.0, 1.055999994277954, 0.0, 0.0, 0.0, 0.0, 0.0, 1.620650971554314E9, 2021-05-10 14:49:31.554
65.0, -73.41236877441406, 96.55860900878906, 114.58492279052734, -17.794443130493164, -0.08000000566244125, 0.0, 1.055999994277954, 0.0, 0.0, 0.0, 0.0, 0.0, 1.6206509715701373E9, 2021-05-10 14:49:31.570
65.0, -67.80625915527344, 108.354248046875, 119.551513671875, -10.699853897094727, -0.08000000566244125, 0.0, 1.055999994277954, 0.0, 0.0, 0.0, 0.0, 0.0, 1.6206509715701373E9, 2021-05-10 14:49:31.570
66.0, -41.34646224975586, 106.02803039550781, 140.01998901367188, 2.1841015815734863, -0.08000000566244125, 0.0, 1.055999994277954, 0.0, 0.0, 0.0, 0.0, 0.0, 1.620650971570776E9, 2021-05-10 14:49:31.570
66.0, -59.09602737426758, 126.92659759521484, 133.29563903808594, -5.22838020324707, -0.08000000566244125, 0.0, 1.055999994277954, 0.0, 0.0, 0.0, 0.0, 0.0, 1.620650971570776E9, 2021-05-10 14:49:31.570
67.0, -67.86235809326172, 97.82269287109375, 117.29634857177734, -23.96527862548828, -0.08000000566244125, 0.0, 1.055999994277954, 0.0, 0.0, 0.0, 0.0, 0.0, 1.6206509715843568E9, 2021-05-10 14:49:31.584
67.0, -68.58415222167969, 95.51143646240234, 113.12262725830078, -16.979145050048828, -0.08000000566244125, 0.0, 1.055999994277954, 0.0, 0.0, 0.0, 0.0, 0.0, 1.6206509715843568E9, 2021-05-10 14:49:31.584
68.0, -54.85872268676758, 101.94779968261719, 136.06317138671875, -4.985286712646484, -0.08000000566244125, 0.0, 1.055999994277954, 0.0, 0.0, 0.0, 0.0, 0.0, 1.6206509716004632E9, 2021-05-10 14:49:31.600
68.0, -65.53987884521484, 118.96434783935547, 137.5778350830078, -8.583070755004883, -0.08000000566244125, 0.0, 1.055999994277954, 0.0, 0.0, 0.0, 0.0, 0.0, 1.6206509716004632E9, 2021-05-10 14:49:31.600
69.0, -81.15022277832031, 98.3126220703125, 115.79291534423828, -17.547611236572266, -0.08000000566244125, 0.0, 1.055999994277954, 0.0, 0.0, 0.0, 0.0, 0.0, 1.620650971615164E9, 2021-05-10 14:49:31.615
69.0, -79.4223861694336, 116.56707000732422, 118.41084289550781, -10.303424835205078, -0.08000000566244125, 0.0, 1.055999994277954, 0.0, 0.0, 0.0, 0.0, 0.0, 1.620650971615164E9, 2021-05-10 14:49:31.615
70.0, -42.64421081542969, 125.07160186767578, 149.3098907470703, 3.8520970344543457, -0.08000000566244125, 0.0, 1.055999994277954, 0.0, 0.0, 0.0, 0.0, 0.0, 1.620650971615822E9, 2021-05-10 14:49:31.615
70.0, -53.71805191040039, 106.56658172607422, 139.66842651367188, -10.90928840637207, -0.08000000566244125, 0.0, 1.055999994277954, 0.0, 0.0, 0.0, 0.0, 0.0, 1.620650971615822E9, 2021-05-10 14:49:31.615
71.0, -77.02136993408203, 77.71698760986328, 122.10960388183594, -13.231765747070312, -0.08000000566244125, 0.0, 1.055999994277954, 0.0, 0.0, 0.0, 0.0, 0.0, 1.6206509716301565E9, 2021-05-10 14:49:31.630
71.0, -87.46317291259766, 111.18909454345703, 119.33085632324219, -4.992766380310059, -0.08000000566244125, 0.0, 1.055999994277954, 0.0, 0.0, 0.0, 0.0, 0.0, 1.6206509716301565E9, 2021-05-10 14:49:31.630
72.0, -75.83582305908203, 120.20599365234375, 132.70848083496094, -9.140315055847168, -0.08000000566244125, 0.0, 1.055999994277954, 0.0, 0.0, 0.0, 0.0, 0.0, 1.6206509716307683E9, 2021-05-10 14:49:31.630
72.0, -57.35323715209961, 121.42520141601562, 140.2855224609375, 0.265532910823822, -0.08000000566244125, 0.0, 1.055999994277954, 0.0, 0.0, 0.0, 0.0, 0.0, 1.6206509716307683E9, 2021-05-10 14:49:31.630
73.0, -68.88334655761719, 104.65174865722656, 116.0771484375, -14.93716049194336, -0.08000000566244125, 0.0, 1.055999994277954, 0.0, 0.0, 0.0, 0.0, 0.0, 1.6206509716444173E9, 2021-05-10 14:49:31.644
73.0, -63.46797180175781, 82.84065246582031, 120.00404357910156, -12.528664588928223, -0.08000000566244125, 0.0, 1.055999994277954, 0.0, 0.0, 0.0, 0.0, 0.0, 1.6206509716444173E9, 2021-05-10 14:49:31.644
74.0, -55.30377197265625, 113.30213928222656, 138.81199645996094, -0.531065821647644, -0.08000000566244125, 0.0, 1.055999994277954, 0.0, 0.0, 0.0, 0.0, 0.0, 1.620650971660503E9, 2021-05-10 14:49:31.660
74.0, -63.198699951171875, 130.21022033691406, 130.12046813964844, -7.771512031555176, -0.08000000566244125, 0.0, 1.055999994277954, 0.0, 0.0, 0.0, 0.0, 0.0, 1.620650971660503E9, 2021-05-10 14:49:31.660
75.0, -70.7345962524414, 125.64006805419922, 112.61399841308594, -27.11053466796875, -0.08000000566244125, 0.0, 1.055999994277954, 0.0, 0.0, 0.0, 0.0, 0.0, 1.6206509716751728E9, 2021-05-10 14:49:31.675
75.0, -69.92304229736328, 100.60891723632812, 121.18959045410156, -23.505271911621094, -0.08000000566244125, 0.0, 1.055999994277954, 0.0, 0.0, 0.0, 0.0, 0.0, 1.6206509716751728E9, 2021-05-10 14:49:31.675
76.0, -54.903602600097656, 123.20913696289062, 131.6725311279297, -11.432873725891113, -0.08000000566244125, 0.0, 1.055999994277954, 0.0, 0.0, 0.0, 0.0, 0.0, 1.620650971675827E9, 2021-05-10 14:49:31.675
76.0, -52.63348388671875, 125.90560150146484, 132.15872192382812, -7.262885570526123, -0.08000000566244125, 0.0, 1.055999994277954, 0.0, 0.0, 0.0, 0.0, 0.0, 1.620650971675827E9, 2021-05-10 14:49:31.675
77.0, -73.95465087890625, 102.4863510131836, 104.94720458984375, -18.729419708251953, -0.08000000566244125, 0.0, 1.055999994277954, 0.0, 0.0, 0.0, 0.0, 0.0, 1.6206509716901577E9, 2021-05-10 14:49:31.690
77.0, -82.41056823730469, 102.39285278320312, 103.3727035522461, -24.39162826538086, -0.08000000566244125, 0.0, 1.055999994277954, 0.0, 0.0, 0.0, 0.0, 0.0, 1.6206509716901577E9, 2021-05-10 14:49:31.690
78.0, -50.2062873840332, 118.24254608154297, 128.706787109375, -24.563663482666016, -0.08000000566244125, 0.0, 1.055999994277954, 0.0, 0.0, 0.0, 0.0, 0.0, 1.620650971690792E9, 2021-05-10 14:49:31.690
78.0, -62.420799255371094, 129.222900390625, 132.16993713378906, -10.89806842803955, -0.08000000566244125, 0.0, 1.055999994277954, 0.0, 0.0, 0.0, 0.0, 0.0, 1.620650971690792E9, 2021-05-10 14:49:31.690
79.0, -89.50141906738281, 100.69867706298828, 112.06049346923828, -31.878908157348633, -0.08000000566244125, 0.0, 1.055999994277954, 0.0, 0.0, 0.0, 0.0, 0.0, 1.6206509717361715E9, 2021-05-10 14:49:31.736
79.0, -71.74810791015625, 112.41577911376953, 123.87483978271484, -13.45989990234375, -0.08000000566244125, 0.0, 1.055999994277954, 0.0, 0.0, 0.0, 0.0, 0.0, 1.6206509717361715E9, 2021-05-10 14:49:31.736
80.0, -54.20798110961914, 132.41302490234375, 141.35887145996094, -6.327910900115967, -0.08000000566244125, 0.0, 1.055999994277954, 0.0, 0.0, 0.0, 0.0, 0.0, 1.6206509717368774E9, 2021-05-10 14:49:31.736
80.0, -71.31428527832031, 130.66275024414062, 139.0625762939453, -1.073351263999939, -0.08000000566244125, 0.0, 1.055999994277954, 0.0, 0.0, 0.0, 0.0, 0.0, 1.6206509717368774E9, 2021-05-10 14:49:31.736
81.0, -91.6294174194336, 101.405517578125, 109.4350814819336, -28.097867965698242, -0.08000000566244125, 0.0, 1.055999994277954, 0.0, 0.0, 0.0, 0.0, 0.0, 1.6206509717376063E9, 2021-05-10 14:49:31.737
81.0, -82.65365600585938, 113.54523468017578, 114.52882385253906, -12.753058433532715, -0.08000000566244125, 0.0, 1.055999994277954, 0.0, 0.0, 0.0, 0.0, 0.0, 1.6206509717376063E9, 2021-05-10 14:49:31.737
82.0, -71.08615112304688, 135.50218200683594, 131.85952758789062, -3.0667178630828857, -0.08000000566244125, 0.0, 1.055999994277954, 0.0, 0.0, 0.0, 0.0, 0.0, 1.6206509717498355E9, 2021-05-10 14:49:31.749
82.0, -73.7040786743164, 128.30287170410156, 135.995849609375, -2.1953213214874268, -0.08000000566244125, 0.0, 1.055999994277954, 0.0, 0.0, 0.0, 0.0, 0.0, 1.6206509717498355E9, 2021-05-10 14:49:31.749
83.0, -87.4781265258789, 112.33724212646484, 112.57286071777344, -21.43710708618164, -0.08000000566244125, 0.0, 1.055999994277954, 0.0, 0.0, 0.0, 0.0, 0.0, 1.6206509717961838E9, 2021-05-10 14:49:31.796
83.0, -90.77297973632812, 114.17353820800781, 108.72824096679688, -9.286171913146973, -0.08000000566244125, 0.0, 1.055999994277954, 0.0, 0.0, 0.0, 0.0, 0.0, 1.6206509717961838E9, 2021-05-10 14:49:31.796
84.0, -52.58860397338867, 124.37598419189453, 134.986083984375, -5.284478664398193, -0.08000000566244125, 0.0, 1.055999994277954, 0.0, 0.0, 0.0, 0.0, 0.0, 1.6206509717968915E9, 2021-05-10 14:49:31.796
84.0, -70.9926528930664, 114.56996154785156, 132.37936401367188, -9.1141357421875, -0.08000000566244125, 0.0, 1.055999994277954, 0.0, 0.0, 0.0, 0.0, 0.0, 1.6206509717968915E9, 2021-05-10 14:49:31.796
85.0, -88.35326385498047, 95.66851043701172, 102.63594818115234, -35.19245910644531, -0.08000000566244125, 0.0, 1.055999994277954, 0.0, 0.0, 0.0, 0.0, 0.0, 1.620650971797706E9, 2021-05-10 14:49:31.797
85.0, -92.58309173583984, 99.88337707519531, 110.94974517822266, -24.851634979248047, -0.08000000566244125, 0.0, 1.055999994277954, 0.0, 0.0, 0.0, 0.0, 0.0, 1.620650971797706E9, 2021-05-10 14:49:31.797
86.0, -70.91036987304688, 135.2366485595703, 135.30023193359375, -0.6956213712692261, -0.08000000566244125, 0.0, 1.055999994277954, 0.0, 0.0, 0.0, 0.0, 0.0, 1.620650971812221E9, 2021-05-10 14:49:31.812
86.0, -56.73241424560547, 127.76807403564453, 136.9757080078125, -8.23151969909668, -0.08000000566244125, 0.0, 1.055999994277954, 0.0, 0.0, 0.0, 0.0, 0.0, 1.620650971812221E9, 2021-05-10 14:49:31.812
87.0, -71.65835571289062, 102.0450439453125, 110.63185119628906, -33.84609603881836, -0.08000000566244125, 0.0, 1.055999994277954, 0.0, 0.0, 0.0, 0.0, 0.0, 1.6206509718128405E9, 2021-05-10 14:49:31.812
87.0, -74.40718078613281, 118.18270874023438, 115.84526824951172, -29.305856704711914, -0.08000000566244125, 0.0, 1.055999994277954, 0.0, 0.0, 0.0, 0.0, 0.0, 1.6206509718128405E9, 2021-05-10 14:49:31.812
88.0, -55.49824523925781, 141.00732421875, 146.91261291503906, -3.15647554397583, -0.08000000566244125, 0.0, 1.055999994277954, 0.0, 0.0, 0.0, 0.0, 0.0, 1.62065097181359E9, 2021-05-10 14:49:31.813
88.0, -61.58306121826172, 117.96205139160156, 145.52511596679688, -1.305225133895874, -0.08000000566244125, 0.0, 1.055999994277954, 0.0, 0.0, 0.0, 0.0, 0.0, 1.62065097181359E9, 2021-05-10 14:49:31.813
89.0, -64.38050842285156, 102.4900894165039, 123.60182189941406, -16.242385864257812, -0.08000000566244125, 0.0, 1.055999994277954, 0.0, 0.0, 0.0, 0.0, 0.0, 1.6206509718143306E9, 2021-05-10 14:49:31.814
89.0, -76.56136322021484, 94.75223541259766, 119.91802215576172, -20.064563751220703, -0.08000000566244125, 0.0, 1.055999994277954, 0.0, 0.0, 0.0, 0.0, 0.0, 1.6206509718143306E9, 2021-05-10 14:49:31.814
90.0, -58.845455169677734, 108.43653106689453, 145.3306427001953, -27.334928512573242, -0.08000000566244125, 0.0, 1.055999994277954, 0.0, 0.0, 0.0, 0.0, 0.0, 1.6206509718421054E9, 2021-05-10 14:49:31.842
90.0, -62.379661560058594, 109.77167510986328, 153.38638305664062, -11.455313682556152, -0.08000000566244125, 0.0, 1.055999994277954, 0.0, 0.0, 0.0, 0.0, 0.0, 1.6206509718421054E9, 2021-05-10 14:49:31.842
91.0, -71.31428527832031, 126.36934661865234, 134.3428192138672, -19.660654067993164, -0.08000000566244125, 0.0, 1.055999994277954, 0.0, 0.0, 0.0, 0.0, 0.0, 1.6206509718429132E9, 2021-05-10 14:49:31.842
91.0, -80.69769287109375, 109.06857299804688, 122.25171661376953, -23.206079483032227, -0.08000000566244125, 0.0, 1.055999994277954, 0.0, 0.0, 0.0, 0.0, 0.0, 1.6206509718429132E9, 2021-05-10 14:49:31.842
92.0, -63.5165901184082, 133.4527130126953, 155.85845947265625, 5.258299350738525, -0.08000000566244125, 0.0, 1.055999994277954, 0.0, 0.0, 0.0, 0.0, 0.0, 1.620650971843567E9, 2021-05-10 14:49:31.843
92.0, -72.26421356201172, 136.95326232910156, 149.32859802246094, -10.022932052612305, -0.08000000566244125, 0.0, 1.055999994277954, 0.0, 0.0, 0.0, 0.0, 0.0, 1.620650971843567E9, 2021-05-10 14:49:31.843
93.0, -72.9374008178711, 91.56584167480469, 131.44439697265625, -14.55569076538086, -0.08000000566244125, 0.0, 1.055999994277954, 0.0, 0.0, 0.0, 0.0, 0.0, 1.6206509718443012E9, 2021-05-10 14:49:31.844
93.0, -71.92762756347656, 115.08981323242188, 125.78592681884766, -21.88963508605957, -0.08000000566244125, 0.0, 1.055999994277954, 0.0, 0.0, 0.0, 0.0, 0.0, 1.6206509718443012E9, 2021-05-10 14:49:31.844
94.0, -75.88069915771484, 118.54174041748047, 131.44813537597656, -5.333097457885742, -0.08000000566244125, 0.0, 1.055999994277954, 0.0, 0.0, 0.0, 0.0, 0.0, 1.6206509718543284E9, 2021-05-10 14:49:31.854
94.0, -67.36869049072266, 119.5739517211914, 142.68280029296875, 5.6173295974731445, -0.08000000566244125, 0.0, 1.055999994277954, 0.0, 0.0, 0.0, 0.0, 0.0, 1.6206509718543284E9, 2021-05-10 14:49:31.854
95.0, -91.87998962402344, 86.82364654541016, 105.80738067626953, -22.301023483276367, -0.08000000566244125, 0.0, 1.055999994277954, 0.0, 0.0, 0.0, 0.0, 0.0, 1.6206509718697424E9, 2021-05-10 14:49:31.869
95.0, -85.15190887451172, 113.87808227539062, 103.80279541015625, -23.490310668945312, -0.08000000566244125, 0.0, 1.055999994277954, 0.0, 0.0, 0.0, 0.0, 0.0, 1.6206509718697424E9, 2021-05-10 14:49:31.869
96.0, -63.348297119140625, 120.12371826171875, 135.6143798828125, 3.6576220989227295, -0.08000000566244125, 0.0, 1.055999994277954, 0.0, 0.0, 0.0, 0.0, 0.0, 1.6206509718864307E9, 2021-05-10 14:49:31.886
96.0, -68.21016693115234, 128.45620727539062, 135.23291015625, -9.424548149108887, -0.08000000566244125, 0.0, 1.055999994277954, 0.0, 0.0, 0.0, 0.0, 0.0, 1.6206509718864307E9, 2021-05-10 14:49:31.886
97.0, -68.22138214111328, 89.59490966796875, 122.50603485107422, -28.535436630249023, -0.08000000566244125, 0.0, 1.055999994277954, 0.0, 0.0, 0.0, 0.0, 0.0, 1.6206509718871167E9, 2021-05-10 14:49:31.887
97.0, -78.18821716308594, 90.93753814697266, 119.39817810058594, -32.77648162841797, -0.08000000566244125, 0.0, 1.055999994277954, 0.0, 0.0, 0.0, 0.0, 0.0, 1.6206509718871167E9, 2021-05-10 14:49:31.887
98.0, -53.037391662597656, 136.8934326171875, 148.19540405273438, -2.0008463859558105, -0.08000000566244125, 0.0, 1.055999994277954, 0.0, 0.0, 0.0, 0.0, 0.0, 1.620650971887868E9, 2021-05-10 14:49:31.887
98.0, -66.13078308105469, 133.39288330078125, 147.74661254882812, -5.688387870788574, -0.08000000566244125, 0.0, 1.055999994277954, 0.0, 0.0, 0.0, 0.0, 0.0, 1.620650971887868E9, 2021-05-10 14:49:31.887
99.0, -68.23634338378906, 112.0268325805664, 121.30552673339844, -31.228164672851562, -0.08000000566244125, 0.0, 1.055999994277954, 0.0, 0.0, 0.0, 0.0, 0.0, 1.6206509718994129E9, 2021-05-10 14:49:31.899
99.0, -99.5206069946289, 108.53376770019531, 111.99317169189453, -37.111026763916016, -0.08000000566244125, 0.0, 1.055999994277954, 0.0, 0.0, 0.0, 0.0, 0.0, 1.6206509718994129E9, 2021-05-10 14:49:31.899
100.0, -68.25130462646484, 124.4096450805664, 148.73768615722656, -10.40066146850586, -0.08000000566244125, 0.0, 1.055999994277954, 0.0, 0.0, 0.0, 0.0, 0.0, 1.6206509719152253E9, 2021-05-10 14:49:31.915
100.0, -53.89008712768555, 140.6258544921875, 144.0179443359375, -9.50682544708252, -0.08000000566244125, 0.0, 1.055999994277954, 0.0, 0.0, 0.0, 0.0, 0.0, 1.6206509719152253E9, 2021-05-10 14:49:31.915
0.0, -80.4415054321289, 120.3780288696289, 115.48436737060547, -39.10626220703125, -0.08000000566244125, 0.0, 1.055999994277954, 0.0, 0.0, 0.0, 0.0, 0.0, 1.620650971915851E9, 2021-05-10 14:49:31.915
1.0, -82.99211883544922, 114.21467590332031, 119.77403259277344, -19.150157928466797, -0.08000000566244125, 0.0, 1.055999994277954, 0.0, 0.0, 0.0, 0.0, 0.0, 1.620650971960562E9, 2021-05-10 14:49:31.960
1.0, -62.172096252441406, 129.91851806640625, 151.41732788085938, -0.005609849933534861, -0.08000000566244125, 0.0, 1.055999994277954, 0.0, 0.0, 0.0, 0.0, 0.0, 1.620650971960562E9, 2021-05-10 14:49:31.960
2.0, -71.29745483398438, 115.10477447509766, 149.0911102294922, 2.406625509262085, -0.09600000083446503, 0.0, 1.055999994277954, 0.0, 0.0, 0.0, 0.0, 0.0, 1.6206509719613144E9, 2021-05-10 14:49:31.961
2.0, -83.48204803466797, 118.60157775878906, 123.61117553710938, -33.649749755859375, -0.09600000083446503, 0.0, 1.055999994277954, 0.0, 0.0, 0.0, 0.0, 0.0, 1.6206509719613144E9, 2021-05-10 14:49:31.961
3.0, -64.82742309570312, 130.4009552001953, 123.90662384033203, -20.75831413269043, -0.09600000083446503, 0.0, 1.055999994277954, 0.0, 0.0, 0.0, 0.0, 0.0, 1.620650971976949E9, 2021-05-10 14:49:31.976
3.0, -68.05870056152344, 135.1057586669922, 139.95828247070312, -9.572274208068848, -0.09600000083446503, 0.0, 1.055999994277954, 0.0, 0.0, 0.0, 0.0, 0.0, 1.620650971976949E9, 2021-05-10 14:49:31.976
4.0, -75.68809509277344, 144.96786499023438, 142.49392700195312, -4.792681694030762, -0.09600000083446503, 0.0, 1.055999994277954, 0.0, 0.0, 0.0, 0.0, 0.0, 1.6206509719776926E9, 2021-05-10 14:49:31.977
4.0, -84.96305084228516, 110.40745544433594, 119.83013153076172, -19.363332748413086, -0.09600000083446503, 0.0, 1.055999994277954, 0.0, 0.0, 0.0, 0.0, 0.0, 1.6206509719776926E9, 2021-05-10 14:49:31.977
5.0, -86.98258972167969, 110.560791015625, 118.2145004272461, -14.030234336853027, -0.09600000083446503, 0.0, 1.055999994277954, 0.0, 0.0, 0.0, 0.0, 0.0, 1.620650971978428E9, 2021-05-10 14:49:31.978
5.0, -63.735374450683594, 138.99525451660156, 138.81011962890625, -11.07197380065918, -0.09600000083446503, 0.0, 1.055999994277954, 0.0, 0.0, 0.0, 0.0, 0.0, 1.620650971978428E9, 2021-05-10 14:49:31.978
6.0, -65.6875991821289, 134.0062255859375, 145.66162109375, 0.7049711346626282, -0.09600000083446503, 0.0, 1.055999994277954, 0.0, 0.0, 0.0, 0.0, 0.0, 1.6206509719902966E9, 2021-05-10 14:49:31.990
6.0, -75.56468200683594, 108.39539337158203, 120.78006744384766, -27.617290496826172, -0.09600000083446503, 0.0, 1.055999994277954, 0.0, 0.0, 0.0, 0.0, 0.0, 1.6206509719902966E9, 2021-05-10 14:49:31.990
7.0, -77.89463806152344, 106.87699127197266, 124.83038330078125, -17.998268127441406, -0.09600000083446503, 0.0, 1.055999994277954, 0.0, 0.0, 0.0, 0.0, 0.0, 1.6206509719907353E9, 2021-05-10 14:49:31.990
7.0, -57.08209228515625, 124.80606842041016, 147.75596618652344, -9.243163108825684, -0.09600000083446503, 0.0, 1.055999994277954, 0.0, 0.0, 0.0, 0.0, 0.0, 1.6206509719907353E9, 2021-05-10 14:49:31.990
8.0, -62.748043060302734, 124.58915710449219, 137.5123748779297, -13.409411430358887, -0.09600000083446503, 0.0, 1.055999994277954, 0.0, 0.0, 0.0, 0.0, 0.0, 1.6206509720057523E9, 2021-05-10 14:49:32.005
8.0, -62.935035705566406, 121.70195770263672, 117.09626770019531, -27.385417938232422, -0.09600000083446503, 0.0, 1.055999994277954, 0.0, 0.0, 0.0, 0.0, 0.0, 1.6206509720057523E9, 2021-05-10 14:49:32.005
9.0, -85.00418853759766, 119.60387420654297, 116.92049407958984, -36.940860748291016, -0.09600000083446503, 0.0, 1.055999994277954, 0.0, 0.0, 0.0, 0.0, 0.0, 1.6206509720064757E9, 2021-05-10 14:49:32.006
9.0, -83.08935546875, 128.46743774414062, 135.2011260986328, -18.248842239379883, -0.09600000083446503, 0.0, 1.055999994277954, 0.0, 0.0, 0.0, 0.0, 0.0, 1.6206509720064757E9, 2021-05-10 14:49:32.006
10.0, -66.57022094726562, 121.89269256591797, 140.65016174316406, -13.024201393127441, -0.09600000083446503, 0.0, 1.055999994277954, 0.0, 0.0, 0.0, 0.0, 0.0, 1.620650972019325E9, 2021-05-10 14:49:32.019
10.0, -81.7990951538086, 121.0549545288086, 119.21305084228516, -27.39289665222168, -0.09600000083446503, 0.0, 1.055999994277954, 0.0, 0.0, 0.0, 0.0, 0.0, 1.620650972019325E9, 2021-05-10 14:49:32.019
11.0, -80.53874206542969, 126.62366485595703, 124.98745727539062, -14.340646743774414, -0.09600000083446503, 0.0, 1.055999994277954, 0.0, 0.0, 0.0, 0.0, 0.0, 1.620650972051395E9, 2021-05-10 14:49:32.051
11.0, -64.64791107177734, 158.7344512939453, 145.414794921875, 0.8732666373252869, -0.09600000083446503, 0.0, 1.055999994277954, 0.0, 0.0, 0.0, 0.0, 0.0, 1.620650972051395E9, 2021-05-10 14:49:32.051
12.0, -68.1297607421875, 115.42639923095703, 136.341796875, -9.991142272949219, -0.09600000083446503, 0.0, 1.055999994277954, 0.0, 0.0, 0.0, 0.0, 0.0, 1.6206509720521104E9, 2021-05-10 14:49:32.052
12.0, -64.10188293457031, 102.5723648071289, 133.26759338378906, -4.616906642913818, -0.09600000083446503, 0.0, 1.055999994277954, 0.0, 0.0, 0.0, 0.0, 0.0, 1.6206509720521104E9, 2021-05-10 14:49:32.052
13.0, -95.34127044677734, 129.74647521972656, 123.5962142944336, -25.444408416748047, -0.09600000083446503, 0.0, 1.055999994277954, 0.0, 0.0, 0.0, 0.0, 0.0, 1.6206509720528507E9, 2021-05-10 14:49:32.052
13.0, -80.295654296875, 133.448974609375, 140.90072631835938, -3.3229010105133057, -0.09600000083446503, 0.0, 1.055999994277954, 0.0, 0.0, 0.0, 0.0, 0.0, 1.6206509720528507E9, 2021-05-10 14:49:32.052
14.0, -67.28453826904297, 118.63523864746094, 144.01980590820312, -1.2584763765335083, -0.09600000083446503, 0.0, 1.055999994277954, 0.0, 0.0, 0.0, 0.0, 0.0, 1.6206509720536237E9, 2021-05-10 14:49:32.053
14.0, -63.76903533935547, 100.92681121826172, 123.07637023925781, -15.372859001159668, -0.09600000083446503, 0.0, 1.055999994277954, 0.0, 0.0, 0.0, 0.0, 0.0, 1.6206509720536237E9, 2021-05-10 14:49:32.053
15.0, -85.20240020751953, 136.5904998779297, 123.18108367919922, -9.329180717468262, -0.09600000083446503, 0.0, 1.055999994277954, 0.0, 0.0, 0.0, 0.0, 0.0, 1.6206509720802064E9, 2021-05-10 14:49:32.080
15.0, -63.39130401611328, 134.9337158203125, 144.95852661132812, 10.193097114562988, -0.09600000083446503, 0.0, 1.055999994277954, 0.0, 0.0, 0.0, 0.0, 0.0, 1.6206509720802064E9, 2021-05-10 14:49:32.080
16.0, -64.34871673583984, 138.01165771484375, 134.65884399414062, -12.766148567199707, -0.09600000083446503, 0.0, 1.055999994277954, 0.0, 0.0, 0.0, 0.0, 0.0, 1.6206509720808067E9, 2021-05-10 14:49:32.080
16.0, -79.74962615966797, 118.90451049804688, 120.26022338867188, -12.814766883850098, -0.09600000083446503, 0.0, 1.055999994277954, 0.0, 0.0, 0.0, 0.0, 0.0, 1.6206509720808067E9, 2021-05-10 14:49:32.080
17.0, -84.83963012695312, 102.25821685791016, 119.60574340820312, -18.23014259338379, -0.09600000083446503, 0.0, 1.055999994277954, 0.0, 0.0, 0.0, 0.0, 0.0, 1.6206509720947757E9, 2021-05-10 14:49:32.094
17.0, -66.60013580322266, 146.60594177246094, 143.7542724609375, -4.59072732925415, -0.09600000083446503, 0.0, 1.055999994277954, 0.0, 0.0, 0.0, 0.0, 0.0, 1.6206509720947757E9, 2021-05-10 14:49:32.094
18.0, -76.6455078125, 131.4219512939453, 129.00784301757812, -24.120485305786133, -0.09600000083446503, 0.0, 1.055999994277954, 0.0, 0.0, 0.0, 0.0, 0.0, 1.6206509721101143E9, 2021-05-10 14:49:32.110
18.0, -87.55105590820312, 111.61544799804688, 111.12364959716797, -35.134490966796875, -0.09600000083446503, 0.0, 1.055999994277954, 0.0, 0.0, 0.0, 0.0, 0.0, 1.6206509721101143E9, 2021-05-10 14:49:32.110
19.0, -70.37743377685547, 128.6656494140625, 120.65291595458984, -18.196483612060547, -0.09600000083446503, 0.0, 1.055999994277954, 0.0, 0.0, 0.0, 0.0, 0.0, 1.6206509721106932E9, 2021-05-10 14:49:32.110
19.0, -70.95338439941406, 118.5118179321289, 140.80349731445312, -6.1465253829956055, -0.09600000083446503, 0.0, 1.055999994277954, 0.0, 0.0, 0.0, 0.0, 0.0, 1.6206509721106932E9, 2021-05-10 14:49:32.110
20.0, -74.46141052246094, 153.56964111328125, 147.13888549804688, -20.975229263305664, -0.09600000083446503, 0.0, 1.055999994277954, 0.0, 0.0, 0.0, 0.0, 0.0, 1.620650972125151E9, 2021-05-10 14:49:32.125
20.0, -90.40086364746094, 133.8304443359375, 125.94486999511719, -35.078392028808594, -0.09600000083446503, 0.0, 1.055999994277954, 0.0, 0.0, 0.0, 0.0, 0.0, 1.620650972125151E9, 2021-05-10 14:49:32.125
21.0, -78.64635467529297, 132.59628295898438, 131.05357360839844, -19.879438400268555, -0.09600000083446503, 0.0, 1.055999994277954, 0.0, 0.0, 0.0, 0.0, 0.0, 1.6206509721258638E9, 2021-05-10 14:49:32.125
21.0, -52.01826858520508, 127.19586944580078, 145.66909790039062, -9.61715316772461, -0.09600000083446503, 0.0, 1.055999994277954, 0.0, 0.0, 0.0, 0.0, 0.0, 1.6206509721258638E9, 2021-05-10 14:49:32.125
22.0, -66.7684326171875, 138.90174865722656, 136.5100860595703, -12.885825157165527, -0.09600000083446503, 0.0, 1.055999994277954, 0.0, 0.0, 0.0, 0.0, 0.0, 1.6206509721393466E9, 2021-05-10 14:49:32.139
22.0, -80.32183074951172, 122.09838104248047, 119.0185775756836, -19.060400009155273, -0.09600000083446503, 0.0, 1.055999994277954, 0.0, 0.0, 0.0, 0.0, 0.0, 1.6206509721393466E9, 2021-05-10 14:49:32.139
23.0, -83.09309387207031, 110.81510925292969, 122.36578369140625, -9.721869468688965, -0.09600000083446503, 0.0, 1.055999994277954, 0.0, 0.0, 0.0, 0.0, 0.0, 1.6206509721550813E9, 2021-05-10 14:49:32.155
23.0, -75.35150146484375, 133.7107696533203, 138.60443115234375, -2.5637013912200928, -0.09600000083446503, 0.0, 1.055999994277954, 0.0, 0.0, 0.0, 0.0, 0.0, 1.6206509721550813E9, 2021-05-10 14:49:32.155
24.0, -71.6228256225586, 141.56829833984375, 141.36073303222656, -2.8254945278167725, -0.09600000083446503, 0.0, 1.055999994277954, 0.0, 0.0, 0.0, 0.0, 0.0, 1.6206509721558583E9, 2021-05-10 14:49:32.155
24.0, -88.45237731933594, 127.12854766845703, 110.82445526123047, -20.975229263305664, -0.09600000083446503, 0.0, 1.055999994277954, 0.0, 0.0, 0.0, 0.0, 0.0, 1.6206509721558583E9, 2021-05-10 14:49:32.155
25.0, -78.50798034667969, 126.3543930053711, 117.75074768066406, -5.922131538391113, -0.09600000083446503, 0.0, 1.055999994277954, 0.0, 0.0, 0.0, 0.0, 0.0, 1.6206509721693387E9, 2021-05-10 14:49:32.169
25.0, -76.11444091796875, 134.28297424316406, 138.5745086669922, -13.918037414550781, -0.09600000083446503, 0.0, 1.055999994277954, 0.0, 0.0, 0.0, 0.0, 0.0, 1.6206509721693387E9, 2021-05-10 14:49:32.169
26.0, -60.2722282409668, 114.06881713867188, 143.65328979492188, -10.48854923248291, -0.09600000083446503, 0.0, 1.055999994277954, 0.0, 0.0, 0.0, 0.0, 0.0, 1.6206509721998813E9, 2021-05-10 14:49:32.199
26.0, -78.9118881225586, 120.4603042602539, 121.91699981689453, -19.67000389099121, -0.09600000083446503, 0.0, 1.055999994277954, 0.0, 0.0, 0.0, 0.0, 0.0, 1.6206509721998813E9, 2021-05-10 14:49:32.199
27.0, -71.59664154052734, 126.27959442138672, 126.06454467773438, -26.988988876342773, -0.09600000083446503, 0.0, 1.055999994277954, 0.0, 0.0, 0.0, 0.0, 0.0, 1.6206509722165463E9, 2021-05-10 14:49:32.216
27.0, -65.72126007080078, 125.72234344482422, 145.7513885498047, -18.450796127319336, -0.09600000083446503, 0.0, 1.055999994277954, 0.0, 0.0, 0.0, 0.0, 0.0, 1.6206509722165463E9, 2021-05-10 14:49:32.216
28.0, -64.18790435791016, 144.3507843017578, 141.05032348632812, -22.09345817565918, -0.09600000083446503, 0.0, 1.055999994277954, 0.0, 0.0, 0.0, 0.0, 0.0, 1.6206509722171648E9, 2021-05-10 14:49:32.217
28.0, -73.94904327392578, 117.60676574707031, 115.83218383789062, -44.76099395751953, -0.09600000083446503, 0.0, 1.055999994277954, 0.0, 0.0, 0.0, 0.0, 0.0, 1.6206509722171648E9, 2021-05-10 14:49:32.217
29.0, -83.94205474853516, 117.73391723632812, 118.3192138671875, -34.57350540161133, -0.09600000083446503, 0.0, 1.055999994277954, 0.0, 0.0, 0.0, 0.0, 0.0, 1.6206509722179568E9, 2021-05-10 14:49:32.217
29.0, -60.261009216308594, 138.3258056640625, 141.77586364746094, -7.8294806480407715, -0.09600000083446503, 0.0, 1.055999994277954, 0.0, 0.0, 0.0, 0.0, 0.0, 1.6206509722179568E9, 2021-05-10 14:49:32.217
30.0, -75.13085174560547, 127.34172058105469, 135.70974731445312, -13.592666625976562, -0.09600000083446503, 0.0, 1.055999994277954, 0.0, 0.0, 0.0, 0.0, 0.0, 1.62065097221868E9, 2021-05-10 14:49:32.218
30.0, -82.40869903564453, 128.5871124267578, 116.04161834716797, -23.02843475341797, -0.09600000083446503, 0.0, 1.055999994277954, 0.0, 0.0, 0.0, 0.0, 0.0, 1.62065097221868E9, 2021-05-10 14:49:32.218
31.0, -98.92035675048828, 132.15872192382812, 111.10868835449219, -14.83431339263916, -0.09600000083446503, 0.0, 1.055999994277954, 0.0, 0.0, 0.0, 0.0, 0.0, 1.620650972229391E9, 2021-05-10 14:49:32.229
31.0, -81.46623992919922, 136.852294921875, 125.6082763671875, -13.185017585754395, -0.09600000083446503, 0.0, 1.055999994277954, 0.0, 0.0, 0.0, 0.0, 0.0, 1.620650972229391E9, 2021-05-10 14:49:32.229
32.0, -70.5606918334961, 132.78701782226562, 126.43479919433594, -7.563947677612305, -0.09600000083446503, 0.0, 1.055999994277954, 0.0, 0.0, 0.0, 0.0, 0.0, 1.6206509722448165E9, 2021-05-10 14:49:32.244
32.0, -88.0297622680664, 106.13275146484375, 105.19216918945312, -13.573966979980469, -0.09600000083446503, 0.0, 1.055999994277954, 0.0, 0.0, 0.0, 0.0, 0.0, 1.6206509722448165E9, 2021-05-10 14:49:32.244
33.0, -72.62511444091797, 104.10198211669922, 110.10265350341797, -4.527148723602295, -0.09600000083446503, 0.0, 1.055999994277954, 0.0, 0.0, 0.0, 0.0, 0.0, 1.6206509722768905E9, 2021-05-10 14:49:32.276
33.0, -60.66117858886719, 131.6239013671875, 138.5520782470703, 9.59471321105957, -0.09600000083446503, 0.0, 1.055999994277954, 0.0, 0.0, 0.0, 0.0, 0.0, 1.6206509722768905E9, 2021-05-10 14:49:32.276
34.0, -76.2640380859375, 121.54862213134766, 129.96900939941406, -3.767949104309082, -0.09600000083446503, 0.0, 1.055999994277954, 0.0, 0.0, 0.0, 0.0, 0.0, 1.6206509722775962E9, 2021-05-10 14:49:32.277
34.0, -81.22689056396484, 97.04853057861328, 115.10289764404297, -23.82503318786621, -0.09600000083446503, 0.0, 1.055999994277954, 0.0, 0.0, 0.0, 0.0, 0.0, 1.6206509722775962E9, 2021-05-10 14:49:32.277
35.0, -68.1484603881836, 133.82296752929688, 120.2490005493164, -21.566133499145508, -0.09600000083446503, 0.0, 1.055999994277954, 0.0, 0.0, 0.0, 0.0, 0.0, 1.6206509722915103E9, 2021-05-10 14:49:32.291
35.0, -74.98499298095703, 142.3125457763672, 136.61480712890625, -6.976783275604248, -0.09600000083446503, 0.0, 1.055999994277954, 0.0, 0.0, 0.0, 0.0, 0.0, 1.6206509722915103E9, 2021-05-10 14:49:32.291
36.0, -84.98175048828125, 132.439208984375, 133.98565673828125, -23.18177032470703, -0.09600000083446503, 0.0, 1.055999994277954, 0.0, 0.0, 0.0, 0.0, 0.0, 1.6206509722923045E9, 2021-05-10 14:49:32.292
36.0, -80.37045288085938, 115.62835693359375, 116.6886215209961, -40.87523651123047, -0.09600000083446503, 0.0, 1.055999994277954, 0.0, 0.0, 0.0, 0.0, 0.0, 1.6206509722923045E9, 2021-05-10 14:49:32.292
37.0, -80.52378845214844, 124.74623107910156, 118.35661315917969, -42.08696365356445, -0.09600000083446503, 0.0, 1.055999994277954, 0.0, 0.0, 0.0, 0.0, 0.0, 1.6206509722930448E9, 2021-05-10 14:49:32.293
37.0, -54.6436767578125, 148.70777893066406, 140.33599853515625, -24.154144287109375, -0.09600000083446503, 0.0, 1.055999994277954, 0.0, 0.0, 0.0, 0.0, 0.0, 1.6206509722930448E9, 2021-05-10 14:49:32.293
38.0, -70.47467803955078, 140.11721801757812, 135.64991760253906, -33.5637321472168, -0.09600000083446503, 0.0, 1.055999994277954, 0.0, 0.0, 0.0, 0.0, 0.0, 1.620650972293798E9, 2021-05-10 14:49:32.293
38.0, -79.77206420898438, 118.7661361694336, 122.99783325195312, -32.55022048950195, -0.09600000083446503, 0.0, 1.055999994277954, 0.0, 0.0, 0.0, 0.0, 0.0, 1.620650972293798E9, 2021-05-10 14:49:32.293
39.0, -65.44824981689453, 136.4334259033203, 132.76644897460938, -22.239315032958984, -0.09600000083446503, 0.0, 1.055999994277954, 0.0, 0.0, 0.0, 0.0, 0.0, 1.6206509723200324E9, 2021-05-10 14:49:32.320
39.0, -57.28778839111328, 152.63092041015625, 151.74644470214844, -10.185617446899414, -0.09600000083446503, 0.0, 1.055999994277954, 0.0, 0.0, 0.0, 0.0, 0.0, 1.6206509723200324E9, 2021-05-10 14:49:32.320
40.0, -74.19961547851562, 141.32147216796875, 124.51622772216797, -29.692935943603516, -0.09600000083446503, 0.0, 1.055999994277954, 0.0, 0.0, 0.0, 0.0, 0.0, 1.6206509723207598E9, 2021-05-10 14:49:32.320
40.0, -77.20649719238281, 116.51097106933594, 114.62419128417969, -21.820446014404297, -0.09600000083446503, 0.0, 1.055999994277954, 0.0, 0.0, 0.0, 0.0, 0.0, 1.6206509723207598E9, 2021-05-10 14:49:32.320
41.0, -82.98090362548828, 115.52364349365234, 115.61901092529297, -12.945663452148438, -0.09600000083446503, 0.0, 1.055999994277954, 0.0, 0.0, 0.0, 0.0, 0.0, 1.6206509723351138E9, 2021-05-10 14:49:32.335
41.0, -73.36187744140625, 121.22698974609375, 122.65001678466797, -1.004163146018982, -0.09600000083446503, 0.0, 1.055999994277954, 0.0, 0.0, 0.0, 0.0, 0.0, 1.6206509723351138E9, 2021-05-10 14:49:32.335
42.0, -80.98753356933594, 125.13518524169922, 126.67041015625, 5.420985221862793, -0.09600000083446503, 0.0, 1.055999994277954, 0.0, 0.0, 0.0, 0.0, 0.0, 1.6206509723358443E9, 2021-05-10 14:49:32.335
42.0, -75.18695068359375, 128.706787109375, 112.06236267089844, -7.414351463317871, -0.09600000083446503, 0.0, 1.055999994277954, 0.0, 0.0, 0.0, 0.0, 0.0, 1.6206509723358443E9, 2021-05-10 14:49:32.335
43.0, -65.88955688476562, 123.87483978271484, 113.15814971923828, -0.6675721406936646, -0.09600000083446503, 0.0, 1.055999994277954, 0.0, 0.0, 0.0, 0.0, 0.0, 1.6206509723493521E9, 2021-05-10 14:49:32.349
43.0, -83.07814025878906, 135.58071899414062, 126.51333618164062, -2.1784918308258057, -0.09600000083446503, 0.0, 1.055999994277954, 0.0, 0.0, 0.0, 0.0, 0.0, 1.6206509723493521E9, 2021-05-10 14:49:32.349
44.0, -91.77340698242188, 131.56407165527344, 123.18482208251953, -15.354159355163574, -0.09600000083446503, 0.0, 1.055999994277954, 0.0, 0.0, 0.0, 0.0, 0.0, 1.6206509723654563E9, 2021-05-10 14:49:32.365
44.0, -87.25934600830078, 119.97038269042969, 112.81407928466797, -17.84867286682129, -0.09600000083446503, 0.0, 1.055999994277954, 0.0, 0.0, 0.0, 0.0, 0.0, 1.6206509723654563E9, 2021-05-10 14:49:32.365
45.0, -89.10685729980469, 122.01984405517578, 114.67281341552734, -18.727548599243164, -0.09600000083446503, 0.0, 1.055999994277954, 0.0, 0.0, 0.0, 0.0, 0.0, 1.6206509723801975E9, 2021-05-10 14:49:32.380
45.0, -70.20914459228516, 136.98692321777344, 137.5310821533203, 1.3893728256225586, -0.09600000083446503, 0.0, 1.055999994277954, 0.0, 0.0, 0.0, 0.0, 0.0, 1.6206509723801975E9, 2021-05-10 14:49:32.380
46.0, -84.98548889160156, 125.31843566894531, 133.44337463378906, -26.300846099853516, -0.09600000083446503, 0.0, 1.055999994277954, 0.0, 0.0, 0.0, 0.0, 0.0, 1.6206509723808415E9, 2021-05-10 14:49:32.380
46.0, -88.7927017211914, 121.23072814941406, 106.89008331298828, -50.96174621582031, -0.09600000083446503, 0.0, 1.055999994277954, 0.0, 0.0, 0.0, 0.0, 0.0, 1.6206509723808415E9, 2021-05-10 14:49:32.380
47.0, -80.20215606689453, 129.23037719726562, 112.36903381347656, -36.07694625854492, -0.09600000083446503, 0.0, 1.055999994277954, 0.0, 0.0, 0.0, 0.0, 0.0, 1.6206509723951244E9, 2021-05-10 14:49:32.395
47.0, -74.7605972290039, 144.93795776367188, 127.11920166015625, -23.765193939208984, -0.09600000083446503, 0.0, 1.055999994277954, 0.0, 0.0, 0.0, 0.0, 0.0, 1.6206509723951244E9, 2021-05-10 14:49:32.395
48.0, -70.20166015625, 148.2066192626953, 126.37870025634766, -25.30229377746582, -0.09600000083446503, 0.0, 1.055999994277954, 0.0, 0.0, 0.0, 0.0, 0.0, 1.6206509723957903E9, 2021-05-10 14:49:32.395
48.0, -87.34910583496094, 128.59832763671875, 106.39641571044922, -36.11434555053711, -0.09600000083446503, 0.0, 1.055999994277954, 0.0, 0.0, 0.0, 0.0, 0.0, 1.6206509723957903E9, 2021-05-10 14:49:32.395
49.0, -59.023101806640625, 131.78099060058594, 119.25045013427734, -20.545141220092773, -0.09600000083446503, 0.0, 1.055999994277954, 0.0, 0.0, 0.0, 0.0, 0.0, 1.6206509724095216E9, 2021-05-10 14:49:32.409
49.0, -62.15713882446289, 152.33547973632812, 136.00146484375, -17.594358444213867, -0.09600000083446503, 0.0, 1.055999994277954, 0.0, 0.0, 0.0, 0.0, 0.0, 1.6206509724095216E9, 2021-05-10 14:49:32.409
50.0, -68.60846710205078, 132.9889678955078, 138.70167541503906, -8.513882637023926, -0.09600000083446503, 0.0, 1.055999994277954, 0.0, 0.0, 0.0, 0.0, 0.0, 1.6206509724414432E9, 2021-05-10 14:49:32.441
50.0, -86.93023681640625, 151.20602416992188, 121.97683715820312, -23.57071876525879, -0.09600000083446503, 0.0, 1.055999994277954, 0.0, 0.0, 0.0, 0.0, 0.0, 1.6206509724414432E9, 2021-05-10 14:49:32.441
51.0, -85.00792694091797, 129.37623596191406, 123.52141571044922, -21.730688095092773, -0.09600000083446503, 0.0, 1.055999994277954, 0.0, 0.0, 0.0, 0.0, 0.0, 1.620650972442136E9, 2021-05-10 14:49:32.442
51.0, -76.02842712402344, 145.4465789794922, 139.4720916748047, -4.351373672485352, -0.09600000083446503, 0.0, 1.055999994277954, 0.0, 0.0, 0.0, 0.0, 0.0, 1.620650972442136E9, 2021-05-10 14:49:32.442
52.0, -72.54283905029297, 140.6295928955078, 140.1153564453125, -9.112266540527344, -0.09600000083446503, 0.0, 1.055999994277954, 0.0, 0.0, 0.0, 0.0, 0.0, 1.6206509724428928E9, 2021-05-10 14:49:32.442
52.0, -85.6998062133789, 137.08042907714844, 105.8354263305664, -26.345726013183594, -0.09600000083446503, 0.0, 1.055999994277954, 0.0, 0.0, 0.0, 0.0, 0.0, 1.6206509724428928E9, 2021-05-10 14:49:32.442
53.0, -85.90176391601562, 128.0784912109375, 108.73759460449219, -18.346078872680664, -0.09600000083446503, 0.0, 1.055999994277954, 0.0, 0.0, 0.0, 0.0, 0.0, 1.6206509724436145E9, 2021-05-10 14:49:32.443
53.0, -69.4574203491211, 127.38660430908203, 127.99433898925781, -7.029141902923584, -0.09600000083446503, 0.0, 1.055999994277954, 0.0, 0.0, 0.0, 0.0, 0.0, 1.6206509724436145E9, 2021-05-10 14:49:32.443
54.0, -73.33195495605469, 128.71800231933594, 128.17385864257812, -12.107926368713379, -0.09600000083446503, 0.0, 1.055999994277954, 0.0, 0.0, 0.0, 0.0, 0.0, 1.6206509724544415E9, 2021-05-10 14:49:32.454
54.0, -103.23246002197266, 105.79615783691406, 94.84760284423828, -31.791019439697266, -0.09600000083446503, 0.0, 1.055999994277954, 0.0, 0.0, 0.0, 0.0, 0.0, 1.6206509724544415E9, 2021-05-10 14:49:32.454
55.0, -84.07669067382812, 117.35244750976562, 116.40438842773438, -16.274173736572266, -0.09600000083446503, 0.0, 1.055999994277954, 0.0, 0.0, 0.0, 0.0, 0.0, 1.620650972486477E9, 2021-05-10 14:49:32.486
55.0, -62.60966491699219, 146.35537719726562, 131.23309326171875, -19.25487518310547, -0.09600000083446503, 0.0, 1.055999994277954, 0.0, 0.0, 0.0, 0.0, 0.0, 1.620650972486477E9, 2021-05-10 14:49:32.486
56.0, -78.45561981201172, 148.07199096679688, 124.041259765625, -18.102985382080078, -0.09600000083446503, 0.0, 1.055999994277954, 0.0, 0.0, 0.0, 0.0, 0.0, 1.62065097248719E9, 2021-05-10 14:49:32.487
56.0, -89.39856719970703, 143.296142578125, 108.5019760131836, -39.229679107666016, -0.09600000083446503, 0.0, 1.055999994277954, 0.0, 0.0, 0.0, 0.0, 0.0, 1.62065097248719E9, 2021-05-10 14:49:32.487
57.0, -92.80561828613281, 142.63043212890625, 106.91252136230469, -29.030973434448242, -0.09600000083446503, 0.0, 1.055999994277954, 0.0, 0.0, 0.0, 0.0, 0.0, 1.6206509724879189E9, 2021-05-10 14:49:32.487
57.0, -71.73502349853516, 155.4882049560547, 131.98106384277344, -11.06075382232666, -0.09600000083446503, 0.0, 1.055999994277954, 0.0, 0.0, 0.0, 0.0, 0.0, 1.6206509724879189E9, 2021-05-10 14:49:32.487
58.0, -68.60098266601562, 140.67820739746094, 123.60743713378906, -30.51571273803711, -0.09600000083446503, 0.0, 1.055999994277954, 0.0, 0.0, 0.0, 0.0, 0.0, 1.6206509724994085E9, 2021-05-10 14:49:32.499
58.0, -77.41967010498047, 143.18768310546875, 124.92388153076172, -20.45538330078125, -0.09600000083446503, 0.0, 1.055999994277954, 0.0, 0.0, 0.0, 0.0, 0.0, 1.6206509724994085E9, 2021-05-10 14:49:32.499
59.0, -87.53235626220703, 123.65044403076172, 124.14971923828125, -19.056659698486328, -0.09600000083446503, 0.0, 1.055999994277954, 0.0, 0.0, 0.0, 0.0, 0.0, 1.620650972515105E9, 2021-05-10 14:49:32.515
59.0, -68.51496887207031, 138.1649932861328, 139.71517944335938, -3.6183531284332275, -0.09600000083446503, 0.0, 1.055999994277954, 0.0, 0.0, 0.0, 0.0, 0.0, 1.620650972515105E9, 2021-05-10 14:49:32.515
60.0, -64.69278717041016, 152.0250701904297, 135.79576110839844, -16.827680587768555, -0.09600000083446503, 0.0, 1.055999994277954, 0.0, 0.0, 0.0, 0.0, 0.0, 1.6206509725158072E9, 2021-05-10 14:49:32.515
60.0, -71.09549713134766, 132.92913818359375, 119.95355224609375, -22.23557472229004, -0.09600000083446503, 0.0, 1.055999994277954, 0.0, 0.0, 0.0, 0.0, 0.0, 1.6206509725158072E9, 2021-05-10 14:49:32.515
61.0, -80.3779296875, 132.59628295898438, 121.15032196044922, -18.90706443786621, -0.09600000083446503, 0.0, 1.055999994277954, 0.0, 0.0, 0.0, 0.0, 0.0, 1.6206509725458243E9, 2021-05-10 14:49:32.545
61.0, -65.05181884765625, 145.00901794433594, 141.31959533691406, -4.545848369598389, -0.09600000083446503, 0.0, 1.055999994277954, 0.0, 0.0, 0.0, 0.0, 0.0, 1.6206509725458243E9, 2021-05-10 14:49:32.545
62.0, -70.24654388427734, 142.16294860839844, 125.69055938720703, -20.71717643737793, -0.09600000083446503, 0.0, 1.055999994277954, 0.0, 0.0, 0.0, 0.0, 0.0, 1.6206509725465372E9, 2021-05-10 14:49:32.546
62.0, -93.84156799316406, 151.41171264648438, 117.2383804321289, -12.186464309692383, -0.09600000083446503, 0.0, 1.055999994277954, 0.0, 0.0, 0.0, 0.0, 0.0, 1.6206509725465372E9, 2021-05-10 14:49:32.546
63.0, -96.77365112304688, 139.1448516845703, 108.51693725585938, -22.901277542114258, -0.09600000083446503, 0.0, 1.055999994277954, 0.0, 0.0, 0.0, 0.0, 0.0, 1.6206509725472655E9, 2021-05-10 14:49:32.547
63.0, -91.90804290771484, 143.93939208984375, 123.46905517578125, -10.664324760437012, -0.09600000083446503, 0.0, 1.055999994277954, 0.0, 0.0, 0.0, 0.0, 0.0, 1.6206509725472655E9, 2021-05-10 14:49:32.547
64.0, -88.05220794677734, 131.02552795410156, 119.24671173095703, -16.109619140625, -0.09600000083446503, 0.0, 1.055999994277954, 0.0, 0.0, 0.0, 0.0, 0.0, 1.6206509725595186E9, 2021-05-10 14:49:32.559
64.0, -102.16658782958984, 136.1267547607422, 104.3095474243164, -27.564931869506836, -0.09600000083446503, 0.0, 1.055999994277954, 0.0, 0.0, 0.0, 0.0, 0.0, 1.6206509725595186E9, 2021-05-10 14:49:32.559
65.0, -81.60836029052734, 124.29744720458984, 100.22557830810547, -35.40376281738281, -0.09600000083446503, 0.0, 1.055999994277954, 0.0, 0.0, 0.0, 0.0, 0.0, 1.6206509725751474E9, 2021-05-10 14:49:32.575
65.0, -84.04302978515625, 143.7224884033203, 121.15032196044922, -17.485902786254883, -0.09600000083446503, 0.0, 1.055999994277954, 0.0, 0.0, 0.0, 0.0, 0.0, 1.6206509725751474E9, 2021-05-10 14:49:32.575
66.0, -78.85952758789062, 138.98403930664062, 129.1761474609375, -12.459476470947266, -0.09600000083446503, 0.0, 1.055999994277954, 0.0, 0.0, 0.0, 0.0, 0.0, 1.6206509725757854E9, 2021-05-10 14:49:32.575
66.0, -94.63816833496094, 129.43980407714844, 103.65880584716797, -31.53296661376953, -0.09600000083446503, 0.0, 1.055999994277954, 0.0, 0.0, 0.0, 0.0, 0.0, 1.6206509725757854E9, 2021-05-10 14:49:32.575
67.0, -95.27769470214844, 134.19322204589844, 109.0629653930664, -25.522947311401367, -0.09600000083446503, 0.0, 1.055999994277954, 0.0, 0.0, 0.0, 0.0, 0.0, 1.6206509725893657E9, 2021-05-10 14:49:32.589
67.0, -81.0810317993164, 145.04641723632812, 127.62408447265625, -10.12951946258545, -0.09600000083446503, 0.0, 1.055999994277954, 0.0, 0.0, 0.0, 0.0, 0.0, 1.6206509725893657E9, 2021-05-10 14:49:32.589
68.0, -70.39613342285156, 148.47589111328125, 132.19424438476562, -4.59072732925415, -0.09600000083446503, 0.0, 1.055999994277954, 0.0, 0.0, 0.0, 0.0, 0.0, 1.620650972605096E9, 2021-05-10 14:49:32.605
68.0, -86.09249877929688, 109.47248077392578, 107.21171569824219, -16.734182357788086, -0.09600000083446503, 0.0, 1.055999994277954, 0.0, 0.0, 0.0, 0.0, 0.0, 1.620650972605096E9, 2021-05-10 14:49:32.605
69.0, -91.32835388183594, 141.77774047851562, 105.37915802001953, -24.640331268310547, -0.09600000083446503, 0.0, 1.055999994277954, 0.0, 0.0, 0.0, 0.0, 0.0, 1.6206509726057594E9, 2021-05-10 14:49:32.605
69.0, -68.40650939941406, 165.339111328125, 128.27108764648438, -16.01238250732422, -0.09600000083446503, 0.0, 1.055999994277954, 0.0, 0.0, 0.0, 0.0, 0.0, 1.6206509726057594E9, 2021-05-10 14:49:32.605
70.0, -65.81849670410156, 132.603759765625, 118.9811782836914, -22.45623016357422, -0.09600000083446503, 0.0, 1.055999994277954, 0.0, 0.0, 0.0, 0.0, 0.0, 1.6206509726195333E9, 2021-05-10 14:49:32.619
70.0, -87.15088653564453, 146.23196411132812, 107.56700134277344, -25.616445541381836, -0.09600000083446503, 0.0, 1.055999994277954, 0.0, 0.0, 0.0, 0.0, 0.0, 1.6206509726195333E9, 2021-05-10 14:49:32.619
71.0, -75.53849792480469, 140.5360870361328, 102.3610610961914, -26.43922233581543, -0.09600000083446503, 0.0, 1.055999994277954, 0.0, 0.0, 0.0, 0.0, 0.0, 1.620650972635204E9, 2021-05-10 14:49:32.635
71.0, -96.3360824584961, 146.40773010253906, 113.55084228515625, -27.957622528076172, -0.09600000083446503, 0.0, 1.055999994277954, 0.0, 0.0, 0.0, 0.0, 0.0, 1.620650972635204E9, 2021-05-10 14:49:32.635
72.0, -94.53719329833984, 139.0438690185547, 114.69151306152344, -25.306032180786133, -0.09600000083446503, 0.0, 1.055999994277954, 0.0, 0.0, 0.0, 0.0, 0.0, 1.6206509726357667E9, 2021-05-10 14:49:32.635
72.0, -96.66893768310547, 150.59642028808594, 106.16828155517578, -22.05232048034668, -0.09600000083446503, 0.0, 1.055999994277954, 0.0, 0.0, 0.0, 0.0, 0.0, 1.6206509726357667E9, 2021-05-10 14:49:32.635
73.0, -102.91830444335938, 148.31881713867188, 111.19096374511719, -17.11939239501953, -0.09600000083446503, 0.0, 1.055999994277954, 0.0, 0.0, 0.0, 0.0, 0.0, 1.6206509726815295E9, 2021-05-10 14:49:32.681
73.0, -84.71247100830078, 172.43743896484375, 132.3101806640625, -7.52280855178833, -0.09600000083446503, 0.0, 1.055999994277954, 0.0, 0.0, 0.0, 0.0, 0.0, 1.6206509726815295E9, 2021-05-10 14:49:32.681
74.0, -86.22713470458984, 169.22113037109375, 139.0980987548828, -4.773982524871826, -0.09600000083446503, 0.0, 1.055999994277954, 0.0, 0.0, 0.0, 0.0, 0.0, 1.6206509726821828E9, 2021-05-10 14:49:32.682
74.0, -95.87981414794922, 140.04989624023438, 111.08251190185547, -31.417030334472656, -0.09600000083446503, 0.0, 1.055999994277954, 0.0, 0.0, 0.0, 0.0, 0.0, 1.6206509726821828E9, 2021-05-10 14:49:32.682
75.0, -91.93795776367188, 139.728271484375, 120.2078628540039, -12.481916427612305, -0.09600000083446503, 0.0, 1.055999994277954, 0.0, 0.0, 0.0, 0.0, 0.0, 1.6206509726965652E9, 2021-05-10 14:49:32.696
75.0, -57.54209899902344, 179.16925048828125, 141.39065551757812, -0.5478953719139099, -0.09600000083446503, 0.0, 1.055999994277954, 0.0, 0.0, 0.0, 0.0, 0.0, 1.6206509726965652E9, 2021-05-10 14:49:32.696
76.0, -97.5253677368164, 145.00526428222656, 127.32489776611328, -19.894397735595703, -0.09600000083446503, 0.0, 1.055999994277954, 0.0, 0.0, 0.0, 0.0, 0.0, 1.6206509726972685E9, 2021-05-10 14:49:32.697
76.0, -82.65927124023438, 157.35067749023438, 123.60743713378906, -10.421231269836426, -0.09600000083446503, 0.0, 1.055999994277954, 0.0, 0.0, 0.0, 0.0, 0.0, 1.6206509726972685E9, 2021-05-10 14:49:32.697
77.0, -86.46648406982422, 141.770263671875, 119.53094482421875, -13.652504920959473, -0.09600000083446503, 0.0, 1.055999994277954, 0.0, 0.0, 0.0, 0.0, 0.0, 1.6206509726978817E9, 2021-05-10 14:49:32.697
77.0, -82.84626007080078, 165.47373962402344, 126.17300415039062, -18.592912673950195, -0.09600000083446503, 0.0, 1.055999994277954, 0.0, 0.0, 0.0, 0.0, 0.0, 1.6206509726978817E9, 2021-05-10 14:49:32.697
78.0, -67.00030517578125, 172.63938903808594, 135.6573944091797, -3.2331435680389404, -0.09600000083446503, 0.0, 1.055999994277954, 0.0, 0.0, 0.0, 0.0, 0.0, 1.62065097269866E9, 2021-05-10 14:49:32.698
78.0, -83.60546112060547, 148.1767120361328, 107.11821746826172, -20.29082679748535, -0.09600000083446503, 0.0, 1.055999994277954, 0.0, 0.0, 0.0, 0.0, 0.0, 1.62065097269866E9, 2021-05-10 14:49:32.698
79.0, -86.38420867919922, 134.87388610839844, 103.19879913330078, -23.963409423828125, -0.09600000083446503, 0.0, 1.055999994277954, 0.0, 0.0, 0.0, 0.0, 0.0, 1.6206509727093446E9, 2021-05-10 14:49:32.709
79.0, -70.89728546142578, 152.54864501953125, 125.90373229980469, -2.541261911392212, -0.09600000083446503, 0.0, 1.055999994277954, 0.0, 0.0, 0.0, 0.0, 0.0, 1.6206509727093446E9, 2021-05-10 14:49:32.709
80.0, -63.077152252197266, 145.326904296875, 123.43165588378906, -3.7268102169036865, -0.09600000083446503, 0.0, 1.055999994277954, 0.0, 0.0, 0.0, 0.0, 0.0, 1.620650972725204E9, 2021-05-10 14:49:32.725
80.0, -100.23680114746094, 143.15402221679688, 92.68219757080078, -32.86063003540039, -0.09600000083446503, 0.0, 1.055999994277954, 0.0, 0.0, 0.0, 0.0, 0.0, 1.620650972725204E9, 2021-05-10 14:49:32.725
81.0, -84.31604766845703, 146.87521362304688, 101.54950714111328, -23.71283531188965, -0.09600000083446503, 0.0, 1.055999994277954, 0.0, 0.0, 0.0, 0.0, 0.0, 1.62065097272598E9, 2021-05-10 14:49:32.725
81.0, -67.07510375976562, 163.16622924804688, 128.02426147460938, -11.094412803649902, -0.09600000083446503, 0.0, 1.055999994277954, 0.0, 0.0, 0.0, 0.0, 0.0, 1.62065097272598E9, 2021-05-10 14:49:32.725
82.0, -76.45103454589844, 156.2511444091797, 119.30281066894531, -22.590866088867188, -0.09600000083446503, 0.0, 1.055999994277954, 0.0, 0.0, 0.0, 0.0, 0.0, 1.6206509727393227E9, 2021-05-10 14:49:32.739
82.0, -81.72803497314453, 144.2236328125, 104.9902114868164, -28.90007781982422, -0.09600000083446503, 0.0, 1.055999994277954, 0.0, 0.0, 0.0, 0.0, 0.0, 1.6206509727393227E9, 2021-05-10 14:49:32.739
83.0, -80.88655853271484, 138.81573486328125, 111.09746551513672, -24.33365821838379, -0.09600000083446503, 0.0, 1.055999994277954, 0.0, 0.0, 0.0, 0.0, 0.0, 1.6206509727555065E9, 2021-05-10 14:49:32.755
83.0, -50.71678161621094, 150.06161499023438, 132.32139587402344, -12.119145393371582, -0.09600000083446503, 0.0, 1.055999994277954, 0.0, 0.0, 0.0, 0.0, 0.0, 1.6206509727555065E9, 2021-05-10 14:49:32.755
84.0, -71.71632385253906, 148.1355743408203, 119.79273223876953, -25.908157348632812, -0.09600000083446503, 0.0, 1.055999994277954, 0.0, 0.0, 0.0, 0.0, 0.0, 1.6206509727700589E9, 2021-05-10 14:49:32.770
84.0, -92.01649475097656, 152.7506103515625, 105.64469146728516, -26.68605613708496, -0.09600000083446503, 0.0, 1.055999994277954, 0.0, 0.0, 0.0, 0.0, 0.0, 1.6206509727700589E9, 2021-05-10 14:49:32.770
85.0, -81.73551177978516, 156.45310974121094, 120.61925506591797, -4.643085956573486, -0.09600000083446503, 0.0, 1.055999994277954, 0.0, 0.0, 0.0, 0.0, 0.0, 1.620650972770909E9, 2021-05-10 14:49:32.770
85.0, -73.70968627929688, 162.7062225341797, 130.50381469726562, -3.5098960399627686, -0.09600000083446503, 0.0, 1.055999994277954, 0.0, 0.0, 0.0, 0.0, 0.0, 1.620650972770909E9, 2021-05-10 14:49:32.770
86.0, -72.34088134765625, 157.60125732421875, 130.47015380859375, -10.4287109375, -0.09600000083446503, 0.0, 1.055999994277954, 0.0, 0.0, 0.0, 0.0, 0.0, 1.620650972785182E9, 2021-05-10 14:49:32.785
86.0, -79.00164794921875, 148.67037963867188, 107.85497283935547, -26.69353675842285, -0.09600000083446503, 0.0, 1.055999994277954, 0.0, 0.0, 0.0, 0.0, 0.0, 1.620650972785182E9, 2021-05-10 14:49:32.785
87.0, -82.46105194091797, 157.8368682861328, 115.19265747070312, -15.615952491760254, -0.09600000083446503, 0.0, 1.055999994277954, 0.0, 0.0, 0.0, 0.0, 0.0, 1.6206509727858863E9, 2021-05-10 14:49:32.785
87.0, -76.46599578857422, 154.9085235595703, 133.95199584960938, -5.533182144165039, -0.09600000083446503, 0.0, 1.055999994277954, 0.0, 0.0, 0.0, 0.0, 0.0, 1.6206509727858863E9, 2021-05-10 14:49:32.785
88.0, -79.62246704101562, 158.3006134033203, 135.77333068847656, -7.264755725860596, -0.09600000083446503, 0.0, 1.055999994277954, 0.0, 0.0, 0.0, 0.0, 0.0, 1.6206509727995064E9, 2021-05-10 14:49:32.799
88.0, -92.89537811279297, 139.79559326171875, 110.3719253540039, -27.340538024902344, -0.09600000083446503, 0.0, 1.055999994277954, 0.0, 0.0, 0.0, 0.0, 0.0, 1.6206509727995064E9, 2021-05-10 14:49:32.799
89.0, -84.9742660522461, 151.80067443847656, 121.93196105957031, -11.928410530090332, -0.09600000083446503, 0.0, 1.055999994277954, 0.0, 0.0, 0.0, 0.0, 0.0, 1.62065097281524E9, 2021-05-10 14:49:32.815
89.0, -78.44440460205078, 129.06207275390625, 128.93679809570312, -6.359699726104736, -0.09600000083446503, 0.0, 1.055999994277954, 0.0, 0.0, 0.0, 0.0, 0.0, 1.62065097281524E9, 2021-05-10 14:49:32.815
90.0, -73.62367248535156, 157.709716796875, 131.59959411621094, -4.97219705581665, -0.09600000083446503, 0.0, 1.040000081062317, 0.0, 0.0, 0.0, 0.0, 0.0, 1.62065097281582E9, 2021-05-10 14:49:32.815
90.0, -90.77111053466797, 158.99249267578125, 100.0722427368164, -30.15668296813965, -0.09600000083446503, 0.0, 1.040000081062317, 0.0, 0.0, 0.0, 0.0, 0.0, 1.62065097281582E9, 2021-05-10 14:49:32.815
91.0, -97.06536102294922, 158.5511932373047, 96.93072509765625, -29.390003204345703, -0.09600000083446503, 0.0, 1.040000081062317, 0.0, 0.0, 0.0, 0.0, 0.0, 1.620650972829366E9, 2021-05-10 14:49:32.829
91.0, -68.67204284667969, 162.33970642089844, 121.30365753173828, -15.492535591125488, -0.09600000083446503, 0.0, 1.040000081062317, 0.0, 0.0, 0.0, 0.0, 0.0, 1.620650972829366E9, 2021-05-10 14:49:32.829
92.0, -84.19636535644531, 165.8813934326172, 122.76221466064453, -16.438730239868164, -0.09600000083446503, 0.0, 1.040000081062317, 0.0, 0.0, 0.0, 0.0, 0.0, 1.620650972845157E9, 2021-05-10 14:49:32.845
92.0, -92.91781616210938, 157.98646545410156, 105.80924987792969, -22.804040908813477, -0.09600000083446503, 0.0, 1.040000081062317, 0.0, 0.0, 0.0, 0.0, 0.0, 1.620650972845157E9, 2021-05-10 14:49:32.845
93.0, -92.97391510009766, 138.8793182373047, 108.35237884521484, -29.09081268310547, -0.09600000083446503, 0.0, 1.040000081062317, 0.0, 0.0, 0.0, 0.0, 0.0, 1.6206509728458323E9, 2021-05-10 14:49:32.845
93.0, -75.5197982788086, 164.54251098632812, 132.40367126464844, -10.82140064239502, -0.09600000083446503, 0.0, 1.040000081062317, 0.0, 0.0, 0.0, 0.0, 0.0, 1.6206509728458323E9, 2021-05-10 14:49:32.845
