Sample Index, EXG Channel 0, EXG Channel 1, EXG Channel 2, EXG Channel 3, Accel Channel 0, Accel Channel 1, Accel Channel 2, Other, Other, Other, Other, Other, Timestamp, Timestamp (Formatted)
0.0, -69.75474548339844, 111.54999542236328, 100.89875793457031, 61.461517333984375, 0.0, 0.0, 0.0, 0.0, 0.0, 0.0, 0.0, 0.0, 1.6206506686811411E9, 2021-05-10 14:44:28.681
1.0, -73.4048843383789, 119.04475402832031, 90.41956329345703, 43.981224060058594, 0.0, 0.0, 0.0, 0.0, 0.0, 0.0, 0.0, 0.0, 1.620650668682748E9, 2021-05-10 14:44:28.682
1.0, -68.7412338256836, 102.88838958740234, 86.71331787109375, 48.25218963623047, 0.0, 0.0, 0.0, 0.0, 0.0, 0.0, 0.0, 0.0, 1.620650668682748E9, 2021-05-10 14:44:28.682
2.0, -56.979244232177734, 108.66279602050781, 103.29229736328125, 62.44511032104492, -0.12800000607967377, 0.0, 0.0, 0.0, 0.0, 0.0, 0.0, 0.0, 1.6206506686946192E9, 2021-05-10 14:44:28.694
2.0, -70.55134582519531, 145.54568481445312, 98.74832153320312, 40.734989166259766, -0.12800000607967377, 0.0, 0.0, 0.0, 0.0, 0.0, 0.0, 0.0, 1.6206506686946192E9, 2021-05-10 14:44:28.694
3.0, -91.38632202148438, 102.04316711425781, 78.14147186279297, 43.92512512207031, -0.12800000607967377, 0.0, 0.0, 0.0, 0.0, 0.0, 0.0, 0.0, 1.620650668695268E9, 2021-05-10 14:44:28.695
3.0, -90.61590576171875, 120.81746673583984, 69.54718017578125, 20.92099952697754, -0.12800000607967377, 0.0, 0.0, 0.0, 0.0, 0.0, 0.0, 0.0, 1.620650668695268E9, 2021-05-10 14:44:28.695
4.0, -71.392822265625, 148.86671447753906, 93.25440216064453, 45.929710388183594, -0.12800000607967377, 0.0, 0.0, 0.0, 0.0, 0.0, 0.0, 0.0, 1.6206506687099304E9, 2021-05-10 14:44:28.709
4.0, -61.77753829956055, 142.08253479003906, 99.32052612304688, 54.72221755981445, -0.12800000607967377, 0.0, 0.0, 0.0, 0.0, 0.0, 0.0, 0.0, 1.6206506687099304E9, 2021-05-10 14:44:28.709
5.0, -87.51927185058594, 110.12135314941406, 77.39348602294922, 31.40019989013672, -0.12800000607967377, 0.0, 0.0, 0.0, 0.0, 0.0, 0.0, 0.0, 1.6206506687556045E9, 2021-05-10 14:44:28.755
5.0, -75.13645935058594, 107.73529815673828, 78.04048919677734, 37.021270751953125, -0.12800000607967377, 0.0, 0.0, 0.0, 0.0, 0.0, 0.0, 0.0, 1.6206506687556045E9, 2021-05-10 14:44:28.755
6.0, -71.69200897216797, 128.84703063964844, 97.74602508544922, 59.206356048583984, -0.12800000607967377, 0.0, 0.0, 0.0, 0.0, 0.0, 0.0, 0.0, 1.6206506687563343E9, 2021-05-10 14:44:28.756
6.0, -50.12400817871094, 142.2657928466797, 120.86235046386719, 67.62113189697266, -0.12800000607967377, 0.0, 0.0, 0.0, 0.0, 0.0, 0.0, 0.0, 1.6206506687563343E9, 2021-05-10 14:44:28.756
7.0, -85.7652587890625, 113.04969787597656, 83.93831634521484, 34.152767181396484, -0.12800000607967377, 0.0, 0.0, 0.0, 0.0, 0.0, 0.0, 0.0, 1.620650668772662E9, 2021-05-10 14:44:28.772
7.0, -86.1280288696289, 104.7321548461914, 75.27670288085938, 44.95359802246094, -0.12800000607967377, 0.0, 0.0, 0.0, 0.0, 0.0, 0.0, 0.0, 1.620650668772662E9, 2021-05-10 14:44:28.772
8.0, -57.91796112060547, 142.96890258789062, 102.30496215820312, 44.508548736572266, -0.12800000607967377, 0.0, 0.0, 0.0, 0.0, 0.0, 0.0, 0.0, 1.6206506687733521E9, 2021-05-10 14:44:28.773
8.0, -54.35009765625, 125.57462310791016, 109.80720520019531, 51.229148864746094, -0.12800000607967377, 0.0, 0.0, 0.0, 0.0, 0.0, 0.0, 0.0, 1.6206506687733521E9, 2021-05-10 14:44:28.773
9.0, -80.17410278320312, 132.41490173339844, 88.74408721923828, 40.82474899291992, -0.12800000607967377, 0.0, 0.0, 0.0, 0.0, 0.0, 0.0, 0.0, 1.6206506687740996E9, 2021-05-10 14:44:28.774
9.0, -81.17639923095703, 131.17324829101562, 80.3779296875, 30.532543182373047, -0.12800000607967377, 0.0, 0.0, 0.0, 0.0, 0.0, 0.0, 0.0, 1.6206506687740996E9, 2021-05-10 14:44:28.774
10.0, -62.12908935546875, 118.49124908447266, 102.10301208496094, 42.57501983642578, -0.12800000607967377, 0.0, 1.055999994277954, 0.0, 0.0, 0.0, 0.0, 0.0, 1.6206506687748196E9, 2021-05-10 14:44:28.774
10.0, -59.45880126953125, 146.1627655029297, 107.60813903808594, 51.40118408203125, -0.12800000607967377, 0.0, 1.055999994277954, 0.0, 0.0, 0.0, 0.0, 0.0, 1.6206506687748196E9, 2021-05-10 14:44:28.774
11.0, -77.95260620117188, 120.78755187988281, 76.82876586914062, 31.284263610839844, -0.12800000607967377, 0.0, 1.055999994277954, 0.0, 0.0, 0.0, 0.0, 0.0, 1.6206506688009176E9, 2021-05-10 14:44:28.800
11.0, -79.89361572265625, 114.77752685546875, 73.78448486328125, 28.165185928344727, -0.12800000607967377, 0.0, 1.055999994277954, 0.0, 0.0, 0.0, 0.0, 0.0, 1.6206506688009176E9, 2021-05-10 14:44:28.800
12.0, -61.2053337097168, 136.1248779296875, 97.11398315429688, 46.10922622680664, -0.1120000034570694, 0.0, 1.055999994277954, 0.0, 0.0, 0.0, 0.0, 0.0, 1.6206506688015645E9, 2021-05-10 14:44:28.801
12.0, -72.6419448852539, 128.09530639648438, 100.92494201660156, 59.07545852661133, -0.1120000034570694, 0.0, 1.055999994277954, 0.0, 0.0, 0.0, 0.0, 0.0, 1.6206506688015645E9, 2021-05-10 14:44:28.801
13.0, -81.78226470947266, 97.4019546508789, 86.66470336914062, 39.18292999267578, -0.1120000034570694, 0.0, 1.055999994277954, 0.0, 0.0, 0.0, 0.0, 0.0, 1.6206506688022697E9, 2021-05-10 14:44:28.802
13.0, -82.75089263916016, 131.13958740234375, 74.68206024169922, 35.57392883300781, -0.1120000034570694, 0.0, 1.055999994277954, 0.0, 0.0, 0.0, 0.0, 0.0, 1.6206506688022697E9, 2021-05-10 14:44:28.802
14.0, -67.2602310180664, 146.73497009277344, 94.6867904663086, 68.38780975341797, -0.1120000034570694, 0.0, 1.055999994277954, 0.0, 0.0, 0.0, 0.0, 0.0, 1.6206506688030264E9, 2021-05-10 14:44:28.803
14.0, -43.627803802490234, 118.70816802978516, 104.08141326904297, 52.12672424316406, -0.1120000034570694, 0.0, 1.055999994277954, 0.0, 0.0, 0.0, 0.0, 0.0, 1.6206506688030264E9, 2021-05-10 14:44:28.803
15.0, -62.402099609375, 110.71599578857422, 86.62356567382812, 40.693851470947266, -0.1120000034570694, 0.0, 1.055999994277954, 0.0, 0.0, 0.0, 0.0, 0.0, 1.6206506688293653E9, 2021-05-10 14:44:28.829
15.0, -96.98121643066406, 119.11207580566406, 62.1907958984375, 20.434812545776367, -0.1120000034570694, 0.0, 1.055999994277954, 0.0, 0.0, 0.0, 0.0, 0.0, 1.6206506688293653E9, 2021-05-10 14:44:28.829
16.0, -67.98950958251953, 134.052978515625, 94.23426055908203, 53.439430236816406, -0.1120000034570694, 0.0, 1.055999994277954, 0.0, 0.0, 0.0, 0.0, 0.0, 1.6206506688301337E9, 2021-05-10 14:44:28.830
16.0, -64.9265365600586, 132.92726135253906, 99.25694274902344, 49.03382873535156, -0.1120000034570694, 0.0, 1.055999994277954, 0.0, 0.0, 0.0, 0.0, 0.0, 1.6206506688301337E9, 2021-05-10 14:44:28.830
17.0, -71.63217163085938, 107.22666931152344, 83.23895263671875, 37.17460632324219, -0.1120000034570694, 0.0, 1.055999994277954, 0.0, 0.0, 0.0, 0.0, 0.0, 1.620650668845034E9, 2021-05-10 14:44:28.845
17.0, -73.47594451904297, 107.73155975341797, 80.60606384277344, 35.15132141113281, -0.1120000034570694, 0.0, 1.055999994277954, 0.0, 0.0, 0.0, 0.0, 0.0, 1.620650668845034E9, 2021-05-10 14:44:28.845
18.0, -60.131980895996094, 140.825927734375, 102.70513153076172, 53.73488235473633, -0.1120000034570694, 0.0, 1.055999994277954, 0.0, 0.0, 0.0, 0.0, 0.0, 1.6206506688457477E9, 2021-05-10 14:44:28.845
18.0, -54.473514556884766, 142.0638427734375, 110.3270492553711, 55.27198028564453, -0.1120000034570694, 0.0, 1.055999994277954, 0.0, 0.0, 0.0, 0.0, 0.0, 1.6206506688457477E9, 2021-05-10 14:44:28.845
19.0, -79.41490936279297, 121.6926040649414, 83.4895248413086, 34.54545593261719, -0.1120000034570694, 0.0, 1.055999994277954, 0.0, 0.0, 0.0, 0.0, 0.0, 1.6206506688751216E9, 2021-05-10 14:44:28.875
19.0, -75.56280517578125, 117.39171600341797, 85.0565414428711, 32.28281784057617, -0.1120000034570694, 0.0, 1.055999994277954, 0.0, 0.0, 0.0, 0.0, 0.0, 1.6206506688751216E9, 2021-05-10 14:44:28.875
20.0, -55.516944885253906, 115.02062225341797, 110.62249755859375, 61.487693786621094, -0.1120000034570694, 0.0, 1.055999994277954, 0.0, 0.0, 0.0, 0.0, 0.0, 1.620650668875815E9, 2021-05-10 14:44:28.875
20.0, -54.226680755615234, 123.41670227050781, 111.32186126708984, 56.13216018676758, -0.1120000034570694, 0.0, 1.055999994277954, 0.0, 0.0, 0.0, 0.0, 0.0, 1.620650668875815E9, 2021-05-10 14:44:28.875
21.0, -77.57113647460938, 102.58171844482422, 77.81983947753906, 32.42493438720703, -0.1120000034570694, 0.01600000075995922, 1.055999994277954, 0.0, 0.0, 0.0, 0.0, 0.0, 1.6206506688765643E9, 2021-05-10 14:44:28.876
21.0, -80.71265411376953, 121.76366424560547, 79.10262298583984, 27.862255096435547, -0.1120000034570694, 0.01600000075995922, 1.055999994277954, 0.0, 0.0, 0.0, 0.0, 0.0, 1.6206506688765643E9, 2021-05-10 14:44:28.876
22.0, -62.06924819946289, 122.85945129394531, 107.6193618774414, 53.906917572021484, -0.1120000034570694, 0.01600000075995922, 1.055999994277954, 0.0, 0.0, 0.0, 0.0, 0.0, 1.6206506688887136E9, 2021-05-10 14:44:28.888
22.0, -66.82266235351562, 115.566650390625, 103.55409240722656, 42.00281524658203, -0.1120000034570694, 0.01600000075995922, 1.055999994277954, 0.0, 0.0, 0.0, 0.0, 0.0, 1.6206506688887136E9, 2021-05-10 14:44:28.888
23.0, -75.70118713378906, 118.5772705078125, 85.47167205810547, 37.47379684448242, -0.1120000034570694, 0.01600000075995922, 1.055999994277954, 0.0, 0.0, 0.0, 0.0, 0.0, 1.6206506689051614E9, 2021-05-10 14:44:28.905
23.0, -79.59068298339844, 117.58619689941406, 84.8508529663086, 34.92692565917969, -0.1120000034570694, 0.01600000075995922, 1.055999994277954, 0.0, 0.0, 0.0, 0.0, 0.0, 1.6206506689051614E9, 2021-05-10 14:44:28.905
24.0, -50.61019515991211, 123.29328155517578, 101.82999420166016, 44.10464096069336, -0.1120000034570694, 0.01600000075995922, 1.055999994277954, 0.0, 0.0, 0.0, 0.0, 0.0, 1.6206506689058552E9, 2021-05-10 14:44:28.905
24.0, -59.997344970703125, 120.00965118408203, 107.43236541748047, 51.83875274658203, -0.1120000034570694, 0.01600000075995922, 1.055999994277954, 0.0, 0.0, 0.0, 0.0, 0.0, 1.6206506689058552E9, 2021-05-10 14:44:28.905
25.0, -76.97649383544922, 109.23873901367188, 91.16380310058594, 42.81063461303711, -0.1120000034570694, 0.01600000075995922, 1.055999994277954, 0.0, 0.0, 0.0, 0.0, 0.0, 1.6206506689187486E9, 2021-05-10 14:44:28.918
25.0, -63.479190826416016, 110.91795349121094, 94.43621063232422, 43.43145751953125, -0.1120000034570694, 0.01600000075995922, 1.055999994277954, 0.0, 0.0, 0.0, 0.0, 0.0, 1.6206506689187486E9, 2021-05-10 14:44:28.918
26.0, -53.95740509033203, 128.73109436035156, 107.55952453613281, 36.11247253417969, -0.1120000034570694, 0.01600000075995922, 1.055999994277954, 0.0, 0.0, 0.0, 0.0, 0.0, 1.620650668934418E9, 2021-05-10 14:44:28.934
26.0, -79.13067626953125, 139.19534301757812, 106.7928466796875, 47.41071319580078, -0.1120000034570694, 0.01600000075995922, 1.055999994277954, 0.0, 0.0, 0.0, 0.0, 0.0, 1.620650668934418E9, 2021-05-10 14:44:28.934
27.0, -79.17555236816406, 128.7423095703125, 93.51619720458984, 42.60493850708008, -0.1120000034570694, 0.01600000075995922, 1.055999994277954, 0.0, 0.0, 0.0, 0.0, 0.0, 1.620650668935155E9, 2021-05-10 14:44:28.935
27.0, -80.88468933105469, 118.12847900390625, 76.93347930908203, 26.384994506835938, -0.1120000034570694, 0.01600000075995922, 1.055999994277954, 0.0, 0.0, 0.0, 0.0, 0.0, 1.620650668935155E9, 2021-05-10 14:44:28.935
28.0, -66.46363067626953, 124.6209487915039, 108.05693054199219, 56.58094787597656, -0.1120000034570694, 0.01600000075995922, 1.055999994277954, 0.0, 0.0, 0.0, 0.0, 0.0, 1.620650668948746E9, 2021-05-10 14:44:28.948
28.0, -76.72966003417969, 118.92134094238281, 106.33283233642578, 40.9107666015625, -0.1120000034570694, 0.01600000075995922, 1.055999994277954, 0.0, 0.0, 0.0, 0.0, 0.0, 1.620650668948746E9, 2021-05-10 14:44:28.948
29.0, -77.07373046875, 85.39313507080078, 90.8346939086914, 29.451711654663086, -0.1120000034570694, 0.01600000075995922, 1.055999994277954, 0.0, 0.0, 0.0, 0.0, 0.0, 1.6206506689650729E9, 2021-05-10 14:44:28.965
29.0, -63.55025100708008, 104.9079360961914, 97.76846313476562, 36.007755279541016, -0.1120000034570694, 0.01600000075995922, 1.055999994277954, 0.0, 0.0, 0.0, 0.0, 0.0, 1.6206506689650729E9, 2021-05-10 14:44:28.965
30.0, -58.089996337890625, 138.89614868164062, 107.37626647949219, 45.00969696044922, -0.1120000034570694, 0.01600000075995922, 1.055999994277954, 0.0, 0.0, 0.0, 0.0, 0.0, 1.6206506689657829E9, 2021-05-10 14:44:28.965
30.0, -57.525272369384766, 138.74281311035156, 106.09722137451172, 45.58563995361328, -0.1120000034570694, 0.01600000075995922, 1.055999994277954, 0.0, 0.0, 0.0, 0.0, 0.0, 1.6206506689657829E9, 2021-05-10 14:44:28.965
31.0, -68.845947265625, 113.2553939819336, 87.85025024414062, 40.29368209838867, -0.1120000034570694, 0.0, 1.055999994277954, 0.0, 0.0, 0.0, 0.0, 0.0, 1.6206506689787498E9, 2021-05-10 14:44:28.978
31.0, -85.25662994384766, 102.3797607421875, 84.78353118896484, 29.61252784729004, -0.1120000034570694, 0.0, 1.055999994277954, 0.0, 0.0, 0.0, 0.0, 0.0, 1.6206506689787498E9, 2021-05-10 14:44:28.978
32.0, -68.43830108642578, 118.3790512084961, 100.0311050415039, 35.27099609375, -0.1120000034570694, 0.0, 1.055999994277954, 0.0, 0.0, 0.0, 0.0, 0.0, 1.6206506689944236E9, 2021-05-10 14:44:28.994
32.0, -56.87826919555664, 119.40752410888672, 109.61272430419922, 47.54908752441406, -0.1120000034570694, 0.0, 1.055999994277954, 0.0, 0.0, 0.0, 0.0, 0.0, 1.6206506689944236E9, 2021-05-10 14:44:28.994
33.0, -67.84365844726562, 102.19650268554688, 88.83384704589844, 29.59756851196289, -0.1120000034570694, 0.0, 1.055999994277954, 0.0, 0.0, 0.0, 0.0, 0.0, 1.6206506689951415E9, 2021-05-10 14:44:28.995
33.0, -70.80191802978516, 98.1200180053711, 85.87184143066406, 34.23130416870117, -0.1120000034570694, 0.0, 1.055999994277954, 0.0, 0.0, 0.0, 0.0, 0.0, 1.6206506689951415E9, 2021-05-10 14:44:28.995
34.0, -66.25419616699219, 115.42826843261719, 97.9030990600586, 42.1075325012207, -0.1120000034570694, 0.0, 1.055999994277954, 0.0, 0.0, 0.0, 0.0, 0.0, 1.6206506690087068E9, 2021-05-10 14:44:29.008
34.0, -55.958251953125, 130.75811767578125, 107.43610382080078, 51.58443832397461, -0.1120000034570694, 0.0, 1.055999994277954, 0.0, 0.0, 0.0, 0.0, 0.0, 1.6206506690087068E9, 2021-05-10 14:44:29.008
35.0, -78.49114990234375, 117.16358947753906, 78.90814971923828, 26.77768325805664, -0.1120000034570694, 0.0, 1.055999994277954, 0.0, 0.0, 0.0, 0.0, 0.0, 1.6206506690244074E9, 2021-05-10 14:44:29.024
35.0, -82.83317565917969, 107.45854187011719, 77.8086166381836, 41.838260650634766, -0.1120000034570694, 0.0, 1.055999994277954, 0.0, 0.0, 0.0, 0.0, 0.0, 1.6206506690244074E9, 2021-05-10 14:44:29.024
36.0, -55.935813903808594, 118.14717864990234, 113.43116760253906, 70.00344848632812, -0.1120000034570694, 0.0, 1.055999994277954, 0.0, 0.0, 0.0, 0.0, 0.0, 1.6206506690251777E9, 2021-05-10 14:44:29.025
36.0, -65.3491439819336, 129.49777221679688, 102.7799301147461, 43.71942901611328, -0.1120000034570694, 0.0, 1.055999994277954, 0.0, 0.0, 0.0, 0.0, 0.0, 1.6206506690251777E9, 2021-05-10 14:44:29.025
37.0, -60.8350830078125, 112.03992462158203, 91.09648132324219, 23.752103805541992, -0.1120000034570694, 0.0, 1.055999994277954, 0.0, 0.0, 0.0, 0.0, 0.0, 1.6206506690387423E9, 2021-05-10 14:44:29.038
37.0, -85.43240356445312, 88.54961395263672, 76.71656799316406, 21.60540199279785, -0.1120000034570694, 0.0, 1.055999994277954, 0.0, 0.0, 0.0, 0.0, 0.0, 1.6206506690387423E9, 2021-05-10 14:44:29.038
38.0, -59.249366760253906, 130.04754638671875, 103.26612091064453, 45.96710968017578, -0.1120000034570694, 0.0, 1.055999994277954, 0.0, 0.0, 0.0, 0.0, 0.0, 1.6206506690544403E9, 2021-05-10 14:44:29.054
38.0, -59.806610107421875, 140.2799072265625, 114.49703979492188, 55.84044647216797, -0.1120000034570694, 0.0, 1.055999994277954, 0.0, 0.0, 0.0, 0.0, 0.0, 1.6206506690544403E9, 2021-05-10 14:44:29.054
39.0, -72.07347869873047, 89.62670135498047, 90.60281372070312, 47.16387939453125, -0.1120000034570694, 0.0, 1.055999994277954, 0.0, 0.0, 0.0, 0.0, 0.0, 1.6206506690551324E9, 2021-05-10 14:44:29.055
39.0, -78.3228530883789, 104.75833892822266, 74.8391342163086, 25.745471954345703, -0.1120000034570694, 0.0, 1.055999994277954, 0.0, 0.0, 0.0, 0.0, 0.0, 1.6206506690551324E9, 2021-05-10 14:44:29.055
40.0, -71.74436950683594, 130.28689575195312, 106.235595703125, 44.06724166870117, -0.1120000034570694, 0.0, 1.055999994277954, 0.0, 0.0, 0.0, 0.0, 0.0, 1.6206506690687175E9, 2021-05-10 14:44:29.068
40.0, -63.927978515625, 136.45399475097656, 113.31523132324219, 47.612667083740234, -0.1120000034570694, 0.0, 1.055999994277954, 0.0, 0.0, 0.0, 0.0, 0.0, 1.6206506690687175E9, 2021-05-10 14:44:29.068
41.0, -62.046810150146484, 103.15392303466797, 97.93675994873047, 45.372467041015625, -0.1120000034570694, 0.01600000075995922, 1.055999994277954, 0.0, 0.0, 0.0, 0.0, 0.0, 1.6206506690843873E9, 2021-05-10 14:44:29.084
41.0, -82.29088592529297, 106.57966613769531, 78.77351379394531, 27.20777130126953, -0.1120000034570694, 0.01600000075995922, 1.055999994277954, 0.0, 0.0, 0.0, 0.0, 0.0, 1.6206506690843873E9, 2021-05-10 14:44:29.084
42.0, -64.02521514892578, 123.54011535644531, 111.07876586914062, 49.49383544921875, -0.1120000034570694, 0.01600000075995922, 1.055999994277954, 0.0, 0.0, 0.0, 0.0, 0.0, 1.6206506690851212E9, 2021-05-10 14:44:29.085
42.0, -47.449981689453125, 126.36747741699219, 127.64278411865234, 56.012481689453125, -0.1120000034570694, 0.01600000075995922, 1.055999994277954, 0.0, 0.0, 0.0, 0.0, 0.0, 1.6206506690851212E9, 2021-05-10 14:44:29.085
43.0, -78.18447875976562, 103.12773895263672, 88.48229217529297, 33.37112808227539, -0.1120000034570694, 0.01600000075995922, 1.055999994277954, 0.0, 0.0, 0.0, 0.0, 0.0, 1.6206506690986853E9, 2021-05-10 14:44:29.098
43.0, -76.3332290649414, 102.33488464355469, 92.00527954101562, 41.464271545410156, -0.1120000034570694, 0.01600000075995922, 1.055999994277954, 0.0, 0.0, 0.0, 0.0, 0.0, 1.6206506690986853E9, 2021-05-10 14:44:29.098
44.0, -59.900108337402344, 136.61480712890625, 109.5865478515625, 41.14263916015625, -0.1120000034570694, 0.01600000075995922, 1.055999994277954, 0.0, 0.0, 0.0, 0.0, 0.0, 1.6206506691144109E9, 2021-05-10 14:44:29.114
44.0, -62.91820526123047, 130.05502319335938, 116.62877655029297, 45.98207092285156, -0.1120000034570694, 0.01600000075995922, 1.055999994277954, 0.0, 0.0, 0.0, 0.0, 0.0, 1.6206506691144109E9, 2021-05-10 14:44:29.114
45.0, -75.83208465576172, 104.33573150634766, 88.06342315673828, 32.59696960449219, -0.1120000034570694, 0.01600000075995922, 1.055999994277954, 0.0, 0.0, 0.0, 0.0, 0.0, 1.620650669115152E9, 2021-05-10 14:44:29.115
45.0, -89.41539764404297, 107.08081817626953, 77.93203735351562, 31.31418228149414, -0.1120000034570694, 0.01600000075995922, 1.055999994277954, 0.0, 0.0, 0.0, 0.0, 0.0, 1.620650669115152E9, 2021-05-10 14:44:29.115
46.0, -68.9469223022461, 134.23623657226562, 105.63721466064453, 58.634151458740234, -0.1120000034570694, 0.01600000075995922, 1.055999994277954, 0.0, 0.0, 0.0, 0.0, 0.0, 1.620650669128717E9, 2021-05-10 14:44:29.128
46.0, -61.35492706298828, 112.31293487548828, 112.20822143554688, 54.40432357788086, -0.1120000034570694, 0.01600000075995922, 1.055999994277954, 0.0, 0.0, 0.0, 0.0, 0.0, 1.620650669128717E9, 2021-05-10 14:44:29.128
47.0, -59.25684356689453, 96.27998352050781, 100.0909423828125, 42.836814880371094, -0.1120000034570694, 0.01600000075995922, 1.055999994277954, 0.0, 0.0, 0.0, 0.0, 0.0, 1.620650669144414E9, 2021-05-10 14:44:29.144
47.0, -79.39994812011719, 113.700439453125, 84.38336181640625, 23.22477912902832, -0.1120000034570694, 0.01600000075995922, 1.055999994277954, 0.0, 0.0, 0.0, 0.0, 0.0, 1.620650669144414E9, 2021-05-10 14:44:29.144
48.0, -63.40813446044922, 132.45977783203125, 110.07273864746094, 48.9627685546875, -0.1120000034570694, 0.01600000075995922, 1.055999994277954, 0.0, 0.0, 0.0, 0.0, 0.0, 1.6206506691451252E9, 2021-05-10 14:44:29.145
48.0, -49.79863739013672, 122.59391784667969, 121.29243469238281, 64.28514099121094, -0.1120000034570694, 0.01600000075995922, 1.055999994277954, 0.0, 0.0, 0.0, 0.0, 0.0, 1.6206506691451252E9, 2021-05-10 14:44:29.145
49.0, -78.46497344970703, 103.4194564819336, 100.75664520263672, 30.80555534362793, -0.1120000034570694, 0.01600000075995922, 1.055999994277954, 0.0, 0.0, 0.0, 0.0, 0.0, 1.6206506691586933E9, 2021-05-10 14:44:29.158
49.0, -67.43226623535156, 112.93376159667969, 97.9068374633789, 37.27932357788086, -0.1120000034570694, 0.01600000075995922, 1.055999994277954, 0.0, 0.0, 0.0, 0.0, 0.0, 1.6206506691586933E9, 2021-05-10 14:44:29.158
50.0, -55.61418151855469, 126.46846008300781, 116.35576629638672, 56.551025390625, -0.1120000034570694, 0.01600000075995922, 1.055999994277954, 0.0, 0.0, 0.0, 0.0, 0.0, 1.6206506691743479E9, 2021-05-10 14:44:29.174
50.0, -59.750511169433594, 111.3891830444336, 124.14598083496094, 55.814266204833984, -0.1120000034570694, 0.01600000075995922, 1.055999994277954, 0.0, 0.0, 0.0, 0.0, 0.0, 1.6206506691743479E9, 2021-05-10 14:44:29.174
51.0, -69.87815856933594, 99.63841247558594, 101.60186004638672, 33.73763656616211, -0.1120000034570694, 0.0, 1.055999994277954, 0.0, 0.0, 0.0, 0.0, 0.0, 1.620650669175115E9, 2021-05-10 14:44:29.175
51.0, -80.34613800048828, 116.64373779296875, 90.40834045410156, 29.294635772705078, -0.1120000034570694, 0.0, 1.055999994277954, 0.0, 0.0, 0.0, 0.0, 0.0, 1.620650669175115E9, 2021-05-10 14:44:29.175
52.0, -63.11642074584961, 123.34564208984375, 108.57303619384766, 55.70954895019531, -0.12800000607967377, 0.0, 1.055999994277954, 0.0, 0.0, 0.0, 0.0, 0.0, 1.6206506691886744E9, 2021-05-10 14:44:29.188
52.0, -44.78717041015625, 111.7332534790039, 122.70237731933594, 65.81475830078125, -0.12800000607967377, 0.0, 1.055999994277954, 0.0, 0.0, 0.0, 0.0, 0.0, 1.6206506691886744E9, 2021-05-10 14:44:29.188
53.0, -64.60115814208984, 107.50716400146484, 93.74059295654297, 41.22865676879883, -0.12800000607967377, 0.0, 1.055999994277954, 0.0, 0.0, 0.0, 0.0, 0.0, 1.6206506692041316E9, 2021-05-10 14:44:29.204
53.0, -75.08784484863281, 99.05499267578125, 89.14799499511719, 30.83547592163086, -0.12800000607967377, 0.0, 1.055999994277954, 0.0, 0.0, 0.0, 0.0, 0.0, 1.6206506692041316E9, 2021-05-10 14:44:29.204
54.0, -60.11328125, 129.1387481689453, 107.14065551757812, 38.02730178833008, -0.12800000607967377, 0.0, 1.055999994277954, 0.0, 0.0, 0.0, 0.0, 0.0, 1.6206506692357364E9, 2021-05-10 14:44:29.235
54.0, -49.60790252685547, 123.28580474853516, 122.76969909667969, 56.08353805541992, -0.12800000607967377, 0.0, 1.055999994277954, 0.0, 0.0, 0.0, 0.0, 0.0, 1.6206506692357364E9, 2021-05-10 14:44:29.235
55.0, -90.38029479980469, 116.58390045166016, 89.8959732055664, 30.760677337646484, -0.12800000607967377, 0.0, 1.055999994277954, 0.0, 0.0, 0.0, 0.0, 0.0, 1.6206506692365088E9, 2021-05-10 14:44:29.236
55.0, -85.1668701171875, 105.57363891601562, 84.95182800292969, 28.599014282226562, -0.12800000607967377, 0.0, 1.055999994277954, 0.0, 0.0, 0.0, 0.0, 0.0, 1.6206506692365088E9, 2021-05-10 14:44:29.236
56.0, -62.56665802001953, 134.64013671875, 109.74736785888672, 57.830074310302734, -0.12800000607967377, 0.0, 1.055999994277954, 0.0, 0.0, 0.0, 0.0, 0.0, 1.6206506692372446E9, 2021-05-10 14:44:29.237
56.0, -51.84062194824219, 120.3275375366211, 120.77259063720703, 53.77602005004883, -0.12800000607967377, 0.0, 1.055999994277954, 0.0, 0.0, 0.0, 0.0, 0.0, 1.6206506692372446E9, 2021-05-10 14:44:29.237
57.0, -62.44697952270508, 98.46782684326172, 94.33523559570312, 28.943086624145508, -0.12800000607967377, 0.0, 1.055999994277954, 0.0, 0.0, 0.0, 0.0, 0.0, 1.6206506692379496E9, 2021-05-10 14:44:29.237
57.0, -68.35601806640625, 100.94364166259766, 92.57374572753906, 34.55667495727539, -0.12800000607967377, 0.0, 1.055999994277954, 0.0, 0.0, 0.0, 0.0, 0.0, 1.6206506692379496E9, 2021-05-10 14:44:29.237
58.0, -51.98273849487305, 126.36000061035156, 115.44696807861328, 54.08269500732422, -0.12800000607967377, 0.0, 1.055999994277954, 0.0, 0.0, 0.0, 0.0, 0.0, 1.6206506692486753E9, 2021-05-10 14:44:29.248
58.0, -57.56267166137695, 121.3522720336914, 108.43840026855469, 47.47428894042969, -0.12800000607967377, 0.0, 1.055999994277954, 0.0, 0.0, 0.0, 0.0, 0.0, 1.6206506692486753E9, 2021-05-10 14:44:29.248
59.0, -66.11956024169922, 117.73204803466797, 99.19710540771484, 41.78590393066406, -0.12800000607967377, 0.0, 1.055999994277954, 0.0, 0.0, 0.0, 0.0, 0.0, 1.6206506692641275E9, 2021-05-10 14:44:29.264
59.0, -75.28605651855469, 113.27034759521484, 90.18020629882812, 30.32684898376465, -0.12800000607967377, 0.0, 1.055999994277954, 0.0, 0.0, 0.0, 0.0, 0.0, 1.6206506692641275E9, 2021-05-10 14:44:29.264
60.0, -57.71226501464844, 129.7782745361328, 109.42947387695312, 48.91415023803711, -0.12800000607967377, 0.0, 1.055999994277954, 0.0, 0.0, 0.0, 0.0, 0.0, 1.6206506692793767E9, 2021-05-10 14:44:29.279
60.0, -49.99685287475586, 136.2445526123047, 117.4141616821289, 52.77372741699219, -0.12800000607967377, 0.0, 1.055999994277954, 0.0, 0.0, 0.0, 0.0, 0.0, 1.6206506692793767E9, 2021-05-10 14:44:29.279
61.0, -69.45555114746094, 95.05703735351562, 90.52053833007812, 39.98326873779297, -0.12800000607967377, 0.0, 1.055999994277954, 0.0, 0.0, 0.0, 0.0, 0.0, 1.6206506692801187E9, 2021-05-10 14:44:29.280
61.0, -78.48741149902344, 105.61851501464844, 80.38915252685547, 16.53409767150879, -0.12800000607967377, 0.0, 1.055999994277954, 0.0, 0.0, 0.0, 0.0, 0.0, 1.6206506692801187E9, 2021-05-10 14:44:29.280
62.0, -64.08131408691406, 129.7595672607422, 115.69380187988281, 47.62762451171875, -0.1120000034570694, 0.0, 1.055999994277954, 0.0, 0.0, 0.0, 0.0, 0.0, 1.620650669294422E9, 2021-05-10 14:44:29.294
62.0, -53.729270935058594, 119.99095153808594, 117.87042999267578, 46.606632232666016, -0.1120000034570694, 0.0, 1.055999994277954, 0.0, 0.0, 0.0, 0.0, 0.0, 1.620650669294422E9, 2021-05-10 14:44:29.294
63.0, -66.33647918701172, 125.73543548583984, 105.40534210205078, 44.01114273071289, -0.1120000034570694, 0.0, 1.055999994277954, 0.0, 0.0, 0.0, 0.0, 0.0, 1.6206506692951381E9, 2021-05-10 14:44:29.295
63.0, -63.89057922363281, 117.9564437866211, 101.84495544433594, 30.270750045776367, -0.1120000034570694, 0.0, 1.055999994277954, 0.0, 0.0, 0.0, 0.0, 0.0, 1.6206506692951381E9, 2021-05-10 14:44:29.295
64.0, -64.5862045288086, 119.01483917236328, 105.15850830078125, 40.1590461730957, -0.1120000034570694, 0.0, 1.055999994277954, 0.0, 0.0, 0.0, 0.0, 0.0, 1.6206506693087137E9, 2021-05-10 14:44:29.308
64.0, -45.187339782714844, 124.13849639892578, 119.40752410888672, 65.71004486083984, -0.1120000034570694, 0.0, 1.055999994277954, 0.0, 0.0, 0.0, 0.0, 0.0, 1.6206506693087137E9, 2021-05-10 14:44:29.308
65.0, -81.53543090820312, 94.40255737304688, 96.24632263183594, 41.3445930480957, -0.1120000034570694, 0.0, 1.055999994277954, 0.0, 0.0, 0.0, 0.0, 0.0, 1.6206506693407714E9, 2021-05-10 14:44:29.340
65.0, -71.4339599609375, 118.87645721435547, 93.84905242919922, 27.854774475097656, -0.1120000034570694, 0.0, 1.055999994277954, 0.0, 0.0, 0.0, 0.0, 0.0, 1.6206506693407714E9, 2021-05-10 14:44:29.340
66.0, -65.09857177734375, 123.80938720703125, 115.66014862060547, 46.000770568847656, -0.1120000034570694, 0.0, 1.055999994277954, 0.0, 0.0, 0.0, 0.0, 0.0, 1.6206506693415346E9, 2021-05-10 14:44:29.341
66.0, -55.56930160522461, 131.95863342285156, 116.07527160644531, 47.66502380371094, -0.1120000034570694, 0.0, 1.055999994277954, 0.0, 0.0, 0.0, 0.0, 0.0, 1.6206506693415346E9, 2021-05-10 14:44:29.341
67.0, -70.5887451171875, 117.44407653808594, 93.99864196777344, 31.587194442749023, -0.1120000034570694, 0.0, 1.055999994277954, 0.0, 0.0, 0.0, 0.0, 0.0, 1.6206506693422596E9, 2021-05-10 14:44:29.342
67.0, -74.65775299072266, 113.6181640625, 89.98947143554688, 32.36135482788086, -0.1120000034570694, 0.0, 1.055999994277954, 0.0, 0.0, 0.0, 0.0, 0.0, 1.6206506693422596E9, 2021-05-10 14:44:29.342
68.0, -64.43660736083984, 128.3346710205078, 112.9786376953125, 49.73693084716797, -0.1120000034570694, 0.0, 1.055999994277954, 0.0, 0.0, 0.0, 0.0, 0.0, 1.620650669343024E9, 2021-05-10 14:44:29.343
68.0, -65.4351577758789, 137.9462127685547, 118.50247192382812, 48.58504104614258, -0.1120000034570694, 0.0, 1.055999994277954, 0.0, 0.0, 0.0, 0.0, 0.0, 1.620650669343024E9, 2021-05-10 14:44:29.343
69.0, -74.93824768066406, 120.02086639404297, 103.75604248046875, 42.44038391113281, -0.1120000034570694, 0.0, 1.055999994277954, 0.0, 0.0, 0.0, 0.0, 0.0, 1.6206506693536751E9, 2021-05-10 14:44:29.353
69.0, -68.58041381835938, 104.885498046875, 87.89138793945312, 21.983131408691406, -0.1120000034570694, 0.0, 1.055999994277954, 0.0, 0.0, 0.0, 0.0, 0.0, 1.6206506693536751E9, 2021-05-10 14:44:29.353
70.0, -57.607547760009766, 128.86199951171875, 113.15441131591797, 43.70072937011719, -0.1120000034570694, 0.0, 1.055999994277954, 0.0, 0.0, 0.0, 0.0, 0.0, 1.620650669368687E9, 2021-05-10 14:44:29.368
70.0, -47.90250778198242, 106.34405517578125, 122.29846954345703, 53.42073059082031, -0.1120000034570694, 0.0, 1.055999994277954, 0.0, 0.0, 0.0, 0.0, 0.0, 1.620650669368687E9, 2021-05-10 14:44:29.368
71.0, -71.78925323486328, 109.97549438476562, 103.25863647460938, 38.69674301147461, -0.1120000034570694, 0.01600000075995922, 1.055999994277954, 0.0, 0.0, 0.0, 0.0, 0.0, 1.6206506693847935E9, 2021-05-10 14:44:29.384
71.0, -78.61082458496094, 117.85173034667969, 95.70404052734375, 30.977590560913086, -0.1120000034570694, 0.01600000075995922, 1.055999994277954, 0.0, 0.0, 0.0, 0.0, 0.0, 1.6206506693847935E9, 2021-05-10 14:44:29.384
72.0, -65.84281158447266, 129.25094604492188, 114.26890563964844, 37.769248962402344, -0.1120000034570694, 0.01600000075995922, 1.055999994277954, 0.0, 0.0, 0.0, 0.0, 0.0, 1.6206506693993616E9, 2021-05-10 14:44:29.399
72.0, -52.84291458129883, 147.9953155517578, 125.63072204589844, 60.94540786743164, -0.1120000034570694, 0.01600000075995922, 1.055999994277954, 0.0, 0.0, 0.0, 0.0, 0.0, 1.6206506693993616E9, 2021-05-10 14:44:29.399
73.0, -70.80939483642578, 121.7711410522461, 94.33897399902344, 26.676706314086914, -0.1120000034570694, 0.01600000075995922, 1.055999994277954, 0.0, 0.0, 0.0, 0.0, 0.0, 1.6206506694001102E9, 2021-05-10 14:44:29.400
73.0, -91.94357299804688, 106.67316436767578, 88.97222137451172, 20.012205123901367, -0.1120000034570694, 0.01600000075995922, 1.055999994277954, 0.0, 0.0, 0.0, 0.0, 0.0, 1.6206506694001102E9, 2021-05-10 14:44:29.400
74.0, -68.58789825439453, 131.2929229736328, 113.95848846435547, 44.92741775512695, -0.1120000034570694, 0.01600000075995922, 1.055999994277954, 0.0, 0.0, 0.0, 0.0, 0.0, 1.6206506694143934E9, 2021-05-10 14:44:29.414
74.0, -60.4124755859375, 128.51417541503906, 124.26939392089844, 55.23832321166992, -0.1120000034570694, 0.01600000075995922, 1.055999994277954, 0.0, 0.0, 0.0, 0.0, 0.0, 1.6206506694143934E9, 2021-05-10 14:44:29.414
75.0, -76.63990020751953, 104.17491149902344, 96.74372863769531, 26.052143096923828, -0.1120000034570694, 0.01600000075995922, 1.055999994277954, 0.0, 0.0, 0.0, 0.0, 0.0, 1.6206506694151201E9, 2021-05-10 14:44:29.415
75.0, -74.5081558227539, 97.61138916015625, 101.76641845703125, 31.115966796875, -0.1120000034570694, 0.01600000075995922, 1.055999994277954, 0.0, 0.0, 0.0, 0.0, 0.0, 1.6206506694151201E9, 2021-05-10 14:44:29.415
76.0, -63.99903869628906, 126.41609954833984, 114.72142791748047, 46.03068923950195, -0.1120000034570694, 0.01600000075995922, 1.055999994277954, 0.0, 0.0, 0.0, 0.0, 0.0, 1.6206506694457345E9, 2021-05-10 14:44:29.445
76.0, -60.31149673461914, 124.37785339355469, 117.4141616821289, 43.91764450073242, -0.1120000034570694, 0.01600000075995922, 1.055999994277954, 0.0, 0.0, 0.0, 0.0, 0.0, 1.6206506694457345E9, 2021-05-10 14:44:29.445
77.0, -55.35612869262695, 121.05682373046875, 106.58715057373047, 52.56803512573242, -0.1120000034570694, 0.01600000075995922, 1.055999994277954, 0.0, 0.0, 0.0, 0.0, 0.0, 1.620650669446432E9, 2021-05-10 14:44:29.446
77.0, -66.8974609375, 116.13511657714844, 91.74722290039062, 25.2181453704834, -0.1120000034570694, 0.01600000075995922, 1.055999994277954, 0.0, 0.0, 0.0, 0.0, 0.0, 1.620650669446432E9, 2021-05-10 14:44:29.446
78.0, -71.34793853759766, 125.57836151123047, 110.49160766601562, 43.77927017211914, -0.1120000034570694, 0.01600000075995922, 1.055999994277954, 0.0, 0.0, 0.0, 0.0, 0.0, 1.6206506694471831E9, 2021-05-10 14:44:29.447
78.0, -63.68488693237305, 132.78514099121094, 113.69670104980469, 42.743316650390625, -0.1120000034570694, 0.01600000075995922, 1.055999994277954, 0.0, 0.0, 0.0, 0.0, 0.0, 1.6206506694471831E9, 2021-05-10 14:44:29.447
79.0, -78.42008972167969, 103.78596496582031, 85.50907135009766, 18.0113582611084, -0.1120000034570694, 0.01600000075995922, 1.055999994277954, 0.0, 0.0, 0.0, 0.0, 0.0, 1.6206506694586537E9, 2021-05-10 14:44:29.458
79.0, -72.95610046386719, 98.99889373779297, 91.36201477050781, 22.675012588500977, -0.1120000034570694, 0.01600000075995922, 1.055999994277954, 0.0, 0.0, 0.0, 0.0, 0.0, 1.6206506694586537E9, 2021-05-10 14:44:29.458
80.0, -45.542633056640625, 116.32958984375, 116.20243072509766, 50.574668884277344, -0.1120000034570694, 0.01600000075995922, 1.055999994277954, 0.0, 0.0, 0.0, 0.0, 0.0, 1.620650669474383E9, 2021-05-10 14:44:29.474
80.0, -42.08696365356445, 127.20895385742188, 114.381103515625, 48.65235900878906, -0.1120000034570694, 0.01600000075995922, 1.055999994277954, 0.0, 0.0, 0.0, 0.0, 0.0, 1.620650669474383E9, 2021-05-10 14:44:29.474
81.0, -80.9931411743164, 131.48739624023438, 85.08272552490234, 27.0843563079834, -0.1120000034570694, 0.01600000075995922, 1.055999994277954, 0.0, 0.0, 0.0, 0.0, 0.0, 1.6206506694751234E9, 2021-05-10 14:44:29.475
81.0, -74.65401458740234, 121.78236389160156, 83.10057830810547, 37.23070526123047, -0.1120000034570694, 0.01600000075995922, 1.055999994277954, 0.0, 0.0, 0.0, 0.0, 0.0, 1.6206506694751234E9, 2021-05-10 14:44:29.475
82.0, -56.92314910888672, 119.71794128417969, 112.5560302734375, 49.29561996459961, -0.1120000034570694, 0.01600000075995922, 1.055999994277954, 0.0, 0.0, 0.0, 0.0, 0.0, 1.6206506695050557E9, 2021-05-10 14:44:29.505
82.0, -54.67546844482422, 105.31932067871094, 121.24382019042969, 42.186073303222656, -0.1120000034570694, 0.01600000075995922, 1.055999994277954, 0.0, 0.0, 0.0, 0.0, 0.0, 1.6206506695050557E9, 2021-05-10 14:44:29.505
83.0, -72.88877868652344, 109.10784149169922, 101.16055297851562, 23.179899215698242, -0.1120000034570694, 0.01600000075995922, 1.055999994277954, 0.0, 0.0, 0.0, 0.0, 0.0, 1.620650669505783E9, 2021-05-10 14:44:29.505
83.0, -79.72905731201172, 120.23030090332031, 93.63587188720703, 28.43071937561035, -0.1120000034570694, 0.01600000075995922, 1.055999994277954, 0.0, 0.0, 0.0, 0.0, 0.0, 1.620650669505783E9, 2021-05-10 14:44:29.505
84.0, -64.73580169677734, 137.7480010986328, 124.02629852294922, 53.293575286865234, -0.1120000034570694, 0.01600000075995922, 1.055999994277954, 0.0, 0.0, 0.0, 0.0, 0.0, 1.6206506695065377E9, 2021-05-10 14:44:29.506
84.0, -65.72687530517578, 134.65135192871094, 119.43370819091797, 52.49697494506836, -0.1120000034570694, 0.01600000075995922, 1.055999994277954, 0.0, 0.0, 0.0, 0.0, 0.0, 1.6206506695065377E9, 2021-05-10 14:44:29.506
85.0, -74.23514556884766, 122.08529663085938, 100.61078643798828, 31.254343032836914, -0.1120000034570694, 0.01600000075995922, 1.055999994277954, 0.0, 0.0, 0.0, 0.0, 0.0, 1.620650669518677E9, 2021-05-10 14:44:29.518
85.0, -71.68079376220703, 107.74652099609375, 91.32461547851562, 38.37137222290039, -0.1120000034570694, 0.01600000075995922, 1.055999994277954, 0.0, 0.0, 0.0, 0.0, 0.0, 1.620650669518677E9, 2021-05-10 14:44:29.518
86.0, -54.8138427734375, 120.37615966796875, 118.7418212890625, 54.105133056640625, -0.1120000034570694, 0.01600000075995922, 1.055999994277954, 0.0, 0.0, 0.0, 0.0, 0.0, 1.6206506695345354E9, 2021-05-10 14:44:29.534
86.0, -53.19446563720703, 113.22173309326172, 118.782958984375, 63.559600830078125, -0.1120000034570694, 0.01600000075995922, 1.055999994277954, 0.0, 0.0, 0.0, 0.0, 0.0, 1.6206506695345354E9, 2021-05-10 14:44:29.534
87.0, -65.90638732910156, 103.02676391601562, 105.85787200927734, 40.1777458190918, -0.1120000034570694, 0.01600000075995922, 1.055999994277954, 0.0, 0.0, 0.0, 0.0, 0.0, 1.6206506695351715E9, 2021-05-10 14:44:29.535
87.0, -82.4367446899414, 118.34913635253906, 100.132080078125, 38.064701080322266, -0.1120000034570694, 0.01600000075995922, 1.055999994277954, 0.0, 0.0, 0.0, 0.0, 0.0, 1.6206506695351715E9, 2021-05-10 14:44:29.535
88.0, -59.64205551147461, 126.88358306884766, 123.94776153564453, 45.701576232910156, -0.1120000034570694, 0.01600000075995922, 1.055999994277954, 0.0, 0.0, 0.0, 0.0, 0.0, 1.6206506695648825E9, 2021-05-10 14:44:29.564
88.0, -49.19651412963867, 124.86778259277344, 132.79263305664062, 45.697837829589844, -0.1120000034570694, 0.01600000075995922, 1.055999994277954, 0.0, 0.0, 0.0, 0.0, 0.0, 1.6206506695648825E9, 2021-05-10 14:44:29.564
89.0, -67.45470428466797, 126.62179565429688, 103.05668640136719, 32.60444641113281, -0.1120000034570694, 0.01600000075995922, 1.055999994277954, 0.0, 0.0, 0.0, 0.0, 0.0, 1.6206506695654733E9, 2021-05-10 14:44:29.565
89.0, -72.16323852539062, 121.17649841308594, 87.68943786621094, 27.383546829223633, -0.1120000034570694, 0.01600000075995922, 1.055999994277954, 0.0, 0.0, 0.0, 0.0, 0.0, 1.6206506695654733E9, 2021-05-10 14:44:29.565
90.0, -42.40485382080078, 132.68043518066406, 121.38593292236328, 38.722923278808594, -0.1120000034570694, 0.01600000075995922, 1.055999994277954, 0.0, 0.0, 0.0, 0.0, 0.0, 1.620650669579366E9, 2021-05-10 14:44:29.579
90.0, -49.71261978149414, 128.21124267578125, 117.25334167480469, 38.827640533447266, -0.1120000034570694, 0.01600000075995922, 1.055999994277954, 0.0, 0.0, 0.0, 0.0, 0.0, 1.620650669579366E9, 2021-05-10 14:44:29.579
91.0, -77.04380798339844, 98.97645568847656, 101.60186004638672, 47.68746566772461, -0.1120000034570694, 0.01600000075995922, 1.055999994277954, 0.0, 0.0, 0.0, 0.0, 0.0, 1.6206506695801313E9, 2021-05-10 14:44:29.580
91.0, -49.7836799621582, 120.35746002197266, 105.38290405273438, 36.62110137939453, -0.1120000034570694, 0.01600000075995922, 1.055999994277954, 0.0, 0.0, 0.0, 0.0, 0.0, 1.6206506695801313E9, 2021-05-10 14:44:29.580
92.0, -71.24696350097656, 140.47811889648438, 111.69959259033203, 40.51433563232422, -0.1120000034570694, 0.01600000075995922, 1.055999994277954, 0.0, 0.0, 0.0, 0.0, 0.0, 1.6206506695943236E9, 2021-05-10 14:44:29.594
92.0, -62.27120590209961, 137.269287109375, 114.72142791748047, 45.39864730834961, -0.1120000034570694, 0.01600000075995922, 1.055999994277954, 0.0, 0.0, 0.0, 0.0, 0.0, 1.6206506695943236E9, 2021-05-10 14:44:29.594
93.0, -72.02112579345703, 118.66328430175781, 95.12435913085938, 23.46413230895996, -0.1120000034570694, 0.01600000075995922, 1.055999994277954, 0.0, 0.0, 0.0, 0.0, 0.0, 1.6206506695951283E9, 2021-05-10 14:44:29.595
93.0, -64.64604187011719, 93.37782287597656, 94.98971557617188, 31.523616790771484, -0.1120000034570694, 0.01600000075995922, 1.055999994277954, 0.0, 0.0, 0.0, 0.0, 0.0, 1.6206506695951283E9, 2021-05-10 14:44:29.595
94.0, -51.679805755615234, 128.7498016357422, 118.58848571777344, 65.6875991821289, -0.1120000034570694, 0.01600000075995922, 1.055999994277954, 0.0, 0.0, 0.0, 0.0, 0.0, 1.6206506696087308E9, 2021-05-10 14:44:29.608
94.0, -57.21112060546875, 115.90323638916016, 116.15755462646484, 49.3143196105957, -0.1120000034570694, 0.01600000075995922, 1.055999994277954, 0.0, 0.0, 0.0, 0.0, 0.0, 1.6206506696087308E9, 2021-05-10 14:44:29.608
95.0, -82.25723266601562, 129.77452087402344, 99.78053283691406, 22.125247955322266, -0.1120000034570694, 0.01600000075995922, 1.055999994277954, 0.0, 0.0, 0.0, 0.0, 0.0, 1.6206506696243553E9, 2021-05-10 14:44:29.624
95.0, -85.62313842773438, 134.24371337890625, 101.85991668701172, 33.70023727416992, -0.1120000034570694, 0.01600000075995922, 1.055999994277954, 0.0, 0.0, 0.0, 0.0, 0.0, 1.6206506696243553E9, 2021-05-10 14:44:29.624
96.0, -64.44782257080078, 139.4197235107422, 121.01568603515625, 47.50794982910156, -0.1120000034570694, 0.01600000075995922, 1.055999994277954, 0.0, 0.0, 0.0, 0.0, 0.0, 1.6206506696251147E9, 2021-05-10 14:44:29.625
96.0, -57.54397201538086, 137.17579650878906, 125.226806640625, 54.46416473388672, -0.1120000034570694, 0.01600000075995922, 1.055999994277954, 0.0, 0.0, 0.0, 0.0, 0.0, 1.6206506696251147E9, 2021-05-10 14:44:29.625
97.0, -62.45819854736328, 114.03328704833984, 101.8973159790039, 34.104148864746094, -0.1120000034570694, 0.01600000075995922, 1.055999994277954, 0.0, 0.0, 0.0, 0.0, 0.0, 1.6206506696387663E9, 2021-05-10 14:44:29.638
97.0, -67.20413208007812, 109.03304290771484, 102.84725189208984, 38.82390213012695, -0.1120000034570694, 0.01600000075995922, 1.055999994277954, 0.0, 0.0, 0.0, 0.0, 0.0, 1.6206506696387663E9, 2021-05-10 14:44:29.638
98.0, -35.4822998046875, 123.65605163574219, 135.1412811279297, 63.92237091064453, -0.1120000034570694, 0.01600000075995922, 1.055999994277954, 0.0, 0.0, 0.0, 0.0, 0.0, 1.6206506696543589E9, 2021-05-10 14:44:29.654
98.0, -47.07225036621094, 126.8873291015625, 134.29232788085938, 62.81909942626953, -0.1120000034570694, 0.01600000075995922, 1.055999994277954, 0.0, 0.0, 0.0, 0.0, 0.0, 1.6206506696543589E9, 2021-05-10 14:44:29.654
99.0, -88.9404296875, 106.56096649169922, 94.78776550292969, 20.38245391845703, -0.1120000034570694, 0.01600000075995922, 1.055999994277954, 0.0, 0.0, 0.0, 0.0, 0.0, 1.62065066965513E9, 2021-05-10 14:44:29.655
99.0, -71.84160614013672, 122.10399627685547, 94.81768035888672, 26.44109344482422, -0.1120000034570694, 0.01600000075995922, 1.055999994277954, 0.0, 0.0, 0.0, 0.0, 0.0, 1.62065066965513E9, 2021-05-10 14:44:29.655
100.0, -54.49595260620117, 118.92507934570312, 118.37157440185547, 41.6437873840332, -0.1120000034570694, 0.01600000075995922, 1.055999994277954, 0.0, 0.0, 0.0, 0.0, 0.0, 1.620650669669358E9, 2021-05-10 14:44:29.669
100.0, -42.73770523071289, 106.45625305175781, 114.48955535888672, 51.17679214477539, -0.1120000034570694, 0.01600000075995922, 1.055999994277954, 0.0, 0.0, 0.0, 0.0, 0.0, 1.620650669669358E9, 2021-05-10 14:44:29.669
0.0, -69.2049789428711, 100.14143371582031, 104.29459381103516, 55.34117126464844, -0.1120000034570694, 0.01600000075995922, 1.055999994277954, 0.0, 0.0, 0.0, 0.0, 0.0, 1.620650669670117E9, 2021-05-10 14:44:29.670
1.0, -85.33890533447266, 99.34857177734375, 84.8134536743164, 1.4230319261550903, -0.1120000034570694, 0.01600000075995922, 1.055999994277954, 0.0, 0.0, 0.0, 0.0, 0.0, 1.6206506696837265E9, 2021-05-10 14:44:29.683
1.0, -61.515743255615234, 125.66250610351562, 115.48062896728516, 34.71187973022461, -0.1120000034570694, 0.01600000075995922, 1.055999994277954, 0.0, 0.0, 0.0, 0.0, 0.0, 1.6206506696837265E9, 2021-05-10 14:44:29.683
2.0, -47.36022186279297, 124.40589904785156, 119.90119171142578, 46.08865737915039, -0.1120000034570694, 0.01600000075995922, 1.055999994277954, 0.0, 0.0, 0.0, 0.0, 0.0, 1.6206506696994116E9, 2021-05-10 14:44:29.699
2.0, -58.179752349853516, 111.6004867553711, 96.62405395507812, 33.085025787353516, -0.1120000034570694, 0.01600000075995922, 1.055999994277954, 0.0, 0.0, 0.0, 0.0, 0.0, 1.6206506696994116E9, 2021-05-10 14:44:29.699
3.0, -82.27967071533203, 109.6557388305664, 85.9952621459961, 24.32617950439453, -0.1120000034570694, 0.01600000075995922, 1.055999994277954, 0.0, 0.0, 0.0, 0.0, 0.0, 1.6206506697001078E9, 2021-05-10 14:44:29.700
3.0, -57.932918548583984, 122.33773803710938, 114.71768951416016, 47.02363204956055, -0.1120000034570694, 0.01600000075995922, 1.055999994277954, 0.0, 0.0, 0.0, 0.0, 0.0, 1.6206506697001078E9, 2021-05-10 14:44:29.700
4.0, -56.422000885009766, 123.15677642822266, 112.71310424804688, 54.308956146240234, -0.1120000034570694, 0.01600000075995922, 1.055999994277954, 0.0, 0.0, 0.0, 0.0, 0.0, 1.62065066971366E9, 2021-05-10 14:44:29.713
4.0, -78.3191146850586, 95.6834716796875, 87.84651184082031, 18.428356170654297, -0.1120000034570694, 0.01600000075995922, 1.055999994277954, 0.0, 0.0, 0.0, 0.0, 0.0, 1.62065066971366E9, 2021-05-10 14:44:29.713
5.0, -80.76500701904297, 120.93527221679688, 90.16899108886719, 28.60088539123535, -0.1120000034570694, 0.01600000075995922, 1.055999994277954, 0.0, 0.0, 0.0, 0.0, 0.0, 1.6206506697294016E9, 2021-05-10 14:44:29.729
5.0, -71.23200225830078, 117.14301300048828, 111.12738800048828, 37.845916748046875, -0.1120000034570694, 0.01600000075995922, 1.055999994277954, 0.0, 0.0, 0.0, 0.0, 0.0, 1.6206506697294016E9, 2021-05-10 14:44:29.729
6.0, -55.030757904052734, 128.04856872558594, 120.34623718261719, 49.58546447753906, -0.1120000034570694, 0.01600000075995922, 1.055999994277954, 0.0, 0.0, 0.0, 0.0, 0.0, 1.6206506697301002E9, 2021-05-10 14:44:29.730
6.0, -57.0503044128418, 84.6432876586914, 99.53743743896484, 46.578582763671875, -0.1120000034570694, 0.01600000075995922, 1.055999994277954, 0.0, 0.0, 0.0, 0.0, 0.0, 1.6206506697301002E9, 2021-05-10 14:44:29.730
7.0, -82.15251159667969, 115.31794738769531, 88.2840805053711, 24.299999237060547, -0.1120000034570694, 0.01600000075995922, 1.055999994277954, 0.0, 0.0, 0.0, 0.0, 0.0, 1.620650669743782E9, 2021-05-10 14:44:29.743
7.0, -66.62818908691406, 141.36634826660156, 101.53828430175781, 32.04159164428711, -0.1120000034570694, 0.01600000075995922, 1.055999994277954, 0.0, 0.0, 0.0, 0.0, 0.0, 1.620650669743782E9, 2021-05-10 14:44:29.743
8.0, -63.142601013183594, 129.62306213378906, 107.18553161621094, 35.44864273071289, -0.1120000034570694, 0.01600000075995922, 1.055999994277954, 0.0, 0.0, 0.0, 0.0, 0.0, 1.620650669759384E9, 2021-05-10 14:44:29.759
8.0, -79.8075942993164, 100.98664855957031, 88.57579040527344, 25.478069305419922, -0.1120000034570694, 0.01600000075995922, 1.055999994277954, 0.0, 0.0, 0.0, 0.0, 0.0, 1.620650669759384E9, 2021-05-10 14:44:29.759
9.0, -76.55762481689453, 110.2615966796875, 80.75566101074219, 33.14486312866211, -0.1120000034570694, 0.01600000075995922, 1.055999994277954, 0.0, 0.0, 0.0, 0.0, 0.0, 1.620650669760146E9, 2021-05-10 14:44:29.760
9.0, -40.0487174987793, 101.33819580078125, 116.49040222167969, 57.080223083496094, -0.1120000034570694, 0.01600000075995922, 1.055999994277954, 0.0, 0.0, 0.0, 0.0, 0.0, 1.620650669760146E9, 2021-05-10 14:44:29.760
10.0, -57.73470687866211, 122.23301696777344, 109.27613830566406, 45.733367919921875, -0.1120000034570694, 0.01600000075995922, 1.055999994277954, 0.0, 0.0, 0.0, 0.0, 0.0, 1.6206506697736776E9, 2021-05-10 14:44:29.773
10.0, -59.88514709472656, 105.29501342773438, 88.52716827392578, 26.484102249145508, -0.1120000034570694, 0.01600000075995922, 1.055999994277954, 0.0, 0.0, 0.0, 0.0, 0.0, 1.6206506697736776E9, 2021-05-10 14:44:29.773
11.0, -76.74461364746094, 109.44256591796875, 89.88849639892578, 26.20734977722168, -0.1120000034570694, 0.0, 1.055999994277954, 0.0, 0.0, 0.0, 0.0, 0.0, 1.620650669789396E9, 2021-05-10 14:44:29.789
11.0, -60.22174072265625, 103.08099365234375, 112.514892578125, 40.624664306640625, -0.1120000034570694, 0.0, 1.055999994277954, 0.0, 0.0, 0.0, 0.0, 0.0, 1.620650669789396E9, 2021-05-10 14:44:29.789
12.0, -57.8132438659668, 102.62846374511719, 109.74736785888672, 36.563133239746094, -0.1120000034570694, 0.0, 1.055999994277954, 0.0, 0.0, 0.0, 0.0, 0.0, 1.620650669790131E9, 2021-05-10 14:44:29.790
12.0, -72.42877197265625, 102.25821685791016, 95.9172134399414, 28.17079734802246, -0.1120000034570694, 0.0, 1.055999994277954, 0.0, 0.0, 0.0, 0.0, 0.0, 1.620650669790131E9, 2021-05-10 14:44:29.790
13.0, -83.7008285522461, 114.84297943115234, 96.60161590576172, 33.930240631103516, -0.1120000034570694, 0.0, 1.055999994277954, 0.0, 0.0, 0.0, 0.0, 0.0, 1.6206506698036811E9, 2021-05-10 14:44:29.803
13.0, -71.48632049560547, 122.46863555908203, 108.96572875976562, 52.846656799316406, -0.1120000034570694, 0.0, 1.055999994277954, 0.0, 0.0, 0.0, 0.0, 0.0, 1.6206506698036811E9, 2021-05-10 14:44:29.803
14.0, -56.522979736328125, 113.11888122558594, 117.57123565673828, 49.555545806884766, -0.1120000034570694, 0.0, 1.055999994277954, 0.0, 0.0, 0.0, 0.0, 0.0, 1.6206506698193772E9, 2021-05-10 14:44:29.819
14.0, -84.83776092529297, 93.82473754882812, 96.26502227783203, 17.15679168701172, -0.1120000034570694, 0.0, 1.055999994277954, 0.0, 0.0, 0.0, 0.0, 0.0, 1.6206506698193772E9, 2021-05-10 14:44:29.819
15.0, -81.58404541015625, 112.74115753173828, 100.01614379882812, 22.822738647460938, -0.1120000034570694, 0.0, 1.055999994277954, 0.0, 0.0, 0.0, 0.0, 0.0, 1.620650669820102E9, 2021-05-10 14:44:29.820
15.0, -69.41815185546875, 142.70523071289062, 113.27034759521484, 42.92470169067383, -0.1120000034570694, 0.0, 1.055999994277954, 0.0, 0.0, 0.0, 0.0, 0.0, 1.620650669820102E9, 2021-05-10 14:44:29.820
16.0, -61.12305450439453, 106.49178314208984, 117.04390716552734, 53.949928283691406, -0.1120000034570694, 0.0, 1.055999994277954, 0.0, 0.0, 0.0, 0.0, 0.0, 1.620650669833645E9, 2021-05-10 14:44:29.833
16.0, -77.06250762939453, 106.09161376953125, 94.41377258300781, 36.9558219909668, -0.1120000034570694, 0.0, 1.055999994277954, 0.0, 0.0, 0.0, 0.0, 0.0, 1.620650669833645E9, 2021-05-10 14:44:29.833
17.0, -82.20113372802734, 98.44725799560547, 98.28083038330078, 29.446102142333984, -0.1120000034570694, 0.0, 1.055999994277954, 0.0, 0.0, 0.0, 0.0, 0.0, 1.6206506698494055E9, 2021-05-10 14:44:29.849
17.0, -62.7835693359375, 132.521484375, 112.70562744140625, 46.99745178222656, -0.1120000034570694, 0.0, 1.055999994277954, 0.0, 0.0, 0.0, 0.0, 0.0, 1.6206506698494055E9, 2021-05-10 14:44:29.849
18.0, -68.5280532836914, 122.11334228515625, 109.85208129882812, 38.53031921386719, -0.1120000034570694, 0.0, 1.055999994277954, 0.0, 0.0, 0.0, 0.0, 0.0, 1.6206506698501132E9, 2021-05-10 14:44:29.850
18.0, -80.94078826904297, 103.08473205566406, 85.96907806396484, 26.5439395904541, -0.1120000034570694, 0.0, 1.055999994277954, 0.0, 0.0, 0.0, 0.0, 0.0, 1.6206506698501132E9, 2021-05-10 14:44:29.850
19.0, -69.05912017822266, 101.17364501953125, 91.9791030883789, 48.98707962036133, -0.1120000034570694, 0.0, 1.055999994277954, 0.0, 0.0, 0.0, 0.0, 0.0, 1.6206506698636537E9, 2021-05-10 14:44:29.863
19.0, -66.20558166503906, 104.61434936523438, 100.12086486816406, 47.38266372680664, -0.1120000034570694, 0.0, 1.055999994277954, 0.0, 0.0, 0.0, 0.0, 0.0, 1.6206506698636537E9, 2021-05-10 14:44:29.863
20.0, -41.37638473510742, 112.56163787841797, 117.9601821899414, 55.950775146484375, -0.1120000034570694, 0.0, 1.055999994277954, 0.0, 0.0, 0.0, 0.0, 0.0, 1.6206506698793771E9, 2021-05-10 14:44:29.879
20.0, -71.1572036743164, 87.18267822265625, 89.4284896850586, 36.716468811035156, -0.1120000034570694, 0.0, 1.055999994277954, 0.0, 0.0, 0.0, 0.0, 0.0, 1.6206506698793771E9, 2021-05-10 14:44:29.879
21.0, -82.29837036132812, 99.2588119506836, 90.6551742553711, 27.508834838867188, -0.1120000034570694, 0.01600000075995922, 1.055999994277954, 0.0, 0.0, 0.0, 0.0, 0.0, 1.6206506698801064E9, 2021-05-10 14:44:29.880
21.0, -60.72288513183594, 127.84661102294922, 114.92338562011719, 53.62081527709961, -0.1120000034570694, 0.01600000075995922, 1.055999994277954, 0.0, 0.0, 0.0, 0.0, 0.0, 1.6206506698801064E9, 2021-05-10 14:44:29.880
22.0, -57.58510971069336, 122.81644439697266, 108.69644927978516, 63.868141174316406, -0.1120000034570694, 0.01600000075995922, 1.055999994277954, 0.0, 0.0, 0.0, 0.0, 0.0, 1.620650669893618E9, 2021-05-10 14:44:29.893
22.0, -79.27278900146484, 109.50240325927734, 86.37298583984375, 27.32183837890625, -0.1120000034570694, 0.01600000075995922, 1.055999994277954, 0.0, 0.0, 0.0, 0.0, 0.0, 1.620650669893618E9, 2021-05-10 14:44:29.893
23.0, -82.68731689453125, 109.26678466796875, 89.11807250976562, 24.498214721679688, -0.1120000034570694, 0.01600000075995922, 1.055999994277954, 0.0, 0.0, 0.0, 0.0, 0.0, 1.620650669909825E9, 2021-05-10 14:44:29.909
23.0, -59.97116470336914, 132.71595764160156, 120.41729736328125, 53.785369873046875, -0.1120000034570694, 0.01600000075995922, 1.055999994277954, 0.0, 0.0, 0.0, 0.0, 0.0, 1.620650669909825E9, 2021-05-10 14:44:29.909
24.0, -57.226078033447266, 117.83863830566406, 117.9564437866211, 40.856536865234375, -0.1120000034570694, 0.01600000075995922, 1.055999994277954, 0.0, 0.0, 0.0, 0.0, 0.0, 1.62065066994078E9, 2021-05-10 14:44:29.940
24.0, -70.3082504272461, 115.0748519897461, 96.4183578491211, 27.164762496948242, -0.1120000034570694, 0.01600000075995922, 1.055999994277954, 0.0, 0.0, 0.0, 0.0, 0.0, 1.62065066994078E9, 2021-05-10 14:44:29.940
25.0, -69.6724624633789, 112.4457015991211, 93.67327117919922, 26.087671279907227, -0.1120000034570694, 0.01600000075995922, 1.055999994277954, 0.0, 0.0, 0.0, 0.0, 0.0, 1.6206506699415371E9, 2021-05-10 14:44:29.941
25.0, -49.8248176574707, 119.34955596923828, 122.52660369873047, 55.49824523925781, -0.1120000034570694, 0.01600000075995922, 1.055999994277954, 0.0, 0.0, 0.0, 0.0, 0.0, 1.6206506699415371E9, 2021-05-10 14:44:29.941
26.0, -44.30846405029297, 87.72496032714844, 115.33477783203125, 41.94858932495117, -0.1120000034570694, 0.01600000075995922, 1.055999994277954, 0.0, 0.0, 0.0, 0.0, 0.0, 1.6206506699422765E9, 2021-05-10 14:44:29.942
26.0, -61.83737564086914, 113.47791290283203, 107.3201675415039, 30.971981048583984, -0.1120000034570694, 0.01600000075995922, 1.055999994277954, 0.0, 0.0, 0.0, 0.0, 0.0, 1.6206506699422765E9, 2021-05-10 14:44:29.942
27.0, -89.04888916015625, 124.89956665039062, 99.34296417236328, 39.424156188964844, -0.1120000034570694, 0.01600000075995922, 1.055999994277954, 0.0, 0.0, 0.0, 0.0, 0.0, 1.6206506699430077E9, 2021-05-10 14:44:29.943
27.0, -70.42792510986328, 129.57444763183594, 117.42911529541016, 46.84037780761719, -0.1120000034570694, 0.01600000075995922, 1.055999994277954, 0.0, 0.0, 0.0, 0.0, 0.0, 1.6206506699430077E9, 2021-05-10 14:44:29.943
28.0, -58.2171516418457, 137.7012481689453, 131.44252014160156, 52.87283706665039, -0.1120000034570694, 0.01600000075995922, 1.055999994277954, 0.0, 0.0, 0.0, 0.0, 0.0, 1.6206506699537888E9, 2021-05-10 14:44:29.953
28.0, -75.125244140625, 111.88097381591797, 97.27479553222656, 22.564685821533203, -0.1120000034570694, 0.01600000075995922, 1.055999994277954, 0.0, 0.0, 0.0, 0.0, 0.0, 1.6206506699537888E9, 2021-05-10 14:44:29.953
29.0, -68.33731842041016, 103.42506408691406, 103.09782409667969, 30.6877498626709, -0.1120000034570694, 0.01600000075995922, 1.055999994277954, 0.0, 0.0, 0.0, 0.0, 0.0, 1.6206506699693525E9, 2021-05-10 14:44:29.969
29.0, -69.65377044677734, 109.0947494506836, 114.381103515625, 54.52960968017578, -0.1120000034570694, 0.01600000075995922, 1.055999994277954, 0.0, 0.0, 0.0, 0.0, 0.0, 1.6206506699693525E9, 2021-05-10 14:44:29.969
30.0, -59.11846923828125, 118.4669418334961, 111.46398162841797, 37.86835861206055, -0.1120000034570694, 0.01600000075995922, 1.055999994277954, 0.0, 0.0, 0.0, 0.0, 0.0, 1.6206506699701276E9, 2021-05-10 14:44:29.970
30.0, -56.72119140625, 107.01162719726562, 95.50956726074219, 35.09709167480469, -0.1120000034570694, 0.01600000075995922, 1.055999994277954, 0.0, 0.0, 0.0, 0.0, 0.0, 1.6206506699701276E9, 2021-05-10 14:44:29.970
31.0, -78.12837982177734, 110.32891845703125, 90.9132308959961, 29.146909713745117, -0.1120000034570694, 0.01600000075995922, 1.055999994277954, 0.0, 0.0, 0.0, 0.0, 0.0, 1.6206506699836905E9, 2021-05-10 14:44:29.983
31.0, -64.2271728515625, 128.8451690673828, 115.15151977539062, 41.8962287902832, -0.1120000034570694, 0.01600000075995922, 1.055999994277954, 0.0, 0.0, 0.0, 0.0, 0.0, 1.6206506699836905E9, 2021-05-10 14:44:29.983
32.0, -68.38594055175781, 124.94818878173828, 115.87705993652344, 39.82432556152344, -0.1120000034570694, 0.01600000075995922, 1.055999994277954, 0.0, 0.0, 0.0, 0.0, 0.0, 1.6206506699993544E9, 2021-05-10 14:44:29.999
32.0, -78.6220474243164, 112.4457015991211, 94.56710815429688, 28.26055335998535, -0.1120000034570694, 0.01600000075995922, 1.055999994277954, 0.0, 0.0, 0.0, 0.0, 0.0, 1.6206506699993544E9, 2021-05-10 14:44:29.999
33.0, -71.63217163085938, 100.77347564697266, 97.21495819091797, 34.40895080566406, -0.1120000034570694, 0.01600000075995922, 1.055999994277954, 0.0, 0.0, 0.0, 0.0, 0.0, 1.6206506700000966E9, 2021-05-10 14:44:30.000
33.0, -48.927242279052734, 107.44171905517578, 123.82434844970703, 58.9389533996582, -0.1120000034570694, 0.01600000075995922, 1.055999994277954, 0.0, 0.0, 0.0, 0.0, 0.0, 1.6206506700000966E9, 2021-05-10 14:44:30.000
34.0, -63.778385162353516, 97.83765411376953, 123.10254669189453, 44.970428466796875, -0.1120000034570694, 0.01600000075995922, 1.055999994277954, 0.0, 0.0, 0.0, 0.0, 0.0, 1.6206506700298E9, 2021-05-10 14:44:30.029
34.0, -83.16976165771484, 93.14781951904297, 99.86654663085938, 39.58871078491211, -0.1120000034570694, 0.01600000075995922, 1.055999994277954, 0.0, 0.0, 0.0, 0.0, 0.0, 1.6206506700298E9, 2021-05-10 14:44:30.029
35.0, -79.0035171508789, 110.20924377441406, 100.77908325195312, 38.130149841308594, -0.1120000034570694, 0.01600000075995922, 1.055999994277954, 0.0, 0.0, 0.0, 0.0, 0.0, 1.6206506700456583E9, 2021-05-10 14:44:30.045
35.0, -60.1020622253418, 131.65756225585938, 110.7122573852539, 46.76557922363281, -0.1120000034570694, 0.01600000075995922, 1.055999994277954, 0.0, 0.0, 0.0, 0.0, 0.0, 1.6206506700456583E9, 2021-05-10 14:44:30.045
36.0, -57.62998962402344, 120.25086975097656, 112.92627716064453, 44.099029541015625, -0.1120000034570694, 0.01600000075995922, 1.055999994277954, 0.0, 0.0, 0.0, 0.0, 0.0, 1.620650670046255E9, 2021-05-10 14:44:30.046
36.0, -67.83243560791016, 118.65393829345703, 108.24018096923828, 30.758808135986328, -0.1120000034570694, 0.01600000075995922, 1.055999994277954, 0.0, 0.0, 0.0, 0.0, 0.0, 1.620650670046255E9, 2021-05-10 14:44:30.046
37.0, -83.5774154663086, 118.45945739746094, 105.30062103271484, 32.99152755737305, -0.1120000034570694, 0.01600000075995922, 1.055999994277954, 0.0, 0.0, 0.0, 0.0, 0.0, 1.620650670046971E9, 2021-05-10 14:44:30.046
37.0, -65.94004821777344, 129.84371948242188, 126.10942840576172, 50.86450958251953, -0.1120000034570694, 0.01600000075995922, 1.055999994277954, 0.0, 0.0, 0.0, 0.0, 0.0, 1.620650670046971E9, 2021-05-10 14:44:30.046
38.0, -65.37532043457031, 122.97351837158203, 121.67764282226562, 44.31968307495117, -0.1120000034570694, 0.01600000075995922, 1.055999994277954, 0.0, 0.0, 0.0, 0.0, 0.0, 1.620650670059487E9, 2021-05-10 14:44:30.059
38.0, -73.09447479248047, 109.24434661865234, 100.20687866210938, 31.07295799255371, -0.1120000034570694, 0.01600000075995922, 1.055999994277954, 0.0, 0.0, 0.0, 0.0, 0.0, 1.620650670059487E9, 2021-05-10 14:44:30.059
39.0, -75.83956146240234, 116.83634185791016, 98.43790435791016, 34.66326141357422, -0.1120000034570694, 0.01600000075995922, 1.055999994277954, 0.0, 0.0, 0.0, 0.0, 0.0, 1.6206506700601916E9, 2021-05-10 14:44:30.060
39.0, -63.39317321777344, 133.74069213867188, 116.19121551513672, 48.14560317993164, -0.1120000034570694, 0.01600000075995922, 1.055999994277954, 0.0, 0.0, 0.0, 0.0, 0.0, 1.6206506700601916E9, 2021-05-10 14:44:30.060
40.0, -63.71106719970703, 131.7174072265625, 114.68777465820312, 49.5256233215332, -0.1120000034570694, 0.01600000075995922, 1.055999994277954, 0.0, 0.0, 0.0, 0.0, 0.0, 1.6206506700736556E9, 2021-05-10 14:44:30.073
40.0, -66.55339050292969, 111.05072021484375, 86.02517700195312, 25.11155891418457, -0.1120000034570694, 0.01600000075995922, 1.055999994277954, 0.0, 0.0, 0.0, 0.0, 0.0, 1.6206506700736556E9, 2021-05-10 14:44:30.073
41.0, -72.35397338867188, 108.50010681152344, 79.64116668701172, 25.672542572021484, -0.1120000034570694, 0.01600000075995922, 1.055999994277954, 0.0, 0.0, 0.0, 0.0, 0.0, 1.6206506700893884E9, 2021-05-10 14:44:30.089
41.0, -72.90373992919922, 145.9178009033203, 115.66014862060547, 68.72627258300781, -0.1120000034570694, 0.01600000075995922, 1.055999994277954, 0.0, 0.0, 0.0, 0.0, 0.0, 1.6206506700893884E9, 2021-05-10 14:44:30.089
42.0, -73.89107513427734, 132.97401428222656, 109.94184112548828, 44.65253448486328, -0.12800000607967377, 0.01600000075995922, 1.055999994277954, 0.0, 0.0, 0.0, 0.0, 0.0, 1.6206506700901237E9, 2021-05-10 14:44:30.090
42.0, -91.19558715820312, 98.14806365966797, 86.10746002197266, 23.424863815307617, -0.12800000607967377, 0.01600000075995922, 1.055999994277954, 0.0, 0.0, 0.0, 0.0, 0.0, 1.6206506700901237E9, 2021-05-10 14:44:30.090
43.0, -80.55557250976562, 97.57585906982422, 89.73516082763672, 25.97173500061035, -0.12800000607967377, 0.01600000075995922, 1.055999994277954, 0.0, 0.0, 0.0, 0.0, 0.0, 1.6206506701036527E9, 2021-05-10 14:44:30.103
43.0, -47.580875396728516, 129.02841186523438, 117.5338363647461, 52.592342376708984, -0.12800000607967377, 0.01600000075995922, 1.055999994277954, 0.0, 0.0, 0.0, 0.0, 0.0, 1.6206506701036527E9, 2021-05-10 14:44:30.103
44.0, -48.3999137878418, 139.97511291503906, 121.12787628173828, 55.1242561340332, -0.12800000607967377, 0.01600000075995922, 1.055999994277954, 0.0, 0.0, 0.0, 0.0, 0.0, 1.6206506701194108E9, 2021-05-10 14:44:30.119
44.0, -86.03826904296875, 114.6559829711914, 89.37612915039062, 15.077406883239746, -0.12800000607967377, 0.01600000075995922, 1.055999994277954, 0.0, 0.0, 0.0, 0.0, 0.0, 1.6206506701194108E9, 2021-05-10 14:44:30.119
45.0, -83.82798767089844, 112.69253540039062, 98.8455581665039, 45.22100067138672, -0.12800000607967377, 0.01600000075995922, 1.055999994277954, 0.0, 0.0, 0.0, 0.0, 0.0, 1.6206506701201408E9, 2021-05-10 14:44:30.120
45.0, -66.8787612915039, 123.80377960205078, 111.88285064697266, 32.67363739013672, -0.12800000607967377, 0.01600000075995922, 1.055999994277954, 0.0, 0.0, 0.0, 0.0, 0.0, 1.6206506701201408E9, 2021-05-10 14:44:30.120
46.0, -65.48377990722656, 139.43655395507812, 120.52201843261719, 45.781986236572266, -0.12800000607967377, 0.01600000075995922, 1.055999994277954, 0.0, 0.0, 0.0, 0.0, 0.0, 1.6206506701497822E9, 2021-05-10 14:44:30.149
46.0, -81.04924011230469, 129.6081085205078, 104.51898193359375, 36.69776916503906, -0.12800000607967377, 0.01600000075995922, 1.055999994277954, 0.0, 0.0, 0.0, 0.0, 0.0, 1.6206506701497822E9, 2021-05-10 14:44:30.149
47.0, -71.54241943359375, 115.67323303222656, 104.06645965576172, 28.825279235839844, -0.12800000607967377, 0.01600000075995922, 1.055999994277954, 0.0, 0.0, 0.0, 0.0, 0.0, 1.6206506701505237E9, 2021-05-10 14:44:30.150
47.0, -70.2671127319336, 114.2707748413086, 117.85173034667969, 40.47132873535156, -0.12800000607967377, 0.01600000075995922, 1.055999994277954, 0.0, 0.0, 0.0, 0.0, 0.0, 1.6206506701505237E9, 2021-05-10 14:44:30.150
48.0, -63.25853729248047, 148.74142456054688, 115.28241729736328, 67.52576446533203, -0.12800000607967377, 0.01600000075995922, 1.055999994277954, 0.0, 0.0, 0.0, 0.0, 0.0, 1.6206506701644278E9, 2021-05-10 14:44:30.164
48.0, -74.28750610351562, 115.7966537475586, 85.16873931884766, 15.870265007019043, -0.12800000607967377, 0.01600000075995922, 1.055999994277954, 0.0, 0.0, 0.0, 0.0, 0.0, 1.6206506701644278E9, 2021-05-10 14:44:30.164
49.0, -84.29173278808594, 119.17378234863281, 92.080078125, 16.18067741394043, -0.12800000607967377, 0.01600000075995922, 1.055999994277954, 0.0, 0.0, 0.0, 0.0, 0.0, 1.6206506701651018E9, 2021-05-10 14:44:30.165
49.0, -73.02715301513672, 126.60122680664062, 114.30255889892578, 39.83928298950195, -0.12800000607967377, 0.01600000075995922, 1.055999994277954, 0.0, 0.0, 0.0, 0.0, 0.0, 1.6206506701651018E9, 2021-05-10 14:44:30.165
50.0, -62.09917068481445, 128.3253173828125, 115.28241729736328, 49.42838668823242, -0.12800000607967377, 0.01600000075995922, 1.055999994277954, 0.0, 0.0, 0.0, 0.0, 0.0, 1.6206506701793609E9, 2021-05-10 14:44:30.179
50.0, -67.35746765136719, 108.12611389160156, 92.16983795166016, 29.913589477539062, -0.12800000607967377, 0.01600000075995922, 1.055999994277954, 0.0, 0.0, 0.0, 0.0, 0.0, 1.6206506701793609E9, 2021-05-10 14:44:30.179
51.0, -68.42707824707031, 111.08063507080078, 97.9068374633789, 39.323177337646484, -0.12800000607967377, 0.0, 1.055999994277954, 0.0, 0.0, 0.0, 0.0, 0.0, 1.6206506701801095E9, 2021-05-10 14:44:30.180
51.0, -59.6495361328125, 116.1182861328125, 125.00615692138672, 67.3387680053711, -0.12800000607967377, 0.0, 1.055999994277954, 0.0, 0.0, 0.0, 0.0, 0.0, 1.6206506701801095E9, 2021-05-10 14:44:30.180
52.0, -75.42816925048828, 114.60362243652344, 111.56495666503906, 58.96513366699219, -0.1120000034570694, 0.0, 1.055999994277954, 0.0, 0.0, 0.0, 0.0, 0.0, 1.6206506701936696E9, 2021-05-10 14:44:30.193
52.0, -67.43226623535156, 97.89375305175781, 101.1306381225586, 33.18974304199219, -0.1120000034570694, 0.0, 1.055999994277954, 0.0, 0.0, 0.0, 0.0, 0.0, 1.6206506701936696E9, 2021-05-10 14:44:30.193
53.0, -71.72940826416016, 122.89498138427734, 100.3714370727539, 32.696075439453125, -0.1120000034570694, 0.0, 1.055999994277954, 0.0, 0.0, 0.0, 0.0, 0.0, 1.620650670209342E9, 2021-05-10 14:44:30.209
53.0, -66.81892395019531, 136.9196014404297, 115.48062896728516, 42.333797454833984, -0.1120000034570694, 0.0, 1.055999994277954, 0.0, 0.0, 0.0, 0.0, 0.0, 1.620650670209342E9, 2021-05-10 14:44:30.209
54.0, -59.39896011352539, 127.685791015625, 116.80829620361328, 40.650840759277344, -0.1120000034570694, 0.0, 1.055999994277954, 0.0, 0.0, 0.0, 0.0, 0.0, 1.6206506702100997E9, 2021-05-10 14:44:30.210
54.0, -60.9061393737793, 122.17691802978516, 113.25164794921875, 36.19662094116211, -0.1120000034570694, 0.0, 1.055999994277954, 0.0, 0.0, 0.0, 0.0, 0.0, 1.6206506702100997E9, 2021-05-10 14:44:30.210
55.0, -78.83895874023438, 113.2086410522461, 105.72697448730469, 28.8327579498291, -0.1120000034570694, 0.0, 1.055999994277954, 0.0, 0.0, 0.0, 0.0, 0.0, 1.6206506702237074E9, 2021-05-10 14:44:30.223
55.0, -63.12016296386719, 123.62800598144531, 123.11376953125, 51.081424713134766, -0.1120000034570694, 0.0, 1.055999994277954, 0.0, 0.0, 0.0, 0.0, 0.0, 1.6206506702237074E9, 2021-05-10 14:44:30.223
56.0, -43.97561264038086, 128.29165649414062, 131.4275665283203, 52.783077239990234, -0.1120000034570694, 0.0, 1.055999994277954, 0.0, 0.0, 0.0, 0.0, 0.0, 1.6206506702393453E9, 2021-05-10 14:44:30.239
56.0, -84.73678588867188, 125.58023071289062, 103.73734283447266, 32.56892013549805, -0.1120000034570694, 0.0, 1.055999994277954, 0.0, 0.0, 0.0, 0.0, 0.0, 1.6206506702393453E9, 2021-05-10 14:44:30.239
57.0, -95.36931610107422, 105.73258209228516, 91.74348449707031, 14.363085746765137, -0.1120000034570694, 0.0, 1.055999994277954, 0.0, 0.0, 0.0, 0.0, 0.0, 1.620650670240118E9, 2021-05-10 14:44:30.240
57.0, -69.36579132080078, 121.25690460205078, 120.99324035644531, 33.29071807861328, -0.1120000034570694, 0.0, 1.055999994277954, 0.0, 0.0, 0.0, 0.0, 0.0, 1.620650670240118E9, 2021-05-10 14:44:30.240
58.0, -75.80216217041016, 132.9590606689453, 119.16817474365234, 42.73396682739258, -0.1120000034570694, 0.0, 1.055999994277954, 0.0, 0.0, 0.0, 0.0, 0.0, 1.6206506702536793E9, 2021-05-10 14:44:30.253
58.0, -85.73533630371094, 115.98738861083984, 93.6283950805664, 24.266340255737305, -0.1120000034570694, 0.0, 1.055999994277954, 0.0, 0.0, 0.0, 0.0, 0.0, 1.6206506702536793E9, 2021-05-10 14:44:30.253
59.0, -83.49139404296875, 107.64366912841797, 90.45696258544922, 32.265987396240234, -0.1120000034570694, 0.0, 1.055999994277954, 0.0, 0.0, 0.0, 0.0, 0.0, 1.6206506702694368E9, 2021-05-10 14:44:30.269
59.0, -62.7536506652832, 124.13288879394531, 118.46507263183594, 51.313297271728516, -0.1120000034570694, 0.0, 1.055999994277954, 0.0, 0.0, 0.0, 0.0, 0.0, 1.6206506702694368E9, 2021-05-10 14:44:30.269
60.0, -58.55000305175781, 125.1912841796875, 119.4224853515625, 55.68149948120117, -0.1120000034570694, 0.0, 1.055999994277954, 0.0, 0.0, 0.0, 0.0, 0.0, 1.620650670270147E9, 2021-05-10 14:44:30.270
60.0, -75.76850128173828, 93.51432800292969, 88.75530242919922, 27.235820770263672, -0.1120000034570694, 0.0, 1.055999994277954, 0.0, 0.0, 0.0, 0.0, 0.0, 1.620650670270147E9, 2021-05-10 14:44:30.270
61.0, -76.91291046142578, 88.31961059570312, 93.43018341064453, 33.8853645324707, -0.1120000034570694, 0.0, 1.055999994277954, 0.0, 0.0, 0.0, 0.0, 0.0, 1.6206506702836611E9, 2021-05-10 14:44:30.283
61.0, -56.852088928222656, 137.07293701171875, 123.78694915771484, 56.61647415161133, -0.1120000034570694, 0.0, 1.055999994277954, 0.0, 0.0, 0.0, 0.0, 0.0, 1.6206506702836611E9, 2021-05-10 14:44:30.283
62.0, -60.965980529785156, 129.44354248046875, 125.6082763671875, 55.92085266113281, -0.1120000034570694, 0.0, 1.055999994277954, 0.0, 0.0, 0.0, 0.0, 0.0, 1.6206506702993383E9, 2021-05-10 14:44:30.299
62.0, -87.74365997314453, 105.9420166015625, 100.98851776123047, 35.026031494140625, -0.1120000034570694, 0.0, 1.055999994277954, 0.0, 0.0, 0.0, 0.0, 0.0, 1.6206506702993383E9, 2021-05-10 14:44:30.299
63.0, -81.3746109008789, 115.0748519897461, 101.15681457519531, 42.56193161010742, -0.1120000034570694, 0.0, 1.055999994277954, 0.0, 0.0, 0.0, 0.0, 0.0, 1.620650670300116E9, 2021-05-10 14:44:30.300
63.0, -51.10012435913086, 135.73031616210938, 130.04005432128906, 69.41441345214844, -0.1120000034570694, 0.0, 1.055999994277954, 0.0, 0.0, 0.0, 0.0, 0.0, 1.620650670300116E9, 2021-05-10 14:44:30.300
64.0, -66.52721405029297, 119.08402252197266, 115.91445922851562, 35.897430419921875, -0.1120000034570694, 0.0, 1.055999994277954, 0.0, 0.0, 0.0, 0.0, 0.0, 1.6206506703136816E9, 2021-05-10 14:44:30.313
64.0, -88.86563110351562, 101.57755279541016, 95.2328109741211, 23.166810989379883, -0.1120000034570694, 0.0, 1.055999994277954, 0.0, 0.0, 0.0, 0.0, 0.0, 1.6206506703136816E9, 2021-05-10 14:44:30.313
65.0, -80.62289428710938, 112.05300903320312, 100.2330551147461, 29.606918334960938, -0.1120000034570694, 0.0, 1.055999994277954, 0.0, 0.0, 0.0, 0.0, 0.0, 1.620650670329344E9, 2021-05-10 14:44:30.329
65.0, -68.57293701171875, 132.65237426757812, 120.95210266113281, 48.396175384521484, -0.1120000034570694, 0.0, 1.055999994277954, 0.0, 0.0, 0.0, 0.0, 0.0, 1.620650670329344E9, 2021-05-10 14:44:30.329
66.0, -63.920501708984375, 128.90499877929688, 112.54480743408203, 46.204593658447266, -0.1120000034570694, 0.0, 1.055999994277954, 0.0, 0.0, 0.0, 0.0, 0.0, 1.6206506703300855E9, 2021-05-10 14:44:30.330
66.0, -81.84210205078125, 106.91439056396484, 92.45406341552734, 26.607519149780273, -0.1120000034570694, 0.0, 1.055999994277954, 0.0, 0.0, 0.0, 0.0, 0.0, 1.6206506703300855E9, 2021-05-10 14:44:30.330
67.0, -75.5665512084961, 105.51192474365234, 91.90055847167969, 29.262847900390625, -0.1120000034570694, 0.0, 1.055999994277954, 0.0, 0.0, 0.0, 0.0, 0.0, 1.6206506703436575E9, 2021-05-10 14:44:30.343
67.0, -65.39775848388672, 124.5928955078125, 110.3681869506836, 46.31679153442383, -0.1120000034570694, 0.0, 1.055999994277954, 0.0, 0.0, 0.0, 0.0, 0.0, 1.6206506703436575E9, 2021-05-10 14:44:30.343
68.0, -66.08964538574219, 118.29864501953125, 105.46517944335938, 47.6070556640625, -0.1120000034570694, 0.0, 1.055999994277954, 0.0, 0.0, 0.0, 0.0, 0.0, 1.6206506703593616E9, 2021-05-10 14:44:30.359
68.0, -75.9293212890625, 97.26171112060547, 90.62899780273438, 31.327272415161133, -0.1120000034570694, 0.0, 1.055999994277954, 0.0, 0.0, 0.0, 0.0, 0.0, 1.6206506703593616E9, 2021-05-10 14:44:30.359
69.0, -79.25408935546875, 99.12417602539062, 88.39253234863281, 28.04364013671875, -0.1120000034570694, 0.0, 1.055999994277954, 0.0, 0.0, 0.0, 0.0, 0.0, 1.6206506703601296E9, 2021-05-10 14:44:30.360
69.0, -64.40668487548828, 121.1821060180664, 107.90733337402344, 45.77824401855469, -0.1120000034570694, 0.0, 1.055999994277954, 0.0, 0.0, 0.0, 0.0, 0.0, 1.6206506703601296E9, 2021-05-10 14:44:30.360
70.0, -71.31053924560547, 144.63876342773438, 107.30146789550781, 55.760040283203125, -0.1120000034570694, 0.0, 1.055999994277954, 0.0, 0.0, 0.0, 0.0, 0.0, 1.6206506703736727E9, 2021-05-10 14:44:30.373
70.0, -98.62677001953125, 112.07545471191406, 80.46395111083984, 27.63973045349121, -0.1120000034570694, 0.0, 1.055999994277954, 0.0, 0.0, 0.0, 0.0, 0.0, 1.6206506703736727E9, 2021-05-10 14:44:30.373
71.0, -86.07566833496094, 106.4468994140625, 86.65348052978516, 29.11699104309082, -0.1120000034570694, 0.0, 1.055999994277954, 0.0, 0.0, 0.0, 0.0, 0.0, 1.6206506703897915E9, 2021-05-10 14:44:30.389
71.0, -74.87466430664062, 140.3715362548828, 110.06525421142578, 49.10675811767578, -0.1120000034570694, 0.0, 1.055999994277954, 0.0, 0.0, 0.0, 0.0, 0.0, 1.6206506703897915E9, 2021-05-10 14:44:30.389
72.0, -61.69525909423828, 137.09912109375, 114.42597961425781, 48.45601272583008, -0.1120000034570694, 0.0, 1.055999994277954, 0.0, 0.0, 0.0, 0.0, 0.0, 1.6206506704044108E9, 2021-05-10 14:44:30.404
72.0, -78.1957015991211, 113.16376495361328, 95.62924194335938, 42.629249572753906, -0.1120000034570694, 0.0, 1.055999994277954, 0.0, 0.0, 0.0, 0.0, 0.0, 1.6206506704044108E9, 2021-05-10 14:44:30.404
73.0, -86.03079223632812, 101.24844360351562, 92.3792724609375, 24.50943374633789, -0.1120000034570694, 0.0, 1.055999994277954, 0.0, 0.0, 0.0, 0.0, 0.0, 1.6206506704051251E9, 2021-05-10 14:44:30.405
73.0, -65.89142608642578, 125.08656311035156, 118.48377227783203, 45.93906021118164, -0.1120000034570694, 0.0, 1.055999994277954, 0.0, 0.0, 0.0, 0.0, 0.0, 1.6206506704051251E9, 2021-05-10 14:44:30.405
74.0, -75.11775970458984, 128.34776306152344, 114.4446792602539, 41.83639144897461, -0.1120000034570694, 0.0, 1.055999994277954, 0.0, 0.0, 0.0, 0.0, 0.0, 1.6206506704193652E9, 2021-05-10 14:44:30.419
74.0, -90.04743957519531, 114.59988403320312, 81.26802825927734, 20.728395462036133, -0.1120000034570694, 0.0, 1.055999994277954, 0.0, 0.0, 0.0, 0.0, 0.0, 1.6206506704193652E9, 2021-05-10 14:44:30.419
75.0, -82.73967742919922, 119.09150695800781, 89.60800170898438, 30.485794067382812, -0.1120000034570694, 0.0, 1.055999994277954, 0.0, 0.0, 0.0, 0.0, 0.0, 1.6206506704201074E9, 2021-05-10 14:44:30.420
75.0, -71.05622863769531, 125.51290893554688, 105.21834564208984, 41.41378402709961, -0.1120000034570694, 0.0, 1.055999994277954, 0.0, 0.0, 0.0, 0.0, 0.0, 1.6206506704201074E9, 2021-05-10 14:44:30.420
76.0, -71.08615112304688, 125.50169372558594, 106.5347900390625, 39.29325866699219, -0.1120000034570694, 0.0, 1.055999994277954, 0.0, 0.0, 0.0, 0.0, 0.0, 1.6206506704336607E9, 2021-05-10 14:44:30.433
76.0, -84.05986022949219, 117.52074432373047, 83.50448608398438, 25.418230056762695, -0.1120000034570694, 0.0, 1.055999994277954, 0.0, 0.0, 0.0, 0.0, 0.0, 1.6206506704336607E9, 2021-05-10 14:44:30.433
77.0, -84.14213562011719, 102.14228057861328, 85.48289489746094, 28.67194366455078, -0.1120000034570694, 0.0, 1.055999994277954, 0.0, 0.0, 0.0, 0.0, 0.0, 1.6206506704493482E9, 2021-05-10 14:44:30.449
77.0, -63.920501708984375, 138.77085876464844, 115.6676254272461, 63.40065383911133, -0.1120000034570694, 0.0, 1.055999994277954, 0.0, 0.0, 0.0, 0.0, 0.0, 1.6206506704493482E9, 2021-05-10 14:44:30.449
78.0, -74.90084838867188, 125.08282470703125, 108.4832763671875, 40.3292121887207, -0.1120000034570694, 0.0, 1.055999994277954, 0.0, 0.0, 0.0, 0.0, 0.0, 1.620650670450092E9, 2021-05-10 14:44:30.450
78.0, -87.22007751464844, 111.08811950683594, 91.47421264648438, 29.62561798095703, -0.1120000034570694, 0.0, 1.055999994277954, 0.0, 0.0, 0.0, 0.0, 0.0, 1.620650670450092E9, 2021-05-10 14:44:30.450
79.0, -88.22236633300781, 113.18620300292969, 87.8614730834961, 30.366117477416992, -0.1120000034570694, 0.0, 1.055999994277954, 0.0, 0.0, 0.0, 0.0, 0.0, 1.6206506704636676E9, 2021-05-10 14:44:30.463
79.0, -62.20388412475586, 124.75371551513672, 116.03787231445312, 56.190128326416016, -0.1120000034570694, 0.0, 1.055999994277954, 0.0, 0.0, 0.0, 0.0, 0.0, 1.6206506704636676E9, 2021-05-10 14:44:30.463
80.0, -59.95246505737305, 119.82078552246094, 112.9561996459961, 57.11388397216797, -0.1120000034570694, 0.0, 1.055999994277954, 0.0, 0.0, 0.0, 0.0, 0.0, 1.6206506704793189E9, 2021-05-10 14:44:30.479
80.0, -73.62554168701172, 91.62567901611328, 93.44513702392578, 40.69198226928711, -0.1120000034570694, 0.0, 1.055999994277954, 0.0, 0.0, 0.0, 0.0, 0.0, 1.6206506704793189E9, 2021-05-10 14:44:30.479
81.0, -89.53507232666016, 115.65079498291016, 87.69317626953125, 31.899477005004883, -0.1120000034570694, 0.0, 1.055999994277954, 0.0, 0.0, 0.0, 0.0, 0.0, 1.6206506704801233E9, 2021-05-10 14:44:30.480
81.0, -80.6902084350586, 134.67567443847656, 107.27155303955078, 50.651336669921875, -0.1120000034570694, 0.0, 1.055999994277954, 0.0, 0.0, 0.0, 0.0, 0.0, 1.6206506704801233E9, 2021-05-10 14:44:30.480
82.0, -74.96442413330078, 134.45875549316406, 112.11097717285156, 38.623817443847656, -0.1120000034570694, 0.0, 1.055999994277954, 0.0, 0.0, 0.0, 0.0, 0.0, 1.6206506704936647E9, 2021-05-10 14:44:30.493
82.0, -79.3214111328125, 111.73886108398438, 88.98343658447266, 35.800193786621094, -0.1120000034570694, 0.0, 1.055999994277954, 0.0, 0.0, 0.0, 0.0, 0.0, 1.6206506704936647E9, 2021-05-10 14:44:30.493
83.0, -95.0252456665039, 116.32023620605469, 84.77605438232422, 27.538753509521484, -0.1120000034570694, 0.0, 1.055999994277954, 0.0, 0.0, 0.0, 0.0, 0.0, 1.620650670509314E9, 2021-05-10 14:44:30.509
83.0, -77.57487487792969, 139.552490234375, 112.67196655273438, 49.60042190551758, -0.1120000034570694, 0.0, 1.055999994277954, 0.0, 0.0, 0.0, 0.0, 0.0, 1.620650670509314E9, 2021-05-10 14:44:30.509
84.0, -68.3635025024414, 139.43655395507812, 117.51887512207031, 39.97391891479492, -0.1120000034570694, 0.0, 1.055999994277954, 0.0, 0.0, 0.0, 0.0, 0.0, 1.6206506705100996E9, 2021-05-10 14:44:30.510
84.0, -76.75957489013672, 109.30418395996094, 95.98078918457031, 27.37793731689453, -0.1120000034570694, 0.0, 1.055999994277954, 0.0, 0.0, 0.0, 0.0, 0.0, 1.6206506705100996E9, 2021-05-10 14:44:30.510
85.0, -74.81108856201172, 104.9210205078125, 93.688232421875, 36.39483642578125, -0.1120000034570694, 0.0, 1.055999994277954, 0.0, 0.0, 0.0, 0.0, 0.0, 1.620650670540099E9, 2021-05-10 14:44:30.540
85.0, -69.05538177490234, 117.92839813232422, 106.77788543701172, 48.18300247192383, -0.1120000034570694, 0.0, 1.055999994277954, 0.0, 0.0, 0.0, 0.0, 0.0, 1.620650670540099E9, 2021-05-10 14:44:30.540
86.0, -77.97504425048828, 130.07933044433594, 107.07707214355469, 49.533103942871094, -0.1120000034570694, 0.0, 1.055999994277954, 0.0, 0.0, 0.0, 0.0, 0.0, 1.620650670540762E9, 2021-05-10 14:44:30.540
86.0, -63.056583404541016, 123.7289810180664, 101.6392593383789, 43.25755310058594, -0.1120000034570694, 0.0, 1.055999994277954, 0.0, 0.0, 0.0, 0.0, 0.0, 1.620650670540762E9, 2021-05-10 14:44:30.540
87.0, -87.97554016113281, 111.86602020263672, 97.55902862548828, 45.73710632324219, -0.1120000034570694, 0.0, 1.055999994277954, 0.0, 0.0, 0.0, 0.0, 0.0, 1.620650670541514E9, 2021-05-10 14:44:30.541
87.0, -70.13621520996094, 123.3063735961914, 121.13909912109375, 49.10675811767578, -0.1120000034570694, 0.0, 1.055999994277954, 0.0, 0.0, 0.0, 0.0, 0.0, 1.620650670541514E9, 2021-05-10 14:44:30.541
88.0, -63.03414535522461, 130.09054565429688, 118.32669830322266, 57.21860122680664, -0.1120000034570694, 0.0, 1.055999994277954, 0.0, 0.0, 0.0, 0.0, 0.0, 1.620650670553646E9, 2021-05-10 14:44:30.553
88.0, -84.90882110595703, 111.51820373535156, 93.9462890625, 36.185401916503906, -0.1120000034570694, 0.0, 1.055999994277954, 0.0, 0.0, 0.0, 0.0, 0.0, 1.620650670553646E9, 2021-05-10 14:44:30.553
89.0, -94.70361328125, 118.68011474609375, 91.22364044189453, 34.15463638305664, -0.1120000034570694, 0.0, 1.055999994277954, 0.0, 0.0, 0.0, 0.0, 0.0, 1.6206506705693688E9, 2021-05-10 14:44:30.569
89.0, -62.428279876708984, 134.36151123046875, 126.74147033691406, 63.041622161865234, -0.1120000034570694, 0.0, 1.055999994277954, 0.0, 0.0, 0.0, 0.0, 0.0, 1.6206506705693688E9, 2021-05-10 14:44:30.569
90.0, -56.3098030090332, 110.09330749511719, 120.2265625, 53.30292510986328, -0.1120000034570694, 0.0, 1.055999994277954, 0.0, 0.0, 0.0, 0.0, 0.0, 1.6206506705701206E9, 2021-05-10 14:44:30.570
90.0, -96.30055236816406, 94.25109100341797, 94.12206268310547, 54.77644348144531, -0.1120000034570694, 0.0, 1.055999994277954, 0.0, 0.0, 0.0, 0.0, 0.0, 1.6206506705701206E9, 2021-05-10 14:44:30.570
91.0, -84.40019226074219, 120.28453063964844, 98.2471694946289, 29.143171310424805, -0.1120000034570694, 0.0, 1.055999994277954, 0.0, 0.0, 0.0, 0.0, 0.0, 1.6206506705836916E9, 2021-05-10 14:44:30.583
91.0, -61.36240768432617, 130.56552124023438, 117.82554626464844, 39.55131149291992, -0.1120000034570694, 0.0, 1.055999994277954, 0.0, 0.0, 0.0, 0.0, 0.0, 1.6206506705836916E9, 2021-05-10 14:44:30.583
92.0, -84.0411605834961, 119.68614959716797, 118.9176025390625, 41.88874816894531, -0.1120000034570694, 0.0, 1.055999994277954, 0.0, 0.0, 0.0, 0.0, 0.0, 1.6206506706164172E9, 2021-05-10 14:44:30.616
92.0, -91.21428680419922, 115.35160064697266, 93.56855773925781, 17.003454208374023, -0.1120000034570694, 0.0, 1.055999994277954, 0.0, 0.0, 0.0, 0.0, 0.0, 1.6206506706164172E9, 2021-05-10 14:44:30.616
93.0, -76.01907348632812, 133.22833251953125, 101.317626953125, 32.688594818115234, -0.1120000034570694, 0.0, 1.055999994277954, 0.0, 0.0, 0.0, 0.0, 0.0, 1.6206506706171193E9, 2021-05-10 14:44:30.617
93.0, -56.50053787231445, 125.94300079345703, 118.90637969970703, 50.591495513916016, -0.1120000034570694, 0.0, 1.055999994277954, 0.0, 0.0, 0.0, 0.0, 0.0, 1.6206506706171193E9, 2021-05-10 14:44:30.617
94.0, -65.56979370117188, 122.39383697509766, 119.81143188476562, 37.326072692871094, -0.1120000034570694, 0.0, 1.055999994277954, 0.0, 0.0, 0.0, 0.0, 0.0, 1.6206506706178665E9, 2021-05-10 14:44:30.617
94.0, -79.51962280273438, 99.16531372070312, 92.55504608154297, 16.01612091064453, -0.1120000034570694, 0.0, 1.055999994277954, 0.0, 0.0, 0.0, 0.0, 0.0, 1.6206506706178665E9, 2021-05-10 14:44:30.617
95.0, -83.88782501220703, 114.60362243652344, 99.7730484008789, 34.509925842285156, -0.1120000034570694, 0.0, 1.055999994277954, 0.0, 0.0, 0.0, 0.0, 0.0, 1.62065067061861E9, 2021-05-10 14:44:30.618
95.0, -46.90021514892578, 133.93890380859375, 133.63784790039062, 68.05309295654297, -0.1120000034570694, 0.0, 1.055999994277954, 0.0, 0.0, 0.0, 0.0, 0.0, 1.62065067061861E9, 2021-05-10 14:44:30.618
96.0, -77.29064178466797, 133.9276885986328, 123.45409393310547, 36.08442306518555, -0.1120000034570694, 0.0, 1.055999994277954, 0.0, 0.0, 0.0, 0.0, 0.0, 1.620650670628759E9, 2021-05-10 14:44:30.628
96.0, -94.86817169189453, 96.09485626220703, 99.70573425292969, 25.227495193481445, -0.1120000034570694, 0.0, 1.055999994277954, 0.0, 0.0, 0.0, 0.0, 0.0, 1.620650670628759E9, 2021-05-10 14:44:30.628
97.0, -82.46666717529297, 118.26872253417969, 105.62225341796875, 49.555545806884766, -0.1120000034570694, 0.0, 1.055999994277954, 0.0, 0.0, 0.0, 0.0, 0.0, 1.6206506706436644E9, 2021-05-10 14:44:30.643
97.0, -57.042823791503906, 137.59278869628906, 128.20376586914062, 62.48811721801758, -0.1120000034570694, 0.0, 1.055999994277954, 0.0, 0.0, 0.0, 0.0, 0.0, 1.6206506706436644E9, 2021-05-10 14:44:30.643
98.0, -83.48765563964844, 126.08137512207031, 129.16867065429688, 63.30341720581055, -0.1120000034570694, 0.0, 1.055999994277954, 0.0, 0.0, 0.0, 0.0, 0.0, 1.6206506706768918E9, 2021-05-10 14:44:30.676
98.0, -95.30947875976562, 99.87590026855469, 102.70513153076172, 35.23920822143555, -0.1120000034570694, 0.0, 1.055999994277954, 0.0, 0.0, 0.0, 0.0, 0.0, 1.6206506706768918E9, 2021-05-10 14:44:30.676
99.0, -80.5256576538086, 103.3951416015625, 108.44961547851562, 42.47217559814453, -0.1120000034570694, 0.0, 1.055999994277954, 0.0, 0.0, 0.0, 0.0, 0.0, 1.62065067067773E9, 2021-05-10 14:44:30.677
99.0, -72.45494842529297, 141.16065979003906, 128.13270568847656, 64.31693267822266, -0.1120000034570694, 0.0, 1.055999994277954, 0.0, 0.0, 0.0, 0.0, 0.0, 1.62065067067773E9, 2021-05-10 14:44:30.677
100.0, -83.46521759033203, 127.70075225830078, 124.62468719482422, 53.66195297241211, -0.1120000034570694, 0.0, 1.055999994277954, 0.0, 0.0, 0.0, 0.0, 0.0, 1.6206506706783712E9, 2021-05-10 14:44:30.678
100.0, -91.1694107055664, 111.3835678100586, 105.21086883544922, 40.98743438720703, -0.1120000034570694, 0.0, 1.055999994277954, 0.0, 0.0, 0.0, 0.0, 0.0, 1.6206506706783712E9, 2021-05-10 14:44:30.678
0.0, -81.11656188964844, 114.14922332763672, 101.63739013671875, 30.1361141204834, -0.1120000034570694, 0.0, 1.055999994277954, 0.0, 0.0, 0.0, 0.0, 0.0, 1.6206506706893847E9, 2021-05-10 14:44:30.689
1.0, -61.235252380371094, 132.2241668701172, 125.18379974365234, 56.31167221069336, -0.1120000034570694, 0.0, 1.055999994277954, 0.0, 0.0, 0.0, 0.0, 0.0, 1.6206506706901293E9, 2021-05-10 14:44:30.690
1.0, -49.978153228759766, 128.454345703125, 120.4154281616211, 51.146873474121094, -0.1120000034570694, 0.0, 1.055999994277954, 0.0, 0.0, 0.0, 0.0, 0.0, 1.6206506706901293E9, 2021-05-10 14:44:30.690
2.0, -97.82643127441406, 102.24512481689453, 90.3653335571289, 30.727018356323242, -0.1120000034570694, 0.0, 1.055999994277954, 0.0, 0.0, 0.0, 0.0, 0.0, 1.6206506707043655E9, 2021-05-10 14:44:30.704
2.0, -87.84464263916016, 105.7905502319336, 98.60059356689453, 20.012205123901367, -0.1120000034570694, 0.0, 1.055999994277954, 0.0, 0.0, 0.0, 0.0, 0.0, 1.6206506707043655E9, 2021-05-10 14:44:30.704
3.0, -74.27254486083984, 133.26759338378906, 119.1887435913086, 30.68587875366211, -0.1120000034570694, 0.0, 1.055999994277954, 0.0, 0.0, 0.0, 0.0, 0.0, 1.6206506707051327E9, 2021-05-10 14:44:30.705
3.0, -74.73628997802734, 122.04789733886719, 112.92066955566406, 28.172666549682617, -0.1120000034570694, 0.0, 1.055999994277954, 0.0, 0.0, 0.0, 0.0, 0.0, 1.6206506707051327E9, 2021-05-10 14:44:30.705
4.0, -77.94512176513672, 113.87995147705078, 101.55137634277344, 20.90604019165039, -0.1120000034570694, 0.0, 1.055999994277954, 0.0, 0.0, 0.0, 0.0, 0.0, 1.620650670735743E9, 2021-05-10 14:44:30.735
4.0, -80.91460418701172, 113.97718811035156, 106.42072296142578, 29.7546443939209, -0.1120000034570694, 0.0, 1.055999994277954, 0.0, 0.0, 0.0, 0.0, 0.0, 1.620650670735743E9, 2021-05-10 14:44:30.735
5.0, -66.6581039428711, 125.91495513916016, 125.83828735351562, 39.201629638671875, -0.1120000034570694, 0.0, 1.055999994277954, 0.0, 0.0, 0.0, 0.0, 0.0, 1.6206506707364569E9, 2021-05-10 14:44:30.736
5.0, -70.91785430908203, 129.8493194580078, 116.38007354736328, 36.538822174072266, -0.1120000034570694, 0.0, 1.055999994277954, 0.0, 0.0, 0.0, 0.0, 0.0, 1.6206506707364569E9, 2021-05-10 14:44:30.736
6.0, -83.18098449707031, 112.44009399414062, 98.50335693359375, 40.36473846435547, -0.1120000034570694, 0.0, 1.055999994277954, 0.0, 0.0, 0.0, 0.0, 0.0, 1.6206506707372081E9, 2021-05-10 14:44:30.737
6.0, -83.82424926757812, 101.48966217041016, 103.28668975830078, 49.16098403930664, -0.1120000034570694, 0.0, 1.055999994277954, 0.0, 0.0, 0.0, 0.0, 0.0, 1.6206506707372081E9, 2021-05-10 14:44:30.737
7.0, -68.05309295654297, 127.49693298339844, 123.48214721679688, 46.30744171142578, -0.1120000034570694, 0.0, 1.055999994277954, 0.0, 0.0, 0.0, 0.0, 0.0, 1.620650670748665E9, 2021-05-10 14:44:30.748
7.0, -71.63591003417969, 128.7797088623047, 124.9968032836914, 58.14796447753906, -0.1120000034570694, 0.0, 1.055999994277954, 0.0, 0.0, 0.0, 0.0, 0.0, 1.620650670748665E9, 2021-05-10 14:44:30.748
8.0, -88.93295288085938, 112.2156982421875, 100.88567352294922, 42.96023178100586, -0.1120000034570694, 0.0, 1.055999994277954, 0.0, 0.0, 0.0, 0.0, 0.0, 1.6206506707643356E9, 2021-05-10 14:44:30.764
8.0, -99.95817565917969, 115.08045959472656, 95.6236343383789, 36.70711898803711, -0.1120000034570694, 0.0, 1.055999994277954, 0.0, 0.0, 0.0, 0.0, 0.0, 1.6206506707643356E9, 2021-05-10 14:44:30.764
9.0, -60.5059700012207, 119.93111419677734, 128.20938110351562, 64.91344451904297, -0.1120000034570694, 0.0, 1.055999994277954, 0.0, 0.0, 0.0, 0.0, 0.0, 1.6206506707650995E9, 2021-05-10 14:44:30.765
9.0, -76.28460693359375, 107.02098083496094, 120.10875701904297, 64.14676666259766, -0.1120000034570694, 0.0, 1.055999994277954, 0.0, 0.0, 0.0, 0.0, 0.0, 1.6206506707650995E9, 2021-05-10 14:44:30.765
10.0, -95.24964141845703, 101.4747085571289, 93.9593734741211, 42.43290328979492, -0.1120000034570694, 0.0, 1.055999994277954, 0.0, 0.0, 0.0, 0.0, 0.0, 1.6206506707951608E9, 2021-05-10 14:44:30.795
10.0, -77.71698760986328, 107.66423797607422, 108.9114990234375, 35.54774856567383, -0.1120000034570694, 0.0, 1.055999994277954, 0.0, 0.0, 0.0, 0.0, 0.0, 1.6206506707951608E9, 2021-05-10 14:44:30.795
11.0, -57.53649139404297, 123.86922454833984, 129.9484405517578, 59.78229904174805, -0.1120000034570694, 0.01600000075995922, 1.055999994277954, 0.0, 0.0, 0.0, 0.0, 0.0, 1.620650670795744E9, 2021-05-10 14:44:30.795
11.0, -71.7144546508789, 134.3409423828125, 119.37947845458984, 50.29791259765625, -0.1120000034570694, 0.01600000075995922, 1.055999994277954, 0.0, 0.0, 0.0, 0.0, 0.0, 1.620650670795744E9, 2021-05-10 14:44:30.795
12.0, -75.46931457519531, 114.50825500488281, 104.34881591796875, 30.693359375, -0.1120000034570694, 0.01600000075995922, 1.055999994277954, 0.0, 0.0, 0.0, 0.0, 0.0, 1.6206506707965617E9, 2021-05-10 14:44:30.796
12.0, -87.36593627929688, 107.57073974609375, 100.77347564697266, 12.11353588104248, -0.1120000034570694, 0.01600000075995922, 1.055999994277954, 0.0, 0.0, 0.0, 0.0, 0.0, 1.6206506707965617E9, 2021-05-10 14:44:30.796
13.0, -69.18254089355469, 132.4298553466797, 128.95736694335938, 55.98256301879883, -0.1120000034570694, 0.01600000075995922, 1.055999994277954, 0.0, 0.0, 0.0, 0.0, 0.0, 1.6206506708086357E9, 2021-05-10 14:44:30.808
13.0, -64.57124328613281, 129.03028869628906, 120.17233276367188, 23.9091796875, -0.1120000034570694, 0.01600000075995922, 1.055999994277954, 0.0, 0.0, 0.0, 0.0, 0.0, 1.6206506708086357E9, 2021-05-10 14:44:30.808
14.0, -86.86852264404297, 103.82710266113281, 95.52639770507812, 9.794797897338867, -0.1120000034570694, 0.01600000075995922, 1.055999994277954, 0.0, 0.0, 0.0, 0.0, 0.0, 1.6206506708243935E9, 2021-05-10 14:44:30.824
14.0, -85.95973205566406, 112.18577575683594, 101.73462677001953, 20.861162185668945, -0.1120000034570694, 0.01600000075995922, 1.055999994277954, 0.0, 0.0, 0.0, 0.0, 0.0, 1.6206506708243935E9, 2021-05-10 14:44:30.824
15.0, -66.48606872558594, 116.40065002441406, 120.86421966552734, 37.27932357788086, -0.1120000034570694, 0.01600000075995922, 1.055999994277954, 0.0, 0.0, 0.0, 0.0, 0.0, 1.6206506708251095E9, 2021-05-10 14:44:30.825
15.0, -68.96188354492188, 134.3521728515625, 128.23556518554688, 38.56584930419922, -0.1120000034570694, 0.01600000075995922, 1.055999994277954, 0.0, 0.0, 0.0, 0.0, 0.0, 1.6206506708251095E9, 2021-05-10 14:44:30.825
16.0, -99.29995727539062, 97.88813781738281, 98.28269958496094, 24.137313842773438, -0.1120000034570694, 0.01600000075995922, 1.055999994277954, 0.0, 0.0, 0.0, 0.0, 0.0, 1.6206506708550556E9, 2021-05-10 14:44:30.855
16.0, -93.29741668701172, 131.17324829101562, 97.09341430664062, 37.03248977661133, -0.1120000034570694, 0.01600000075995922, 1.055999994277954, 0.0, 0.0, 0.0, 0.0, 0.0, 1.6206506708550556E9, 2021-05-10 14:44:30.855
17.0, -67.16673278808594, 138.99337768554688, 125.78592681884766, 64.46839904785156, -0.1120000034570694, 0.01600000075995922, 1.055999994277954, 0.0, 0.0, 0.0, 0.0, 0.0, 1.6206506708557851E9, 2021-05-10 14:44:30.855
17.0, -79.06709289550781, 128.34214782714844, 125.49795532226562, 47.055419921875, -0.1120000034570694, 0.01600000075995922, 1.055999994277954, 0.0, 0.0, 0.0, 0.0, 0.0, 1.6206506708557851E9, 2021-05-10 14:44:30.855
18.0, -97.1457748413086, 109.32849884033203, 100.62761688232422, 38.80146026611328, -0.1120000034570694, 0.01600000075995922, 1.055999994277954, 0.0, 0.0, 0.0, 0.0, 0.0, 1.6206506708565145E9, 2021-05-10 14:44:30.856
18.0, -92.03707122802734, 100.20687866210938, 106.97796630859375, 53.248695373535156, -0.1120000034570694, 0.01600000075995922, 1.055999994277954, 0.0, 0.0, 0.0, 0.0, 0.0, 1.6206506708565145E9, 2021-05-10 14:44:30.856
19.0, -53.58341598510742, 119.5047607421875, 125.41193389892578, 56.640785217285156, -0.1120000034570694, 0.01600000075995922, 1.055999994277954, 0.0, 0.0, 0.0, 0.0, 0.0, 1.6206506708686993E9, 2021-05-10 14:44:30.868
19.0, -85.20426940917969, 111.0114517211914, 120.94649505615234, 66.13639068603516, -0.1120000034570694, 0.01600000075995922, 1.055999994277954, 0.0, 0.0, 0.0, 0.0, 0.0, 1.6206506708686993E9, 2021-05-10 14:44:30.868
20.0, -88.63375854492188, 90.30736541748047, 99.1802749633789, 40.70881271362305, -0.1120000034570694, 0.01600000075995922, 1.055999994277954, 0.0, 0.0, 0.0, 0.0, 0.0, 1.6206506708845675E9, 2021-05-10 14:44:30.884
20.0, -86.34867858886719, 82.6069107055664, 105.11175537109375, 39.99822998046875, -0.1120000034570694, 0.01600000075995922, 1.055999994277954, 0.0, 0.0, 0.0, 0.0, 0.0, 1.6206506708845675E9, 2021-05-10 14:44:30.884
21.0, -68.92822265625, 109.75484466552734, 128.05604553222656, 67.24340057373047, -0.1120000034570694, 0.01600000075995922, 1.055999994277954, 0.0, 0.0, 0.0, 0.0, 0.0, 1.6206506708851864E9, 2021-05-10 14:44:30.885
21.0, -73.00471496582031, 120.41729736328125, 117.3674087524414, 54.393104553222656, -0.1120000034570694, 0.01600000075995922, 1.055999994277954, 0.0, 0.0, 0.0, 0.0, 0.0, 1.6206506708851864E9, 2021-05-10 14:44:30.885
22.0, -77.9787826538086, 111.15730285644531, 94.12767028808594, 25.853927612304688, -0.12800000607967377, 0.01600000075995922, 1.055999994277954, 0.0, 0.0, 0.0, 0.0, 0.0, 1.6206506709147756E9, 2021-05-10 14:44:30.914
22.0, -99.00076293945312, 115.31607818603516, 88.56644439697266, 19.5484561920166, -0.12800000607967377, 0.01600000075995922, 1.055999994277954, 0.0, 0.0, 0.0, 0.0, 0.0, 1.6206506709147756E9, 2021-05-10 14:44:30.914
23.0, -74.2089614868164, 120.36119842529297, 114.5325698852539, 37.918846130371094, -0.12800000607967377, 0.01600000075995922, 1.055999994277954, 0.0, 0.0, 0.0, 0.0, 0.0, 1.6206506709155407E9, 2021-05-10 14:44:30.915
23.0, -75.04296112060547, 122.56026458740234, 108.58238220214844, 28.584054946899414, -0.12800000607967377, 0.01600000075995922, 1.055999994277954, 0.0, 0.0, 0.0, 0.0, 0.0, 1.6206506709155407E9, 2021-05-10 14:44:30.915
24.0, -89.25083923339844, 116.82699584960938, 93.58538818359375, 19.342761993408203, -0.12800000607967377, 0.01600000075995922, 1.055999994277954, 0.0, 0.0, 0.0, 0.0, 0.0, 1.6206506709293375E9, 2021-05-10 14:44:30.929
24.0, -88.18871307373047, 118.7642593383789, 99.46076965332031, 27.693958282470703, -0.12800000607967377, 0.01600000075995922, 1.055999994277954, 0.0, 0.0, 0.0, 0.0, 0.0, 1.6206506709293375E9, 2021-05-10 14:44:30.929
25.0, -63.9167594909668, 127.97563934326172, 127.93262481689453, 57.291526794433594, -0.12800000607967377, 0.01600000075995922, 1.055999994277954, 0.0, 0.0, 0.0, 0.0, 0.0, 1.620650670930087E9, 2021-05-10 14:44:30.930
25.0, -57.00542449951172, 114.20158386230469, 132.944091796875, 47.47428894042969, -0.12800000607967377, 0.01600000075995922, 1.055999994277954, 0.0, 0.0, 0.0, 0.0, 0.0, 1.620650670930087E9, 2021-05-10 14:44:30.930
26.0, -87.23503875732422, 110.6711196899414, 101.53641510009766, 32.387535095214844, -0.12800000607967377, 0.01600000075995922, 1.055999994277954, 0.0, 0.0, 0.0, 0.0, 0.0, 1.620650670974876E9, 2021-05-10 14:44:30.974
26.0, -83.8990478515625, 124.12728118896484, 112.3260269165039, 39.590579986572266, -0.12800000607967377, 0.01600000075995922, 1.055999994277954, 0.0, 0.0, 0.0, 0.0, 0.0, 1.620650670974876E9, 2021-05-10 14:44:30.974
27.0, -78.27423858642578, 137.1009979248047, 128.81898498535156, 63.989688873291016, -0.12800000607967377, 0.01600000075995922, 1.055999994277954, 0.0, 0.0, 0.0, 0.0, 0.0, 1.6206506709755335E9, 2021-05-10 14:44:30.975
27.0, -85.11450958251953, 98.71466064453125, 122.17317962646484, 52.2725830078125, -0.12800000607967377, 0.01600000075995922, 1.055999994277954, 0.0, 0.0, 0.0, 0.0, 0.0, 1.6206506709755335E9, 2021-05-10 14:44:30.975
28.0, -101.50275421142578, 110.4130630493164, 103.49986267089844, 39.56066131591797, -0.12800000607967377, 0.01600000075995922, 1.055999994277954, 0.0, 0.0, 0.0, 0.0, 0.0, 1.6206506709921465E9, 2021-05-10 14:44:30.992
28.0, -96.06494140625, 119.9273681640625, 99.25507354736328, 40.29368209838867, -0.12800000607967377, 0.01600000075995922, 1.055999994277954, 0.0, 0.0, 0.0, 0.0, 0.0, 1.6206506709921465E9, 2021-05-10 14:44:30.992
29.0, -77.29064178466797, 116.02291870117188, 115.80786895751953, 56.378990173339844, -0.12800000607967377, 0.01600000075995922, 1.055999994277954, 0.0, 0.0, 0.0, 0.0, 0.0, 1.6206506709928136E9, 2021-05-10 14:44:30.992
29.0, -76.60997772216797, 122.00675964355469, 114.49517059326172, 56.99607467651367, -0.12800000607967377, 0.01600000075995922, 1.055999994277954, 0.0, 0.0, 0.0, 0.0, 0.0, 1.6206506709928136E9, 2021-05-10 14:44:30.992
30.0, -104.62183380126953, 89.62670135498047, 83.23334503173828, 32.193058013916016, -0.12800000607967377, 0.01600000075995922, 1.055999994277954, 0.0, 0.0, 0.0, 0.0, 0.0, 1.6206506709935656E9, 2021-05-10 14:44:30.993
30.0, -94.1762924194336, 105.48014068603516, 97.71049499511719, 42.702178955078125, -0.12800000607967377, 0.01600000075995922, 1.055999994277954, 0.0, 0.0, 0.0, 0.0, 0.0, 1.6206506709935656E9, 2021-05-10 14:44:30.993
31.0, -75.21499633789062, 120.77259063720703, 117.99945068359375, 59.165218353271484, -0.12800000607967377, 0.01600000075995922, 1.055999994277954, 0.0, 0.0, 0.0, 0.0, 0.0, 1.6206506709943368E9, 2021-05-10 14:44:30.994
31.0, -71.557373046875, 110.76835632324219, 115.01875305175781, 39.66164016723633, -0.12800000607967377, 0.01600000075995922, 1.055999994277954, 0.0, 0.0, 0.0, 0.0, 0.0, 1.6206506709943368E9, 2021-05-10 14:44:30.994
32.0, -95.77323150634766, 115.80599975585938, 87.5155258178711, 23.467872619628906, -0.1120000034570694, 0.01600000075995922, 1.055999994277954, 0.0, 0.0, 0.0, 0.0, 0.0, 1.6206506710043585E9, 2021-05-10 14:44:31.004
32.0, -101.6448745727539, 119.7852554321289, 83.19220733642578, 19.13332748413086, -0.1120000034570694, 0.01600000075995922, 1.055999994277954, 0.0, 0.0, 0.0, 0.0, 0.0, 1.6206506710043585E9, 2021-05-10 14:44:31.004
33.0, -75.53289031982422, 137.03367614746094, 110.88616180419922, 38.247955322265625, -0.1120000034570694, 0.01600000075995922, 1.055999994277954, 0.0, 0.0, 0.0, 0.0, 0.0, 1.6206506710050836E9, 2021-05-10 14:44:31.005
33.0, -72.41007232666016, 132.70286560058594, 111.79496002197266, 49.26570129394531, -0.1120000034570694, 0.01600000075995922, 1.055999994277954, 0.0, 0.0, 0.0, 0.0, 0.0, 1.6206506710050836E9, 2021-05-10 14:44:31.005
34.0, -82.26844787597656, 107.84375762939453, 88.90676879882812, 20.99953842163086, -0.1120000034570694, 0.01600000075995922, 1.055999994277954, 0.0, 0.0, 0.0, 0.0, 0.0, 1.6206506710186844E9, 2021-05-10 14:44:31.018
34.0, -81.93933868408203, 114.65411376953125, 91.60324096679688, 31.32914161682129, -0.1120000034570694, 0.01600000075995922, 1.055999994277954, 0.0, 0.0, 0.0, 0.0, 0.0, 1.6206506710186844E9, 2021-05-10 14:44:31.018
35.0, -74.9270248413086, 120.5033187866211, 124.14036560058594, 51.079551696777344, -0.1120000034570694, 0.01600000075995922, 1.055999994277954, 0.0, 0.0, 0.0, 0.0, 0.0, 1.6206506710507407E9, 2021-05-10 14:44:31.050
35.0, -77.45146179199219, 116.71853637695312, 128.6619110107422, 29.522769927978516, -0.1120000034570694, 0.01600000075995922, 1.055999994277954, 0.0, 0.0, 0.0, 0.0, 0.0, 1.6206506710507407E9, 2021-05-10 14:44:31.050
36.0, -86.76754760742188, 122.350830078125, 113.34327697753906, 34.485618591308594, -0.1120000034570694, 0.01600000075995922, 1.055999994277954, 0.0, 0.0, 0.0, 0.0, 0.0, 1.6206506710514748E9, 2021-05-10 14:44:31.051
36.0, -94.26979064941406, 110.60379791259766, 108.7357177734375, 38.03852081298828, -0.1120000034570694, 0.01600000075995922, 1.055999994277954, 0.0, 0.0, 0.0, 0.0, 0.0, 1.6206506710514748E9, 2021-05-10 14:44:31.051
37.0, -84.09725952148438, 137.4824676513672, 129.3463134765625, 52.912105560302734, -0.1120000034570694, 0.01600000075995922, 1.055999994277954, 0.0, 0.0, 0.0, 0.0, 0.0, 1.620650671052209E9, 2021-05-10 14:44:31.052
37.0, -77.16722869873047, 117.15984344482422, 125.28477478027344, 55.64223098754883, -0.1120000034570694, 0.01600000075995922, 1.055999994277954, 0.0, 0.0, 0.0, 0.0, 0.0, 1.620650671052209E9, 2021-05-10 14:44:31.052
38.0, -98.54449462890625, 106.09722137451172, 96.5286865234375, 46.39345932006836, -0.1120000034570694, 0.01600000075995922, 1.055999994277954, 0.0, 0.0, 0.0, 0.0, 0.0, 1.6206506710529537E9, 2021-05-10 14:44:31.052
38.0, -88.74221801757812, 115.51802825927734, 93.51806640625, 38.42747116088867, -0.1120000034570694, 0.01600000075995922, 1.055999994277954, 0.0, 0.0, 0.0, 0.0, 0.0, 1.6206506710529537E9, 2021-05-10 14:44:31.052
39.0, -65.92882537841797, 127.5343246459961, 119.23735809326172, 74.2332763671875, -0.1120000034570694, 0.01600000075995922, 1.055999994277954, 0.0, 0.0, 0.0, 0.0, 0.0, 1.6206506710636914E9, 2021-05-10 14:44:31.063
39.0, -94.82329559326172, 123.38677978515625, 107.85684204101562, 45.70905685424805, -0.1120000034570694, 0.01600000075995922, 1.055999994277954, 0.0, 0.0, 0.0, 0.0, 0.0, 1.6206506710636914E9, 2021-05-10 14:44:31.063
40.0, -95.85176849365234, 101.74771881103516, 85.67923736572266, 16.612634658813477, -0.1120000034570694, 0.01600000075995922, 1.055999994277954, 0.0, 0.0, 0.0, 0.0, 0.0, 1.6206506710786643E9, 2021-05-10 14:44:31.078
40.0, -82.31707000732422, 101.72154235839844, 93.38716888427734, 33.917152404785156, -0.1120000034570694, 0.01600000075995922, 1.055999994277954, 0.0, 0.0, 0.0, 0.0, 0.0, 1.6206506710786643E9, 2021-05-10 14:44:31.078
41.0, -73.81253814697266, 135.1824188232422, 116.98967742919922, 53.60398483276367, -0.1120000034570694, 0.01600000075995922, 1.055999994277954, 0.0, 0.0, 0.0, 0.0, 0.0, 1.6206506710943365E9, 2021-05-10 14:44:31.094
41.0, -76.50152587890625, 111.0937271118164, 101.92162322998047, 39.725215911865234, -0.1120000034570694, 0.01600000075995922, 1.055999994277954, 0.0, 0.0, 0.0, 0.0, 0.0, 1.6206506710943365E9, 2021-05-10 14:44:31.094
42.0, -77.1747055053711, 104.06271362304688, 84.69564056396484, 32.73534393310547, -0.1120000034570694, 0.01600000075995922, 1.055999994277954, 0.0, 0.0, 0.0, 0.0, 0.0, 1.620650671095104E9, 2021-05-10 14:44:31.095
42.0, -77.74691009521484, 109.47808837890625, 90.68696594238281, 39.08943557739258, -0.1120000034570694, 0.01600000075995922, 1.055999994277954, 0.0, 0.0, 0.0, 0.0, 0.0, 1.620650671095104E9, 2021-05-10 14:44:31.095
43.0, -52.38290786743164, 93.47132110595703, 119.37199401855469, 41.546546936035156, -0.1120000034570694, 0.01600000075995922, 1.055999994277954, 0.0, 0.0, 0.0, 0.0, 0.0, 1.6206506711250446E9, 2021-05-10 14:44:31.125
43.0, -77.5374755859375, 118.11351776123047, 117.13553619384766, 42.219730377197266, -0.1120000034570694, 0.01600000075995922, 1.055999994277954, 0.0, 0.0, 0.0, 0.0, 0.0, 1.6206506711250446E9, 2021-05-10 14:44:31.125
44.0, -94.54280090332031, 111.71829223632812, 86.02704620361328, 19.76911163330078, -0.1120000034570694, 0.01600000075995922, 1.055999994277954, 0.0, 0.0, 0.0, 0.0, 0.0, 1.6206506711257641E9, 2021-05-10 14:44:31.125
44.0, -84.19449615478516, 121.53553009033203, 98.13310241699219, 20.973358154296875, -0.1120000034570694, 0.01600000075995922, 1.055999994277954, 0.0, 0.0, 0.0, 0.0, 0.0, 1.6206506711257641E9, 2021-05-10 14:44:31.125
45.0, -67.94837188720703, 143.3690643310547, 120.0975341796875, 39.42976379394531, -0.1120000034570694, 0.01600000075995922, 1.055999994277954, 0.0, 0.0, 0.0, 0.0, 0.0, 1.620650671126518E9, 2021-05-10 14:44:31.126
45.0, -82.02909851074219, 131.9324493408203, 119.59638977050781, 33.41226577758789, -0.1120000034570694, 0.01600000075995922, 1.055999994277954, 0.0, 0.0, 0.0, 0.0, 0.0, 1.620650671126518E9, 2021-05-10 14:44:31.126
46.0, -101.12128448486328, 123.02027130126953, 88.2410659790039, 26.957199096679688, -0.1120000034570694, 0.01600000075995922, 1.055999994277954, 0.0, 0.0, 0.0, 0.0, 0.0, 1.6206506711386423E9, 2021-05-10 14:44:31.138
46.0, -77.75813293457031, 125.11087036132812, 114.84297943115234, 53.29731369018555, -0.1120000034570694, 0.01600000075995922, 1.055999994277954, 0.0, 0.0, 0.0, 0.0, 0.0, 1.6206506711386423E9, 2021-05-10 14:44:31.138
47.0, -64.10001373291016, 131.6743927001953, 128.1570281982422, 46.96566390991211, -0.1120000034570694, 0.01600000075995922, 1.055999994277954, 0.0, 0.0, 0.0, 0.0, 0.0, 1.6206506711543894E9, 2021-05-10 14:44:31.154
47.0, -80.77249145507812, 133.10304260253906, 120.06388092041016, 49.15724563598633, -0.1120000034570694, 0.01600000075995922, 1.055999994277954, 0.0, 0.0, 0.0, 0.0, 0.0, 1.6206506711543894E9, 2021-05-10 14:44:31.154
48.0, -93.31611633300781, 109.87451934814453, 100.86697387695312, 34.867088317871094, -0.1120000034570694, 0.01600000075995922, 1.055999994277954, 0.0, 0.0, 0.0, 0.0, 0.0, 1.6206506711551E9, 2021-05-10 14:44:31.155
48.0, -89.09376525878906, 108.91710662841797, 103.09969329833984, 47.33965301513672, -0.1120000034570694, 0.01600000075995922, 1.055999994277954, 0.0, 0.0, 0.0, 0.0, 0.0, 1.6206506711551E9, 2021-05-10 14:44:31.155
49.0, -77.06250762939453, 122.04415893554688, 122.68180847167969, 60.32832717895508, -0.1120000034570694, 0.01600000075995922, 1.055999994277954, 0.0, 0.0, 0.0, 0.0, 0.0, 1.6206506711686373E9, 2021-05-10 14:44:31.168
49.0, -73.7414779663086, 128.89564514160156, 113.272216796875, 54.494083404541016, -0.1120000034570694, 0.01600000075995922, 1.055999994277954, 0.0, 0.0, 0.0, 0.0, 0.0, 1.6206506711686373E9, 2021-05-10 14:44:31.168
50.0, -100.44810485839844, 105.48387908935547, 89.6622314453125, 40.37596130371094, -0.1120000034570694, 0.01600000075995922, 1.055999994277954, 0.0, 0.0, 0.0, 0.0, 0.0, 1.6206506711992412E9, 2021-05-10 14:44:31.199
50.0, -87.46317291259766, 100.84265899658203, 90.91510009765625, 42.4665641784668, -0.1120000034570694, 0.01600000075995922, 1.055999994277954, 0.0, 0.0, 0.0, 0.0, 0.0, 1.6206506711992412E9, 2021-05-10 14:44:31.199
51.0, -62.26372528076172, 133.6715087890625, 118.88207244873047, 66.33834838867188, -0.1120000034570694, 0.01600000075995922, 1.055999994277954, 0.0, 0.0, 0.0, 0.0, 0.0, 1.620650671215802E9, 2021-05-10 14:44:31.215
51.0, -70.17735290527344, 103.5054702758789, 108.98255157470703, 54.50530242919922, -0.1120000034570694, 0.01600000075995922, 1.055999994277954, 0.0, 0.0, 0.0, 0.0, 0.0, 1.620650671215802E9, 2021-05-10 14:44:31.215
52.0, -84.6844253540039, 96.02941131591797, 79.73279571533203, 20.67416763305664, -0.1120000034570694, 0.01600000075995922, 1.055999994277954, 0.0, 0.0, 0.0, 0.0, 0.0, 1.6206506712165153E9, 2021-05-10 14:44:31.216
52.0, -105.23143768310547, 113.77523803710938, 86.1280288696289, 27.28631019592285, -0.1120000034570694, 0.01600000075995922, 1.055999994277954, 0.0, 0.0, 0.0, 0.0, 0.0, 1.6206506712165153E9, 2021-05-10 14:44:31.216
53.0, -76.70347595214844, 135.45542907714844, 117.3861083984375, 50.41011047363281, -0.1120000034570694, 0.01600000075995922, 1.055999994277954, 0.0, 0.0, 0.0, 0.0, 0.0, 1.6206506712172396E9, 2021-05-10 14:44:31.217
53.0, -83.79806518554688, 127.2874984741211, 107.01536560058594, 38.105838775634766, -0.1120000034570694, 0.01600000075995922, 1.055999994277954, 0.0, 0.0, 0.0, 0.0, 0.0, 1.6206506712172396E9, 2021-05-10 14:44:31.217
54.0, -88.88433074951172, 120.67535400390625, 94.1800308227539, 22.555335998535156, -0.1120000034570694, 0.01600000075995922, 1.055999994277954, 0.0, 0.0, 0.0, 0.0, 0.0, 1.6206506712179785E9, 2021-05-10 14:44:31.217
54.0, -91.25917053222656, 112.5373306274414, 91.41624450683594, 18.718198776245117, -0.1120000034570694, 0.01600000075995922, 1.055999994277954, 0.0, 0.0, 0.0, 0.0, 0.0, 1.6206506712179785E9, 2021-05-10 14:44:31.217
55.0, -76.2696533203125, 131.670654296875, 122.2442398071289, 52.26510238647461, -0.1120000034570694, 0.01600000075995922, 1.055999994277954, 0.0, 0.0, 0.0, 0.0, 0.0, 1.6206506712451148E9, 2021-05-10 14:44:31.245
55.0, -74.51564025878906, 136.5100860595703, 119.05410766601562, 38.41999053955078, -0.1120000034570694, 0.01600000075995922, 1.055999994277954, 0.0, 0.0, 0.0, 0.0, 0.0, 1.6206506712451148E9, 2021-05-10 14:44:31.245
56.0, -82.80325317382812, 124.41525268554688, 95.29826354980469, 21.186532974243164, -0.1120000034570694, 0.01600000075995922, 1.055999994277954, 0.0, 0.0, 0.0, 0.0, 0.0, 1.6206506712457807E9, 2021-05-10 14:44:31.245
56.0, -94.5802001953125, 133.06190490722656, 94.38572692871094, 25.637014389038086, -0.1120000034570694, 0.01600000075995922, 1.055999994277954, 0.0, 0.0, 0.0, 0.0, 0.0, 1.6206506712457807E9, 2021-05-10 14:44:31.245
57.0, -76.31826782226562, 136.05381774902344, 121.3990249633789, 54.860591888427734, -0.1120000034570694, 0.01600000075995922, 1.055999994277954, 0.0, 0.0, 0.0, 0.0, 0.0, 1.6206506712465892E9, 2021-05-10 14:44:31.246
57.0, -74.59791564941406, 130.17843627929688, 115.10851287841797, 52.6951904296875, -0.1120000034570694, 0.01600000075995922, 1.055999994277954, 0.0, 0.0, 0.0, 0.0, 0.0, 1.6206506712465892E9, 2021-05-10 14:44:31.246
58.0, -89.30693817138672, 112.90757751464844, 89.62483215332031, 19.42504119873047, -0.1120000034570694, 0.01600000075995922, 1.055999994277954, 0.0, 0.0, 0.0, 0.0, 0.0, 1.6206506712586637E9, 2021-05-10 14:44:31.258
58.0, -87.0106430053711, 119.75159454345703, 99.40840911865234, 31.220684051513672, -0.1120000034570694, 0.01600000075995922, 1.055999994277954, 0.0, 0.0, 0.0, 0.0, 0.0, 1.6206506712586637E9, 2021-05-10 14:44:31.258
59.0, -66.90119934082031, 126.1842269897461, 110.59445190429688, 44.99473571777344, -0.1120000034570694, 0.01600000075995922, 1.055999994277954, 0.0, 0.0, 0.0, 0.0, 0.0, 1.6206506712748687E9, 2021-05-10 14:44:31.274
59.0, -68.2812271118164, 129.10508728027344, 117.6217269897461, 54.04529571533203, -0.1120000034570694, 0.01600000075995922, 1.055999994277954, 0.0, 0.0, 0.0, 0.0, 0.0, 1.6206506712748687E9, 2021-05-10 14:44:31.274
60.0, -86.21404266357422, 102.7799301147461, 89.3405990600586, 34.65391159057617, -0.1120000034570694, 0.01600000075995922, 1.055999994277954, 0.0, 0.0, 0.0, 0.0, 0.0, 1.620650671289362E9, 2021-05-10 14:44:31.289
60.0, -80.8472900390625, 132.3139190673828, 92.33625793457031, 40.08798599243164, -0.1120000034570694, 0.01600000075995922, 1.055999994277954, 0.0, 0.0, 0.0, 0.0, 0.0, 1.620650671289362E9, 2021-05-10 14:44:31.289
61.0, -71.69949340820312, 145.8785400390625, 112.53919982910156, 56.102237701416016, -0.1120000034570694, 0.01600000075995922, 1.055999994277954, 0.0, 0.0, 0.0, 0.0, 0.0, 1.6206506712900975E9, 2021-05-10 14:44:31.290
61.0, -82.30210876464844, 123.50645446777344, 104.70037078857422, 38.34519577026367, -0.1120000034570694, 0.01600000075995922, 1.055999994277954, 0.0, 0.0, 0.0, 0.0, 0.0, 1.6206506712900975E9, 2021-05-10 14:44:31.290
62.0, -88.59635925292969, 121.15779876708984, 91.06843566894531, 23.34445571899414, -0.1120000034570694, 0.01600000075995922, 1.055999994277954, 0.0, 0.0, 0.0, 0.0, 0.0, 1.6206506713044033E9, 2021-05-10 14:44:31.304
62.0, -89.58369445800781, 113.89865112304688, 94.40442657470703, 31.890127182006836, -0.1120000034570694, 0.01600000075995922, 1.055999994277954, 0.0, 0.0, 0.0, 0.0, 0.0, 1.6206506713044033E9, 2021-05-10 14:44:31.304
63.0, -52.996253967285156, 110.59258270263672, 127.56611633300781, 54.64741897583008, -0.1120000034570694, 0.01600000075995922, 1.055999994277954, 0.0, 0.0, 0.0, 0.0, 0.0, 1.620650671305086E9, 2021-05-10 14:44:31.305
63.0, -72.82894134521484, 105.96258544921875, 116.08088684082031, 48.581298828125, -0.1120000034570694, 0.01600000075995922, 1.055999994277954, 0.0, 0.0, 0.0, 0.0, 0.0, 1.620650671305086E9, 2021-05-10 14:44:31.305
64.0, -110.0147705078125, 135.51527404785156, 91.32648468017578, 15.864655494689941, -0.1120000034570694, 0.01600000075995922, 1.055999994277954, 0.0, 0.0, 0.0, 0.0, 0.0, 1.6206506713186944E9, 2021-05-10 14:44:31.318
64.0, -96.17713928222656, 146.81350708007812, 102.81172180175781, 19.294143676757812, -0.1120000034570694, 0.01600000075995922, 1.055999994277954, 0.0, 0.0, 0.0, 0.0, 0.0, 1.6206506713186944E9, 2021-05-10 14:44:31.318
65.0, -83.82798767089844, 162.33409118652344, 124.37598419189453, 36.47150421142578, -0.1120000034570694, 0.01600000075995922, 1.055999994277954, 0.0, 0.0, 0.0, 0.0, 0.0, 1.6206506713343072E9, 2021-05-10 14:44:31.334
65.0, -75.5067138671875, 149.30055236816406, 119.08776092529297, 32.06964111328125, -0.1120000034570694, 0.01600000075995922, 1.055999994277954, 0.0, 0.0, 0.0, 0.0, 0.0, 1.6206506713343072E9, 2021-05-10 14:44:31.334
66.0, -89.69589233398438, 137.66946411132812, 90.52989196777344, 15.539284706115723, -0.1120000034570694, 0.01600000075995922, 1.055999994277954, 0.0, 0.0, 0.0, 0.0, 0.0, 1.6206506713350751E9, 2021-05-10 14:44:31.335
66.0, -76.20606994628906, 125.77657318115234, 96.42022705078125, 24.754398345947266, -0.1120000034570694, 0.01600000075995922, 1.055999994277954, 0.0, 0.0, 0.0, 0.0, 0.0, 1.6206506713350751E9, 2021-05-10 14:44:31.335
67.0, -67.50332641601562, 135.50779724121094, 112.3447265625, 41.314674377441406, -0.1120000034570694, 0.01600000075995922, 1.055999994277954, 0.0, 0.0, 0.0, 0.0, 0.0, 1.620650671348724E9, 2021-05-10 14:44:31.348
67.0, -70.2671127319336, 109.5678482055664, 119.77216339111328, 53.667564392089844, -0.1120000034570694, 0.01600000075995922, 1.055999994277954, 0.0, 0.0, 0.0, 0.0, 0.0, 1.620650671348724E9, 2021-05-10 14:44:31.348
68.0, -98.95962524414062, 111.78186798095703, 83.18846130371094, 8.313797950744629, -0.1120000034570694, 0.01600000075995922, 1.055999994277954, 0.0, 0.0, 0.0, 0.0, 0.0, 1.6206506713814204E9, 2021-05-10 14:44:31.381
68.0, -100.80713653564453, 139.83111572265625, 81.15769958496094, 18.7742977142334, -0.1120000034570694, 0.01600000075995922, 1.055999994277954, 0.0, 0.0, 0.0, 0.0, 0.0, 1.6206506713814204E9, 2021-05-10 14:44:31.381
69.0, -77.82544708251953, 125.70552062988281, 105.90835571289062, 49.617252349853516, -0.1120000034570694, 0.01600000075995922, 1.055999994277954, 0.0, 0.0, 0.0, 0.0, 0.0, 1.6206506713821557E9, 2021-05-10 14:44:31.382
69.0, -75.33467102050781, 130.5673828125, 101.77951049804688, 47.16761779785156, -0.1120000034570694, 0.01600000075995922, 1.055999994277954, 0.0, 0.0, 0.0, 0.0, 0.0, 1.6206506713821557E9, 2021-05-10 14:44:31.382
70.0, -93.31611633300781, 123.18482208251953, 90.30923461914062, 39.826194763183594, -0.1120000034570694, 0.01600000075995922, 1.055999994277954, 0.0, 0.0, 0.0, 0.0, 0.0, 1.620650671382906E9, 2021-05-10 14:44:31.382
70.0, -83.08000946044922, 106.50112915039062, 88.15131378173828, 36.056373596191406, -0.1120000034570694, 0.01600000075995922, 1.055999994277954, 0.0, 0.0, 0.0, 0.0, 0.0, 1.620650671382906E9, 2021-05-10 14:44:31.382
71.0, -72.46617126464844, 124.71444702148438, 107.11260223388672, 53.28235626220703, -0.1120000034570694, 0.0, 1.055999994277954, 0.0, 0.0, 0.0, 0.0, 0.0, 1.6206506713836348E9, 2021-05-10 14:44:31.383
71.0, -71.47135925292969, 128.0354766845703, 109.94371032714844, 50.45125198364258, -0.1120000034570694, 0.0, 1.055999994277954, 0.0, 0.0, 0.0, 0.0, 0.0, 1.6206506713836348E9, 2021-05-10 14:44:31.383
72.0, -75.79093933105469, 117.12619018554688, 91.10957336425781, 28.19136619567871, -0.1120000034570694, 0.0, 1.055999994277954, 0.0, 0.0, 0.0, 0.0, 0.0, 1.6206506713937044E9, 2021-05-10 14:44:31.393
72.0, -91.84259033203125, 107.34635162353516, 85.81761169433594, 26.34011459350586, -0.1120000034570694, 0.0, 1.055999994277954, 0.0, 0.0, 0.0, 0.0, 0.0, 1.6206506713937044E9, 2021-05-10 14:44:31.393
73.0, -82.68357849121094, 143.0474395751953, 127.48757934570312, 63.92985153198242, -0.1120000034570694, 0.0, 1.055999994277954, 0.0, 0.0, 0.0, 0.0, 0.0, 1.6206506714088626E9, 2021-05-10 14:44:31.408
73.0, -66.61322784423828, 124.24321746826172, 117.82367706298828, 40.5180778503418, -0.1120000034570694, 0.0, 1.055999994277954, 0.0, 0.0, 0.0, 0.0, 0.0, 1.6206506714088626E9, 2021-05-10 14:44:31.408
74.0, -111.03202056884766, 122.25359344482422, 92.33999633789062, 16.938007354736328, -0.1120000034570694, 0.0, 1.055999994277954, 0.0, 0.0, 0.0, 0.0, 0.0, 1.620650671439768E9, 2021-05-10 14:44:31.439
74.0, -88.37944793701172, 129.58753967285156, 108.06627655029297, 38.04974365234375, -0.1120000034570694, 0.0, 1.055999994277954, 0.0, 0.0, 0.0, 0.0, 0.0, 1.620650671439768E9, 2021-05-10 14:44:31.439
75.0, -71.10110473632812, 160.5426788330078, 119.41687774658203, 45.36124801635742, -0.1120000034570694, 0.0, 1.055999994277954, 0.0, 0.0, 0.0, 0.0, 0.0, 1.620650671455526E9, 2021-05-10 14:44:31.455
75.0, -77.15226745605469, 130.1485137939453, 99.64402770996094, 30.24083137512207, -0.1120000034570694, 0.0, 1.055999994277954, 0.0, 0.0, 0.0, 0.0, 0.0, 1.620650671455526E9, 2021-05-10 14:44:31.455
76.0, -89.99882507324219, 120.42852020263672, 79.94596862792969, 15.864655494689941, -0.1120000034570694, 0.0, 1.055999994277954, 0.0, 0.0, 0.0, 0.0, 0.0, 1.620650671456248E9, 2021-05-10 14:44:31.456
76.0, -88.43928527832031, 124.92013549804688, 90.14093780517578, 16.672473907470703, -0.1120000034570694, 0.0, 1.055999994277954, 0.0, 0.0, 0.0, 0.0, 0.0, 1.620650671456248E9, 2021-05-10 14:44:31.456
77.0, -68.4831771850586, 133.16287231445312, 105.15290069580078, 35.74970245361328, -0.1120000034570694, 0.0, 1.055999994277954, 0.0, 0.0, 0.0, 0.0, 0.0, 1.6206506714569712E9, 2021-05-10 14:44:31.456
77.0, -82.93415069580078, 133.17410278320312, 94.89060974121094, 30.648479461669922, -0.1120000034570694, 0.0, 1.055999994277954, 0.0, 0.0, 0.0, 0.0, 0.0, 1.6206506714569712E9, 2021-05-10 14:44:31.456
78.0, -78.35277557373047, 97.75350189208984, 91.32274627685547, 32.955997467041016, -0.1120000034570694, 0.0, 1.055999994277954, 0.0, 0.0, 0.0, 0.0, 0.0, 1.6206506714693325E9, 2021-05-10 14:44:31.469
78.0, -81.64014434814453, 133.47703552246094, 84.16458129882812, 24.660900115966797, -0.1120000034570694, 0.0, 1.055999994277954, 0.0, 0.0, 0.0, 0.0, 0.0, 1.6206506714693325E9, 2021-05-10 14:44:31.469
79.0, -71.65835571289062, 138.74655151367188, 109.37150573730469, 46.5804557800293, -0.1120000034570694, 0.0, 1.055999994277954, 0.0, 0.0, 0.0, 0.0, 0.0, 1.6206506714700742E9, 2021-05-10 14:44:31.470
79.0, -64.9901123046875, 111.98008728027344, 103.48863983154297, 49.89026641845703, -0.1120000034570694, 0.0, 1.055999994277954, 0.0, 0.0, 0.0, 0.0, 0.0, 1.6206506714700742E9, 2021-05-10 14:44:31.470
80.0, -82.68731689453125, 97.4019546508789, 84.2992172241211, 25.741731643676758, -0.1120000034570694, 0.0, 1.055999994277954, 0.0, 0.0, 0.0, 0.0, 0.0, 1.620650671500746E9, 2021-05-10 14:44:31.500
80.0, -81.87950134277344, 132.8711700439453, 92.62797546386719, 30.798076629638672, -0.1120000034570694, 0.0, 1.055999994277954, 0.0, 0.0, 0.0, 0.0, 0.0, 1.620650671500746E9, 2021-05-10 14:44:31.500
81.0, -72.86260223388672, 154.065185546875, 115.82656860351562, 51.12443161010742, -0.1120000034570694, 0.0, 1.055999994277954, 0.0, 0.0, 0.0, 0.0, 0.0, 1.6206506715014496E9, 2021-05-10 14:44:31.501
81.0, -79.15685272216797, 143.94874572753906, 112.28114318847656, 46.72256851196289, -0.1120000034570694, 0.0, 1.055999994277954, 0.0, 0.0, 0.0, 0.0, 0.0, 1.6206506715014496E9, 2021-05-10 14:44:31.501
82.0, -95.85550689697266, 124.4638671875, 91.1245346069336, 24.604801177978516, -0.1120000034570694, 0.0, 1.055999994277954, 0.0, 0.0, 0.0, 0.0, 0.0, 1.6206506715021963E9, 2021-05-10 14:44:31.502
82.0, -89.2209243774414, 110.96282958984375, 98.42107391357422, 42.42168426513672, -0.1120000034570694, 0.0, 1.055999994277954, 0.0, 0.0, 0.0, 0.0, 0.0, 1.6206506715021963E9, 2021-05-10 14:44:31.502
83.0, -70.94029235839844, 134.3035430908203, 125.60266876220703, 52.388519287109375, -0.1120000034570694, 0.0, 1.055999994277954, 0.0, 0.0, 0.0, 0.0, 0.0, 1.6206506715029433E9, 2021-05-10 14:44:31.502
83.0, -72.05104064941406, 139.9021759033203, 115.5198974609375, 38.28909683227539, -0.1120000034570694, 0.0, 1.055999994277954, 0.0, 0.0, 0.0, 0.0, 0.0, 1.6206506715029433E9, 2021-05-10 14:44:31.502
84.0, -88.79457092285156, 127.6727066040039, 91.2479476928711, 21.526865005493164, -0.1120000034570694, 0.0, 1.055999994277954, 0.0, 0.0, 0.0, 0.0, 0.0, 1.6206506715136764E9, 2021-05-10 14:44:31.513
84.0, -85.11825561523438, 125.26795196533203, 98.0321273803711, 34.848388671875, -0.1120000034570694, 0.0, 1.055999994277954, 0.0, 0.0, 0.0, 0.0, 0.0, 1.6206506715136764E9, 2021-05-10 14:44:31.513
85.0, -59.6794548034668, 137.90133666992188, 114.91029357910156, 31.17206573486328, -0.1120000034570694, 0.0, 1.055999994277954, 0.0, 0.0, 0.0, 0.0, 0.0, 1.6206506715286374E9, 2021-05-10 14:44:31.528
85.0, -77.32804107666016, 133.17784118652344, 96.29307556152344, 19.42877960205078, -0.1120000034570694, 0.0, 1.055999994277954, 0.0, 0.0, 0.0, 0.0, 0.0, 1.6206506715286374E9, 2021-05-10 14:44:31.528
86.0, -84.19449615478516, 115.15899658203125, 81.5915298461914, 19.484878540039062, -0.1120000034570694, 0.0, 1.055999994277954, 0.0, 0.0, 0.0, 0.0, 0.0, 1.620650671545004E9, 2021-05-10 14:44:31.545
86.0, -85.17435455322266, 129.5613555908203, 80.17410278320312, 18.938854217529297, -0.1120000034570694, 0.0, 1.055999994277954, 0.0, 0.0, 0.0, 0.0, 0.0, 1.620650671545004E9, 2021-05-10 14:44:31.545
87.0, -69.55278778076172, 130.87779235839844, 98.12188720703125, 35.020423889160156, -0.1120000034570694, 0.0, 1.055999994277954, 0.0, 0.0, 0.0, 0.0, 0.0, 1.6206506715457518E9, 2021-05-10 14:44:31.545
