Sample Index, EXG Channel 0, EXG Channel 1, EXG Channel 2, EXG Channel 3, Accel Channel 0, Accel Channel 1, Accel Channel 2, Other, Other, Other, Other, Other, Timestamp, Timestamp (Formatted)
0.0, -101.39242553710938, 44.47676086425781, 221.71435546875, -159.6151885986328, 0.0, 0.0, 0.0, 0.0, 0.0, 0.0, 0.0, 0.0, 1.620655840122746E9, 2021-05-10 16:10:40.122
1.0, -68.04747772216797, 42.98828125, 214.3392791748047, -169.34640502929688, 0.0, -0.03200000151991844, 0.0, 0.0, 0.0, 0.0, 0.0, 0.0, 1.6206558401359954E9, 2021-05-10 16:10:40.135
1.0, -88.41871643066406, 30.747587203979492, 200.62879943847656, -176.03335571289062, 0.0, -0.03200000151991844, 0.0, 0.0, 0.0, 0.0, 0.0, 0.0, 1.6206558401359954E9, 2021-05-10 16:10:40.135
2.0, -107.39496612548828, 26.282146453857422, 208.35543823242188, -156.6569366455078, -0.1120000034570694, -0.03200000151991844, 0.0, 0.0, 0.0, 0.0, 0.0, 0.0, 1.6206558401526823E9, 2021-05-10 16:10:40.152
2.0, -98.45286560058594, 33.021446228027344, 223.3636474609375, -164.20404052734375, -0.1120000034570694, -0.03200000151991844, 0.0, 0.0, 0.0, 0.0, 0.0, 0.0, 1.6206558401526823E9, 2021-05-10 16:10:40.152
3.0, -85.9167251586914, 32.348262786865234, 222.70916748046875, -165.56536865234375, -0.1120000034570694, -0.03200000151991844, 0.0, 0.0, 0.0, 0.0, 0.0, 0.0, 1.6206558401533997E9, 2021-05-10 16:10:40.153
3.0, -86.85917663574219, 15.773028373718262, 199.1291046142578, -189.6241455078125, -0.1120000034570694, -0.03200000151991844, 0.0, 0.0, 0.0, 0.0, 0.0, 0.0, 1.6206558401533997E9, 2021-05-10 16:10:40.153
4.0, -118.3005142211914, 28.82901954650879, 201.4515838623047, -184.39950561523438, -0.1120000034570694, -0.03200000151991844, 0.0, 0.0, 0.0, 0.0, 0.0, 0.0, 1.620655840165876E9, 2021-05-10 16:10:40.165
4.0, -103.52790832519531, 48.254058837890625, 225.13636779785156, -167.34930419921875, -0.1120000034570694, -0.03200000151991844, 0.0, 0.0, 0.0, 0.0, 0.0, 0.0, 1.620655840165876E9, 2021-05-10 16:10:40.165
5.0, -91.16006469726562, 54.96717834472656, 235.1443328857422, -166.70977783203125, -0.1120000034570694, -0.03200000151991844, 0.0, 0.0, 0.0, 0.0, 0.0, 0.0, 1.6206558401984768E9, 2021-05-10 16:10:40.198
5.0, -108.72637176513672, 37.139076232910156, 205.96563720703125, -177.95565795898438, -0.1120000034570694, -0.03200000151991844, 0.0, 0.0, 0.0, 0.0, 0.0, 0.0, 1.6206558401984768E9, 2021-05-10 16:10:40.198
6.0, -98.45660400390625, 23.192989349365234, 214.99002075195312, -164.80242919921875, -0.1120000034570694, -0.03200000151991844, 0.0, 0.0, 0.0, 0.0, 0.0, 0.0, 1.6206558401992233E9, 2021-05-10 16:10:40.199
6.0, -98.78197479248047, 44.099029541015625, 218.43446350097656, -169.09584045410156, -0.1120000034570694, -0.03200000151991844, 0.0, 0.0, 0.0, 0.0, 0.0, 0.0, 1.6206558401992233E9, 2021-05-10 16:10:40.199
7.0, -112.55229187011719, 46.0923957824707, 222.6381072998047, -166.74717712402344, -0.1120000034570694, -0.03200000151991844, 0.0, 0.0, 0.0, 0.0, 0.0, 0.0, 1.6206558402000115E9, 2021-05-10 16:10:40.200
7.0, -98.82685852050781, 36.37987518310547, 218.16893005371094, -153.40695190429688, -0.1120000034570694, -0.03200000151991844, 0.0, 0.0, 0.0, 0.0, 0.0, 0.0, 1.6206558402000115E9, 2021-05-10 16:10:40.200
8.0, -107.18553161621094, 38.93796920776367, 199.48439025878906, -183.00827026367188, -0.1120000034570694, -0.03200000151991844, 0.0, 0.0, 0.0, 0.0, 0.0, 0.0, 1.6206558402009091E9, 2021-05-10 16:10:40.200
8.0, -101.71405792236328, 52.19217300415039, 231.8868865966797, -150.7067413330078, -0.1120000034570694, -0.03200000151991844, 0.0, 0.0, 0.0, 0.0, 0.0, 0.0, 1.6206558402009091E9, 2021-05-10 16:10:40.200
9.0, -74.06871795654297, 43.26503372192383, 241.2254180908203, -147.45303344726562, -0.1120000034570694, -0.03200000151991844, 0.0, 0.0, 0.0, 0.0, 0.0, 0.0, 1.6206558402108312E9, 2021-05-10 16:10:40.210
9.0, -117.98262023925781, 28.761699676513672, 202.41273498535156, -179.8742218017578, -0.1120000034570694, -0.03200000151991844, 0.0, 0.0, 0.0, 0.0, 0.0, 0.0, 1.6206558402108312E9, 2021-05-10 16:10:40.210
10.0, -104.6461410522461, 37.430789947509766, 202.77175903320312, -171.9157257080078, -0.1120000034570694, -0.03200000151991844, 1.055999994277954, 0.0, 0.0, 0.0, 0.0, 0.0, 1.6206558402591932E9, 2021-05-10 16:10:40.259
10.0, -75.89752960205078, 45.00782775878906, 227.67950439453125, -156.1819610595703, -0.1120000034570694, -0.03200000151991844, 1.055999994277954, 0.0, 0.0, 0.0, 0.0, 0.0, 1.6206558402591932E9, 2021-05-10 16:10:40.259
11.0, -96.91576385498047, 24.098045349121094, 206.208740234375, -183.93576049804688, -0.1120000034570694, -0.03200000151991844, 1.055999994277954, 0.0, 0.0, 0.0, 0.0, 0.0, 1.6206558402598827E9, 2021-05-10 16:10:40.259
11.0, -100.13956451416016, 8.409165382385254, 196.80288696289062, -181.21685791015625, -0.1120000034570694, -0.03200000151991844, 1.055999994277954, 0.0, 0.0, 0.0, 0.0, 0.0, 1.6206558402598827E9, 2021-05-10 16:10:40.259
12.0, -110.43550872802734, 9.209503173828125, 194.09519958496094, -169.04721069335938, -0.1120000034570694, -0.03200000151991844, 1.055999994277954, 0.0, 0.0, 0.0, 0.0, 0.0, 1.6206558402606463E9, 2021-05-10 16:10:40.260
12.0, -85.53150939941406, 10.148218154907227, 211.35108947753906, -163.31394958496094, -0.1120000034570694, -0.03200000151991844, 1.055999994277954, 0.0, 0.0, 0.0, 0.0, 0.0, 1.6206558402606463E9, 2021-05-10 16:10:40.260
13.0, -65.17149353027344, 23.22290802001953, 222.79519653320312, -151.6454620361328, -0.1120000034570694, -0.03200000151991844, 1.055999994277954, 0.0, 0.0, 0.0, 0.0, 0.0, 1.620655840261377E9, 2021-05-10 16:10:40.261
13.0, -112.8963623046875, 16.319053649902344, 200.44180297851562, -185.70098876953125, -0.1120000034570694, -0.03200000151991844, 1.055999994277954, 0.0, 0.0, 0.0, 0.0, 0.0, 1.620655840261377E9, 2021-05-10 16:10:40.261
14.0, -114.46711730957031, 22.250534057617188, 196.4102020263672, -179.01779174804688, -0.1120000034570694, -0.03200000151991844, 1.055999994277954, 0.0, 0.0, 0.0, 0.0, 0.0, 1.6206558402715683E9, 2021-05-10 16:10:40.271
14.0, -61.05386734008789, 51.14126205444336, 222.59323120117188, -161.6384735107422, -0.1120000034570694, -0.03200000151991844, 1.055999994277954, 0.0, 0.0, 0.0, 0.0, 0.0, 1.6206558402715683E9, 2021-05-10 16:10:40.271
15.0, -99.2644271850586, 38.02543258666992, 215.67442321777344, -173.1648406982422, -0.1120000034570694, -0.03200000151991844, 1.055999994277954, 0.0, 0.0, 0.0, 0.0, 0.0, 1.6206558402721968E9, 2021-05-10 16:10:40.272
15.0, -125.65689849853516, 16.995975494384766, 200.4305877685547, -176.1866912841797, -0.1120000034570694, -0.03200000151991844, 1.055999994277954, 0.0, 0.0, 0.0, 0.0, 0.0, 1.6206558402721968E9, 2021-05-10 16:10:40.272
16.0, -110.91047668457031, 31.630203247070312, 197.57330322265625, -172.60012817382812, -0.1120000034570694, -0.03200000151991844, 1.055999994277954, 0.0, 0.0, 0.0, 0.0, 0.0, 1.6206558402858572E9, 2021-05-10 16:10:40.285
16.0, -91.30217742919922, 43.17901611328125, 221.39273071289062, -150.0709686279297, -0.1120000034570694, -0.03200000151991844, 1.055999994277954, 0.0, 0.0, 0.0, 0.0, 0.0, 1.6206558402858572E9, 2021-05-10 16:10:40.285
17.0, -96.69511413574219, 24.352357864379883, 215.3939208984375, -176.4746551513672, -0.1120000034570694, -0.03200000151991844, 1.055999994277954, 0.0, 0.0, 0.0, 0.0, 0.0, 1.620655840317897E9, 2021-05-10 16:10:40.317
17.0, -115.84339904785156, 28.578445434570312, 199.8434295654297, -181.0672607421875, -0.1120000034570694, -0.03200000151991844, 1.055999994277954, 0.0, 0.0, 0.0, 0.0, 0.0, 1.620655840317897E9, 2021-05-10 16:10:40.317
18.0, -121.14657592773438, 23.095752716064453, 199.67138671875, -177.2974395751953, -0.1120000034570694, -0.03200000151991844, 1.055999994277954, 0.0, 0.0, 0.0, 0.0, 0.0, 1.6206558403186524E9, 2021-05-10 16:10:40.318
18.0, -90.4943618774414, 59.7205924987793, 226.99884033203125, -152.6253204345703, -0.1120000034570694, -0.03200000151991844, 1.055999994277954, 0.0, 0.0, 0.0, 0.0, 0.0, 1.6206558403186524E9, 2021-05-10 16:10:40.318
19.0, -71.01696014404297, 55.984432220458984, 230.7499542236328, -145.98326110839844, -0.1120000034570694, -0.03200000151991844, 1.055999994277954, 0.0, 0.0, 0.0, 0.0, 0.0, 1.6206558403192823E9, 2021-05-10 16:10:40.319
19.0, -125.57088470458984, 5.536921977996826, 187.14273071289062, -184.88943481445312, -0.1120000034570694, -0.03200000151991844, 1.055999994277954, 0.0, 0.0, 0.0, 0.0, 0.0, 1.6206558403192823E9, 2021-05-10 16:10:40.319
20.0, -100.1507797241211, 6.726210117340088, 202.23321533203125, -157.43109130859375, -0.1120000034570694, -0.03200000151991844, 1.055999994277954, 0.0, 0.0, 0.0, 0.0, 0.0, 1.6206558403201773E9, 2021-05-10 16:10:40.320
20.0, -96.45575714111328, 31.862077713012695, 207.57379150390625, -172.0316619873047, -0.1120000034570694, -0.03200000151991844, 1.055999994277954, 0.0, 0.0, 0.0, 0.0, 0.0, 1.6206558403201773E9, 2021-05-10 16:10:40.320
21.0, -101.1755142211914, 22.205656051635742, 205.9469451904297, -180.82041931152344, -0.1120000034570694, -0.03200000151991844, 1.055999994277954, 0.0, 0.0, 0.0, 0.0, 0.0, 1.6206558403635068E9, 2021-05-10 16:10:40.363
21.0, -107.30146789550781, 20.773273468017578, 194.3719482421875, -175.333984375, -0.1120000034570694, -0.03200000151991844, 1.055999994277954, 0.0, 0.0, 0.0, 0.0, 0.0, 1.6206558403635068E9, 2021-05-10 16:10:40.363
22.0, -98.40050506591797, 18.910804748535156, 195.9539337158203, -171.9082489013672, -0.1120000034570694, -0.03200000151991844, 1.055999994277954, 0.0, 0.0, 0.0, 0.0, 0.0, 1.6206558403642526E9, 2021-05-10 16:10:40.364
22.0, -86.25331115722656, 11.599299430847168, 209.09593200683594, -170.95831298828125, -0.1120000034570694, -0.03200000151991844, 1.055999994277954, 0.0, 0.0, 0.0, 0.0, 0.0, 1.6206558403642526E9, 2021-05-10 16:10:40.364
23.0, -110.10639190673828, 38.73227310180664, 218.99171447753906, -171.859619140625, -0.1120000034570694, -0.03200000151991844, 1.055999994277954, 0.0, 0.0, 0.0, 0.0, 0.0, 1.620655840364979E9, 2021-05-10 16:10:40.364
23.0, -104.369384765625, 33.39917755126953, 210.0084686279297, -168.8938751220703, -0.1120000034570694, -0.03200000151991844, 1.055999994277954, 0.0, 0.0, 0.0, 0.0, 0.0, 1.620655840364979E9, 2021-05-10 16:10:40.364
24.0, -108.99190521240234, 22.05232048034668, 201.5338592529297, -174.7094268798828, -0.1120000034570694, -0.03200000151991844, 1.055999994277954, 0.0, 0.0, 0.0, 0.0, 0.0, 1.6206558403657525E9, 2021-05-10 16:10:40.365
24.0, -93.09358978271484, 37.93567657470703, 231.2997283935547, -159.0654296875, -0.1120000034570694, -0.03200000151991844, 1.055999994277954, 0.0, 0.0, 0.0, 0.0, 0.0, 1.6206558403657525E9, 2021-05-10 16:10:40.365
25.0, -101.8935775756836, 47.143310546875, 224.02935791015625, -168.4226531982422, -0.1120000034570694, -0.03200000151991844, 1.055999994277954, 0.0, 0.0, 0.0, 0.0, 0.0, 1.620655840375826E9, 2021-05-10 16:10:40.375
25.0, -124.75558471679688, 26.338245391845703, 200.64002990722656, -178.58021545410156, -0.1120000034570694, -0.03200000151991844, 1.055999994277954, 0.0, 0.0, 0.0, 0.0, 0.0, 1.620655840375826E9, 2021-05-10 16:10:40.375
26.0, -118.63336944580078, 35.613197326660156, 194.85813903808594, -188.9584503173828, -0.1120000034570694, -0.03200000151991844, 1.055999994277954, 0.0, 0.0, 0.0, 0.0, 0.0, 1.6206558404089842E9, 2021-05-10 16:10:40.408
26.0, -84.69751739501953, 46.148494720458984, 243.4581298828125, -144.50225830078125, -0.1120000034570694, -0.03200000151991844, 1.055999994277954, 0.0, 0.0, 0.0, 0.0, 0.0, 1.6206558404089842E9, 2021-05-10 16:10:40.408
27.0, -98.60246276855469, 45.90540313720703, 232.0925750732422, -164.0282745361328, -0.1120000034570694, -0.03200000151991844, 1.055999994277954, 0.0, 0.0, 0.0, 0.0, 0.0, 1.6206558404097848E9, 2021-05-10 16:10:40.409
27.0, -119.9273681640625, 38.35454559326172, 200.1800079345703, -187.6756591796875, -0.1120000034570694, -0.03200000151991844, 1.055999994277954, 0.0, 0.0, 0.0, 0.0, 0.0, 1.6206558404097848E9, 2021-05-10 16:10:40.409
28.0, -109.50801086425781, 44.37952423095703, 204.86610412597656, -170.6366729736328, -0.1120000034570694, -0.03200000151991844, 1.055999994277954, 0.0, 0.0, 0.0, 0.0, 0.0, 1.6206558404104996E9, 2021-05-10 16:10:40.410
28.0, -125.38762664794922, 38.956668853759766, 212.33094787597656, -179.56007385253906, -0.1120000034570694, -0.03200000151991844, 1.055999994277954, 0.0, 0.0, 0.0, 0.0, 0.0, 1.6206558404104996E9, 2021-05-10 16:10:40.410
29.0, -94.50353240966797, 61.085655212402344, 220.57742309570312, -171.29489135742188, -0.1120000034570694, -0.03200000151991844, 1.055999994277954, 0.0, 0.0, 0.0, 0.0, 0.0, 1.620655840422229E9, 2021-05-10 16:10:40.422
29.0, -108.5057144165039, 32.172489166259766, 195.2620391845703, -184.2835693359375, -0.1120000034570694, -0.03200000151991844, 1.055999994277954, 0.0, 0.0, 0.0, 0.0, 0.0, 1.620655840422229E9, 2021-05-10 16:10:40.422
30.0, -117.1935043334961, 28.937475204467773, 198.5269775390625, -171.84092712402344, -0.1120000034570694, -0.03200000151991844, 1.055999994277954, 0.0, 0.0, 0.0, 0.0, 0.0, 1.620655840422917E9, 2021-05-10 16:10:40.422
30.0, -93.51619720458984, 38.76219177246094, 222.79519653320312, -152.90206909179688, -0.1120000034570694, -0.03200000151991844, 1.055999994277954, 0.0, 0.0, 0.0, 0.0, 0.0, 1.620655840422917E9, 2021-05-10 16:10:40.422
31.0, -94.55589294433594, 43.60536193847656, 220.46148681640625, -170.68154907226562, -0.1120000034570694, -0.03200000151991844, 1.055999994277954, 0.0, 0.0, 0.0, 0.0, 0.0, 1.6206558404359193E9, 2021-05-10 16:10:40.435
31.0, -124.80419921875, 8.19973087310791, 198.03704833984375, -182.39492797851562, -0.1120000034570694, -0.03200000151991844, 1.055999994277954, 0.0, 0.0, 0.0, 0.0, 0.0, 1.6206558404359193E9, 2021-05-10 16:10:40.435
32.0, -99.50003814697266, 16.569625854492188, 195.53880310058594, -176.29139709472656, -0.1120000034570694, -0.03200000151991844, 1.055999994277954, 0.0, 0.0, 0.0, 0.0, 0.0, 1.620655840451566E9, 2021-05-10 16:10:40.451
32.0, -107.9185562133789, 38.8220329284668, 217.3536376953125, -170.10560607910156, -0.1120000034570694, -0.03200000151991844, 1.055999994277954, 0.0, 0.0, 0.0, 0.0, 0.0, 1.620655840451566E9, 2021-05-10 16:10:40.451
33.0, -112.73180389404297, 46.197113037109375, 216.90110778808594, -179.43292236328125, -0.1120000034570694, -0.03200000151991844, 1.055999994277954, 0.0, 0.0, 0.0, 0.0, 0.0, 1.6206558404523253E9, 2021-05-10 16:10:40.452
33.0, -114.47459411621094, 10.593266487121582, 199.73497009277344, -192.54501342773438, -0.1120000034570694, -0.03200000151991844, 1.055999994277954, 0.0, 0.0, 0.0, 0.0, 0.0, 1.6206558404523253E9, 2021-05-10 16:10:40.452
34.0, -106.5946273803711, 27.52005386352539, 198.17543029785156, -185.345703125, -0.1120000034570694, -0.03200000151991844, 1.055999994277954, 0.0, 0.0, 0.0, 0.0, 0.0, 1.6206558404658139E9, 2021-05-10 16:10:40.465
34.0, -110.73095703125, 68.00447082519531, 228.46861267089844, -162.55101013183594, -0.1120000034570694, -0.03200000151991844, 1.055999994277954, 0.0, 0.0, 0.0, 0.0, 0.0, 1.6206558404658139E9, 2021-05-10 16:10:40.465
35.0, -95.9546127319336, 22.16451644897461, 216.8113555908203, -186.3629608154297, -0.1120000034570694, -0.03200000151991844, 1.055999994277954, 0.0, 0.0, 0.0, 0.0, 0.0, 1.6206558404821265E9, 2021-05-10 16:10:40.482
35.0, -93.16838836669922, 37.374691009521484, 209.82147216796875, -176.0595245361328, -0.1120000034570694, -0.03200000151991844, 1.055999994277954, 0.0, 0.0, 0.0, 0.0, 0.0, 1.6206558404821265E9, 2021-05-10 16:10:40.482
36.0, -130.43649291992188, 37.25501251220703, 192.89842224121094, -187.21939086914062, -0.1120000034570694, -0.03200000151991844, 1.055999994277954, 0.0, 0.0, 0.0, 0.0, 0.0, 1.620655840482868E9, 2021-05-10 16:10:40.482
36.0, -92.57374572753906, 42.33005905151367, 221.64329528808594, -173.8155975341797, -0.1120000034570694, -0.03200000151991844, 1.055999994277954, 0.0, 0.0, 0.0, 0.0, 0.0, 1.620655840482868E9, 2021-05-10 16:10:40.482
37.0, -89.54816436767578, 47.401363372802734, 224.77734375, -166.49661254882812, -0.1120000034570694, -0.03200000151991844, 1.055999994277954, 0.0, 0.0, 0.0, 0.0, 0.0, 1.6206558404958067E9, 2021-05-10 16:10:40.495
37.0, -114.7850112915039, 33.86666488647461, 205.6103515625, -171.2350616455078, -0.1120000034570694, -0.03200000151991844, 1.055999994277954, 0.0, 0.0, 0.0, 0.0, 0.0, 1.6206558404958067E9, 2021-05-10 16:10:40.495
38.0, -113.84629821777344, 39.40919494628906, 203.85633850097656, -163.8637237548828, -0.1120000034570694, -0.03200000151991844, 1.055999994277954, 0.0, 0.0, 0.0, 0.0, 0.0, 1.6206558405115173E9, 2021-05-10 16:10:40.511
38.0, -83.97571563720703, 46.58232498168945, 222.1332244873047, -162.2368621826172, -0.1120000034570694, -0.03200000151991844, 1.055999994277954, 0.0, 0.0, 0.0, 0.0, 0.0, 1.6206558405115173E9, 2021-05-10 16:10:40.511
39.0, -127.268798828125, 12.324840545654297, 205.30368041992188, -185.61497497558594, -0.1120000034570694, -0.03200000151991844, 1.055999994277954, 0.0, 0.0, 0.0, 0.0, 0.0, 1.620655840512248E9, 2021-05-10 16:10:40.512
39.0, -114.23150634765625, 27.325578689575195, 203.9535675048828, -173.1648406982422, -0.1120000034570694, -0.03200000151991844, 1.055999994277954, 0.0, 0.0, 0.0, 0.0, 0.0, 1.620655840512248E9, 2021-05-10 16:10:40.512
40.0, -113.60694122314453, 24.917083740234375, 204.08447265625, -172.51036071777344, -0.1120000034570694, -0.03200000151991844, 1.055999994277954, 0.0, 0.0, 0.0, 0.0, 0.0, 1.6206558405258355E9, 2021-05-10 16:10:40.525
40.0, -92.7607421875, 60.670528411865234, 220.00148010253906, -166.68734741210938, -0.1120000034570694, -0.03200000151991844, 1.055999994277954, 0.0, 0.0, 0.0, 0.0, 0.0, 1.6206558405258355E9, 2021-05-10 16:10:40.525
41.0, -102.94448852539062, 27.112403869628906, 220.4876708984375, -165.00064086914062, -0.1120000034570694, -0.03200000151991844, 1.055999994277954, 0.0, 0.0, 0.0, 0.0, 0.0, 1.6206558405415127E9, 2021-05-10 16:10:40.541
41.0, -101.317626953125, 20.896690368652344, 195.44155883789062, -197.46298217773438, -0.1120000034570694, -0.03200000151991844, 1.055999994277954, 0.0, 0.0, 0.0, 0.0, 0.0, 1.6206558405415127E9, 2021-05-10 16:10:40.541
42.0, -112.30545806884766, 36.989479064941406, 197.206787109375, -187.28297424316406, -0.1120000034570694, -0.03200000151991844, 1.055999994277954, 0.0, 0.0, 0.0, 0.0, 0.0, 1.620655840542241E9, 2021-05-10 16:10:40.542
42.0, -96.58291625976562, 36.57809066772461, 222.5259246826172, -178.0192413330078, -0.1120000034570694, -0.03200000151991844, 1.055999994277954, 0.0, 0.0, 0.0, 0.0, 0.0, 1.620655840542241E9, 2021-05-10 16:10:40.542
43.0, -72.3670654296875, 25.193836212158203, 206.9342803955078, -205.7431182861328, -0.1120000034570694, -0.03200000151991844, 1.055999994277954, 0.0, 0.0, 0.0, 0.0, 0.0, 1.6206558405560005E9, 2021-05-10 16:10:40.556
43.0, -118.31547546386719, 39.00902557373047, 208.0225830078125, -183.70388793945312, -0.1120000034570694, -0.03200000151991844, 1.055999994277954, 0.0, 0.0, 0.0, 0.0, 0.0, 1.6206558405560005E9, 2021-05-10 16:10:40.556
44.0, -109.40328979492188, 26.70849609375, 196.51864624023438, -200.52969360351562, -0.1120000034570694, -0.03200000151991844, 1.055999994277954, 0.0, 0.0, 0.0, 0.0, 0.0, 1.6206558405716023E9, 2021-05-10 16:10:40.571
44.0, -100.28915405273438, 49.02821731567383, 232.92657470703125, -158.9345245361328, -0.1120000034570694, -0.03200000151991844, 1.055999994277954, 0.0, 0.0, 0.0, 0.0, 0.0, 1.6206558405716023E9, 2021-05-10 16:10:40.571
45.0, -98.77075958251953, 41.88127136230469, 236.9806365966797, -169.98593139648438, -0.1120000034570694, -0.03200000151991844, 1.055999994277954, 0.0, 0.0, 0.0, 0.0, 0.0, 1.620655840572198E9, 2021-05-10 16:10:40.572
45.0, -123.97020721435547, 33.227142333984375, 204.05828857421875, -192.09622192382812, -0.1120000034570694, -0.03200000151991844, 1.055999994277954, 0.0, 0.0, 0.0, 0.0, 0.0, 1.620655840572198E9, 2021-05-10 16:10:40.572
46.0, -118.46133422851562, 49.34611129760742, 207.15118408203125, -184.00308227539062, -0.1120000034570694, -0.03200000151991844, 1.055999994277954, 0.0, 0.0, 0.0, 0.0, 0.0, 1.6206558405859034E9, 2021-05-10 16:10:40.585
46.0, -116.46048736572266, 59.219444274902344, 224.02561950683594, -167.05758666992188, -0.1120000034570694, -0.03200000151991844, 1.055999994277954, 0.0, 0.0, 0.0, 0.0, 0.0, 1.6206558405859034E9, 2021-05-10 16:10:40.585
47.0, -108.51319885253906, 27.22460174560547, 224.7212371826172, -157.97337341308594, -0.1120000034570694, -0.03200000151991844, 1.055999994277954, 0.0, 0.0, 0.0, 0.0, 0.0, 1.6206558406016335E9, 2021-05-10 16:10:40.601
47.0, -111.92772674560547, 38.515357971191406, 212.44314575195312, -165.9356231689453, -0.1120000034570694, -0.03200000151991844, 1.055999994277954, 0.0, 0.0, 0.0, 0.0, 0.0, 1.6206558406016335E9, 2021-05-10 16:10:40.601
48.0, -115.67510223388672, 41.993465423583984, 205.1316375732422, -177.4956512451172, -0.1120000034570694, -0.03200000151991844, 1.055999994277954, 0.0, 0.0, 0.0, 0.0, 0.0, 1.6206558406023264E9, 2021-05-10 16:10:40.602
48.0, -92.94025421142578, 40.89393615722656, 221.0897979736328, -155.6995086669922, -0.1120000034570694, -0.03200000151991844, 1.055999994277954, 0.0, 0.0, 0.0, 0.0, 0.0, 1.6206558406023264E9, 2021-05-10 16:10:40.602
49.0, -111.60983276367188, 28.754220962524414, 211.2762908935547, -176.32505798339844, -0.1120000034570694, -0.03200000151991844, 1.055999994277954, 0.0, 0.0, 0.0, 0.0, 0.0, 1.6206558406158338E9, 2021-05-10 16:10:40.615
49.0, -118.22571563720703, 19.722362518310547, 200.63253784179688, -184.04795837402344, -0.1120000034570694, -0.03200000151991844, 1.055999994277954, 0.0, 0.0, 0.0, 0.0, 0.0, 1.6206558406158338E9, 2021-05-10 16:10:40.615
50.0, -92.8654556274414, 26.050273895263672, 207.8131561279297, -177.80606079101562, -0.1120000034570694, -0.03200000151991844, 1.055999994277954, 0.0, 0.0, 0.0, 0.0, 0.0, 1.6206558406315064E9, 2021-05-10 16:10:40.631
50.0, -81.1595687866211, 34.86147689819336, 224.82969665527344, -173.23216247558594, -0.1120000034570694, -0.03200000151991844, 1.055999994277954, 0.0, 0.0, 0.0, 0.0, 0.0, 1.6206558406315064E9, 2021-05-10 16:10:40.631
51.0, -132.16806030273438, 39.181060791015625, 205.17652893066406, -191.3220672607422, -0.1120000034570694, -0.03200000151991844, 1.055999994277954, 0.0, 0.0, 0.0, 0.0, 0.0, 1.6206558406322026E9, 2021-05-10 16:10:40.632
51.0, -101.06331634521484, 65.96248626708984, 217.2152557373047, -166.24229431152344, -0.1120000034570694, -0.03200000151991844, 1.055999994277954, 0.0, 0.0, 0.0, 0.0, 0.0, 1.6206558406322026E9, 2021-05-10 16:10:40.632
52.0, -104.99768829345703, 41.817691802978516, 208.41526794433594, -180.27066040039062, -0.1120000034570694, -0.03200000151991844, 1.055999994277954, 0.0, 0.0, 0.0, 0.0, 0.0, 1.6206558406458368E9, 2021-05-10 16:10:40.645
52.0, -89.20035552978516, 22.68062400817871, 218.47560119628906, -184.18634033203125, -0.1120000034570694, -0.03200000151991844, 1.055999994277954, 0.0, 0.0, 0.0, 0.0, 0.0, 1.6206558406458368E9, 2021-05-10 16:10:40.645
53.0, -101.2166519165039, 21.936382293701172, 225.529052734375, -171.2724609375, -0.1120000034570694, -0.03200000151991844, 1.055999994277954, 0.0, 0.0, 0.0, 0.0, 0.0, 1.6206558406763847E9, 2021-05-10 16:10:40.676
53.0, -103.99913787841797, 29.049673080444336, 216.77769470214844, -174.2793426513672, -0.1120000034570694, -0.03200000151991844, 1.055999994277954, 0.0, 0.0, 0.0, 0.0, 0.0, 1.6206558406763847E9, 2021-05-10 16:10:40.676
54.0, -107.46976470947266, 33.45527648925781, 204.9857940673828, -195.0582275390625, -0.1120000034570694, -0.03200000151991844, 1.055999994277954, 0.0, 0.0, 0.0, 0.0, 0.0, 1.6206558406927469E9, 2021-05-10 16:10:40.692
54.0, -84.1327896118164, 54.27903747558594, 229.0931854248047, -179.65731811523438, -0.1120000034570694, -0.03200000151991844, 1.055999994277954, 0.0, 0.0, 0.0, 0.0, 0.0, 1.6206558406927469E9, 2021-05-10 16:10:40.692
55.0, -92.8018798828125, 22.7591609954834, 229.17172241210938, -174.43641662597656, -0.1120000034570694, -0.03200000151991844, 1.055999994277954, 0.0, 0.0, 0.0, 0.0, 0.0, 1.6206558406934123E9, 2021-05-10 16:10:40.693
55.0, -98.11253356933594, 21.035066604614258, 211.04067993164062, -178.12396240234375, -0.1120000034570694, -0.03200000151991844, 1.055999994277954, 0.0, 0.0, 0.0, 0.0, 0.0, 1.6206558406934123E9, 2021-05-10 16:10:40.693
56.0, -79.61125183105469, 30.100584030151367, 217.55184936523438, -144.3975372314453, -0.1120000034570694, -0.03200000151991844, 1.055999994277954, 0.0, 0.0, 0.0, 0.0, 0.0, 1.6206558406940515E9, 2021-05-10 16:10:40.694
56.0, -89.43596649169922, 38.35454559326172, 225.01295471191406, -186.54246520996094, -0.1120000034570694, -0.03200000151991844, 1.055999994277954, 0.0, 0.0, 0.0, 0.0, 0.0, 1.6206558406940515E9, 2021-05-10 16:10:40.694
57.0, -114.21654510498047, 20.45538330078125, 224.8072509765625, -182.5146026611328, -0.1120000034570694, -0.03200000151991844, 1.055999994277954, 0.0, 0.0, 0.0, 0.0, 0.0, 1.6206558407064683E9, 2021-05-10 16:10:40.706
57.0, -120.66413116455078, 12.680130958557129, 202.5959930419922, -189.89341735839844, -0.1120000034570694, -0.03200000151991844, 1.055999994277954, 0.0, 0.0, 0.0, 0.0, 0.0, 1.6206558407064683E9, 2021-05-10 16:10:40.706
58.0, -108.41596221923828, 22.564685821533203, 205.46823120117188, -176.62051391601562, -0.1120000034570694, -0.03200000151991844, 1.055999994277954, 0.0, 0.0, 0.0, 0.0, 0.0, 1.6206558407072399E9, 2021-05-10 16:10:40.707
58.0, -99.45890045166016, 54.18553924560547, 235.4884033203125, -155.2469940185547, -0.1120000034570694, -0.03200000151991844, 1.055999994277954, 0.0, 0.0, 0.0, 0.0, 0.0, 1.6206558407072399E9, 2021-05-10 16:10:40.707
59.0, -98.85303497314453, 39.14366149902344, 226.0414276123047, -165.3896026611328, -0.1120000034570694, -0.03200000151991844, 1.055999994277954, 0.0, 0.0, 0.0, 0.0, 0.0, 1.6206558407215617E9, 2021-05-10 16:10:40.721
59.0, -104.89671325683594, 38.15633010864258, 204.24154663085938, -178.7298126220703, -0.1120000034570694, -0.03200000151991844, 1.055999994277954, 0.0, 0.0, 0.0, 0.0, 0.0, 1.6206558407215617E9, 2021-05-10 16:10:40.721
60.0, -120.12932586669922, 39.82432556152344, 196.8328094482422, -179.8779754638672, -0.1120000034570694, -0.03200000151991844, 1.055999994277954, 0.0, 0.0, 0.0, 0.0, 0.0, 1.620655840722268E9, 2021-05-10 16:10:40.722
60.0, -105.95884704589844, 25.466848373413086, 216.889892578125, -175.88002014160156, -0.1120000034570694, -0.03200000151991844, 1.055999994277954, 0.0, 0.0, 0.0, 0.0, 0.0, 1.620655840722268E9, 2021-05-10 16:10:40.722
61.0, -96.08924865722656, 52.689579010009766, 215.38270568847656, -174.90390014648438, -0.1120000034570694, -0.03200000151991844, 1.055999994277954, 0.0, 0.0, 0.0, 0.0, 0.0, 1.6206558407359436E9, 2021-05-10 16:10:40.735
61.0, -100.43501281738281, 13.603885650634766, 199.8883056640625, -181.32156372070312, -0.1120000034570694, -0.03200000151991844, 1.055999994277954, 0.0, 0.0, 0.0, 0.0, 0.0, 1.6206558407359436E9, 2021-05-10 16:10:40.735
62.0, -104.11133575439453, 16.678083419799805, 200.28472900390625, -177.74249267578125, -0.1120000034570694, -0.03200000151991844, 1.055999994277954, 0.0, 0.0, 0.0, 0.0, 0.0, 1.620655840751216E9, 2021-05-10 16:10:40.751
62.0, -106.74422454833984, 41.36142349243164, 214.5636749267578, -176.0109100341797, -0.1120000034570694, -0.03200000151991844, 1.055999994277954, 0.0, 0.0, 0.0, 0.0, 0.0, 1.620655840751216E9, 2021-05-10 16:10:40.751
63.0, -111.40788269042969, 33.23088073730469, 206.7996368408203, -178.88314819335938, -0.1120000034570694, -0.03200000151991844, 1.055999994277954, 0.0, 0.0, 0.0, 0.0, 0.0, 1.6206558407662709E9, 2021-05-10 16:10:40.766
63.0, -97.51789093017578, 33.76194763183594, 212.3533935546875, -187.14085388183594, -0.1120000034570694, -0.03200000151991844, 1.055999994277954, 0.0, 0.0, 0.0, 0.0, 0.0, 1.6206558407662709E9, 2021-05-10 16:10:40.766
64.0, -102.57797241210938, 27.35175895690918, 204.47341918945312, -191.07896423339844, -0.1120000034570694, -0.03200000151991844, 1.055999994277954, 0.0, 0.0, 0.0, 0.0, 0.0, 1.6206558408126976E9, 2021-05-10 16:10:40.812
64.0, -88.85254669189453, 36.49207305908203, 231.65127563476562, -177.14036560058594, -0.1120000034570694, -0.03200000151991844, 1.055999994277954, 0.0, 0.0, 0.0, 0.0, 0.0, 1.6206558408126976E9, 2021-05-10 16:10:40.812
65.0, -98.74083709716797, 28.21193504333496, 221.7180938720703, -181.00741577148438, -0.1120000034570694, -0.03200000151991844, 1.055999994277954, 0.0, 0.0, 0.0, 0.0, 0.0, 1.6206558408134973E9, 2021-05-10 16:10:40.813
65.0, -95.41606903076172, 34.046180725097656, 225.00172424316406, -182.66793823242188, -0.1120000034570694, -0.03200000151991844, 1.055999994277954, 0.0, 0.0, 0.0, 0.0, 0.0, 1.6206558408134973E9, 2021-05-10 16:10:40.813
66.0, -103.70368957519531, 41.10710906982422, 227.98617553710938, -174.17462158203125, -0.1120000034570694, -0.03200000151991844, 1.055999994277954, 0.0, 0.0, 0.0, 0.0, 0.0, 1.6206558408140907E9, 2021-05-10 16:10:40.814
66.0, -101.98706817626953, 50.924346923828125, 247.41868591308594, -163.65428161621094, -0.1120000034570694, -0.03200000151991844, 1.055999994277954, 0.0, 0.0, 0.0, 0.0, 0.0, 1.6206558408140907E9, 2021-05-10 16:10:40.814
67.0, -85.44923400878906, 46.0923957824707, 246.8240509033203, -157.43856811523438, -0.1120000034570694, -0.03200000151991844, 1.055999994277954, 0.0, 0.0, 0.0, 0.0, 0.0, 1.6206558408285625E9, 2021-05-10 16:10:40.828
67.0, -100.08346557617188, 40.11229705810547, 225.83946228027344, -163.4224090576172, -0.1120000034570694, -0.03200000151991844, 1.055999994277954, 0.0, 0.0, 0.0, 0.0, 0.0, 1.6206558408285625E9, 2021-05-10 16:10:40.828
68.0, -117.1149673461914, 26.70101547241211, 225.0615692138672, -154.27835083007812, -0.1120000034570694, -0.03200000151991844, 1.055999994277954, 0.0, 0.0, 0.0, 0.0, 0.0, 1.6206558408292222E9, 2021-05-10 16:10:40.829
68.0, -94.77654266357422, 30.96076202392578, 238.48033142089844, -151.74644470214844, -0.1120000034570694, -0.03200000151991844, 1.055999994277954, 0.0, 0.0, 0.0, 0.0, 0.0, 1.6206558408292222E9, 2021-05-10 16:10:40.829
69.0, -103.07164001464844, 8.050134658813477, 213.1537322998047, -162.33035278320312, -0.1120000034570694, -0.03200000151991844, 1.055999994277954, 0.0, 0.0, 0.0, 0.0, 0.0, 1.6206558408299887E9, 2021-05-10 16:10:40.829
69.0, -111.63227081298828, 5.054474830627441, 196.7467803955078, -166.9902801513672, -0.1120000034570694, -0.03200000151991844, 1.055999994277954, 0.0, 0.0, 0.0, 0.0, 0.0, 1.6206558408299887E9, 2021-05-10 16:10:40.829
70.0, -98.17985534667969, 38.4630012512207, 204.64920043945312, -174.8291015625, -0.1120000034570694, -0.03200000151991844, 1.055999994277954, 0.0, 0.0, 0.0, 0.0, 0.0, 1.6206558408307366E9, 2021-05-10 16:10:40.830
70.0, -82.52088928222656, 18.52559471130371, 215.16578674316406, -174.09608459472656, -0.1120000034570694, -0.03200000151991844, 1.055999994277954, 0.0, 0.0, 0.0, 0.0, 0.0, 1.6206558408307366E9, 2021-05-10 16:10:40.830
71.0, -95.29639434814453, 31.712482452392578, 226.7931365966797, -170.8947296142578, -0.1120000034570694, -0.03200000151991844, 1.055999994277954, 0.0, 0.0, 0.0, 0.0, 0.0, 1.620655840858029E9, 2021-05-10 16:10:40.858
71.0, -108.24766540527344, 14.5164213180542, 205.92449951171875, -180.87652587890625, -0.1120000034570694, -0.03200000151991844, 1.055999994277954, 0.0, 0.0, 0.0, 0.0, 0.0, 1.620655840858029E9, 2021-05-10 16:10:40.858
72.0, -113.84629821777344, 20.126272201538086, 204.45846557617188, -184.9604949951172, -0.1120000034570694, -0.03200000151991844, 1.055999994277954, 0.0, 0.0, 0.0, 0.0, 0.0, 1.6206558408588035E9, 2021-05-10 16:10:40.858
72.0, -92.61114501953125, 45.69970703125, 232.08135986328125, -175.23301696777344, -0.1120000034570694, -0.03200000151991844, 1.055999994277954, 0.0, 0.0, 0.0, 0.0, 0.0, 1.6206558408588035E9, 2021-05-10 16:10:40.858
73.0, -80.01142120361328, 53.403900146484375, 231.41940307617188, -178.75599670410156, -0.1120000034570694, -0.03200000151991844, 1.055999994277954, 0.0, 0.0, 0.0, 0.0, 0.0, 1.6206558408594108E9, 2021-05-10 16:10:40.859
73.0, -103.57653045654297, 8.476483345031738, 214.5935821533203, -187.8477020263672, -0.1120000034570694, -0.03200000151991844, 1.055999994277954, 0.0, 0.0, 0.0, 0.0, 0.0, 1.6206558408594108E9, 2021-05-10 16:10:40.859
74.0, -102.0581283569336, 16.954835891723633, 207.91412353515625, -187.1595458984375, -0.1120000034570694, -0.03200000151991844, 1.055999994277954, 0.0, 0.0, 0.0, 0.0, 0.0, 1.6206558408600972E9, 2021-05-10 16:10:40.860
74.0, -114.8037109375, 32.51655960083008, 217.32745361328125, -183.2364044189453, -0.1120000034570694, -0.03200000151991844, 1.055999994277954, 0.0, 0.0, 0.0, 0.0, 0.0, 1.6206558408600972E9, 2021-05-10 16:10:40.860
75.0, -85.51280975341797, 51.33199691772461, 241.0945281982422, -148.93777465820312, -0.1120000034570694, -0.03200000151991844, 1.055999994277954, 0.0, 0.0, 0.0, 0.0, 0.0, 1.6206558408707745E9, 2021-05-10 16:10:40.870
75.0, -103.0604248046875, 30.224000930786133, 216.51589965820312, -156.10716247558594, -0.1120000034570694, -0.03200000151991844, 1.055999994277954, 0.0, 0.0, 0.0, 0.0, 0.0, 1.6206558408707745E9, 2021-05-10 16:10:40.870
76.0, -97.27105712890625, 4.605686664581299, 220.89906311035156, -163.01849365234375, -0.1120000034570694, -0.03200000151991844, 1.055999994277954, 0.0, 0.0, 0.0, 0.0, 0.0, 1.6206558409029286E9, 2021-05-10 16:10:40.902
76.0, -97.08406066894531, 43.201454162597656, 248.2676544189453, -141.7235107421875, -0.1120000034570694, -0.03200000151991844, 1.055999994277954, 0.0, 0.0, 0.0, 0.0, 0.0, 1.6206558409029286E9, 2021-05-10 16:10:40.902
77.0, -82.36007690429688, 42.532012939453125, 250.95289611816406, -133.1591339111328, -0.1120000034570694, -0.03200000151991844, 1.055999994277954, 0.0, 0.0, 0.0, 0.0, 0.0, 1.6206558409036703E9, 2021-05-10 16:10:40.903
77.0, -115.64892578125, 12.074267387390137, 209.95237731933594, -175.2891082763672, -0.1120000034570694, -0.03200000151991844, 1.055999994277954, 0.0, 0.0, 0.0, 0.0, 0.0, 1.6206558409036703E9, 2021-05-10 16:10:40.903
78.0, -127.72505950927734, 43.429588317871094, 203.7404022216797, -164.17413330078125, -0.1120000034570694, -0.03200000151991844, 1.055999994277954, 0.0, 0.0, 0.0, 0.0, 0.0, 1.620655840904465E9, 2021-05-10 16:10:40.904
78.0, -95.1318359375, 40.98369216918945, 236.36729431152344, -151.682861328125, -0.1120000034570694, -0.03200000151991844, 1.055999994277954, 0.0, 0.0, 0.0, 0.0, 0.0, 1.620655840904465E9, 2021-05-10 16:10:40.904
79.0, -103.66254425048828, 34.509925842285156, 229.33627319335938, -172.31588745117188, -0.1120000034570694, -0.03200000151991844, 1.055999994277954, 0.0, 0.0, 0.0, 0.0, 0.0, 1.620655840915791E9, 2021-05-10 16:10:40.915
79.0, -113.97344970703125, 24.53187370300293, 206.4593048095703, -180.1659393310547, -0.1120000034570694, -0.03200000151991844, 1.055999994277954, 0.0, 0.0, 0.0, 0.0, 0.0, 1.620655840915791E9, 2021-05-10 16:10:40.915
80.0, -105.71949005126953, 29.917329788208008, 212.29354858398438, -177.4171142578125, -0.1120000034570694, -0.03200000151991844, 1.055999994277954, 0.0, 0.0, 0.0, 0.0, 0.0, 1.6206558409314497E9, 2021-05-10 16:10:40.931
80.0, -108.22522735595703, 22.28419303894043, 217.68649291992188, -178.7298126220703, -0.1120000034570694, -0.03200000151991844, 1.055999994277954, 0.0, 0.0, 0.0, 0.0, 0.0, 1.6206558409314497E9, 2021-05-10 16:10:40.931
81.0, -84.00189208984375, 40.134735107421875, 233.8802490234375, -165.10910034179688, -0.1120000034570694, -0.03200000151991844, 1.055999994277954, 0.0, 0.0, 0.0, 0.0, 0.0, 1.6206558409321864E9, 2021-05-10 16:10:40.932
81.0, -99.93760681152344, 10.16691780090332, 212.24867248535156, -163.3401336669922, -0.1120000034570694, -0.03200000151991844, 1.055999994277954, 0.0, 0.0, 0.0, 0.0, 0.0, 1.6206558409321864E9, 2021-05-10 16:10:40.932
82.0, -96.84471130371094, 25.792219161987305, 209.65692138671875, -171.8558807373047, -0.1120000034570694, -0.03200000151991844, 1.055999994277954, 0.0, 0.0, 0.0, 0.0, 0.0, 1.6206558409634767E9, 2021-05-10 16:10:40.963
82.0, -110.0091552734375, 45.69970703125, 227.4812774658203, -177.34979248046875, -0.1120000034570694, -0.03200000151991844, 1.055999994277954, 0.0, 0.0, 0.0, 0.0, 0.0, 1.6206558409634767E9, 2021-05-10 16:10:40.963
83.0, -93.21326446533203, 31.304832458496094, 229.55319213867188, -168.4226531982422, -0.1120000034570694, -0.03200000151991844, 1.055999994277954, 0.0, 0.0, 0.0, 0.0, 0.0, 1.6206558409641345E9, 2021-05-10 16:10:40.964
83.0, -107.30520629882812, 27.362977981567383, 207.58128356933594, -162.22938537597656, -0.1120000034570694, -0.03200000151991844, 1.055999994277954, 0.0, 0.0, 0.0, 0.0, 0.0, 1.6206558409641345E9, 2021-05-10 16:10:40.964
84.0, -107.33139038085938, 38.60511779785156, 214.48887634277344, -153.8482666015625, -0.1120000034570694, -0.03200000151991844, 1.055999994277954, 0.0, 0.0, 0.0, 0.0, 0.0, 1.6206558409765744E9, 2021-05-10 16:10:40.976
84.0, -90.9992446899414, 57.88804244995117, 232.3656005859375, -145.6167449951172, -0.1120000034570694, -0.03200000151991844, 1.055999994277954, 0.0, 0.0, 0.0, 0.0, 0.0, 1.6206558409765744E9, 2021-05-10 16:10:40.976
85.0, -102.85846710205078, 31.633943557739258, 228.44244384765625, -159.09909057617188, -0.1120000034570694, -0.03200000151991844, 1.055999994277954, 0.0, 0.0, 0.0, 0.0, 0.0, 1.6206558409772818E9, 2021-05-10 16:10:40.977
85.0, -91.70608520507812, 4.284055233001709, 210.6068572998047, -167.43157958984375, -0.1120000034570694, -0.03200000151991844, 1.055999994277954, 0.0, 0.0, 0.0, 0.0, 0.0, 1.6206558409772818E9, 2021-05-10 16:10:40.977
86.0, -111.06381225585938, 29.81635284423828, 213.2434844970703, -157.50962829589844, -0.1120000034570694, -0.03200000151991844, 1.055999994277954, 0.0, 0.0, 0.0, 0.0, 0.0, 1.6206558409916267E9, 2021-05-10 16:10:40.991
86.0, -117.79188537597656, 46.34297180175781, 231.51663208007812, -159.66754150390625, -0.1120000034570694, -0.03200000151991844, 1.055999994277954, 0.0, 0.0, 0.0, 0.0, 0.0, 1.6206558409916267E9, 2021-05-10 16:10:40.991
87.0, -97.09154510498047, 36.01710510253906, 224.82595825195312, -168.75177001953125, -0.1120000034570694, -0.03200000151991844, 1.055999994277954, 0.0, 0.0, 0.0, 0.0, 0.0, 1.6206558409923224E9, 2021-05-10 16:10:40.992
87.0, -104.36564636230469, 18.473236083984375, 209.27545166015625, -179.0402374267578, -0.1120000034570694, -0.03200000151991844, 1.055999994277954, 0.0, 0.0, 0.0, 0.0, 0.0, 1.6206558409923224E9, 2021-05-10 16:10:40.992
88.0, -108.24018096923828, 27.815505981445312, 210.26278686523438, -177.8958282470703, -0.1120000034570694, -0.03200000151991844, 1.055999994277954, 0.0, 0.0, 0.0, 0.0, 0.0, 1.6206558410392113E9, 2021-05-10 16:10:41.039
88.0, -83.91587829589844, 48.85244369506836, 228.73788452148438, -170.674072265625, -0.1120000034570694, -0.03200000151991844, 1.055999994277954, 0.0, 0.0, 0.0, 0.0, 0.0, 1.6206558410392113E9, 2021-05-10 16:10:41.039
89.0, -108.78994750976562, 35.613197326660156, 229.5606689453125, -169.33892822265625, -0.1120000034570694, -0.03200000151991844, 1.055999994277954, 0.0, 0.0, 0.0, 0.0, 0.0, 1.620655841040044E9, 2021-05-10 16:10:41.040
89.0, -113.52840423583984, 41.5745964050293, 215.28921508789062, -177.60411071777344, -0.1120000034570694, -0.03200000151991844, 1.055999994277954, 0.0, 0.0, 0.0, 0.0, 0.0, 1.620655841040044E9, 2021-05-10 16:10:41.040
90.0, -96.66519165039062, 42.22159957885742, 216.2466278076172, -173.1648406982422, -0.1120000034570694, -0.03200000151991844, 1.055999994277954, 0.0, 0.0, 0.0, 0.0, 0.0, 1.6206558410407271E9, 2021-05-10 16:10:41.040
90.0, -96.66519165039062, 27.026386260986328, 215.42010498046875, -181.9087371826172, -0.1120000034570694, -0.03200000151991844, 1.055999994277954, 0.0, 0.0, 0.0, 0.0, 0.0, 1.6206558410407271E9, 2021-05-10 16:10:41.040
91.0, -99.09986877441406, 38.908050537109375, 223.99195861816406, -166.8967742919922, -0.1120000034570694, -0.03200000151991844, 1.055999994277954, 0.0, 0.0, 0.0, 0.0, 0.0, 1.6206558410414815E9, 2021-05-10 16:10:41.041
91.0, -101.47844696044922, 33.28697967529297, 217.42095947265625, -157.9584197998047, -0.1120000034570694, -0.03200000151991844, 1.055999994277954, 0.0, 0.0, 0.0, 0.0, 0.0, 1.6206558410414815E9, 2021-05-10 16:10:41.041
92.0, -89.81743621826172, 27.127365112304688, 199.9331817626953, -165.06796264648438, -0.12800000607967377, -0.03200000151991844, 1.055999994277954, 0.0, 0.0, 0.0, 0.0, 0.0, 1.6206558410519333E9, 2021-05-10 16:10:41.051
92.0, -78.49675750732422, 37.225093841552734, 220.46522521972656, -166.54896545410156, -0.12800000607967377, -0.03200000151991844, 1.055999994277954, 0.0, 0.0, 0.0, 0.0, 0.0, 1.6206558410519333E9, 2021-05-10 16:10:41.051
93.0, -102.51813507080078, 34.99611282348633, 229.1343231201172, -146.1328582763672, -0.12800000607967377, -0.03200000151991844, 1.055999994277954, 0.0, 0.0, 0.0, 0.0, 0.0, 1.620655841066545E9, 2021-05-10 16:10:41.066
93.0, -120.06201171875, 17.867372512817383, 209.5035858154297, -166.10765075683594, -0.12800000607967377, -0.03200000151991844, 1.055999994277954, 0.0, 0.0, 0.0, 0.0, 0.0, 1.620655841066545E9, 2021-05-10 16:10:41.066
94.0, -117.86668395996094, 9.437637329101562, 212.7760009765625, -151.6454620361328, -0.12800000607967377, -0.03200000151991844, 1.055999994277954, 0.0, 0.0, 0.0, 0.0, 0.0, 1.6206558410672216E9, 2021-05-10 16:10:41.067
94.0, -94.451171875, 30.57181167602539, 227.4775390625, -155.52374267578125, -0.12800000607967377, -0.03200000151991844, 1.055999994277954, 0.0, 0.0, 0.0, 0.0, 0.0, 1.6206558410672216E9, 2021-05-10 16:10:41.067
95.0, -78.67627716064453, 70.11377716064453, 244.46043395996094, -131.6444854736328, -0.12800000607967377, -0.03200000151991844, 1.055999994277954, 0.0, 0.0, 0.0, 0.0, 0.0, 1.6206558410815277E9, 2021-05-10 16:10:41.081
95.0, -130.33177185058594, 2.9152519702911377, 205.66644287109375, -180.10235595703125, -0.12800000607967377, -0.03200000151991844, 1.055999994277954, 0.0, 0.0, 0.0, 0.0, 0.0, 1.6206558410815277E9, 2021-05-10 16:10:41.081
96.0, -140.88577270507812, 4.527148723602295, 195.9427032470703, -186.10116577148438, -0.12800000607967377, -0.03200000151991844, 1.055999994277954, 0.0, 0.0, 0.0, 0.0, 0.0, 1.620655841082206E9, 2021-05-10 16:10:41.082
96.0, -96.76991271972656, 66.80770111083984, 250.23109436035156, -150.25796508789062, -0.12800000607967377, -0.03200000151991844, 1.055999994277954, 0.0, 0.0, 0.0, 0.0, 0.0, 1.620655841082206E9, 2021-05-10 16:10:41.082
97.0, -124.36663055419922, 42.02712631225586, 227.66079711914062, -184.53041076660156, -0.12800000607967377, -0.03200000151991844, 1.055999994277954, 0.0, 0.0, 0.0, 0.0, 0.0, 1.6206558410957978E9, 2021-05-10 16:10:41.095
97.0, -120.45843505859375, 31.65264320373535, 219.85562133789062, -176.9159698486328, -0.12800000607967377, -0.03200000151991844, 1.055999994277954, 0.0, 0.0, 0.0, 0.0, 0.0, 1.6206558410957978E9, 2021-05-10 16:10:41.095
98.0, -112.76920318603516, 46.38037109375, 215.05734252929688, -183.6926727294922, -0.12800000607967377, -0.03200000151991844, 1.055999994277954, 0.0, 0.0, 0.0, 0.0, 0.0, 1.6206558411271381E9, 2021-05-10 16:10:41.127
98.0, -99.57857513427734, 2.9376914501190186, 224.5604248046875, -185.40928649902344, -0.12800000607967377, -0.03200000151991844, 1.055999994277954, 0.0, 0.0, 0.0, 0.0, 0.0, 1.6206558411271381E9, 2021-05-10 16:10:41.127
99.0, -86.68340301513672, 56.29110336303711, 243.14772033691406, -157.09449768066406, -0.12800000607967377, -0.03200000151991844, 1.055999994277954, 0.0, 0.0, 0.0, 0.0, 0.0, 1.620655841142589E9, 2021-05-10 16:10:41.142
99.0, -102.78740692138672, 31.241254806518555, 221.0374298095703, -167.3343505859375, -0.12800000607967377, -0.03200000151991844, 1.055999994277954, 0.0, 0.0, 0.0, 0.0, 0.0, 1.620655841142589E9, 2021-05-10 16:10:41.142
100.0, -72.77471160888672, 23.432342529296875, 205.4308319091797, -173.8230743408203, -0.12800000607967377, -0.03200000151991844, 1.055999994277954, 0.0, 0.0, 0.0, 0.0, 0.0, 1.6206558411434145E9, 2021-05-10 16:10:41.143
100.0, -101.35877227783203, 61.957054138183594, 227.92259216308594, -154.25592041015625, -0.12800000607967377, -0.03200000151991844, 1.055999994277954, 0.0, 0.0, 0.0, 0.0, 0.0, 1.6206558411434145E9, 2021-05-10 16:10:41.143
0.0, -102.2918701171875, 34.23878479003906, 214.92083740234375, -165.86082458496094, -0.12800000607967377, -0.03200000151991844, 1.055999994277954, 0.0, 0.0, 0.0, 0.0, 0.0, 1.6206558411576312E9, 2021-05-10 16:10:41.157
1.0, -107.97652435302734, -3.0891573429107666, 198.8990936279297, -166.6088104248047, -0.12800000607967377, -0.03200000151991844, 1.055999994277954, 0.0, 0.0, 0.0, 0.0, 0.0, 1.6206558411583579E9, 2021-05-10 16:10:41.158
1.0, -104.3338623046875, 22.435659408569336, 206.9211883544922, -163.4224090576172, -0.12800000607967377, -0.03200000151991844, 1.055999994277954, 0.0, 0.0, 0.0, 0.0, 0.0, 1.6206558411583579E9, 2021-05-10 16:10:41.158
2.0, -89.59490966796875, 23.897960662841797, 218.8365020751953, -165.64764404296875, -0.12800000607967377, -0.03200000151991844, 1.055999994277954, 0.0, 0.0, 0.0, 0.0, 0.0, 1.6206558411590586E9, 2021-05-10 16:10:41.159
2.0, -95.7657470703125, 30.416606903076172, 229.5550537109375, -160.04901123046875, -0.12800000607967377, -0.03200000151991844, 1.055999994277954, 0.0, 0.0, 0.0, 0.0, 0.0, 1.6206558411590586E9, 2021-05-10 16:10:41.159
3.0, -111.9408187866211, 13.44867992401123, 203.8694305419922, -171.80352783203125, -0.12800000607967377, -0.03200000151991844, 1.055999994277954, 0.0, 0.0, 0.0, 0.0, 0.0, 1.6206558411714933E9, 2021-05-10 16:10:41.171
3.0, -105.21647644042969, 12.046217918395996, 212.059814453125, -165.31480407714844, -0.12800000607967377, -0.03200000151991844, 1.055999994277954, 0.0, 0.0, 0.0, 0.0, 0.0, 1.6206558411714933E9, 2021-05-10 16:10:41.171
4.0, -85.41744232177734, 41.251094818115234, 241.638671875, -156.8065185546875, -0.12800000607967377, -0.03200000151991844, 1.055999994277954, 0.0, 0.0, 0.0, 0.0, 0.0, 1.62065584117227E9, 2021-05-10 16:10:41.172
4.0, -94.49044036865234, 34.07048797607422, 242.73072814941406, -165.24374389648438, -0.12800000607967377, -0.03200000151991844, 1.055999994277954, 0.0, 0.0, 0.0, 0.0, 0.0, 1.62065584117227E9, 2021-05-10 16:10:41.172
5.0, -104.97711944580078, 9.084217071533203, 223.33934020996094, -174.90390014648438, -0.12800000607967377, -0.03200000151991844, 1.055999994277954, 0.0, 0.0, 0.0, 0.0, 0.0, 1.620655841201254E9, 2021-05-10 16:10:41.201
5.0, -115.56103515625, 4.1438093185424805, 211.93638610839844, -179.7096710205078, -0.12800000607967377, -0.03200000151991844, 1.055999994277954, 0.0, 0.0, 0.0, 0.0, 0.0, 1.620655841201254E9, 2021-05-10 16:10:41.201
6.0, -92.45219421386719, 41.23239517211914, 239.33489990234375, -175.12081909179688, -0.12800000607967377, -0.03200000151991844, 1.055999994277954, 0.0, 0.0, 0.0, 0.0, 0.0, 1.62065584121863E9, 2021-05-10 16:10:41.218
6.0, -77.96382141113281, -1.6231166124343872, 225.42994689941406, -181.80401611328125, -0.12800000607967377, -0.03200000151991844, 1.055999994277954, 0.0, 0.0, 0.0, 0.0, 0.0, 1.62065584121863E9, 2021-05-10 16:10:41.218
7.0, -104.15060424804688, 34.997982025146484, 231.90371704101562, -166.86685180664062, -0.12800000607967377, -0.03200000151991844, 1.055999994277954, 0.0, 0.0, 0.0, 0.0, 0.0, 1.6206558412192297E9, 2021-05-10 16:10:41.219
7.0, -111.46958923339844, 33.22526931762695, 215.69125366210938, -179.72837829589844, -0.12800000607967377, -0.03200000151991844, 1.055999994277954, 0.0, 0.0, 0.0, 0.0, 0.0, 1.6206558412192297E9, 2021-05-10 16:10:41.219
8.0, -100.38078308105469, 31.4974365234375, 230.03750610351562, -164.735107421875, -0.12800000607967377, -0.03200000151991844, 1.055999994277954, 0.0, 0.0, 0.0, 0.0, 0.0, 1.6206558412199752E9, 2021-05-10 16:10:41.219
8.0, -96.1060791015625, 20.38245391845703, 230.18710327148438, -153.53411865234375, -0.12800000607967377, -0.03200000151991844, 1.055999994277954, 0.0, 0.0, 0.0, 0.0, 0.0, 1.6206558412199752E9, 2021-05-10 16:10:41.219
9.0, -101.16242218017578, -0.9536744952201843, 218.67568969726562, -155.77430725097656, -0.12800000607967377, -0.03200000151991844, 1.055999994277954, 0.0, 0.0, 0.0, 0.0, 0.0, 1.6206558412207508E9, 2021-05-10 16:10:41.220
9.0, -102.9912338256836, 16.63133430480957, 210.55636596679688, -166.54148864746094, -0.12800000607967377, -0.03200000151991844, 1.055999994277954, 0.0, 0.0, 0.0, 0.0, 0.0, 1.6206558412207508E9, 2021-05-10 16:10:41.220
10.0, -91.14697265625, 39.732696533203125, 227.07550048828125, -146.8957977294922, -0.12800000607967377, -0.03200000151991844, 1.055999994277954, 0.0, 0.0, 0.0, 0.0, 0.0, 1.6206558412634633E9, 2021-05-10 16:10:41.263
10.0, -99.39344787597656, 11.48523235321045, 221.63021850585938, -157.51336669921875, -0.12800000607967377, -0.03200000151991844, 1.055999994277954, 0.0, 0.0, 0.0, 0.0, 0.0, 1.6206558412634633E9, 2021-05-10 16:10:41.263
11.0, -127.20708465576172, 10.774651527404785, 198.29322814941406, -177.6602020263672, -0.12800000607967377, -0.03200000151991844, 1.055999994277954, 0.0, 0.0, 0.0, 0.0, 0.0, 1.6206558412642405E9, 2021-05-10 16:10:41.264
11.0, -115.26184844970703, 20.95465850830078, 214.8796844482422, -156.74668884277344, -0.12800000607967377, -0.03200000151991844, 1.055999994277954, 0.0, 0.0, 0.0, 0.0, 0.0, 1.6206558412642405E9, 2021-05-10 16:10:41.264
12.0, -99.50939178466797, 32.477291107177734, 238.9235076904297, -141.9703369140625, -0.1120000034570694, -0.03200000151991844, 1.055999994277954, 0.0, 0.0, 0.0, 0.0, 0.0, 1.62065584126498E9, 2021-05-10 16:10:41.264
12.0, -93.4956283569336, 24.803016662597656, 233.5006561279297, -160.32577514648438, -0.1120000034570694, -0.03200000151991844, 1.055999994277954, 0.0, 0.0, 0.0, 0.0, 0.0, 1.62065584126498E9, 2021-05-10 16:10:41.264
13.0, -97.35520935058594, 3.941854476928711, 211.79052734375, -177.43955993652344, -0.1120000034570694, -0.03200000151991844, 1.055999994277954, 0.0, 0.0, 0.0, 0.0, 0.0, 1.620655841265686E9, 2021-05-10 16:10:41.265
13.0, -101.80194854736328, 26.18303871154785, 209.8457794189453, -177.963134765625, -0.1120000034570694, -0.03200000151991844, 1.055999994277954, 0.0, 0.0, 0.0, 0.0, 0.0, 1.620655841265686E9, 2021-05-10 16:10:41.265
14.0, -119.22614288330078, 29.118860244750977, 226.32379150390625, -172.72354125976562, -0.1120000034570694, -0.03200000151991844, 1.055999994277954, 0.0, 0.0, 0.0, 0.0, 0.0, 1.6206558412765813E9, 2021-05-10 16:10:41.276
14.0, -104.56573486328125, 19.245525360107422, 228.63877868652344, -172.9591522216797, -0.1120000034570694, -0.03200000151991844, 1.055999994277954, 0.0, 0.0, 0.0, 0.0, 0.0, 1.6206558412765813E9, 2021-05-10 16:10:41.276
15.0, -105.50444793701172, 21.09677505493164, 199.26934814453125, -196.53921508789062, -0.1120000034570694, -0.03200000151991844, 1.055999994277954, 0.0, 0.0, 0.0, 0.0, 0.0, 1.6206558412771862E9, 2021-05-10 16:10:41.277
15.0, -106.323486328125, 18.20209312438965, 213.5370635986328, -177.1740264892578, -0.1120000034570694, -0.03200000151991844, 1.055999994277954, 0.0, 0.0, 0.0, 0.0, 0.0, 1.6206558412771862E9, 2021-05-10 16:10:41.277
16.0, -86.10932922363281, 43.132266998291016, 231.24549865722656, -168.9312744140625, -0.1120000034570694, -0.03200000151991844, 1.055999994277954, 0.0, 0.0, 0.0, 0.0, 0.0, 1.620655841290877E9, 2021-05-10 16:10:41.290
16.0, -86.64787292480469, 45.761417388916016, 238.0857696533203, -167.1548309326172, -0.1120000034570694, -0.03200000151991844, 1.055999994277954, 0.0, 0.0, 0.0, 0.0, 0.0, 1.620655841290877E9, 2021-05-10 16:10:41.290
17.0, -108.67962646484375, 16.406940460205078, 217.57615661621094, -174.5860137939453, -0.1120000034570694, -0.03200000151991844, 1.055999994277954, 0.0, 0.0, 0.0, 0.0, 0.0, 1.6206558413070488E9, 2021-05-10 16:10:41.307
17.0, -109.20694732666016, 11.197260856628418, 214.02699279785156, -171.8184814453125, -0.1120000034570694, -0.03200000151991844, 1.055999994277954, 0.0, 0.0, 0.0, 0.0, 0.0, 1.6206558413070488E9, 2021-05-10 16:10:41.307
18.0, -100.02923583984375, 5.142362594604492, 216.33078002929688, -182.08824157714844, -0.1120000034570694, -0.03200000151991844, 1.055999994277954, 0.0, 0.0, 0.0, 0.0, 0.0, 1.620655841321221E9, 2021-05-10 16:10:41.321
18.0, -87.46691131591797, 18.94259262084961, 221.79103088378906, -162.93995666503906, -0.1120000034570694, -0.03200000151991844, 1.055999994277954, 0.0, 0.0, 0.0, 0.0, 0.0, 1.620655841321221E9, 2021-05-10 16:10:41.321
19.0, -111.89219665527344, 6.806617736816406, 202.71754455566406, -171.08920288085938, -0.1120000034570694, -0.03200000151991844, 1.055999994277954, 0.0, 0.0, 0.0, 0.0, 0.0, 1.6206558413371828E9, 2021-05-10 16:10:41.337
19.0, -114.98135375976562, 21.130434036254883, 211.379150390625, -158.44834899902344, -0.1120000034570694, -0.03200000151991844, 1.055999994277954, 0.0, 0.0, 0.0, 0.0, 0.0, 1.6206558413371828E9, 2021-05-10 16:10:41.337
20.0, -106.39080047607422, 17.667287826538086, 228.49667358398438, -156.75790405273438, -0.1120000034570694, -0.03200000151991844, 1.055999994277954, 0.0, 0.0, 0.0, 0.0, 0.0, 1.6206558413378928E9, 2021-05-10 16:10:41.337
20.0, -87.13780212402344, 43.44641876220703, 231.40257263183594, -156.95985412597656, -0.1120000034570694, -0.03200000151991844, 1.055999994277954, 0.0, 0.0, 0.0, 0.0, 0.0, 1.6206558413378928E9, 2021-05-10 16:10:41.337
21.0, -83.5774154663086, 17.2185001373291, 200.50726318359375, -170.8535919189453, -0.1120000034570694, -0.03200000151991844, 1.055999994277954, 0.0, 0.0, 0.0, 0.0, 0.0, 1.6206558413387346E9, 2021-05-10 16:10:41.338
21.0, -127.83538818359375, 29.275936126708984, 206.87255859375, -177.2899627685547, -0.1120000034570694, -0.03200000151991844, 1.055999994277954, 0.0, 0.0, 0.0, 0.0, 0.0, 1.6206558413387346E9, 2021-05-10 16:10:41.338
22.0, -106.43568420410156, 38.872520446777344, 232.04957580566406, -168.8602294921875, -0.1120000034570694, -0.03200000151991844, 1.055999994277954, 0.0, 0.0, 0.0, 0.0, 0.0, 1.620655841382804E9, 2021-05-10 16:10:41.382
22.0, -113.53401184082031, 9.37218952178955, 222.55770874023438, -174.2718505859375, -0.1120000034570694, -0.03200000151991844, 1.055999994277954, 0.0, 0.0, 0.0, 0.0, 0.0, 1.620655841382804E9, 2021-05-10 16:10:41.382
23.0, -118.4669418334961, 12.734359741210938, 196.97305297851562, -190.71994018554688, -0.1120000034570694, -0.03200000151991844, 1.055999994277954, 0.0, 0.0, 0.0, 0.0, 0.0, 1.6206558413834472E9, 2021-05-10 16:10:41.383
23.0, -101.62991333007812, 18.452667236328125, 219.75277709960938, -174.64210510253906, -0.1120000034570694, -0.03200000151991844, 1.055999994277954, 0.0, 0.0, 0.0, 0.0, 0.0, 1.6206558413834472E9, 2021-05-10 16:10:41.383
24.0, -78.03488159179688, 42.38054656982422, 245.73387145996094, -137.9536895751953, -0.1120000034570694, -0.03200000151991844, 1.055999994277954, 0.0, 0.0, 0.0, 0.0, 0.0, 1.6206558413842194E9, 2021-05-10 16:10:41.384
24.0, -105.3211898803711, 36.587440490722656, 220.4371795654297, -179.9490203857422, -0.1120000034570694, -0.03200000151991844, 1.055999994277954, 0.0, 0.0, 0.0, 0.0, 0.0, 1.6206558413842194E9, 2021-05-10 16:10:41.384
25.0, -117.50578308105469, 10.939207077026367, 207.55322265625, -177.8359832763672, -0.1120000034570694, -0.03200000151991844, 1.055999994277954, 0.0, 0.0, 0.0, 0.0, 0.0, 1.6206558413972714E9, 2021-05-10 16:10:41.397
25.0, -121.19706726074219, 12.925094604492188, 214.8385467529297, -162.59962463378906, -0.1120000034570694, -0.03200000151991844, 1.055999994277954, 0.0, 0.0, 0.0, 0.0, 0.0, 1.6206558413972714E9, 2021-05-10 16:10:41.397
26.0, -113.45173645019531, 21.280031204223633, 223.3318634033203, -160.95033264160156, -0.1120000034570694, -0.03200000151991844, 1.055999994277954, 0.0, 0.0, 0.0, 0.0, 0.0, 1.6206558413979273E9, 2021-05-10 16:10:41.397
26.0, -77.2195816040039, 25.26676368713379, 240.1277618408203, -145.4110565185547, -0.1120000034570694, -0.03200000151991844, 1.055999994277954, 0.0, 0.0, 0.0, 0.0, 0.0, 1.6206558413979273E9, 2021-05-10 16:10:41.397
27.0, -111.40601348876953, 8.332496643066406, 203.0952606201172, -177.8023223876953, -0.1120000034570694, -0.03200000151991844, 1.055999994277954, 0.0, 0.0, 0.0, 0.0, 0.0, 1.6206558413987353E9, 2021-05-10 16:10:41.398
27.0, -88.95165252685547, 12.741839408874512, 218.17454528808594, -163.25411987304688, -0.1120000034570694, -0.03200000151991844, 1.055999994277954, 0.0, 0.0, 0.0, 0.0, 0.0, 1.6206558413987353E9, 2021-05-10 16:10:41.398
28.0, -103.04359436035156, 39.28764724731445, 229.40171813964844, -159.2337188720703, -0.1120000034570694, -0.03200000151991844, 1.055999994277954, 0.0, 0.0, 0.0, 0.0, 0.0, 1.620655841410951E9, 2021-05-10 16:10:41.410
28.0, -87.39958953857422, 18.654621124267578, 237.23681640625, -165.29983520507812, -0.1120000034570694, -0.03200000151991844, 1.055999994277954, 0.0, 0.0, 0.0, 0.0, 0.0, 1.620655841410951E9, 2021-05-10 16:10:41.410
29.0, -118.1266098022461, 18.579822540283203, 220.0220489501953, -167.8429718017578, -0.1120000034570694, -0.03200000151991844, 1.055999994277954, 0.0, 0.0, 0.0, 0.0, 0.0, 1.6206558414265501E9, 2021-05-10 16:10:41.426
29.0, -104.0122299194336, 21.631582260131836, 214.24017333984375, -175.26292419433594, -0.1120000034570694, -0.03200000151991844, 1.055999994277954, 0.0, 0.0, 0.0, 0.0, 0.0, 1.6206558414265501E9, 2021-05-10 16:10:41.426
30.0, -87.55667114257812, 37.24940490722656, 231.0921630859375, -167.4951629638672, -0.1120000034570694, -0.03200000151991844, 1.055999994277954, 0.0, 0.0, 0.0, 0.0, 0.0, 1.6206558414272695E9, 2021-05-10 16:10:41.427
30.0, -104.27776336669922, 15.112936019897461, 222.12762451171875, -186.15725708007812, -0.1120000034570694, -0.03200000151991844, 1.055999994277954, 0.0, 0.0, 0.0, 0.0, 0.0, 1.6206558414272695E9, 2021-05-10 16:10:41.427
31.0, -113.56767272949219, 20.35627555847168, 208.4545440673828, -187.0323944091797, -0.1120000034570694, -0.03200000151991844, 1.055999994277954, 0.0, 0.0, 0.0, 0.0, 0.0, 1.6206558414408684E9, 2021-05-10 16:10:41.440
31.0, -92.68407440185547, 32.04346466064453, 217.4377899169922, -169.3090057373047, -0.1120000034570694, -0.03200000151991844, 1.055999994277954, 0.0, 0.0, 0.0, 0.0, 0.0, 1.6206558414408684E9, 2021-05-10 16:10:41.440
32.0, -93.62652587890625, 22.862009048461914, 227.4382781982422, -175.19561767578125, -0.1120000034570694, -0.03200000151991844, 1.055999994277954, 0.0, 0.0, 0.0, 0.0, 0.0, 1.6206558414564931E9, 2021-05-10 16:10:41.456
32.0, -92.7139892578125, 35.26725769042969, 210.75831604003906, -184.1077880859375, -0.1120000034570694, -0.03200000151991844, 1.055999994277954, 0.0, 0.0, 0.0, 0.0, 0.0, 1.6206558414564931E9, 2021-05-10 16:10:41.456
33.0, -115.48624420166016, 38.75284194946289, 201.37490844726562, -165.8870086669922, -0.1120000034570694, -0.03200000151991844, 1.055999994277954, 0.0, 0.0, 0.0, 0.0, 0.0, 1.6206558414572852E9, 2021-05-10 16:10:41.457
33.0, -107.53895568847656, 35.17749786376953, 217.6060791015625, -168.11598205566406, -0.1120000034570694, -0.03200000151991844, 1.055999994277954, 0.0, 0.0, 0.0, 0.0, 0.0, 1.6206558414572852E9, 2021-05-10 16:10:41.457
34.0, -94.60637664794922, 19.668134689331055, 213.86244201660156, -178.18753051757812, -0.1120000034570694, -0.03200000151991844, 1.055999994277954, 0.0, 0.0, 0.0, 0.0, 0.0, 1.620655841487254E9, 2021-05-10 16:10:41.487
34.0, -75.83582305908203, 39.025856018066406, 226.2415008544922, -153.61265563964844, -0.1120000034570694, -0.03200000151991844, 1.055999994277954, 0.0, 0.0, 0.0, 0.0, 0.0, 1.620655841487254E9, 2021-05-10 16:10:41.487
35.0, -133.37417602539062, 8.773805618286133, 197.8893280029297, -167.52133178710938, -0.1120000034570694, -0.03200000151991844, 1.055999994277954, 0.0, 0.0, 0.0, 0.0, 0.0, 1.620655841487904E9, 2021-05-10 16:10:41.487
35.0, -118.48190307617188, 17.75704574584961, 204.03024291992188, -158.54183959960938, -0.1120000034570694, -0.03200000151991844, 1.055999994277954, 0.0, 0.0, 0.0, 0.0, 0.0, 1.620655841487904E9, 2021-05-10 16:10:41.487
36.0, -93.93319702148438, 39.14927291870117, 220.33245849609375, -160.41552734375, -0.1120000034570694, -0.03200000151991844, 1.055999994277954, 0.0, 0.0, 0.0, 0.0, 0.0, 1.620655841488702E9, 2021-05-10 16:10:41.488
36.0, -77.22706604003906, 62.07859802246094, 236.5524139404297, -150.7142333984375, -0.1120000034570694, -0.03200000151991844, 1.055999994277954, 0.0, 0.0, 0.0, 0.0, 0.0, 1.620655841488702E9, 2021-05-10 16:10:41.488
37.0, -126.02527618408203, 26.343854904174805, 206.7454071044922, -169.8737335205078, -0.1120000034570694, -0.03200000151991844, 1.055999994277954, 0.0, 0.0, 0.0, 0.0, 0.0, 1.6206558415008123E9, 2021-05-10 16:10:41.500
37.0, -101.05397033691406, 36.441585540771484, 219.53961181640625, -156.36148071289062, -0.1120000034570694, -0.03200000151991844, 1.055999994277954, 0.0, 0.0, 0.0, 0.0, 0.0, 1.6206558415008123E9, 2021-05-10 16:10:41.500
38.0, -103.35774230957031, 32.78770446777344, 226.7239532470703, -163.47850036621094, -0.1120000034570694, -0.03200000151991844, 1.055999994277954, 0.0, 0.0, 0.0, 0.0, 0.0, 1.6206558415165336E9, 2021-05-10 16:10:41.516
38.0, -96.3828353881836, 30.210912704467773, 230.78549194335938, -158.5081787109375, -0.1120000034570694, -0.03200000151991844, 1.055999994277954, 0.0, 0.0, 0.0, 0.0, 0.0, 1.6206558415165336E9, 2021-05-10 16:10:41.516
39.0, -106.8059310913086, 23.64738655090332, 209.2100067138672, -180.86904907226562, -0.1120000034570694, -0.03200000151991844, 1.055999994277954, 0.0, 0.0, 0.0, 0.0, 0.0, 1.6206558415172808E9, 2021-05-10 16:10:41.517
39.0, -132.18862915039062, 29.878061294555664, 201.8872833251953, -186.9164581298828, -0.1120000034570694, -0.03200000151991844, 1.055999994277954, 0.0, 0.0, 0.0, 0.0, 0.0, 1.6206558415172808E9, 2021-05-10 16:10:41.517
40.0, -101.20730590820312, 47.45185089111328, 220.46710205078125, -173.22842407226562, -0.1120000034570694, -0.03200000151991844, 1.055999994277954, 0.0, 0.0, 0.0, 0.0, 0.0, 1.6206558415308948E9, 2021-05-10 16:10:41.530
40.0, -109.22190856933594, 43.831626892089844, 212.61705017089844, -178.96543884277344, -0.1120000034570694, -0.03200000151991844, 1.055999994277954, 0.0, 0.0, 0.0, 0.0, 0.0, 1.6206558415308948E9, 2021-05-10 16:10:41.530
41.0, -76.80071258544922, 47.93429946899414, 210.96401977539062, -172.7123260498047, -0.1120000034570694, -0.03200000151991844, 1.055999994277954, 0.0, 0.0, 0.0, 0.0, 0.0, 1.620655841546635E9, 2021-05-10 16:10:41.546
41.0, -97.41130065917969, 13.022331237792969, 212.1682586669922, -173.95022583007812, -0.1120000034570694, -0.03200000151991844, 1.055999994277954, 0.0, 0.0, 0.0, 0.0, 0.0, 1.620655841546635E9, 2021-05-10 16:10:41.546
42.0, -122.85010528564453, 42.71713638305664, 223.56373596191406, -177.5442657470703, -0.1120000034570694, -0.03200000151991844, 1.055999994277954, 0.0, 0.0, 0.0, 0.0, 0.0, 1.620655841547246E9, 2021-05-10 16:10:41.547
42.0, -110.40745544433594, 40.83222961425781, 226.27890014648438, -170.3748779296875, -0.1120000034570694, -0.03200000151991844, 1.055999994277954, 0.0, 0.0, 0.0, 0.0, 0.0, 1.620655841547246E9, 2021-05-10 16:10:41.547
43.0, -98.50335693359375, 24.286911010742188, 222.3108673095703, -160.42674255371094, -0.1120000034570694, -0.03200000151991844, 1.055999994277954, 0.0, 0.0, 0.0, 0.0, 0.0, 1.6206558415608582E9, 2021-05-10 16:10:41.560
43.0, -104.9210205078125, 21.526865005493164, 224.9923858642578, -156.23806762695312, -0.1120000034570694, -0.03200000151991844, 1.055999994277954, 0.0, 0.0, 0.0, 0.0, 0.0, 1.6206558415608582E9, 2021-05-10 16:10:41.560
44.0, -83.19220733642578, 34.908226013183594, 236.93014526367188, -144.96226501464844, -0.1120000034570694, -0.03200000151991844, 1.055999994277954, 0.0, 0.0, 0.0, 0.0, 0.0, 1.620655841576932E9, 2021-05-10 16:10:41.576
44.0, -95.56005096435547, 34.38838195800781, 233.93447875976562, -148.96022033691406, -0.1120000034570694, -0.03200000151991844, 1.055999994277954, 0.0, 0.0, 0.0, 0.0, 0.0, 1.620655841576932E9, 2021-05-10 16:10:41.576
45.0, -105.05565643310547, -9.88455581665039, 208.2712860107422, -173.49021911621094, -0.1120000034570694, -0.03200000151991844, 1.055999994277954, 0.0, 0.0, 0.0, 0.0, 0.0, 1.6206558415915077E9, 2021-05-10 16:10:41.591
45.0, -108.41409301757812, 32.60818862915039, 216.94412231445312, -165.3297576904297, -0.1120000034570694, -0.03200000151991844, 1.055999994277954, 0.0, 0.0, 0.0, 0.0, 0.0, 1.6206558415915077E9, 2021-05-10 16:10:41.591
46.0, -92.76634979248047, 40.94816589355469, 239.95571899414062, -147.7896270751953, -0.1120000034570694, -0.03200000151991844, 1.055999994277954, 0.0, 0.0, 0.0, 0.0, 0.0, 1.6206558415922737E9, 2021-05-10 16:10:41.592
46.0, -98.57815551757812, 24.279430389404297, 229.80563354492188, -158.11549377441406, -0.1120000034570694, -0.03200000151991844, 1.055999994277954, 0.0, 0.0, 0.0, 0.0, 0.0, 1.6206558415922737E9, 2021-05-10 16:10:41.592
47.0, -108.32807159423828, 24.133573532104492, 211.29312133789062, -181.04481506347656, -0.1120000034570694, -0.03200000151991844, 1.055999994277954, 0.0, 0.0, 0.0, 0.0, 0.0, 1.6206558416064787E9, 2021-05-10 16:10:41.606
47.0, -113.1301040649414, 26.833782196044922, 213.9596710205078, -179.4852752685547, -0.1120000034570694, -0.03200000151991844, 1.055999994277954, 0.0, 0.0, 0.0, 0.0, 0.0, 1.6206558416064787E9, 2021-05-10 16:10:41.606
48.0, -75.50296783447266, 40.970603942871094, 231.8177032470703, -167.94020080566406, -0.1120000034570694, -0.03200000151991844, 1.055999994277954, 0.0, 0.0, 0.0, 0.0, 0.0, 1.6206558416072958E9, 2021-05-10 16:10:41.607
48.0, -102.56114959716797, 37.9300651550293, 222.12762451171875, -184.7959442138672, -0.1120000034570694, -0.03200000151991844, 1.055999994277954, 0.0, 0.0, 0.0, 0.0, 0.0, 1.6206558416072958E9, 2021-05-10 16:10:41.607
49.0, -115.89015197753906, 21.646541595458984, 205.58604431152344, -189.1042938232422, -0.1120000034570694, -0.03200000151991844, 1.055999994277954, 0.0, 0.0, 0.0, 0.0, 0.0, 1.6206558416208577E9, 2021-05-10 16:10:41.620
49.0, -103.28294372558594, 28.105348587036133, 213.9185333251953, -163.51589965820312, -0.1120000034570694, -0.03200000151991844, 1.055999994277954, 0.0, 0.0, 0.0, 0.0, 0.0, 1.6206558416208577E9, 2021-05-10 16:10:41.620
50.0, -95.49647521972656, 54.18367004394531, 228.63877868652344, -171.45945739746094, -0.1120000034570694, -0.03200000151991844, 1.055999994277954, 0.0, 0.0, 0.0, 0.0, 0.0, 1.6206558416368432E9, 2021-05-10 16:10:41.636
50.0, -100.82957458496094, 25.786609649658203, 223.73204040527344, -171.50059509277344, -0.1120000034570694, -0.03200000151991844, 1.055999994277954, 0.0, 0.0, 0.0, 0.0, 0.0, 1.6206558416368432E9, 2021-05-10 16:10:41.636
51.0, -98.40612030029297, 5.621069431304932, 204.0938262939453, -176.4409942626953, -0.1120000034570694, -0.01600000075995922, 1.055999994277954, 0.0, 0.0, 0.0, 0.0, 0.0, 1.6206558416514604E9, 2021-05-10 16:10:41.651
51.0, -90.57476806640625, 29.320816040039062, 221.12158203125, -146.45448303222656, -0.1120000034570694, -0.01600000075995922, 1.055999994277954, 0.0, 0.0, 0.0, 0.0, 0.0, 1.6206558416514604E9, 2021-05-10 16:10:41.651
52.0, -105.12297821044922, 36.0227165222168, 229.45408630371094, -157.76768493652344, -0.1120000034570694, -0.01600000075995922, 1.055999994277954, 0.0, 0.0, 0.0, 0.0, 0.0, 1.6206558416521711E9, 2021-05-10 16:10:41.652
52.0, -100.93802642822266, 42.17485046386719, 218.72804260253906, -164.46209716796875, -0.1120000034570694, -0.01600000075995922, 1.055999994277954, 0.0, 0.0, 0.0, 0.0, 0.0, 1.6206558416521711E9, 2021-05-10 16:10:41.652
53.0, -113.75466918945312, 13.837630271911621, 209.8457794189453, -165.0305633544922, -0.1120000034570694, -0.01600000075995922, 1.055999994277954, 0.0, 0.0, 0.0, 0.0, 0.0, 1.6206558416829095E9, 2021-05-10 16:10:41.682
53.0, -97.5309829711914, 19.78407096862793, 210.70596313476562, -153.8445281982422, -0.1120000034570694, -0.01600000075995922, 1.055999994277954, 0.0, 0.0, 0.0, 0.0, 0.0, 1.6206558416829095E9, 2021-05-10 16:10:41.682
54.0, -102.90522003173828, 24.0849552154541, 227.6065673828125, -150.54966735839844, -0.1120000034570694, -0.01600000075995922, 1.055999994277954, 0.0, 0.0, 0.0, 0.0, 0.0, 1.6206558416835787E9, 2021-05-10 16:10:41.683
54.0, -66.2392349243164, 40.106685638427734, 229.28204345703125, -154.9141387939453, -0.1120000034570694, -0.01600000075995922, 1.055999994277954, 0.0, 0.0, 0.0, 0.0, 0.0, 1.6206558416835787E9, 2021-05-10 16:10:41.683
55.0, -112.24748992919922, 14.910981178283691, 205.54116821289062, -178.61013793945312, -0.1120000034570694, -0.01600000075995922, 1.055999994277954, 0.0, 0.0, 0.0, 0.0, 0.0, 1.6206558416843708E9, 2021-05-10 16:10:41.684
55.0, -121.80293273925781, 32.301517486572266, 209.69993591308594, -177.78363037109375, -0.1120000034570694, -0.01600000075995922, 1.055999994277954, 0.0, 0.0, 0.0, 0.0, 0.0, 1.6206558416843708E9, 2021-05-10 16:10:41.684
56.0, -107.98773956298828, 45.15555191040039, 224.091064453125, -163.8637237548828, -0.1120000034570694, -0.01600000075995922, 1.055999994277954, 0.0, 0.0, 0.0, 0.0, 0.0, 1.6206558416850767E9, 2021-05-10 16:10:41.685
56.0, -101.49901580810547, 25.468719482421875, 230.97622680664062, -164.6490936279297, -0.1120000034570694, -0.01600000075995922, 1.055999994277954, 0.0, 0.0, 0.0, 0.0, 0.0, 1.6206558416850767E9, 2021-05-10 16:10:41.685
57.0, -105.70640563964844, 11.582469940185547, 210.49278259277344, -167.55873107910156, -0.1120000034570694, -0.01600000075995922, 1.055999994277954, 0.0, 0.0, 0.0, 0.0, 0.0, 1.620655841728501E9, 2021-05-10 16:10:41.728
57.0, -100.2012710571289, 22.102807998657227, 215.08538818359375, -179.03648376464844, -0.1120000034570694, -0.01600000075995922, 1.055999994277954, 0.0, 0.0, 0.0, 0.0, 0.0, 1.620655841728501E9, 2021-05-10 16:10:41.728
58.0, -104.01970672607422, 20.958398818969727, 223.4552764892578, -168.57225036621094, -0.1120000034570694, -0.01600000075995922, 1.055999994277954, 0.0, 0.0, 0.0, 0.0, 0.0, 1.6206558417291975E9, 2021-05-10 16:10:41.729
58.0, -104.91354370117188, 30.154813766479492, 227.6215362548828, -161.63099670410156, -0.1120000034570694, -0.01600000075995922, 1.055999994277954, 0.0, 0.0, 0.0, 0.0, 0.0, 1.6206558417291975E9, 2021-05-10 16:10:41.729
59.0, -113.6723861694336, -10.045371055603027, 198.33438110351562, -183.02322387695312, -0.1120000034570694, -0.01600000075995922, 1.055999994277954, 0.0, 0.0, 0.0, 0.0, 0.0, 1.62065584172994E9, 2021-05-10 16:10:41.729
59.0, -108.14107513427734, 20.37871551513672, 210.59750366210938, -170.18040466308594, -0.1120000034570694, -0.01600000075995922, 1.055999994277954, 0.0, 0.0, 0.0, 0.0, 0.0, 1.62065584172994E9, 2021-05-10 16:10:41.729
60.0, -73.50586700439453, 49.19090270996094, 235.39303588867188, -146.600341796875, -0.1120000034570694, -0.01600000075995922, 1.055999994277954, 0.0, 0.0, 0.0, 0.0, 0.0, 1.6206558417306943E9, 2021-05-10 16:10:41.730
60.0, -83.85042572021484, 9.413328170776367, 208.73129272460938, -182.69410705566406, -0.1120000034570694, -0.01600000075995922, 1.055999994277954, 0.0, 0.0, 0.0, 0.0, 0.0, 1.6206558417306943E9, 2021-05-10 16:10:41.730
61.0, -104.19922637939453, 25.064809799194336, 213.2902374267578, -163.43362426757812, -0.1120000034570694, -0.01600000075995922, 1.055999994277954, 0.0, 0.0, 0.0, 0.0, 0.0, 1.6206558417407732E9, 2021-05-10 16:10:41.740
61.0, -86.991943359375, 38.117061614990234, 215.72117614746094, -169.2267303466797, -0.1120000034570694, -0.01600000075995922, 1.055999994277954, 0.0, 0.0, 0.0, 0.0, 0.0, 1.6206558417407732E9, 2021-05-10 16:10:41.740
62.0, -106.89195251464844, 27.869733810424805, 233.14910888671875, -161.8179931640625, -0.12800000607967377, -0.01600000075995922, 1.055999994277954, 0.0, 0.0, 0.0, 0.0, 0.0, 1.62065584175649E9, 2021-05-10 16:10:41.756
62.0, -101.82438659667969, 24.219593048095703, 228.59390258789062, -160.86058044433594, -0.12800000607967377, -0.01600000075995922, 1.055999994277954, 0.0, 0.0, 0.0, 0.0, 0.0, 1.62065584175649E9, 2021-05-10 16:10:41.756
63.0, -106.59275817871094, 27.106794357299805, 213.96340942382812, -170.76382446289062, -0.12800000607967377, -0.01600000075995922, 1.055999994277954, 0.0, 0.0, 0.0, 0.0, 0.0, 1.6206558417572017E9, 2021-05-10 16:10:41.757
63.0, -110.78892517089844, 23.793243408203125, 206.7080078125, -171.9942626953125, -0.12800000607967377, -0.01600000075995922, 1.055999994277954, 0.0, 0.0, 0.0, 0.0, 0.0, 1.6206558417572017E9, 2021-05-10 16:10:41.757
64.0, -84.34783172607422, 37.9525032043457, 235.5875244140625, -160.5875701904297, -0.12800000607967377, -0.01600000075995922, 1.055999994277954, 0.0, 0.0, 0.0, 0.0, 0.0, 1.6206558417871573E9, 2021-05-10 16:10:41.787
64.0, -106.25616455078125, 24.36170768737793, 216.18118286132812, -176.47091674804688, -0.12800000607967377, -0.01600000075995922, 1.055999994277954, 0.0, 0.0, 0.0, 0.0, 0.0, 1.6206558417871573E9, 2021-05-10 16:10:41.787
65.0, -110.74031066894531, 37.22696304321289, 208.91455078125, -173.07508850097656, -0.12800000607967377, -0.01600000075995922, 1.055999994277954, 0.0, 0.0, 0.0, 0.0, 0.0, 1.620655841787953E9, 2021-05-10 16:10:41.787
65.0, -110.06338500976562, 28.344701766967773, 205.29058837890625, -172.6375274658203, -0.12800000607967377, -0.01600000075995922, 1.055999994277954, 0.0, 0.0, 0.0, 0.0, 0.0, 1.620655841787953E9, 2021-05-10 16:10:41.787
66.0, -104.48345184326172, 55.814266204833984, 221.43199157714844, -156.53724670410156, -0.12800000607967377, -0.01600000075995922, 1.055999994277954, 0.0, 0.0, 0.0, 0.0, 0.0, 1.620655841788638E9, 2021-05-10 16:10:41.788
66.0, -82.30210876464844, 39.160491943359375, 222.4268035888672, -164.1853485107422, -0.12800000607967377, -0.01600000075995922, 1.055999994277954, 0.0, 0.0, 0.0, 0.0, 0.0, 1.620655841788638E9, 2021-05-10 16:10:41.788
67.0, -106.07291412353516, 39.257728576660156, 204.2509002685547, -169.488525390625, -0.12800000607967377, -0.01600000075995922, 1.055999994277954, 0.0, 0.0, 0.0, 0.0, 0.0, 1.6206558418007295E9, 2021-05-10 16:10:41.800
67.0, -87.26495361328125, 42.82559585571289, 202.39590454101562, -169.2753448486328, -0.12800000607967377, -0.01600000075995922, 1.055999994277954, 0.0, 0.0, 0.0, 0.0, 0.0, 1.6206558418007295E9, 2021-05-10 16:10:41.800
68.0, -117.52074432373047, 61.20720291137695, 229.09130859375, -161.002685546875, -0.12800000607967377, -0.01600000075995922, 1.055999994277954, 0.0, 0.0, 0.0, 0.0, 0.0, 1.6206558418335524E9, 2021-05-10 16:10:41.833
68.0, -94.66621398925781, 34.582855224609375, 221.7050018310547, -161.89279174804688, -0.12800000607967377, -0.01600000075995922, 1.055999994277954, 0.0, 0.0, 0.0, 0.0, 0.0, 1.6206558418335524E9, 2021-05-10 16:10:41.833
69.0, -104.95841979980469, 35.6001091003418, 197.10020446777344, -179.5338897705078, -0.12800000607967377, -0.01600000075995922, 1.055999994277954, 0.0, 0.0, 0.0, 0.0, 0.0, 1.6206558418342187E9, 2021-05-10 16:10:41.834
69.0, -123.89727783203125, 27.39850616455078, 201.8311767578125, -174.3616180419922, -0.12800000607967377, -0.01600000075995922, 1.055999994277954, 0.0, 0.0, 0.0, 0.0, 0.0, 1.6206558418342187E9, 2021-05-10 16:10:41.834
70.0, -81.12777709960938, 37.585994720458984, 233.9232635498047, -141.35325622558594, -0.12800000607967377, -0.01600000075995922, 1.055999994277954, 0.0, 0.0, 0.0, 0.0, 0.0, 1.620655841834966E9, 2021-05-10 16:10:41.834
70.0, -111.44340515136719, 61.57745361328125, 223.19723510742188, -183.08680725097656, -0.12800000607967377, -0.01600000075995922, 1.055999994277954, 0.0, 0.0, 0.0, 0.0, 0.0, 1.620655841834966E9, 2021-05-10 16:10:41.834
71.0, -131.3396759033203, 46.29622268676758, 196.29238891601562, -196.6289825439453, -0.12800000607967377, -0.03200000151991844, 1.055999994277954, 0.0, 0.0, 0.0, 0.0, 0.0, 1.6206558418357322E9, 2021-05-10 16:10:41.835
71.0, -111.73138427734375, 56.27427291870117, 207.71029663085938, -178.91680908203125, -0.12800000607967377, -0.03200000151991844, 1.055999994277954, 0.0, 0.0, 0.0, 0.0, 0.0, 1.6206558418357322E9, 2021-05-10 16:10:41.835
72.0, -103.54473876953125, 51.87989044189453, 215.88198852539062, -178.5615234375, -0.1120000034570694, -0.03200000151991844, 1.055999994277954, 0.0, 0.0, 0.0, 0.0, 0.0, 1.620655841845788E9, 2021-05-10 16:10:41.845
72.0, -87.83341979980469, 65.35848999023438, 233.5492706298828, -160.3706512451172, -0.1120000034570694, -0.03200000151991844, 1.055999994277954, 0.0, 0.0, 0.0, 0.0, 0.0, 1.620655841845788E9, 2021-05-10 16:10:41.845
73.0, -98.80628967285156, 45.428565979003906, 209.76724243164062, -169.97845458984375, -0.1120000034570694, -0.03200000151991844, 1.055999994277954, 0.0, 0.0, 0.0, 0.0, 0.0, 1.6206558418608968E9, 2021-05-10 16:10:41.860
73.0, -101.27462005615234, 23.856821060180664, 206.60704040527344, -167.3343505859375, -0.1120000034570694, -0.03200000151991844, 1.055999994277954, 0.0, 0.0, 0.0, 0.0, 0.0, 1.6206558418608968E9, 2021-05-10 16:10:41.860
74.0, -91.0871353149414, 53.042999267578125, 228.90057373046875, -153.23118591308594, -0.1120000034570694, -0.03200000151991844, 1.055999994277954, 0.0, 0.0, 0.0, 0.0, 0.0, 1.6206558418764951E9, 2021-05-10 16:10:41.876
74.0, -79.91979217529297, 31.987363815307617, 225.4561309814453, -155.68455505371094, -0.1120000034570694, -0.03200000151991844, 1.055999994277954, 0.0, 0.0, 0.0, 0.0, 0.0, 1.6206558418764951E9, 2021-05-10 16:10:41.876
75.0, -133.22084045410156, 42.58250045776367, 207.90103149414062, -178.54283142089844, -0.1120000034570694, -0.03200000151991844, 1.055999994277954, 0.0, 0.0, 0.0, 0.0, 0.0, 1.620655841877242E9, 2021-05-10 16:10:41.877
75.0, -104.84248352050781, 41.15385818481445, 212.87510681152344, -170.87977600097656, -0.1120000034570694, -0.03200000151991844, 1.055999994277954, 0.0, 0.0, 0.0, 0.0, 0.0, 1.620655841877242E9, 2021-05-10 16:10:41.877
76.0, -104.31141662597656, 44.91993713378906, 226.57809448242188, -154.68226623535156, -0.1120000034570694, -0.03200000151991844, 1.055999994277954, 0.0, 0.0, 0.0, 0.0, 0.0, 1.6206558418909411E9, 2021-05-10 16:10:41.890
76.0, -96.70072174072266, 45.26026916503906, 223.25332641601562, -172.64500427246094, -0.1120000034570694, -0.03200000151991844, 1.055999994277954, 0.0, 0.0, 0.0, 0.0, 0.0, 1.6206558418909411E9, 2021-05-10 16:10:41.890
77.0, -100.75477600097656, 43.027549743652344, 215.43319702148438, -167.89158630371094, -0.1120000034570694, -0.03200000151991844, 1.055999994277954, 0.0, 0.0, 0.0, 0.0, 0.0, 1.6206558419064841E9, 2021-05-10 16:10:41.906
77.0, -105.73632049560547, 48.513980865478516, 223.915283203125, -160.66610717773438, -0.1120000034570694, -0.03200000151991844, 1.055999994277954, 0.0, 0.0, 0.0, 0.0, 0.0, 1.6206558419064841E9, 2021-05-10 16:10:41.906
78.0, -95.6647720336914, 51.1693115234375, 239.9071044921875, -150.4561767578125, -0.1120000034570694, -0.03200000151991844, 1.055999994277954, 0.0, 0.0, 0.0, 0.0, 0.0, 1.6206558419071815E9, 2021-05-10 16:10:41.907
78.0, -104.73028564453125, 42.14867401123047, 214.0494384765625, -169.34266662597656, -0.1120000034570694, -0.03200000151991844, 1.055999994277954, 0.0, 0.0, 0.0, 0.0, 0.0, 1.6206558419071815E9, 2021-05-10 16:10:41.907
79.0, -88.1139144897461, 33.55064392089844, 208.7462615966797, -176.97579956054688, -0.1120000034570694, -0.03200000151991844, 1.055999994277954, 0.0, 0.0, 0.0, 0.0, 0.0, 1.6206558419207973E9, 2021-05-10 16:10:41.920
79.0, -115.4151840209961, 38.55836868286133, 211.74191284179688, -173.99510192871094, -0.1120000034570694, -0.03200000151991844, 1.055999994277954, 0.0, 0.0, 0.0, 0.0, 0.0, 1.6206558419207973E9, 2021-05-10 16:10:41.920
80.0, -88.69359588623047, 43.266902923583984, 233.43333435058594, -150.94984436035156, -0.1120000034570694, -0.03200000151991844, 1.040000081062317, 0.0, 0.0, 0.0, 0.0, 0.0, 1.6206558419371016E9, 2021-05-10 16:10:41.937
80.0, -91.25543212890625, 41.26979446411133, 226.7576141357422, -157.56198120117188, -0.1120000034570694, -0.03200000151991844, 1.040000081062317, 0.0, 0.0, 0.0, 0.0, 0.0, 1.6206558419371016E9, 2021-05-10 16:10:41.937
81.0, -119.1700439453125, 23.340715408325195, 194.89366149902344, -172.55149841308594, -0.1120000034570694, -0.03200000151991844, 1.040000081062317, 0.0, 0.0, 0.0, 0.0, 0.0, 1.620655841937827E9, 2021-05-10 16:10:41.937
81.0, -117.35619354248047, 34.41082000732422, 211.46142578125, -156.36148071289062, -0.1120000034570694, -0.03200000151991844, 1.040000081062317, 0.0, 0.0, 0.0, 0.0, 0.0, 1.620655841937827E9, 2021-05-10 16:10:41.937
82.0, -105.31745147705078, 52.41843795776367, 217.8267364501953, -146.99676513671875, -0.1120000034570694, -0.03200000151991844, 1.040000081062317, 0.0, 0.0, 0.0, 0.0, 0.0, 1.6206558419509075E9, 2021-05-10 16:10:41.950
82.0, -101.92162322998047, 32.668025970458984, 217.4415283203125, -151.5557098388672, -0.1120000034570694, -0.03200000151991844, 1.040000081062317, 0.0, 0.0, 0.0, 0.0, 0.0, 1.6206558419509075E9, 2021-05-10 16:10:41.950
83.0, -125.6325912475586, 30.094974517822266, 196.89825439453125, -161.07748413085938, -0.1120000034570694, -0.03200000151991844, 1.040000081062317, 0.0, 0.0, 0.0, 0.0, 0.0, 1.6206558419666178E9, 2021-05-10 16:10:41.966
83.0, -112.49806213378906, 23.40803337097168, 201.43849182128906, -164.1030731201172, -0.1120000034570694, -0.03200000151991844, 1.040000081062317, 0.0, 0.0, 0.0, 0.0, 0.0, 1.6206558419666178E9, 2021-05-10 16:10:41.966
84.0, -93.70506286621094, 56.876399993896484, 217.8267364501953, -145.7887725830078, -0.1120000034570694, -0.03200000151991844, 1.040000081062317, 0.0, 0.0, 0.0, 0.0, 0.0, 1.6206558419672208E9, 2021-05-10 16:10:41.967
84.0, -83.34928131103516, 31.299222946166992, 217.16851806640625, -161.12237548828125, -0.1120000034570694, -0.03200000151991844, 1.040000081062317, 0.0, 0.0, 0.0, 0.0, 0.0, 1.6206558419672208E9, 2021-05-10 16:10:41.967
85.0, -110.69542694091797, 29.934158325195312, 207.41485595703125, -146.79855346679688, -0.1120000034570694, -0.03200000151991844, 1.040000081062317, 0.0, 0.0, 0.0, 0.0, 0.0, 1.6206558419973223E9, 2021-05-10 16:10:41.997
85.0, -116.76902770996094, 38.59202575683594, 208.12542724609375, -157.457275390625, -0.1120000034570694, -0.03200000151991844, 1.040000081062317, 0.0, 0.0, 0.0, 0.0, 0.0, 1.6206558419973223E9, 2021-05-10 16:10:41.997
86.0, -104.49467468261719, 56.981117248535156, 226.1704559326172, -160.509033203125, -0.1120000034570694, -0.03200000151991844, 1.040000081062317, 0.0, 0.0, 0.0, 0.0, 0.0, 1.6206558419980426E9, 2021-05-10 16:10:41.998
86.0, -105.65030670166016, 39.05203628540039, 224.31546020507812, -157.81629943847656, -0.1120000034570694, -0.03200000151991844, 1.040000081062317, 0.0, 0.0, 0.0, 0.0, 0.0, 1.6206558419980426E9, 2021-05-10 16:10:41.998
87.0, -110.21672058105469, 27.574281692504883, 202.893310546875, -187.15206909179688, -0.1120000034570694, -0.03200000151991844, 1.040000081062317, 0.0, 0.0, 0.0, 0.0, 0.0, 1.620655841998666E9, 2021-05-10 16:10:41.998
87.0, -81.6102294921875, 39.8374137878418, 219.6106719970703, -163.65428161621094, -0.1120000034570694, -0.03200000151991844, 1.040000081062317, 0.0, 0.0, 0.0, 0.0, 0.0, 1.620655841998666E9, 2021-05-10 16:10:41.998
88.0, -120.95771789550781, 53.98545455932617, 237.81275939941406, -155.58731079101562, -0.1120000034570694, -0.03200000151991844, 1.040000081062317, 0.0, 0.0, 0.0, 0.0, 0.0, 1.6206558420109189E9, 2021-05-10 16:10:42.010
88.0, -103.09595489501953, 16.216205596923828, 227.2662353515625, -166.18618774414062, -0.1120000034570694, -0.03200000151991844, 1.040000081062317, 0.0, 0.0, 0.0, 0.0, 0.0, 1.6206558420109189E9, 2021-05-10 16:10:42.010
89.0, -103.86637115478516, 1.765232801437378, 217.3592529296875, -159.72364807128906, -0.1120000034570694, -0.03200000151991844, 1.040000081062317, 0.0, 0.0, 0.0, 0.0, 0.0, 1.6206558420265064E9, 2021-05-10 16:10:42.026
89.0, -97.89749145507812, 46.5617561340332, 225.7852325439453, -138.82135009765625, -0.1120000034570694, -0.03200000151991844, 1.040000081062317, 0.0, 0.0, 0.0, 0.0, 0.0, 1.6206558420265064E9, 2021-05-10 16:10:42.026
90.0, -102.23577880859375, 44.022361755371094, 220.80743408203125, -148.17483520507812, -0.1120000034570694, -0.03200000151991844, 1.055999994277954, 0.0, 0.0, 0.0, 0.0, 0.0, 1.6206558420272093E9, 2021-05-10 16:10:42.027
90.0, -90.79541778564453, 37.23444366455078, 222.45298767089844, -145.35121154785156, -0.1120000034570694, -0.03200000151991844, 1.055999994277954, 0.0, 0.0, 0.0, 0.0, 0.0, 1.6206558420272093E9, 2021-05-10 16:10:42.027
91.0, -95.3618392944336, 16.941747665405273, 206.09466552734375, -151.6865997314453, -0.1120000034570694, -0.03200000151991844, 1.055999994277954, 0.0, 0.0, 0.0, 0.0, 0.0, 1.6206558420571785E9, 2021-05-10 16:10:42.057
91.0, -116.7054443359375, 14.667887687683105, 210.4366912841797, -151.5444793701172, -0.1120000034570694, -0.03200000151991844, 1.055999994277954, 0.0, 0.0, 0.0, 0.0, 0.0, 1.6206558420571785E9, 2021-05-10 16:10:42.057
92.0, -87.02934265136719, 60.84443283081055, 237.46868896484375, -126.928466796875, -0.1120000034570694, -0.03200000151991844, 1.055999994277954, 0.0, 0.0, 0.0, 0.0, 0.0, 1.6206558420578537E9, 2021-05-10 16:10:42.057
92.0, -97.71049499511719, 35.31587600708008, 220.18661499023438, -154.74583435058594, -0.1120000034570694, -0.03200000151991844, 1.055999994277954, 0.0, 0.0, 0.0, 0.0, 0.0, 1.6206558420578537E9, 2021-05-10 16:10:42.057
93.0, -112.25870513916016, 30.061315536499023, 200.61944580078125, -170.24024963378906, -0.1120000034570694, -0.03200000151991844, 1.055999994277954, 0.0, 0.0, 0.0, 0.0, 0.0, 1.6206558420587685E9, 2021-05-10 16:10:42.058
93.0, -108.18595886230469, 47.69120407104492, 202.23883056640625, -159.828369140625, -0.1120000034570694, -0.03200000151991844, 1.055999994277954, 0.0, 0.0, 0.0, 0.0, 0.0, 1.6206558420587685E9, 2021-05-10 16:10:42.058
94.0, -111.3424301147461, 34.31358337402344, 216.7458953857422, -170.77879333496094, -0.1120000034570694, -0.03200000151991844, 1.055999994277954, 0.0, 0.0, 0.0, 0.0, 0.0, 1.6206558420708303E9, 2021-05-10 16:10:42.070
94.0, -82.67984008789062, 50.7467041015625, 232.25900268554688, -152.3186492919922, -0.1120000034570694, -0.03200000151991844, 1.055999994277954, 0.0, 0.0, 0.0, 0.0, 0.0, 1.6206558420708303E9, 2021-05-10 16:10:42.070
95.0, -111.97447204589844, 31.546056747436523, 206.0011749267578, -169.38006591796875, -0.1120000034570694, -0.03200000151991844, 1.055999994277954, 0.0, 0.0, 0.0, 0.0, 0.0, 1.6206558420865018E9, 2021-05-10 16:10:42.086
95.0, -114.19597625732422, 33.827396392822266, 206.22181701660156, -160.08267211914062, -0.1120000034570694, -0.03200000151991844, 1.055999994277954, 0.0, 0.0, 0.0, 0.0, 0.0, 1.6206558420865018E9, 2021-05-10 16:10:42.086
96.0, -76.78201293945312, 46.69639205932617, 225.80020141601562, -144.40875244140625, -0.1120000034570694, -0.03200000151991844, 1.055999994277954, 0.0, 0.0, 0.0, 0.0, 0.0, 1.6206558420872123E9, 2021-05-10 16:10:42.087
96.0, -103.54473876953125, 65.62028503417969, 237.62576293945312, -140.50804138183594, -0.1120000034570694, -0.03200000151991844, 1.055999994277954, 0.0, 0.0, 0.0, 0.0, 0.0, 1.6206558420872123E9, 2021-05-10 16:10:42.087
97.0, -117.90595245361328, 38.09461975097656, 209.09033203125, -165.24374389648438, -0.1120000034570694, -0.03200000151991844, 1.055999994277954, 0.0, 0.0, 0.0, 0.0, 0.0, 1.6206558421008816E9, 2021-05-10 16:10:42.100
97.0, -112.12033081054688, 45.4771842956543, 224.28927612304688, -154.2147674560547, -0.1120000034570694, -0.03200000151991844, 1.055999994277954, 0.0, 0.0, 0.0, 0.0, 0.0, 1.6206558421008816E9, 2021-05-10 16:10:42.100
98.0, -97.28788757324219, 55.058807373046875, 240.6326446533203, -144.6443634033203, -0.1120000034570694, -0.03200000151991844, 1.055999994277954, 0.0, 0.0, 0.0, 0.0, 0.0, 1.6206558421314032E9, 2021-05-10 16:10:42.131
98.0, -104.00100708007812, 41.699886322021484, 237.23681640625, -155.76309204101562, -0.1120000034570694, -0.03200000151991844, 1.055999994277954, 0.0, 0.0, 0.0, 0.0, 0.0, 1.6206558421314032E9, 2021-05-10 16:10:42.131
99.0, -113.76214599609375, 40.016929626464844, 204.65853881835938, -170.92091369628906, -0.1120000034570694, -0.03200000151991844, 1.055999994277954, 0.0, 0.0, 0.0, 0.0, 0.0, 1.620655842148641E9, 2021-05-10 16:10:42.148
99.0, -99.16157531738281, 58.641632080078125, 221.23004150390625, -148.69468688964844, -0.1120000034570694, -0.03200000151991844, 1.055999994277954, 0.0, 0.0, 0.0, 0.0, 0.0, 1.620655842148641E9, 2021-05-10 16:10:42.148
100.0, -98.6753921508789, 57.871212005615234, 242.91024780273438, -142.33685302734375, -0.1120000034570694, -0.03200000151991844, 1.040000081062317, 0.0, 0.0, 0.0, 0.0, 0.0, 1.620655842149414E9, 2021-05-10 16:10:42.149
100.0, -100.27606964111328, 52.08558654785156, 215.01058959960938, -170.2477264404297, -0.1120000034570694, -0.03200000151991844, 1.040000081062317, 0.0, 0.0, 0.0, 0.0, 0.0, 1.620655842149414E9, 2021-05-10 16:10:42.149
0.0, -124.04312896728516, 25.57904624938965, 191.88677978515625, -181.12335205078125, -0.1120000034570694, -0.03200000151991844, 1.040000081062317, 0.0, 0.0, 0.0, 0.0, 0.0, 1.6206558421500964E9, 2021-05-10 16:10:42.150
1.0, -110.84502410888672, 45.94654083251953, 207.66542053222656, -152.59913635253906, -0.1120000034570694, -0.03200000151991844, 1.040000081062317, 0.0, 0.0, 0.0, 0.0, 0.0, 1.6206558421507657E9, 2021-05-10 16:10:42.150
1.0, -107.73342895507812, 62.88828659057617, 211.01637268066406, -175.79774475097656, -0.1120000034570694, -0.03200000151991844, 1.040000081062317, 0.0, 0.0, 0.0, 0.0, 0.0, 1.6206558421507657E9, 2021-05-10 16:10:42.150
2.0, -100.89688873291016, 45.19108200073242, 209.41943359375, -169.9896697998047, -0.1120000034570694, -0.03200000151991844, 1.040000081062317, 0.0, 0.0, 0.0, 0.0, 0.0, 1.6206558421941593E9, 2021-05-10 16:10:42.194
2.0, -127.15098571777344, 41.50727844238281, 190.2225341796875, -170.1317901611328, -0.1120000034570694, -0.03200000151991844, 1.040000081062317, 0.0, 0.0, 0.0, 0.0, 0.0, 1.6206558421941593E9, 2021-05-10 16:10:42.194
3.0, -121.32048797607422, 61.59428405761719, 196.55044555664062, -169.35389709472656, -0.1120000034570694, -0.03200000151991844, 1.040000081062317, 0.0, 0.0, 0.0, 0.0, 0.0, 1.6206558421949496E9, 2021-05-10 16:10:42.194
3.0, -104.93598175048828, 70.02401733398438, 225.54214477539062, -153.81834411621094, -0.1120000034570694, -0.03200000151991844, 1.040000081062317, 0.0, 0.0, 0.0, 0.0, 0.0, 1.6206558421949496E9, 2021-05-10 16:10:42.194
4.0, -98.74644470214844, 57.33827590942383, 219.14691162109375, -162.10971069335938, -0.1120000034570694, -0.03200000151991844, 1.040000081062317, 0.0, 0.0, 0.0, 0.0, 0.0, 1.6206558421956718E9, 2021-05-10 16:10:42.195
4.0, -107.0452880859375, 49.76871871948242, 213.59317016601562, -166.51904296875, -0.1120000034570694, -0.03200000151991844, 1.040000081062317, 0.0, 0.0, 0.0, 0.0, 0.0, 1.6206558421956718E9, 2021-05-10 16:10:42.195
5.0, -116.78024291992188, 41.1108512878418, 212.40013122558594, -168.11224365234375, -0.1120000034570694, -0.03200000151991844, 1.040000081062317, 0.0, 0.0, 0.0, 0.0, 0.0, 1.6206558421964016E9, 2021-05-10 16:10:42.196
5.0, -94.85694885253906, 68.71878814697266, 239.88092041015625, -151.97084045410156, -0.1120000034570694, -0.03200000151991844, 1.040000081062317, 0.0, 0.0, 0.0, 0.0, 0.0, 1.6206558421964016E9, 2021-05-10 16:10:42.196
6.0, -113.45547485351562, 65.00132751464844, 235.33694458007812, -160.18365478515625, -0.1120000034570694, -0.03200000151991844, 1.040000081062317, 0.0, 0.0, 0.0, 0.0, 0.0, 1.6206558422064686E9, 2021-05-10 16:10:42.206
6.0, -114.5325698852539, 50.748573303222656, 214.935791015625, -171.86709594726562, -0.1120000034570694, -0.03200000151991844, 1.040000081062317, 0.0, 0.0, 0.0, 0.0, 0.0, 1.6206558422064686E9, 2021-05-10 16:10:42.206
7.0, -84.47872924804688, 48.295196533203125, 216.27093505859375, -169.17063903808594, -0.1120000034570694, -0.03200000151991844, 1.040000081062317, 0.0, 0.0, 0.0, 0.0, 0.0, 1.620655842207162E9, 2021-05-10 16:10:42.207
7.0, -110.24290466308594, 58.377967834472656, 227.41957092285156, -155.99496459960938, -0.1120000034570694, -0.03200000151991844, 1.040000081062317, 0.0, 0.0, 0.0, 0.0, 0.0, 1.620655842207162E9, 2021-05-10 16:10:42.207
8.0, -106.90316772460938, 63.79708480834961, 225.71792602539062, -169.51097106933594, -0.1120000034570694, -0.03200000151991844, 1.040000081062317, 0.0, 0.0, 0.0, 0.0, 0.0, 1.6206558422215252E9, 2021-05-10 16:10:42.221
8.0, -110.90486145019531, 57.37941360473633, 212.5198211669922, -153.9754180908203, -0.1120000034570694, -0.03200000151991844, 1.040000081062317, 0.0, 0.0, 0.0, 0.0, 0.0, 1.6206558422215252E9, 2021-05-10 16:10:42.221
9.0, -114.5737075805664, 39.03520584106445, 199.10479736328125, -175.40878295898438, -0.1120000034570694, -0.03200000151991844, 1.040000081062317, 0.0, 0.0, 0.0, 0.0, 0.0, 1.6206558422221591E9, 2021-05-10 16:10:42.222
9.0, -93.29367065429688, 64.2458724975586, 214.31497192382812, -162.12466430664062, -0.1120000034570694, -0.03200000151991844, 1.040000081062317, 0.0, 0.0, 0.0, 0.0, 0.0, 1.6206558422221591E9, 2021-05-10 16:10:42.222
10.0, -107.55765533447266, 48.22787857055664, 219.98464965820312, -156.3016357421875, -0.1120000034570694, -0.03200000151991844, 1.040000081062317, 0.0, 0.0, 0.0, 0.0, 0.0, 1.6206558422522693E9, 2021-05-10 16:10:42.252
10.0, -124.20768737792969, 41.484840393066406, 203.55902099609375, -168.5498046875, -0.1120000034570694, -0.03200000151991844, 1.040000081062317, 0.0, 0.0, 0.0, 0.0, 0.0, 1.6206558422522693E9, 2021-05-10 16:10:42.252
11.0, -118.0443344116211, 58.30316925048828, 196.72247314453125, -171.16026306152344, -0.1120000034570694, -0.03200000151991844, 1.040000081062317, 0.0, 0.0, 0.0, 0.0, 0.0, 1.6206558422529447E9, 2021-05-10 16:10:42.252
11.0, -107.09390258789062, 46.17841339111328, 210.42547607421875, -171.11538696289062, -0.1120000034570694, -0.03200000151991844, 1.040000081062317, 0.0, 0.0, 0.0, 0.0, 0.0, 1.6206558422529447E9, 2021-05-10 16:10:42.252
12.0, -104.15434265136719, 63.254798889160156, 222.400634765625, -158.6278533935547, -0.1120000034570694, -0.03200000151991844, 1.040000081062317, 0.0, 0.0, 0.0, 0.0, 0.0, 1.6206558422536712E9, 2021-05-10 16:10:42.253
12.0, -122.71546936035156, 68.7823715209961, 207.57192993164062, -163.61314392089844, -0.1120000034570694, -0.03200000151991844, 1.040000081062317, 0.0, 0.0, 0.0, 0.0, 0.0, 1.6206558422536712E9, 2021-05-10 16:10:42.253
13.0, -107.67359161376953, 67.75016021728516, 212.67315673828125, -160.65113830566406, -0.1120000034570694, -0.03200000151991844, 1.040000081062317, 0.0, 0.0, 0.0, 0.0, 0.0, 1.6206558422657073E9, 2021-05-10 16:10:42.265
13.0, -109.10971069335938, 58.55374526977539, 210.96775817871094, -183.3598175048828, -0.1120000034570694, -0.03200000151991844, 1.040000081062317, 0.0, 0.0, 0.0, 0.0, 0.0, 1.6206558422657073E9, 2021-05-10 16:10:42.265
14.0, -71.78176879882812, 39.49895477294922, 218.6158447265625, -182.2079315185547, -0.1120000034570694, -0.03200000151991844, 1.040000081062317, 0.0, 0.0, 0.0, 0.0, 0.0, 1.6206558422815523E9, 2021-05-10 16:10:42.281
14.0, -128.62451171875, 54.21171951293945, 205.3092803955078, -173.17233276367188, -0.1120000034570694, -0.03200000151991844, 1.040000081062317, 0.0, 0.0, 0.0, 0.0, 0.0, 1.6206558422815523E9, 2021-05-10 16:10:42.281
15.0, -111.09185791015625, 51.545169830322266, 213.43609619140625, -170.06446838378906, -0.1120000034570694, -0.03200000151991844, 1.040000081062317, 0.0, 0.0, 0.0, 0.0, 0.0, 1.6206558422822468E9, 2021-05-10 16:10:42.282
15.0, -100.01427459716797, 52.62974166870117, 221.69752502441406, -179.324462890625, -0.1120000034570694, -0.03200000151991844, 1.040000081062317, 0.0, 0.0, 0.0, 0.0, 0.0, 1.6206558422822468E9, 2021-05-10 16:10:42.282
16.0, -101.53641510009766, 58.21341323852539, 228.8295135498047, -162.1134490966797, -0.1120000034570694, -0.03200000151991844, 1.040000081062317, 0.0, 0.0, 0.0, 0.0, 0.0, 1.6206558422957592E9, 2021-05-10 16:10:42.295
16.0, -111.5593490600586, 44.630096435546875, 215.89320373535156, -159.8321075439453, -0.1120000034570694, -0.03200000151991844, 1.040000081062317, 0.0, 0.0, 0.0, 0.0, 0.0, 1.6206558422957592E9, 2021-05-10 16:10:42.295
17.0, -122.49481201171875, 50.41572189331055, 203.1887664794922, -178.5989227294922, -0.1120000034570694, -0.03200000151991844, 1.040000081062317, 0.0, 0.0, 0.0, 0.0, 0.0, 1.620655842311543E9, 2021-05-10 16:10:42.311
17.0, -98.80254364013672, 58.58740234375, 214.53561401367188, -161.79554748535156, -0.1120000034570694, -0.03200000151991844, 1.040000081062317, 0.0, 0.0, 0.0, 0.0, 0.0, 1.620655842311543E9, 2021-05-10 16:10:42.311
18.0, -107.64740753173828, 50.9879264831543, 213.12567138671875, -166.9977569580078, -0.1120000034570694, -0.03200000151991844, 1.040000081062317, 0.0, 0.0, 0.0, 0.0, 0.0, 1.6206558423122706E9, 2021-05-10 16:10:42.312
18.0, -114.40167236328125, 36.798744201660156, 200.6082305908203, -158.86346435546875, -0.1120000034570694, -0.03200000151991844, 1.040000081062317, 0.0, 0.0, 0.0, 0.0, 0.0, 1.6206558423122706E9, 2021-05-10 16:10:42.312
19.0, -108.34303283691406, 29.988388061523438, 200.66807556152344, -165.83837890625, -0.1120000034570694, -0.03200000151991844, 1.040000081062317, 0.0, 0.0, 0.0, 0.0, 0.0, 1.6206558423258817E9, 2021-05-10 16:10:42.325
19.0, -111.77999877929688, 49.98189163208008, 216.4654083251953, -157.3675079345703, -0.1120000034570694, -0.03200000151991844, 1.040000081062317, 0.0, 0.0, 0.0, 0.0, 0.0, 1.6206558423258817E9, 2021-05-10 16:10:42.325
20.0, -114.76444244384766, 28.039899826049805, 208.76121520996094, -163.44859313964844, -0.1120000034570694, -0.03200000151991844, 1.040000081062317, 0.0, 0.0, 0.0, 0.0, 0.0, 1.6206558423415742E9, 2021-05-10 16:10:42.341
20.0, -78.28545379638672, 26.10637092590332, 208.24510192871094, -162.65199279785156, -0.1120000034570694, -0.03200000151991844, 1.040000081062317, 0.0, 0.0, 0.0, 0.0, 0.0, 1.6206558423415742E9, 2021-05-10 16:10:42.341
21.0, -115.34786224365234, 46.31304931640625, 204.39300537109375, -154.68600463867188, -0.1120000034570694, -0.03200000151991844, 1.040000081062317, 0.0, 0.0, 0.0, 0.0, 0.0, 1.6206558423422248E9, 2021-05-10 16:10:42.342
21.0, -110.30274200439453, 52.61104202270508, 219.31521606445312, -159.76852416992188, -0.1120000034570694, -0.03200000151991844, 1.040000081062317, 0.0, 0.0, 0.0, 0.0, 0.0, 1.6206558423422248E9, 2021-05-10 16:10:42.342
22.0, -112.15773010253906, 58.00771713256836, 220.71018981933594, -165.8944854736328, -0.1120000034570694, -0.03200000151991844, 1.040000081062317, 0.0, 0.0, 0.0, 0.0, 0.0, 1.6206558423557825E9, 2021-05-10 16:10:42.355
22.0, -132.35693359375, 21.872804641723633, 175.767822265625, -190.21131896972656, -0.1120000034570694, -0.03200000151991844, 1.040000081062317, 0.0, 0.0, 0.0, 0.0, 0.0, 1.6206558423557825E9, 2021-05-10 16:10:42.355
23.0, -118.27994537353516, 55.1840934753418, 189.1192626953125, -171.3173370361328, -0.1120000034570694, -0.03200000151991844, 1.040000081062317, 0.0, 0.0, 0.0, 0.0, 0.0, 1.620655842371456E9, 2021-05-10 16:10:42.371
23.0, -101.87674713134766, 55.1242561340332, 218.3316192626953, -165.90196228027344, -0.1120000034570694, -0.03200000151991844, 1.040000081062317, 0.0, 0.0, 0.0, 0.0, 0.0, 1.620655842371456E9, 2021-05-10 16:10:42.371
24.0, -97.82643127441406, 45.88670349121094, 207.75518798828125, -178.54656982421875, -0.1120000034570694, -0.03200000151991844, 1.040000081062317, 0.0, 0.0, 0.0, 0.0, 0.0, 1.6206558423722775E9, 2021-05-10 16:10:42.372
24.0, -129.0097198486328, 28.817798614501953, 191.90174865722656, -180.36041259765625, -0.1120000034570694, -0.03200000151991844, 1.040000081062317, 0.0, 0.0, 0.0, 0.0, 0.0, 1.6206558423722775E9, 2021-05-10 16:10:42.372
25.0, -101.29331970214844, 62.17770767211914, 217.24330139160156, -149.28558349609375, -0.1120000034570694, -0.03200000151991844, 1.040000081062317, 0.0, 0.0, 0.0, 0.0, 0.0, 1.6206558423858695E9, 2021-05-10 16:10:42.385
25.0, -82.13007354736328, 54.82880401611328, 230.89768981933594, -169.47731018066406, -0.1120000034570694, -0.03200000151991844, 1.040000081062317, 0.0, 0.0, 0.0, 0.0, 0.0, 1.6206558423858695E9, 2021-05-10 16:10:42.385
26.0, -109.80158996582031, 43.50064468383789, 216.18118286132812, -178.1763153076172, -0.1120000034570694, -0.03200000151991844, 1.040000081062317, 0.0, 0.0, 0.0, 0.0, 0.0, 1.6206558424179585E9, 2021-05-10 16:10:42.417
26.0, -108.18595886230469, 37.16151428222656, 200.7653045654297, -172.5776824951172, -0.1120000034570694, -0.03200000151991844, 1.040000081062317, 0.0, 0.0, 0.0, 0.0, 0.0, 1.6206558424179585E9, 2021-05-10 16:10:42.417
27.0, -95.37306213378906, 41.63069534301758, 204.34439086914062, -167.22589111328125, -0.1120000034570694, -0.03200000151991844, 1.040000081062317, 0.0, 0.0, 0.0, 0.0, 0.0, 1.6206558424186645E9, 2021-05-10 16:10:42.418
27.0, -88.54399871826172, 45.55010986328125, 217.19842529296875, -156.49610900878906, -0.1120000034570694, -0.03200000151991844, 1.040000081062317, 0.0, 0.0, 0.0, 0.0, 0.0, 1.6206558424186645E9, 2021-05-10 16:10:42.418
28.0, -117.19537353515625, 42.84990310668945, 225.84507751464844, -144.0983428955078, -0.1120000034570694, -0.03200000151991844, 1.040000081062317, 0.0, 0.0, 0.0, 0.0, 0.0, 1.620655842419356E9, 2021-05-10 16:10:42.419
28.0, -124.17776489257812, 29.97342872619629, 184.5453643798828, -194.91236877441406, -0.1120000034570694, -0.03200000151991844, 1.040000081062317, 0.0, 0.0, 0.0, 0.0, 0.0, 1.620655842419356E9, 2021-05-10 16:10:42.419
29.0, -118.04059600830078, 49.51066589355469, 199.64707946777344, -172.035400390625, -0.1120000034570694, -0.03200000151991844, 1.040000081062317, 0.0, 0.0, 0.0, 0.0, 0.0, 1.6206558424200752E9, 2021-05-10 16:10:42.420
29.0, -85.95599365234375, 57.764625549316406, 227.4420166015625, -154.42047119140625, -0.1120000034570694, -0.03200000151991844, 1.040000081062317, 0.0, 0.0, 0.0, 0.0, 0.0, 1.6206558424200752E9, 2021-05-10 16:10:42.420
30.0, -103.05107116699219, 28.103477478027344, 211.51004028320312, -165.14649963378906, -0.1120000034570694, -0.03200000151991844, 1.055999994277954, 0.0, 0.0, 0.0, 0.0, 0.0, 1.6206558424307811E9, 2021-05-10 16:10:42.430
30.0, -121.06243133544922, 36.01710510253906, 196.5878448486328, -166.50782775878906, -0.1120000034570694, -0.03200000151991844, 1.055999994277954, 0.0, 0.0, 0.0, 0.0, 0.0, 1.6206558424307811E9, 2021-05-10 16:10:42.430
31.0, -121.4364242553711, 40.78548049926758, 201.9246826171875, -166.53025817871094, -0.1120000034570694, -0.03200000151991844, 1.055999994277954, 0.0, 0.0, 0.0, 0.0, 0.0, 1.6206558424621658E9, 2021-05-10 16:10:42.462
31.0, -92.47089385986328, 60.53215026855469, 224.80538940429688, -157.116943359375, -0.1120000034570694, -0.03200000151991844, 1.055999994277954, 0.0, 0.0, 0.0, 0.0, 0.0, 1.6206558424621658E9, 2021-05-10 16:10:42.462
32.0, -107.34073638916016, 45.815643310546875, 216.21484375, -167.59613037109375, -0.1120000034570694, -0.03200000151991844, 1.055999994277954, 0.0, 0.0, 0.0, 0.0, 0.0, 1.6206558424628863E9, 2021-05-10 16:10:42.462
32.0, -97.13081359863281, 38.178768157958984, 207.23533630371094, -175.14324951171875, -0.1120000034570694, -0.03200000151991844, 1.055999994277954, 0.0, 0.0, 0.0, 0.0, 0.0, 1.6206558424628863E9, 2021-05-10 16:10:42.462
33.0, -117.69651794433594, 21.079946517944336, 203.74600219726562, -183.2251739501953, -0.1120000034570694, -0.03200000151991844, 1.055999994277954, 0.0, 0.0, 0.0, 0.0, 0.0, 1.6206558424636264E9, 2021-05-10 16:10:42.463
33.0, -111.51072692871094, 53.80781173706055, 224.0536651611328, -170.40480041503906, -0.1120000034570694, -0.03200000151991844, 1.055999994277954, 0.0, 0.0, 0.0, 0.0, 0.0, 1.6206558424636264E9, 2021-05-10 16:10:42.463
34.0, -98.51831817626953, 45.79320526123047, 227.87957763671875, -164.12924194335938, -0.1120000034570694, -0.03200000151991844, 1.055999994277954, 0.0, 0.0, 0.0, 0.0, 0.0, 1.620655842475751E9, 2021-05-10 16:10:42.475
34.0, -108.530029296875, 35.467342376708984, 207.23159790039062, -179.30577087402344, -0.1120000034570694, -0.03200000151991844, 1.055999994277954, 0.0, 0.0, 0.0, 0.0, 0.0, 1.620655842475751E9, 2021-05-10 16:10:42.475
35.0, -76.56884002685547, 50.09035110473633, 210.87051391601562, -176.17921447753906, -0.1120000034570694, -0.03200000151991844, 1.055999994277954, 0.0, 0.0, 0.0, 0.0, 0.0, 1.6206558424915812E9, 2021-05-10 16:10:42.491
35.0, -110.95348358154297, 46.066219329833984, 226.4658966064453, -165.5466766357422, -0.1120000034570694, -0.03200000151991844, 1.055999994277954, 0.0, 0.0, 0.0, 0.0, 0.0, 1.6206558424915812E9, 2021-05-10 16:10:42.491
36.0, -114.42037200927734, 43.193973541259766, 221.86956787109375, -165.40829467773438, -0.1120000034570694, -0.03200000151991844, 1.055999994277954, 0.0, 0.0, 0.0, 0.0, 0.0, 1.6206558424922173E9, 2021-05-10 16:10:42.492
36.0, -106.64885711669922, 39.9664421081543, 205.9600372314453, -167.35678100585938, -0.1120000034570694, -0.03200000151991844, 1.055999994277954, 0.0, 0.0, 0.0, 0.0, 0.0, 1.6206558424922173E9, 2021-05-10 16:10:42.492
37.0, -119.58142852783203, 34.547325134277344, 202.5679473876953, -168.7218475341797, -0.1120000034570694, -0.03200000151991844, 1.055999994277954, 0.0, 0.0, 0.0, 0.0, 0.0, 1.620655842505895E9, 2021-05-10 16:10:42.505
37.0, -112.05300903320312, 59.765472412109375, 218.7467498779297, -154.23721313476562, -0.1120000034570694, -0.03200000151991844, 1.055999994277954, 0.0, 0.0, 0.0, 0.0, 0.0, 1.620655842505895E9, 2021-05-10 16:10:42.505
38.0, -79.22417449951172, 42.37867736816406, 212.9311981201172, -170.7114715576172, -0.1120000034570694, -0.03200000151991844, 1.055999994277954, 0.0, 0.0, 0.0, 0.0, 0.0, 1.6206558425362267E9, 2021-05-10 16:10:42.536
38.0, -105.2389144897461, 52.4427490234375, 205.3205108642578, -153.56777954101562, -0.1120000034570694, -0.03200000151991844, 1.055999994277954, 0.0, 0.0, 0.0, 0.0, 0.0, 1.6206558425362267E9, 2021-05-10 16:10:42.536
39.0, -117.73017883300781, 51.22727966308594, 207.40737915039062, -176.7925567626953, -0.1120000034570694, -0.03200000151991844, 1.055999994277954, 0.0, 0.0, 0.0, 0.0, 0.0, 1.6206558425513315E9, 2021-05-10 16:10:42.551
39.0, -108.83296203613281, 52.08745574951172, 223.69090270996094, -162.2032012939453, -0.1120000034570694, -0.03200000151991844, 1.055999994277954, 0.0, 0.0, 0.0, 0.0, 0.0, 1.6206558425513315E9, 2021-05-10 16:10:42.551
40.0, -115.98365020751953, 44.80213165283203, 217.79307556152344, -157.08328247070312, -0.1120000034570694, -0.03200000151991844, 1.055999994277954, 0.0, 0.0, 0.0, 0.0, 0.0, 1.6206558425685856E9, 2021-05-10 16:10:42.568
40.0, -132.09140014648438, 41.0809326171875, 192.5936279296875, -193.2294158935547, -0.1120000034570694, -0.03200000151991844, 1.055999994277954, 0.0, 0.0, 0.0, 0.0, 0.0, 1.6206558425685856E9, 2021-05-10 16:10:42.568
41.0, -96.95877838134766, 52.86161422729492, 202.3024139404297, -186.70703125, -0.1120000034570694, -0.01600000075995922, 1.055999994277954, 0.0, 0.0, 0.0, 0.0, 0.0, 1.6206558425692356E9, 2021-05-10 16:10:42.569
41.0, -125.99909973144531, 63.049102783203125, 218.52235412597656, -167.8429718017578, -0.1120000034570694, -0.01600000075995922, 1.055999994277954, 0.0, 0.0, 0.0, 0.0, 0.0, 1.6206558425692356E9, 2021-05-10 16:10:42.569
42.0, -95.98640441894531, 100.08159637451172, 237.80528259277344, -133.9744415283203, -0.1120000034570694, -0.01600000075995922, 1.055999994277954, 0.0, 0.0, 0.0, 0.0, 0.0, 1.620655842570032E9, 2021-05-10 16:10:42.570
42.0, -118.09668731689453, 46.26817321777344, 202.51931762695312, -199.2095184326172, -0.1120000034570694, -0.01600000075995922, 1.055999994277954, 0.0, 0.0, 0.0, 0.0, 0.0, 1.620655842570032E9, 2021-05-10 16:10:42.570
43.0, -115.04867553710938, 48.99081802368164, 206.82020568847656, -194.53089904785156, -0.1120000034570694, -0.01600000075995922, 1.055999994277954, 0.0, 0.0, 0.0, 0.0, 0.0, 1.6206558425707664E9, 2021-05-10 16:10:42.570
43.0, -102.98375701904297, 72.61576843261719, 228.73602294921875, -172.035400390625, -0.1120000034570694, -0.01600000075995922, 1.055999994277954, 0.0, 0.0, 0.0, 0.0, 0.0, 1.6206558425707664E9, 2021-05-10 16:10:42.570
44.0, -106.37584686279297, 54.63806915283203, 226.77256774902344, -178.12020874023438, -0.1120000034570694, -0.01600000075995922, 1.055999994277954, 0.0, 0.0, 0.0, 0.0, 0.0, 1.62065584262995E9, 2021-05-10 16:10:42.629
44.0, -96.827880859375, 71.35916137695312, 221.13279724121094, -170.333740234375, -0.1120000034570694, -0.01600000075995922, 1.055999994277954, 0.0, 0.0, 0.0, 0.0, 0.0, 1.62065584262995E9, 2021-05-10 16:10:42.629
45.0, -109.55850219726562, 48.56821060180664, 226.10687255859375, -155.20584106445312, -0.1120000034570694, -0.01600000075995922, 1.055999994277954, 0.0, 0.0, 0.0, 0.0, 0.0, 1.620655842630674E9, 2021-05-10 16:10:42.630
45.0, -108.89653778076172, 48.351295471191406, 210.1562042236328, -191.84190368652344, -0.1120000034570694, -0.01600000075995922, 1.055999994277954, 0.0, 0.0, 0.0, 0.0, 0.0, 1.620655842630674E9, 2021-05-10 16:10:42.630
46.0, -101.02778625488281, 76.68852233886719, 220.1791229248047, -177.57418823242188, -0.1120000034570694, -0.01600000075995922, 1.055999994277954, 0.0, 0.0, 0.0, 0.0, 0.0, 1.6206558426314046E9, 2021-05-10 16:10:42.631
46.0, -113.42555236816406, 56.34720230102539, 204.1985321044922, -179.00283813476562, -0.1120000034570694, -0.01600000075995922, 1.055999994277954, 0.0, 0.0, 0.0, 0.0, 0.0, 1.6206558426314046E9, 2021-05-10 16:10:42.631
47.0, -116.81016540527344, 82.6948013305664, 214.04196166992188, -159.03924560546875, -0.1120000034570694, -0.01600000075995922, 1.055999994277954, 0.0, 0.0, 0.0, 0.0, 0.0, 1.6206558426321788E9, 2021-05-10 16:10:42.632
47.0, -112.13903045654297, 78.08350372314453, 219.50595092773438, -175.74163818359375, -0.1120000034570694, -0.01600000075995922, 1.055999994277954, 0.0, 0.0, 0.0, 0.0, 0.0, 1.6206558426321788E9, 2021-05-10 16:10:42.632
48.0, -86.76380920410156, 62.69007110595703, 217.71827697753906, -171.03684997558594, -0.1120000034570694, -0.01600000075995922, 1.055999994277954, 0.0, 0.0, 0.0, 0.0, 0.0, 1.620655842642908E9, 2021-05-10 16:10:42.642
48.0, -109.6744384765625, 40.62840270996094, 201.4085693359375, -182.1630401611328, -0.1120000034570694, -0.01600000075995922, 1.055999994277954, 0.0, 0.0, 0.0, 0.0, 0.0, 1.620655842642908E9, 2021-05-10 16:10:42.642
49.0, -126.62366485595703, 73.59935760498047, 211.7456512451172, -175.69302368164062, -0.1120000034570694, -0.01600000075995922, 1.055999994277954, 0.0, 0.0, 0.0, 0.0, 0.0, 1.620655842643648E9, 2021-05-10 16:10:42.643
49.0, -101.69722747802734, 91.37136840820312, 229.06138610839844, -160.26219177246094, -0.1120000034570694, -0.01600000075995922, 1.055999994277954, 0.0, 0.0, 0.0, 0.0, 0.0, 1.620655842643648E9, 2021-05-10 16:10:42.643
50.0, -118.51555633544922, 78.76790618896484, 211.2893829345703, -180.17715454101562, -0.1120000034570694, -0.01600000075995922, 1.055999994277954, 0.0, 0.0, 0.0, 0.0, 0.0, 1.6206558426443927E9, 2021-05-10 16:10:42.644
50.0, -112.95433044433594, 77.70951080322266, 201.48336791992188, -182.35377502441406, -0.1120000034570694, -0.01600000075995922, 1.055999994277954, 0.0, 0.0, 0.0, 0.0, 0.0, 1.6206558426443927E9, 2021-05-10 16:10:42.644
51.0, -112.7897720336914, 66.48233032226562, 211.11361694335938, -177.43955993652344, -0.1120000034570694, -0.03200000151991844, 1.055999994277954, 0.0, 0.0, 0.0, 0.0, 0.0, 1.6206558426451075E9, 2021-05-10 16:10:42.645
51.0, -93.84343719482422, 68.41960144042969, 215.20880126953125, -177.3385772705078, -0.1120000034570694, -0.03200000151991844, 1.055999994277954, 0.0, 0.0, 0.0, 0.0, 0.0, 1.6206558426451075E9, 2021-05-10 16:10:42.645
52.0, -112.01935577392578, 76.74087524414062, 213.34259033203125, -174.72438049316406, -0.1120000034570694, -0.03200000151991844, 1.055999994277954, 0.0, 0.0, 0.0, 0.0, 0.0, 1.6206558426870568E9, 2021-05-10 16:10:42.687
52.0, -122.46115112304688, 42.55445098876953, 194.4635772705078, -179.4516143798828, -0.1120000034570694, -0.03200000151991844, 1.055999994277954, 0.0, 0.0, 0.0, 0.0, 0.0, 1.6206558426870568E9, 2021-05-10 16:10:42.687
53.0, -119.03914642333984, 50.47182083129883, 198.11746215820312, -183.12420654296875, -0.1120000034570694, -0.03200000151991844, 1.055999994277954, 0.0, 0.0, 0.0, 0.0, 0.0, 1.620655842687785E9, 2021-05-10 16:10:42.687
53.0, -106.88821411132812, 90.63460540771484, 232.1804656982422, -163.23167419433594, -0.1120000034570694, -0.03200000151991844, 1.055999994277954, 0.0, 0.0, 0.0, 0.0, 0.0, 1.620655842687785E9, 2021-05-10 16:10:42.687
54.0, -99.08677673339844, 70.12873077392578, 221.1589813232422, -164.92584228515625, -0.1120000034570694, -0.03200000151991844, 1.055999994277954, 0.0, 0.0, 0.0, 0.0, 0.0, 1.6206558427035275E9, 2021-05-10 16:10:42.703
54.0, -107.29586029052734, 48.444793701171875, 196.7935333251953, -182.91476440429688, -0.1120000034570694, -0.03200000151991844, 1.055999994277954, 0.0, 0.0, 0.0, 0.0, 0.0, 1.6206558427035275E9, 2021-05-10 16:10:42.703
55.0, -125.19502258300781, 70.1885757446289, 195.12928771972656, -180.35293579101562, -0.1120000034570694, -0.03200000151991844, 1.055999994277954, 0.0, 0.0, 0.0, 0.0, 0.0, 1.62065584270437E9, 2021-05-10 16:10:42.704
55.0, -107.9540786743164, 81.92811584472656, 214.24017333984375, -164.82113647460938, -0.1120000034570694, -0.03200000151991844, 1.055999994277954, 0.0, 0.0, 0.0, 0.0, 0.0, 1.62065584270437E9, 2021-05-10 16:10:42.704
56.0, -99.10547637939453, 70.91036987304688, 215.42945861816406, -178.86819458007812, -0.1120000034570694, -0.03200000151991844, 1.055999994277954, 0.0, 0.0, 0.0, 0.0, 0.0, 1.6206558427049618E9, 2021-05-10 16:10:42.704
56.0, -103.62701416015625, 77.12234497070312, 198.2745361328125, -178.6587677001953, -0.1120000034570694, -0.03200000151991844, 1.055999994277954, 0.0, 0.0, 0.0, 0.0, 0.0, 1.6206558427049618E9, 2021-05-10 16:10:42.704
57.0, -107.47163391113281, 83.90652465820312, 198.4877166748047, -172.65248107910156, -0.1120000034570694, -0.03200000151991844, 1.055999994277954, 0.0, 0.0, 0.0, 0.0, 0.0, 1.6206558427057507E9, 2021-05-10 16:10:42.705
57.0, -94.116455078125, 82.46292114257812, 220.76629638671875, -157.7078399658203, -0.1120000034570694, -0.03200000151991844, 1.055999994277954, 0.0, 0.0, 0.0, 0.0, 0.0, 1.6206558427057507E9, 2021-05-10 16:10:42.705
58.0, -105.81859588623047, 50.88694763183594, 208.6303253173828, -177.4956512451172, -0.1120000034570694, -0.03200000151991844, 1.055999994277954, 0.0, 0.0, 0.0, 0.0, 0.0, 1.6206558427158537E9, 2021-05-10 16:10:42.715
58.0, -114.80184173583984, 57.09892272949219, 199.78919982910156, -176.54945373535156, -0.1120000034570694, -0.03200000151991844, 1.055999994277954, 0.0, 0.0, 0.0, 0.0, 0.0, 1.6206558427158537E9, 2021-05-10 16:10:42.715
59.0, -124.28622436523438, 61.9084358215332, 194.4224395751953, -176.8748321533203, -0.1120000034570694, -0.03200000151991844, 1.055999994277954, 0.0, 0.0, 0.0, 0.0, 0.0, 1.6206558427315495E9, 2021-05-10 16:10:42.731
59.0, -97.47488403320312, 58.74448013305664, 228.05162048339844, -160.84934997558594, -0.1120000034570694, -0.03200000151991844, 1.055999994277954, 0.0, 0.0, 0.0, 0.0, 0.0, 1.6206558427315495E9, 2021-05-10 16:10:42.731
60.0, -111.13299560546875, 49.89961624145508, 211.70077514648438, -176.6504364013672, -0.1120000034570694, -0.03200000151991844, 1.055999994277954, 0.0, 0.0, 0.0, 0.0, 0.0, 1.620655842732316E9, 2021-05-10 16:10:42.732
60.0, -104.4161376953125, 56.466880798339844, 198.315673828125, -186.22457885742188, -0.1120000034570694, -0.03200000151991844, 1.055999994277954, 0.0, 0.0, 0.0, 0.0, 0.0, 1.620655842732316E9, 2021-05-10 16:10:42.732
61.0, -127.29310607910156, 59.956207275390625, 202.92697143554688, -187.24557495117188, -0.1120000034570694, -0.01600000075995922, 1.055999994277954, 0.0, 0.0, 0.0, 0.0, 0.0, 1.6206558427458272E9, 2021-05-10 16:10:42.745
61.0, -110.70291137695312, 77.35421752929688, 226.4658966064453, -176.9122314453125, -0.1120000034570694, -0.01600000075995922, 1.055999994277954, 0.0, 0.0, 0.0, 0.0, 0.0, 1.6206558427458272E9, 2021-05-10 16:10:42.745
62.0, -108.47393035888672, 70.54386138916016, 229.7308349609375, -172.47669982910156, -0.1120000034570694, -0.01600000075995922, 1.055999994277954, 0.0, 0.0, 0.0, 0.0, 0.0, 1.6206558427619596E9, 2021-05-10 16:10:42.761
62.0, -112.01187133789062, 76.95779418945312, 210.84060668945312, -193.5996551513672, -0.1120000034570694, -0.01600000075995922, 1.055999994277954, 0.0, 0.0, 0.0, 0.0, 0.0, 1.6206558427619596E9, 2021-05-10 16:10:42.761
63.0, -114.56996154785156, 52.80925750732422, 204.0339813232422, -194.44113159179688, -0.1120000034570694, -0.01600000075995922, 1.055999994277954, 0.0, 0.0, 0.0, 0.0, 0.0, 1.6206558427769892E9, 2021-05-10 16:10:42.776
63.0, -102.9538345336914, 71.65460968017578, 222.41184997558594, -186.108642578125, -0.1120000034570694, -0.01600000075995922, 1.055999994277954, 0.0, 0.0, 0.0, 0.0, 0.0, 1.6206558427769892E9, 2021-05-10 16:10:42.776
64.0, -102.34423065185547, 42.812503814697266, 216.3644256591797, -188.00851440429688, -0.1120000034570694, -0.01600000075995922, 1.055999994277954, 0.0, 0.0, 0.0, 0.0, 0.0, 1.6206558427922368E9, 2021-05-10 16:10:42.792
64.0, -120.57624816894531, 38.410640716552734, 193.7417755126953, -190.95928955078125, -0.1120000034570694, -0.01600000075995922, 1.055999994277954, 0.0, 0.0, 0.0, 0.0, 0.0, 1.6206558427922368E9, 2021-05-10 16:10:42.792
65.0, -110.84502410888672, 61.482086181640625, 200.91116333007812, -181.67312622070312, -0.1120000034570694, -0.01600000075995922, 1.055999994277954, 0.0, 0.0, 0.0, 0.0, 0.0, 1.620655842792924E9, 2021-05-10 16:10:42.792
65.0, -94.1575927734375, 89.95768737792969, 229.82432556152344, -162.18075561523438, -0.1120000034570694, -0.01600000075995922, 1.055999994277954, 0.0, 0.0, 0.0, 0.0, 0.0, 1.620655842792924E9, 2021-05-10 16:10:42.792
66.0, -115.32168579101562, 60.36759567260742, 213.17430114746094, -170.74887084960938, -0.1120000034570694, -0.01600000075995922, 1.055999994277954, 0.0, 0.0, 0.0, 0.0, 0.0, 1.6206558427936692E9, 2021-05-10 16:10:42.793
66.0, -124.29744720458984, 44.85074996948242, 193.68568420410156, -176.30262756347656, -0.1120000034570694, -0.01600000075995922, 1.055999994277954, 0.0, 0.0, 0.0, 0.0, 0.0, 1.6206558427936692E9, 2021-05-10 16:10:42.793
67.0, -114.9551773071289, 54.35383605957031, 201.97329711914062, -167.56996154785156, -0.1120000034570694, -0.01600000075995922, 1.055999994277954, 0.0, 0.0, 0.0, 0.0, 0.0, 1.620655842805778E9, 2021-05-10 16:10:42.805
67.0, -96.35291290283203, 28.71308135986328, 211.6259765625, -168.9462432861328, -0.1120000034570694, -0.01600000075995922, 1.055999994277954, 0.0, 0.0, 0.0, 0.0, 0.0, 1.620655842805778E9, 2021-05-10 16:10:42.805
68.0, -120.2546157836914, 56.276145935058594, 219.16561889648438, -162.94369506835938, -0.1120000034570694, -0.01600000075995922, 1.055999994277954, 0.0, 0.0, 0.0, 0.0, 0.0, 1.620655842821587E9, 2021-05-10 16:10:42.821
68.0, -134.57469177246094, 45.58003234863281, 195.17042541503906, -178.2997283935547, -0.1120000034570694, -0.01600000075995922, 1.055999994277954, 0.0, 0.0, 0.0, 0.0, 0.0, 1.620655842821587E9, 2021-05-10 16:10:42.821
69.0, -119.80956268310547, 61.71022033691406, 203.7759246826172, -177.40589904785156, -0.1120000034570694, -0.01600000075995922, 1.055999994277954, 0.0, 0.0, 0.0, 0.0, 0.0, 1.6206558428223407E9, 2021-05-10 16:10:42.822
69.0, -103.74669647216797, 43.8035774230957, 207.69534301757812, -190.9817352294922, -0.1120000034570694, -0.01600000075995922, 1.055999994277954, 0.0, 0.0, 0.0, 0.0, 0.0, 1.6206558428223407E9, 2021-05-10 16:10:42.822
70.0, -102.63594818115234, 70.15117645263672, 228.4891815185547, -170.6778106689453, -0.1120000034570694, -0.01600000075995922, 1.055999994277954, 0.0, 0.0, 0.0, 0.0, 0.0, 1.6206558428357668E9, 2021-05-10 16:10:42.835
70.0, -123.87857818603516, 42.96583938598633, 193.738037109375, -201.8311767578125, -0.1120000034570694, -0.01600000075995922, 1.055999994277954, 0.0, 0.0, 0.0, 0.0, 0.0, 1.6206558428357668E9, 2021-05-10 16:10:42.835
71.0, -113.78832244873047, 56.82965087890625, 201.4945831298828, -186.49758911132812, -0.1120000034570694, -0.03200000151991844, 1.055999994277954, 0.0, 0.0, 0.0, 0.0, 0.0, 1.620655842851304E9, 2021-05-10 16:10:42.851
71.0, -99.24385833740234, 59.757991790771484, 219.64431762695312, -187.27549743652344, -0.1120000034570694, -0.03200000151991844, 1.055999994277954, 0.0, 0.0, 0.0, 0.0, 0.0, 1.620655842851304E9, 2021-05-10 16:10:42.851
72.0, -103.92620849609375, 48.545772552490234, 219.83131408691406, -177.06556701660156, -0.1120000034570694, -0.03200000151991844, 1.055999994277954, 0.0, 0.0, 0.0, 0.0, 0.0, 1.6206558428969743E9, 2021-05-10 16:10:42.896
72.0, -109.40890502929688, 47.38640213012695, 207.05581665039062, -182.43980407714844, -0.1120000034570694, -0.03200000151991844, 1.055999994277954, 0.0, 0.0, 0.0, 0.0, 0.0, 1.6206558428969743E9, 2021-05-10 16:10:42.896
73.0, -117.51326751708984, 42.763885498046875, 203.89935302734375, -180.3491973876953, -0.1120000034570694, -0.03200000151991844, 1.055999994277954, 0.0, 0.0, 0.0, 0.0, 0.0, 1.6206558429136183E9, 2021-05-10 16:10:42.913
73.0, -111.08438110351562, 52.09493637084961, 216.637451171875, -169.00607299804688, -0.1120000034570694, -0.03200000151991844, 1.055999994277954, 0.0, 0.0, 0.0, 0.0, 0.0, 1.6206558429136183E9, 2021-05-10 16:10:42.913
