Sample Index, EXG Channel 0, EXG Channel 1, EXG Channel 2, EXG Channel 3, Accel Channel 0, Accel Channel 1, Accel Channel 2, Other, Other, Other, Other, Other, Timestamp, Timestamp (Formatted)
0.0, -260.56256103515625, 105.12484741210938, 152.81417846679688, 0.2281339019536972, 0.0, 0.0, 0.0, 0.0, 0.0, 0.0, 0.0, 0.0, 1.6206612796017358E9, 2021-05-10 17:41:19.601
1.0, -275.2267150878906, 95.77510070800781, 123.65792083740234, -24.077476501464844, 0.0, 0.01600000075995922, 0.0, 0.0, 0.0, 0.0, 0.0, 0.0, 1.6206612796152308E9, 2021-05-10 17:41:19.615
1.0, -299.3677673339844, 86.14485931396484, 111.3050308227539, -34.425777435302734, 0.0, 0.01600000075995922, 0.0, 0.0, 0.0, 0.0, 0.0, 0.0, 1.6206612796152308E9, 2021-05-10 17:41:19.615
2.0, -284.70361328125, 104.38434600830078, 130.89088439941406, -21.145395278930664, -0.04800000041723251, 0.01600000075995922, 0.0, 0.0, 0.0, 0.0, 0.0, 0.0, 1.6206612796318429E9, 2021-05-10 17:41:19.631
2.0, -264.1865234375, 131.77537536621094, 147.16319274902344, 1.768972635269165, -0.04800000041723251, 0.01600000075995922, 0.0, 0.0, 0.0, 0.0, 0.0, 0.0, 1.6206612796318429E9, 2021-05-10 17:41:19.631
3.0, -276.2626647949219, 99.29808044433594, 130.4794921875, -25.479938507080078, -0.04800000041723251, 0.01600000075995922, 0.0, 0.0, 0.0, 0.0, 0.0, 0.0, 1.6206612796324515E9, 2021-05-10 17:41:19.632
3.0, -302.5541687011719, 81.46997833251953, 108.60856628417969, -42.477783203125, -0.04800000041723251, 0.01600000075995922, 0.0, 0.0, 0.0, 0.0, 0.0, 0.0, 1.6206612796324515E9, 2021-05-10 17:41:19.632
4.0, -268.8277587890625, 111.42283630371094, 132.2671661376953, -24.410327911376953, -0.04800000041723251, 0.01600000075995922, 0.0, 0.0, 0.0, 0.0, 0.0, 0.0, 1.620661279661239E9, 2021-05-10 17:41:19.661
4.0, -258.9207458496094, 121.38219451904297, 155.95196533203125, -12.734359741210938, -0.04800000041723251, 0.01600000075995922, 0.0, 0.0, 0.0, 0.0, 0.0, 0.0, 1.620661279661239E9, 2021-05-10 17:41:19.661
5.0, -279.5425720214844, 102.87342834472656, 128.05604553222656, -33.64039993286133, -0.04800000041723251, 0.01600000075995922, 0.0, 0.0, 0.0, 0.0, 0.0, 0.0, 1.620661279662079E9, 2021-05-10 17:41:19.662
5.0, -292.9501037597656, 86.58616638183594, 114.03890228271484, -42.455345153808594, -0.04800000041723251, 0.01600000075995922, 0.0, 0.0, 0.0, 0.0, 0.0, 0.0, 1.620661279662079E9, 2021-05-10 17:41:19.662
6.0, -282.2128601074219, 114.67655181884766, 133.5462188720703, -24.896514892578125, -0.04800000041723251, 0.01600000075995922, 0.0, 0.0, 0.0, 0.0, 0.0, 0.0, 1.62066127966291E9, 2021-05-10 17:41:19.662
6.0, -254.73207092285156, 120.30509948730469, 151.52764892578125, -4.270965576171875, -0.04800000041723251, 0.01600000075995922, 0.0, 0.0, 0.0, 0.0, 0.0, 0.0, 1.62066127966291E9, 2021-05-10 17:41:19.662
7.0, -281.6855163574219, 96.38844299316406, 127.0986328125, -20.34131622314453, -0.04800000041723251, 0.01600000075995922, 0.0, 0.0, 0.0, 0.0, 0.0, 0.0, 1.6206612796748557E9, 2021-05-10 17:41:19.674
7.0, -308.8371887207031, 78.45935821533203, 109.29670715332031, -32.86249923706055, -0.04800000041723251, 0.01600000075995922, 0.0, 0.0, 0.0, 0.0, 0.0, 0.0, 1.6206612796748557E9, 2021-05-10 17:41:19.674
8.0, -283.6078186035156, 102.6602554321289, 136.19406127929688, -6.88515567779541, -0.04800000041723251, 0.01600000075995922, 0.0, 0.0, 0.0, 0.0, 0.0, 0.0, 1.620661279690573E9, 2021-05-10 17:41:19.690
8.0, -263.1468505859375, 120.58185577392578, 155.4657745361328, 6.69442081451416, -0.04800000041723251, 0.01600000075995922, 0.0, 0.0, 0.0, 0.0, 0.0, 0.0, 1.620661279690573E9, 2021-05-10 17:41:19.690
9.0, -284.6288146972656, 91.8407211303711, 129.23411560058594, -18.003877639770508, -0.04800000041723251, 0.01600000075995922, 0.0, 0.0, 0.0, 0.0, 0.0, 0.0, 1.6206612796913838E9, 2021-05-10 17:41:19.691
9.0, -292.7444152832031, 79.42051696777344, 114.52882385253906, -31.269304275512695, -0.04800000041723251, 0.01600000075995922, 0.0, 0.0, 0.0, 0.0, 0.0, 0.0, 1.6206612796913838E9, 2021-05-10 17:41:19.691
10.0, -282.7177429199219, 107.45480346679688, 138.366943359375, -11.978899955749512, -0.04800000041723251, 0.01600000075995922, 1.055999994277954, 0.0, 0.0, 0.0, 0.0, 0.0, 1.620661279720991E9, 2021-05-10 17:41:19.720
10.0, -258.9880676269531, 117.66099548339844, 163.53273010253906, 2.1354827880859375, -0.04800000041723251, 0.01600000075995922, 1.055999994277954, 0.0, 0.0, 0.0, 0.0, 0.0, 1.620661279720991E9, 2021-05-10 17:41:19.720
11.0, -283.9070129394531, 91.68738555908203, 132.28587341308594, -30.712059020996094, -0.04800000041723251, 0.01600000075995922, 1.055999994277954, 0.0, 0.0, 0.0, 0.0, 0.0, 1.620661279721727E9, 2021-05-10 17:41:19.721
11.0, -300.0970458984375, 82.6256103515625, 114.76069641113281, -45.02839660644531, -0.04800000041723251, 0.01600000075995922, 1.055999994277954, 0.0, 0.0, 0.0, 0.0, 0.0, 1.620661279721727E9, 2021-05-10 17:41:19.721
12.0, -273.4839172363281, 109.17141723632812, 139.63478088378906, -18.59104347229004, -0.04800000041723251, 0.01600000075995922, 1.055999994277954, 0.0, 0.0, 0.0, 0.0, 0.0, 1.6206612797356398E9, 2021-05-10 17:41:19.735
12.0, -254.36181640625, 120.34998321533203, 163.0876922607422, -7.999646186828613, -0.04800000041723251, 0.01600000075995922, 1.055999994277954, 0.0, 0.0, 0.0, 0.0, 0.0, 1.6206612797356398E9, 2021-05-10 17:41:19.735
13.0, -268.5884094238281, 91.16380310058594, 136.82984924316406, -29.451711654663086, -0.04800000041723251, 0.01600000075995922, 1.055999994277954, 0.0, 0.0, 0.0, 0.0, 0.0, 1.6206612797363455E9, 2021-05-10 17:41:19.736
13.0, -297.76336669921875, 77.22893524169922, 118.10417175292969, -44.04106140136719, -0.04800000041723251, 0.01600000075995922, 1.055999994277954, 0.0, 0.0, 0.0, 0.0, 0.0, 1.6206612797363455E9, 2021-05-10 17:41:19.736
14.0, -268.5509948730469, 112.05862426757812, 136.18284606933594, -18.609743118286133, -0.04800000041723251, 0.01600000075995922, 1.055999994277954, 0.0, 0.0, 0.0, 0.0, 0.0, 1.620661279750656E9, 2021-05-10 17:41:19.750
14.0, -261.81170654296875, 126.80878448486328, 152.017578125, 0.6432628035545349, -0.04800000041723251, 0.01600000075995922, 1.055999994277954, 0.0, 0.0, 0.0, 0.0, 0.0, 1.620661279750656E9, 2021-05-10 17:41:19.750
15.0, -279.69964599609375, 98.27709197998047, 129.96713256835938, -20.820022583007812, -0.04800000041723251, 0.01600000075995922, 1.055999994277954, 0.0, 0.0, 0.0, 0.0, 0.0, 1.6206612797513015E9, 2021-05-10 17:41:19.751
15.0, -302.5504150390625, 78.58277893066406, 107.50529479980469, -35.26351547241211, -0.04800000041723251, 0.01600000075995922, 1.055999994277954, 0.0, 0.0, 0.0, 0.0, 0.0, 1.6206612797513015E9, 2021-05-10 17:41:19.751
16.0, -275.9223327636719, 97.32341766357422, 132.59254455566406, -18.908933639526367, -0.04800000041723251, 0.01600000075995922, 1.055999994277954, 0.0, 0.0, 0.0, 0.0, 0.0, 1.6206612797812245E9, 2021-05-10 17:41:19.781
16.0, -258.7113342285156, 113.01603698730469, 150.97789001464844, -0.5123662948608398, -0.04800000041723251, 0.01600000075995922, 1.055999994277954, 0.0, 0.0, 0.0, 0.0, 0.0, 1.6206612797812245E9, 2021-05-10 17:41:19.781
17.0, -284.9916076660156, 90.72997283935547, 127.1996078491211, -20.36375617980957, -0.04800000041723251, 0.01600000075995922, 1.055999994277954, 0.0, 0.0, 0.0, 0.0, 0.0, 1.6206612797820797E9, 2021-05-10 17:41:19.782
17.0, -303.975341796875, 74.5960464477539, 116.37633514404297, -33.87227249145508, -0.04800000041723251, 0.01600000075995922, 1.055999994277954, 0.0, 0.0, 0.0, 0.0, 0.0, 1.6206612797820797E9, 2021-05-10 17:41:19.782
18.0, -292.62847900390625, 95.58810424804688, 138.86434936523438, -14.215359687805176, -0.04800000041723251, 0.01600000075995922, 1.055999994277954, 0.0, 0.0, 0.0, 0.0, 0.0, 1.6206612797827508E9, 2021-05-10 17:41:19.782
18.0, -262.25299072265625, 133.712646484375, 162.94183349609375, 12.450126647949219, -0.04800000041723251, 0.01600000075995922, 1.055999994277954, 0.0, 0.0, 0.0, 0.0, 0.0, 1.6206612797827508E9, 2021-05-10 17:41:19.782
19.0, -290.84454345703125, 104.01409912109375, 131.60520935058594, -18.89397430419922, -0.04800000041723251, 0.01600000075995922, 1.055999994277954, 0.0, 0.0, 0.0, 0.0, 0.0, 1.6206612797948604E9, 2021-05-10 17:41:19.794
19.0, -309.1924743652344, 77.8497543334961, 111.63040161132812, -37.354122161865234, -0.04800000041723251, 0.01600000075995922, 1.055999994277954, 0.0, 0.0, 0.0, 0.0, 0.0, 1.6206612797948604E9, 2021-05-10 17:41:19.794
20.0, -285.6610412597656, 97.3982162475586, 138.81573486328125, -10.957906723022461, -0.04800000041723251, 0.01600000075995922, 1.055999994277954, 0.0, 0.0, 0.0, 0.0, 0.0, 1.6206612798103204E9, 2021-05-10 17:41:19.810
20.0, -272.3731689453125, 125.01737213134766, 149.23883056640625, -3.3247711658477783, -0.04800000041723251, 0.01600000075995922, 1.055999994277954, 0.0, 0.0, 0.0, 0.0, 0.0, 1.6206612798103204E9, 2021-05-10 17:41:19.810
21.0, -287.684326171875, 95.5357437133789, 130.8983612060547, -26.527111053466797, -0.04800000041723251, 0.01600000075995922, 1.055999994277954, 0.0, 0.0, 0.0, 0.0, 0.0, 1.620661279826964E9, 2021-05-10 17:41:19.826
21.0, -296.76104736328125, 74.0350570678711, 108.10367584228516, -49.56489562988281, -0.04800000041723251, 0.01600000075995922, 1.055999994277954, 0.0, 0.0, 0.0, 0.0, 0.0, 1.620661279826964E9, 2021-05-10 17:41:19.826
22.0, -274.0972595214844, 116.83447265625, 133.2881622314453, -27.417205810546875, -0.04800000041723251, 0.01600000075995922, 1.055999994277954, 0.0, 0.0, 0.0, 0.0, 0.0, 1.6206612798276567E9, 2021-05-10 17:41:19.827
22.0, -263.6592102050781, 118.49873352050781, 152.0138397216797, -13.744132041931152, -0.04800000041723251, 0.01600000075995922, 1.055999994277954, 0.0, 0.0, 0.0, 0.0, 0.0, 1.6206612798276567E9, 2021-05-10 17:41:19.827
23.0, -277.6314697265625, 94.54840850830078, 132.63368225097656, -26.209218978881836, -0.04800000041723251, 0.01600000075995922, 1.055999994277954, 0.0, 0.0, 0.0, 0.0, 0.0, 1.620661279828392E9, 2021-05-10 17:41:19.828
23.0, -308.9568786621094, 65.19019317626953, 109.83525085449219, -40.72751235961914, -0.04800000041723251, 0.01600000075995922, 1.055999994277954, 0.0, 0.0, 0.0, 0.0, 0.0, 1.620661279828392E9, 2021-05-10 17:41:19.828
24.0, -281.5284423828125, 106.41885375976562, 137.57034301757812, -18.635921478271484, -0.04800000041723251, 0.01600000075995922, 1.055999994277954, 0.0, 0.0, 0.0, 0.0, 0.0, 1.6206612798398964E9, 2021-05-10 17:41:19.839
24.0, -261.25445556640625, 109.82964324951172, 146.17959594726562, -11.10002326965332, -0.04800000041723251, 0.01600000075995922, 1.055999994277954, 0.0, 0.0, 0.0, 0.0, 0.0, 1.6206612798398964E9, 2021-05-10 17:41:19.839
25.0, -279.7594909667969, 89.20035552978516, 126.21975708007812, -23.142501831054688, -0.04800000041723251, 0.01600000075995922, 1.055999994277954, 0.0, 0.0, 0.0, 0.0, 0.0, 1.6206612798712416E9, 2021-05-10 17:41:19.871
25.0, -308.5941162109375, 76.77640533447266, 103.6307601928711, -38.117061614990234, -0.04800000041723251, 0.01600000075995922, 1.055999994277954, 0.0, 0.0, 0.0, 0.0, 0.0, 1.6206612798712416E9, 2021-05-10 17:41:19.871
26.0, -284.86444091796875, 95.48712921142578, 133.74069213867188, -12.988672256469727, -0.04800000041723251, 0.01600000075995922, 1.055999994277954, 0.0, 0.0, 0.0, 0.0, 0.0, 1.6206612798719814E9, 2021-05-10 17:41:19.871
26.0, -268.3602600097656, 114.5269546508789, 155.04690551757812, 3.500546455383301, -0.04800000041723251, 0.01600000075995922, 1.055999994277954, 0.0, 0.0, 0.0, 0.0, 0.0, 1.6206612798719814E9, 2021-05-10 17:41:19.871
27.0, -283.83221435546875, 101.10819244384766, 135.5321044921875, -16.8669490814209, -0.04800000041723251, 0.01600000075995922, 1.055999994277954, 0.0, 0.0, 0.0, 0.0, 0.0, 1.6206612798727477E9, 2021-05-10 17:41:19.872
27.0, -308.09295654296875, 77.6478042602539, 114.06134033203125, -36.38174819946289, -0.04800000041723251, 0.01600000075995922, 1.055999994277954, 0.0, 0.0, 0.0, 0.0, 0.0, 1.6206612798727477E9, 2021-05-10 17:41:19.872
28.0, -280.2830505371094, 98.78945922851562, 137.00936889648438, -18.87153434753418, -0.04800000041723251, 0.01600000075995922, 1.055999994277954, 0.0, 0.0, 0.0, 0.0, 0.0, 1.6206612798849788E9, 2021-05-10 17:41:19.884
28.0, -257.7763366699219, 120.97454071044922, 161.96945190429688, 2.25141978263855, -0.04800000041723251, 0.01600000075995922, 1.055999994277954, 0.0, 0.0, 0.0, 0.0, 0.0, 1.6206612798849788E9, 2021-05-10 17:41:19.884
29.0, -284.1351623535156, 98.64360046386719, 141.4673309326172, -19.30910301208496, -0.04800000041723251, 0.01600000075995922, 1.055999994277954, 0.0, 0.0, 0.0, 0.0, 0.0, 1.6206612799006E9, 2021-05-10 17:41:19.900
29.0, -300.9048767089844, 90.89826965332031, 125.64755249023438, -29.9715576171875, -0.04800000041723251, 0.01600000075995922, 1.055999994277954, 0.0, 0.0, 0.0, 0.0, 0.0, 1.6206612799006E9, 2021-05-10 17:41:19.900
30.0, -273.62603759765625, 100.24053955078125, 145.2408905029297, -17.865501403808594, -0.04800000041723251, 0.01600000075995922, 1.055999994277954, 0.0, 0.0, 0.0, 0.0, 0.0, 1.6206612799013443E9, 2021-05-10 17:41:19.901
30.0, -253.62132263183594, 122.08903503417969, 162.8296356201172, 0.6470026969909668, -0.04800000041723251, 0.01600000075995922, 1.055999994277954, 0.0, 0.0, 0.0, 0.0, 0.0, 1.6206612799013443E9, 2021-05-10 17:41:19.901
31.0, -281.1095886230469, 90.131591796875, 134.2119140625, -19.870088577270508, -0.04800000041723251, 0.03200000151991844, 1.055999994277954, 0.0, 0.0, 0.0, 0.0, 0.0, 1.6206612799150007E9, 2021-05-10 17:41:19.915
31.0, -294.85369873046875, 79.36067962646484, 119.08028411865234, -32.200538635253906, -0.04800000041723251, 0.03200000151991844, 1.055999994277954, 0.0, 0.0, 0.0, 0.0, 0.0, 1.6206612799150007E9, 2021-05-10 17:41:19.915
32.0, -270.9183654785156, 113.81637573242188, 140.48373413085938, -17.992658615112305, -0.04800000041723251, 0.03200000151991844, 1.055999994277954, 0.0, 0.0, 0.0, 0.0, 0.0, 1.6206612799306238E9, 2021-05-10 17:41:19.930
32.0, -259.10400390625, 113.89491271972656, 150.2860107421875, -7.7341132164001465, -0.04800000041723251, 0.03200000151991844, 1.055999994277954, 0.0, 0.0, 0.0, 0.0, 0.0, 1.6206612799306238E9, 2021-05-10 17:41:19.930
33.0, -274.38525390625, 80.99127197265625, 128.71426391601562, -20.019683837890625, -0.04800000041723251, 0.03200000151991844, 1.055999994277954, 0.0, 0.0, 0.0, 0.0, 0.0, 1.6206612799313803E9, 2021-05-10 17:41:19.931
33.0, -295.84478759765625, 81.37648010253906, 113.46295166015625, -27.177852630615234, -0.04800000041723251, 0.03200000151991844, 1.055999994277954, 0.0, 0.0, 0.0, 0.0, 0.0, 1.6206612799313803E9, 2021-05-10 17:41:19.931
34.0, -266.8568115234375, 102.38723754882812, 137.58905029296875, -14.85488224029541, -0.04800000041723251, 0.03200000151991844, 1.055999994277954, 0.0, 0.0, 0.0, 0.0, 0.0, 1.6206612799448957E9, 2021-05-10 17:41:19.944
34.0, -261.71820068359375, 114.79248809814453, 154.73275756835938, -3.4182684421539307, -0.04800000041723251, 0.03200000151991844, 1.055999994277954, 0.0, 0.0, 0.0, 0.0, 0.0, 1.6206612799448957E9, 2021-05-10 17:41:19.944
35.0, -281.7154541015625, 93.56108093261719, 137.58157348632812, -18.190874099731445, -0.04800000041723251, 0.03200000151991844, 1.055999994277954, 0.0, 0.0, 0.0, 0.0, 0.0, 1.6206612799605565E9, 2021-05-10 17:41:19.960
35.0, -301.67529296875, 82.80886840820312, 120.18355560302734, -31.8377685546875, -0.04800000041723251, 0.03200000151991844, 1.055999994277954, 0.0, 0.0, 0.0, 0.0, 0.0, 1.6206612799605565E9, 2021-05-10 17:41:19.960
36.0, -280.2718505859375, 107.97090911865234, 146.65830993652344, -10.699853897094727, -0.04800000041723251, 0.03200000151991844, 1.055999994277954, 0.0, 0.0, 0.0, 0.0, 0.0, 1.620661279961248E9, 2021-05-10 17:41:19.961
36.0, -263.49090576171875, 118.08734130859375, 160.27902221679688, 3.104116916656494, -0.04800000041723251, 0.03200000151991844, 1.055999994277954, 0.0, 0.0, 0.0, 0.0, 0.0, 1.620661279961248E9, 2021-05-10 17:41:19.961
37.0, -279.1685791015625, 95.74517822265625, 142.29383850097656, -12.648341178894043, -0.04800000041723251, 0.03200000151991844, 1.055999994277954, 0.0, 0.0, 0.0, 0.0, 0.0, 1.62066127997488E9, 2021-05-10 17:41:19.974
37.0, -298.89654541015625, 85.4006118774414, 128.62451171875, -34.964324951171875, -0.04800000041723251, 0.03200000151991844, 1.055999994277954, 0.0, 0.0, 0.0, 0.0, 0.0, 1.62066127997488E9, 2021-05-10 17:41:19.974
38.0, -269.7066345214844, 98.00782012939453, 150.77967834472656, -17.723386764526367, -0.04800000041723251, 0.03200000151991844, 1.055999994277954, 0.0, 0.0, 0.0, 0.0, 0.0, 1.6206612800232854E9, 2021-05-10 17:41:20.023
38.0, -259.1638488769531, 119.45240783691406, 169.65869140625, 1.196768045425415, -0.04800000041723251, 0.03200000151991844, 1.055999994277954, 0.0, 0.0, 0.0, 0.0, 0.0, 1.6206612800232854E9, 2021-05-10 17:41:20.023
39.0, -279.3331298828125, 101.86739349365234, 146.96124267578125, -22.420700073242188, -0.04800000041723251, 0.03200000151991844, 1.055999994277954, 0.0, 0.0, 0.0, 0.0, 0.0, 1.6206612800240507E9, 2021-05-10 17:41:20.024
39.0, -290.5528259277344, 77.98439025878906, 127.1584701538086, -35.910518646240234, -0.04800000041723251, 0.03200000151991844, 1.055999994277954, 0.0, 0.0, 0.0, 0.0, 0.0, 1.6206612800240507E9, 2021-05-10 17:41:20.024
40.0, -272.31707763671875, 94.42125701904297, 140.50991821289062, -21.280031204223633, -0.04800000041723251, 0.03200000151991844, 1.055999994277954, 0.0, 0.0, 0.0, 0.0, 0.0, 1.620661280024798E9, 2021-05-10 17:41:20.024
40.0, -258.2812194824219, 110.54022216796875, 157.9116668701172, -9.600322723388672, -0.04800000041723251, 0.03200000151991844, 1.055999994277954, 0.0, 0.0, 0.0, 0.0, 0.0, 1.620661280024798E9, 2021-05-10 17:41:20.024
41.0, -272.9266662597656, 89.54068756103516, 129.19671630859375, -31.733051300048828, -0.04800000041723251, 0.03200000151991844, 1.055999994277954, 0.0, 0.0, 0.0, 0.0, 0.0, 1.620661280025496E9, 2021-05-10 17:41:20.025
41.0, -297.78204345703125, 70.34751892089844, 109.91752624511719, -43.99618148803711, -0.04800000041723251, 0.03200000151991844, 1.055999994277954, 0.0, 0.0, 0.0, 0.0, 0.0, 1.620661280025496E9, 2021-05-10 17:41:20.025
42.0, -270.92584228515625, 86.81430053710938, 131.42942810058594, -18.295591354370117, -0.03200000151991844, 0.03200000151991844, 1.055999994277954, 0.0, 0.0, 0.0, 0.0, 0.0, 1.620661280035656E9, 2021-05-10 17:41:20.035
42.0, -255.7605438232422, 122.76595306396484, 153.11337280273438, -0.18325509130954742, -0.03200000151991844, 0.03200000151991844, 1.055999994277954, 0.0, 0.0, 0.0, 0.0, 0.0, 1.620661280035656E9, 2021-05-10 17:41:20.035
43.0, -277.59033203125, 90.00443267822266, 122.00862884521484, -19.297883987426758, -0.03200000151991844, 0.03200000151991844, 1.055999994277954, 0.0, 0.0, 0.0, 0.0, 0.0, 1.6206612800363784E9, 2021-05-10 17:41:20.036
43.0, -300.63934326171875, 72.65503692626953, 108.0887222290039, -27.282569885253906, -0.03200000151991844, 0.03200000151991844, 1.055999994277954, 0.0, 0.0, 0.0, 0.0, 0.0, 1.6206612800363784E9, 2021-05-10 17:41:20.036
44.0, -276.2215270996094, 94.82142639160156, 127.59603881835938, -16.904348373413086, -0.03200000151991844, 0.03200000151991844, 1.055999994277954, 0.0, 0.0, 0.0, 0.0, 0.0, 1.6206612800506935E9, 2021-05-10 17:41:20.050
44.0, -264.0705871582031, 122.20123291015625, 151.7146453857422, 4.001692771911621, -0.03200000151991844, 0.03200000151991844, 1.055999994277954, 0.0, 0.0, 0.0, 0.0, 0.0, 1.6206612800506935E9, 2021-05-10 17:41:20.050
45.0, -282.3624572753906, 95.92095184326172, 137.33099365234375, -20.206680297851562, -0.03200000151991844, 0.03200000151991844, 1.055999994277954, 0.0, 0.0, 0.0, 0.0, 0.0, 1.6206612800513663E9, 2021-05-10 17:41:20.051
45.0, -299.01995849609375, 67.79316711425781, 115.3366470336914, -38.34519577026367, -0.03200000151991844, 0.03200000151991844, 1.055999994277954, 0.0, 0.0, 0.0, 0.0, 0.0, 1.6206612800513663E9, 2021-05-10 17:41:20.051
46.0, -277.167724609375, 107.0396728515625, 144.38070678710938, -14.903501510620117, -0.03200000151991844, 0.03200000151991844, 1.055999994277954, 0.0, 0.0, 0.0, 0.0, 0.0, 1.6206612800650015E9, 2021-05-10 17:41:20.065
46.0, -269.1568603515625, 121.0306396484375, 161.73757934570312, -2.853543758392334, -0.03200000151991844, 0.03200000151991844, 1.055999994277954, 0.0, 0.0, 0.0, 0.0, 0.0, 1.6206612800650015E9, 2021-05-10 17:41:20.065
47.0, -280.57476806640625, 98.51644134521484, 139.8142852783203, -26.72906494140625, -0.03200000151991844, 0.03200000151991844, 1.055999994277954, 0.0, 0.0, 0.0, 0.0, 0.0, 1.6206612800805528E9, 2021-05-10 17:41:20.080
47.0, -305.0224914550781, 80.295654296875, 114.14361572265625, -43.1696662902832, -0.03200000151991844, 0.03200000151991844, 1.055999994277954, 0.0, 0.0, 0.0, 0.0, 0.0, 1.6206612800805528E9, 2021-05-10 17:41:20.080
48.0, -275.7016906738281, 114.9458236694336, 139.41786193847656, -24.803016662597656, -0.03200000151991844, 0.03200000151991844, 1.055999994277954, 0.0, 0.0, 0.0, 0.0, 0.0, 1.6206612800812347E9, 2021-05-10 17:41:20.081
48.0, -265.6712646484375, 124.89022064208984, 156.7298583984375, -15.464486122131348, -0.03200000151991844, 0.03200000151991844, 1.055999994277954, 0.0, 0.0, 0.0, 0.0, 0.0, 1.6206612800812347E9, 2021-05-10 17:41:20.081
49.0, -278.9853210449219, 105.3268051147461, 138.6623992919922, -25.68189239501953, -0.03200000151991844, 0.03200000151991844, 1.055999994277954, 0.0, 0.0, 0.0, 0.0, 0.0, 1.6206612801112647E9, 2021-05-10 17:41:20.111
49.0, -297.0452880859375, 83.91587829589844, 121.01007080078125, -42.601200103759766, -0.03200000151991844, 0.03200000151991844, 1.055999994277954, 0.0, 0.0, 0.0, 0.0, 0.0, 1.6206612801112647E9, 2021-05-10 17:41:20.111
50.0, -269.48223876953125, 101.34007263183594, 143.18020629882812, -19.095930099487305, -0.03200000151991844, 0.03200000151991844, 1.055999994277954, 0.0, 0.0, 0.0, 0.0, 0.0, 1.620661280111984E9, 2021-05-10 17:41:20.111
50.0, -255.54736328125, 110.24102783203125, 158.92892456054688, 0.26179298758506775, -0.03200000151991844, 0.03200000151991844, 1.055999994277954, 0.0, 0.0, 0.0, 0.0, 0.0, 1.620661280111984E9, 2021-05-10 17:41:20.111
51.0, -276.3935546875, 104.93411254882812, 131.82212829589844, -18.246971130371094, -0.03200000151991844, 0.01600000075995922, 1.055999994277954, 0.0, 0.0, 0.0, 0.0, 0.0, 1.6206612801127872E9, 2021-05-10 17:41:20.112
51.0, -292.7444152832031, 85.19866180419922, 107.1051254272461, -43.035030364990234, -0.03200000151991844, 0.01600000075995922, 1.055999994277954, 0.0, 0.0, 0.0, 0.0, 0.0, 1.6206612801127872E9, 2021-05-10 17:41:20.112
52.0, -278.8918151855469, 103.71490478515625, 129.99331665039062, -21.250110626220703, -0.03200000151991844, 0.01600000075995922, 1.055999994277954, 0.0, 0.0, 0.0, 0.0, 0.0, 1.620661280124904E9, 2021-05-10 17:41:20.124
52.0, -267.91522216796875, 119.123291015625, 146.06739807128906, -6.021238803863525, -0.03200000151991844, 0.01600000075995922, 1.055999994277954, 0.0, 0.0, 0.0, 0.0, 0.0, 1.620661280124904E9, 2021-05-10 17:41:20.124
53.0, -290.0479431152344, 97.65626525878906, 124.64525604248047, -32.38005447387695, -0.03200000151991844, 0.01600000075995922, 1.055999994277954, 0.0, 0.0, 0.0, 0.0, 0.0, 1.620661280140564E9, 2021-05-10 17:41:20.140
53.0, -287.7591247558594, 86.13363647460938, 120.96893310546875, -33.24396896362305, -0.03200000151991844, 0.01600000075995922, 1.055999994277954, 0.0, 0.0, 0.0, 0.0, 0.0, 1.620661280140564E9, 2021-05-10 17:41:20.140
54.0, -282.5419616699219, 93.89766693115234, 128.43751525878906, -23.983978271484375, -0.03200000151991844, 0.01600000075995922, 1.055999994277954, 0.0, 0.0, 0.0, 0.0, 0.0, 1.620661280141272E9, 2021-05-10 17:41:20.141
54.0, -256.8226623535156, 119.23922729492188, 160.7240753173828, 2.4870333671569824, -0.03200000151991844, 0.01600000075995922, 1.055999994277954, 0.0, 0.0, 0.0, 0.0, 0.0, 1.620661280141272E9, 2021-05-10 17:41:20.141
55.0, -276.487060546875, 98.84181213378906, 135.76023864746094, -20.894821166992188, -0.03200000151991844, 0.01600000075995922, 1.055999994277954, 0.0, 0.0, 0.0, 0.0, 0.0, 1.6206612801550734E9, 2021-05-10 17:41:20.155
55.0, -297.61749267578125, 73.27960205078125, 116.7054443359375, -32.55208969116211, -0.03200000151991844, 0.01600000075995922, 1.055999994277954, 0.0, 0.0, 0.0, 0.0, 0.0, 1.6206612801550734E9, 2021-05-10 17:41:20.155
56.0, -262.2193603515625, 103.63262939453125, 144.305908203125, -17.15492057800293, -0.03200000151991844, 0.01600000075995922, 1.055999994277954, 0.0, 0.0, 0.0, 0.0, 0.0, 1.62066128017067E9, 2021-05-10 17:41:20.170
56.0, -257.39862060546875, 128.20750427246094, 156.0940704345703, -4.517799377441406, -0.03200000151991844, 0.01600000075995922, 1.055999994277954, 0.0, 0.0, 0.0, 0.0, 0.0, 1.62066128017067E9, 2021-05-10 17:41:20.170
57.0, -276.7638244628906, 102.28252410888672, 133.1572723388672, -25.88758659362793, -0.03200000151991844, 0.01600000075995922, 1.055999994277954, 0.0, 0.0, 0.0, 0.0, 0.0, 1.6206612801714208E9, 2021-05-10 17:41:20.171
57.0, -305.83404541015625, 79.69352722167969, 106.21128845214844, -46.083045959472656, -0.03200000151991844, 0.01600000075995922, 1.055999994277954, 0.0, 0.0, 0.0, 0.0, 0.0, 1.6206612801714208E9, 2021-05-10 17:41:20.171
58.0, -274.2468566894531, 109.16020202636719, 135.0309600830078, -20.195459365844727, -0.03200000151991844, 0.01600000075995922, 1.055999994277954, 0.0, 0.0, 0.0, 0.0, 0.0, 1.6206612801849613E9, 2021-05-10 17:41:20.184
58.0, -256.04852294921875, 131.3864288330078, 151.5688018798828, -2.7600462436676025, -0.03200000151991844, 0.01600000075995922, 1.055999994277954, 0.0, 0.0, 0.0, 0.0, 0.0, 1.6206612801849613E9, 2021-05-10 17:41:20.184
59.0, -284.85321044921875, 96.78487396240234, 121.15966796875, -34.02560806274414, -0.03200000151991844, 0.01600000075995922, 1.055999994277954, 0.0, 0.0, 0.0, 0.0, 0.0, 1.6206612802326255E9, 2021-05-10 17:41:20.232
59.0, -300.3363952636719, 77.43836975097656, 108.7170181274414, -43.794227600097656, -0.03200000151991844, 0.01600000075995922, 1.055999994277954, 0.0, 0.0, 0.0, 0.0, 0.0, 1.6206612802326255E9, 2021-05-10 17:41:20.232
60.0, -278.3757019042969, 107.6604995727539, 133.56117248535156, -22.297283172607422, -0.03200000151991844, 0.01600000075995922, 1.055999994277954, 0.0, 0.0, 0.0, 0.0, 0.0, 1.6206612802333207E9, 2021-05-10 17:41:20.233
60.0, -256.6805419921875, 133.2414093017578, 150.29722595214844, -11.956459999084473, -0.03200000151991844, 0.01600000075995922, 1.055999994277954, 0.0, 0.0, 0.0, 0.0, 0.0, 1.6206612802333207E9, 2021-05-10 17:41:20.233
61.0, -282.95709228515625, 106.84146118164062, 129.14434814453125, -29.792043685913086, -0.03200000151991844, 0.01600000075995922, 1.055999994277954, 0.0, 0.0, 0.0, 0.0, 0.0, 1.6206612802340865E9, 2021-05-10 17:41:20.234
61.0, -295.79241943359375, 82.2254409790039, 109.06483459472656, -40.1590461730957, -0.03200000151991844, 0.01600000075995922, 1.055999994277954, 0.0, 0.0, 0.0, 0.0, 0.0, 1.6206612802340865E9, 2021-05-10 17:41:20.234
62.0, -273.3717346191406, 105.97380828857422, 132.71969604492188, -16.51913833618164, -0.03200000151991844, 0.01600000075995922, 1.055999994277954, 0.0, 0.0, 0.0, 0.0, 0.0, 1.620661280234957E9, 2021-05-10 17:41:20.234
62.0, -255.7680206298828, 124.43395233154297, 155.69390869140625, -1.9671874046325684, -0.03200000151991844, 0.01600000075995922, 1.055999994277954, 0.0, 0.0, 0.0, 0.0, 0.0, 1.620661280234957E9, 2021-05-10 17:41:20.234
63.0, -277.2986145019531, 97.4804916381836, 131.0816192626953, -14.993258476257324, -0.03200000151991844, 0.01600000075995922, 1.055999994277954, 0.0, 0.0, 0.0, 0.0, 0.0, 1.6206612802455883E9, 2021-05-10 17:41:20.245
63.0, -287.26171875, 71.18899536132812, 109.86143493652344, -39.366188049316406, -0.03200000151991844, 0.01600000075995922, 1.055999994277954, 0.0, 0.0, 0.0, 0.0, 0.0, 1.6206612802455883E9, 2021-05-10 17:41:20.245
64.0, -272.3955993652344, 99.97126770019531, 137.88824462890625, -15.415867805480957, -0.03200000151991844, 0.01600000075995922, 1.055999994277954, 0.0, 0.0, 0.0, 0.0, 0.0, 1.6206612802462592E9, 2021-05-10 17:41:20.246
64.0, -261.733154296875, 113.00856018066406, 153.06849670410156, -3.09663724899292, -0.03200000151991844, 0.01600000075995922, 1.055999994277954, 0.0, 0.0, 0.0, 0.0, 0.0, 1.6206612802462592E9, 2021-05-10 17:41:20.246
65.0, -277.2537536621094, 92.61114501953125, 131.88943481445312, -19.795289993286133, -0.03200000151991844, 0.01600000075995922, 1.055999994277954, 0.0, 0.0, 0.0, 0.0, 0.0, 1.620661280260574E9, 2021-05-10 17:41:20.260
65.0, -291.3943176269531, 82.04592895507812, 114.07630157470703, -36.41166687011719, -0.03200000151991844, 0.01600000075995922, 1.055999994277954, 0.0, 0.0, 0.0, 0.0, 0.0, 1.620661280260574E9, 2021-05-10 17:41:20.260
66.0, -275.3426513671875, 88.39253234863281, 132.87677001953125, -20.853681564331055, -0.03200000151991844, 0.01600000075995922, 1.055999994277954, 0.0, 0.0, 0.0, 0.0, 0.0, 1.620661280261309E9, 2021-05-10 17:41:20.261
66.0, -265.8096618652344, 118.83531951904297, 150.5029296875, -2.098083972930908, -0.03200000151991844, 0.01600000075995922, 1.055999994277954, 0.0, 0.0, 0.0, 0.0, 0.0, 1.620661280261309E9, 2021-05-10 17:41:20.261
67.0, -283.1702575683594, 102.06935119628906, 130.94325256347656, -23.830642700195312, -0.03200000151991844, 0.01600000075995922, 1.055999994277954, 0.0, 0.0, 0.0, 0.0, 0.0, 1.6206612802749324E9, 2021-05-10 17:41:20.274
67.0, -305.46380615234375, 72.72235107421875, 106.0654296875, -40.38343811035156, -0.03200000151991844, 0.01600000075995922, 1.055999994277954, 0.0, 0.0, 0.0, 0.0, 0.0, 1.6206612802749324E9, 2021-05-10 17:41:20.274
68.0, -271.8757629394531, 93.09358978271484, 131.3359375, -23.47161293029785, -0.03200000151991844, 0.01600000075995922, 1.055999994277954, 0.0, 0.0, 0.0, 0.0, 0.0, 1.620661280307064E9, 2021-05-10 17:41:20.307
68.0, -259.85198974609375, 116.78211975097656, 148.49459838867188, -11.122462272644043, -0.03200000151991844, 0.01600000075995922, 1.055999994277954, 0.0, 0.0, 0.0, 0.0, 0.0, 1.620661280307064E9, 2021-05-10 17:41:20.307
69.0, -286.9700012207031, 101.77389526367188, 131.91188049316406, -28.067949295043945, -0.03200000151991844, 0.01600000075995922, 1.055999994277954, 0.0, 0.0, 0.0, 0.0, 0.0, 1.6206612803076556E9, 2021-05-10 17:41:20.307
69.0, -303.2647399902344, 82.22917938232422, 104.56199645996094, -48.715938568115234, -0.03200000151991844, 0.01600000075995922, 1.055999994277954, 0.0, 0.0, 0.0, 0.0, 0.0, 1.6206612803076556E9, 2021-05-10 17:41:20.307
70.0, -292.95758056640625, 107.79139709472656, 126.39179229736328, -29.881799697875977, -0.03200000151991844, 0.01600000075995922, 1.055999994277954, 0.0, 0.0, 0.0, 0.0, 0.0, 1.620661280308426E9, 2021-05-10 17:41:20.308
70.0, -268.9062805175781, 127.95319366455078, 147.34271240234375, -11.67222785949707, -0.03200000151991844, 0.01600000075995922, 1.055999994277954, 0.0, 0.0, 0.0, 0.0, 0.0, 1.620661280308426E9, 2021-05-10 17:41:20.308
71.0, -273.6409912109375, 104.23101043701172, 135.91357421875, -24.39162826538086, -0.03200000151991844, 0.03200000151991844, 1.055999994277954, 0.0, 0.0, 0.0, 0.0, 0.0, 1.6206612803091314E9, 2021-05-10 17:41:20.309
71.0, -294.9247741699219, 85.81574249267578, 117.6254653930664, -39.62424087524414, -0.03200000151991844, 0.03200000151991844, 1.055999994277954, 0.0, 0.0, 0.0, 0.0, 0.0, 1.6206612803091314E9, 2021-05-10 17:41:20.309
72.0, -274.41888427734375, 101.96089172363281, 141.46359252929688, -15.673920631408691, -0.04800000041723251, 0.03200000151991844, 1.055999994277954, 0.0, 0.0, 0.0, 0.0, 0.0, 1.6206612803356931E9, 2021-05-10 17:41:20.335
72.0, -258.95068359375, 120.72023010253906, 164.32559204101562, 3.15647554397583, -0.04800000041723251, 0.03200000151991844, 1.055999994277954, 0.0, 0.0, 0.0, 0.0, 0.0, 1.6206612803356931E9, 2021-05-10 17:41:20.335
73.0, -290.63885498046875, 103.28482055664062, 139.91152954101562, -16.190027236938477, -0.04800000041723251, 0.03200000151991844, 1.055999994277954, 0.0, 0.0, 0.0, 0.0, 0.0, 1.6206612803364017E9, 2021-05-10 17:41:20.336
73.0, -302.5728759765625, 82.06088256835938, 122.17317962646484, -33.18039321899414, -0.04800000041723251, 0.03200000151991844, 1.055999994277954, 0.0, 0.0, 0.0, 0.0, 0.0, 1.6206612803364017E9, 2021-05-10 17:41:20.336
74.0, -270.92584228515625, 97.73106384277344, 144.3470458984375, -9.480646133422852, -0.04800000041723251, 0.03200000151991844, 1.055999994277954, 0.0, 0.0, 0.0, 0.0, 0.0, 1.6206612803505857E9, 2021-05-10 17:41:20.350
74.0, -260.9627380371094, 116.17251586914062, 151.22097778320312, -1.3575836420059204, -0.04800000041723251, 0.03200000151991844, 1.055999994277954, 0.0, 0.0, 0.0, 0.0, 0.0, 1.6206612803505857E9, 2021-05-10 17:41:20.350
75.0, -272.8369140625, 101.16055297851562, 138.10890197753906, -11.6759672164917, -0.04800000041723251, 0.03200000151991844, 1.055999994277954, 0.0, 0.0, 0.0, 0.0, 0.0, 1.6206612803513112E9, 2021-05-10 17:41:20.351
75.0, -300.5009765625, 72.46430206298828, 111.46585083007812, -33.520721435546875, -0.04800000041723251, 0.03200000151991844, 1.055999994277954, 0.0, 0.0, 0.0, 0.0, 0.0, 1.6206612803513112E9, 2021-05-10 17:41:20.351
76.0, -270.3311767578125, 94.26417541503906, 136.25390625, -17.484031677246094, -0.04800000041723251, 0.03200000151991844, 1.055999994277954, 0.0, 0.0, 0.0, 0.0, 0.0, 1.620661280365003E9, 2021-05-10 17:41:20.365
76.0, -253.65496826171875, 116.51658630371094, 151.9727020263672, -0.5871642827987671, -0.04800000041723251, 0.03200000151991844, 1.055999994277954, 0.0, 0.0, 0.0, 0.0, 0.0, 1.620661280365003E9, 2021-05-10 17:41:20.365
77.0, -274.4151611328125, 86.54502868652344, 125.15388488769531, -19.26048469543457, -0.04800000041723251, 0.03200000151991844, 1.055999994277954, 0.0, 0.0, 0.0, 0.0, 0.0, 1.6206612803805673E9, 2021-05-10 17:41:20.380
77.0, -287.08221435546875, 66.05411529541016, 102.37041473388672, -41.13515853881836, -0.04800000041723251, 0.03200000151991844, 1.055999994277954, 0.0, 0.0, 0.0, 0.0, 0.0, 1.6206612803805673E9, 2021-05-10 17:41:20.380
78.0, -281.4910583496094, 88.44489288330078, 130.93576049804688, -17.652328491210938, -0.04800000041723251, 0.03200000151991844, 1.055999994277954, 0.0, 0.0, 0.0, 0.0, 0.0, 1.6206612803813066E9, 2021-05-10 17:41:20.381
78.0, -269.45977783203125, 124.2768783569336, 145.6223602294922, -1.903609037399292, -0.04800000041723251, 0.03200000151991844, 1.055999994277954, 0.0, 0.0, 0.0, 0.0, 0.0, 1.6206612803813066E9, 2021-05-10 17:41:20.381
79.0, -279.1797790527344, 102.23016357421875, 127.5025405883789, -21.089296340942383, -0.04800000041723251, 0.03200000151991844, 1.055999994277954, 0.0, 0.0, 0.0, 0.0, 0.0, 1.6206612803948913E9, 2021-05-10 17:41:20.394
79.0, -296.1177978515625, 86.39168548583984, 116.38381958007812, -34.680091857910156, -0.04800000041723251, 0.03200000151991844, 1.055999994277954, 0.0, 0.0, 0.0, 0.0, 0.0, 1.6206612803948913E9, 2021-05-10 17:41:20.394
80.0, -283.1702575683594, 105.50631713867188, 133.94638061523438, -21.369789123535156, -0.04800000041723251, 0.03200000151991844, 1.055999994277954, 0.0, 0.0, 0.0, 0.0, 0.0, 1.6206612804113536E9, 2021-05-10 17:41:20.411
80.0, -269.5757141113281, 122.54530334472656, 152.4962921142578, -5.101223468780518, -0.04800000041723251, 0.03200000151991844, 1.055999994277954, 0.0, 0.0, 0.0, 0.0, 0.0, 1.6206612804113536E9, 2021-05-10 17:41:20.411
81.0, -289.7076110839844, 92.45032501220703, 132.93661499023438, -19.907487869262695, -0.04800000041723251, 0.03200000151991844, 1.055999994277954, 0.0, 0.0, 0.0, 0.0, 0.0, 1.6206612804120076E9, 2021-05-10 17:41:20.412
81.0, -288.4061279296875, 92.01275634765625, 122.603271484375, -37.33916091918945, -0.04800000041723251, 0.03200000151991844, 1.055999994277954, 0.0, 0.0, 0.0, 0.0, 0.0, 1.6206612804120076E9, 2021-05-10 17:41:20.412
82.0, -284.18377685546875, 107.2378921508789, 141.5496063232422, -19.193166732788086, -0.04800000041723251, 0.03200000151991844, 1.055999994277954, 0.0, 0.0, 0.0, 0.0, 0.0, 1.620661280424991E9, 2021-05-10 17:41:20.424
82.0, -250.01605224609375, 124.7032241821289, 161.9731903076172, 1.522139310836792, -0.04800000041723251, 0.03200000151991844, 1.055999994277954, 0.0, 0.0, 0.0, 0.0, 0.0, 1.620661280424991E9, 2021-05-10 17:41:20.424
83.0, -271.3970642089844, 90.25126647949219, 140.89138793945312, -27.338668823242188, -0.04800000041723251, 0.03200000151991844, 1.055999994277954, 0.0, 0.0, 0.0, 0.0, 0.0, 1.620661280457065E9, 2021-05-10 17:41:20.457
83.0, -292.05999755859375, 78.1078109741211, 123.47467041015625, -36.81183624267578, -0.04800000041723251, 0.03200000151991844, 1.055999994277954, 0.0, 0.0, 0.0, 0.0, 0.0, 1.620661280457065E9, 2021-05-10 17:41:20.457
84.0, -268.97735595703125, 98.33319091796875, 135.0234832763672, -19.454959869384766, -0.04800000041723251, 0.03200000151991844, 1.055999994277954, 0.0, 0.0, 0.0, 0.0, 0.0, 1.6206612804576905E9, 2021-05-10 17:41:20.457
84.0, -258.2138977050781, 112.85147857666016, 154.08200073242188, -5.194721221923828, -0.04800000041723251, 0.03200000151991844, 1.055999994277954, 0.0, 0.0, 0.0, 0.0, 0.0, 1.6206612804576905E9, 2021-05-10 17:41:20.457
85.0, -276.41973876953125, 88.37383270263672, 128.13832092285156, -26.242877960205078, -0.04800000041723251, 0.03200000151991844, 1.055999994277954, 0.0, 0.0, 0.0, 0.0, 0.0, 1.6206612804584315E9, 2021-05-10 17:41:20.458
85.0, -293.5185546875, 71.3685073852539, 113.21986389160156, -40.2600212097168, -0.04800000041723251, 0.03200000151991844, 1.055999994277954, 0.0, 0.0, 0.0, 0.0, 0.0, 1.6206612804584315E9, 2021-05-10 17:41:20.458
86.0, -275.50347900390625, 96.50064086914062, 130.84226989746094, -20.03838348388672, -0.04800000041723251, 0.03200000151991844, 1.055999994277954, 0.0, 0.0, 0.0, 0.0, 0.0, 1.620661280459175E9, 2021-05-10 17:41:20.459
86.0, -260.5887451171875, 117.00650787353516, 148.5394744873047, -3.642662525177002, -0.04800000041723251, 0.03200000151991844, 1.055999994277954, 0.0, 0.0, 0.0, 0.0, 0.0, 1.620661280459175E9, 2021-05-10 17:41:20.459
87.0, -288.16302490234375, 99.54491424560547, 129.57444763183594, -17.689725875854492, -0.04800000041723251, 0.03200000151991844, 1.055999994277954, 0.0, 0.0, 0.0, 0.0, 0.0, 1.6206612804700632E9, 2021-05-10 17:41:20.470
87.0, -306.58203125, 68.69074249267578, 101.97024536132812, -35.054080963134766, -0.04800000041723251, 0.03200000151991844, 1.055999994277954, 0.0, 0.0, 0.0, 0.0, 0.0, 1.6206612804700632E9, 2021-05-10 17:41:20.470
88.0, -283.73126220703125, 101.84495544433594, 128.04856872558594, -19.440000534057617, -0.04800000041723251, 0.03200000151991844, 1.055999994277954, 0.0, 0.0, 0.0, 0.0, 0.0, 1.6206612804849925E9, 2021-05-10 17:41:20.484
88.0, -267.89276123046875, 129.0003662109375, 148.57687377929688, -6.19327449798584, -0.04800000041723251, 0.03200000151991844, 1.055999994277954, 0.0, 0.0, 0.0, 0.0, 0.0, 1.6206612804849925E9, 2021-05-10 17:41:20.484
89.0, -284.3446044921875, 94.873779296875, 130.7936553955078, -23.179899215698242, -0.04800000041723251, 0.03200000151991844, 1.055999994277954, 0.0, 0.0, 0.0, 0.0, 0.0, 1.6206612805006795E9, 2021-05-10 17:41:20.500
89.0, -298.189697265625, 81.75794982910156, 115.13468933105469, -42.511444091796875, -0.04800000041723251, 0.03200000151991844, 1.055999994277954, 0.0, 0.0, 0.0, 0.0, 0.0, 1.6206612805006795E9, 2021-05-10 17:41:20.500
90.0, -282.1081237792969, 101.14185333251953, 138.2397918701172, -21.78865623474121, -0.04800000041723251, 0.03200000151991844, 1.055999994277954, 0.0, 0.0, 0.0, 0.0, 0.0, 1.6206612805014465E9, 2021-05-10 17:41:20.501
90.0, -262.2791748046875, 117.5338363647461, 160.99334716796875, -11.556290626525879, -0.04800000041723251, 0.03200000151991844, 1.055999994277954, 0.0, 0.0, 0.0, 0.0, 0.0, 1.6206612805014465E9, 2021-05-10 17:41:20.501
91.0, -292.3479919433594, 108.46831512451172, 137.11033630371094, -27.574281692504883, -0.04800000041723251, 0.03200000151991844, 1.055999994277954, 0.0, 0.0, 0.0, 0.0, 0.0, 1.6206612805150125E9, 2021-05-10 17:41:20.515
91.0, -302.1278076171875, 84.67881774902344, 121.0960922241211, -42.33940887451172, -0.04800000041723251, 0.03200000151991844, 1.055999994277954, 0.0, 0.0, 0.0, 0.0, 0.0, 1.6206612805150125E9, 2021-05-10 17:41:20.515
92.0, -288.869873046875, 114.17540740966797, 146.4713134765625, -19.559677124023438, -0.04800000041723251, 0.03200000151991844, 1.055999994277954, 0.0, 0.0, 0.0, 0.0, 0.0, 1.6206612805305784E9, 2021-05-10 17:41:20.530
92.0, -266.23974609375, 125.5895767211914, 162.63516235351562, -7.33768367767334, -0.04800000041723251, 0.03200000151991844, 1.055999994277954, 0.0, 0.0, 0.0, 0.0, 0.0, 1.6206612805305784E9, 2021-05-10 17:41:20.530
93.0, -293.5484924316406, 101.58689880371094, 131.43316650390625, -29.990257263183594, -0.04800000041723251, 0.03200000151991844, 1.055999994277954, 0.0, 0.0, 0.0, 0.0, 0.0, 1.620661280531319E9, 2021-05-10 17:41:20.531
93.0, -298.6459655761719, 88.31399536132812, 120.53510284423828, -37.94876480102539, -0.04800000041723251, 0.03200000151991844, 1.055999994277954, 0.0, 0.0, 0.0, 0.0, 0.0, 1.620661280531319E9, 2021-05-10 17:41:20.531
94.0, -278.66741943359375, 98.63238525390625, 138.1163787841797, -21.16783332824707, -0.04800000041723251, 0.03200000151991844, 1.055999994277954, 0.0, 0.0, 0.0, 0.0, 0.0, 1.62066128054487E9, 2021-05-10 17:41:20.544
94.0, -261.70697021484375, 111.0899887084961, 153.4761505126953, -6.432628154754639, -0.04800000041723251, 0.03200000151991844, 1.055999994277954, 0.0, 0.0, 0.0, 0.0, 0.0, 1.62066128054487E9, 2021-05-10 17:41:20.544
95.0, -281.7154541015625, 95.47964477539062, 126.92659759521484, -25.532297134399414, -0.04800000041723251, 0.03200000151991844, 1.055999994277954, 0.0, 0.0, 0.0, 0.0, 0.0, 1.620661280560642E9, 2021-05-10 17:41:20.560
95.0, -305.0748596191406, 86.86665344238281, 115.0748519897461, -31.8377685546875, -0.04800000041723251, 0.03200000151991844, 1.055999994277954, 0.0, 0.0, 0.0, 0.0, 0.0, 1.620661280560642E9, 2021-05-10 17:41:20.560
96.0, -290.3059997558594, 109.11157989501953, 134.95242309570312, -8.770065307617188, -0.04800000041723251, 0.03200000151991844, 1.055999994277954, 0.0, 0.0, 0.0, 0.0, 0.0, 1.6206612805613024E9, 2021-05-10 17:41:20.561
96.0, -268.50238037109375, 120.64543151855469, 145.25958251953125, 1.5445786714553833, -0.04800000041723251, 0.03200000151991844, 1.055999994277954, 0.0, 0.0, 0.0, 0.0, 0.0, 1.6206612805613024E9, 2021-05-10 17:41:20.561
97.0, -288.97833251953125, 110.36444854736328, 124.83972930908203, -13.444940567016602, -0.04800000041723251, 0.03200000151991844, 1.055999994277954, 0.0, 0.0, 0.0, 0.0, 0.0, 1.6206612805749104E9, 2021-05-10 17:41:20.574
97.0, -303.7397155761719, 90.73371124267578, 105.44461059570312, -32.82884216308594, -0.04800000041723251, 0.03200000151991844, 1.055999994277954, 0.0, 0.0, 0.0, 0.0, 0.0, 1.6206612805749104E9, 2021-05-10 17:41:20.574
98.0, -281.40130615234375, 107.86619567871094, 136.8485565185547, -11.432873725891113, -0.04800000041723251, 0.03200000151991844, 1.055999994277954, 0.0, 0.0, 0.0, 0.0, 0.0, 1.6206612805906737E9, 2021-05-10 17:41:20.590
98.0, -263.1019592285156, 118.57352447509766, 149.96812438964844, -2.7637860774993896, -0.04800000041723251, 0.03200000151991844, 1.055999994277954, 0.0, 0.0, 0.0, 0.0, 0.0, 1.6206612805906737E9, 2021-05-10 17:41:20.590
99.0, -272.2834167480469, 109.6688232421875, 133.74069213867188, -21.0219783782959, -0.04800000041723251, 0.03200000151991844, 1.055999994277954, 0.0, 0.0, 0.0, 0.0, 0.0, 1.6206612805913968E9, 2021-05-10 17:41:20.591
99.0, -288.7015686035156, 77.43463134765625, 115.81535339355469, -40.779869079589844, -0.04800000041723251, 0.03200000151991844, 1.055999994277954, 0.0, 0.0, 0.0, 0.0, 0.0, 1.6206612805913968E9, 2021-05-10 17:41:20.591
100.0, -267.3841552734375, 105.50631713867188, 137.08042907714844, -22.686233520507812, -0.04800000041723251, 0.03200000151991844, 1.055999994277954, 0.0, 0.0, 0.0, 0.0, 0.0, 1.620661280605586E9, 2021-05-10 17:41:20.605
100.0, -261.5461730957031, 125.57836151123047, 157.6573486328125, -17.412973403930664, -0.04800000041723251, 0.03200000151991844, 1.055999994277954, 0.0, 0.0, 0.0, 0.0, 0.0, 1.620661280605586E9, 2021-05-10 17:41:20.605
0.0, -267.40283203125, 105.43712615966797, 143.56167602539062, -27.172243118286133, -0.04800000041723251, 0.03200000151991844, 1.055999994277954, 0.0, 0.0, 0.0, 0.0, 0.0, 1.6206612806062894E9, 2021-05-10 17:41:20.606
1.0, -282.62799072265625, 83.10618591308594, 129.5071258544922, -38.21616744995117, -0.04800000041723251, 0.01600000075995922, 1.055999994277954, 0.0, 0.0, 0.0, 0.0, 0.0, 1.620661280619949E9, 2021-05-10 17:41:20.619
1.0, -274.5498046875, 116.7241439819336, 150.6712188720703, -13.68990421295166, -0.04800000041723251, 0.01600000075995922, 1.055999994277954, 0.0, 0.0, 0.0, 0.0, 0.0, 1.620661280619949E9, 2021-05-10 17:41:20.619
2.0, -265.2598876953125, 122.59578704833984, 162.82589721679688, -4.579507350921631, -0.03200000151991844, 0.01600000075995922, 1.055999994277954, 0.0, 0.0, 0.0, 0.0, 0.0, 1.6206612806516106E9, 2021-05-10 17:41:20.651
2.0, -273.59613037109375, 108.60482788085938, 146.172119140625, -17.37370491027832, -0.03200000151991844, 0.01600000075995922, 1.055999994277954, 0.0, 0.0, 0.0, 0.0, 0.0, 1.6206612806516106E9, 2021-05-10 17:41:20.651
3.0, -292.8902587890625, 85.89989471435547, 123.20913696289062, -31.207595825195312, -0.03200000151991844, 0.01600000075995922, 1.055999994277954, 0.0, 0.0, 0.0, 0.0, 0.0, 1.6206612806523669E9, 2021-05-10 17:41:20.652
3.0, -269.69915771484375, 109.58841705322266, 136.2501678466797, -14.389265060424805, -0.03200000151991844, 0.01600000075995922, 1.055999994277954, 0.0, 0.0, 0.0, 0.0, 0.0, 1.6206612806523669E9, 2021-05-10 17:41:20.652
4.0, -258.1952209472656, 125.56526947021484, 151.28456115722656, 2.9302115440368652, -0.03200000151991844, 0.01600000075995922, 1.055999994277954, 0.0, 0.0, 0.0, 0.0, 0.0, 1.620661280666644E9, 2021-05-10 17:41:20.666
4.0, -276.22900390625, 106.84333038330078, 132.42799377441406, -11.348726272583008, -0.03200000151991844, 0.01600000075995922, 1.055999994277954, 0.0, 0.0, 0.0, 0.0, 0.0, 1.620661280666644E9, 2021-05-10 17:41:20.666
5.0, -300.9721984863281, 86.90966796875, 112.28114318847656, -27.08248519897461, -0.03200000151991844, 0.01600000075995922, 1.055999994277954, 0.0, 0.0, 0.0, 0.0, 0.0, 1.620661280667339E9, 2021-05-10 17:41:20.667
5.0, -281.0834045410156, 105.67648315429688, 131.23495483398438, -10.959776878356934, -0.03200000151991844, 0.01600000075995922, 1.055999994277954, 0.0, 0.0, 0.0, 0.0, 0.0, 1.620661280667339E9, 2021-05-10 17:41:20.667
6.0, -272.1600036621094, 125.43437194824219, 149.7811279296875, 6.370919704437256, -0.03200000151991844, 0.01600000075995922, 1.055999994277954, 0.0, 0.0, 0.0, 0.0, 0.0, 1.6206612806805422E9, 2021-05-10 17:41:20.680
6.0, -284.31842041015625, 100.14517211914062, 127.72319030761719, -13.962916374206543, -0.03200000151991844, 0.01600000075995922, 1.055999994277954, 0.0, 0.0, 0.0, 0.0, 0.0, 1.6206612806805422E9, 2021-05-10 17:41:20.680
7.0, -297.004150390625, 81.38957214355469, 112.5279769897461, -28.627063751220703, -0.03200000151991844, 0.01600000075995922, 1.055999994277954, 0.0, 0.0, 0.0, 0.0, 0.0, 1.620661280681262E9, 2021-05-10 17:41:20.681
7.0, -270.6864929199219, 96.68950653076172, 135.89862060546875, -10.832620620727539, -0.03200000151991844, 0.01600000075995922, 1.055999994277954, 0.0, 0.0, 0.0, 0.0, 0.0, 1.620661280681262E9, 2021-05-10 17:41:20.681
8.0, -255.969970703125, 108.54498291015625, 153.09841918945312, -3.3976991176605225, -0.03200000151991844, 0.01600000075995922, 1.055999994277954, 0.0, 0.0, 0.0, 0.0, 0.0, 1.6206612806955545E9, 2021-05-10 17:41:20.695
8.0, -272.60504150390625, 104.7789077758789, 133.85662841796875, -22.710542678833008, -0.03200000151991844, 0.01600000075995922, 1.055999994277954, 0.0, 0.0, 0.0, 0.0, 0.0, 1.6206612806955545E9, 2021-05-10 17:41:20.695
9.0, -289.9768981933594, 78.90628051757812, 115.96495056152344, -37.72249984741211, -0.03200000151991844, 0.01600000075995922, 1.055999994277954, 0.0, 0.0, 0.0, 0.0, 0.0, 1.6206612806963146E9, 2021-05-10 17:41:20.696
9.0, -263.3899230957031, 111.44715118408203, 148.61801147460938, -16.853858947753906, -0.03200000151991844, 0.01600000075995922, 1.055999994277954, 0.0, 0.0, 0.0, 0.0, 0.0, 1.6206612806963146E9, 2021-05-10 17:41:20.696
10.0, -259.52288818359375, 117.7040023803711, 151.2696075439453, -17.164270401000977, -0.03200000151991844, 0.01600000075995922, 1.055999994277954, 0.0, 0.0, 0.0, 0.0, 0.0, 1.6206612807099166E9, 2021-05-10 17:41:20.709
10.0, -279.2732849121094, 107.54643249511719, 143.88330078125, -24.58049201965332, -0.03200000151991844, 0.01600000075995922, 1.055999994277954, 0.0, 0.0, 0.0, 0.0, 0.0, 1.6206612807099166E9, 2021-05-10 17:41:20.709
11.0, -299.2630615234375, 84.96865844726562, 118.953125, -33.1112060546875, -0.03200000151991844, 0.01600000075995922, 1.055999994277954, 0.0, 0.0, 0.0, 0.0, 0.0, 1.6206612807263124E9, 2021-05-10 17:41:20.726
11.0, -270.5668029785156, 111.11055755615234, 148.41232299804688, -15.982462882995605, -0.03200000151991844, 0.01600000075995922, 1.055999994277954, 0.0, 0.0, 0.0, 0.0, 0.0, 1.6206612807263124E9, 2021-05-10 17:41:20.726
12.0, -268.3453063964844, 124.08052825927734, 147.4100341796875, -4.313974380493164, -0.04800000041723251, 0.01600000075995922, 1.055999994277954, 0.0, 0.0, 0.0, 0.0, 0.0, 1.6206612807269907E9, 2021-05-10 17:41:20.726
12.0, -279.9651794433594, 108.6310043334961, 137.6601104736328, -15.33545970916748, -0.04800000041723251, 0.01600000075995922, 1.055999994277954, 0.0, 0.0, 0.0, 0.0, 0.0, 1.6206612807269907E9, 2021-05-10 17:41:20.726
13.0, -304.4316101074219, 88.70108032226562, 111.34991455078125, -31.013120651245117, -0.04800000041723251, 0.01600000075995922, 1.055999994277954, 0.0, 0.0, 0.0, 0.0, 0.0, 1.6206612807398565E9, 2021-05-10 17:41:20.739
13.0, -294.2964782714844, 111.51446533203125, 128.59832763671875, -14.579999923706055, -0.04800000041723251, 0.01600000075995922, 1.055999994277954, 0.0, 0.0, 0.0, 0.0, 0.0, 1.6206612807398565E9, 2021-05-10 17:41:20.739
14.0, -260.2596435546875, 135.7041473388672, 151.16488647460938, 5.7388763427734375, -0.04800000041723251, 0.01600000075995922, 1.055999994277954, 0.0, 0.0, 0.0, 0.0, 0.0, 1.6206612807563243E9, 2021-05-10 17:41:20.756
14.0, -269.7926330566406, 106.12152862548828, 134.2268829345703, -24.82732582092285, -0.04800000041723251, 0.01600000075995922, 1.055999994277954, 0.0, 0.0, 0.0, 0.0, 0.0, 1.6206612807563243E9, 2021-05-10 17:41:20.756
15.0, -304.65972900390625, 93.06179809570312, 107.45667266845703, -28.30543327331543, -0.04800000041723251, 0.01600000075995922, 1.055999994277954, 0.0, 0.0, 0.0, 0.0, 0.0, 1.620661280757022E9, 2021-05-10 17:41:20.757
15.0, -283.1478271484375, 109.68939208984375, 131.7174072265625, -10.858799934387207, -0.04800000041723251, 0.01600000075995922, 1.055999994277954, 0.0, 0.0, 0.0, 0.0, 0.0, 1.620661280757022E9, 2021-05-10 17:41:20.757
16.0, -262.3689270019531, 128.9611053466797, 149.81478881835938, 4.108280181884766, -0.04800000041723251, 0.01600000075995922, 1.055999994277954, 0.0, 0.0, 0.0, 0.0, 0.0, 1.6206612807862551E9, 2021-05-10 17:41:20.786
16.0, -280.6495666503906, 106.99292755126953, 129.2490692138672, -15.518714904785156, -0.04800000041723251, 0.01600000075995922, 1.055999994277954, 0.0, 0.0, 0.0, 0.0, 0.0, 1.6206612807862551E9, 2021-05-10 17:41:20.786
17.0, -298.2644958496094, 82.21234893798828, 114.32687377929688, -33.077545166015625, -0.04800000041723251, 0.01600000075995922, 1.055999994277954, 0.0, 0.0, 0.0, 0.0, 0.0, 1.6206612807870405E9, 2021-05-10 17:41:20.787
17.0, -275.8400573730469, 100.88567352294922, 138.5838623046875, -19.034221649169922, -0.04800000041723251, 0.01600000075995922, 1.055999994277954, 0.0, 0.0, 0.0, 0.0, 0.0, 1.6206612807870405E9, 2021-05-10 17:41:20.787
18.0, -261.6134948730469, 127.06871032714844, 150.15512084960938, -7.754682540893555, -0.04800000041723251, 0.01600000075995922, 1.055999994277954, 0.0, 0.0, 0.0, 0.0, 0.0, 1.6206612807878556E9, 2021-05-10 17:41:20.787
18.0, -269.86370849609375, 108.72824096679688, 136.60919189453125, -23.772674560546875, -0.04800000041723251, 0.01600000075995922, 1.055999994277954, 0.0, 0.0, 0.0, 0.0, 0.0, 1.6206612807878556E9, 2021-05-10 17:41:20.787
19.0, -292.0076599121094, 85.8662338256836, 116.78398895263672, -34.58472442626953, -0.04800000041723251, 0.01600000075995922, 1.055999994277954, 0.0, 0.0, 0.0, 0.0, 0.0, 1.6206612807998812E9, 2021-05-10 17:41:20.799
19.0, -269.68792724609375, 110.42989349365234, 137.51051330566406, -19.625125885009766, -0.04800000041723251, 0.01600000075995922, 1.055999994277954, 0.0, 0.0, 0.0, 0.0, 0.0, 1.6206612807998812E9, 2021-05-10 17:41:20.799
20.0, -267.27569580078125, 125.18379974365234, 149.93820190429688, -7.616306304931641, -0.04800000041723251, 0.01600000075995922, 1.055999994277954, 0.0, 0.0, 0.0, 0.0, 0.0, 1.620661280815582E9, 2021-05-10 17:41:20.815
20.0, -269.2466125488281, 98.28269958496094, 137.51425170898438, -15.099845886230469, -0.04800000041723251, 0.01600000075995922, 1.055999994277954, 0.0, 0.0, 0.0, 0.0, 0.0, 1.620661280815582E9, 2021-05-10 17:41:20.815
21.0, -302.7374267578125, 74.09677124023438, 119.02792358398438, -35.990928649902344, -0.04800000041723251, 0.01600000075995922, 1.055999994277954, 0.0, 0.0, 0.0, 0.0, 0.0, 1.62066128081633E9, 2021-05-10 17:41:20.816
21.0, -284.456787109375, 103.15579223632812, 138.8045196533203, -15.743108749389648, -0.04800000041723251, 0.01600000075995922, 1.055999994277954, 0.0, 0.0, 0.0, 0.0, 0.0, 1.62066128081633E9, 2021-05-10 17:41:20.816
22.0, -256.5197448730469, 129.10694885253906, 151.42294311523438, -4.0783610343933105, -0.04800000041723251, 0.01600000075995922, 1.055999994277954, 0.0, 0.0, 0.0, 0.0, 0.0, 1.620661280830029E9, 2021-05-10 17:41:20.830
22.0, -280.7879638671875, 95.85550689697266, 127.78303527832031, -23.30892562866211, -0.04800000041723251, 0.01600000075995922, 1.055999994277954, 0.0, 0.0, 0.0, 0.0, 0.0, 1.620661280830029E9, 2021-05-10 17:41:20.830
23.0, -297.7708435058594, 85.125732421875, 110.77022552490234, -38.65373611450195, -0.04800000041723251, 0.01600000075995922, 1.055999994277954, 0.0, 0.0, 0.0, 0.0, 0.0, 1.6206612808455944E9, 2021-05-10 17:41:20.845
23.0, -282.66912841796875, 99.61410522460938, 132.33822631835938, -21.943862915039062, -0.04800000041723251, 0.01600000075995922, 1.055999994277954, 0.0, 0.0, 0.0, 0.0, 0.0, 1.6206612808455944E9, 2021-05-10 17:41:20.845
24.0, -263.928466796875, 123.84491729736328, 155.49569702148438, -1.8232011795043945, -0.04800000041723251, 0.01600000075995922, 1.055999994277954, 0.0, 0.0, 0.0, 0.0, 0.0, 1.6206612808463433E9, 2021-05-10 17:41:20.846
24.0, -275.0210266113281, 95.94900512695312, 131.0928497314453, -19.842039108276367, -0.04800000041723251, 0.01600000075995922, 1.055999994277954, 0.0, 0.0, 0.0, 0.0, 0.0, 1.6206612808463433E9, 2021-05-10 17:41:20.846
25.0, -294.8387451171875, 89.81182861328125, 124.55549621582031, -31.15149688720703, -0.04800000041723251, 0.01600000075995922, 1.055999994277954, 0.0, 0.0, 0.0, 0.0, 0.0, 1.6206612808598616E9, 2021-05-10 17:41:20.859
25.0, -292.40032958984375, 89.96890258789062, 126.59748077392578, -26.858091354370117, -0.04800000041723251, 0.01600000075995922, 1.055999994277954, 0.0, 0.0, 0.0, 0.0, 0.0, 1.6206612808598616E9, 2021-05-10 17:41:20.859
26.0, -274.69940185546875, 110.96844482421875, 140.68942260742188, -5.727656841278076, -0.04800000041723251, 0.01600000075995922, 1.055999994277954, 0.0, 0.0, 0.0, 0.0, 0.0, 1.6206612808762724E9, 2021-05-10 17:41:20.876
26.0, -281.9548034667969, 99.84597778320312, 124.56671905517578, -23.955928802490234, -0.04800000041723251, 0.01600000075995922, 1.055999994277954, 0.0, 0.0, 0.0, 0.0, 0.0, 1.6206612808762724E9, 2021-05-10 17:41:20.876
27.0, -294.82379150390625, 79.32514953613281, 109.50988006591797, -35.762794494628906, -0.04800000041723251, 0.01600000075995922, 1.055999994277954, 0.0, 0.0, 0.0, 0.0, 0.0, 1.6206612808769884E9, 2021-05-10 17:41:20.876
27.0, -282.00341796875, 101.86552429199219, 133.31060791015625, -28.406410217285156, -0.04800000041723251, 0.01600000075995922, 1.055999994277954, 0.0, 0.0, 0.0, 0.0, 0.0, 1.6206612808769884E9, 2021-05-10 17:41:20.876
28.0, -264.0668640136719, 126.93033599853516, 145.14364624023438, -10.769042015075684, -0.04800000041723251, 0.01600000075995922, 1.055999994277954, 0.0, 0.0, 0.0, 0.0, 0.0, 1.6206612808898776E9, 2021-05-10 17:41:20.889
28.0, -275.8587646484375, 103.42132568359375, 131.2910614013672, -23.002254486083984, -0.04800000041723251, 0.01600000075995922, 1.055999994277954, 0.0, 0.0, 0.0, 0.0, 0.0, 1.6206612808898776E9, 2021-05-10 17:41:20.889
29.0, -298.46270751953125, 73.87985229492188, 106.56283569335938, -44.64879608154297, -0.04800000041723251, 0.01600000075995922, 1.055999994277954, 0.0, 0.0, 0.0, 0.0, 0.0, 1.6206612809056592E9, 2021-05-10 17:41:20.905
29.0, -281.8351135253906, 108.28319549560547, 132.4242401123047, -23.5221004486084, -0.04800000041723251, 0.01600000075995922, 1.055999994277954, 0.0, 0.0, 0.0, 0.0, 0.0, 1.6206612809056592E9, 2021-05-10 17:41:20.905
30.0, -264.59417724609375, 123.35872650146484, 146.9313201904297, -6.269942283630371, -0.04800000041723251, 0.01600000075995922, 1.055999994277954, 0.0, 0.0, 0.0, 0.0, 0.0, 1.6206612809064467E9, 2021-05-10 17:41:20.906
30.0, -290.09283447265625, 96.90267944335938, 120.38176727294922, -22.57964515686035, -0.04800000041723251, 0.01600000075995922, 1.055999994277954, 0.0, 0.0, 0.0, 0.0, 0.0, 1.6206612809064467E9, 2021-05-10 17:41:20.906
31.0, -299.4238586425781, 89.75572967529297, 112.38960266113281, -34.86147689819336, -0.04800000041723251, 0.01600000075995922, 1.055999994277954, 0.0, 0.0, 0.0, 0.0, 0.0, 1.62066128093639E9, 2021-05-10 17:41:20.936
31.0, -282.085693359375, 105.42591094970703, 135.51715087890625, -18.484455108642578, -0.04800000041723251, 0.01600000075995922, 1.055999994277954, 0.0, 0.0, 0.0, 0.0, 0.0, 1.62066128093639E9, 2021-05-10 17:41:20.936
32.0, -267.507568359375, 128.7890625, 151.83058166503906, 0.6451327204704285, -0.03200000151991844, 0.01600000075995922, 1.055999994277954, 0.0, 0.0, 0.0, 0.0, 0.0, 1.620661280936986E9, 2021-05-10 17:41:20.936
32.0, -285.5525817871094, 112.31106567382812, 133.43775939941406, -17.2540283203125, -0.03200000151991844, 0.01600000075995922, 1.055999994277954, 0.0, 0.0, 0.0, 0.0, 0.0, 1.620661280936986E9, 2021-05-10 17:41:20.936
33.0, -293.80279541015625, 93.9182357788086, 118.0069351196289, -36.06572341918945, -0.03200000151991844, 0.01600000075995922, 1.055999994277954, 0.0, 0.0, 0.0, 0.0, 0.0, 1.6206612809377885E9, 2021-05-10 17:41:20.937
33.0, -281.4798278808594, 103.08473205566406, 139.6085968017578, -22.224355697631836, -0.03200000151991844, 0.01600000075995922, 1.055999994277954, 0.0, 0.0, 0.0, 0.0, 0.0, 1.6206612809377885E9, 2021-05-10 17:41:20.937
34.0, -257.8847961425781, 119.31964111328125, 156.80465698242188, -11.378645896911621, -0.03200000151991844, 0.01600000075995922, 1.055999994277954, 0.0, 0.0, 0.0, 0.0, 0.0, 1.6206612809662805E9, 2021-05-10 17:41:20.966
34.0, -270.27508544921875, 98.89978790283203, 137.00189208984375, -23.765193939208984, -0.03200000151991844, 0.01600000075995922, 1.055999994277954, 0.0, 0.0, 0.0, 0.0, 0.0, 1.6206612809662805E9, 2021-05-10 17:41:20.966
35.0, -308.2537841796875, 85.69046020507812, 114.71955871582031, -41.87004852294922, -0.03200000151991844, 0.01600000075995922, 1.055999994277954, 0.0, 0.0, 0.0, 0.0, 0.0, 1.6206612809670744E9, 2021-05-10 17:41:20.967
35.0, -285.8667297363281, 105.478271484375, 128.35150146484375, -23.955928802490234, -0.03200000151991844, 0.01600000075995922, 1.055999994277954, 0.0, 0.0, 0.0, 0.0, 0.0, 1.6206612809670744E9, 2021-05-10 17:41:20.967
36.0, -269.3326416015625, 118.29490661621094, 148.06451416015625, -6.756129264831543, -0.03200000151991844, 0.01600000075995922, 1.055999994277954, 0.0, 0.0, 0.0, 0.0, 0.0, 1.62066128096797E9, 2021-05-10 17:41:20.967
36.0, -287.41131591796875, 105.01451873779297, 129.11817932128906, -23.847471237182617, -0.03200000151991844, 0.01600000075995922, 1.055999994277954, 0.0, 0.0, 0.0, 0.0, 0.0, 1.62066128096797E9, 2021-05-10 17:41:20.967
37.0, -301.9819641113281, 85.1070327758789, 112.33724212646484, -35.67303466796875, -0.03200000151991844, 0.01600000075995922, 1.055999994277954, 0.0, 0.0, 0.0, 0.0, 0.0, 1.6206612809798503E9, 2021-05-10 17:41:20.979
37.0, -276.43096923828125, 88.35700988769531, 127.69327545166016, -17.975830078125, -0.03200000151991844, 0.01600000075995922, 1.055999994277954, 0.0, 0.0, 0.0, 0.0, 0.0, 1.6206612809798503E9, 2021-05-10 17:41:20.979
38.0, -260.2820739746094, 118.63150024414062, 150.6226043701172, -6.797268390655518, -0.03200000151991844, 0.01600000075995922, 1.055999994277954, 0.0, 0.0, 0.0, 0.0, 0.0, 1.6206612809955723E9, 2021-05-10 17:41:20.995
38.0, -280.054931640625, 112.82343292236328, 127.19213104248047, -26.442962646484375, -0.03200000151991844, 0.01600000075995922, 1.055999994277954, 0.0, 0.0, 0.0, 0.0, 0.0, 1.6206612809955723E9, 2021-05-10 17:41:20.995
39.0, -287.5908203125, 81.46063232421875, 113.5302734375, -33.72080612182617, -0.03200000151991844, 0.01600000075995922, 1.055999994277954, 0.0, 0.0, 0.0, 0.0, 0.0, 1.620661280996277E9, 2021-05-10 17:41:20.996
39.0, -294.4460754394531, 94.37450408935547, 125.31843566894531, -25.863277435302734, -0.03200000151991844, 0.01600000075995922, 1.055999994277954, 0.0, 0.0, 0.0, 0.0, 0.0, 1.620661280996277E9, 2021-05-10 17:41:20.996
40.0, -263.3712463378906, 122.61823272705078, 145.89163208007812, -11.296367645263672, -0.03200000151991844, 0.01600000075995922, 1.055999994277954, 0.0, 0.0, 0.0, 0.0, 0.0, 1.6206612810099328E9, 2021-05-10 17:41:21.009
40.0, -272.8818054199219, 105.36607360839844, 129.78013610839844, -24.15040397644043, -0.03200000151991844, 0.01600000075995922, 1.055999994277954, 0.0, 0.0, 0.0, 0.0, 0.0, 1.6206612810099328E9, 2021-05-10 17:41:21.009
41.0, -311.0699157714844, 80.9071273803711, 104.7377700805664, -47.150787353515625, -0.03200000151991844, 0.03200000151991844, 1.055999994277954, 0.0, 0.0, 0.0, 0.0, 0.0, 1.6206612810255787E9, 2021-05-10 17:41:21.025
41.0, -287.6805725097656, 111.16291809082031, 133.56866455078125, -21.93264389038086, -0.03200000151991844, 0.03200000151991844, 1.055999994277954, 0.0, 0.0, 0.0, 0.0, 0.0, 1.6206612810255787E9, 2021-05-10 17:41:21.025
42.0, -269.1493835449219, 124.4283447265625, 144.82949829101562, -12.612812995910645, -0.04800000041723251, 0.03200000151991844, 1.055999994277954, 0.0, 0.0, 0.0, 0.0, 0.0, 1.6206612810262573E9, 2021-05-10 17:41:21.026
42.0, -271.322265625, 102.47138977050781, 130.68145751953125, -18.555513381958008, -0.04800000041723251, 0.03200000151991844, 1.055999994277954, 0.0, 0.0, 0.0, 0.0, 0.0, 1.6206612810262573E9, 2021-05-10 17:41:21.026
43.0, -306.55584716796875, 88.84693145751953, 115.57225799560547, -36.54443359375, -0.04800000041723251, 0.03200000151991844, 1.055999994277954, 0.0, 0.0, 0.0, 0.0, 0.0, 1.6206612810400145E9, 2021-05-10 17:41:21.040
43.0, -276.4346923828125, 112.98424530029297, 136.19406127929688, -28.33161163330078, -0.04800000041723251, 0.03200000151991844, 1.055999994277954, 0.0, 0.0, 0.0, 0.0, 0.0, 1.6206612810400145E9, 2021-05-10 17:41:21.040
44.0, -254.94149780273438, 117.52074432373047, 152.96751403808594, -7.418091773986816, -0.04800000041723251, 0.03200000151991844, 1.055999994277954, 0.0, 0.0, 0.0, 0.0, 0.0, 1.6206612810555801E9, 2021-05-10 17:41:21.055
44.0, -275.4361572265625, 101.7271499633789, 135.22543334960938, -16.401330947875977, -0.04800000041723251, 0.03200000151991844, 1.055999994277954, 0.0, 0.0, 0.0, 0.0, 0.0, 1.6206612810555801E9, 2021-05-10 17:41:21.055
45.0, -307.9508361816406, 84.25433349609375, 114.0127182006836, -38.11518859863281, -0.04800000041723251, 0.03200000151991844, 1.055999994277954, 0.0, 0.0, 0.0, 0.0, 0.0, 1.6206612810562603E9, 2021-05-10 17:41:21.056
45.0, -292.0936584472656, 96.61844635009766, 126.36186981201172, -21.468894958496094, -0.04800000041723251, 0.03200000151991844, 1.055999994277954, 0.0, 0.0, 0.0, 0.0, 0.0, 1.6206612810562603E9, 2021-05-10 17:41:21.056
46.0, -265.77972412109375, 123.93467712402344, 152.15969848632812, 5.0582146644592285, -0.04800000041723251, 0.03200000151991844, 1.055999994277954, 0.0, 0.0, 0.0, 0.0, 0.0, 1.6206612810699923E9, 2021-05-10 17:41:21.069
46.0, -277.0779724121094, 101.73836517333984, 124.94818878173828, -20.63115882873535, -0.04800000041723251, 0.03200000151991844, 1.055999994277954, 0.0, 0.0, 0.0, 0.0, 0.0, 1.6206612810699923E9, 2021-05-10 17:41:21.069
47.0, -302.6962890625, 83.22960662841797, 106.01307678222656, -34.693180084228516, -0.04800000041723251, 0.03200000151991844, 1.055999994277954, 0.0, 0.0, 0.0, 0.0, 0.0, 1.6206612811019187E9, 2021-05-10 17:41:21.101
47.0, -287.2953796386719, 103.66815948486328, 131.81838989257812, -15.122285842895508, -0.04800000041723251, 0.03200000151991844, 1.055999994277954, 0.0, 0.0, 0.0, 0.0, 0.0, 1.6206612811019187E9, 2021-05-10 17:41:21.101
48.0, -262.6494445800781, 127.00887298583984, 145.01649475097656, 3.4313580989837646, -0.04800000041723251, 0.03200000151991844, 1.055999994277954, 0.0, 0.0, 0.0, 0.0, 0.0, 1.6206612811026316E9, 2021-05-10 17:41:21.102
48.0, -283.7013244628906, 102.09739685058594, 126.59374237060547, -15.305541038513184, -0.04800000041723251, 0.03200000151991844, 1.055999994277954, 0.0, 0.0, 0.0, 0.0, 0.0, 1.6206612811026316E9, 2021-05-10 17:41:21.102
49.0, -298.85540771484375, 86.04200744628906, 109.08353424072266, -34.371551513671875, -0.04800000041723251, 0.03200000151991844, 1.055999994277954, 0.0, 0.0, 0.0, 0.0, 0.0, 1.62066128110338E9, 2021-05-10 17:41:21.103
49.0, -277.3547058105469, 107.96156311035156, 129.18174743652344, -17.179229736328125, -0.04800000041723251, 0.03200000151991844, 1.055999994277954, 0.0, 0.0, 0.0, 0.0, 0.0, 1.62066128110338E9, 2021-05-10 17:41:21.103
50.0, -263.4273376464844, 125.15762329101562, 148.2477569580078, -9.658291816711426, -0.04800000041723251, 0.03200000151991844, 1.055999994277954, 0.0, 0.0, 0.0, 0.0, 0.0, 1.6206612811041324E9, 2021-05-10 17:41:21.104
50.0, -273.92523193359375, 119.29719543457031, 136.07064819335938, -18.506895065307617, -0.04800000041723251, 0.03200000151991844, 1.055999994277954, 0.0, 0.0, 0.0, 0.0, 0.0, 1.6206612811041324E9, 2021-05-10 17:41:21.104
51.0, -302.1278076171875, 95.49647521972656, 110.93104553222656, -43.74747848510742, -0.04800000041723251, 0.01600000075995922, 1.055999994277954, 0.0, 0.0, 0.0, 0.0, 0.0, 1.620661281114862E9, 2021-05-10 17:41:21.114
51.0, -277.1265869140625, 108.00270080566406, 131.87074279785156, -24.924562454223633, -0.04800000041723251, 0.01600000075995922, 1.055999994277954, 0.0, 0.0, 0.0, 0.0, 0.0, 1.620661281114862E9, 2021-05-10 17:41:21.114
52.0, -253.99156188964844, 131.43316650390625, 159.7853546142578, -5.9857096672058105, -0.03200000151991844, 0.01600000075995922, 1.055999994277954, 0.0, 0.0, 0.0, 0.0, 0.0, 1.620661281129904E9, 2021-05-10 17:41:21.129
52.0, -273.7943420410156, 115.13468933105469, 134.810302734375, -30.50823402404785, -0.03200000151991844, 0.01600000075995922, 1.055999994277954, 0.0, 0.0, 0.0, 0.0, 0.0, 1.620661281129904E9, 2021-05-10 17:41:21.129
53.0, -281.5097351074219, 90.93006134033203, 119.55899047851562, -41.03605270385742, -0.03200000151991844, 0.01600000075995922, 1.055999994277954, 0.0, 0.0, 0.0, 0.0, 0.0, 1.6206612811455417E9, 2021-05-10 17:41:21.145
53.0, -268.681884765625, 107.94660186767578, 130.6178741455078, -30.003347396850586, -0.03200000151991844, 0.01600000075995922, 1.055999994277954, 0.0, 0.0, 0.0, 0.0, 0.0, 1.6206612811455417E9, 2021-05-10 17:41:21.145
54.0, -259.39947509765625, 131.86326599121094, 156.10903930664062, -6.718730449676514, -0.03200000151991844, 0.01600000075995922, 1.055999994277954, 0.0, 0.0, 0.0, 0.0, 0.0, 1.6206612811462665E9, 2021-05-10 17:41:21.146
54.0, -281.3040466308594, 112.01935577392578, 140.50991821289062, -19.453088760375977, -0.03200000151991844, 0.01600000075995922, 1.055999994277954, 0.0, 0.0, 0.0, 0.0, 0.0, 1.6206612811462665E9, 2021-05-10 17:41:21.146
55.0, -304.5998840332031, 90.548583984375, 128.23182678222656, -27.45647621154785, -0.03200000151991844, 0.01600000075995922, 1.055999994277954, 0.0, 0.0, 0.0, 0.0, 0.0, 1.6206612811599631E9, 2021-05-10 17:41:21.159
55.0, -273.13238525390625, 89.99134063720703, 135.71910095214844, -11.161731719970703, -0.03200000151991844, 0.01600000075995922, 1.055999994277954, 0.0, 0.0, 0.0, 0.0, 0.0, 1.6206612811599631E9, 2021-05-10 17:41:21.159
56.0, -261.2881164550781, 122.9660415649414, 163.61875915527344, 10.862539291381836, -0.03200000151991844, 0.01600000075995922, 1.055999994277954, 0.0, 0.0, 0.0, 0.0, 0.0, 1.6206612811919582E9, 2021-05-10 17:41:21.191
56.0, -288.5482482910156, 101.73088836669922, 138.707275390625, -8.31940746307373, -0.03200000151991844, 0.01600000075995922, 1.055999994277954, 0.0, 0.0, 0.0, 0.0, 0.0, 1.6206612811919582E9, 2021-05-10 17:41:21.191
57.0, -290.0628967285156, 84.53108978271484, 127.48757934570312, -18.768688201904297, -0.03200000151991844, 0.01600000075995922, 1.055999994277954, 0.0, 0.0, 0.0, 0.0, 0.0, 1.6206612811927123E9, 2021-05-10 17:41:21.192
57.0, -286.2182922363281, 107.25846099853516, 135.63682556152344, -11.292628288269043, -0.03200000151991844, 0.01600000075995922, 1.055999994277954, 0.0, 0.0, 0.0, 0.0, 0.0, 1.6206612811927123E9, 2021-05-10 17:41:21.192
58.0, -263.1991882324219, 119.88062286376953, 156.23992919921875, 2.870373249053955, -0.03200000151991844, 0.01600000075995922, 1.055999994277954, 0.0, 0.0, 0.0, 0.0, 0.0, 1.620661281193401E9, 2021-05-10 17:41:21.193
58.0, -282.64666748046875, 106.0467300415039, 137.54791259765625, -12.616552352905273, -0.03200000151991844, 0.01600000075995922, 1.055999994277954, 0.0, 0.0, 0.0, 0.0, 0.0, 1.620661281193401E9, 2021-05-10 17:41:21.193
59.0, -292.96881103515625, 88.90676879882812, 116.38755798339844, -29.861230850219727, -0.03200000151991844, 0.01600000075995922, 1.055999994277954, 0.0, 0.0, 0.0, 0.0, 0.0, 1.6206612811941555E9, 2021-05-10 17:41:21.194
59.0, -278.28594970703125, 105.41842651367188, 134.82901000976562, -12.635251998901367, -0.03200000151991844, 0.01600000075995922, 1.055999994277954, 0.0, 0.0, 0.0, 0.0, 0.0, 1.6206612811941555E9, 2021-05-10 17:41:21.194
60.0, -270.40972900390625, 116.67179107666016, 152.64962768554688, 7.100200176239014, -0.03200000151991844, 0.01600000075995922, 1.055999994277954, 0.0, 0.0, 0.0, 0.0, 0.0, 1.620661281204836E9, 2021-05-10 17:41:21.204
60.0, -280.7543029785156, 99.23263549804688, 137.67506408691406, -15.473835945129395, -0.03200000151991844, 0.01600000075995922, 1.055999994277954, 0.0, 0.0, 0.0, 0.0, 0.0, 1.620661281204836E9, 2021-05-10 17:41:21.204
61.0, -297.673583984375, 82.64617919921875, 111.89219665527344, -29.726594924926758, -0.03200000151991844, 0.01600000075995922, 1.055999994277954, 0.0, 0.0, 0.0, 0.0, 0.0, 1.620661281236904E9, 2021-05-10 17:41:21.236
61.0, -279.30694580078125, 108.45149230957031, 135.34510803222656, -13.802101135253906, -0.03200000151991844, 0.01600000075995922, 1.055999994277954, 0.0, 0.0, 0.0, 0.0, 0.0, 1.620661281236904E9, 2021-05-10 17:41:21.236
62.0, -257.68658447265625, 127.97750854492188, 161.1392059326172, -0.7012312412261963, -0.03200000151991844, 0.01600000075995922, 1.055999994277954, 0.0, 0.0, 0.0, 0.0, 0.0, 1.6206612812376232E9, 2021-05-10 17:41:21.237
62.0, -269.65802001953125, 117.9657974243164, 143.48687744140625, -15.503755569458008, -0.03200000151991844, 0.01600000075995922, 1.055999994277954, 0.0, 0.0, 0.0, 0.0, 0.0, 1.6206612812376232E9, 2021-05-10 17:41:21.237
63.0, -295.5493469238281, 82.80325317382812, 114.44281005859375, -40.78548049926758, -0.03200000151991844, 0.01600000075995922, 1.055999994277954, 0.0, 0.0, 0.0, 0.0, 0.0, 1.6206612812383952E9, 2021-05-10 17:41:21.238
63.0, -288.1480712890625, 103.42880249023438, 137.42449951171875, -25.24619483947754, -0.03200000151991844, 0.01600000075995922, 1.055999994277954, 0.0, 0.0, 0.0, 0.0, 0.0, 1.6206612812383952E9, 2021-05-10 17:41:21.238
64.0, -259.0628662109375, 123.16051483154297, 159.17201232910156, -8.457783699035645, -0.03200000151991844, 0.01600000075995922, 1.055999994277954, 0.0, 0.0, 0.0, 0.0, 0.0, 1.6206612812498317E9, 2021-05-10 17:41:21.249
64.0, -274.7330627441406, 107.168701171875, 148.70028686523438, -19.576505661010742, -0.03200000151991844, 0.01600000075995922, 1.055999994277954, 0.0, 0.0, 0.0, 0.0, 0.0, 1.6206612812498317E9, 2021-05-10 17:41:21.249
65.0, -300.5084533691406, 77.82918548583984, 121.582275390625, -35.38880157470703, -0.03200000151991844, 0.01600000075995922, 1.055999994277954, 0.0, 0.0, 0.0, 0.0, 0.0, 1.620661281265576E9, 2021-05-10 17:41:21.265
65.0, -291.3681335449219, 102.04129791259766, 137.11033630371094, -15.178383827209473, -0.03200000151991844, 0.01600000075995922, 1.055999994277954, 0.0, 0.0, 0.0, 0.0, 0.0, 1.620661281265576E9, 2021-05-10 17:41:21.265
66.0, -261.4788513183594, 129.5557403564453, 161.7862091064453, 6.43823766708374, -0.03200000151991844, 0.01600000075995922, 1.055999994277954, 0.0, 0.0, 0.0, 0.0, 0.0, 1.6206612812663443E9, 2021-05-10 17:41:21.266
66.0, -283.2113952636719, 91.45738220214844, 138.35572814941406, -9.265602111816406, -0.03200000151991844, 0.01600000075995922, 1.055999994277954, 0.0, 0.0, 0.0, 0.0, 0.0, 1.6206612812663443E9, 2021-05-10 17:41:21.266
67.0, -300.3326721191406, 71.77055358886719, 118.70629119873047, -25.31725311279297, -0.03200000151991844, 0.01600000075995922, 1.055999994277954, 0.0, 0.0, 0.0, 0.0, 0.0, 1.6206612812798624E9, 2021-05-10 17:41:21.279
67.0, -287.6805725097656, 98.0732650756836, 135.38998413085938, -14.849272727966309, -0.03200000151991844, 0.01600000075995922, 1.055999994277954, 0.0, 0.0, 0.0, 0.0, 0.0, 1.6206612812798624E9, 2021-05-10 17:41:21.279
68.0, -269.8188171386719, 116.06218719482422, 148.83119201660156, 2.9975297451019287, -0.03200000151991844, 0.01600000075995922, 1.055999994277954, 0.0, 0.0, 0.0, 0.0, 0.0, 1.6206612812956035E9, 2021-05-10 17:41:21.295
68.0, -277.859619140625, 90.7879409790039, 130.67771911621094, -14.419184684753418, -0.03200000151991844, 0.01600000075995922, 1.055999994277954, 0.0, 0.0, 0.0, 0.0, 0.0, 1.6206612812956035E9, 2021-05-10 17:41:21.295
69.0, -301.9557800292969, 71.90144348144531, 109.60711669921875, -34.78293991088867, -0.03200000151991844, 0.01600000075995922, 1.055999994277954, 0.0, 0.0, 0.0, 0.0, 0.0, 1.6206612812962985E9, 2021-05-10 17:41:21.296
69.0, -286.3865661621094, 95.57875061035156, 123.77759552001953, -20.556360244750977, -0.03200000151991844, 0.01600000075995922, 1.055999994277954, 0.0, 0.0, 0.0, 0.0, 0.0, 1.6206612812962985E9, 2021-05-10 17:41:21.296
70.0, -262.1258544921875, 123.69532012939453, 139.79933166503906, -10.791481018066406, -0.03200000151991844, 0.01600000075995922, 1.040000081062317, 0.0, 0.0, 0.0, 0.0, 0.0, 1.6206612813097992E9, 2021-05-10 17:41:21.309
70.0, -286.73065185546875, 102.6135025024414, 122.09464263916016, -25.354652404785156, -0.03200000151991844, 0.01600000075995922, 1.040000081062317, 0.0, 0.0, 0.0, 0.0, 0.0, 1.6206612813097992E9, 2021-05-10 17:41:21.309
71.0, -308.35101318359375, 76.16493225097656, 103.49612426757812, -36.82118606567383, -0.03200000151991844, 0.01600000075995922, 1.040000081062317, 0.0, 0.0, 0.0, 0.0, 0.0, 1.6206612813256345E9, 2021-05-10 17:41:21.325
71.0, -288.51458740234375, 96.94755554199219, 122.04602813720703, -19.464309692382812, -0.03200000151991844, 0.01600000075995922, 1.040000081062317, 0.0, 0.0, 0.0, 0.0, 0.0, 1.6206612813256345E9, 2021-05-10 17:41:21.325
72.0, -259.5864562988281, 117.63668060302734, 145.326904296875, -1.8419007062911987, -0.03200000151991844, 0.01600000075995922, 1.040000081062317, 0.0, 0.0, 0.0, 0.0, 0.0, 1.6206612813263717E9, 2021-05-10 17:41:21.326
72.0, -279.2994689941406, 101.27835845947266, 130.80113220214844, -15.731888771057129, -0.03200000151991844, 0.01600000075995922, 1.040000081062317, 0.0, 0.0, 0.0, 0.0, 0.0, 1.6206612813263717E9, 2021-05-10 17:41:21.326
73.0, -302.37091064453125, 78.83522033691406, 109.715576171875, -39.910343170166016, -0.03200000151991844, 0.01600000075995922, 1.040000081062317, 0.0, 0.0, 0.0, 0.0, 0.0, 1.620661281356456E9, 2021-05-10 17:41:21.356
73.0, -285.982666015625, 95.52639770507812, 128.0223846435547, -19.61390495300293, -0.03200000151991844, 0.01600000075995922, 1.040000081062317, 0.0, 0.0, 0.0, 0.0, 0.0, 1.620661281356456E9, 2021-05-10 17:41:21.356
74.0, -271.60650634765625, 106.41698455810547, 147.24172973632812, -10.170658111572266, -0.03200000151991844, 0.01600000075995922, 1.040000081062317, 0.0, 0.0, 0.0, 0.0, 0.0, 1.6206612813570528E9, 2021-05-10 17:41:21.357
74.0, -281.9735107421875, 96.27063751220703, 130.48324584960938, -24.78618621826172, -0.03200000151991844, 0.01600000075995922, 1.040000081062317, 0.0, 0.0, 0.0, 0.0, 0.0, 1.6206612813570528E9, 2021-05-10 17:41:21.357
75.0, -301.4696044921875, 84.16083526611328, 120.61738586425781, -34.93253707885742, -0.03200000151991844, 0.01600000075995922, 1.040000081062317, 0.0, 0.0, 0.0, 0.0, 0.0, 1.6206612813577323E9, 2021-05-10 17:41:21.357
75.0, -291.8468322753906, 99.49443054199219, 135.315185546875, -18.506895065307617, -0.03200000151991844, 0.01600000075995922, 1.040000081062317, 0.0, 0.0, 0.0, 0.0, 0.0, 1.6206612813577323E9, 2021-05-10 17:41:21.357
76.0, -268.63702392578125, 118.58287811279297, 157.88922119140625, -0.1552058458328247, -0.03200000151991844, 0.01600000075995922, 1.040000081062317, 0.0, 0.0, 0.0, 0.0, 0.0, 1.6206612813699243E9, 2021-05-10 17:41:21.369
76.0, -290.7435607910156, 95.50021362304688, 137.83587646484375, -22.14955711364746, -0.03200000151991844, 0.01600000075995922, 1.040000081062317, 0.0, 0.0, 0.0, 0.0, 0.0, 1.6206612813699243E9, 2021-05-10 17:41:21.369
77.0, -305.7555236816406, 72.578369140625, 117.81993865966797, -32.77461242675781, -0.03200000151991844, 0.01600000075995922, 1.040000081062317, 0.0, 0.0, 0.0, 0.0, 0.0, 1.620661281385607E9, 2021-05-10 17:41:21.385
77.0, -285.7732238769531, 85.85875701904297, 137.33847045898438, -23.30144691467285, -0.03200000151991844, 0.01600000075995922, 1.040000081062317, 0.0, 0.0, 0.0, 0.0, 0.0, 1.620661281385607E9, 2021-05-10 17:41:21.385
78.0, -274.78167724609375, 117.17667388916016, 152.74685668945312, -10.204317092895508, -0.03200000151991844, 0.01600000075995922, 1.040000081062317, 0.0, 0.0, 0.0, 0.0, 0.0, 1.620661281386302E9, 2021-05-10 17:41:21.386
78.0, -288.26025390625, 88.6225357055664, 124.98558807373047, -21.708250045776367, -0.03200000151991844, 0.01600000075995922, 1.040000081062317, 0.0, 0.0, 0.0, 0.0, 0.0, 1.620661281386302E9, 2021-05-10 17:41:21.386
79.0, -305.8265686035156, 68.77863311767578, 100.2424087524414, -38.56398010253906, -0.03200000151991844, 0.01600000075995922, 1.040000081062317, 0.0, 0.0, 0.0, 0.0, 0.0, 1.6206612813999245E9, 2021-05-10 17:41:21.399
79.0, -288.80255126953125, 87.10787963867188, 113.4891357421875, -25.949295043945312, -0.03200000151991844, 0.01600000075995922, 1.040000081062317, 0.0, 0.0, 0.0, 0.0, 0.0, 1.6206612813999245E9, 2021-05-10 17:41:21.399
80.0, -276.6329345703125, 113.41059875488281, 131.4630889892578, -4.482270240783691, -0.03200000151991844, 0.01600000075995922, 1.055999994277954, 0.0, 0.0, 0.0, 0.0, 0.0, 1.6206612814155605E9, 2021-05-10 17:41:21.415
80.0, -296.8807373046875, 88.82075500488281, 117.73017883300781, -20.803194046020508, -0.03200000151991844, 0.01600000075995922, 1.055999994277954, 0.0, 0.0, 0.0, 0.0, 0.0, 1.6206612814155605E9, 2021-05-10 17:41:21.415
81.0, -313.4073486328125, 71.3516845703125, 100.85575103759766, -34.40895080566406, -0.03200000151991844, 0.01600000075995922, 1.055999994277954, 0.0, 0.0, 0.0, 0.0, 0.0, 1.620661281416286E9, 2021-05-10 17:41:21.416
81.0, -294.48345947265625, 96.95503997802734, 117.23651123046875, -22.45623016357422, -0.03200000151991844, 0.01600000075995922, 1.055999994277954, 0.0, 0.0, 0.0, 0.0, 0.0, 1.620661281416286E9, 2021-05-10 17:41:21.416
82.0, -277.25, 114.3119125366211, 142.30506896972656, -0.8994459509849548, -0.04800000041723251, 0.01600000075995922, 1.055999994277954, 0.0, 0.0, 0.0, 0.0, 0.0, 1.6206612814298573E9, 2021-05-10 17:41:21.429
82.0, -290.0965576171875, 94.46426391601562, 132.59628295898438, -19.815860748291016, -0.04800000041723251, 0.01600000075995922, 1.055999994277954, 0.0, 0.0, 0.0, 0.0, 0.0, 1.6206612814298573E9, 2021-05-10 17:41:21.429
83.0, -311.7618103027344, 84.6021499633789, 115.1795654296875, -48.545772552490234, -0.04800000041723251, 0.01600000075995922, 1.055999994277954, 0.0, 0.0, 0.0, 0.0, 0.0, 1.6206612814456015E9, 2021-05-10 17:41:21.445
83.0, -276.8872375488281, 96.93634033203125, 134.2904510498047, -29.685455322265625, -0.04800000041723251, 0.01600000075995922, 1.055999994277954, 0.0, 0.0, 0.0, 0.0, 0.0, 1.6206612814456015E9, 2021-05-10 17:41:21.445
84.0, -248.8005828857422, 113.36946105957031, 160.83253479003906, -12.642731666564941, -0.04800000041723251, 0.01600000075995922, 1.055999994277954, 0.0, 0.0, 0.0, 0.0, 0.0, 1.6206612814463105E9, 2021-05-10 17:41:21.446
84.0, -282.58685302734375, 91.17314910888672, 134.66444396972656, -28.87015724182129, -0.04800000041723251, 0.01600000075995922, 1.055999994277954, 0.0, 0.0, 0.0, 0.0, 0.0, 1.6206612814463105E9, 2021-05-10 17:41:21.446
85.0, -300.79266357421875, 74.0444107055664, 116.46235656738281, -40.531166076660156, -0.04800000041723251, 0.01600000075995922, 1.055999994277954, 0.0, 0.0, 0.0, 0.0, 0.0, 1.6206612814598553E9, 2021-05-10 17:41:21.459
85.0, -295.7812194824219, 93.74993896484375, 136.5568389892578, -20.866771697998047, -0.04800000041723251, 0.01600000075995922, 1.055999994277954, 0.0, 0.0, 0.0, 0.0, 0.0, 1.6206612814598553E9, 2021-05-10 17:41:21.459
86.0, -272.00665283203125, 106.47308349609375, 153.19564819335938, -2.1149134635925293, -0.04800000041723251, 0.01600000075995922, 1.055999994277954, 0.0, 0.0, 0.0, 0.0, 0.0, 1.6206612814759717E9, 2021-05-10 17:41:21.475
86.0, -290.98291015625, 94.4380874633789, 136.32870483398438, -12.627772331237793, -0.04800000041723251, 0.01600000075995922, 1.055999994277954, 0.0, 0.0, 0.0, 0.0, 0.0, 1.6206612814759717E9, 2021-05-10 17:41:21.475
87.0, -307.4609069824219, 78.35651397705078, 122.52099609375, -26.67857551574707, -0.04800000041723251, 0.01600000075995922, 1.055999994277954, 0.0, 0.0, 0.0, 0.0, 0.0, 1.620661281506936E9, 2021-05-10 17:41:21.506
87.0, -297.32952880859375, 89.538818359375, 134.02491760253906, -17.437284469604492, -0.04800000041723251, 0.01600000075995922, 1.055999994277954, 0.0, 0.0, 0.0, 0.0, 0.0, 1.620661281506936E9, 2021-05-10 17:41:21.506
88.0, -255.4688262939453, 110.65428924560547, 152.5710906982422, 5.114313125610352, -0.04800000041723251, 0.01600000075995922, 1.055999994277954, 0.0, 0.0, 0.0, 0.0, 0.0, 1.620661281507702E9, 2021-05-10 17:41:21.507
88.0, -285.9452819824219, 101.66357421875, 130.8609619140625, -6.067987442016602, -0.04800000041723251, 0.01600000075995922, 1.055999994277954, 0.0, 0.0, 0.0, 0.0, 0.0, 1.620661281507702E9, 2021-05-10 17:41:21.507
89.0, -299.7866516113281, 67.09941864013672, 108.88531494140625, -31.345972061157227, -0.04800000041723251, 0.01600000075995922, 1.055999994277954, 0.0, 0.0, 0.0, 0.0, 0.0, 1.6206612815084589E9, 2021-05-10 17:41:21.508
89.0, -289.11669921875, 83.97010040283203, 124.48444366455078, -14.1349515914917, -0.04800000041723251, 0.01600000075995922, 1.055999994277954, 0.0, 0.0, 0.0, 0.0, 0.0, 1.6206612815084589E9, 2021-05-10 17:41:21.508
90.0, -268.9474182128906, 107.7857894897461, 142.06944274902344, 5.507002830505371, -0.04800000041723251, 0.01600000075995922, 1.055999994277954, 0.0, 0.0, 0.0, 0.0, 0.0, 1.6206612815091283E9, 2021-05-10 17:41:21.509
90.0, -294.41241455078125, 95.24590301513672, 119.39817810058594, -16.113359451293945, -0.04800000041723251, 0.01600000075995922, 1.055999994277954, 0.0, 0.0, 0.0, 0.0, 0.0, 1.6206612815091283E9, 2021-05-10 17:41:21.509
91.0, -302.21759033203125, 83.5400161743164, 107.43797302246094, -32.512821197509766, -0.04800000041723251, 0.03200000151991844, 1.055999994277954, 0.0, 0.0, 0.0, 0.0, 0.0, 1.6206612815198731E9, 2021-05-10 17:41:21.519
91.0, -287.2168273925781, 102.75562286376953, 129.54078674316406, -19.35211181640625, -0.04800000041723251, 0.03200000151991844, 1.055999994277954, 0.0, 0.0, 0.0, 0.0, 0.0, 1.6206612815198731E9, 2021-05-10 17:41:21.519
92.0, -267.08868408203125, 115.76299285888672, 151.40797424316406, -4.990896701812744, -0.04800000041723251, 0.03200000151991844, 1.055999994277954, 0.0, 0.0, 0.0, 0.0, 0.0, 1.6206612815356288E9, 2021-05-10 17:41:21.535
92.0, -286.02008056640625, 106.40576171875, 137.9069366455078, -19.202516555786133, -0.04800000041723251, 0.03200000151991844, 1.055999994277954, 0.0, 0.0, 0.0, 0.0, 0.0, 1.6206612815356288E9, 2021-05-10 17:41:21.535
93.0, -302.5653991699219, 79.31018829345703, 121.02877044677734, -40.81913757324219, -0.04800000041723251, 0.03200000151991844, 1.055999994277954, 0.0, 0.0, 0.0, 0.0, 0.0, 1.6206612815363517E9, 2021-05-10 17:41:21.536
93.0, -287.0635070800781, 86.04574584960938, 132.80946350097656, -27.482654571533203, -0.04800000041723251, 0.03200000151991844, 1.055999994277954, 0.0, 0.0, 0.0, 0.0, 0.0, 1.6206612815363517E9, 2021-05-10 17:41:21.536
94.0, -260.52142333984375, 114.84671783447266, 161.19155883789062, -1.3856329917907715, -0.04800000041723251, 0.03200000151991844, 1.055999994277954, 0.0, 0.0, 0.0, 0.0, 0.0, 1.6206612815499773E9, 2021-05-10 17:41:21.549
94.0, -277.86334228515625, 97.38512420654297, 148.45346069335938, -22.867618560791016, -0.04800000041723251, 0.03200000151991844, 1.055999994277954, 0.0, 0.0, 0.0, 0.0, 0.0, 1.6206612815499773E9, 2021-05-10 17:41:21.549
95.0, -299.199462890625, 81.94307708740234, 129.11444091796875, -36.00214767456055, -0.04800000041723251, 0.03200000151991844, 1.055999994277954, 0.0, 0.0, 0.0, 0.0, 0.0, 1.6206612815656233E9, 2021-05-10 17:41:21.565
95.0, -278.1064453125, 100.73607635498047, 136.8148956298828, -20.803194046020508, -0.04800000041723251, 0.03200000151991844, 1.055999994277954, 0.0, 0.0, 0.0, 0.0, 0.0, 1.6206612815656233E9, 2021-05-10 17:41:21.565
96.0, -262.4587097167969, 126.94903564453125, 160.4174041748047, -0.27488264441490173, -0.04800000041723251, 0.03200000151991844, 1.055999994277954, 0.0, 0.0, 0.0, 0.0, 0.0, 1.6206612815663693E9, 2021-05-10 17:41:21.566
96.0, -282.99822998046875, 93.82848358154297, 134.91502380371094, -10.402531623840332, -0.04800000041723251, 0.03200000151991844, 1.055999994277954, 0.0, 0.0, 0.0, 0.0, 0.0, 1.6206612815663693E9, 2021-05-10 17:41:21.566
97.0, -285.6124267578125, 76.62493896484375, 120.4154281616211, -24.307479858398438, -0.04800000041723251, 0.03200000151991844, 1.055999994277954, 0.0, 0.0, 0.0, 0.0, 0.0, 1.6206612815798702E9, 2021-05-10 17:41:21.579
97.0, -289.6739501953125, 94.12767028808594, 133.0226287841797, -15.690750122070312, -0.04800000041723251, 0.03200000151991844, 1.055999994277954, 0.0, 0.0, 0.0, 0.0, 0.0, 1.6206612815798702E9, 2021-05-10 17:41:21.579
98.0, -268.6482238769531, 112.41577911376953, 154.06704711914062, 7.1488189697265625, -0.04800000041723251, 0.03200000151991844, 1.055999994277954, 0.0, 0.0, 0.0, 0.0, 0.0, 1.6206612815957277E9, 2021-05-10 17:41:21.595
98.0, -280.1783447265625, 87.20511627197266, 136.06690979003906, -8.854212760925293, -0.04800000041723251, 0.03200000151991844, 1.055999994277954, 0.0, 0.0, 0.0, 0.0, 0.0, 1.6206612815957277E9, 2021-05-10 17:41:21.595
99.0, -301.8174133300781, 75.58150482177734, 123.28767395019531, -24.299999237060547, -0.04800000041723251, 0.03200000151991844, 1.055999994277954, 0.0, 0.0, 0.0, 0.0, 0.0, 1.6206612815963223E9, 2021-05-10 17:41:21.596
99.0, -280.59722900390625, 95.23468017578125, 141.0372314453125, -7.193697452545166, -0.04800000041723251, 0.03200000151991844, 1.055999994277954, 0.0, 0.0, 0.0, 0.0, 0.0, 1.6206612815963223E9, 2021-05-10 17:41:21.596
100.0, -257.6791076660156, 115.98365020751953, 163.83192443847656, 7.519068717956543, -0.04800000041723251, 0.03200000151991844, 1.055999994277954, 0.0, 0.0, 0.0, 0.0, 0.0, 1.620661281627081E9, 2021-05-10 17:41:21.627
100.0, -264.2201843261719, 100.560302734375, 141.86001586914062, -10.12951946258545, -0.04800000041723251, 0.03200000151991844, 1.055999994277954, 0.0, 0.0, 0.0, 0.0, 0.0, 1.620661281627081E9, 2021-05-10 17:41:21.627
0.0, -296.93310546875, 82.46292114257812, 117.4459457397461, -31.338491439819336, -0.04800000041723251, 0.03200000151991844, 1.055999994277954, 0.0, 0.0, 0.0, 0.0, 0.0, 1.6206612816277819E9, 2021-05-10 17:41:21.627
1.0, -284.5914306640625, 99.96939849853516, 125.34087371826172, -21.031328201293945, -0.04800000041723251, 0.01600000075995922, 1.055999994277954, 0.0, 0.0, 0.0, 0.0, 0.0, 1.6206612816285577E9, 2021-05-10 17:41:21.628
1.0, -272.82196044921875, 116.0995864868164, 145.43162536621094, -8.6298189163208, -0.04800000041723251, 0.01600000075995922, 1.055999994277954, 0.0, 0.0, 0.0, 0.0, 0.0, 1.6206612816285577E9, 2021-05-10 17:41:21.628
2.0, -277.99798583984375, 95.89290618896484, 130.51315307617188, -15.795467376708984, -0.03200000151991844, 0.01600000075995922, 1.055999994277954, 0.0, 0.0, 0.0, 0.0, 0.0, 1.6206612816292696E9, 2021-05-10 17:41:21.629
2.0, -304.92901611328125, 82.5975570678711, 108.75816345214844, -37.08671951293945, -0.03200000151991844, 0.01600000075995922, 1.055999994277954, 0.0, 0.0, 0.0, 0.0, 0.0, 1.6206612816292696E9, 2021-05-10 17:41:21.629
3.0, -271.31103515625, 100.38078308105469, 129.20419311523438, -17.478422164916992, -0.03200000151991844, 0.01600000075995922, 1.055999994277954, 0.0, 0.0, 0.0, 0.0, 0.0, 1.620661281639906E9, 2021-05-10 17:41:21.639
3.0, -273.0613098144531, 120.80812072753906, 151.65855407714844, -1.5501885414123535, -0.03200000151991844, 0.01600000075995922, 1.055999994277954, 0.0, 0.0, 0.0, 0.0, 0.0, 1.620661281639906E9, 2021-05-10 17:41:21.639
4.0, -283.74993896484375, 97.36642456054688, 138.01539611816406, -17.80379295349121, -0.03200000151991844, 0.01600000075995922, 1.055999994277954, 0.0, 0.0, 0.0, 0.0, 0.0, 1.6206612816548688E9, 2021-05-10 17:41:21.654
4.0, -309.67120361328125, 91.44242095947266, 117.89847564697266, -27.247041702270508, -0.03200000151991844, 0.01600000075995922, 1.055999994277954, 0.0, 0.0, 0.0, 0.0, 0.0, 1.6206612816548688E9, 2021-05-10 17:41:21.654
5.0, -288.9820556640625, 109.3565444946289, 135.7452850341797, -7.807041168212891, -0.03200000151991844, 0.01600000075995922, 1.055999994277954, 0.0, 0.0, 0.0, 0.0, 0.0, 1.620661281670679E9, 2021-05-10 17:41:21.670
5.0, -268.3041687011719, 114.00150299072266, 159.7030792236328, 8.035175323486328, -0.03200000151991844, 0.01600000075995922, 1.055999994277954, 0.0, 0.0, 0.0, 0.0, 0.0, 1.620661281670679E9, 2021-05-10 17:41:21.670
6.0, -288.89605712890625, 93.18895721435547, 133.54248046875, -15.724409103393555, -0.03200000151991844, 0.01600000075995922, 1.055999994277954, 0.0, 0.0, 0.0, 0.0, 0.0, 1.62066128167147E9, 2021-05-10 17:41:21.671
6.0, -296.5404052734375, 72.85137939453125, 117.99197387695312, -25.407011032104492, -0.03200000151991844, 0.01600000075995922, 1.055999994277954, 0.0, 0.0, 0.0, 0.0, 0.0, 1.62066128167147E9, 2021-05-10 17:41:21.671
7.0, -282.9645690917969, 87.44072723388672, 130.3186798095703, -16.18067741394043, -0.03200000151991844, 0.01600000075995922, 1.055999994277954, 0.0, 0.0, 0.0, 0.0, 0.0, 1.6206612816848624E9, 2021-05-10 17:41:21.684
7.0, -271.2923278808594, 117.51326751708984, 146.94253540039062, 1.7858022451400757, -0.03200000151991844, 0.01600000075995922, 1.055999994277954, 0.0, 0.0, 0.0, 0.0, 0.0, 1.6206612816848624E9, 2021-05-10 17:41:21.684
8.0, -267.5599365234375, 98.78010559082031, 134.5260772705078, -7.171257972717285, -0.03200000151991844, 0.01600000075995922, 1.055999994277954, 0.0, 0.0, 0.0, 0.0, 0.0, 1.620661281701002E9, 2021-05-10 17:41:21.701
8.0, -296.4543762207031, 65.04247283935547, 111.53690338134766, -34.98863220214844, -0.03200000151991844, 0.01600000075995922, 1.055999994277954, 0.0, 0.0, 0.0, 0.0, 0.0, 1.620661281701002E9, 2021-05-10 17:41:21.701
9.0, -280.8963928222656, 95.80314636230469, 132.6448974609375, -12.624032020568848, -0.03200000151991844, 0.01600000075995922, 1.055999994277954, 0.0, 0.0, 0.0, 0.0, 0.0, 1.6206612817320268E9, 2021-05-10 17:41:21.732
9.0, -260.9814453125, 115.00005340576172, 155.30120849609375, 2.6908581256866455, -0.03200000151991844, 0.01600000075995922, 1.055999994277954, 0.0, 0.0, 0.0, 0.0, 0.0, 1.6206612817320268E9, 2021-05-10 17:41:21.732
10.0, -270.394775390625, 89.86792755126953, 140.43136596679688, -8.528841972351074, -0.03200000151991844, 0.01600000075995922, 1.055999994277954, 0.0, 0.0, 0.0, 0.0, 0.0, 1.6206612817327075E9, 2021-05-10 17:41:21.732
10.0, -292.86407470703125, 68.87586975097656, 120.3368911743164, -27.576152801513672, -0.03200000151991844, 0.01600000075995922, 1.055999994277954, 0.0, 0.0, 0.0, 0.0, 0.0, 1.6206612817327075E9, 2021-05-10 17:41:21.732
11.0, -275.8774719238281, 97.16447448730469, 140.64080810546875, -12.137845039367676, -0.03200000151991844, 0.01600000075995922, 1.055999994277954, 0.0, 0.0, 0.0, 0.0, 0.0, 1.6206612817335396E9, 2021-05-10 17:41:21.733
11.0, -253.99903869628906, 109.73053741455078, 150.0728302001953, -7.84443998336792, -0.03200000151991844, 0.01600000075995922, 1.055999994277954, 0.0, 0.0, 0.0, 0.0, 0.0, 1.6206612817335396E9, 2021-05-10 17:41:21.733
12.0, -281.18438720703125, 92.25398254394531, 134.1446075439453, -20.49652099609375, -0.03200000151991844, 0.01600000075995922, 1.055999994277954, 0.0, 0.0, 0.0, 0.0, 0.0, 1.6206612817343032E9, 2021-05-10 17:41:21.734
12.0, -299.9250183105469, 78.78660583496094, 117.43473052978516, -35.190589904785156, -0.03200000151991844, 0.01600000075995922, 1.055999994277954, 0.0, 0.0, 0.0, 0.0, 0.0, 1.6206612817343032E9, 2021-05-10 17:41:21.734
13.0, -289.6777038574219, 99.9020767211914, 126.97895050048828, -24.6365909576416, -0.03200000151991844, 0.01600000075995922, 1.055999994277954, 0.0, 0.0, 0.0, 0.0, 0.0, 1.6206612817449298E9, 2021-05-10 17:41:21.744
13.0, -263.2777404785156, 124.14411163330078, 155.97813415527344, -8.876652717590332, -0.03200000151991844, 0.01600000075995922, 1.055999994277954, 0.0, 0.0, 0.0, 0.0, 0.0, 1.6206612817449298E9, 2021-05-10 17:41:21.744
14.0, -283.0842590332031, 102.74440002441406, 141.23919677734375, -17.22784996032715, -0.03200000151991844, 0.01600000075995922, 1.055999994277954, 0.0, 0.0, 0.0, 0.0, 0.0, 1.620661281760718E9, 2021-05-10 17:41:21.760
14.0, -310.0638732910156, 90.84030151367188, 114.3979263305664, -36.039546966552734, -0.03200000151991844, 0.01600000075995922, 1.055999994277954, 0.0, 0.0, 0.0, 0.0, 0.0, 1.620661281760718E9, 2021-05-10 17:41:21.760
15.0, -288.00970458984375, 105.13420104980469, 134.0511016845703, -11.079453468322754, -0.03200000151991844, 0.01600000075995922, 1.055999994277954, 0.0, 0.0, 0.0, 0.0, 0.0, 1.6206612817613697E9, 2021-05-10 17:41:21.761
15.0, -269.5607604980469, 119.90679931640625, 153.34524536132812, 6.370919704437256, -0.03200000151991844, 0.01600000075995922, 1.055999994277954, 0.0, 0.0, 0.0, 0.0, 0.0, 1.6206612817613697E9, 2021-05-10 17:41:21.761
16.0, -282.18292236328125, 100.49298095703125, 131.4144744873047, -13.353312492370605, -0.03200000151991844, 0.01600000075995922, 1.055999994277954, 0.0, 0.0, 0.0, 0.0, 0.0, 1.6206612817748713E9, 2021-05-10 17:41:21.774
16.0, -289.45703125, 84.79662322998047, 115.20948791503906, -23.50714111328125, -0.03200000151991844, 0.01600000075995922, 1.055999994277954, 0.0, 0.0, 0.0, 0.0, 0.0, 1.6206612817748713E9, 2021-05-10 17:41:21.774
17.0, -282.99822998046875, 92.86732482910156, 126.19731140136719, -17.50086212158203, -0.03200000151991844, 0.01600000075995922, 1.055999994277954, 0.0, 0.0, 0.0, 0.0, 0.0, 1.6206612817906775E9, 2021-05-10 17:41:21.790
17.0, -254.89288330078125, 106.07291412353516, 149.51185607910156, -0.817168116569519, -0.03200000151991844, 0.01600000075995922, 1.055999994277954, 0.0, 0.0, 0.0, 0.0, 0.0, 1.6206612817906775E9, 2021-05-10 17:41:21.790
18.0, -279.09002685546875, 104.25531768798828, 138.6399688720703, -18.308679580688477, -0.03200000151991844, 0.01600000075995922, 1.055999994277954, 0.0, 0.0, 0.0, 0.0, 0.0, 1.6206612817914107E9, 2021-05-10 17:41:21.791
18.0, -291.7383728027344, 83.63725280761719, 115.97990417480469, -31.18889617919922, -0.03200000151991844, 0.01600000075995922, 1.055999994277954, 0.0, 0.0, 0.0, 0.0, 0.0, 1.6206612817914107E9, 2021-05-10 17:41:21.791
19.0, -284.91680908203125, 85.70915985107422, 124.60411834716797, -19.587726593017578, -0.03200000151991844, 0.01600000075995922, 1.055999994277954, 0.0, 0.0, 0.0, 0.0, 0.0, 1.6206612818212566E9, 2021-05-10 17:41:21.821
19.0, -255.61842346191406, 125.52039337158203, 150.7048797607422, 4.183078289031982, -0.03200000151991844, 0.01600000075995922, 1.055999994277954, 0.0, 0.0, 0.0, 0.0, 0.0, 1.6206612818212566E9, 2021-05-10 17:41:21.821
20.0, -273.3605041503906, 96.33795166015625, 134.44378662109375, -11.771334648132324, -0.03200000151991844, 0.01600000075995922, 1.055999994277954, 0.0, 0.0, 0.0, 0.0, 0.0, 1.620661281821993E9, 2021-05-10 17:41:21.821
20.0, -298.2794494628906, 80.71639251708984, 111.03202056884766, -35.882469177246094, -0.03200000151991844, 0.01600000075995922, 1.055999994277954, 0.0, 0.0, 0.0, 0.0, 0.0, 1.620661281821993E9, 2021-05-10 17:41:21.821
21.0, -283.03936767578125, 100.44436645507812, 129.94468688964844, -23.51462173461914, -0.03200000151991844, 0.01600000075995922, 1.055999994277954, 0.0, 0.0, 0.0, 0.0, 0.0, 1.6206612818227775E9, 2021-05-10 17:41:21.822
21.0, -259.362060546875, 116.57829284667969, 150.5328369140625, -3.1882646083831787, -0.03200000151991844, 0.01600000075995922, 1.055999994277954, 0.0, 0.0, 0.0, 0.0, 0.0, 1.6206612818227775E9, 2021-05-10 17:41:21.822
22.0, -282.096923828125, 106.41698455810547, 136.0930938720703, -17.00719451904297, -0.04800000041723251, 0.01600000075995922, 1.055999994277954, 0.0, 0.0, 0.0, 0.0, 0.0, 1.620661281835014E9, 2021-05-10 17:41:21.835
22.0, -298.6833801269531, 80.77249145507812, 111.61918640136719, -34.18455505371094, -0.04800000041723251, 0.01600000075995922, 1.055999994277954, 0.0, 0.0, 0.0, 0.0, 0.0, 1.620661281835014E9, 2021-05-10 17:41:21.835
23.0, -292.98748779296875, 105.5381088256836, 129.92599487304688, -17.26150894165039, -0.04800000041723251, 0.01600000075995922, 1.055999994277954, 0.0, 0.0, 0.0, 0.0, 0.0, 1.6206612818505917E9, 2021-05-10 17:41:21.850
23.0, -264.76995849609375, 123.7252426147461, 152.6533660888672, -0.5404155254364014, -0.04800000041723251, 0.01600000075995922, 1.055999994277954, 0.0, 0.0, 0.0, 0.0, 0.0, 1.6206612818505917E9, 2021-05-10 17:41:21.850
24.0, -286.4389343261719, 101.3419418334961, 139.24208068847656, -21.83914566040039, -0.04800000041723251, 0.01600000075995922, 1.055999994277954, 0.0, 0.0, 0.0, 0.0, 0.0, 1.6206612818512852E9, 2021-05-10 17:41:21.851
24.0, -297.10137939453125, 91.31526947021484, 119.34581756591797, -28.668203353881836, -0.04800000041723251, 0.01600000075995922, 1.055999994277954, 0.0, 0.0, 0.0, 0.0, 0.0, 1.6206612818512852E9, 2021-05-10 17:41:21.851
25.0, -295.7587585449219, 105.86347961425781, 133.38914489746094, -18.54803466796875, -0.04800000041723251, 0.01600000075995922, 1.055999994277954, 0.0, 0.0, 0.0, 0.0, 0.0, 1.6206612818650403E9, 2021-05-10 17:41:21.865
25.0, -276.1504821777344, 112.92814636230469, 153.30784606933594, -2.1784918308258057, -0.04800000041723251, 0.01600000075995922, 1.055999994277954, 0.0, 0.0, 0.0, 0.0, 0.0, 1.6206612818650403E9, 2021-05-10 17:41:21.865
26.0, -285.4703063964844, 96.47258758544922, 136.52691650390625, -13.345832824707031, -0.04800000041723251, 0.01600000075995922, 1.055999994277954, 0.0, 0.0, 0.0, 0.0, 0.0, 1.6206612818805835E9, 2021-05-10 17:41:21.880
26.0, -297.10137939453125, 62.51055908203125, 116.20803833007812, -27.864124298095703, -0.04800000041723251, 0.01600000075995922, 1.055999994277954, 0.0, 0.0, 0.0, 0.0, 0.0, 1.6206612818805835E9, 2021-05-10 17:41:21.880
27.0, -285.96771240234375, 80.15914916992188, 122.11708068847656, -17.65045738220215, -0.04800000041723251, 0.01600000075995922, 1.055999994277954, 0.0, 0.0, 0.0, 0.0, 0.0, 1.620661281881284E9, 2021-05-10 17:41:21.881
27.0, -265.2262268066406, 109.8165512084961, 146.3067626953125, -3.218183994293213, -0.04800000041723251, 0.01600000075995922, 1.055999994277954, 0.0, 0.0, 0.0, 0.0, 0.0, 1.620661281881284E9, 2021-05-10 17:41:21.881
28.0, -281.65185546875, 91.94357299804688, 129.4734649658203, -18.046886444091797, -0.04800000041723251, 0.01600000075995922, 1.055999994277954, 0.0, 0.0, 0.0, 0.0, 0.0, 1.620661281894966E9, 2021-05-10 17:41:21.894
28.0, -288.81378173828125, 68.07926940917969, 111.7276382446289, -26.173688888549805, -0.04800000041723251, 0.01600000075995922, 1.055999994277954, 0.0, 0.0, 0.0, 0.0, 0.0, 1.620661281894966E9, 2021-05-10 17:41:21.894
29.0, -285.38427734375, 91.56210327148438, 124.89582824707031, -18.27128028869629, -0.04800000041723251, 0.01600000075995922, 1.055999994277954, 0.0, 0.0, 0.0, 0.0, 0.0, 1.6206612819107134E9, 2021-05-10 17:41:21.910
29.0, -264.2987365722656, 112.46440124511719, 141.18309020996094, -5.447164058685303, -0.04800000041723251, 0.01600000075995922, 1.055999994277954, 0.0, 0.0, 0.0, 0.0, 0.0, 1.6206612819107134E9, 2021-05-10 17:41:21.910
30.0, -281.47235107421875, 87.82594299316406, 122.91368103027344, -22.082239151000977, -0.04800000041723251, 0.01600000075995922, 1.055999994277954, 0.0, 0.0, 0.0, 0.0, 0.0, 1.620661281911465E9, 2021-05-10 17:41:21.911
30.0, -307.8536071777344, 78.76042175292969, 101.14372253417969, -35.66929626464844, -0.04800000041723251, 0.01600000075995922, 1.055999994277954, 0.0, 0.0, 0.0, 0.0, 0.0, 1.620661281911465E9, 2021-05-10 17:41:21.911
31.0, -283.3759460449219, 101.828125, 122.57708740234375, -22.49736785888672, -0.04800000041723251, 0.01600000075995922, 1.055999994277954, 0.0, 0.0, 0.0, 0.0, 0.0, 1.620661281925062E9, 2021-05-10 17:41:21.925
31.0, -275.4847717285156, 113.70604705810547, 141.23545837402344, -17.512081146240234, -0.04800000041723251, 0.01600000075995922, 1.055999994277954, 0.0, 0.0, 0.0, 0.0, 0.0, 1.620661281925062E9, 2021-05-10 17:41:21.925
32.0, -281.6219482421875, 104.00474548339844, 129.35379028320312, -18.791128158569336, -0.04800000041723251, 0.01600000075995922, 1.055999994277954, 0.0, 0.0, 0.0, 0.0, 0.0, 1.6206612819407237E9, 2021-05-10 17:41:21.940
32.0, -293.5709228515625, 70.08759307861328, 113.24230194091797, -32.35200500488281, -0.04800000041723251, 0.01600000075995922, 1.055999994277954, 0.0, 0.0, 0.0, 0.0, 0.0, 1.6206612819407237E9, 2021-05-10 17:41:21.940
33.0, -290.98291015625, 94.78215789794922, 134.41014099121094, -18.443317413330078, -0.04800000041723251, 0.01600000075995922, 1.055999994277954, 0.0, 0.0, 0.0, 0.0, 0.0, 1.6206612819414673E9, 2021-05-10 17:41:21.941
33.0, -258.57293701171875, 130.43087768554688, 158.83541870117188, 1.3108348846435547, -0.04800000041723251, 0.01600000075995922, 1.055999994277954, 0.0, 0.0, 0.0, 0.0, 0.0, 1.6206612819414673E9, 2021-05-10 17:41:21.941
34.0, -288.2527770996094, 97.51228332519531, 136.3324432373047, -22.42630958557129, -0.04800000041723251, 0.01600000075995922, 1.055999994277954, 0.0, 0.0, 0.0, 0.0, 0.0, 1.6206612819549403E9, 2021-05-10 17:41:21.954
34.0, -297.6025390625, 77.85163116455078, 125.49795532226562, -26.25596809387207, -0.04800000041723251, 0.01600000075995922, 1.055999994277954, 0.0, 0.0, 0.0, 0.0, 0.0, 1.6206612819549403E9, 2021-05-10 17:41:21.954
35.0, -289.5281066894531, 100.33590698242188, 139.4664764404297, -13.817060470581055, -0.04800000041723251, 0.01600000075995922, 1.055999994277954, 0.0, 0.0, 0.0, 0.0, 0.0, 1.6206612819706533E9, 2021-05-10 17:41:21.970
35.0, -273.46148681640625, 113.4666976928711, 154.97210693359375, -1.7297037839889526, -0.04800000041723251, 0.01600000075995922, 1.055999994277954, 0.0, 0.0, 0.0, 0.0, 0.0, 1.6206612819706533E9, 2021-05-10 17:41:21.970
36.0, -284.1089782714844, 98.1144027709961, 134.7654266357422, -14.426664352416992, -0.04800000041723251, 0.01600000075995922, 1.055999994277954, 0.0, 0.0, 0.0, 0.0, 0.0, 1.6206612819714155E9, 2021-05-10 17:41:21.971
36.0, -306.49603271484375, 68.24756622314453, 113.54523468017578, -36.35743713378906, -0.04800000041723251, 0.01600000075995922, 1.055999994277954, 0.0, 0.0, 0.0, 0.0, 0.0, 1.6206612819714155E9, 2021-05-10 17:41:21.971
37.0, -298.8516540527344, 84.69190216064453, 121.92634582519531, -26.102632522583008, -0.04800000041723251, 0.01600000075995922, 1.055999994277954, 0.0, 0.0, 0.0, 0.0, 0.0, 1.6206612819848833E9, 2021-05-10 17:41:21.984
37.0, -268.9212341308594, 103.36522674560547, 144.7733917236328, -2.9676105976104736, -0.04800000041723251, 0.01600000075995922, 1.055999994277954, 0.0, 0.0, 0.0, 0.0, 0.0, 1.6206612819848833E9, 2021-05-10 17:41:21.984
38.0, -283.8583984375, 85.35012817382812, 124.72753143310547, -21.349218368530273, -0.04800000041723251, 0.01600000075995922, 1.055999994277954, 0.0, 0.0, 0.0, 0.0, 0.0, 1.6206612820169182E9, 2021-05-10 17:41:22.016
38.0, -301.8435974121094, 73.54326629638672, 102.8266830444336, -36.72020721435547, -0.04800000041723251, 0.01600000075995922, 1.055999994277954, 0.0, 0.0, 0.0, 0.0, 0.0, 1.6206612820169182E9, 2021-05-10 17:41:22.016
39.0, -290.41070556640625, 87.82219696044922, 113.41059875488281, -23.07705307006836, -0.04800000041723251, 0.01600000075995922, 1.055999994277954, 0.0, 0.0, 0.0, 0.0, 0.0, 1.620661282017651E9, 2021-05-10 17:41:22.017
39.0, -274.7742004394531, 111.39852905273438, 133.00393676757812, -3.255582809448242, -0.04800000041723251, 0.01600000075995922, 1.055999994277954, 0.0, 0.0, 0.0, 0.0, 0.0, 1.620661282017651E9, 2021-05-10 17:41:22.017
40.0, -291.73089599609375, 96.56608581542969, 122.41253662109375, -22.7703800201416, -0.04800000041723251, 0.01600000075995922, 1.055999994277954, 0.0, 0.0, 0.0, 0.0, 0.0, 1.6206612820183868E9, 2021-05-10 17:41:22.018
40.0, -309.3495788574219, 68.21016693115234, 103.61579895019531, -41.69053649902344, -0.04800000041723251, 0.01600000075995922, 1.055999994277954, 0.0, 0.0, 0.0, 0.0, 0.0, 1.6206612820183868E9, 2021-05-10 17:41:22.018
41.0, -291.7982177734375, 99.93573760986328, 120.23965454101562, -25.941816329956055, -0.04800000041723251, 0.03200000151991844, 1.055999994277954, 0.0, 0.0, 0.0, 0.0, 0.0, 1.6206612820191448E9, 2021-05-10 17:41:22.019
41.0, -276.3674011230469, 120.59120178222656, 146.10853576660156, -7.676144599914551, -0.04800000041723251, 0.03200000151991844, 1.055999994277954, 0.0, 0.0, 0.0, 0.0, 0.0, 1.6206612820191448E9, 2021-05-10 17:41:22.019
42.0, -286.5586242675781, 100.45932006835938, 130.08306884765625, -21.027587890625, -0.03200000151991844, 0.03200000151991844, 1.055999994277954, 0.0, 0.0, 0.0, 0.0, 0.0, 1.6206612820456889E9, 2021-05-10 17:41:22.045
42.0, -300.6580505371094, 84.83028411865234, 122.97725677490234, -22.033620834350586, -0.03200000151991844, 0.03200000151991844, 1.055999994277954, 0.0, 0.0, 0.0, 0.0, 0.0, 1.6206612820456889E9, 2021-05-10 17:41:22.045
43.0, -277.6015625, 89.53507232666016, 133.59483337402344, -21.76808738708496, -0.03200000151991844, 0.03200000151991844, 1.055999994277954, 0.0, 0.0, 0.0, 0.0, 0.0, 1.6206612820464263E9, 2021-05-10 17:41:22.046
43.0, -267.1335754394531, 118.02937316894531, 157.8368682861328, -0.2187841534614563, -0.03200000151991844, 0.03200000151991844, 1.055999994277954, 0.0, 0.0, 0.0, 0.0, 0.0, 1.6206612820464263E9, 2021-05-10 17:41:22.046
44.0, -288.2527770996094, 97.31781005859375, 144.904296875, -13.828280448913574, -0.03200000151991844, 0.03200000151991844, 1.055999994277954, 0.0, 0.0, 0.0, 0.0, 0.0, 1.6206612820607495E9, 2021-05-10 17:41:22.060
44.0, -297.5277404785156, 87.3958511352539, 122.00862884521484, -26.70849609375, -0.03200000151991844, 0.03200000151991844, 1.055999994277954, 0.0, 0.0, 0.0, 0.0, 0.0, 1.6206612820607495E9, 2021-05-10 17:41:22.060
45.0, -274.9424743652344, 97.54594421386719, 144.9491729736328, -16.521007537841797, -0.03200000151991844, 0.03200000151991844, 1.055999994277954, 0.0, 0.0, 0.0, 0.0, 0.0, 1.6206612820613785E9, 2021-05-10 17:41:22.061
45.0, -269.0932922363281, 116.61943054199219, 160.13316345214844, -0.18886494636535645, -0.03200000151991844, 0.03200000151991844, 1.055999994277954, 0.0, 0.0, 0.0, 0.0, 0.0, 1.6206612820613785E9, 2021-05-10 17:41:22.061
46.0, -275.3426513671875, 98.81002807617188, 144.69859313964844, -15.447656631469727, -0.03200000151991844, 0.03200000151991844, 1.055999994277954, 0.0, 0.0, 0.0, 0.0, 0.0, 1.6206612820749295E9, 2021-05-10 17:41:22.074
46.0, -300.4673156738281, 78.6594467163086, 120.78942108154297, -37.7711181640625, -0.03200000151991844, 0.03200000151991844, 1.055999994277954, 0.0, 0.0, 0.0, 0.0, 0.0, 1.6206612820749295E9, 2021-05-10 17:41:22.074
47.0, -286.8316345214844, 99.0531234741211, 138.5464630126953, -17.89729118347168, -0.03200000151991844, 0.03200000151991844, 1.055999994277954, 0.0, 0.0, 0.0, 0.0, 0.0, 1.6206612820906842E9, 2021-05-10 17:41:22.090
47.0, -267.4776306152344, 127.63343811035156, 156.9318084716797, -0.8844863176345825, -0.03200000151991844, 0.03200000151991844, 1.055999994277954, 0.0, 0.0, 0.0, 0.0, 0.0, 1.6206612820906842E9, 2021-05-10 17:41:22.090
48.0, -278.09521484375, 104.64427185058594, 140.1471405029297, -12.874605178833008, -0.03200000151991844, 0.03200000151991844, 1.055999994277954, 0.0, 0.0, 0.0, 0.0, 0.0, 1.620661282091366E9, 2021-05-10 17:41:22.091
48.0, -297.4866027832031, 85.04345703125, 117.87229919433594, -23.77641487121582, -0.03200000151991844, 0.03200000151991844, 1.055999994277954, 0.0, 0.0, 0.0, 0.0, 0.0, 1.620661282091366E9, 2021-05-10 17:41:22.091
49.0, -289.8721618652344, 102.38911437988281, 125.29973602294922, -17.687856674194336, -0.03200000151991844, 0.03200000151991844, 1.055999994277954, 0.0, 0.0, 0.0, 0.0, 0.0, 1.6206612821048908E9, 2021-05-10 17:41:22.104
49.0, -275.2790832519531, 121.91886901855469, 140.22193908691406, -1.2958753108978271, -0.03200000151991844, 0.03200000151991844, 1.055999994277954, 0.0, 0.0, 0.0, 0.0, 0.0, 1.6206612821048908E9, 2021-05-10 17:41:22.104
50.0, -294.86492919921875, 96.06120300292969, 126.15243530273438, -18.996822357177734, -0.03200000151991844, 0.03200000151991844, 1.055999994277954, 0.0, 0.0, 0.0, 0.0, 0.0, 1.6206612821206007E9, 2021-05-10 17:41:22.120
50.0, -303.0478210449219, 82.3544692993164, 101.85804748535156, -36.70524978637695, -0.03200000151991844, 0.03200000151991844, 1.055999994277954, 0.0, 0.0, 0.0, 0.0, 0.0, 1.6206612821206007E9, 2021-05-10 17:41:22.120
51.0, -298.6197814941406, 103.3353042602539, 111.7650375366211, -21.498815536499023, -0.03200000151991844, 0.01600000075995922, 1.055999994277954, 0.0, 0.0, 0.0, 0.0, 0.0, 1.620661282121314E9, 2021-05-10 17:41:22.121
51.0, -267.8142395019531, 117.37863159179688, 134.99729919433594, -5.8735127449035645, -0.03200000151991844, 0.01600000075995922, 1.055999994277954, 0.0, 0.0, 0.0, 0.0, 0.0, 1.620661282121314E9, 2021-05-10 17:41:22.121
52.0, -296.57781982421875, 108.24205780029297, 124.69013214111328, -11.973289489746094, -0.04800000041723251, 0.01600000075995922, 1.055999994277954, 0.0, 0.0, 0.0, 0.0, 0.0, 1.620661282134968E9, 2021-05-10 17:41:22.134
52.0, -305.5685119628906, 86.6740493774414, 99.8609390258789, -32.049072265625, -0.04800000041723251, 0.01600000075995922, 1.055999994277954, 0.0, 0.0, 0.0, 0.0, 0.0, 1.620661282134968E9, 2021-05-10 17:41:22.134
53.0, -289.5206298828125, 95.05890655517578, 120.25086975097656, -17.829973220825195, -0.04800000041723251, 0.01600000075995922, 1.055999994277954, 0.0, 0.0, 0.0, 0.0, 0.0, 1.6206612821505632E9, 2021-05-10 17:41:22.150
53.0, -260.65606689453125, 122.2031021118164, 145.7083740234375, -0.9854636192321777, -0.04800000041723251, 0.01600000075995922, 1.055999994277954, 0.0, 0.0, 0.0, 0.0, 0.0, 1.6206612821505632E9, 2021-05-10 17:41:22.150
54.0, -284.04913330078125, 92.66537475585938, 126.01032257080078, -19.99537467956543, -0.04800000041723251, 0.01600000075995922, 1.055999994277954, 0.0, 0.0, 0.0, 0.0, 0.0, 1.620661282151283E9, 2021-05-10 17:41:22.151
54.0, -302.3335266113281, 81.14273834228516, 111.1816177368164, -37.266231536865234, -0.04800000041723251, 0.01600000075995922, 1.055999994277954, 0.0, 0.0, 0.0, 0.0, 0.0, 1.620661282151283E9, 2021-05-10 17:41:22.151
55.0, -276.5768127441406, 92.11934661865234, 132.3419647216797, -21.33799934387207, -0.04800000041723251, 0.01600000075995922, 1.055999994277954, 0.0, 0.0, 0.0, 0.0, 0.0, 1.6206612821649077E9, 2021-05-10 17:41:22.164
55.0, -268.0535888671875, 107.4678955078125, 154.80006408691406, -7.851920127868652, -0.04800000041723251, 0.01600000075995922, 1.055999994277954, 0.0, 0.0, 0.0, 0.0, 0.0, 1.6206612821649077E9, 2021-05-10 17:41:22.164
56.0, -282.8935241699219, 102.53496551513672, 135.58445739746094, -13.226156234741211, -0.04800000041723251, 0.01600000075995922, 1.055999994277954, 0.0, 0.0, 0.0, 0.0, 0.0, 1.6206612821805916E9, 2021-05-10 17:41:22.180
56.0, -306.2080383300781, 79.59068298339844, 119.97412109375, -30.702709197998047, -0.04800000041723251, 0.01600000075995922, 1.055999994277954, 0.0, 0.0, 0.0, 0.0, 0.0, 1.6206612821805916E9, 2021-05-10 17:41:22.180
57.0, -293.2118835449219, 91.4274673461914, 127.36416625976562, -22.445009231567383, -0.04800000041723251, 0.01600000075995922, 1.055999994277954, 0.0, 0.0, 0.0, 0.0, 0.0, 1.6206612821812704E9, 2021-05-10 17:41:22.181
57.0, -277.8857727050781, 109.30044555664062, 148.80874633789062, -2.6871180534362793, -0.04800000041723251, 0.01600000075995922, 1.055999994277954, 0.0, 0.0, 0.0, 0.0, 0.0, 1.6206612821812704E9, 2021-05-10 17:41:22.181
58.0, -275.3875427246094, 105.41094970703125, 134.49241638183594, -14.019015312194824, -0.04800000041723251, 0.01600000075995922, 1.055999994277954, 0.0, 0.0, 0.0, 0.0, 0.0, 1.6206612821950662E9, 2021-05-10 17:41:22.195
58.0, -317.708251953125, 73.01593780517578, 104.71907043457031, -37.3597297668457, -0.04800000041723251, 0.01600000075995922, 1.055999994277954, 0.0, 0.0, 0.0, 0.0, 0.0, 1.6206612821950662E9, 2021-05-10 17:41:22.195
59.0, -296.839599609375, 85.33142852783203, 119.70858764648438, -15.926363945007324, -0.04800000041723251, 0.01600000075995922, 1.055999994277954, 0.0, 0.0, 0.0, 0.0, 0.0, 1.6206612822106264E9, 2021-05-10 17:41:22.210
59.0, -282.34747314453125, 107.14252471923828, 140.22193908691406, 5.536921977996826, -0.04800000041723251, 0.01600000075995922, 1.055999994277954, 0.0, 0.0, 0.0, 0.0, 0.0, 1.6206612822106264E9, 2021-05-10 17:41:22.210
60.0, -287.695556640625, 94.8606948852539, 128.35523986816406, -7.253535747528076, -0.04800000041723251, 0.01600000075995922, 1.055999994277954, 0.0, 0.0, 0.0, 0.0, 0.0, 1.6206612822113564E9, 2021-05-10 17:41:22.211
60.0, -304.54754638671875, 75.14393615722656, 108.19717407226562, -21.59231185913086, -0.04800000041723251, 0.01600000075995922, 1.055999994277954, 0.0, 0.0, 0.0, 0.0, 0.0, 1.6206612822113564E9, 2021-05-10 17:41:22.211
61.0, -290.8221130371094, 87.46691131591797, 123.79629516601562, -12.193943977355957, -0.04800000041723251, 0.01600000075995922, 1.055999994277954, 0.0, 0.0, 0.0, 0.0, 0.0, 1.6206612822250192E9, 2021-05-10 17:41:22.225
61.0, -275.0621643066406, 105.22769165039062, 135.3937225341797, -2.952651023864746, -0.04800000041723251, 0.01600000075995922, 1.055999994277954, 0.0, 0.0, 0.0, 0.0, 0.0, 1.6206612822250192E9, 2021-05-10 17:41:22.225
62.0, -293.66815185546875, 91.01607513427734, 123.62425994873047, -12.47443675994873, -0.04800000041723251, 0.01600000075995922, 1.055999994277954, 0.0, 0.0, 0.0, 0.0, 0.0, 1.620661282240615E9, 2021-05-10 17:41:22.240
62.0, -316.4665832519531, 62.40958023071289, 100.6650161743164, -37.09419631958008, -0.04800000041723251, 0.01600000075995922, 1.055999994277954, 0.0, 0.0, 0.0, 0.0, 0.0, 1.620661282240615E9, 2021-05-10 17:41:22.240
63.0, -296.3945617675781, 78.07975769042969, 121.42893981933594, -27.48639488220215, -0.04800000041723251, 0.01600000075995922, 1.055999994277954, 0.0, 0.0, 0.0, 0.0, 0.0, 1.6206612822413523E9, 2021-05-10 17:41:22.241
63.0, -282.3026123046875, 87.82968139648438, 133.54248046875, -17.628019332885742, -0.04800000041723251, 0.01600000075995922, 1.055999994277954, 0.0, 0.0, 0.0, 0.0, 0.0, 1.6206612822413523E9, 2021-05-10 17:41:22.241
64.0, -292.16845703125, 80.91834259033203, 123.89353942871094, -23.286487579345703, -0.04800000041723251, 0.01600000075995922, 1.055999994277954, 0.0, 0.0, 0.0, 0.0, 0.0, 1.6206612822548761E9, 2021-05-10 17:41:22.254
64.0, -317.20709228515625, 60.93231964111328, 93.04684448242188, -51.590049743652344, -0.04800000041723251, 0.01600000075995922, 1.055999994277954, 0.0, 0.0, 0.0, 0.0, 0.0, 1.6206612822548761E9, 2021-05-10 17:41:22.254
65.0, -317.3604431152344, 77.40657806396484, 106.6226806640625, -40.07489776611328, -0.04800000041723251, 0.01600000075995922, 1.055999994277954, 0.0, 0.0, 0.0, 0.0, 0.0, 1.6206612822706115E9, 2021-05-10 17:41:22.270
65.0, -292.6920471191406, 98.60433197021484, 125.40445709228516, -23.899829864501953, -0.04800000041723251, 0.01600000075995922, 1.055999994277954, 0.0, 0.0, 0.0, 0.0, 0.0, 1.6206612822706115E9, 2021-05-10 17:41:22.270
66.0, -309.7085876464844, 78.6183090209961, 112.97676849365234, -39.83554458618164, -0.04800000041723251, 0.01600000075995922, 1.055999994277954, 0.0, 0.0, 0.0, 0.0, 0.0, 1.6206612822713733E9, 2021-05-10 17:41:22.271
66.0, -326.4932556152344, 66.04850006103516, 92.58683013916016, -58.78935623168945, -0.04800000041723251, 0.01600000075995922, 1.055999994277954, 0.0, 0.0, 0.0, 0.0, 0.0, 1.6206612822713733E9, 2021-05-10 17:41:22.271
67.0, -306.1070861816406, 80.61540985107422, 107.40057373046875, -39.32691955566406, -0.04800000041723251, 0.01600000075995922, 1.055999994277954, 0.0, 0.0, 0.0, 0.0, 0.0, 1.6206612822848597E9, 2021-05-10 17:41:22.284
67.0, -284.83453369140625, 95.6610336303711, 124.89956665039062, -21.192142486572266, -0.04800000041723251, 0.01600000075995922, 1.055999994277954, 0.0, 0.0, 0.0, 0.0, 0.0, 1.6206612822848597E9, 2021-05-10 17:41:22.284
68.0, -307.3861083984375, 87.97927856445312, 113.90800476074219, -32.52777862548828, -0.04800000041723251, 0.01600000075995922, 1.055999994277954, 0.0, 0.0, 0.0, 0.0, 0.0, 1.6206612823005657E9, 2021-05-10 17:41:22.300
68.0, -330.5809631347656, 60.236698150634766, 93.65644836425781, -41.92988967895508, -0.04800000041723251, 0.01600000075995922, 1.055999994277954, 0.0, 0.0, 0.0, 0.0, 0.0, 1.6206612823005657E9, 2021-05-10 17:41:22.300
69.0, -305.66949462890625, 77.41031646728516, 114.54378509521484, -18.798606872558594, -0.04800000041723251, 0.01600000075995922, 1.055999994277954, 0.0, 0.0, 0.0, 0.0, 0.0, 1.6206612823012948E9, 2021-05-10 17:41:22.301
69.0, -279.8380126953125, 113.47791290283203, 140.88763427734375, -4.493489742279053, -0.04800000041723251, 0.01600000075995922, 1.055999994277954, 0.0, 0.0, 0.0, 0.0, 0.0, 1.6206612823012948E9, 2021-05-10 17:41:22.301
70.0, -303.9192199707031, 85.17809295654297, 118.22758483886719, -26.30458641052246, -0.04800000041723251, 0.01600000075995922, 1.055999994277954, 0.0, 0.0, 0.0, 0.0, 0.0, 1.6206612823148804E9, 2021-05-10 17:41:22.314
70.0, -323.2619934082031, 54.07334518432617, 91.3302230834961, -44.41318130493164, -0.04800000041723251, 0.01600000075995922, 1.055999994277954, 0.0, 0.0, 0.0, 0.0, 0.0, 1.6206612823148804E9, 2021-05-10 17:41:22.314
71.0, -302.3335266113281, 76.80819702148438, 109.29296875, -32.90924835205078, -0.04800000041723251, 0.01600000075995922, 1.055999994277954, 0.0, 0.0, 0.0, 0.0, 0.0, 1.6206612823306334E9, 2021-05-10 17:41:22.330
71.0, -286.4800720214844, 93.76490020751953, 131.48927307128906, -19.153898239135742, -0.04800000041723251, 0.01600000075995922, 1.055999994277954, 0.0, 0.0, 0.0, 0.0, 0.0, 1.6206612823306334E9, 2021-05-10 17:41:22.330
72.0, -290.67999267578125, 69.34709167480469, 118.34352111816406, -35.781494140625, -0.04800000041723251, 0.01600000075995922, 1.055999994277954, 0.0, 0.0, 0.0, 0.0, 0.0, 1.6206612823313663E9, 2021-05-10 17:41:22.331
72.0, -320.6216125488281, 61.64664077758789, 92.70276641845703, -54.38375473022461, -0.04800000041723251, 0.01600000075995922, 1.055999994277954, 0.0, 0.0, 0.0, 0.0, 0.0, 1.6206612823313663E9, 2021-05-10 17:41:22.331
73.0, -306.15570068359375, 83.9626235961914, 103.9710922241211, -43.661460876464844, -0.04800000041723251, 0.01600000075995922, 1.055999994277954, 0.0, 0.0, 0.0, 0.0, 0.0, 1.620661282361338E9, 2021-05-10 17:41:22.361
73.0, -295.2800598144531, 100.67997741699219, 124.67143249511719, -25.646364212036133, -0.04800000041723251, 0.01600000075995922, 1.055999994277954, 0.0, 0.0, 0.0, 0.0, 0.0, 1.620661282361338E9, 2021-05-10 17:41:22.361
74.0, -289.2064514160156, 101.37559509277344, 122.44619750976562, -32.81575393676758, -0.04800000041723251, 0.01600000075995922, 1.055999994277954, 0.0, 0.0, 0.0, 0.0, 0.0, 1.620661282362109E9, 2021-05-10 17:41:22.362
74.0, -327.9443359375, 74.10050964355469, 95.99014282226562, -54.97840118408203, -0.04800000041723251, 0.01600000075995922, 1.055999994277954, 0.0, 0.0, 0.0, 0.0, 0.0, 1.620661282362109E9, 2021-05-10 17:41:22.362
