Sample Index, EXG Channel 0, EXG Channel 1, EXG Channel 2, EXG Channel 3, Accel Channel 0, Accel Channel 1, Accel Channel 2, Other, Other, Other, Other, Other, Timestamp, Timestamp (Formatted)
0.0, -54.621238708496094, 154.25404357910156, -27.828596115112305, 191.5408477783203, 0.0, 0.0, 0.0, 0.0, 0.0, 0.0, 0.0, 0.0, 1.6206577012526999E9, 2021-05-10 16:41:41.252
1.0, -92.67098236083984, 105.85225677490234, -32.85502243041992, 157.95654296875, 0.0, 0.06400000303983688, 0.0, 0.0, 0.0, 0.0, 0.0, 0.0, 1.6206577012660773E9, 2021-05-10 16:41:41.266
1.0, -115.82469940185547, 93.54425048828125, -53.185115814208984, 139.986328125, 0.0, 0.06400000303983688, 0.0, 0.0, 0.0, 0.0, 0.0, 0.0, 1.6206577012660773E9, 2021-05-10 16:41:41.266
2.0, -75.0149154663086, 144.27598571777344, -42.53388214111328, 172.9273681640625, -0.08000000566244125, 0.06400000303983688, 0.0, 0.0, 0.0, 0.0, 0.0, 0.0, 1.6206577012826948E9, 2021-05-10 16:41:41.282
2.0, -50.4362907409668, 151.0078125, -31.834028244018555, 188.55641174316406, -0.08000000566244125, 0.06400000303983688, 0.0, 0.0, 0.0, 0.0, 0.0, 0.0, 1.6206577012826948E9, 2021-05-10 16:41:41.282
3.0, -96.77738952636719, 109.88761138916016, -46.44581604003906, 155.71633911132812, -0.08000000566244125, 0.06400000303983688, 0.0, 0.0, 0.0, 0.0, 0.0, 0.0, 1.6206577012834258E9, 2021-05-10 16:41:41.283
3.0, -104.59378051757812, 95.73583221435547, -53.21129608154297, 142.42100524902344, -0.08000000566244125, 0.06400000303983688, 0.0, 0.0, 0.0, 0.0, 0.0, 0.0, 1.6206577012834258E9, 2021-05-10 16:41:41.283
4.0, -79.274658203125, 133.55369567871094, -40.439537048339844, 178.36143493652344, -0.08000000566244125, 0.06400000303983688, 0.0, 0.0, 0.0, 0.0, 0.0, 0.0, 1.6206577013119683E9, 2021-05-10 16:41:41.311
4.0, -58.22276306152344, 159.6133270263672, -24.769357681274414, 199.1253662109375, -0.08000000566244125, 0.06400000303983688, 0.0, 0.0, 0.0, 0.0, 0.0, 0.0, 1.6206577013119683E9, 2021-05-10 16:41:41.311
5.0, -83.81863403320312, 112.48310089111328, -46.72631072998047, 153.76785278320312, -0.08000000566244125, 0.06400000303983688, 0.0, 0.0, 0.0, 0.0, 0.0, 0.0, 1.6206577013126755E9, 2021-05-10 16:41:41.312
5.0, -122.8744125366211, 99.91703796386719, -54.56513977050781, 144.70233154296875, -0.08000000566244125, 0.06400000303983688, 0.0, 0.0, 0.0, 0.0, 0.0, 0.0, 1.6206577013126755E9, 2021-05-10 16:41:41.312
6.0, -78.26862335205078, 141.60569763183594, -34.010650634765625, 182.4229736328125, -0.08000000566244125, 0.06400000303983688, 0.0, 0.0, 0.0, 0.0, 0.0, 0.0, 1.620657701326552E9, 2021-05-10 16:41:41.326
6.0, -53.47309112548828, 154.93470764160156, -29.49285125732422, 190.45626831054688, -0.08000000566244125, 0.06400000303983688, 0.0, 0.0, 0.0, 0.0, 0.0, 0.0, 1.620657701326552E9, 2021-05-10 16:41:41.326
7.0, -85.6960678100586, 107.93912506103516, -42.646080017089844, 157.0664520263672, -0.08000000566244125, 0.06400000303983688, 0.0, 0.0, 0.0, 0.0, 0.0, 0.0, 1.6206577013273022E9, 2021-05-10 16:41:41.327
7.0, -109.25370025634766, 91.9697494506836, -53.17015838623047, 145.77943420410156, -0.08000000566244125, 0.06400000303983688, 0.0, 0.0, 0.0, 0.0, 0.0, 0.0, 1.6206577013273022E9, 2021-05-10 16:41:41.327
8.0, -70.20914459228516, 133.6284942626953, -37.64583206176758, 183.19712829589844, -0.08000000566244125, 0.06400000303983688, 0.0, 0.0, 0.0, 0.0, 0.0, 0.0, 1.6206577013416085E9, 2021-05-10 16:41:41.341
8.0, -57.871212005615234, 151.77822875976562, -37.544857025146484, 190.11595153808594, -0.08000000566244125, 0.06400000303983688, 0.0, 0.0, 0.0, 0.0, 0.0, 0.0, 1.6206577013416085E9, 2021-05-10 16:41:41.341
9.0, -98.77823638916016, 116.54463195800781, -47.30599594116211, 151.41546630859375, -0.08000000566244125, 0.06400000303983688, 0.0, 0.0, 0.0, 0.0, 0.0, 0.0, 1.6206577013423083E9, 2021-05-10 16:41:41.342
9.0, -102.32366180419922, 99.36353302001953, -46.558013916015625, 140.76422119140625, -0.08000000566244125, 0.06400000303983688, 0.0, 0.0, 0.0, 0.0, 0.0, 0.0, 1.6206577013423083E9, 2021-05-10 16:41:41.342
10.0, -70.25028228759766, 132.9029541015625, -34.98302459716797, 175.4779815673828, -0.08000000566244125, 0.06400000303983688, 1.055999994277954, 0.0, 0.0, 0.0, 0.0, 0.0, 1.6206577013559763E9, 2021-05-10 16:41:41.355
10.0, -69.25172424316406, 151.71839904785156, -28.340961456298828, 191.23043823242188, -0.08000000566244125, 0.06400000303983688, 1.055999994277954, 0.0, 0.0, 0.0, 0.0, 0.0, 1.6206577013559763E9, 2021-05-10 16:41:41.355
11.0, -93.2469253540039, 118.36222076416016, -40.645233154296875, 156.9916534423828, -0.08000000566244125, 0.06400000303983688, 1.055999994277954, 0.0, 0.0, 0.0, 0.0, 0.0, 1.6206577013716588E9, 2021-05-10 16:41:41.371
11.0, -111.9352035522461, 98.66043090820312, -57.65803909301758, 133.25823974609375, -0.08000000566244125, 0.06400000303983688, 1.055999994277954, 0.0, 0.0, 0.0, 0.0, 0.0, 1.6206577013716588E9, 2021-05-10 16:41:41.371
12.0, -79.2933578491211, 137.66384887695312, -39.75139617919922, 180.3922119140625, -0.08000000566244125, 0.06400000303983688, 1.055999994277954, 0.0, 0.0, 0.0, 0.0, 0.0, 1.6206577013722637E9, 2021-05-10 16:41:41.372
12.0, -46.87590789794922, 154.11566162109375, -27.147933959960938, 193.33226013183594, -0.08000000566244125, 0.06400000303983688, 1.055999994277954, 0.0, 0.0, 0.0, 0.0, 0.0, 1.6206577013722637E9, 2021-05-10 16:41:41.372
13.0, -102.70886993408203, 123.69158172607422, -44.81148147583008, 157.48532104492188, -0.08000000566244125, 0.06400000303983688, 1.055999994277954, 0.0, 0.0, 0.0, 0.0, 0.0, 1.6206577013858569E9, 2021-05-10 16:41:41.385
13.0, -100.472412109375, 101.86178588867188, -50.051082611083984, 139.2682647705078, -0.08000000566244125, 0.06400000303983688, 1.055999994277954, 0.0, 0.0, 0.0, 0.0, 0.0, 1.6206577013858569E9, 2021-05-10 16:41:41.385
14.0, -82.73406982421875, 132.2783966064453, -38.928619384765625, 180.8970947265625, -0.08000000566244125, 0.06400000303983688, 1.055999994277954, 0.0, 0.0, 0.0, 0.0, 0.0, 1.6206577014172196E9, 2021-05-10 16:41:41.417
14.0, -62.13469696044922, 146.83033752441406, -31.153366088867188, 191.89613342285156, -0.08000000566244125, 0.06400000303983688, 1.055999994277954, 0.0, 0.0, 0.0, 0.0, 0.0, 1.6206577014172196E9, 2021-05-10 16:41:41.417
15.0, -90.21012878417969, 123.3026351928711, -42.593719482421875, 155.55552673339844, -0.08000000566244125, 0.06400000303983688, 1.055999994277954, 0.0, 0.0, 0.0, 0.0, 0.0, 1.6206577014178991E9, 2021-05-10 16:41:41.417
15.0, -109.41825103759766, 97.41504669189453, -54.430503845214844, 136.73260498046875, -0.08000000566244125, 0.06400000303983688, 1.055999994277954, 0.0, 0.0, 0.0, 0.0, 0.0, 1.6206577014178991E9, 2021-05-10 16:41:41.417
16.0, -73.84432220458984, 140.64454650878906, -40.20392608642578, 173.92591857910156, -0.08000000566244125, 0.06400000303983688, 1.055999994277954, 0.0, 0.0, 0.0, 0.0, 0.0, 1.6206577014186633E9, 2021-05-10 16:41:41.418
16.0, -44.68806457519531, 151.72213745117188, -28.987964630126953, 188.1001434326172, -0.08000000566244125, 0.06400000303983688, 1.055999994277954, 0.0, 0.0, 0.0, 0.0, 0.0, 1.6206577014186633E9, 2021-05-10 16:41:41.418
17.0, -97.47675323486328, 117.73017883300781, -52.7064094543457, 153.28541564941406, -0.08000000566244125, 0.06400000303983688, 1.055999994277954, 0.0, 0.0, 0.0, 0.0, 0.0, 1.620657701431499E9, 2021-05-10 16:41:41.431
17.0, -114.75135040283203, 100.97917175292969, -54.86433410644531, 140.47625732421875, -0.08000000566244125, 0.06400000303983688, 1.055999994277954, 0.0, 0.0, 0.0, 0.0, 0.0, 1.620657701431499E9, 2021-05-10 16:41:41.431
18.0, -69.53221893310547, 140.9923553466797, -34.485618591308594, 182.464111328125, -0.08000000566244125, 0.06400000303983688, 1.055999994277954, 0.0, 0.0, 0.0, 0.0, 0.0, 1.620657701432238E9, 2021-05-10 16:41:41.432
18.0, -80.64720153808594, 152.58604431152344, -34.85212707519531, 191.00230407714844, -0.08000000566244125, 0.06400000303983688, 1.055999994277954, 0.0, 0.0, 0.0, 0.0, 0.0, 1.620657701432238E9, 2021-05-10 16:41:41.432
19.0, -92.8205795288086, 119.6936264038086, -42.67226028442383, 160.94097900390625, -0.08000000566244125, 0.06400000303983688, 1.055999994277954, 0.0, 0.0, 0.0, 0.0, 0.0, 1.620657701445928E9, 2021-05-10 16:41:41.445
19.0, -106.71056365966797, 97.40382385253906, -56.03491973876953, 133.1984100341797, -0.08000000566244125, 0.06400000303983688, 1.055999994277954, 0.0, 0.0, 0.0, 0.0, 0.0, 1.620657701445928E9, 2021-05-10 16:41:41.445
20.0, -71.23013305664062, 137.7760467529297, -37.33916091918945, 176.3119659423828, -0.08000000566244125, 0.06400000303983688, 1.055999994277954, 0.0, 0.0, 0.0, 0.0, 0.0, 1.6206577014615388E9, 2021-05-10 16:41:41.461
20.0, -63.81017303466797, 155.18902587890625, -34.0555305480957, 192.43467712402344, -0.08000000566244125, 0.06400000303983688, 1.055999994277954, 0.0, 0.0, 0.0, 0.0, 0.0, 1.6206577014615388E9, 2021-05-10 16:41:41.461
21.0, -82.04218292236328, 118.92321014404297, -42.8704719543457, 158.214599609375, -0.08000000566244125, 0.06400000303983688, 1.055999994277954, 0.0, 0.0, 0.0, 0.0, 0.0, 1.6206577014622087E9, 2021-05-10 16:41:41.462
21.0, -115.72746276855469, 100.12647247314453, -52.36981964111328, 143.04930114746094, -0.08000000566244125, 0.06400000303983688, 1.055999994277954, 0.0, 0.0, 0.0, 0.0, 0.0, 1.6206577014622087E9, 2021-05-10 16:41:41.462
22.0, -70.4372787475586, 133.21710205078125, -39.32130813598633, 179.86114501953125, -0.08000000566244125, 0.06400000303983688, 1.055999994277954, 0.0, 0.0, 0.0, 0.0, 0.0, 1.6206577014759777E9, 2021-05-10 16:41:41.475
22.0, -48.181129455566406, 141.95726013183594, -37.791690826416016, 191.9185791015625, -0.08000000566244125, 0.06400000303983688, 1.055999994277954, 0.0, 0.0, 0.0, 0.0, 0.0, 1.6206577014759777E9, 2021-05-10 16:41:41.475
23.0, -101.59064483642578, 120.18355560302734, -45.63425827026367, 156.6326141357422, -0.08000000566244125, 0.06400000303983688, 1.055999994277954, 0.0, 0.0, 0.0, 0.0, 0.0, 1.6206577014915886E9, 2021-05-10 16:41:41.491
23.0, -107.36505126953125, 97.40382385253906, -55.339298248291016, 131.8969268798828, -0.08000000566244125, 0.06400000303983688, 1.055999994277954, 0.0, 0.0, 0.0, 0.0, 0.0, 1.6206577014915886E9, 2021-05-10 16:41:41.491
24.0, -74.80921936035156, 132.57383728027344, -48.19609069824219, 167.74386596679688, -0.08000000566244125, 0.06400000303983688, 1.055999994277954, 0.0, 0.0, 0.0, 0.0, 0.0, 1.6206577014923124E9, 2021-05-10 16:41:41.492
24.0, -53.517967224121094, 157.44418334960938, -36.48646545410156, 191.3762969970703, -0.08000000566244125, 0.06400000303983688, 1.055999994277954, 0.0, 0.0, 0.0, 0.0, 0.0, 1.6206577014923124E9, 2021-05-10 16:41:41.492
25.0, -82.11324310302734, 123.80377960205078, -42.844295501708984, 160.89236450195312, -0.08000000566244125, 0.06400000303983688, 1.055999994277954, 0.0, 0.0, 0.0, 0.0, 0.0, 1.6206577015058556E9, 2021-05-10 16:41:41.505
25.0, -105.63721466064453, 92.06698608398438, -60.38442611694336, 129.211669921875, -0.08000000566244125, 0.06400000303983688, 1.055999994277954, 0.0, 0.0, 0.0, 0.0, 0.0, 1.6206577015058556E9, 2021-05-10 16:41:41.505
26.0, -76.05460357666016, 130.03819274902344, -40.66019058227539, 184.16201782226562, -0.08000000566244125, 0.06400000303983688, 1.055999994277954, 0.0, 0.0, 0.0, 0.0, 0.0, 1.6206577015215771E9, 2021-05-10 16:41:41.521
26.0, -63.260406494140625, 155.85472106933594, -35.13262176513672, 193.6538848876953, -0.08000000566244125, 0.06400000303983688, 1.055999994277954, 0.0, 0.0, 0.0, 0.0, 0.0, 1.6206577015215771E9, 2021-05-10 16:41:41.521
27.0, -86.12989807128906, 115.82283020019531, -45.1779899597168, 155.5891876220703, -0.08000000566244125, 0.06400000303983688, 1.055999994277954, 0.0, 0.0, 0.0, 0.0, 0.0, 1.6206577015222924E9, 2021-05-10 16:41:41.522
27.0, -102.59667205810547, 100.6650161743164, -57.09705352783203, 139.11119079589844, -0.08000000566244125, 0.06400000303983688, 1.055999994277954, 0.0, 0.0, 0.0, 0.0, 0.0, 1.6206577015222924E9, 2021-05-10 16:41:41.522
28.0, -80.66216278076172, 126.70220184326172, -49.321800231933594, 170.9751434326172, -0.08000000566244125, 0.06400000303983688, 1.055999994277954, 0.0, 0.0, 0.0, 0.0, 0.0, 1.620657701551892E9, 2021-05-10 16:41:41.551
28.0, -64.73392486572266, 145.42039489746094, -37.61217498779297, 191.26036071777344, -0.08000000566244125, 0.06400000303983688, 1.055999994277954, 0.0, 0.0, 0.0, 0.0, 0.0, 1.620657701551892E9, 2021-05-10 16:41:41.551
29.0, -94.8102035522461, 114.85045623779297, -44.30659484863281, 159.05233764648438, -0.08000000566244125, 0.06400000303983688, 1.055999994277954, 0.0, 0.0, 0.0, 0.0, 0.0, 1.620657701568253E9, 2021-05-10 16:41:41.568
29.0, -95.52452087402344, 92.44471740722656, -50.97109603881836, 138.17994689941406, -0.08000000566244125, 0.06400000303983688, 1.055999994277954, 0.0, 0.0, 0.0, 0.0, 0.0, 1.620657701568253E9, 2021-05-10 16:41:41.568
30.0, -70.39613342285156, 132.2260284423828, -47.27607345581055, 171.39401245117188, -0.08000000566244125, 0.06400000303983688, 1.055999994277954, 0.0, 0.0, 0.0, 0.0, 0.0, 1.6206577015689533E9, 2021-05-10 16:41:41.568
30.0, -63.926109313964844, 157.77328491210938, -36.3443489074707, 191.79141235351562, -0.08000000566244125, 0.06400000303983688, 1.055999994277954, 0.0, 0.0, 0.0, 0.0, 0.0, 1.6206577015689533E9, 2021-05-10 16:41:41.568
31.0, -100.15826416015625, 118.47815704345703, -47.373313903808594, 155.57423400878906, -0.08000000566244125, 0.06400000303983688, 1.055999994277954, 0.0, 0.0, 0.0, 0.0, 0.0, 1.62065770156973E9, 2021-05-10 16:41:41.569
31.0, -112.04740142822266, 104.97711944580078, -57.49348068237305, 137.697509765625, -0.08000000566244125, 0.06400000303983688, 1.055999994277954, 0.0, 0.0, 0.0, 0.0, 0.0, 1.62065770156973E9, 2021-05-10 16:41:41.569
32.0, -72.72235107421875, 133.93516540527344, -43.09112548828125, 176.6859588623047, -0.08000000566244125, 0.06400000303983688, 1.055999994277954, 0.0, 0.0, 0.0, 0.0, 0.0, 1.6206577015816033E9, 2021-05-10 16:41:41.581
32.0, -50.73548126220703, 154.6878662109375, -35.15132141113281, 198.97950744628906, -0.08000000566244125, 0.06400000303983688, 1.055999994277954, 0.0, 0.0, 0.0, 0.0, 0.0, 1.6206577015816033E9, 2021-05-10 16:41:41.581
33.0, -97.9068374633789, 113.80702209472656, -52.95698165893555, 152.07742309570312, -0.08000000566244125, 0.06400000303983688, 1.055999994277954, 0.0, 0.0, 0.0, 0.0, 0.0, 1.6206577015823047E9, 2021-05-10 16:41:41.582
33.0, -99.37287902832031, 97.51228332519531, -54.770835876464844, 142.1517333984375, -0.08000000566244125, 0.06400000303983688, 1.055999994277954, 0.0, 0.0, 0.0, 0.0, 0.0, 1.6206577015823047E9, 2021-05-10 16:41:41.582
34.0, -58.8099250793457, 128.19442749023438, -41.95793914794922, 173.4359893798828, -0.08000000566244125, 0.06400000303983688, 1.055999994277954, 0.0, 0.0, 0.0, 0.0, 0.0, 1.6206577015958357E9, 2021-05-10 16:41:41.595
34.0, -60.66117858886719, 152.5710906982422, -36.84923553466797, 190.78538513183594, -0.08000000566244125, 0.06400000303983688, 1.055999994277954, 0.0, 0.0, 0.0, 0.0, 0.0, 1.6206577015958357E9, 2021-05-10 16:41:41.595
35.0, -92.92903137207031, 111.83609771728516, -48.899192810058594, 149.0443572998047, -0.08000000566244125, 0.06400000303983688, 1.055999994277954, 0.0, 0.0, 0.0, 0.0, 0.0, 1.6206577016114466E9, 2021-05-10 16:41:41.611
35.0, -101.05583953857422, 97.45992279052734, -53.50674819946289, 135.08331298828125, -0.08000000566244125, 0.06400000303983688, 1.055999994277954, 0.0, 0.0, 0.0, 0.0, 0.0, 1.6206577016114466E9, 2021-05-10 16:41:41.611
36.0, -83.52692413330078, 142.7762908935547, -47.096561431884766, 169.0229034423828, -0.08000000566244125, 0.06400000303983688, 1.055999994277954, 0.0, 0.0, 0.0, 0.0, 0.0, 1.6206577016121855E9, 2021-05-10 16:41:41.612
36.0, -53.18137741088867, 158.7344512939453, -34.14154815673828, 192.65907287597656, -0.08000000566244125, 0.06400000303983688, 1.055999994277954, 0.0, 0.0, 0.0, 0.0, 0.0, 1.6206577016121855E9, 2021-05-10 16:41:41.612
37.0, -86.9451904296875, 127.2033462524414, -42.22346878051758, 155.0431671142578, -0.08000000566244125, 0.06400000303983688, 1.055999994277954, 0.0, 0.0, 0.0, 0.0, 0.0, 1.620657701626029E9, 2021-05-10 16:41:41.626
37.0, -101.56072235107422, 102.4676513671875, -45.67165756225586, 141.1157684326172, -0.08000000566244125, 0.06400000303983688, 1.055999994277954, 0.0, 0.0, 0.0, 0.0, 0.0, 1.620657701626029E9, 2021-05-10 16:41:41.626
38.0, -73.07390594482422, 142.26393127441406, -34.915706634521484, 181.16636657714844, -0.08000000566244125, 0.06400000303983688, 1.055999994277954, 0.0, 0.0, 0.0, 0.0, 0.0, 1.6206577016416156E9, 2021-05-10 16:41:41.641
38.0, -64.81246948242188, 155.9220428466797, -32.5595703125, 191.46978759765625, -0.08000000566244125, 0.06400000303983688, 1.055999994277954, 0.0, 0.0, 0.0, 0.0, 0.0, 1.6206577016416156E9, 2021-05-10 16:41:41.641
39.0, -99.3504409790039, 126.58252716064453, -38.60698699951172, 159.69186401367188, -0.08000000566244125, 0.06400000303983688, 1.055999994277954, 0.0, 0.0, 0.0, 0.0, 0.0, 1.6206577016423433E9, 2021-05-10 16:41:41.642
39.0, -102.73131561279297, 95.7021713256836, -53.8096809387207, 133.40036010742188, -0.08000000566244125, 0.06400000303983688, 1.055999994277954, 0.0, 0.0, 0.0, 0.0, 0.0, 1.6206577016423433E9, 2021-05-10 16:41:41.642
40.0, -75.58712005615234, 136.87472534179688, -50.18571853637695, 169.09396362304688, -0.08000000566244125, 0.06400000303983688, 1.055999994277954, 0.0, 0.0, 0.0, 0.0, 0.0, 1.620657701672193E9, 2021-05-10 16:41:41.672
40.0, -55.54873275756836, 144.4779510498047, -34.64643478393555, 190.65823364257812, -0.08000000566244125, 0.06400000303983688, 1.055999994277954, 0.0, 0.0, 0.0, 0.0, 0.0, 1.620657701672193E9, 2021-05-10 16:41:41.672
41.0, -94.61946868896484, 114.06881713867188, -48.289588928222656, 149.6876220703125, -0.08000000566244125, 0.06400000303983688, 1.055999994277954, 0.0, 0.0, 0.0, 0.0, 0.0, 1.6206577016730497E9, 2021-05-10 16:41:41.673
41.0, -109.69874572753906, 111.27136993408203, -51.382484436035156, 141.99090576171875, -0.08000000566244125, 0.06400000303983688, 1.055999994277954, 0.0, 0.0, 0.0, 0.0, 0.0, 1.6206577016730497E9, 2021-05-10 16:41:41.673
42.0, -76.47721099853516, 150.02047729492188, -41.48297119140625, 181.41693115234375, -0.08000000566244125, 0.06400000303983688, 1.055999994277954, 0.0, 0.0, 0.0, 0.0, 0.0, 1.6206577016736624E9, 2021-05-10 16:41:41.673
42.0, -55.57117462158203, 155.3647918701172, -32.825103759765625, 197.8949432373047, -0.08000000566244125, 0.06400000303983688, 1.055999994277954, 0.0, 0.0, 0.0, 0.0, 0.0, 1.6206577016736624E9, 2021-05-10 16:41:41.673
43.0, -92.0987777709961, 117.6254653930664, -47.130218505859375, 152.70571899414062, -0.08000000566244125, 0.06400000303983688, 1.055999994277954, 0.0, 0.0, 0.0, 0.0, 0.0, 1.6206577016858876E9, 2021-05-10 16:41:41.685
43.0, -114.32500457763672, 101.63365173339844, -59.688804626464844, 131.8782196044922, -0.08000000566244125, 0.06400000303983688, 1.055999994277954, 0.0, 0.0, 0.0, 0.0, 0.0, 1.6206577016858876E9, 2021-05-10 16:41:41.685
44.0, -71.95567321777344, 150.6226043701172, -36.18727111816406, 182.67727661132812, -0.08000000566244125, 0.06400000303983688, 1.055999994277954, 0.0, 0.0, 0.0, 0.0, 0.0, 1.6206577017014751E9, 2021-05-10 16:41:41.701
44.0, -62.149658203125, 146.24317932128906, -43.222023010253906, 186.54434204101562, -0.08000000566244125, 0.06400000303983688, 1.055999994277954, 0.0, 0.0, 0.0, 0.0, 0.0, 1.6206577017014751E9, 2021-05-10 16:41:41.701
45.0, -84.27116394042969, 126.58626556396484, -40.794830322265625, 159.3627471923828, -0.08000000566244125, 0.06400000303983688, 1.055999994277954, 0.0, 0.0, 0.0, 0.0, 0.0, 1.6206577017021964E9, 2021-05-10 16:41:41.702
45.0, -111.68836975097656, 97.30658721923828, -53.40203094482422, 132.0951385498047, -0.08000000566244125, 0.06400000303983688, 1.055999994277954, 0.0, 0.0, 0.0, 0.0, 0.0, 1.6206577017021964E9, 2021-05-10 16:41:41.702
46.0, -59.827178955078125, 132.36814880371094, -38.64812469482422, 167.2015838623047, -0.08000000566244125, 0.06400000303983688, 1.055999994277954, 0.0, 0.0, 0.0, 0.0, 0.0, 1.62065770171584E9, 2021-05-10 16:41:41.715
46.0, -59.13529968261719, 147.9036865234375, -31.24312400817871, 188.7882843017578, -0.08000000566244125, 0.06400000303983688, 1.055999994277954, 0.0, 0.0, 0.0, 0.0, 0.0, 1.62065770171584E9, 2021-05-10 16:41:41.715
47.0, -91.31340026855469, 110.44485473632812, -43.44641876220703, 159.01119995117188, -0.08000000566244125, 0.06400000303983688, 1.055999994277954, 0.0, 0.0, 0.0, 0.0, 0.0, 1.6206577017315602E9, 2021-05-10 16:41:41.731
47.0, -101.1717758178711, 101.57381439208984, -54.34074783325195, 138.09019470214844, -0.08000000566244125, 0.06400000303983688, 1.055999994277954, 0.0, 0.0, 0.0, 0.0, 0.0, 1.6206577017315602E9, 2021-05-10 16:41:41.731
48.0, -78.65383911132812, 139.904052734375, -42.89665222167969, 171.1060333251953, -0.08000000566244125, 0.06400000303983688, 1.055999994277954, 0.0, 0.0, 0.0, 0.0, 0.0, 1.6206577017322493E9, 2021-05-10 16:41:41.732
48.0, -50.522308349609375, 146.80416870117188, -28.019330978393555, 195.9015655517578, -0.08000000566244125, 0.06400000303983688, 1.055999994277954, 0.0, 0.0, 0.0, 0.0, 0.0, 1.6206577017322493E9, 2021-05-10 16:41:41.732
49.0, -90.92818450927734, 113.52279663085938, -44.91993713378906, 152.85157775878906, -0.08000000566244125, 0.06400000303983688, 1.055999994277954, 0.0, 0.0, 0.0, 0.0, 0.0, 1.6206577017459476E9, 2021-05-10 16:41:41.745
49.0, -114.53069305419922, 109.19573211669922, -57.672996520996094, 132.45790100097656, -0.08000000566244125, 0.06400000303983688, 1.055999994277954, 0.0, 0.0, 0.0, 0.0, 0.0, 1.6206577017459476E9, 2021-05-10 16:41:41.745
50.0, -73.64984893798828, 142.1554718017578, -39.8785514831543, 165.61959838867188, -0.08000000566244125, 0.06400000303983688, 1.055999994277954, 0.0, 0.0, 0.0, 0.0, 0.0, 1.6206577017785196E9, 2021-05-10 16:41:41.778
50.0, -54.5913200378418, 146.6807403564453, -25.805309295654297, 192.00833129882812, -0.08000000566244125, 0.06400000303983688, 1.055999994277954, 0.0, 0.0, 0.0, 0.0, 0.0, 1.6206577017785196E9, 2021-05-10 16:41:41.778
51.0, -85.86810302734375, 109.61085510253906, -35.876861572265625, 155.65650939941406, -0.08000000566244125, 0.06400000303983688, 1.055999994277954, 0.0, 0.0, 0.0, 0.0, 0.0, 1.6206577017793872E9, 2021-05-10 16:41:41.779
51.0, -112.4550552368164, 87.72122192382812, -49.11984634399414, 137.4843292236328, -0.08000000566244125, 0.06400000303983688, 1.055999994277954, 0.0, 0.0, 0.0, 0.0, 0.0, 1.6206577017793872E9, 2021-05-10 16:41:41.779
52.0, -68.19707489013672, 130.913330078125, -36.26580810546875, 174.4046173095703, -0.08000000566244125, 0.06400000303983688, 1.055999994277954, 0.0, 0.0, 0.0, 0.0, 0.0, 1.6206577017800007E9, 2021-05-10 16:41:41.780
52.0, -42.975189208984375, 152.1896209716797, -20.22911834716797, 201.94898986816406, -0.08000000566244125, 0.06400000303983688, 1.055999994277954, 0.0, 0.0, 0.0, 0.0, 0.0, 1.6206577017800007E9, 2021-05-10 16:41:41.780
53.0, -84.98548889160156, 108.89653778076172, -43.89894485473633, 155.60789489746094, -0.08000000566244125, 0.06400000303983688, 1.055999994277954, 0.0, 0.0, 0.0, 0.0, 0.0, 1.6206577017807157E9, 2021-05-10 16:41:41.780
53.0, -101.88609313964844, 94.49044036865234, -51.31890869140625, 135.26657104492188, -0.08000000566244125, 0.06400000303983688, 1.055999994277954, 0.0, 0.0, 0.0, 0.0, 0.0, 1.6206577017807157E9, 2021-05-10 16:41:41.780
54.0, -53.042999267578125, 124.12166595458984, -30.06505584716797, 177.65460205078125, -0.08000000566244125, 0.06400000303983688, 1.055999994277954, 0.0, 0.0, 0.0, 0.0, 0.0, 1.6206577017907937E9, 2021-05-10 16:41:41.790
54.0, -50.862640380859375, 144.0553436279297, -21.934513092041016, 196.13343811035156, -0.08000000566244125, 0.06400000303983688, 1.055999994277954, 0.0, 0.0, 0.0, 0.0, 0.0, 1.6206577017907937E9, 2021-05-10 16:41:41.790
55.0, -76.36127471923828, 109.09101104736328, -35.31961441040039, 157.8293914794922, -0.08000000566244125, 0.06400000303983688, 1.055999994277954, 0.0, 0.0, 0.0, 0.0, 0.0, 1.6206577018059804E9, 2021-05-10 16:41:41.805
55.0, -95.15801239013672, 95.94900512695312, -44.65440368652344, 141.418701171875, -0.08000000566244125, 0.06400000303983688, 1.055999994277954, 0.0, 0.0, 0.0, 0.0, 0.0, 1.6206577018059804E9, 2021-05-10 16:41:41.805
56.0, -56.00126266479492, 146.87147521972656, -25.670673370361328, 181.68995666503906, -0.08000000566244125, 0.06400000303983688, 1.055999994277954, 0.0, 0.0, 0.0, 0.0, 0.0, 1.620657701837893E9, 2021-05-10 16:41:41.837
56.0, -54.767093658447266, 142.1442413330078, -27.80241584777832, 183.87779235839844, -0.08000000566244125, 0.06400000303983688, 1.055999994277954, 0.0, 0.0, 0.0, 0.0, 0.0, 1.620657701837893E9, 2021-05-10 16:41:41.837
57.0, -84.52173614501953, 119.33834075927734, -36.94272994995117, 161.3074951171875, -0.08000000566244125, 0.06400000303983688, 1.055999994277954, 0.0, 0.0, 0.0, 0.0, 0.0, 1.620657701838561E9, 2021-05-10 16:41:41.838
57.0, -109.97924041748047, 91.59575653076172, -49.030086517333984, 135.29275512695312, -0.08000000566244125, 0.06400000303983688, 1.055999994277954, 0.0, 0.0, 0.0, 0.0, 0.0, 1.620657701838561E9, 2021-05-10 16:41:41.838
58.0, -62.07859802246094, 141.87496948242188, -28.165185928344727, 179.0757598876953, -0.08000000566244125, 0.06400000303983688, 1.055999994277954, 0.0, 0.0, 0.0, 0.0, 0.0, 1.6206577018393395E9, 2021-05-10 16:41:41.839
58.0, -54.10887145996094, 153.79403686523438, -24.32056999206543, 193.6239776611328, -0.08000000566244125, 0.06400000303983688, 1.055999994277954, 0.0, 0.0, 0.0, 0.0, 0.0, 1.6206577018393395E9, 2021-05-10 16:41:41.839
59.0, -83.25765228271484, 115.8602294921875, -35.155059814453125, 162.00685119628906, -0.08000000566244125, 0.06400000303983688, 1.055999994277954, 0.0, 0.0, 0.0, 0.0, 0.0, 1.6206577018400471E9, 2021-05-10 16:41:41.840
59.0, -113.93605041503906, 89.89784240722656, -47.186317443847656, 135.56202697753906, -0.08000000566244125, 0.06400000303983688, 1.055999994277954, 0.0, 0.0, 0.0, 0.0, 0.0, 1.6206577018400471E9, 2021-05-10 16:41:41.840
60.0, -73.5301742553711, 126.48902893066406, -32.03598403930664, 182.69598388671875, -0.08000000566244125, 0.06400000303983688, 1.055999994277954, 0.0, 0.0, 0.0, 0.0, 0.0, 1.6206577018508809E9, 2021-05-10 16:41:41.850
60.0, -61.869163513183594, 147.61572265625, -26.96841812133789, 198.77755737304688, -0.08000000566244125, 0.06400000303983688, 1.055999994277954, 0.0, 0.0, 0.0, 0.0, 0.0, 1.6206577018508809E9, 2021-05-10 16:41:41.850
61.0, -82.73780822753906, 112.7037582397461, -36.56500244140625, 161.21774291992188, -0.08000000566244125, 0.06400000303983688, 1.055999994277954, 0.0, 0.0, 0.0, 0.0, 0.0, 1.620657701865748E9, 2021-05-10 16:41:41.865
61.0, -110.41680908203125, 99.3971939086914, -47.264854431152344, 141.4149627685547, -0.08000000566244125, 0.06400000303983688, 1.055999994277954, 0.0, 0.0, 0.0, 0.0, 0.0, 1.620657701865748E9, 2021-05-10 16:41:41.865
62.0, -66.8095703125, 136.73635864257812, -35.08399963378906, 177.29556274414062, -0.08000000566244125, 0.06400000303983688, 1.055999994277954, 0.0, 0.0, 0.0, 0.0, 0.0, 1.6206577018978655E9, 2021-05-10 16:41:41.897
62.0, -50.787841796875, 159.2655029296875, -30.584901809692383, 190.28424072265625, -0.08000000566244125, 0.06400000303983688, 1.055999994277954, 0.0, 0.0, 0.0, 0.0, 0.0, 1.6206577018978655E9, 2021-05-10 16:41:41.897
63.0, -84.47686004638672, 121.67203521728516, -45.00595474243164, 153.5584259033203, -0.08000000566244125, 0.06400000303983688, 1.055999994277954, 0.0, 0.0, 0.0, 0.0, 0.0, 1.6206577018986104E9, 2021-05-10 16:41:41.898
63.0, -107.72407531738281, 106.47308349609375, -48.895450592041016, 132.3980712890625, -0.08000000566244125, 0.06400000303983688, 1.055999994277954, 0.0, 0.0, 0.0, 0.0, 0.0, 1.6206577018986104E9, 2021-05-10 16:41:41.898
64.0, -65.52678680419922, 147.59327697753906, -31.014989852905273, 172.98345947265625, -0.08000000566244125, 0.06400000303983688, 1.055999994277954, 0.0, 0.0, 0.0, 0.0, 0.0, 1.6206577018993807E9, 2021-05-10 16:41:41.899
64.0, -51.45728302001953, 164.2321014404297, -23.98771858215332, 190.8003387451172, -0.08000000566244125, 0.06400000303983688, 1.055999994277954, 0.0, 0.0, 0.0, 0.0, 0.0, 1.6206577018993807E9, 2021-05-10 16:41:41.899
65.0, -83.78498077392578, 128.89378356933594, -39.62797927856445, 157.369384765625, -0.08000000566244125, 0.06400000303983688, 1.055999994277954, 0.0, 0.0, 0.0, 0.0, 0.0, 1.6206577019000845E9, 2021-05-10 16:41:41.900
65.0, -105.83917236328125, 113.80328369140625, -39.75139617919922, 145.06884765625, -0.08000000566244125, 0.06400000303983688, 1.055999994277954, 0.0, 0.0, 0.0, 0.0, 0.0, 1.6206577019000845E9, 2021-05-10 16:41:41.900
66.0, -77.4271469116211, 126.65731811523438, -41.29971694946289, 166.46107482910156, -0.08000000566244125, 0.06400000303983688, 1.055999994277954, 0.0, 0.0, 0.0, 0.0, 0.0, 1.620657701910929E9, 2021-05-10 16:41:41.910
66.0, -53.54414749145508, 163.44671630859375, -25.90254783630371, 196.361572265625, -0.08000000566244125, 0.06400000303983688, 1.055999994277954, 0.0, 0.0, 0.0, 0.0, 0.0, 1.620657701910929E9, 2021-05-10 16:41:41.910
67.0, -76.83250427246094, 124.76866912841797, -35.65620803833008, 156.71115112304688, -0.08000000566244125, 0.06400000303983688, 1.055999994277954, 0.0, 0.0, 0.0, 0.0, 0.0, 1.6206577019258623E9, 2021-05-10 16:41:41.925
67.0, -101.94219207763672, 100.30598449707031, -43.99992370605469, 142.6117401123047, -0.08000000566244125, 0.06400000303983688, 1.055999994277954, 0.0, 0.0, 0.0, 0.0, 0.0, 1.6206577019258623E9, 2021-05-10 16:41:41.925
68.0, -70.52703094482422, 141.66180419921875, -26.471012115478516, 186.4059600830078, -0.08000000566244125, 0.06400000303983688, 1.055999994277954, 0.0, 0.0, 0.0, 0.0, 0.0, 1.6206577019422016E9, 2021-05-10 16:41:41.942
68.0, -54.29212951660156, 154.5681915283203, -24.926433563232422, 201.9639434814453, -0.08000000566244125, 0.06400000303983688, 1.055999994277954, 0.0, 0.0, 0.0, 0.0, 0.0, 1.6206577019422016E9, 2021-05-10 16:41:41.942
69.0, -93.69197082519531, 115.13468933105469, -40.652713775634766, 161.99937438964844, -0.08000000566244125, 0.06400000303983688, 1.055999994277954, 0.0, 0.0, 0.0, 0.0, 0.0, 1.620657701942891E9, 2021-05-10 16:41:41.942
69.0, -109.24247741699219, 100.47801971435547, -51.06459426879883, 143.00816345214844, -0.08000000566244125, 0.06400000303983688, 1.055999994277954, 0.0, 0.0, 0.0, 0.0, 0.0, 1.620657701942891E9, 2021-05-10 16:41:41.942
70.0, -72.32218170166016, 148.1654815673828, -37.38029861450195, 179.98455810546875, -0.08000000566244125, 0.06400000303983688, 1.055999994277954, 0.0, 0.0, 0.0, 0.0, 0.0, 1.6206577019558992E9, 2021-05-10 16:41:41.955
70.0, -45.52206039428711, 151.66603088378906, -21.541824340820312, 201.01400756835938, -0.08000000566244125, 0.06400000303983688, 1.055999994277954, 0.0, 0.0, 0.0, 0.0, 0.0, 1.6206577019558992E9, 2021-05-10 16:41:41.955
71.0, -84.26742553710938, 126.12999725341797, -33.90593338012695, 164.3218536376953, -0.08000000566244125, 0.06400000303983688, 1.055999994277954, 0.0, 0.0, 0.0, 0.0, 0.0, 1.620657701971472E9, 2021-05-10 16:41:41.971
71.0, -105.86534881591797, 109.77167510986328, -44.57960891723633, 139.37298583984375, -0.08000000566244125, 0.06400000303983688, 1.055999994277954, 0.0, 0.0, 0.0, 0.0, 0.0, 1.620657701971472E9, 2021-05-10 16:41:41.971
72.0, -69.70051574707031, 128.59458923339844, -35.529048919677734, 176.46531677246094, -0.06400000303983688, 0.06400000303983688, 1.055999994277954, 0.0, 0.0, 0.0, 0.0, 0.0, 1.6206577019721916E9, 2021-05-10 16:41:41.972
72.0, -53.301055908203125, 153.8800506591797, -21.863454818725586, 196.7056427001953, -0.06400000303983688, 0.06400000303983688, 1.055999994277954, 0.0, 0.0, 0.0, 0.0, 0.0, 1.6206577019721916E9, 2021-05-10 16:41:41.972
73.0, -80.20589447021484, 114.59988403320312, -35.98531723022461, 159.9573974609375, -0.06400000303983688, 0.06400000303983688, 1.055999994277954, 0.0, 0.0, 0.0, 0.0, 0.0, 1.620657701985892E9, 2021-05-10 16:41:41.985
73.0, -109.84085845947266, 95.14118194580078, -42.653560638427734, 141.1681365966797, -0.06400000303983688, 0.06400000303983688, 1.055999994277954, 0.0, 0.0, 0.0, 0.0, 0.0, 1.620657701985892E9, 2021-05-10 16:41:41.985
74.0, -65.39962768554688, 137.4843292236328, -31.10100746154785, 181.32717895507812, -0.06400000303983688, 0.06400000303983688, 1.055999994277954, 0.0, 0.0, 0.0, 0.0, 0.0, 1.6206577020021586E9, 2021-05-10 16:41:42.002
74.0, -53.84333801269531, 155.7051239013672, -24.922693252563477, 203.22055053710938, -0.06400000303983688, 0.06400000303983688, 1.055999994277954, 0.0, 0.0, 0.0, 0.0, 0.0, 1.6206577020021586E9, 2021-05-10 16:41:42.002
75.0, -76.97462463378906, 119.4916763305664, -38.98845672607422, 158.6409454345703, -0.06400000303983688, 0.06400000303983688, 1.055999994277954, 0.0, 0.0, 0.0, 0.0, 0.0, 1.6206577020029E9, 2021-05-10 16:41:42.002
75.0, -104.9677734375, 104.36751556396484, -44.08219909667969, 142.615478515625, -0.06400000303983688, 0.06400000303983688, 1.055999994277954, 0.0, 0.0, 0.0, 0.0, 0.0, 1.6206577020029E9, 2021-05-10 16:41:42.002
76.0, -68.2943115234375, 134.35777282714844, -34.46317672729492, 179.86114501953125, -0.06400000303983688, 0.06400000303983688, 1.055999994277954, 0.0, 0.0, 0.0, 0.0, 0.0, 1.620657702015881E9, 2021-05-10 16:41:42.015
76.0, -55.17848205566406, 149.20892333984375, -25.150827407836914, 200.41563415527344, -0.06400000303983688, 0.06400000303983688, 1.055999994277954, 0.0, 0.0, 0.0, 0.0, 0.0, 1.620657702015881E9, 2021-05-10 16:41:42.015
77.0, -86.563720703125, 116.73162841796875, -29.466670989990234, 167.710205078125, -0.06400000303983688, 0.06400000303983688, 1.055999994277954, 0.0, 0.0, 0.0, 0.0, 0.0, 1.6206577020636373E9, 2021-05-10 16:41:42.063
77.0, -104.7508544921875, 90.67200469970703, -45.68287658691406, 146.172119140625, -0.06400000303983688, 0.06400000303983688, 1.055999994277954, 0.0, 0.0, 0.0, 0.0, 0.0, 1.6206577020636373E9, 2021-05-10 16:41:42.063
78.0, -63.2828483581543, 129.48094177246094, -28.625194549560547, 184.72300720214844, -0.06400000303983688, 0.06400000303983688, 1.055999994277954, 0.0, 0.0, 0.0, 0.0, 0.0, 1.6206577020642104E9, 2021-05-10 16:41:42.064
78.0, -48.98521041870117, 152.04002380371094, -26.265317916870117, 192.52444458007812, -0.06400000303983688, 0.06400000303983688, 1.055999994277954, 0.0, 0.0, 0.0, 0.0, 0.0, 1.6206577020642104E9, 2021-05-10 16:41:42.064
79.0, -82.36007690429688, 112.7486343383789, -34.676353454589844, 160.21170043945312, -0.06400000303983688, 0.06400000303983688, 1.055999994277954, 0.0, 0.0, 0.0, 0.0, 0.0, 1.6206577020649605E9, 2021-05-10 16:41:42.064
79.0, -100.24427795410156, 90.7879409790039, -42.47030258178711, 141.44862365722656, -0.06400000303983688, 0.06400000303983688, 1.055999994277954, 0.0, 0.0, 0.0, 0.0, 0.0, 1.6206577020649605E9, 2021-05-10 16:41:42.064
80.0, -79.68605041503906, 139.0027313232422, -34.63521194458008, 172.0858917236328, -0.06400000303983688, 0.06400000303983688, 1.055999994277954, 0.0, 0.0, 0.0, 0.0, 0.0, 1.6206577020656953E9, 2021-05-10 16:41:42.065
80.0, -48.69723892211914, 163.62623596191406, -20.154321670532227, 195.68466186523438, -0.06400000303983688, 0.06400000303983688, 1.055999994277954, 0.0, 0.0, 0.0, 0.0, 0.0, 1.6206577020656953E9, 2021-05-10 16:41:42.065
81.0, -79.9366226196289, 137.7835235595703, -35.08399963378906, 160.14437866210938, -0.06400000303983688, 0.06400000303983688, 1.055999994277954, 0.0, 0.0, 0.0, 0.0, 0.0, 1.6206577020765169E9, 2021-05-10 16:41:42.076
81.0, -109.57907104492188, 99.02693939208984, -48.67479705810547, 136.74383544921875, -0.06400000303983688, 0.06400000303983688, 1.055999994277954, 0.0, 0.0, 0.0, 0.0, 0.0, 1.6206577020765169E9, 2021-05-10 16:41:42.076
82.0, -65.2425537109375, 137.51425170898438, -31.224424362182617, 176.13246154785156, -0.06400000303983688, 0.06400000303983688, 1.055999994277954, 0.0, 0.0, 0.0, 0.0, 0.0, 1.6206577020772848E9, 2021-05-10 16:41:42.077
82.0, -47.668766021728516, 150.6226043701172, -26.40369415283203, 191.55580139160156, -0.06400000303983688, 0.06400000303983688, 1.055999994277954, 0.0, 0.0, 0.0, 0.0, 0.0, 1.6206577020772848E9, 2021-05-10 16:41:42.077
83.0, -89.86231994628906, 114.88037872314453, -41.47549057006836, 156.81961059570312, -0.06400000303983688, 0.06400000303983688, 1.055999994277954, 0.0, 0.0, 0.0, 0.0, 0.0, 1.620657702107889E9, 2021-05-10 16:41:42.107
83.0, -94.60824584960938, 107.83814239501953, -35.297176361083984, 151.5500946044922, -0.06400000303983688, 0.06400000303983688, 1.055999994277954, 0.0, 0.0, 0.0, 0.0, 0.0, 1.620657702107889E9, 2021-05-10 16:41:42.107
84.0, -70.00718688964844, 131.7996826171875, -35.592628479003906, 171.84278869628906, -0.06400000303983688, 0.06400000303983688, 1.055999994277954, 0.0, 0.0, 0.0, 0.0, 0.0, 1.6206577021085997E9, 2021-05-10 16:41:42.108
84.0, -57.09331130981445, 151.0938262939453, -29.459192276000977, 192.43093872070312, -0.06400000303983688, 0.06400000303983688, 1.055999994277954, 0.0, 0.0, 0.0, 0.0, 0.0, 1.6206577021085997E9, 2021-05-10 16:41:42.108
85.0, -87.81658935546875, 118.14530944824219, -33.73763656616211, 163.1737060546875, -0.06400000303983688, 0.06400000303983688, 1.055999994277954, 0.0, 0.0, 0.0, 0.0, 0.0, 1.620657702109442E9, 2021-05-10 16:41:42.109
85.0, -98.35189056396484, 96.35291290283203, -40.84718704223633, 141.5159454345703, -0.06400000303983688, 0.06400000303983688, 1.055999994277954, 0.0, 0.0, 0.0, 0.0, 0.0, 1.620657702109442E9, 2021-05-10 16:41:42.109
86.0, -69.45368194580078, 146.57603454589844, -27.27882957458496, 181.42442321777344, -0.06400000303983688, 0.06400000303983688, 1.055999994277954, 0.0, 0.0, 0.0, 0.0, 0.0, 1.620657702110216E9, 2021-05-10 16:41:42.110
86.0, -51.71159744262695, 143.1166229248047, -26.018484115600586, 191.5782470703125, -0.06400000303983688, 0.06400000303983688, 1.055999994277954, 0.0, 0.0, 0.0, 0.0, 0.0, 1.620657702110216E9, 2021-05-10 16:41:42.110
87.0, -81.90380859375, 111.9856948852539, -32.84379959106445, 158.0911865234375, -0.06400000303983688, 0.06400000303983688, 1.055999994277954, 0.0, 0.0, 0.0, 0.0, 0.0, 1.6206577021208875E9, 2021-05-10 16:41:42.120
87.0, -112.88887786865234, 103.35774230957031, -37.260623931884766, 140.89886474609375, -0.06400000303983688, 0.06400000303983688, 1.055999994277954, 0.0, 0.0, 0.0, 0.0, 0.0, 1.6206577021208875E9, 2021-05-10 16:41:42.120
88.0, -69.46864318847656, 137.20384216308594, -23.737144470214844, 176.40921020507812, -0.06400000303983688, 0.06400000303983688, 1.055999994277954, 0.0, 0.0, 0.0, 0.0, 0.0, 1.620657702135796E9, 2021-05-10 16:41:42.135
88.0, -50.290435791015625, 147.4885711669922, -21.927034378051758, 200.08277893066406, -0.06400000303983688, 0.06400000303983688, 1.055999994277954, 0.0, 0.0, 0.0, 0.0, 0.0, 1.620657702135796E9, 2021-05-10 16:41:42.135
89.0, -85.56517028808594, 114.02767944335938, -41.23987579345703, 161.08309936523438, -0.06400000303983688, 0.06400000303983688, 1.055999994277954, 0.0, 0.0, 0.0, 0.0, 0.0, 1.6206577021516309E9, 2021-05-10 16:41:42.151
89.0, -109.77728271484375, 98.54823303222656, -48.4691047668457, 140.37527465820312, -0.06400000303983688, 0.06400000303983688, 1.055999994277954, 0.0, 0.0, 0.0, 0.0, 0.0, 1.6206577021516309E9, 2021-05-10 16:41:42.151
90.0, -58.60423278808594, 142.83987426757812, -29.3731746673584, 179.46096801757812, -0.06400000303983688, 0.06400000303983688, 1.055999994277954, 0.0, 0.0, 0.0, 0.0, 0.0, 1.620657702152305E9, 2021-05-10 16:41:42.152
90.0, -62.50868606567383, 144.27972412109375, -29.21609878540039, 194.54025268554688, -0.06400000303983688, 0.06400000303983688, 1.055999994277954, 0.0, 0.0, 0.0, 0.0, 0.0, 1.620657702152305E9, 2021-05-10 16:41:42.152
91.0, -89.83613586425781, 121.4813003540039, -37.13346481323242, 164.75942993164062, -0.06400000303983688, 0.06400000303983688, 1.055999994277954, 0.0, 0.0, 0.0, 0.0, 0.0, 1.6206577021658175E9, 2021-05-10 16:41:42.165
91.0, -104.3880844116211, 108.37669372558594, -46.78240966796875, 137.76107788085938, -0.06400000303983688, 0.06400000303983688, 1.055999994277954, 0.0, 0.0, 0.0, 0.0, 0.0, 1.6206577021658175E9, 2021-05-10 16:41:42.165
92.0, -58.443416595458984, 113.33580017089844, -26.661746978759766, 180.0032501220703, -0.06400000303983688, 0.06400000303983688, 1.055999994277954, 0.0, 0.0, 0.0, 0.0, 0.0, 1.6206577021815207E9, 2021-05-10 16:41:42.181
92.0, -50.769142150878906, 147.26417541503906, -21.137914657592773, 195.0563507080078, -0.06400000303983688, 0.06400000303983688, 1.055999994277954, 0.0, 0.0, 0.0, 0.0, 0.0, 1.6206577021815207E9, 2021-05-10 16:41:42.181
93.0, -86.53754425048828, 114.51387023925781, -31.546056747436523, 160.82504272460938, -0.06400000303983688, 0.06400000303983688, 1.055999994277954, 0.0, 0.0, 0.0, 0.0, 0.0, 1.6206577021822252E9, 2021-05-10 16:41:42.182
93.0, -113.6593017578125, 97.21682739257812, -46.43459701538086, 136.78497314453125, -0.06400000303983688, 0.06400000303983688, 1.055999994277954, 0.0, 0.0, 0.0, 0.0, 0.0, 1.6206577021822252E9, 2021-05-10 16:41:42.182
94.0, -74.08741760253906, 137.36839294433594, -29.522769927978516, 177.7667999267578, -0.06400000303983688, 0.06400000303983688, 1.055999994277954, 0.0, 0.0, 0.0, 0.0, 0.0, 1.620657702195959E9, 2021-05-10 16:41:42.195
94.0, -56.75672149658203, 168.28988647460938, -23.9091796875, 189.90650939941406, -0.06400000303983688, 0.06400000303983688, 1.055999994277954, 0.0, 0.0, 0.0, 0.0, 0.0, 1.620657702195959E9, 2021-05-10 16:41:42.195
95.0, -80.3592300415039, 120.68470001220703, -30.49514389038086, 157.54888916015625, -0.06400000303983688, 0.06400000303983688, 1.055999994277954, 0.0, 0.0, 0.0, 0.0, 0.0, 1.6206577022116408E9, 2021-05-10 16:41:42.211
95.0, -100.31533813476562, 93.62278747558594, -42.593719482421875, 136.0743865966797, -0.06400000303983688, 0.06400000303983688, 1.055999994277954, 0.0, 0.0, 0.0, 0.0, 0.0, 1.6206577022116408E9, 2021-05-10 16:41:42.211
96.0, -64.0794448852539, 129.05833435058594, -30.439044952392578, 175.9342498779297, -0.06400000303983688, 0.06400000303983688, 1.055999994277954, 0.0, 0.0, 0.0, 0.0, 0.0, 1.6206577022122016E9, 2021-05-10 16:41:42.212
96.0, -54.9727897644043, 153.66688537597656, -21.55678367614746, 197.64810180664062, -0.06400000303983688, 0.06400000303983688, 1.055999994277954, 0.0, 0.0, 0.0, 0.0, 0.0, 1.6206577022122016E9, 2021-05-10 16:41:42.212
97.0, -92.89911651611328, 101.19234466552734, -41.77094268798828, 159.64697265625, -0.06400000303983688, 0.06400000303983688, 1.055999994277954, 0.0, 0.0, 0.0, 0.0, 0.0, 1.62065770222574E9, 2021-05-10 16:41:42.225
97.0, -106.16454315185547, 94.88687133789062, -43.47259521484375, 147.56710815429688, -0.06400000303983688, 0.06400000303983688, 1.055999994277954, 0.0, 0.0, 0.0, 0.0, 0.0, 1.62065770222574E9, 2021-05-10 16:41:42.225
98.0, -75.71427154541016, 130.748779296875, -37.350379943847656, 178.15574645996094, -0.06400000303983688, 0.06400000303983688, 1.055999994277954, 0.0, 0.0, 0.0, 0.0, 0.0, 1.6206577022414224E9, 2021-05-10 16:41:42.241
98.0, -56.767940521240234, 153.5509490966797, -32.48851013183594, 195.87913513183594, -0.06400000303983688, 0.06400000303983688, 1.055999994277954, 0.0, 0.0, 0.0, 0.0, 0.0, 1.6206577022414224E9, 2021-05-10 16:41:42.241
99.0, -83.76254272460938, 109.29670715332031, -39.153011322021484, 164.5612030029297, -0.06400000303983688, 0.06400000303983688, 1.055999994277954, 0.0, 0.0, 0.0, 0.0, 0.0, 1.6206577022421663E9, 2021-05-10 16:41:42.242
99.0, -96.16404724121094, 89.44532012939453, -43.9625244140625, 147.84759521484375, -0.06400000303983688, 0.06400000303983688, 1.055999994277954, 0.0, 0.0, 0.0, 0.0, 0.0, 1.6206577022421663E9, 2021-05-10 16:41:42.242
100.0, -76.98583984375, 126.92659759521484, -43.76804733276367, 169.50535583496094, -0.06400000303983688, 0.06400000303983688, 1.040000081062317, 0.0, 0.0, 0.0, 0.0, 0.0, 1.6206577022566023E9, 2021-05-10 16:41:42.256
100.0, -55.51133346557617, 151.7296142578125, -26.03718376159668, 195.00399780273438, -0.06400000303983688, 0.06400000303983688, 1.040000081062317, 0.0, 0.0, 0.0, 0.0, 0.0, 1.6206577022566023E9, 2021-05-10 16:41:42.256
0.0, -79.83938598632812, 118.60344696044922, -32.86249923706055, 168.74241638183594, -0.06400000303983688, 0.06400000303983688, 1.040000081062317, 0.0, 0.0, 0.0, 0.0, 0.0, 1.6206577022573376E9, 2021-05-10 16:41:42.257
1.0, -105.51005554199219, 90.32606506347656, -45.67539978027344, 145.52137756347656, -0.06400000303983688, 0.06400000303983688, 1.040000081062317, 0.0, 0.0, 0.0, 0.0, 0.0, 1.620657702270749E9, 2021-05-10 16:41:42.270
1.0, -67.80438995361328, 125.54096221923828, -30.166032791137695, 188.1300506591797, -0.06400000303983688, 0.06400000303983688, 1.040000081062317, 0.0, 0.0, 0.0, 0.0, 0.0, 1.620657702270749E9, 2021-05-10 16:41:42.270
2.0, -51.66297912597656, 156.10342407226562, -24.731958389282227, 196.4102020263672, -0.06400000303983688, 0.06400000303983688, 1.040000081062317, 0.0, 0.0, 0.0, 0.0, 0.0, 1.6206577022866035E9, 2021-05-10 16:41:42.286
2.0, -81.59713745117188, 106.72552490234375, -41.71858215332031, 159.37770080566406, -0.06400000303983688, 0.06400000303983688, 1.040000081062317, 0.0, 0.0, 0.0, 0.0, 0.0, 1.6206577022866035E9, 2021-05-10 16:41:42.286
3.0, -102.85099029541016, 88.95726013183594, -53.143978118896484, 144.0067138671875, -0.06400000303983688, 0.06400000303983688, 1.040000081062317, 0.0, 0.0, 0.0, 0.0, 0.0, 1.620657702287372E9, 2021-05-10 16:41:42.287
3.0, -80.23207092285156, 131.53228759765625, -45.421085357666016, 173.62672424316406, -0.06400000303983688, 0.06400000303983688, 1.040000081062317, 0.0, 0.0, 0.0, 0.0, 0.0, 1.620657702287372E9, 2021-05-10 16:41:42.287
4.0, -59.015621185302734, 154.36062622070312, -34.89700698852539, 190.19448852539062, -0.06400000303983688, 0.06400000303983688, 1.040000081062317, 0.0, 0.0, 0.0, 0.0, 0.0, 1.6206577023008895E9, 2021-05-10 16:41:42.300
4.0, -91.00672912597656, 120.24152374267578, -44.86383819580078, 162.35841369628906, -0.06400000303983688, 0.06400000303983688, 1.040000081062317, 0.0, 0.0, 0.0, 0.0, 0.0, 1.6206577023008895E9, 2021-05-10 16:41:42.300
5.0, -107.10325622558594, 99.6496353149414, -49.703269958496094, 144.58639526367188, -0.06400000303983688, 0.06400000303983688, 1.040000081062317, 0.0, 0.0, 0.0, 0.0, 0.0, 1.62065770231654E9, 2021-05-10 16:41:42.316
5.0, -62.79291915893555, 131.7080535888672, -32.914859771728516, 177.90142822265625, -0.06400000303983688, 0.06400000303983688, 1.040000081062317, 0.0, 0.0, 0.0, 0.0, 0.0, 1.62065770231654E9, 2021-05-10 16:41:42.316
6.0, -57.85251235961914, 144.2554168701172, -34.70252990722656, 184.6257781982422, -0.06400000303983688, 0.06400000303983688, 1.040000081062317, 0.0, 0.0, 0.0, 0.0, 0.0, 1.6206577023172522E9, 2021-05-10 16:41:42.317
6.0, -88.07090759277344, 115.40583038330078, -37.22322463989258, 163.5140380859375, -0.06400000303983688, 0.06400000303983688, 1.040000081062317, 0.0, 0.0, 0.0, 0.0, 0.0, 1.6206577023172522E9, 2021-05-10 16:41:42.317
7.0, -105.2482681274414, 89.10311889648438, -47.16013717651367, 139.75819396972656, -0.06400000303983688, 0.06400000303983688, 1.040000081062317, 0.0, 0.0, 0.0, 0.0, 0.0, 1.6206577023307264E9, 2021-05-10 16:41:42.330
7.0, -68.68326568603516, 135.9565887451172, -33.232749938964844, 181.5216522216797, -0.06400000303983688, 0.06400000303983688, 1.040000081062317, 0.0, 0.0, 0.0, 0.0, 0.0, 1.6206577023307264E9, 2021-05-10 16:41:42.330
8.0, -49.89026641845703, 157.9172821044922, -31.658252716064453, 199.77236938476562, -0.06400000303983688, 0.06400000303983688, 1.040000081062317, 0.0, 0.0, 0.0, 0.0, 0.0, 1.62065770234721E9, 2021-05-10 16:41:42.347
8.0, -76.94096374511719, 112.9561996459961, -41.84199905395508, 166.79019165039062, -0.06400000303983688, 0.06400000303983688, 1.040000081062317, 0.0, 0.0, 0.0, 0.0, 0.0, 1.62065770234721E9, 2021-05-10 16:41:42.347
9.0, -103.03424072265625, 101.8561782836914, -50.903778076171875, 148.4160614013672, -0.06400000303983688, 0.06400000303983688, 1.040000081062317, 0.0, 0.0, 0.0, 0.0, 0.0, 1.620657702347932E9, 2021-05-10 16:41:42.347
9.0, -87.40145874023438, 133.0731201171875, -52.10802459716797, 168.50680541992188, -0.06400000303983688, 0.06400000303983688, 1.040000081062317, 0.0, 0.0, 0.0, 0.0, 0.0, 1.620657702347932E9, 2021-05-10 16:41:42.347
10.0, -56.951194763183594, 151.35000610351562, -28.591535568237305, 196.08856201171875, -0.06400000303983688, 0.06400000303983688, 1.055999994277954, 0.0, 0.0, 0.0, 0.0, 0.0, 1.6206577023608766E9, 2021-05-10 16:41:42.360
10.0, -98.05643463134766, 115.02810668945312, -43.43145751953125, 163.10264587402344, -0.06400000303983688, 0.06400000303983688, 1.055999994277954, 0.0, 0.0, 0.0, 0.0, 0.0, 1.6206577023608766E9, 2021-05-10 16:41:42.360
11.0, -105.30435943603516, 93.80416870117188, -48.97772979736328, 147.46612548828125, -0.06400000303983688, 0.06400000303983688, 1.055999994277954, 0.0, 0.0, 0.0, 0.0, 0.0, 1.6206577023765895E9, 2021-05-10 16:41:42.376
11.0, -68.68700408935547, 136.19219970703125, -31.811588287353516, 184.43878173828125, -0.06400000303983688, 0.06400000303983688, 1.055999994277954, 0.0, 0.0, 0.0, 0.0, 0.0, 1.6206577023765895E9, 2021-05-10 16:41:42.376
12.0, -47.96421813964844, 153.3882598876953, -29.380653381347656, 198.5419464111328, -0.06400000303983688, 0.06400000303983688, 1.055999994277954, 0.0, 0.0, 0.0, 0.0, 0.0, 1.6206577023774073E9, 2021-05-10 16:41:42.377
12.0, -94.99346160888672, 115.76112365722656, -50.64572525024414, 157.17117309570312, -0.06400000303983688, 0.06400000303983688, 1.055999994277954, 0.0, 0.0, 0.0, 0.0, 0.0, 1.6206577023774073E9, 2021-05-10 16:41:42.377
13.0, -104.1861343383789, 95.5357437133789, -48.20357131958008, 139.6871337890625, -0.06400000303983688, 0.06400000303983688, 1.055999994277954, 0.0, 0.0, 0.0, 0.0, 0.0, 1.6206577023908308E9, 2021-05-10 16:41:42.390
13.0, -71.54802703857422, 132.97962951660156, -33.26641082763672, 176.08009338378906, -0.06400000303983688, 0.06400000303983688, 1.055999994277954, 0.0, 0.0, 0.0, 0.0, 0.0, 1.6206577023908308E9, 2021-05-10 16:41:42.390
14.0, -57.16062927246094, 159.71990966796875, -23.92414093017578, 193.42575073242188, -0.06400000303983688, 0.06400000303983688, 1.055999994277954, 0.0, 0.0, 0.0, 0.0, 0.0, 1.6206577024065325E9, 2021-05-10 16:41:42.406
14.0, -91.35453796386719, 121.0306396484375, -41.56150817871094, 158.69705200195312, -0.06400000303983688, 0.06400000303983688, 1.055999994277954, 0.0, 0.0, 0.0, 0.0, 0.0, 1.6206577024065325E9, 2021-05-10 16:41:42.406
15.0, -110.63745880126953, 99.5860595703125, -48.78699493408203, 139.06631469726562, -0.06400000303983688, 0.06400000303983688, 1.055999994277954, 0.0, 0.0, 0.0, 0.0, 0.0, 1.6206577024072125E9, 2021-05-10 16:41:42.407
15.0, -73.9153823852539, 124.8640365600586, -31.912567138671875, 185.97213745117188, -0.06400000303983688, 0.06400000303983688, 1.055999994277954, 0.0, 0.0, 0.0, 0.0, 0.0, 1.6206577024072125E9, 2021-05-10 16:41:42.407
16.0, -59.58408737182617, 151.8100128173828, -33.27762985229492, 202.06866455078125, -0.06400000303983688, 0.06400000303983688, 1.055999994277954, 0.0, 0.0, 0.0, 0.0, 0.0, 1.6206577024208915E9, 2021-05-10 16:41:42.420
16.0, -89.21531677246094, 124.47135162353516, -46.700130462646484, 170.0850372314453, -0.06400000303983688, 0.06400000303983688, 1.055999994277954, 0.0, 0.0, 0.0, 0.0, 0.0, 1.6206577024208915E9, 2021-05-10 16:41:42.420
17.0, -114.96826171875, 103.92060089111328, -55.80304718017578, 145.6223602294922, -0.06400000303983688, 0.06400000303983688, 1.055999994277954, 0.0, 0.0, 0.0, 0.0, 0.0, 1.620657702437144E9, 2021-05-10 16:41:42.437
17.0, -76.04712677001953, 120.33502197265625, -45.421085357666016, 182.1611785888672, -0.06400000303983688, 0.06400000303983688, 1.055999994277954, 0.0, 0.0, 0.0, 0.0, 0.0, 1.620657702437144E9, 2021-05-10 16:41:42.437
18.0, -51.17679214477539, 153.032958984375, -35.50661087036133, 203.97975158691406, -0.06400000303983688, 0.06400000303983688, 1.055999994277954, 0.0, 0.0, 0.0, 0.0, 0.0, 1.620657702437871E9, 2021-05-10 16:41:42.437
18.0, -84.69003295898438, 117.30196380615234, -39.48960494995117, 166.53587341308594, -0.06400000303983688, 0.06400000303983688, 1.055999994277954, 0.0, 0.0, 0.0, 0.0, 0.0, 1.620657702437871E9, 2021-05-10 16:41:42.437
19.0, -109.59028625488281, 93.84530639648438, -45.91475296020508, 144.59388732910156, -0.06400000303983688, 0.06400000303983688, 1.055999994277954, 0.0, 0.0, 0.0, 0.0, 0.0, 1.6206577024508996E9, 2021-05-10 16:41:42.450
19.0, -75.97980499267578, 132.11196899414062, -42.71713638305664, 175.15634155273438, -0.06400000303983688, 0.06400000303983688, 1.055999994277954, 0.0, 0.0, 0.0, 0.0, 0.0, 1.6206577024508996E9, 2021-05-10 16:41:42.450
20.0, -58.398536682128906, 153.56777954101562, -27.432167053222656, 199.00942993164062, -0.06400000303983688, 0.06400000303983688, 1.055999994277954, 0.0, 0.0, 0.0, 0.0, 0.0, 1.6206577024664783E9, 2021-05-10 16:41:42.466
20.0, -96.02941131591797, 116.3894271850586, -44.7778205871582, 162.0330352783203, -0.06400000303983688, 0.06400000303983688, 1.055999994277954, 0.0, 0.0, 0.0, 0.0, 0.0, 1.6206577024664783E9, 2021-05-10 16:41:42.466
21.0, -115.65640258789062, 98.8642578125, -52.859745025634766, 141.0933380126953, -0.06400000303983688, 0.06400000303983688, 1.055999994277954, 0.0, 0.0, 0.0, 0.0, 0.0, 1.6206577024672368E9, 2021-05-10 16:41:42.467
21.0, -87.65203857421875, 133.68646240234375, -42.122493743896484, 178.86631774902344, -0.06400000303983688, 0.06400000303983688, 1.055999994277954, 0.0, 0.0, 0.0, 0.0, 0.0, 1.6206577024672368E9, 2021-05-10 16:41:42.467
22.0, -59.08667755126953, 160.755859375, -27.290050506591797, 200.66993713378906, -0.06400000303983688, 0.06400000303983688, 1.055999994277954, 0.0, 0.0, 0.0, 0.0, 0.0, 1.6206577024809768E9, 2021-05-10 16:41:42.480
22.0, -97.47301483154297, 123.82808685302734, -45.978328704833984, 158.7568817138672, -0.06400000303983688, 0.06400000303983688, 1.055999994277954, 0.0, 0.0, 0.0, 0.0, 0.0, 1.6206577024809768E9, 2021-05-10 16:41:42.480
23.0, -119.37760925292969, 101.41860961914062, -54.1500129699707, 148.27767944335938, -0.06400000303983688, 0.06400000303983688, 1.055999994277954, 0.0, 0.0, 0.0, 0.0, 0.0, 1.6206577024965856E9, 2021-05-10 16:41:42.496
23.0, -75.18695068359375, 128.14767456054688, -35.98531723022461, 178.15200805664062, -0.06400000303983688, 0.06400000303983688, 1.055999994277954, 0.0, 0.0, 0.0, 0.0, 0.0, 1.6206577024965856E9, 2021-05-10 16:41:42.496
24.0, -52.17160415649414, 148.56378173828125, -31.13840675354004, 192.82737731933594, -0.06400000303983688, 0.06400000303983688, 1.055999994277954, 0.0, 0.0, 0.0, 0.0, 0.0, 1.6206577024973223E9, 2021-05-10 16:41:42.497
24.0, -85.13134002685547, 108.53563690185547, -32.851280212402344, 163.54769897460938, -0.06400000303983688, 0.06400000303983688, 1.055999994277954, 0.0, 0.0, 0.0, 0.0, 0.0, 1.6206577024973223E9, 2021-05-10 16:41:42.497
25.0, -114.29508209228516, 84.39832305908203, -51.44980239868164, 133.8678436279297, -0.06400000303983688, 0.06400000303983688, 1.055999994277954, 0.0, 0.0, 0.0, 0.0, 0.0, 1.6206577025442717E9, 2021-05-10 16:41:42.544
25.0, -71.63778686523438, 123.700927734375, -35.14384078979492, 178.49607849121094, -0.06400000303983688, 0.06400000303983688, 1.055999994277954, 0.0, 0.0, 0.0, 0.0, 0.0, 1.6206577025442717E9, 2021-05-10 16:41:42.544
26.0, -59.28115463256836, 148.07760620117188, -26.755245208740234, 202.7194061279297, -0.06400000303983688, 0.06400000303983688, 1.055999994277954, 0.0, 0.0, 0.0, 0.0, 0.0, 1.6206577025450497E9, 2021-05-10 16:41:42.545
26.0, -86.35428619384766, 113.55084228515625, -42.96397018432617, 162.8296356201172, -0.06400000303983688, 0.06400000303983688, 1.055999994277954, 0.0, 0.0, 0.0, 0.0, 0.0, 1.6206577025450497E9, 2021-05-10 16:41:42.545
27.0, -114.96452331542969, 88.68051147460938, -56.59590530395508, 139.986328125, -0.06400000303983688, 0.06400000303983688, 1.055999994277954, 0.0, 0.0, 0.0, 0.0, 0.0, 1.6206577025457888E9, 2021-05-10 16:41:42.545
27.0, -64.72270965576172, 120.4621810913086, -40.96686553955078, 176.6111602783203, -0.06400000303983688, 0.06400000303983688, 1.055999994277954, 0.0, 0.0, 0.0, 0.0, 0.0, 1.6206577025457888E9, 2021-05-10 16:41:42.545
28.0, -58.873504638671875, 143.6719970703125, -33.7563362121582, 196.25686645507812, -0.06400000303983688, 0.06400000303983688, 1.055999994277954, 0.0, 0.0, 0.0, 0.0, 0.0, 1.6206577025465147E9, 2021-05-10 16:41:42.546
28.0, -84.6376724243164, 115.29363250732422, -40.413360595703125, 155.7051239013672, -0.06400000303983688, 0.06400000303983688, 1.055999994277954, 0.0, 0.0, 0.0, 0.0, 0.0, 1.6206577025465147E9, 2021-05-10 16:41:42.546
29.0, -112.40269470214844, 98.69596099853516, -47.38827133178711, 138.53524780273438, -0.06400000303983688, 0.06400000303983688, 1.055999994277954, 0.0, 0.0, 0.0, 0.0, 0.0, 1.6206577025565033E9, 2021-05-10 16:41:42.556
29.0, -74.89523315429688, 131.73797607421875, -33.240230560302734, 176.63734436035156, -0.06400000303983688, 0.06400000303983688, 1.055999994277954, 0.0, 0.0, 0.0, 0.0, 0.0, 1.6206577025565033E9, 2021-05-10 16:41:42.556
30.0, -49.39659881591797, 145.6653594970703, -20.33383560180664, 202.6857452392578, -0.06400000303983688, 0.06400000303983688, 1.055999994277954, 0.0, 0.0, 0.0, 0.0, 0.0, 1.620657702557222E9, 2021-05-10 16:41:42.557
30.0, -101.17925262451172, 116.53153991699219, -42.28330993652344, 161.1354522705078, -0.06400000303983688, 0.06400000303983688, 1.055999994277954, 0.0, 0.0, 0.0, 0.0, 0.0, 1.620657702557222E9, 2021-05-10 16:41:42.557
31.0, -115.57786560058594, 89.42475128173828, -54.99897003173828, 142.6940155029297, -0.06400000303983688, 0.06400000303983688, 1.055999994277954, 0.0, 0.0, 0.0, 0.0, 0.0, 1.6206577026175876E9, 2021-05-10 16:41:42.617
31.0, -82.70040893554688, 125.0211181640625, -39.0146369934082, 175.6013946533203, -0.06400000303983688, 0.06400000303983688, 1.055999994277954, 0.0, 0.0, 0.0, 0.0, 0.0, 1.6206577026175876E9, 2021-05-10 16:41:42.617
32.0, -50.73922348022461, 160.5015411376953, -27.641599655151367, 195.49017333984375, -0.06400000303983688, 0.06400000303983688, 1.055999994277954, 0.0, 0.0, 0.0, 0.0, 0.0, 1.620657702618369E9, 2021-05-10 16:41:42.618
32.0, -91.08900451660156, 116.74472045898438, -37.559814453125, 154.87860107421875, -0.06400000303983688, 0.06400000303983688, 1.055999994277954, 0.0, 0.0, 0.0, 0.0, 0.0, 1.620657702618369E9, 2021-05-10 16:41:42.618
33.0, -108.8049087524414, 101.08575439453125, -47.795921325683594, 137.2225341796875, -0.06400000303983688, 0.06400000303983688, 1.055999994277954, 0.0, 0.0, 0.0, 0.0, 0.0, 1.6206577026191192E9, 2021-05-10 16:41:42.619
33.0, -68.32049560546875, 133.06564331054688, -32.79518127441406, 175.23487854003906, -0.06400000303983688, 0.06400000303983688, 1.055999994277954, 0.0, 0.0, 0.0, 0.0, 0.0, 1.6206577026191192E9, 2021-05-10 16:41:42.619
34.0, -55.960121154785156, 150.68431091308594, -24.447725296020508, 196.21946716308594, -0.06400000303983688, 0.06400000303983688, 1.055999994277954, 0.0, 0.0, 0.0, 0.0, 0.0, 1.620657702631261E9, 2021-05-10 16:41:42.631
34.0, -90.9543685913086, 111.31438446044922, -37.76551055908203, 154.79632568359375, -0.06400000303983688, 0.06400000303983688, 1.055999994277954, 0.0, 0.0, 0.0, 0.0, 0.0, 1.620657702631261E9, 2021-05-10 16:41:42.631
35.0, -115.5068130493164, 73.30204010009766, -47.612667083740234, 146.23570251464844, -0.06400000303983688, 0.06400000303983688, 1.055999994277954, 0.0, 0.0, 0.0, 0.0, 0.0, 1.6206577026475947E9, 2021-05-10 16:41:42.647
35.0, -71.23013305664062, 124.05622100830078, -30.330589294433594, 185.0034942626953, -0.06400000303983688, 0.06400000303983688, 1.055999994277954, 0.0, 0.0, 0.0, 0.0, 0.0, 1.6206577026475947E9, 2021-05-10 16:41:42.647
36.0, -51.65176010131836, 156.6045684814453, -22.155166625976562, 207.6448516845703, -0.06400000303983688, 0.06400000303983688, 1.055999994277954, 0.0, 0.0, 0.0, 0.0, 0.0, 1.6206577026484222E9, 2021-05-10 16:41:42.648
36.0, -82.81260681152344, 101.72154235839844, -37.80664825439453, 163.0876922607422, -0.06400000303983688, 0.06400000303983688, 1.055999994277954, 0.0, 0.0, 0.0, 0.0, 0.0, 1.6206577026484222E9, 2021-05-10 16:41:42.648
37.0, -116.33332824707031, 85.2958984375, -50.71678161621094, 144.09274291992188, -0.06400000303983688, 0.06400000303983688, 1.055999994277954, 0.0, 0.0, 0.0, 0.0, 0.0, 1.6206577026637447E9, 2021-05-10 16:41:42.663
37.0, -77.22893524169922, 120.4434814453125, -41.24361801147461, 177.51248168945312, -0.06400000303983688, 0.06400000303983688, 1.055999994277954, 0.0, 0.0, 0.0, 0.0, 0.0, 1.6206577026637447E9, 2021-05-10 16:41:42.663
38.0, -57.878692626953125, 150.60951232910156, -31.770450592041016, 190.65823364257812, -0.06400000303983688, 0.06400000303983688, 1.055999994277954, 0.0, 0.0, 0.0, 0.0, 0.0, 1.6206577026642945E9, 2021-05-10 16:41:42.664
38.0, -90.77859497070312, 102.96318817138672, -38.04974365234375, 162.47808837890625, -0.06400000303983688, 0.06400000303983688, 1.055999994277954, 0.0, 0.0, 0.0, 0.0, 0.0, 1.6206577026642945E9, 2021-05-10 16:41:42.664
39.0, -102.96692657470703, 94.2679214477539, -41.43061065673828, 146.36659240722656, -0.06400000303983688, 0.06400000303983688, 1.055999994277954, 0.0, 0.0, 0.0, 0.0, 0.0, 1.620657702665061E9, 2021-05-10 16:41:42.665
39.0, -71.44330596923828, 125.14079284667969, -30.872873306274414, 177.5050048828125, -0.06400000303983688, 0.06400000303983688, 1.055999994277954, 0.0, 0.0, 0.0, 0.0, 0.0, 1.620657702665061E9, 2021-05-10 16:41:42.665
40.0, -49.3330192565918, 149.49502563476562, -19.42877960205078, 196.57101440429688, -0.06400000303983688, 0.06400000303983688, 1.040000081062317, 0.0, 0.0, 0.0, 0.0, 0.0, 1.620657702665737E9, 2021-05-10 16:41:42.665
40.0, -85.12760162353516, 99.0063705444336, -38.47235107421875, 155.95944213867188, -0.06400000303983688, 0.06400000303983688, 1.040000081062317, 0.0, 0.0, 0.0, 0.0, 0.0, 1.620657702665737E9, 2021-05-10 16:41:42.665
41.0, -103.32221984863281, 81.73177337646484, -50.29791259765625, 136.38479614257812, -0.06400000303983688, 0.08000000566244125, 1.040000081062317, 0.0, 0.0, 0.0, 0.0, 0.0, 1.6206577026765227E9, 2021-05-10 16:41:42.676
41.0, -69.06098937988281, 123.83556365966797, -35.256038665771484, 171.81288146972656, -0.06400000303983688, 0.08000000566244125, 1.040000081062317, 0.0, 0.0, 0.0, 0.0, 0.0, 1.6206577026765227E9, 2021-05-10 16:41:42.676
42.0, -54.50904083251953, 149.8540496826172, -26.381254196166992, 195.20220947265625, -0.06400000303983688, 0.08000000566244125, 1.040000081062317, 0.0, 0.0, 0.0, 0.0, 0.0, 1.6206577026773555E9, 2021-05-10 16:41:42.677
42.0, -87.18828582763672, 114.24272155761719, -40.155303955078125, 157.1075897216797, -0.06400000303983688, 0.08000000566244125, 1.040000081062317, 0.0, 0.0, 0.0, 0.0, 0.0, 1.6206577026773555E9, 2021-05-10 16:41:42.677
43.0, -112.8739242553711, 85.26597595214844, -51.24784851074219, 133.3292999267578, -0.06400000303983688, 0.08000000566244125, 1.040000081062317, 0.0, 0.0, 0.0, 0.0, 0.0, 1.6206577026908395E9, 2021-05-10 16:41:42.690
43.0, -65.46321105957031, 117.6572494506836, -34.71375274658203, 169.34828186035156, -0.06400000303983688, 0.08000000566244125, 1.040000081062317, 0.0, 0.0, 0.0, 0.0, 0.0, 1.6206577026908395E9, 2021-05-10 16:41:42.690
44.0, -44.10837936401367, 154.7383575439453, -21.941993713378906, 192.40476989746094, -0.06400000303983688, 0.08000000566244125, 1.040000081062317, 0.0, 0.0, 0.0, 0.0, 0.0, 1.6206577027229478E9, 2021-05-10 16:41:42.722
44.0, -93.7705078125, 120.1255874633789, -37.5485954284668, 158.0350799560547, -0.06400000303983688, 0.08000000566244125, 1.040000081062317, 0.0, 0.0, 0.0, 0.0, 0.0, 1.6206577027229478E9, 2021-05-10 16:41:42.722
45.0, -110.89177703857422, 94.3090591430664, -51.39744567871094, 134.08102416992188, -0.06400000303983688, 0.08000000566244125, 1.040000081062317, 0.0, 0.0, 0.0, 0.0, 0.0, 1.620657702723626E9, 2021-05-10 16:41:42.723
45.0, -82.06088256835938, 119.93485260009766, -39.05203628540039, 172.7478485107422, -0.06400000303983688, 0.08000000566244125, 1.040000081062317, 0.0, 0.0, 0.0, 0.0, 0.0, 1.620657702723626E9, 2021-05-10 16:41:42.723
46.0, -57.32518768310547, 150.91244506835938, -28.6513729095459, 199.4918670654297, -0.06400000303983688, 0.08000000566244125, 1.040000081062317, 0.0, 0.0, 0.0, 0.0, 0.0, 1.6206577027243745E9, 2021-05-10 16:41:42.724
46.0, -90.94314575195312, 106.26551818847656, -40.89580535888672, 159.82275390625, -0.06400000303983688, 0.08000000566244125, 1.040000081062317, 0.0, 0.0, 0.0, 0.0, 0.0, 1.6206577027243745E9, 2021-05-10 16:41:42.724
47.0, -106.99853515625, 97.8208236694336, -44.501068115234375, 144.32086181640625, -0.06400000303983688, 0.08000000566244125, 1.040000081062317, 0.0, 0.0, 0.0, 0.0, 0.0, 1.6206577027251124E9, 2021-05-10 16:41:42.725
47.0, -71.37599182128906, 123.36060333251953, -36.157352447509766, 181.4468536376953, -0.06400000303983688, 0.08000000566244125, 1.040000081062317, 0.0, 0.0, 0.0, 0.0, 0.0, 1.6206577027251124E9, 2021-05-10 16:41:42.725
48.0, -56.99607467651367, 142.84547424316406, -28.647634506225586, 203.5758514404297, -0.06400000303983688, 0.08000000566244125, 1.040000081062317, 0.0, 0.0, 0.0, 0.0, 0.0, 1.620657702735816E9, 2021-05-10 16:41:42.735
48.0, -89.43596649169922, 109.27987670898438, -42.750797271728516, 164.75567626953125, -0.06400000303983688, 0.08000000566244125, 1.040000081062317, 0.0, 0.0, 0.0, 0.0, 0.0, 1.620657702735816E9, 2021-05-10 16:41:42.735
49.0, -113.6593017578125, 85.11264038085938, -49.95384216308594, 142.69775390625, -0.06400000303983688, 0.08000000566244125, 1.040000081062317, 0.0, 0.0, 0.0, 0.0, 0.0, 1.6206577027508256E9, 2021-05-10 16:41:42.750
49.0, -74.016357421875, 129.61370849609375, -45.85491180419922, 170.64602661132812, -0.06400000303983688, 0.08000000566244125, 1.040000081062317, 0.0, 0.0, 0.0, 0.0, 0.0, 1.6206577027508256E9, 2021-05-10 16:41:42.750
50.0, -56.775421142578125, 144.24794006347656, -38.09461975097656, 196.5747528076172, -0.06400000303983688, 0.08000000566244125, 1.040000081062317, 0.0, 0.0, 0.0, 0.0, 0.0, 1.6206577027672482E9, 2021-05-10 16:41:42.767
50.0, -87.079833984375, 119.53094482421875, -40.80230712890625, 171.55482482910156, -0.06400000303983688, 0.08000000566244125, 1.040000081062317, 0.0, 0.0, 0.0, 0.0, 0.0, 1.6206577027672482E9, 2021-05-10 16:41:42.767
51.0, -116.19869232177734, 90.2363052368164, -58.110565185546875, 143.01564025878906, -0.06400000303983688, 0.06400000303983688, 1.040000081062317, 0.0, 0.0, 0.0, 0.0, 0.0, 1.6206577027678912E9, 2021-05-10 16:41:42.767
51.0, -76.76144409179688, 112.62334442138672, -37.02874755859375, 175.47048950195312, -0.06400000303983688, 0.06400000303983688, 1.040000081062317, 0.0, 0.0, 0.0, 0.0, 0.0, 1.6206577027678912E9, 2021-05-10 16:41:42.767
52.0, -53.431949615478516, 156.4325408935547, -23.681047439575195, 201.3580780029297, -0.06400000303983688, 0.06400000303983688, 1.040000081062317, 0.0, 0.0, 0.0, 0.0, 0.0, 1.6206577027809613E9, 2021-05-10 16:41:42.780
52.0, -89.29759216308594, 101.14933776855469, -45.896053314208984, 158.0350799560547, -0.06400000303983688, 0.06400000303983688, 1.040000081062317, 0.0, 0.0, 0.0, 0.0, 0.0, 1.6206577027809613E9, 2021-05-10 16:41:42.780
53.0, -104.66110229492188, 89.50328826904297, -46.932003021240234, 138.4641876220703, -0.06400000303983688, 0.06400000303983688, 1.040000081062317, 0.0, 0.0, 0.0, 0.0, 0.0, 1.6206577027965405E9, 2021-05-10 16:41:42.796
53.0, -77.52812957763672, 124.83412170410156, -42.76949691772461, 170.60488891601562, -0.06400000303983688, 0.06400000303983688, 1.040000081062317, 0.0, 0.0, 0.0, 0.0, 0.0, 1.6206577027965405E9, 2021-05-10 16:41:42.796
54.0, -48.192352294921875, 146.10293579101562, -28.026809692382812, 198.42225646972656, -0.06400000303983688, 0.06400000303983688, 1.040000081062317, 0.0, 0.0, 0.0, 0.0, 0.0, 1.620657702797288E9, 2021-05-10 16:41:42.797
54.0, -77.57300567626953, 113.55084228515625, -38.52845001220703, 156.03424072265625, -0.06400000303983688, 0.06400000303983688, 1.040000081062317, 0.0, 0.0, 0.0, 0.0, 0.0, 1.620657702797288E9, 2021-05-10 16:41:42.797
55.0, -113.60320281982422, 87.00877380371094, -54.965309143066406, 131.22747802734375, -0.06400000303983688, 0.06400000303983688, 1.040000081062317, 0.0, 0.0, 0.0, 0.0, 0.0, 1.62065770282792E9, 2021-05-10 16:41:42.827
55.0, -84.02433013916016, 125.93739318847656, -44.86758041381836, 168.83966064453125, -0.06400000303983688, 0.06400000303983688, 1.040000081062317, 0.0, 0.0, 0.0, 0.0, 0.0, 1.62065770282792E9, 2021-05-10 16:41:42.827
56.0, -49.76310729980469, 150.14576721191406, -25.876367568969727, 196.455078125, -0.06400000303983688, 0.06400000303983688, 1.040000081062317, 0.0, 0.0, 0.0, 0.0, 0.0, 1.6206577028286695E9, 2021-05-10 16:41:42.828
56.0, -89.48832702636719, 96.54925537109375, -44.58334732055664, 153.69679260253906, -0.06400000303983688, 0.06400000303983688, 1.040000081062317, 0.0, 0.0, 0.0, 0.0, 0.0, 1.6206577028286695E9, 2021-05-10 16:41:42.828
57.0, -109.45938873291016, 106.78536224365234, -46.890865325927734, 144.75469970703125, -0.06400000303983688, 0.06400000303983688, 1.040000081062317, 0.0, 0.0, 0.0, 0.0, 0.0, 1.6206577028294094E9, 2021-05-10 16:41:42.829
57.0, -79.98523712158203, 118.25189971923828, -33.868534088134766, 167.04075622558594, -0.06400000303983688, 0.06400000303983688, 1.040000081062317, 0.0, 0.0, 0.0, 0.0, 0.0, 1.6206577028294094E9, 2021-05-10 16:41:42.829
58.0, -53.89196014404297, 152.7001190185547, -27.20777130126953, 195.96514892578125, -0.06400000303983688, 0.06400000303983688, 1.040000081062317, 0.0, 0.0, 0.0, 0.0, 0.0, 1.6206577028407874E9, 2021-05-10 16:41:42.840
58.0, -93.37408447265625, 124.89769744873047, -38.255435943603516, 161.771240234375, -0.06400000303983688, 0.06400000303983688, 1.040000081062317, 0.0, 0.0, 0.0, 0.0, 0.0, 1.6206577028407874E9, 2021-05-10 16:41:42.840
59.0, -105.66339111328125, 98.17985534667969, -52.437137603759766, 131.77349853515625, -0.06400000303983688, 0.06400000303983688, 1.040000081062317, 0.0, 0.0, 0.0, 0.0, 0.0, 1.620657702856585E9, 2021-05-10 16:41:42.856
59.0, -76.85494232177734, 122.9192886352539, -38.09836196899414, 169.5240478515625, -0.06400000303983688, 0.06400000303983688, 1.040000081062317, 0.0, 0.0, 0.0, 0.0, 0.0, 1.620657702856585E9, 2021-05-10 16:41:42.856
60.0, -47.564048767089844, 144.24794006347656, -24.013896942138672, 193.27615356445312, -0.06400000303983688, 0.06400000303983688, 1.055999994277954, 0.0, 0.0, 0.0, 0.0, 0.0, 1.620657702857274E9, 2021-05-10 16:41:42.857
60.0, -85.7783432006836, 109.99419403076172, -36.48646545410156, 162.43695068359375, -0.06400000303983688, 0.06400000303983688, 1.055999994277954, 0.0, 0.0, 0.0, 0.0, 0.0, 1.620657702857274E9, 2021-05-10 16:41:42.857
61.0, -105.78681182861328, 85.94664001464844, -45.701576232910156, 140.42015075683594, -0.06400000303983688, 0.06400000303983688, 1.055999994277954, 0.0, 0.0, 0.0, 0.0, 0.0, 1.6206577028708434E9, 2021-05-10 16:41:42.870
61.0, -88.93108367919922, 123.28954315185547, -38.109580993652344, 169.39315795898438, -0.06400000303983688, 0.06400000303983688, 1.055999994277954, 0.0, 0.0, 0.0, 0.0, 0.0, 1.6206577028708434E9, 2021-05-10 16:41:42.870
62.0, -53.16641616821289, 151.65293884277344, -21.57174301147461, 202.27809143066406, -0.06400000303983688, 0.06400000303983688, 1.055999994277954, 0.0, 0.0, 0.0, 0.0, 0.0, 1.62065770288652E9, 2021-05-10 16:41:42.886
62.0, -86.25331115722656, 117.02146911621094, -33.397308349609375, 170.5450439453125, -0.06400000303983688, 0.06400000303983688, 1.055999994277954, 0.0, 0.0, 0.0, 0.0, 0.0, 1.62065770288652E9, 2021-05-10 16:41:42.886
63.0, -122.92677307128906, 100.26671600341797, -55.010189056396484, 137.95556640625, -0.06400000303983688, 0.06400000303983688, 1.055999994277954, 0.0, 0.0, 0.0, 0.0, 0.0, 1.6206577028872938E9, 2021-05-10 16:41:42.887
63.0, -78.4481430053711, 125.05103302001953, -40.835968017578125, 173.88851928710938, -0.06400000303983688, 0.06400000303983688, 1.055999994277954, 0.0, 0.0, 0.0, 0.0, 0.0, 1.6206577028872938E9, 2021-05-10 16:41:42.887
64.0, -57.975929260253906, 153.52662658691406, -28.628934860229492, 194.37942504882812, -0.06400000303983688, 0.06400000303983688, 1.055999994277954, 0.0, 0.0, 0.0, 0.0, 0.0, 1.6206577029007597E9, 2021-05-10 16:41:42.900
64.0, -86.24209594726562, 113.37506866455078, -37.94502639770508, 154.998291015625, -0.06400000303983688, 0.06400000303983688, 1.055999994277954, 0.0, 0.0, 0.0, 0.0, 0.0, 1.6206577029007597E9, 2021-05-10 16:41:42.900
65.0, -111.87162780761719, 100.4499740600586, -48.58504104614258, 135.5358428955078, -0.06400000303983688, 0.06400000303983688, 1.055999994277954, 0.0, 0.0, 0.0, 0.0, 0.0, 1.62065770291664E9, 2021-05-10 16:41:42.916
65.0, -77.22145080566406, 126.70780944824219, -32.55208969116211, 167.27638244628906, -0.06400000303983688, 0.06400000303983688, 1.055999994277954, 0.0, 0.0, 0.0, 0.0, 0.0, 1.62065770291664E9, 2021-05-10 16:41:42.916
66.0, -55.80304718017578, 143.05491638183594, -26.725324630737305, 197.56956481933594, -0.06400000303983688, 0.06400000303983688, 1.055999994277954, 0.0, 0.0, 0.0, 0.0, 0.0, 1.62065770291727E9, 2021-05-10 16:41:42.917
66.0, -93.9238510131836, 125.88129425048828, -36.98012924194336, 159.3029022216797, -0.06400000303983688, 0.06400000303983688, 1.055999994277954, 0.0, 0.0, 0.0, 0.0, 0.0, 1.62065770291727E9, 2021-05-10 16:41:42.917
67.0, -118.04246520996094, 90.7374496459961, -55.03636932373047, 132.79823303222656, -0.06400000303983688, 0.06400000303983688, 1.055999994277954, 0.0, 0.0, 0.0, 0.0, 0.0, 1.620657702930846E9, 2021-05-10 16:41:42.930
67.0, -75.73297119140625, 123.42791748046875, -36.86793518066406, 174.18023681640625, -0.06400000303983688, 0.06400000303983688, 1.055999994277954, 0.0, 0.0, 0.0, 0.0, 0.0, 1.620657702930846E9, 2021-05-10 16:41:42.930
68.0, -53.42073059082031, 145.4933319091797, -29.156259536743164, 195.2283935546875, -0.06400000303983688, 0.06400000303983688, 1.055999994277954, 0.0, 0.0, 0.0, 0.0, 0.0, 1.620657702946578E9, 2021-05-10 16:41:42.946
68.0, -88.54212951660156, 116.31462860107422, -42.212249755859375, 157.6536102294922, -0.06400000303983688, 0.06400000303983688, 1.055999994277954, 0.0, 0.0, 0.0, 0.0, 0.0, 1.620657702946578E9, 2021-05-10 16:41:42.946
69.0, -113.87621307373047, 94.44743347167969, -52.620391845703125, 137.9405975341797, -0.06400000303983688, 0.06400000303983688, 1.055999994277954, 0.0, 0.0, 0.0, 0.0, 0.0, 1.6206577029473712E9, 2021-05-10 16:41:42.947
69.0, -82.54707336425781, 141.26724243164062, -35.76466369628906, 173.27517700195312, -0.06400000303983688, 0.06400000303983688, 1.055999994277954, 0.0, 0.0, 0.0, 0.0, 0.0, 1.6206577029473712E9, 2021-05-10 16:41:42.947
70.0, -53.51422882080078, 136.87660217285156, -24.829195022583008, 197.62191772460938, -0.06400000303983688, 0.06400000303983688, 1.055999994277954, 0.0, 0.0, 0.0, 0.0, 0.0, 1.6206577029608622E9, 2021-05-10 16:41:42.960
70.0, -92.080078125, 115.76860046386719, -41.59516906738281, 164.34056091308594, -0.06400000303983688, 0.06400000303983688, 1.055999994277954, 0.0, 0.0, 0.0, 0.0, 0.0, 1.6206577029608622E9, 2021-05-10 16:41:42.960
71.0, -109.93061828613281, 81.51486206054688, -50.86637878417969, 146.2095184326172, -0.06400000303983688, 0.06400000303983688, 1.055999994277954, 0.0, 0.0, 0.0, 0.0, 0.0, 1.6206577029762576E9, 2021-05-10 16:41:42.976
71.0, -79.2970962524414, 126.92098236083984, -40.510597229003906, 175.47048950195312, -0.06400000303983688, 0.06400000303983688, 1.055999994277954, 0.0, 0.0, 0.0, 0.0, 0.0, 1.6206577029762576E9, 2021-05-10 16:41:42.976
72.0, -55.03262710571289, 151.9446563720703, -31.43385887145996, 197.23670959472656, -0.06400000303983688, 0.06400000303983688, 1.055999994277954, 0.0, 0.0, 0.0, 0.0, 0.0, 1.6206577029915693E9, 2021-05-10 16:41:42.991
72.0, -88.59449005126953, 118.52864837646484, -40.58539581298828, 168.48435974121094, -0.06400000303983688, 0.06400000303983688, 1.055999994277954, 0.0, 0.0, 0.0, 0.0, 0.0, 1.6206577029915693E9, 2021-05-10 16:41:42.991
73.0, -109.60150909423828, 86.71331787109375, -51.719078063964844, 138.7446746826172, -0.06400000303983688, 0.06400000303983688, 1.055999994277954, 0.0, 0.0, 0.0, 0.0, 0.0, 1.620657702992293E9, 2021-05-10 16:41:42.992
73.0, -79.9141845703125, 115.49559020996094, -36.695899963378906, 168.050537109375, -0.06400000303983688, 0.06400000303983688, 1.055999994277954, 0.0, 0.0, 0.0, 0.0, 0.0, 1.620657702992293E9, 2021-05-10 16:41:42.992
74.0, -55.30937957763672, 158.807373046875, -29.694805145263672, 197.57704162597656, -0.06400000303983688, 0.06400000303983688, 1.055999994277954, 0.0, 0.0, 0.0, 0.0, 0.0, 1.620657703006218E9, 2021-05-10 16:41:43.006
74.0, -93.93506622314453, 117.76197052001953, -48.64113998413086, 153.1694793701172, -0.06400000303983688, 0.06400000303983688, 1.055999994277954, 0.0, 0.0, 0.0, 0.0, 0.0, 1.620657703006218E9, 2021-05-10 16:41:43.006
75.0, -107.46228790283203, 95.59931945800781, -53.286094665527344, 132.6448974609375, -0.06400000303983688, 0.06400000303983688, 1.055999994277954, 0.0, 0.0, 0.0, 0.0, 0.0, 1.6206577030215776E9, 2021-05-10 16:41:43.021
75.0, -73.62367248535156, 125.2081069946289, -42.87421417236328, 162.3322296142578, -0.06400000303983688, 0.06400000303983688, 1.055999994277954, 0.0, 0.0, 0.0, 0.0, 0.0, 1.6206577030215776E9, 2021-05-10 16:41:43.021
76.0, -49.98750305175781, 146.81724548339844, -25.76791000366211, 192.1766357421875, -0.06400000303983688, 0.06400000303983688, 1.055999994277954, 0.0, 0.0, 0.0, 0.0, 0.0, 1.6206577030223153E9, 2021-05-10 16:41:43.022
76.0, -81.65323638916016, 118.6595458984375, -32.70168685913086, 159.41883850097656, -0.06400000303983688, 0.06400000303983688, 1.055999994277954, 0.0, 0.0, 0.0, 0.0, 0.0, 1.6206577030223153E9, 2021-05-10 16:41:43.022
77.0, -102.79115295410156, 75.70305633544922, -57.42242431640625, 126.97895050048828, -0.06400000303983688, 0.06400000303983688, 1.055999994277954, 0.0, 0.0, 0.0, 0.0, 0.0, 1.6206577030365105E9, 2021-05-10 16:41:43.036
77.0, -74.00888061523438, 137.8639373779297, -37.78046798706055, 169.9429168701172, -0.06400000303983688, 0.06400000303983688, 1.055999994277954, 0.0, 0.0, 0.0, 0.0, 0.0, 1.6206577030365105E9, 2021-05-10 16:41:43.036
78.0, -47.612667083740234, 157.25157165527344, -25.244325637817383, 194.22235107421875, -0.06400000303983688, 0.06400000303983688, 1.055999994277954, 0.0, 0.0, 0.0, 0.0, 0.0, 1.620657703037207E9, 2021-05-10 16:41:43.037
78.0, -85.44175720214844, 108.13920593261719, -43.70820999145508, 159.19070434570312, -0.06400000303983688, 0.06400000303983688, 1.055999994277954, 0.0, 0.0, 0.0, 0.0, 0.0, 1.620657703037207E9, 2021-05-10 16:41:43.037
79.0, -113.3189697265625, 103.86824035644531, -52.29875946044922, 136.44090270996094, -0.06400000303983688, 0.06400000303983688, 1.055999994277954, 0.0, 0.0, 0.0, 0.0, 0.0, 1.6206577030662632E9, 2021-05-10 16:41:43.066
79.0, -76.82876586914062, 132.42611694335938, -31.89386749267578, 178.54469299316406, -0.06400000303983688, 0.06400000303983688, 1.055999994277954, 0.0, 0.0, 0.0, 0.0, 0.0, 1.6206577030662632E9, 2021-05-10 16:41:43.066
80.0, -65.4407730102539, 149.16964721679688, -27.544363021850586, 188.0590057373047, -0.06400000303983688, 0.06400000303983688, 1.055999994277954, 0.0, 0.0, 0.0, 0.0, 0.0, 1.620657703081349E9, 2021-05-10 16:41:43.081
80.0, -93.37034606933594, 125.8663330078125, -34.89700698852539, 161.72262573242188, -0.06400000303983688, 0.06400000303983688, 1.055999994277954, 0.0, 0.0, 0.0, 0.0, 0.0, 1.620657703081349E9, 2021-05-10 16:41:43.081
81.0, -112.42887115478516, 93.3254623413086, -52.908363342285156, 136.99813842773438, -0.06400000303983688, 0.06400000303983688, 1.055999994277954, 0.0, 0.0, 0.0, 0.0, 0.0, 1.6206577030979316E9, 2021-05-10 16:41:43.097
81.0, -75.46743774414062, 115.40583038330078, -32.33143615722656, 173.57810974121094, -0.06400000303983688, 0.06400000303983688, 1.055999994277954, 0.0, 0.0, 0.0, 0.0, 0.0, 1.6206577030979316E9, 2021-05-10 16:41:43.097
82.0, -45.19668960571289, 172.34207153320312, -24.526264190673828, 190.87513732910156, -0.06400000303983688, 0.06400000303983688, 1.055999994277954, 0.0, 0.0, 0.0, 0.0, 0.0, 1.620657703098631E9, 2021-05-10 16:41:43.098
82.0, -83.25765228271484, 113.36384582519531, -38.07592010498047, 153.5920867919922, -0.06400000303983688, 0.06400000303983688, 1.055999994277954, 0.0, 0.0, 0.0, 0.0, 0.0, 1.620657703098631E9, 2021-05-10 16:41:43.098
83.0, -119.77029418945312, 98.91661071777344, -59.95059585571289, 129.82875061035156, -0.06400000303983688, 0.06400000303983688, 1.055999994277954, 0.0, 0.0, 0.0, 0.0, 0.0, 1.6206577030993469E9, 2021-05-10 16:41:43.099
83.0, -82.6443099975586, 145.65040588378906, -38.83885955810547, 171.71563720703125, -0.06400000303983688, 0.06400000303983688, 1.055999994277954, 0.0, 0.0, 0.0, 0.0, 0.0, 1.6206577030993469E9, 2021-05-10 16:41:43.099
84.0, -52.42591857910156, 146.4619598388672, -33.10933303833008, 188.66860961914062, -0.06400000303983688, 0.06400000303983688, 1.055999994277954, 0.0, 0.0, 0.0, 0.0, 0.0, 1.6206577031001444E9, 2021-05-10 16:41:43.100
84.0, -87.79415130615234, 118.49873352050781, -41.00052261352539, 159.3964080810547, -0.06400000303983688, 0.06400000303983688, 1.055999994277954, 0.0, 0.0, 0.0, 0.0, 0.0, 1.6206577031001444E9, 2021-05-10 16:41:43.100
85.0, -110.00541687011719, 110.3307876586914, -52.49323654174805, 137.77230834960938, -0.06400000303983688, 0.06400000303983688, 1.055999994277954, 0.0, 0.0, 0.0, 0.0, 0.0, 1.6206577031108286E9, 2021-05-10 16:41:43.110
85.0, -78.13773345947266, 141.19618225097656, -43.67455291748047, 168.5180206298828, -0.06400000303983688, 0.06400000303983688, 1.055999994277954, 0.0, 0.0, 0.0, 0.0, 0.0, 1.6206577031108286E9, 2021-05-10 16:41:43.110
86.0, -52.538116455078125, 160.56886291503906, -31.77419090270996, 187.36337280273438, -0.06400000303983688, 0.06400000303983688, 1.055999994277954, 0.0, 0.0, 0.0, 0.0, 0.0, 1.6206577031262648E9, 2021-05-10 16:41:43.126
86.0, -91.36575317382812, 122.99408721923828, -45.697837829589844, 153.6781005859375, -0.06400000303983688, 0.06400000303983688, 1.055999994277954, 0.0, 0.0, 0.0, 0.0, 0.0, 1.6206577031262648E9, 2021-05-10 16:41:43.126
87.0, -107.71286010742188, 104.38060760498047, -56.36403274536133, 135.58819580078125, -0.06400000303983688, 0.06400000303983688, 1.055999994277954, 0.0, 0.0, 0.0, 0.0, 0.0, 1.6206577031414647E9, 2021-05-10 16:41:43.141
87.0, -85.19866180419922, 135.9042205810547, -47.429412841796875, 171.27806091308594, -0.06400000303983688, 0.06400000303983688, 1.055999994277954, 0.0, 0.0, 0.0, 0.0, 0.0, 1.6206577031414647E9, 2021-05-10 16:41:43.141
88.0, -65.9830551147461, 159.6899871826172, -32.2304573059082, 194.61129760742188, -0.06400000303983688, 0.06400000303983688, 1.055999994277954, 0.0, 0.0, 0.0, 0.0, 0.0, 1.6206577031421852E9, 2021-05-10 16:41:43.142
88.0, -90.12410736083984, 116.25852966308594, -44.78156280517578, 163.61126708984375, -0.06400000303983688, 0.06400000303983688, 1.055999994277954, 0.0, 0.0, 0.0, 0.0, 0.0, 1.6206577031421852E9, 2021-05-10 16:41:43.142
89.0, -109.61272430419922, 101.66918182373047, -52.104286193847656, 144.84071350097656, -0.06400000303983688, 0.06400000303983688, 1.055999994277954, 0.0, 0.0, 0.0, 0.0, 0.0, 1.6206577031564767E9, 2021-05-10 16:41:43.156
89.0, -67.95772552490234, 127.4931869506836, -38.412513732910156, 182.15370178222656, -0.06400000303983688, 0.06400000303983688, 1.055999994277954, 0.0, 0.0, 0.0, 0.0, 0.0, 1.6206577031564767E9, 2021-05-10 16:41:43.156
90.0, -50.847679138183594, 151.06951904296875, -35.85816192626953, 200.44180297851562, -0.06400000303983688, 0.06400000303983688, 1.055999994277954, 0.0, 0.0, 0.0, 0.0, 0.0, 1.6206577031571836E9, 2021-05-10 16:41:43.157
90.0, -86.18599700927734, 122.97164916992188, -47.16761779785156, 168.0093994140625, -0.06400000303983688, 0.06400000303983688, 1.055999994277954, 0.0, 0.0, 0.0, 0.0, 0.0, 1.6206577031571836E9, 2021-05-10 16:41:43.157
91.0, -118.28181457519531, 86.64974212646484, -63.79521179199219, 140.38275146484375, -0.06400000303983688, 0.06400000303983688, 1.055999994277954, 0.0, 0.0, 0.0, 0.0, 0.0, 1.6206577031707969E9, 2021-05-10 16:41:43.170
91.0, -80.14605712890625, 126.82374572753906, -45.23408889770508, 176.05392456054688, -0.06400000303983688, 0.06400000303983688, 1.055999994277954, 0.0, 0.0, 0.0, 0.0, 0.0, 1.6206577031707969E9, 2021-05-10 16:41:43.170
92.0, -44.16073989868164, 156.20814514160156, -31.175806045532227, 202.9774627685547, -0.06400000303983688, 0.06400000303983688, 1.055999994277954, 0.0, 0.0, 0.0, 0.0, 0.0, 1.6206577031862516E9, 2021-05-10 16:41:43.186
92.0, -78.89692687988281, 115.66388702392578, -44.71798324584961, 158.60728454589844, -0.06400000303983688, 0.06400000303983688, 1.055999994277954, 0.0, 0.0, 0.0, 0.0, 0.0, 1.6206577031862516E9, 2021-05-10 16:41:43.186
93.0, -104.27963256835938, 102.95196533203125, -51.01971435546875, 136.9607391357422, -0.06400000303983688, 0.06400000303983688, 1.055999994277954, 0.0, 0.0, 0.0, 0.0, 0.0, 1.620657703217746E9, 2021-05-10 16:41:43.217
93.0, -75.718017578125, 116.16129302978516, -47.25363540649414, 165.2493438720703, -0.06400000303983688, 0.06400000303983688, 1.055999994277954, 0.0, 0.0, 0.0, 0.0, 0.0, 1.620657703217746E9, 2021-05-10 16:41:43.217
94.0, -50.3764533996582, 136.87660217285156, -27.241432189941406, 197.6855010986328, -0.06400000303983688, 0.06400000303983688, 1.055999994277954, 0.0, 0.0, 0.0, 0.0, 0.0, 1.6206577032184176E9, 2021-05-10 16:41:43.218
94.0, -76.82128143310547, 109.07791900634766, -38.921138763427734, 157.89295959472656, -0.06400000303983688, 0.06400000303983688, 1.055999994277954, 0.0, 0.0, 0.0, 0.0, 0.0, 1.6206577032184176E9, 2021-05-10 16:41:43.218
95.0, -111.12738800048828, 103.07164001464844, -49.759368896484375, 134.6868896484375, -0.06400000303983688, 0.06400000303983688, 1.055999994277954, 0.0, 0.0, 0.0, 0.0, 0.0, 1.620657703219222E9, 2021-05-10 16:41:43.219
95.0, -79.23725891113281, 145.2352752685547, -38.86878204345703, 171.9063720703125, -0.06400000303983688, 0.06400000303983688, 1.055999994277954, 0.0, 0.0, 0.0, 0.0, 0.0, 1.620657703219222E9, 2021-05-10 16:41:43.219
96.0, -45.63800048828125, 153.889404296875, -28.19136619567871, 190.03366088867188, -0.06400000303983688, 0.06400000303983688, 1.055999994277954, 0.0, 0.0, 0.0, 0.0, 0.0, 1.620657703231506E9, 2021-05-10 16:41:43.231
96.0, -91.02542877197266, 115.61152648925781, -43.69325256347656, 156.47927856445312, -0.06400000303983688, 0.06400000303983688, 1.055999994277954, 0.0, 0.0, 0.0, 0.0, 0.0, 1.620657703231506E9, 2021-05-10 16:41:43.231
97.0, -105.46891784667969, 93.65457153320312, -50.148319244384766, 136.3399200439453, -0.06400000303983688, 0.06400000303983688, 1.055999994277954, 0.0, 0.0, 0.0, 0.0, 0.0, 1.6206577032321956E9, 2021-05-10 16:41:43.232
97.0, -67.98016357421875, 123.36808013916016, -27.405986785888672, 177.91639709472656, -0.06400000303983688, 0.06400000303983688, 1.055999994277954, 0.0, 0.0, 0.0, 0.0, 0.0, 1.6206577032321956E9, 2021-05-10 16:41:43.232
98.0, -54.2098503112793, 141.06155395507812, -30.970111846923828, 193.41079711914062, -0.06400000303983688, 0.06400000303983688, 1.055999994277954, 0.0, 0.0, 0.0, 0.0, 0.0, 1.6206577032470183E9, 2021-05-10 16:41:43.247
98.0, -80.3592300415039, 121.03812408447266, -39.8486328125, 163.24476623535156, -0.06400000303983688, 0.06400000303983688, 1.055999994277954, 0.0, 0.0, 0.0, 0.0, 0.0, 1.6206577032470183E9, 2021-05-10 16:41:43.247
99.0, -105.18468475341797, 104.13003540039062, -45.611820220947266, 137.59652709960938, -0.06400000303983688, 0.06400000303983688, 1.055999994277954, 0.0, 0.0, 0.0, 0.0, 0.0, 1.620657703262176E9, 2021-05-10 16:41:43.262
99.0, -83.79619598388672, 132.0558624267578, -42.451602935791016, 163.65240478515625, -0.06400000303983688, 0.06400000303983688, 1.055999994277954, 0.0, 0.0, 0.0, 0.0, 0.0, 1.620657703262176E9, 2021-05-10 16:41:43.262
100.0, -49.53497314453125, 148.72085571289062, -25.00497055053711, 196.24937438964844, -0.06400000303983688, 0.06400000303983688, 1.055999994277954, 0.0, 0.0, 0.0, 0.0, 0.0, 1.6206577032628841E9, 2021-05-10 16:41:43.262
100.0, -83.69895935058594, 119.51598358154297, -40.828487396240234, 162.89321899414062, -0.06400000303983688, 0.06400000303983688, 1.055999994277954, 0.0, 0.0, 0.0, 0.0, 0.0, 1.6206577032628841E9, 2021-05-10 16:41:43.262
0.0, -91.99967193603516, 91.83137512207031, -42.919090270996094, 141.43927001953125, -0.06400000303983688, 0.06400000303983688, 1.055999994277954, 0.0, 0.0, 0.0, 0.0, 0.0, 1.6206577032636569E9, 2021-05-10 16:41:43.263
1.0, -87.17145538330078, 129.91851806640625, -38.54340744018555, 177.68638610839844, -0.06400000303983688, 0.06400000303983688, 1.055999994277954, 0.0, 0.0, 0.0, 0.0, 0.0, 1.6206577032757514E9, 2021-05-10 16:41:43.275
1.0, -53.10470962524414, 147.7391357421875, -23.022823333740234, 201.63296508789062, -0.06400000303983688, 0.06400000303983688, 1.055999994277954, 0.0, 0.0, 0.0, 0.0, 0.0, 1.6206577032757514E9, 2021-05-10 16:41:43.275
2.0, -78.67814636230469, 110.2017593383789, -38.55836868286133, 167.09498596191406, -0.08000000566244125, 0.06400000303983688, 1.055999994277954, 0.0, 0.0, 0.0, 0.0, 0.0, 1.6206577033227353E9, 2021-05-10 16:41:43.322
2.0, -113.92670440673828, 86.65908813476562, -46.91330337524414, 139.2589111328125, -0.08000000566244125, 0.06400000303983688, 1.055999994277954, 0.0, 0.0, 0.0, 0.0, 0.0, 1.6206577033227353E9, 2021-05-10 16:41:43.322
3.0, -75.53289031982422, 130.22518920898438, -39.261470794677734, 172.52906799316406, -0.08000000566244125, 0.06400000303983688, 1.055999994277954, 0.0, 0.0, 0.0, 0.0, 0.0, 1.6206577033234112E9, 2021-05-10 16:41:43.323
3.0, -41.46614074707031, 141.70294189453125, -18.7742977142334, 196.8720703125, -0.08000000566244125, 0.06400000303983688, 1.055999994277954, 0.0, 0.0, 0.0, 0.0, 0.0, 1.6206577033234112E9, 2021-05-10 16:41:43.323
4.0, -83.29318237304688, 114.54378509521484, -33.954551696777344, 164.72389221191406, -0.08000000566244125, 0.06400000303983688, 1.055999994277954, 0.0, 0.0, 0.0, 0.0, 0.0, 1.6206577033241236E9, 2021-05-10 16:41:43.324
4.0, -104.62557220458984, 95.12996673583984, -43.62593460083008, 144.83885192871094, -0.08000000566244125, 0.06400000303983688, 1.055999994277954, 0.0, 0.0, 0.0, 0.0, 0.0, 1.6206577033241236E9, 2021-05-10 16:41:43.324
5.0, -75.04296112060547, 112.3222885131836, -33.61048126220703, 172.9180145263672, -0.08000000566244125, 0.06400000303983688, 1.055999994277954, 0.0, 0.0, 0.0, 0.0, 0.0, 1.6206577033378491E9, 2021-05-10 16:41:43.337
5.0, -52.99999237060547, 127.72319030761719, -32.02850341796875, 193.72308349609375, -0.08000000566244125, 0.06400000303983688, 1.055999994277954, 0.0, 0.0, 0.0, 0.0, 0.0, 1.6206577033378491E9, 2021-05-10 16:41:43.337
6.0, -80.11426544189453, 118.75491333007812, -39.80375671386719, 166.49285888671875, -0.08000000566244125, 0.06400000303983688, 1.055999994277954, 0.0, 0.0, 0.0, 0.0, 0.0, 1.620657703338565E9, 2021-05-10 16:41:43.338
6.0, -102.54244995117188, 80.82484436035156, -52.23518371582031, 146.82473754882812, -0.08000000566244125, 0.06400000303983688, 1.055999994277954, 0.0, 0.0, 0.0, 0.0, 0.0, 1.620657703338565E9, 2021-05-10 16:41:43.338
7.0, -64.60490417480469, 106.79096984863281, -38.94357681274414, 174.51495361328125, -0.08000000566244125, 0.06400000303983688, 1.055999994277954, 0.0, 0.0, 0.0, 0.0, 0.0, 1.62065770333936E9, 2021-05-10 16:41:43.339
7.0, -50.2474250793457, 156.29603576660156, -20.10196304321289, 205.9001922607422, -0.08000000566244125, 0.06400000303983688, 1.055999994277954, 0.0, 0.0, 0.0, 0.0, 0.0, 1.62065770333936E9, 2021-05-10 16:41:43.339
8.0, -88.1587905883789, 106.7273941040039, -46.10174560546875, 157.27401733398438, -0.08000000566244125, 0.06400000303983688, 1.055999994277954, 0.0, 0.0, 0.0, 0.0, 0.0, 1.6206577033400843E9, 2021-05-10 16:41:43.340
8.0, -106.81341552734375, 93.54798889160156, -52.620391845703125, 137.04489135742188, -0.08000000566244125, 0.06400000303983688, 1.055999994277954, 0.0, 0.0, 0.0, 0.0, 0.0, 1.6206577033400843E9, 2021-05-10 16:41:43.340
9.0, -76.60997772216797, 130.408447265625, -40.357261657714844, 168.02249145507812, -0.08000000566244125, 0.06400000303983688, 1.055999994277954, 0.0, 0.0, 0.0, 0.0, 0.0, 1.6206577033665788E9, 2021-05-10 16:41:43.366
9.0, -47.921207427978516, 144.23484802246094, -27.18159294128418, 198.4764862060547, -0.08000000566244125, 0.06400000303983688, 1.055999994277954, 0.0, 0.0, 0.0, 0.0, 0.0, 1.6206577033665788E9, 2021-05-10 16:41:43.366
10.0, -83.90278625488281, 107.2098388671875, -48.12129211425781, 154.6112060546875, -0.08000000566244125, 0.06400000303983688, 1.055999994277954, 0.0, 0.0, 0.0, 0.0, 0.0, 1.6206577033673344E9, 2021-05-10 16:41:43.367
10.0, -93.02814483642578, 88.74969482421875, -43.663330078125, 138.81761169433594, -0.08000000566244125, 0.06400000303983688, 1.055999994277954, 0.0, 0.0, 0.0, 0.0, 0.0, 1.6206577033673344E9, 2021-05-10 16:41:43.367
11.0, -73.09073638916016, 108.32433319091797, -42.54884338378906, 169.89991760253906, -0.08000000566244125, 0.06400000303983688, 1.055999994277954, 0.0, 0.0, 0.0, 0.0, 0.0, 1.6206577033816347E9, 2021-05-10 16:41:43.381
11.0, -47.74917221069336, 139.70208740234375, -25.98856544494629, 191.76710510253906, -0.08000000566244125, 0.06400000303983688, 1.055999994277954, 0.0, 0.0, 0.0, 0.0, 0.0, 1.6206577033816347E9, 2021-05-10 16:41:43.381
12.0, -82.41804504394531, 113.94914245605469, -40.60783386230469, 156.67562866210938, -0.06400000303983688, 0.06400000303983688, 1.055999994277954, 0.0, 0.0, 0.0, 0.0, 0.0, 1.6206577033822727E9, 2021-05-10 16:41:43.382
12.0, -100.97542572021484, 100.41070556640625, -47.055419921875, 137.093505859375, -0.06400000303983688, 0.06400000303983688, 1.055999994277954, 0.0, 0.0, 0.0, 0.0, 0.0, 1.6206577033822727E9, 2021-05-10 16:41:43.382
13.0, -73.18797302246094, 125.11273956298828, -35.188716888427734, 169.45486450195312, -0.06400000303983688, 0.06400000303983688, 1.055999994277954, 0.0, 0.0, 0.0, 0.0, 0.0, 1.6206577033959553E9, 2021-05-10 16:41:43.395
13.0, -57.43551254272461, 151.58375549316406, -30.468965530395508, 189.87472534179688, -0.06400000303983688, 0.06400000303983688, 1.055999994277954, 0.0, 0.0, 0.0, 0.0, 0.0, 1.6206577033959553E9, 2021-05-10 16:41:43.395
14.0, -82.4330062866211, 127.5810775756836, -36.59492111206055, 168.10476684570312, -0.06400000303983688, 0.06400000303983688, 1.055999994277954, 0.0, 0.0, 0.0, 0.0, 0.0, 1.620657703412236E9, 2021-05-10 16:41:43.412
14.0, -104.8200454711914, 85.28654479980469, -53.431949615478516, 137.11221313476562, -0.06400000303983688, 0.06400000303983688, 1.055999994277954, 0.0, 0.0, 0.0, 0.0, 0.0, 1.620657703412236E9, 2021-05-10 16:41:43.412
15.0, -80.89590454101562, 118.86337280273438, -42.74705505371094, 167.7606964111328, -0.06400000303983688, 0.06400000303983688, 1.055999994277954, 0.0, 0.0, 0.0, 0.0, 0.0, 1.620657703412949E9, 2021-05-10 16:41:43.412
15.0, -55.81613540649414, 153.67062377929688, -28.202585220336914, 195.02456665039062, -0.06400000303983688, 0.06400000303983688, 1.055999994277954, 0.0, 0.0, 0.0, 0.0, 0.0, 1.620657703412949E9, 2021-05-10 16:41:43.412
16.0, -86.21404266357422, 105.5381088256836, -43.39780044555664, 165.55789184570312, -0.06400000303983688, 0.06400000303983688, 1.055999994277954, 0.0, 0.0, 0.0, 0.0, 0.0, 1.6206577034593115E9, 2021-05-10 16:41:43.459
16.0, -103.24180603027344, 95.48151397705078, -45.81377410888672, 143.0362091064453, -0.06400000303983688, 0.06400000303983688, 1.055999994277954, 0.0, 0.0, 0.0, 0.0, 0.0, 1.6206577034593115E9, 2021-05-10 16:41:43.459
17.0, -73.98831176757812, 121.29430389404297, -32.11825942993164, 179.73959350585938, -0.06400000303983688, 0.06400000303983688, 1.055999994277954, 0.0, 0.0, 0.0, 0.0, 0.0, 1.6206577034600308E9, 2021-05-10 16:41:43.460
17.0, -56.39956283569336, 155.76870727539062, -24.67959976196289, 198.00900268554688, -0.06400000303983688, 0.06400000303983688, 1.055999994277954, 0.0, 0.0, 0.0, 0.0, 0.0, 1.6206577034600308E9, 2021-05-10 16:41:43.460
18.0, -84.66946411132812, 102.32926940917969, -40.80978775024414, 158.89712524414062, -0.06400000303983688, 0.06400000303983688, 1.055999994277954, 0.0, 0.0, 0.0, 0.0, 0.0, 1.6206577034608102E9, 2021-05-10 16:41:43.460
18.0, -104.50589752197266, 104.91728210449219, -50.93743896484375, 143.5897216796875, -0.06400000303983688, 0.06400000303983688, 1.055999994277954, 0.0, 0.0, 0.0, 0.0, 0.0, 1.6206577034608102E9, 2021-05-10 16:41:43.460
19.0, -80.36109924316406, 113.20490264892578, -38.57706832885742, 170.15423583984375, -0.06400000303983688, 0.06400000303983688, 1.055999994277954, 0.0, 0.0, 0.0, 0.0, 0.0, 1.6206577034615912E9, 2021-05-10 16:41:43.461
19.0, -55.644100189208984, 135.78268432617188, -30.86165428161621, 195.99319458007812, -0.06400000303983688, 0.06400000303983688, 1.055999994277954, 0.0, 0.0, 0.0, 0.0, 0.0, 1.6206577034615912E9, 2021-05-10 16:41:43.461
20.0, -89.7220687866211, 116.840087890625, -40.652713775634766, 163.93850708007812, -0.06400000303983688, 0.06400000303983688, 1.055999994277954, 0.0, 0.0, 0.0, 0.0, 0.0, 1.6206577034721284E9, 2021-05-10 16:41:43.472
20.0, -107.78204345703125, 93.94441986083984, -44.56464767456055, 142.54254150390625, -0.06400000303983688, 0.06400000303983688, 1.055999994277954, 0.0, 0.0, 0.0, 0.0, 0.0, 1.6206577034721284E9, 2021-05-10 16:41:43.472
21.0, -76.4155044555664, 122.49107360839844, -32.922340393066406, 172.31214904785156, -0.06400000303983688, 0.06400000303983688, 1.055999994277954, 0.0, 0.0, 0.0, 0.0, 0.0, 1.6206577034729044E9, 2021-05-10 16:41:43.472
21.0, -60.91361999511719, 146.02999877929688, -34.339759826660156, 192.212158203125, -0.06400000303983688, 0.06400000303983688, 1.055999994277954, 0.0, 0.0, 0.0, 0.0, 0.0, 1.6206577034729044E9, 2021-05-10 16:41:43.472
22.0, -80.00581359863281, 114.16605377197266, -37.559814453125, 163.19053649902344, -0.06400000303983688, 0.06400000303983688, 1.055999994277954, 0.0, 0.0, 0.0, 0.0, 0.0, 1.620657703485972E9, 2021-05-10 16:41:43.485
22.0, -114.68215942382812, 99.66272735595703, -50.956138610839844, 140.75112915039062, -0.06400000303983688, 0.06400000303983688, 1.055999994277954, 0.0, 0.0, 0.0, 0.0, 0.0, 1.620657703485972E9, 2021-05-10 16:41:43.485
23.0, -82.66487884521484, 112.65887451171875, -40.37969970703125, 168.6059112548828, -0.06400000303983688, 0.06400000303983688, 1.055999994277954, 0.0, 0.0, 0.0, 0.0, 0.0, 1.6206577035015984E9, 2021-05-10 16:41:43.501
23.0, -57.551448822021484, 141.48228454589844, -29.107641220092773, 196.5691375732422, -0.06400000303983688, 0.06400000303983688, 1.055999994277954, 0.0, 0.0, 0.0, 0.0, 0.0, 1.6206577035015984E9, 2021-05-10 16:41:43.501
24.0, -80.75379180908203, 120.85673522949219, -40.461978912353516, 167.33059692382812, -0.06400000303983688, 0.06400000303983688, 1.055999994277954, 0.0, 0.0, 0.0, 0.0, 0.0, 1.6206577035023801E9, 2021-05-10 16:41:43.502
24.0, -113.20116424560547, 98.7576675415039, -49.96132278442383, 143.98240661621094, -0.06400000303983688, 0.06400000303983688, 1.055999994277954, 0.0, 0.0, 0.0, 0.0, 0.0, 1.6206577035023801E9, 2021-05-10 16:41:43.502
25.0, -79.56449890136719, 124.30492401123047, -44.744163513183594, 169.12576293945312, -0.06400000303983688, 0.06400000303983688, 1.055999994277954, 0.0, 0.0, 0.0, 0.0, 0.0, 1.6206577035158708E9, 2021-05-10 16:41:43.515
25.0, -48.13438415527344, 148.09442138671875, -28.50177764892578, 194.9273223876953, -0.06400000303983688, 0.06400000303983688, 1.055999994277954, 0.0, 0.0, 0.0, 0.0, 0.0, 1.6206577035158708E9, 2021-05-10 16:41:43.515
26.0, -75.05044555664062, 119.81704711914062, -39.833675384521484, 166.5751495361328, -0.06400000303983688, 0.06400000303983688, 1.055999994277954, 0.0, 0.0, 0.0, 0.0, 0.0, 1.620657703547084E9, 2021-05-10 16:41:43.547
26.0, -117.96205139160156, 79.0857925415039, -59.70750427246094, 133.44711303710938, -0.06400000303983688, 0.06400000303983688, 1.055999994277954, 0.0, 0.0, 0.0, 0.0, 0.0, 1.620657703547084E9, 2021-05-10 16:41:43.547
27.0, -79.02595520019531, 128.8414306640625, -37.09232711791992, 185.37188720703125, -0.06400000303983688, 0.06400000303983688, 1.055999994277954, 0.0, 0.0, 0.0, 0.0, 0.0, 1.620657703547776E9, 2021-05-10 16:41:43.547
27.0, -55.262630462646484, 137.20384216308594, -30.86165428161621, 201.56564331054688, -0.06400000303983688, 0.06400000303983688, 1.055999994277954, 0.0, 0.0, 0.0, 0.0, 0.0, 1.620657703547776E9, 2021-05-10 16:41:43.547
28.0, -83.46147918701172, 112.82343292236328, -37.27932357788086, 165.47935485839844, -0.06400000303983688, 0.06400000303983688, 1.055999994277954, 0.0, 0.0, 0.0, 0.0, 0.0, 1.6206577035625756E9, 2021-05-10 16:41:43.562
28.0, -105.89339447021484, 87.24999237060547, -47.02924346923828, 137.71807861328125, -0.06400000303983688, 0.06400000303983688, 1.055999994277954, 0.0, 0.0, 0.0, 0.0, 0.0, 1.6206577035625756E9, 2021-05-10 16:41:43.562
29.0, -74.96068572998047, 120.40795135498047, -35.79458236694336, 177.43206787109375, -0.06400000303983688, 0.06400000303983688, 1.055999994277954, 0.0, 0.0, 0.0, 0.0, 0.0, 1.6206577035633273E9, 2021-05-10 16:41:43.563
29.0, -43.526824951171875, 145.59617614746094, -21.590442657470703, 204.7146453857422, -0.06400000303983688, 0.06400000303983688, 1.055999994277954, 0.0, 0.0, 0.0, 0.0, 0.0, 1.6206577035633273E9, 2021-05-10 16:41:43.563
30.0, -85.4062271118164, 105.73632049560547, -47.3433952331543, 160.80821228027344, -0.06400000303983688, 0.06400000303983688, 1.055999994277954, 0.0, 0.0, 0.0, 0.0, 0.0, 1.62065770357623E9, 2021-05-10 16:41:43.576
30.0, -110.42989349365234, 94.24735260009766, -44.7965202331543, 149.0499725341797, -0.06400000303983688, 0.06400000303983688, 1.055999994277954, 0.0, 0.0, 0.0, 0.0, 0.0, 1.62065770357623E9, 2021-05-10 16:41:43.576
31.0, -76.95779418945312, 131.1152801513672, -34.11910629272461, 171.40708923339844, -0.06400000303983688, 0.06400000303983688, 1.055999994277954, 0.0, 0.0, 0.0, 0.0, 0.0, 1.6206577035921612E9, 2021-05-10 16:41:43.592
31.0, -49.35358810424805, 146.62464904785156, -25.1882266998291, 197.7135467529297, -0.06400000303983688, 0.06400000303983688, 1.055999994277954, 0.0, 0.0, 0.0, 0.0, 0.0, 1.6206577035921612E9, 2021-05-10 16:41:43.592
32.0, -82.28340911865234, 111.32373046875, -36.7258186340332, 165.591552734375, -0.06400000303983688, 0.06400000303983688, 1.055999994277954, 0.0, 0.0, 0.0, 0.0, 0.0, 1.6206577035929735E9, 2021-05-10 16:41:43.592
32.0, -108.01392364501953, 93.67888641357422, -51.618099212646484, 136.8466796875, -0.06400000303983688, 0.06400000303983688, 1.055999994277954, 0.0, 0.0, 0.0, 0.0, 0.0, 1.6206577035929735E9, 2021-05-10 16:41:43.592
33.0, -69.27977752685547, 130.43087768554688, -39.55318069458008, 171.7324676513672, -0.06400000303983688, 0.06400000303983688, 1.055999994277954, 0.0, 0.0, 0.0, 0.0, 0.0, 1.620657703593673E9, 2021-05-10 16:41:43.593
33.0, -55.47206497192383, 141.4149627685547, -34.85586929321289, 191.01165771484375, -0.06400000303983688, 0.06400000303983688, 1.055999994277954, 0.0, 0.0, 0.0, 0.0, 0.0, 1.620657703593673E9, 2021-05-10 16:41:43.593
34.0, -80.6116714477539, 119.68241119384766, -33.84235382080078, 169.57827758789062, -0.06400000303983688, 0.06400000303983688, 1.055999994277954, 0.0, 0.0, 0.0, 0.0, 0.0, 1.6206577036058197E9, 2021-05-10 16:41:43.605
34.0, -112.62895965576172, 96.22575378417969, -53.342193603515625, 145.9645538330078, -0.06400000303983688, 0.06400000303983688, 1.055999994277954, 0.0, 0.0, 0.0, 0.0, 0.0, 1.6206577036058197E9, 2021-05-10 16:41:43.605
35.0, -84.0224609375, 119.77964782714844, -47.57152557373047, 164.4321746826172, -0.06400000303983688, 0.06400000303983688, 1.055999994277954, 0.0, 0.0, 0.0, 0.0, 0.0, 1.6206577036214776E9, 2021-05-10 16:41:43.621
35.0, -46.90769577026367, 160.27902221679688, -28.056730270385742, 192.036376953125, -0.06400000303983688, 0.06400000303983688, 1.055999994277954, 0.0, 0.0, 0.0, 0.0, 0.0, 1.6206577036214776E9, 2021-05-10 16:41:43.621
36.0, -79.83003234863281, 104.60313415527344, -45.514583587646484, 165.6700897216797, -0.06400000303983688, 0.06400000303983688, 1.055999994277954, 0.0, 0.0, 0.0, 0.0, 0.0, 1.6206577036222496E9, 2021-05-10 16:41:43.622
36.0, -105.79615783691406, 86.64039611816406, -54.27342987060547, 138.6343536376953, -0.06400000303983688, 0.06400000303983688, 1.055999994277954, 0.0, 0.0, 0.0, 0.0, 0.0, 1.6206577036222496E9, 2021-05-10 16:41:43.622
37.0, -83.6409912109375, 137.73117065429688, -44.848880767822266, 172.18125915527344, -0.06400000303983688, 0.06400000303983688, 1.055999994277954, 0.0, 0.0, 0.0, 0.0, 0.0, 1.620657703635902E9, 2021-05-10 16:41:43.635
37.0, -50.5877571105957, 144.66119384765625, -28.370880126953125, 200.95977783203125, -0.06400000303983688, 0.06400000303983688, 1.055999994277954, 0.0, 0.0, 0.0, 0.0, 0.0, 1.620657703635902E9, 2021-05-10 16:41:43.635
38.0, -87.95309448242188, 114.52508544921875, -41.019222259521484, 163.5233917236328, -0.06400000303983688, 0.06400000303983688, 1.055999994277954, 0.0, 0.0, 0.0, 0.0, 0.0, 1.62065770365161E9, 2021-05-10 16:41:43.651
38.0, -108.27197265625, 91.0871353149414, -49.92392349243164, 137.67694091796875, -0.06400000303983688, 0.06400000303983688, 1.055999994277954, 0.0, 0.0, 0.0, 0.0, 0.0, 1.62065770365161E9, 2021-05-10 16:41:43.651
39.0, -71.29932403564453, 108.09619903564453, -36.19101333618164, 174.94503784179688, -0.06400000303983688, 0.06400000303983688, 1.055999994277954, 0.0, 0.0, 0.0, 0.0, 0.0, 1.620657703652357E9, 2021-05-10 16:41:43.652
39.0, -39.75700759887695, 155.843505859375, -21.49320411682129, 207.29518127441406, -0.06400000303983688, 0.06400000303983688, 1.055999994277954, 0.0, 0.0, 0.0, 0.0, 0.0, 1.620657703652357E9, 2021-05-10 16:41:43.652
40.0, -91.53218078613281, 113.54149627685547, -46.39345932006836, 161.97506713867188, -0.06400000303983688, 0.06400000303983688, 1.055999994277954, 0.0, 0.0, 0.0, 0.0, 0.0, 1.6206577036659257E9, 2021-05-10 16:41:43.665
40.0, -107.31082153320312, 97.32154846191406, -48.9627685546875, 146.9369354248047, -0.06400000303983688, 0.06400000303983688, 1.055999994277954, 0.0, 0.0, 0.0, 0.0, 0.0, 1.6206577036659257E9, 2021-05-10 16:41:43.665
41.0, -75.93679809570312, 113.01790618896484, -41.68118667602539, 180.16220092773438, -0.06400000303983688, 0.06400000303983688, 1.055999994277954, 0.0, 0.0, 0.0, 0.0, 0.0, 1.6206577036816096E9, 2021-05-10 16:41:43.681
41.0, -48.388694763183594, 141.48228454589844, -25.390180587768555, 199.74806213378906, -0.06400000303983688, 0.06400000303983688, 1.055999994277954, 0.0, 0.0, 0.0, 0.0, 0.0, 1.6206577036816096E9, 2021-05-10 16:41:43.681
42.0, -82.63121795654297, 115.50494384765625, -41.18003845214844, 163.2578582763672, -0.06400000303983688, 0.06400000303983688, 1.055999994277954, 0.0, 0.0, 0.0, 0.0, 0.0, 1.6206577036823316E9, 2021-05-10 16:41:43.682
42.0, -103.9748306274414, 100.3246841430664, -48.8505744934082, 144.84632873535156, -0.06400000303983688, 0.06400000303983688, 1.055999994277954, 0.0, 0.0, 0.0, 0.0, 0.0, 1.6206577036823316E9, 2021-05-10 16:41:43.682
43.0, -75.11775970458984, 133.1049041748047, -37.84404754638672, 184.16763305664062, -0.06400000303983688, 0.06400000303983688, 1.055999994277954, 0.0, 0.0, 0.0, 0.0, 0.0, 1.6206577037122338E9, 2021-05-10 16:41:43.712
43.0, -69.39197540283203, 166.59197998046875, -36.95395278930664, 189.45211791992188, -0.06400000303983688, 0.06400000303983688, 1.055999994277954, 0.0, 0.0, 0.0, 0.0, 0.0, 1.6206577037122338E9, 2021-05-10 16:41:43.712
44.0, -87.76610565185547, 113.02912902832031, -37.062408447265625, 174.65707397460938, -0.06400000303983688, 0.06400000303983688, 1.055999994277954, 0.0, 0.0, 0.0, 0.0, 0.0, 1.6206577037129302E9, 2021-05-10 16:41:43.712
44.0, -110.6019287109375, 68.93196868896484, -47.16761779785156, 147.05661010742188, -0.06400000303983688, 0.06400000303983688, 1.055999994277954, 0.0, 0.0, 0.0, 0.0, 0.0, 1.6206577037129302E9, 2021-05-10 16:41:43.712
45.0, -80.1441879272461, 140.50616455078125, -40.50685501098633, 175.45741271972656, -0.06400000303983688, 0.06400000303983688, 1.055999994277954, 0.0, 0.0, 0.0, 0.0, 0.0, 1.6206577037137222E9, 2021-05-10 16:41:43.713
45.0, -60.56581115722656, 158.98501586914062, -35.592628479003906, 193.9512176513672, -0.06400000303983688, 0.06400000303983688, 1.055999994277954, 0.0, 0.0, 0.0, 0.0, 0.0, 1.6206577037137222E9, 2021-05-10 16:41:43.713
46.0, -86.26266479492188, 143.6626434326172, -44.078460693359375, 158.91583251953125, -0.06400000303983688, 0.06400000303983688, 1.055999994277954, 0.0, 0.0, 0.0, 0.0, 0.0, 1.6206577037257676E9, 2021-05-10 16:41:43.725
46.0, -110.49347686767578, 95.75827026367188, -52.01826858520508, 134.70372009277344, -0.06400000303983688, 0.06400000303983688, 1.055999994277954, 0.0, 0.0, 0.0, 0.0, 0.0, 1.6206577037257676E9, 2021-05-10 16:41:43.725
47.0, -71.3703842163086, 141.8787078857422, -29.807003021240234, 182.09947204589844, -0.06400000303983688, 0.06400000303983688, 1.055999994277954, 0.0, 0.0, 0.0, 0.0, 0.0, 1.6206577037421377E9, 2021-05-10 16:41:43.742
47.0, -57.90299987792969, 134.8664093017578, -38.255435943603516, 186.63597106933594, -0.06400000303983688, 0.06400000303983688, 1.055999994277954, 0.0, 0.0, 0.0, 0.0, 0.0, 1.6206577037421377E9, 2021-05-10 16:41:43.742
48.0, -83.06504821777344, 108.64970397949219, -37.253143310546875, 157.42735290527344, -0.06400000303983688, 0.06400000303983688, 1.055999994277954, 0.0, 0.0, 0.0, 0.0, 0.0, 1.620657703742876E9, 2021-05-10 16:41:43.742
48.0, -104.5582504272461, 81.08663940429688, -41.542808532714844, 155.06373596191406, -0.06400000303983688, 0.06400000303983688, 1.055999994277954, 0.0, 0.0, 0.0, 0.0, 0.0, 1.620657703742876E9, 2021-05-10 16:41:43.742
49.0, -66.01484680175781, 123.79255676269531, -27.454605102539062, 171.16026306152344, -0.06400000303983688, 0.06400000303983688, 1.055999994277954, 0.0, 0.0, 0.0, 0.0, 0.0, 1.6206577037711763E9, 2021-05-10 16:41:43.771
49.0, -48.736507415771484, 142.40977478027344, -22.577775955200195, 200.92613220214844, -0.06400000303983688, 0.06400000303983688, 1.055999994277954, 0.0, 0.0, 0.0, 0.0, 0.0, 1.6206577037711763E9, 2021-05-10 16:41:43.771
50.0, -86.07566833496094, 131.23495483398438, -45.39864730834961, 149.992431640625, -0.06400000303983688, 0.06400000303983688, 1.055999994277954, 0.0, 0.0, 0.0, 0.0, 0.0, 1.6206577037862704E9, 2021-05-10 16:41:43.786
50.0, -111.06941986083984, 106.16641235351562, -57.26534652709961, 130.09242248535156, -0.06400000303983688, 0.06400000303983688, 1.055999994277954, 0.0, 0.0, 0.0, 0.0, 0.0, 1.6206577037862704E9, 2021-05-10 16:41:43.786
51.0, -69.23863983154297, 129.0919952392578, -33.520721435546875, 177.6377716064453, -0.06400000303983688, 0.06400000303983688, 1.055999994277954, 0.0, 0.0, 0.0, 0.0, 0.0, 1.6206577038029492E9, 2021-05-10 16:41:43.802
51.0, -58.72951889038086, 155.35357666015625, -30.775636672973633, 195.88099670410156, -0.06400000303983688, 0.06400000303983688, 1.055999994277954, 0.0, 0.0, 0.0, 0.0, 0.0, 1.6206577038029492E9, 2021-05-10 16:41:43.802
52.0, -84.29173278808594, 118.3846664428711, -36.482723236083984, 164.4471435546875, -0.06400000303983688, 0.06400000303983688, 1.055999994277954, 0.0, 0.0, 0.0, 0.0, 0.0, 1.6206577038036702E9, 2021-05-10 16:41:43.803
52.0, -109.37898254394531, 81.52046966552734, -52.88218688964844, 132.77392578125, -0.06400000303983688, 0.06400000303983688, 1.055999994277954, 0.0, 0.0, 0.0, 0.0, 0.0, 1.6206577038036702E9, 2021-05-10 16:41:43.803
53.0, -72.56714630126953, 125.43063354492188, -35.08026123046875, 174.73187255859375, -0.06400000303983688, 0.06400000303983688, 1.055999994277954, 0.0, 0.0, 0.0, 0.0, 0.0, 1.6206577038043125E9, 2021-05-10 16:41:43.804
53.0, -48.85244369506836, 153.3826446533203, -27.454605102539062, 197.92298889160156, -0.06400000303983688, 0.06400000303983688, 1.055999994277954, 0.0, 0.0, 0.0, 0.0, 0.0, 1.6206577038043125E9, 2021-05-10 16:41:43.804
54.0, -69.98661804199219, 130.44210815429688, -37.791690826416016, 168.41517639160156, -0.06400000303983688, 0.06400000303983688, 1.055999994277954, 0.0, 0.0, 0.0, 0.0, 0.0, 1.6206577038050675E9, 2021-05-10 16:41:43.805
54.0, -104.57695007324219, 114.2520751953125, -52.64282989501953, 135.9565887451172, -0.06400000303983688, 0.06400000303983688, 1.055999994277954, 0.0, 0.0, 0.0, 0.0, 0.0, 1.6206577038050675E9, 2021-05-10 16:41:43.805
55.0, -79.4859619140625, 111.51072692871094, -41.655006408691406, 175.509765625, -0.06400000303983688, 0.06400000303983688, 1.055999994277954, 0.0, 0.0, 0.0, 0.0, 0.0, 1.6206577038158543E9, 2021-05-10 16:41:43.815
55.0, -56.317283630371094, 152.75808715820312, -31.12344741821289, 194.7440643310547, -0.06400000303983688, 0.06400000303983688, 1.055999994277954, 0.0, 0.0, 0.0, 0.0, 0.0, 1.6206577038158543E9, 2021-05-10 16:41:43.815
56.0, -73.52830505371094, 121.95252990722656, -32.2304573059082, 168.93502807617188, -0.06400000303983688, 0.06400000303983688, 1.055999994277954, 0.0, 0.0, 0.0, 0.0, 0.0, 1.6206577038312924E9, 2021-05-10 16:41:43.831
56.0, -102.94261932373047, 60.74158477783203, -46.715091705322266, 132.62432861328125, -0.06400000303983688, 0.06400000303983688, 1.055999994277954, 0.0, 0.0, 0.0, 0.0, 0.0, 1.6206577038312924E9, 2021-05-10 16:41:43.831
57.0, -73.53578186035156, 121.28308868408203, -34.88204574584961, 175.19561767578125, -0.06400000303983688, 0.06400000303983688, 1.055999994277954, 0.0, 0.0, 0.0, 0.0, 0.0, 1.6206577038465002E9, 2021-05-10 16:41:43.846
57.0, -42.31509780883789, 164.26950073242188, -14.679107666015625, 211.8428955078125, -0.06400000303983688, 0.06400000303983688, 1.055999994277954, 0.0, 0.0, 0.0, 0.0, 0.0, 1.6206577038465002E9, 2021-05-10 16:41:43.846
58.0, -80.53687286376953, 129.0059814453125, -39.493343353271484, 162.5360565185547, -0.06400000303983688, 0.06400000303983688, 1.055999994277954, 0.0, 0.0, 0.0, 0.0, 0.0, 1.6206577038472116E9, 2021-05-10 16:41:43.847
58.0, -120.50144958496094, 102.73318481445312, -60.795814514160156, 128.38702392578125, -0.06400000303983688, 0.06400000303983688, 1.055999994277954, 0.0, 0.0, 0.0, 0.0, 0.0, 1.6206577038472116E9, 2021-05-10 16:41:43.847
59.0, -76.21729278564453, 126.3543930053711, -41.116458892822266, 175.05723571777344, -0.06400000303983688, 0.06400000303983688, 1.055999994277954, 0.0, 0.0, 0.0, 0.0, 0.0, 1.6206577038615696E9, 2021-05-10 16:41:43.861
59.0, -55.29629135131836, 161.1728515625, -34.242523193359375, 197.23858642578125, -0.06400000303983688, 0.06400000303983688, 1.055999994277954, 0.0, 0.0, 0.0, 0.0, 0.0, 1.6206577038615696E9, 2021-05-10 16:41:43.861
60.0, -84.6619873046875, 129.36874389648438, -33.83113479614258, 161.74319458007812, -0.06400000303983688, 0.06400000303983688, 1.055999994277954, 0.0, 0.0, 0.0, 0.0, 0.0, 1.6206577038623028E9, 2021-05-10 16:41:43.862
60.0, -113.33953857421875, 108.17473602294922, -49.957584381103516, 133.10678100585938, -0.06400000303983688, 0.06400000303983688, 1.055999994277954, 0.0, 0.0, 0.0, 0.0, 0.0, 1.6206577038623028E9, 2021-05-10 16:41:43.862
61.0, -84.2206802368164, 134.73550415039062, -39.07821273803711, 171.3098602294922, -0.06400000303983688, 0.06400000303983688, 1.055999994277954, 0.0, 0.0, 0.0, 0.0, 0.0, 1.6206577038758357E9, 2021-05-10 16:41:43.875
61.0, -46.74687957763672, 159.9573974609375, -20.72278594970703, 207.6728973388672, -0.06400000303983688, 0.06400000303983688, 1.055999994277954, 0.0, 0.0, 0.0, 0.0, 0.0, 1.6206577038758357E9, 2021-05-10 16:41:43.875
62.0, -93.59286499023438, 90.55233001708984, -40.413360595703125, 163.40370178222656, -0.08000000566244125, 0.06400000303983688, 1.055999994277954, 0.0, 0.0, 0.0, 0.0, 0.0, 1.6206577038912656E9, 2021-05-10 16:41:43.891
62.0, -116.6231689453125, 114.62980651855469, -56.8614387512207, 136.1622772216797, -0.08000000566244125, 0.06400000303983688, 1.055999994277954, 0.0, 0.0, 0.0, 0.0, 0.0, 1.6206577038912656E9, 2021-05-10 16:41:43.891
63.0, -68.3822021484375, 140.71560668945312, -33.771297454833984, 173.78941345214844, -0.08000000566244125, 0.06400000303983688, 1.055999994277954, 0.0, 0.0, 0.0, 0.0, 0.0, 1.6206577039065688E9, 2021-05-10 16:41:43.906
63.0, -51.90420150756836, 145.6934051513672, -28.139007568359375, 192.31687927246094, -0.08000000566244125, 0.06400000303983688, 1.055999994277954, 0.0, 0.0, 0.0, 0.0, 0.0, 1.6206577039065688E9, 2021-05-10 16:41:43.906
64.0, -84.49369049072266, 123.57190704345703, -41.314674377441406, 169.4473876953125, -0.08000000566244125, 0.06400000303983688, 1.055999994277954, 0.0, 0.0, 0.0, 0.0, 0.0, 1.6206577039071906E9, 2021-05-10 16:41:43.907
64.0, -107.28089904785156, 101.31949615478516, -48.143733978271484, 137.13839721679688, -0.08000000566244125, 0.06400000303983688, 1.055999994277954, 0.0, 0.0, 0.0, 0.0, 0.0, 1.6206577039071906E9, 2021-05-10 16:41:43.907
65.0, -88.1139144897461, 135.7789306640625, -43.603492736816406, 166.69482421875, -0.08000000566244125, 0.06400000303983688, 1.055999994277954, 0.0, 0.0, 0.0, 0.0, 0.0, 1.6206577039214616E9, 2021-05-10 16:41:43.921
65.0, -50.830848693847656, 147.1557159423828, -24.896514892578125, 199.32919311523438, -0.08000000566244125, 0.06400000303983688, 1.055999994277954, 0.0, 0.0, 0.0, 0.0, 0.0, 1.6206577039214616E9, 2021-05-10 16:41:43.921
66.0, -83.259521484375, 132.3120574951172, -33.588043212890625, 175.0048828125, -0.08000000566244125, 0.06400000303983688, 1.055999994277954, 0.0, 0.0, 0.0, 0.0, 0.0, 1.6206577039223E9, 2021-05-10 16:41:43.922
66.0, -113.8519058227539, 111.6004867553711, -48.58877944946289, 140.26121520996094, -0.08000000566244125, 0.06400000303983688, 1.055999994277954, 0.0, 0.0, 0.0, 0.0, 0.0, 1.6206577039223E9, 2021-05-10 16:41:43.922
67.0, -83.22212219238281, 142.26766967773438, -36.45280456542969, 168.2468719482422, -0.08000000566244125, 0.06400000303983688, 1.055999994277954, 0.0, 0.0, 0.0, 0.0, 0.0, 1.620657703935932E9, 2021-05-10 16:41:43.935
67.0, -59.87392807006836, 167.27638244628906, -28.150226593017578, 192.634765625, -0.08000000566244125, 0.06400000303983688, 1.055999994277954, 0.0, 0.0, 0.0, 0.0, 0.0, 1.620657703935932E9, 2021-05-10 16:41:43.935
68.0, -82.98651123046875, 153.09092712402344, -36.98012924194336, 167.57369995117188, -0.08000000566244125, 0.06400000303983688, 1.055999994277954, 0.0, 0.0, 0.0, 0.0, 0.0, 1.6206577039520853E9, 2021-05-10 16:41:43.952
68.0, -121.9413070678711, 89.79686737060547, -51.78265380859375, 144.72665405273438, -0.08000000566244125, 0.06400000303983688, 1.055999994277954, 0.0, 0.0, 0.0, 0.0, 0.0, 1.6206577039520853E9, 2021-05-10 16:41:43.952
69.0, -71.54241943359375, 127.4202651977539, -30.40912628173828, 173.07135009765625, -0.08000000566244125, 0.06400000303983688, 1.055999994277954, 0.0, 0.0, 0.0, 0.0, 0.0, 1.6206577039665372E9, 2021-05-10 16:41:43.966
69.0, -60.30027770996094, 177.43768310546875, -26.938499450683594, 194.2877960205078, -0.08000000566244125, 0.06400000303983688, 1.055999994277954, 0.0, 0.0, 0.0, 0.0, 0.0, 1.6206577039665372E9, 2021-05-10 16:41:43.966
70.0, -81.84957885742188, 146.4152069091797, -31.946226119995117, 170.5955352783203, -0.08000000566244125, 0.06400000303983688, 1.055999994277954, 0.0, 0.0, 0.0, 0.0, 0.0, 1.6206577039671936E9, 2021-05-10 16:41:43.967
70.0, -106.09909057617188, 115.9013671875, -45.892311096191406, 142.46774291992188, -0.08000000566244125, 0.06400000303983688, 1.055999994277954, 0.0, 0.0, 0.0, 0.0, 0.0, 1.6206577039671936E9, 2021-05-10 16:41:43.967
71.0, -77.01763153076172, 144.3844451904297, -45.753936767578125, 164.50323486328125, -0.08000000566244125, 0.06400000303983688, 1.055999994277954, 0.0, 0.0, 0.0, 0.0, 0.0, 1.6206577039814885E9, 2021-05-10 16:41:43.981
71.0, -57.8356819152832, 202.50997924804688, -25.71929168701172, 196.0829620361328, -0.08000000566244125, 0.06400000303983688, 1.055999994277954, 0.0, 0.0, 0.0, 0.0, 0.0, 1.6206577039814885E9, 2021-05-10 16:41:43.981
72.0, -95.01403045654297, 136.6802520751953, -48.45414352416992, 156.5596923828125, -0.08000000566244125, 0.06400000303983688, 1.055999994277954, 0.0, 0.0, 0.0, 0.0, 0.0, 1.6206577039822905E9, 2021-05-10 16:41:43.982
72.0, -113.70978546142578, 125.00428771972656, -49.950103759765625, 138.4099578857422, -0.08000000566244125, 0.06400000303983688, 1.055999994277954, 0.0, 0.0, 0.0, 0.0, 0.0, 1.6206577039822905E9, 2021-05-10 16:41:43.982
73.0, -78.68562316894531, 153.5023193359375, -43.52869415283203, 161.8628692626953, -0.08000000566244125, 0.06400000303983688, 1.055999994277954, 0.0, 0.0, 0.0, 0.0, 0.0, 1.620657703995846E9, 2021-05-10 16:41:43.995
73.0, -54.05838394165039, 174.72999572753906, -32.724124908447266, 191.86434936523438, -0.08000000566244125, 0.06400000303983688, 1.055999994277954, 0.0, 0.0, 0.0, 0.0, 0.0, 1.620657703995846E9, 2021-05-10 16:41:43.995
74.0, -83.1174087524414, 159.69186401367188, -47.35835266113281, 166.096435546875, -0.08000000566244125, 0.06400000303983688, 1.055999994277954, 0.0, 0.0, 0.0, 0.0, 0.0, 1.6206577040278492E9, 2021-05-10 16:41:44.027
74.0, -121.61219787597656, 128.1495361328125, -58.151702880859375, 127.0107421875, -0.08000000566244125, 0.06400000303983688, 1.055999994277954, 0.0, 0.0, 0.0, 0.0, 0.0, 1.6206577040278492E9, 2021-05-10 16:41:44.027
