Sample Index, EXG Channel 0, EXG Channel 1, EXG Channel 2, EXG Channel 3, Accel Channel 0, Accel Channel 1, Accel Channel 2, Other, Other, Other, Other, Other, Timestamp, Timestamp (Formatted)
100.0, -14.563170433044434, -10.33708381652832, -14.86610221862793, -8.949580192565918, 0.0, 0.0, 1.055999994277954, 0.0, 0.0, 0.0, 0.0, 0.0, 1.6206628650837092E9, 2021-05-10 18:07:45.083
100.0, -171.9923858642578, -49.362937927246094, -104.88923645019531, -40.44327926635742, 0.0, 0.0, 1.055999994277954, 0.0, 0.0, 0.0, 0.0, 0.0, 1.6206628650837092E9, 2021-05-10 18:07:45.083
0.0, -326.8279724121094, 50.181976318359375, 105.27444458007812, 42.975189208984375, 0.0, 0.0, 1.055999994277954, 0.0, 0.0, 0.0, 0.0, 0.0, 1.6206628651141276E9, 2021-05-10 18:07:45.114
1.0, -307.2608337402344, 68.66830444335938, 123.91410827636719, 55.46645736694336, 0.0, 0.03200000151991844, 1.055999994277954, 0.0, 0.0, 0.0, 0.0, 0.0, 1.6206628651275244E9, 2021-05-10 18:07:45.127
1.0, -306.7035827636719, 61.13240432739258, 119.07093811035156, 54.2322883605957, 0.0, 0.03200000151991844, 1.055999994277954, 0.0, 0.0, 0.0, 0.0, 0.0, 1.6206628651275244E9, 2021-05-10 18:07:45.127
2.0, -327.6170959472656, 45.53328323364258, 96.60535430908203, 39.91221237182617, -0.03200000151991844, 0.03200000151991844, 1.055999994277954, 0.0, 0.0, 0.0, 0.0, 0.0, 1.6206628651442356E9, 2021-05-10 18:07:45.144
2.0, -324.2923278808594, 43.67455291748047, 100.16574096679688, 42.04769515991211, -0.03200000151991844, 0.03200000151991844, 1.055999994277954, 0.0, 0.0, 0.0, 0.0, 0.0, 1.6206628651442356E9, 2021-05-10 18:07:45.144
3.0, -307.2384033203125, 73.33570098876953, 120.05078887939453, 54.65863800048828, -0.03200000151991844, 0.03200000151991844, 1.055999994277954, 0.0, 0.0, 0.0, 0.0, 0.0, 1.6206628651450372E9, 2021-05-10 18:07:45.145
3.0, -308.52490234375, 61.19598388671875, 115.82096099853516, 52.92706298828125, -0.03200000151991844, 0.03200000151991844, 1.055999994277954, 0.0, 0.0, 0.0, 0.0, 0.0, 1.6206628651450372E9, 2021-05-10 18:07:45.145
4.0, -330.0143737792969, 40.353519439697266, 94.32027435302734, 39.212852478027344, -0.03200000151991844, 0.03200000151991844, 1.055999994277954, 0.0, 0.0, 0.0, 0.0, 0.0, 1.620662865157337E9, 2021-05-10 18:07:45.157
4.0, -324.4942932128906, 42.62738037109375, 99.16344451904297, 42.77323532104492, -0.03200000151991844, 0.03200000151991844, 1.055999994277954, 0.0, 0.0, 0.0, 0.0, 0.0, 1.620662865157337E9, 2021-05-10 18:07:45.157
5.0, -304.36614990234375, 69.19562530517578, 115.78730010986328, 60.38068389892578, -0.03200000151991844, 0.03200000151991844, 1.055999994277954, 0.0, 0.0, 0.0, 0.0, 0.0, 1.6206628651738417E9, 2021-05-10 18:07:45.173
5.0, -319.662353515625, 53.74236297607422, 111.65097045898438, 47.92681884765625, -0.03200000151991844, 0.03200000151991844, 1.055999994277954, 0.0, 0.0, 0.0, 0.0, 0.0, 1.6206628651738417E9, 2021-05-10 18:07:45.173
6.0, -331.342041015625, 41.76720428466797, 90.7374496459961, 31.25808334350586, -0.03200000151991844, 0.03200000151991844, 1.055999994277954, 0.0, 0.0, 0.0, 0.0, 0.0, 1.6206628651744835E9, 2021-05-10 18:07:45.174
6.0, -329.81243896484375, 45.611820220947266, 99.53369903564453, 30.405385971069336, -0.03200000151991844, 0.03200000151991844, 1.055999994277954, 0.0, 0.0, 0.0, 0.0, 0.0, 1.6206628651744835E9, 2021-05-10 18:07:45.174
7.0, -309.09710693359375, 63.85131072998047, 116.79707336425781, 46.81232833862305, -0.03200000151991844, 0.03200000151991844, 1.055999994277954, 0.0, 0.0, 0.0, 0.0, 0.0, 1.620662865187347E9, 2021-05-10 18:07:45.187
7.0, -314.0450134277344, 61.3979377746582, 118.32669830322266, 48.96651077270508, -0.03200000151991844, 0.03200000151991844, 1.055999994277954, 0.0, 0.0, 0.0, 0.0, 0.0, 1.620662865187347E9, 2021-05-10 18:07:45.187
8.0, -329.1990966796875, 42.496482849121094, 96.05184936523438, 36.67720031738281, -0.03200000151991844, 0.03200000151991844, 1.055999994277954, 0.0, 0.0, 0.0, 0.0, 0.0, 1.6206628652030132E9, 2021-05-10 18:07:45.203
8.0, -327.03741455078125, 48.9328498840332, 100.35273742675781, 43.39031982421875, -0.03200000151991844, 0.03200000151991844, 1.055999994277954, 0.0, 0.0, 0.0, 0.0, 0.0, 1.6206628652030132E9, 2021-05-10 18:07:45.203
9.0, -307.0513916015625, 67.01526641845703, 122.66497802734375, 49.91644287109375, -0.03200000151991844, 0.03200000151991844, 1.055999994277954, 0.0, 0.0, 0.0, 0.0, 0.0, 1.6206628652037392E9, 2021-05-10 18:07:45.203
9.0, -314.2469787597656, 62.08607864379883, 119.1831283569336, 49.852867126464844, -0.03200000151991844, 0.03200000151991844, 1.055999994277954, 0.0, 0.0, 0.0, 0.0, 0.0, 1.6206628652037392E9, 2021-05-10 18:07:45.203
10.0, -332.4154052734375, 50.862640380859375, 99.09239196777344, 39.4372444152832, -0.03200000151991844, 0.03200000151991844, 1.055999994277954, 0.0, 0.0, 0.0, 0.0, 0.0, 1.6206628652174137E9, 2021-05-10 18:07:45.217
10.0, -327.0037536621094, 50.0136833190918, 100.68932342529297, 38.93235778808594, -0.03200000151991844, 0.03200000151991844, 1.055999994277954, 0.0, 0.0, 0.0, 0.0, 0.0, 1.6206628652174137E9, 2021-05-10 18:07:45.217
11.0, -310.4509582519531, 65.84468078613281, 123.0950698852539, 54.18741226196289, -0.03200000151991844, 0.0, 1.055999994277954, 0.0, 0.0, 0.0, 0.0, 0.0, 1.620662865233046E9, 2021-05-10 18:07:45.233
11.0, -318.76849365234375, 64.63668823242188, 115.30859375, 57.972190856933594, -0.03200000151991844, 0.0, 1.055999994277954, 0.0, 0.0, 0.0, 0.0, 0.0, 1.620662865233046E9, 2021-05-10 18:07:45.233
12.0, -336.18896484375, 44.706764221191406, 85.09020233154297, 37.9412841796875, -0.01600000075995922, 0.0, 1.055999994277954, 0.0, 0.0, 0.0, 0.0, 0.0, 1.6206628652337565E9, 2021-05-10 18:07:45.233
12.0, -328.2154846191406, 51.2403678894043, 94.22303771972656, 45.78011703491211, -0.01600000075995922, 0.0, 1.055999994277954, 0.0, 0.0, 0.0, 0.0, 0.0, 1.6206628652337565E9, 2021-05-10 18:07:45.233
13.0, -309.36639404296875, 67.4490966796875, 113.91361236572266, 63.32772445678711, -0.01600000075995922, 0.0, 1.055999994277954, 0.0, 0.0, 0.0, 0.0, 0.0, 1.620662865247332E9, 2021-05-10 18:07:45.247
13.0, -315.1108703613281, 57.13819122314453, 109.72492218017578, 51.229148864746094, -0.01600000075995922, 0.0, 1.055999994277954, 0.0, 0.0, 0.0, 0.0, 0.0, 1.620662865247332E9, 2021-05-10 18:07:45.247
14.0, -334.5770568847656, 36.21718978881836, 87.42764282226562, 34.152767181396484, -0.01600000075995922, 0.0, 1.055999994277954, 0.0, 0.0, 0.0, 0.0, 0.0, 1.6206628652631361E9, 2021-05-10 18:07:45.263
14.0, -326.95513916015625, 43.90642547607422, 91.46673583984375, 39.57562255859375, -0.01600000075995922, 0.0, 1.055999994277954, 0.0, 0.0, 0.0, 0.0, 0.0, 1.6206628652631361E9, 2021-05-10 18:07:45.263
15.0, -305.3946228027344, 71.03192138671875, 115.08419799804688, 54.580101013183594, -0.01600000075995922, 0.0, 1.055999994277954, 0.0, 0.0, 0.0, 0.0, 0.0, 1.6206628652637355E9, 2021-05-10 18:07:45.263
15.0, -314.6434020996094, 58.17788314819336, 104.81443786621094, 38.86503982543945, -0.01600000075995922, 0.0, 1.055999994277954, 0.0, 0.0, 0.0, 0.0, 0.0, 1.6206628652637355E9, 2021-05-10 18:07:45.263
16.0, -326.9065246582031, 44.48984909057617, 88.3887939453125, 31.32914161682129, -0.01600000075995922, 0.0, 1.055999994277954, 0.0, 0.0, 0.0, 0.0, 0.0, 1.620662865277529E9, 2021-05-10 18:07:45.277
16.0, -322.1082458496094, 52.6839714050293, 97.40943145751953, 34.4370002746582, -0.01600000075995922, 0.0, 1.055999994277954, 0.0, 0.0, 0.0, 0.0, 0.0, 1.620662865277529E9, 2021-05-10 18:07:45.277
17.0, -307.71710205078125, 73.94530487060547, 117.48896026611328, 45.62303924560547, -0.01600000075995922, 0.0, 1.055999994277954, 0.0, 0.0, 0.0, 0.0, 0.0, 1.620662865292987E9, 2021-05-10 18:07:45.292
17.0, -314.721923828125, 73.39179992675781, 115.15151977539062, 46.00824737548828, -0.01600000075995922, 0.0, 1.055999994277954, 0.0, 0.0, 0.0, 0.0, 0.0, 1.620662865292987E9, 2021-05-10 18:07:45.292
18.0, -334.51348876953125, 56.872657775878906, 100.27793884277344, 32.9522590637207, -0.01600000075995922, 0.0, 1.055999994277954, 0.0, 0.0, 0.0, 0.0, 0.0, 1.6206628652937422E9, 2021-05-10 18:07:45.293
18.0, -320.86285400390625, 61.700870513916016, 109.05548095703125, 47.88941955566406, -0.01600000075995922, 0.0, 1.055999994277954, 0.0, 0.0, 0.0, 0.0, 0.0, 1.6206628652937422E9, 2021-05-10 18:07:45.293
19.0, -310.0844421386719, 87.73431396484375, 133.47329711914062, 62.99861526489258, -0.01600000075995922, 0.0, 1.055999994277954, 0.0, 0.0, 0.0, 0.0, 0.0, 1.620662865307343E9, 2021-05-10 18:07:45.307
19.0, -320.1485290527344, 82.99960327148438, 123.3381576538086, 53.050479888916016, -0.01600000075995922, 0.0, 1.055999994277954, 0.0, 0.0, 0.0, 0.0, 0.0, 1.620662865307343E9, 2021-05-10 18:07:45.307
20.0, -336.72003173828125, 56.203216552734375, 107.04341888427734, 37.5298957824707, -0.01600000075995922, 0.0, 0.527999997138977, 0.0, 0.0, 0.0, 0.0, 0.0, 1.6206628653229847E9, 2021-05-10 18:07:45.322
20.0, -326.7868347167969, 64.24026489257812, 117.02894592285156, 48.20357131958008, -0.01600000075995922, 0.0, 0.527999997138977, 0.0, 0.0, 0.0, 0.0, 0.0, 1.6206628653229847E9, 2021-05-10 18:07:45.322
21.0, -309.1868896484375, 85.81200408935547, 129.52395629882812, 62.8714599609375, -0.01600000075995922, 0.01600000075995922, 0.527999997138977, 0.0, 0.0, 0.0, 0.0, 0.0, 1.6206628653237057E9, 2021-05-10 18:07:45.323
21.0, -323.1703796386719, 77.13543701171875, 119.85631561279297, 55.79556655883789, -0.01600000075995922, 0.01600000075995922, 0.527999997138977, 0.0, 0.0, 0.0, 0.0, 0.0, 1.6206628653237057E9, 2021-05-10 18:07:45.323
22.0, -337.54278564453125, 54.37440490722656, 97.41691589355469, 40.85092544555664, -0.03200000151991844, 0.01600000075995922, 0.527999997138977, 0.0, 0.0, 0.0, 0.0, 0.0, 1.620662865337368E9, 2021-05-10 18:07:45.337
22.0, -328.114501953125, 58.71268844604492, 103.38953399658203, 48.181129455566406, -0.03200000151991844, 0.01600000075995922, 0.527999997138977, 0.0, 0.0, 0.0, 0.0, 0.0, 1.620662865337368E9, 2021-05-10 18:07:45.337
23.0, -313.9889221191406, 77.28877258300781, 120.32006072998047, 62.796661376953125, -0.03200000151991844, 0.01600000075995922, 0.527999997138977, 0.0, 0.0, 0.0, 0.0, 0.0, 1.6206628653529851E9, 2021-05-10 18:07:45.352
23.0, -318.8283386230469, 65.55670928955078, 111.68463134765625, 53.054222106933594, -0.03200000151991844, 0.01600000075995922, 0.527999997138977, 0.0, 0.0, 0.0, 0.0, 0.0, 1.6206628653529851E9, 2021-05-10 18:07:45.352
24.0, -330.485595703125, 49.703269958496094, 100.0273666381836, 41.66996383666992, -0.03200000151991844, 0.01600000075995922, 0.527999997138977, 0.0, 0.0, 0.0, 0.0, 0.0, 1.620662865353736E9, 2021-05-10 18:07:45.353
24.0, -332.6173400878906, 53.27861404418945, 97.0204849243164, 39.4559440612793, -0.03200000151991844, 0.01600000075995922, 0.527999997138977, 0.0, 0.0, 0.0, 0.0, 0.0, 1.620662865353736E9, 2021-05-10 18:07:45.353
25.0, -312.5639953613281, 75.08222961425781, 113.0796127319336, 50.728004455566406, -0.03200000151991844, 0.01600000075995922, 0.527999997138977, 0.0, 0.0, 0.0, 0.0, 0.0, 1.6206628653673897E9, 2021-05-10 18:07:45.367
25.0, -317.0705871582031, 63.503501892089844, 104.06271362304688, 44.3851318359375, -0.03200000151991844, 0.01600000075995922, 0.527999997138977, 0.0, 0.0, 0.0, 0.0, 0.0, 1.6206628653673897E9, 2021-05-10 18:07:45.367
26.0, -334.4873046875, 56.70810317993164, 91.42933654785156, 31.078569412231445, -0.03200000151991844, 0.01600000075995922, 0.527999997138977, 0.0, 0.0, 0.0, 0.0, 0.0, 1.6206628653831127E9, 2021-05-10 18:07:45.383
26.0, -328.4174499511719, 58.83610534667969, 102.45455932617188, 38.6743049621582, -0.03200000151991844, 0.01600000075995922, 0.527999997138977, 0.0, 0.0, 0.0, 0.0, 0.0, 1.6206628653831127E9, 2021-05-10 18:07:45.383
27.0, -310.6155090332031, 85.718505859375, 121.29617309570312, 56.62208557128906, -0.03200000151991844, 0.01600000075995922, 0.527999997138977, 0.0, 0.0, 0.0, 0.0, 0.0, 1.620662865383768E9, 2021-05-10 18:07:45.383
27.0, -316.7302551269531, 83.63164520263672, 117.01773071289062, 50.24929428100586, -0.03200000151991844, 0.01600000075995922, 0.527999997138977, 0.0, 0.0, 0.0, 0.0, 0.0, 1.620662865383768E9, 2021-05-10 18:07:45.383
28.0, -338.4291687011719, 59.4793701171875, 104.45540618896484, 35.21489715576172, -0.03200000151991844, 0.01600000075995922, 0.527999997138977, 0.0, 0.0, 0.0, 0.0, 0.0, 1.620662865397304E9, 2021-05-10 18:07:45.397
28.0, -332.1910095214844, 74.88775634765625, 112.72432708740234, 41.120201110839844, -0.03200000151991844, 0.01600000075995922, 0.527999997138977, 0.0, 0.0, 0.0, 0.0, 0.0, 1.620662865397304E9, 2021-05-10 18:07:45.397
29.0, -310.17047119140625, 99.15970611572266, 139.44590759277344, 54.12009048461914, -0.03200000151991844, 0.01600000075995922, 0.527999997138977, 0.0, 0.0, 0.0, 0.0, 0.0, 1.620662865412763E9, 2021-05-10 18:07:45.412
29.0, -317.104248046875, 89.50328826904297, 129.299560546875, 49.96880340576172, -0.03200000151991844, 0.01600000075995922, 0.527999997138977, 0.0, 0.0, 0.0, 0.0, 0.0, 1.620662865412763E9, 2021-05-10 18:07:45.412
30.0, -337.1388854980469, 74.55116271972656, 113.17311096191406, 40.024410247802734, -0.03200000151991844, 0.01600000075995922, 0.800000011920929, 0.0, 0.0, 0.0, 0.0, 0.0, 1.6206628654280264E9, 2021-05-10 18:07:45.428
30.0, -334.3863220214844, 73.76578521728516, 121.412109375, 46.20646286010742, -0.03200000151991844, 0.01600000075995922, 0.800000011920929, 0.0, 0.0, 0.0, 0.0, 0.0, 1.6206628654280264E9, 2021-05-10 18:07:45.428
31.0, -309.1719055175781, 94.26043701171875, 136.23333740234375, 62.57974624633789, -0.03200000151991844, 0.01600000075995922, 0.800000011920929, 0.0, 0.0, 0.0, 0.0, 0.0, 1.6206628654287152E9, 2021-05-10 18:07:45.428
31.0, -315.88128662109375, 90.81224822998047, 128.95175170898438, 55.193443298339844, -0.03200000151991844, 0.01600000075995922, 0.800000011920929, 0.0, 0.0, 0.0, 0.0, 0.0, 1.6206628654287152E9, 2021-05-10 18:07:45.428
32.0, -333.8552551269531, 60.10767364501953, 105.73818969726562, 38.595767974853516, -0.03200000151991844, 0.01600000075995922, 0.800000011920929, 0.0, 0.0, 0.0, 0.0, 0.0, 1.6206628654430192E9, 2021-05-10 18:07:45.443
32.0, -330.9605712890625, 62.72560119628906, 102.64903259277344, 40.77238845825195, -0.03200000151991844, 0.01600000075995922, 0.800000011920929, 0.0, 0.0, 0.0, 0.0, 0.0, 1.6206628654430192E9, 2021-05-10 18:07:45.443
33.0, -307.2159423828125, 79.00912475585938, 118.85775756835938, 55.12612533569336, -0.03200000151991844, 0.01600000075995922, 0.800000011920929, 0.0, 0.0, 0.0, 0.0, 0.0, 1.620662865443738E9, 2021-05-10 18:07:45.443
33.0, -311.0643005371094, 76.57819366455078, 108.57303619384766, 48.28584671020508, -0.03200000151991844, 0.01600000075995922, 0.800000011920929, 0.0, 0.0, 0.0, 0.0, 0.0, 1.620662865443738E9, 2021-05-10 18:07:45.443
34.0, -330.1864318847656, 47.646324157714844, 88.2242431640625, 32.436153411865234, -0.03200000151991844, 0.01600000075995922, 0.800000011920929, 0.0, 0.0, 0.0, 0.0, 0.0, 1.6206628654728603E9, 2021-05-10 18:07:45.472
34.0, -328.2715759277344, 60.76963424682617, 86.18599700927734, 31.905086517333984, -0.03200000151991844, 0.01600000075995922, 0.800000011920929, 0.0, 0.0, 0.0, 0.0, 0.0, 1.6206628654728603E9, 2021-05-10 18:07:45.472
35.0, -307.34686279296875, 75.9237060546875, 112.21943664550781, 50.18571853637695, -0.03200000151991844, 0.01600000075995922, 0.800000011920929, 0.0, 0.0, 0.0, 0.0, 0.0, 1.6206628654893644E9, 2021-05-10 18:07:45.489
35.0, -315.5484619140625, 76.51835632324219, 100.3489990234375, 40.9406852722168, -0.03200000151991844, 0.01600000075995922, 0.800000011920929, 0.0, 0.0, 0.0, 0.0, 0.0, 1.6206628654893644E9, 2021-05-10 18:07:45.489
36.0, -335.5270080566406, 53.525447845458984, 81.1184310913086, 33.6927604675293, -0.03200000151991844, 0.01600000075995922, 0.800000011920929, 0.0, 0.0, 0.0, 0.0, 0.0, 1.6206628654902475E9, 2021-05-10 18:07:45.490
36.0, -333.23443603515625, 55.52255630493164, 93.17212677001953, 35.17749786376953, -0.03200000151991844, 0.01600000075995922, 0.800000011920929, 0.0, 0.0, 0.0, 0.0, 0.0, 1.6206628654902475E9, 2021-05-10 18:07:45.490
37.0, -312.0030212402344, 81.63827514648438, 116.61382293701172, 48.656097412109375, -0.03200000151991844, 0.01600000075995922, 0.800000011920929, 0.0, 0.0, 0.0, 0.0, 0.0, 1.62066286549087E9, 2021-05-10 18:07:45.490
37.0, -314.63592529296875, 79.697265625, 112.64952850341797, 42.42168426513672, -0.03200000151991844, 0.01600000075995922, 0.800000011920929, 0.0, 0.0, 0.0, 0.0, 0.0, 1.62066286549087E9, 2021-05-10 18:07:45.490
38.0, -332.3256530761719, 57.299007415771484, 92.85797882080078, 29.201139450073242, -0.03200000151991844, 0.01600000075995922, 0.800000011920929, 0.0, 0.0, 0.0, 0.0, 0.0, 1.6206628654915783E9, 2021-05-10 18:07:45.491
38.0, -325.4330139160156, 73.4890365600586, 104.04401397705078, 37.967464447021484, -0.03200000151991844, 0.01600000075995922, 0.800000011920929, 0.0, 0.0, 0.0, 0.0, 0.0, 1.6206628654915783E9, 2021-05-10 18:07:45.491
39.0, -308.4127197265625, 87.74552917480469, 126.71529388427734, 52.94202423095703, -0.03200000151991844, 0.01600000075995922, 0.800000011920929, 0.0, 0.0, 0.0, 0.0, 0.0, 1.6206628655023496E9, 2021-05-10 18:07:45.502
39.0, -315.0136413574219, 77.18405151367188, 118.82410430908203, 45.73149490356445, -0.03200000151991844, 0.01600000075995922, 0.800000011920929, 0.0, 0.0, 0.0, 0.0, 0.0, 1.6206628655023496E9, 2021-05-10 18:07:45.502
40.0, -333.7655029296875, 63.129512786865234, 105.0911865234375, 34.949363708496094, -0.03200000151991844, 0.01600000075995922, 0.9280000329017639, 0.0, 0.0, 0.0, 0.0, 0.0, 1.6206628655173504E9, 2021-05-10 18:07:45.517
40.0, -326.5474853515625, 67.067626953125, 118.26685333251953, 38.37137222290039, -0.03200000151991844, 0.01600000075995922, 0.9280000329017639, 0.0, 0.0, 0.0, 0.0, 0.0, 1.6206628655173504E9, 2021-05-10 18:07:45.517
41.0, -302.42889404296875, 82.27405548095703, 132.58692932128906, 56.61086654663086, -0.03200000151991844, 0.01600000075995922, 0.9280000329017639, 0.0, 0.0, 0.0, 0.0, 0.0, 1.6206628655334148E9, 2021-05-10 18:07:45.533
41.0, -310.5332336425781, 69.3377456665039, 127.7138442993164, 51.55451965332031, -0.03200000151991844, 0.01600000075995922, 0.9280000329017639, 0.0, 0.0, 0.0, 0.0, 0.0, 1.6206628655334148E9, 2021-05-10 18:07:45.533
42.0, -329.0606994628906, 50.189456939697266, 102.96318817138672, 35.020423889160156, -0.03200000151991844, 0.01600000075995922, 0.9280000329017639, 0.0, 0.0, 0.0, 0.0, 0.0, 1.6206628655480428E9, 2021-05-10 18:07:45.548
42.0, -322.7926330566406, 47.93429946899414, 104.28337097167969, 41.501670837402344, -0.03200000151991844, 0.01600000075995922, 0.9280000329017639, 0.0, 0.0, 0.0, 0.0, 0.0, 1.6206628655480428E9, 2021-05-10 18:07:45.548
43.0, -303.0683898925781, 70.04458618164062, 121.55422973632812, 55.197181701660156, -0.03200000151991844, 0.01600000075995922, 0.9280000329017639, 0.0, 0.0, 0.0, 0.0, 0.0, 1.6206628655487485E9, 2021-05-10 18:07:45.548
43.0, -313.12872314453125, 64.99198150634766, 110.390625, 46.932003021240234, -0.03200000151991844, 0.01600000075995922, 0.9280000329017639, 0.0, 0.0, 0.0, 0.0, 0.0, 1.6206628655487485E9, 2021-05-10 18:07:45.548
44.0, -330.23504638671875, 49.16098403930664, 88.4112319946289, 34.03683090209961, -0.03200000151991844, 0.01600000075995922, 0.9280000329017639, 0.0, 0.0, 0.0, 0.0, 0.0, 1.6206628655631156E9, 2021-05-10 18:07:45.563
44.0, -327.3927001953125, 47.137699127197266, 89.76133728027344, 38.71170425415039, -0.03200000151991844, 0.01600000075995922, 0.9280000329017639, 0.0, 0.0, 0.0, 0.0, 0.0, 1.6206628655631156E9, 2021-05-10 18:07:45.563
45.0, -314.44891357421875, 71.98933410644531, 106.90878295898438, 48.5700798034668, -0.03200000151991844, 0.01600000075995922, 0.9280000329017639, 0.0, 0.0, 0.0, 0.0, 0.0, 1.6206628655637708E9, 2021-05-10 18:07:45.563
45.0, -317.6427917480469, 60.833213806152344, 99.55239868164062, 44.56464767456055, -0.03200000151991844, 0.01600000075995922, 0.9280000329017639, 0.0, 0.0, 0.0, 0.0, 0.0, 1.6206628655637708E9, 2021-05-10 18:07:45.563
46.0, -333.20452880859375, 51.864933013916016, 80.46768951416016, 31.119707107543945, -0.03200000151991844, 0.01600000075995922, 0.9280000329017639, 0.0, 0.0, 0.0, 0.0, 0.0, 1.6206628655773437E9, 2021-05-10 18:07:45.577
46.0, -337.445556640625, 47.25363540649414, 83.63164520263672, 32.279075622558594, -0.03200000151991844, 0.01600000075995922, 0.9280000329017639, 0.0, 0.0, 0.0, 0.0, 0.0, 1.6206628655773437E9, 2021-05-10 18:07:45.577
47.0, -311.2999267578125, 76.3238754272461, 107.85871124267578, 50.31287384033203, -0.03200000151991844, 0.01600000075995922, 0.9280000329017639, 0.0, 0.0, 0.0, 0.0, 0.0, 1.6206628655930073E9, 2021-05-10 18:07:45.593
47.0, -319.16119384765625, 71.46575164794922, 104.82191467285156, 45.04335403442383, -0.03200000151991844, 0.01600000075995922, 0.9280000329017639, 0.0, 0.0, 0.0, 0.0, 0.0, 1.6206628655930073E9, 2021-05-10 18:07:45.593
48.0, -335.51202392578125, 56.536067962646484, 87.17707061767578, 30.05009651184082, -0.03200000151991844, 0.01600000075995922, 0.9280000329017639, 0.0, 0.0, 0.0, 0.0, 0.0, 1.6206628655937989E9, 2021-05-10 18:07:45.593
48.0, -326.9775695800781, 58.17788314819336, 95.38988494873047, 35.73100280761719, -0.03200000151991844, 0.01600000075995922, 0.9280000329017639, 0.0, 0.0, 0.0, 0.0, 0.0, 1.6206628655937989E9, 2021-05-10 18:07:45.593
49.0, -315.2006530761719, 73.6535873413086, 115.08045959472656, 46.142887115478516, -0.03200000151991844, 0.01600000075995922, 0.9280000329017639, 0.0, 0.0, 0.0, 0.0, 0.0, 1.6206628656073596E9, 2021-05-10 18:07:45.607
49.0, -318.5254211425781, 65.73622131347656, 110.390625, 42.38054656982422, -0.03200000151991844, 0.01600000075995922, 0.9280000329017639, 0.0, 0.0, 0.0, 0.0, 0.0, 1.6206628656073596E9, 2021-05-10 18:07:45.607
50.0, -335.766357421875, 54.80449295043945, 91.27973937988281, 35.09148025512695, -0.03200000151991844, 0.01600000075995922, 0.9920000433921814, 0.0, 0.0, 0.0, 0.0, 0.0, 1.620662865623036E9, 2021-05-10 18:07:45.623
50.0, -328.5670471191406, 62.94999694824219, 100.55843353271484, 40.85840606689453, -0.03200000151991844, 0.01600000075995922, 0.9920000433921814, 0.0, 0.0, 0.0, 0.0, 0.0, 1.620662865623036E9, 2021-05-10 18:07:45.623
51.0, -320.3804016113281, 74.03880310058594, 121.90203857421875, 53.21503829956055, -0.03200000151991844, 0.01600000075995922, 0.9920000433921814, 0.0, 0.0, 0.0, 0.0, 0.0, 1.6206628656237552E9, 2021-05-10 18:07:45.623
51.0, -319.97650146484375, 73.36561584472656, 120.21908569335938, 58.0058479309082, -0.03200000151991844, 0.01600000075995922, 0.9920000433921814, 0.0, 0.0, 0.0, 0.0, 0.0, 1.6206628656237552E9, 2021-05-10 18:07:45.623
52.0, -344.64862060546875, 51.857452392578125, 97.25235748291016, 41.56898880004883, -0.03200000151991844, 0.01600000075995922, 0.9920000433921814, 0.0, 0.0, 0.0, 0.0, 0.0, 1.6206628656691992E9, 2021-05-10 18:07:45.669
52.0, -333.3541259765625, 60.13011169433594, 98.2022933959961, 46.19524383544922, -0.03200000151991844, 0.01600000075995922, 0.9920000433921814, 0.0, 0.0, 0.0, 0.0, 0.0, 1.6206628656691992E9, 2021-05-10 18:07:45.669
53.0, -313.79443359375, 74.36042785644531, 119.70671844482422, 57.78893280029297, -0.03200000151991844, 0.01600000075995922, 0.9920000433921814, 0.0, 0.0, 0.0, 0.0, 0.0, 1.6206628656698773E9, 2021-05-10 18:07:45.669
53.0, -319.464111328125, 70.04832458496094, 107.09951782226562, 53.03926086425781, -0.03200000151991844, 0.01600000075995922, 0.9920000433921814, 0.0, 0.0, 0.0, 0.0, 0.0, 1.6206628656698773E9, 2021-05-10 18:07:45.669
54.0, -334.5246887207031, 46.78240966796875, 90.17646789550781, 31.14588737487793, -0.03200000151991844, 0.01600000075995922, 0.9920000433921814, 0.0, 0.0, 0.0, 0.0, 0.0, 1.6206628656706169E9, 2021-05-10 18:07:45.670
54.0, -333.11474609375, 52.46705627441406, 92.91407775878906, 37.33916091918945, -0.03200000151991844, 0.01600000075995922, 0.9920000433921814, 0.0, 0.0, 0.0, 0.0, 0.0, 1.6206628656706169E9, 2021-05-10 18:07:45.670
55.0, -309.2355041503906, 77.76000213623047, 113.5022201538086, 50.918739318847656, -0.03200000151991844, 0.01600000075995922, 0.9920000433921814, 0.0, 0.0, 0.0, 0.0, 0.0, 1.6206628656837218E9, 2021-05-10 18:07:45.683
55.0, -316.8985595703125, 65.15279388427734, 100.51728820800781, 44.130821228027344, -0.03200000151991844, 0.01600000075995922, 0.9920000433921814, 0.0, 0.0, 0.0, 0.0, 0.0, 1.6206628656837218E9, 2021-05-10 18:07:45.683
56.0, -334.87249755859375, 46.92452621459961, 80.90899658203125, 33.3636474609375, -0.03200000151991844, 0.01600000075995922, 0.9920000433921814, 0.0, 0.0, 0.0, 0.0, 0.0, 1.620662865684432E9, 2021-05-10 18:07:45.684
56.0, -327.93499755859375, 57.70665740966797, 92.34561157226562, 37.866485595703125, -0.03200000151991844, 0.01600000075995922, 0.9920000433921814, 0.0, 0.0, 0.0, 0.0, 0.0, 1.620662865684432E9, 2021-05-10 18:07:45.684
57.0, -310.166748046875, 71.50688934326172, 110.2896499633789, 51.17304992675781, -0.03200000151991844, 0.01600000075995922, 0.9920000433921814, 0.0, 0.0, 0.0, 0.0, 0.0, 1.6206628656851976E9, 2021-05-10 18:07:45.685
57.0, -314.9874572753906, 61.8205451965332, 105.73818969726562, 45.48466491699219, -0.03200000151991844, 0.01600000075995922, 0.9920000433921814, 0.0, 0.0, 0.0, 0.0, 0.0, 1.6206628656851976E9, 2021-05-10 18:07:45.685
58.0, -328.1593933105469, 51.9434700012207, 93.83782958984375, 29.713504791259766, -0.03200000151991844, 0.01600000075995922, 0.9920000433921814, 0.0, 0.0, 0.0, 0.0, 0.0, 1.6206628656973376E9, 2021-05-10 18:07:45.697
58.0, -326.0912170410156, 55.21214294433594, 97.40943145751953, 39.81497573852539, -0.03200000151991844, 0.01600000075995922, 0.9920000433921814, 0.0, 0.0, 0.0, 0.0, 0.0, 1.6206628656973376E9, 2021-05-10 18:07:45.697
59.0, -314.97625732421875, 80.26199340820312, 115.25623321533203, 50.85142135620117, -0.03200000151991844, 0.01600000075995922, 0.9920000433921814, 0.0, 0.0, 0.0, 0.0, 0.0, 1.6206628657130435E9, 2021-05-10 18:07:45.713
59.0, -315.0959167480469, 69.23677062988281, 108.75629425048828, 43.37910079956055, -0.03200000151991844, 0.01600000075995922, 0.9920000433921814, 0.0, 0.0, 0.0, 0.0, 0.0, 1.6206628657130435E9, 2021-05-10 18:07:45.713
60.0, -340.94610595703125, 53.59276580810547, 91.18250274658203, 29.290897369384766, -0.03200000151991844, 0.01600000075995922, 1.0240000486373901, 0.0, 0.0, 0.0, 0.0, 0.0, 1.620662865713746E9, 2021-05-10 18:07:45.713
60.0, -335.6204833984375, 61.72330856323242, 97.54781341552734, 32.67924499511719, -0.03200000151991844, 0.01600000075995922, 1.0240000486373901, 0.0, 0.0, 0.0, 0.0, 0.0, 1.620662865713746E9, 2021-05-10 18:07:45.713
61.0, -317.04815673828125, 77.97691345214844, 121.61406707763672, 49.759368896484375, -0.03200000151991844, 0.01600000075995922, 1.0240000486373901, 0.0, 0.0, 0.0, 0.0, 0.0, 1.620662865727365E9, 2021-05-10 18:07:45.727
61.0, -326.1136779785156, 74.36417388916016, 114.7625732421875, 41.748504638671875, -0.03200000151991844, 0.01600000075995922, 1.0240000486373901, 0.0, 0.0, 0.0, 0.0, 0.0, 1.620662865727365E9, 2021-05-10 18:07:45.727
62.0, -341.7314758300781, 56.337852478027344, 97.5440673828125, 34.964324951171875, -0.03200000151991844, 0.01600000075995922, 1.0240000486373901, 0.0, 0.0, 0.0, 0.0, 0.0, 1.620662865743042E9, 2021-05-10 18:07:45.743
62.0, -336.6826171875, 59.67010498046875, 105.6708755493164, 38.90243911743164, -0.03200000151991844, 0.01600000075995922, 1.0240000486373901, 0.0, 0.0, 0.0, 0.0, 0.0, 1.620662865743042E9, 2021-05-10 18:07:45.743
63.0, -318.3645935058594, 75.57215881347656, 122.23863220214844, 47.71364212036133, -0.03200000151991844, 0.01600000075995922, 1.0240000486373901, 0.0, 0.0, 0.0, 0.0, 0.0, 1.6206628657437308E9, 2021-05-10 18:07:45.743
63.0, -315.33526611328125, 77.25885009765625, 116.66617584228516, 49.26944351196289, -0.03200000151991844, 0.01600000075995922, 1.0240000486373901, 0.0, 0.0, 0.0, 0.0, 0.0, 1.6206628657437308E9, 2021-05-10 18:07:45.743
64.0, -334.1357421875, 52.18656539916992, 96.7998275756836, 41.28475570678711, -0.03200000151991844, 0.01600000075995922, 1.0240000486373901, 0.0, 0.0, 0.0, 0.0, 0.0, 1.6206628657738974E9, 2021-05-10 18:07:45.773
64.0, -328.7465515136719, 61.63355255126953, 102.0394287109375, 43.57731246948242, -0.03200000151991844, 0.01600000075995922, 1.0240000486373901, 0.0, 0.0, 0.0, 0.0, 0.0, 1.6206628657738974E9, 2021-05-10 18:07:45.773
65.0, -312.82952880859375, 71.7686767578125, 111.22836303710938, 50.96735763549805, -0.03200000151991844, 0.01600000075995922, 1.0240000486373901, 0.0, 0.0, 0.0, 0.0, 0.0, 1.6206628657744026E9, 2021-05-10 18:07:45.774
65.0, -321.12091064453125, 63.069671630859375, 106.12714385986328, 45.1368522644043, -0.03200000151991844, 0.01600000075995922, 1.0240000486373901, 0.0, 0.0, 0.0, 0.0, 0.0, 1.6206628657744026E9, 2021-05-10 18:07:45.774
66.0, -332.78564453125, 50.16327667236328, 89.58930206298828, 32.626888275146484, -0.03200000151991844, 0.01600000075995922, 1.0240000486373901, 0.0, 0.0, 0.0, 0.0, 0.0, 1.6206628657751646E9, 2021-05-10 18:07:45.775
66.0, -325.1263427734375, 54.89051055908203, 90.18394470214844, 34.85212707519531, -0.03200000151991844, 0.01600000075995922, 1.0240000486373901, 0.0, 0.0, 0.0, 0.0, 0.0, 1.6206628657751646E9, 2021-05-10 18:07:45.775
67.0, -312.53033447265625, 71.39095306396484, 113.15814971923828, 45.43978500366211, -0.03200000151991844, 0.01600000075995922, 1.0240000486373901, 0.0, 0.0, 0.0, 0.0, 0.0, 1.6206628658038175E9, 2021-05-10 18:07:45.803
67.0, -317.16033935546875, 66.82453155517578, 102.7387924194336, 40.22636413574219, -0.03200000151991844, 0.01600000075995922, 1.0240000486373901, 0.0, 0.0, 0.0, 0.0, 0.0, 1.6206628658038175E9, 2021-05-10 18:07:45.803
68.0, -336.7349853515625, 54.819454193115234, 87.41641998291016, 29.889280319213867, -0.03200000151991844, 0.01600000075995922, 1.0240000486373901, 0.0, 0.0, 0.0, 0.0, 0.0, 1.6206628658044727E9, 2021-05-10 18:07:45.804
68.0, -331.03912353515625, 58.33869934082031, 89.30506896972656, 37.18208694458008, -0.03200000151991844, 0.01600000075995922, 1.0240000486373901, 0.0, 0.0, 0.0, 0.0, 0.0, 1.6206628658044727E9, 2021-05-10 18:07:45.804
69.0, -315.64569091796875, 83.73635864257812, 114.87476348876953, 56.70062255859375, -0.03200000151991844, 0.01600000075995922, 1.0240000486373901, 0.0, 0.0, 0.0, 0.0, 0.0, 1.6206628658053074E9, 2021-05-10 18:07:45.805
69.0, -319.5987548828125, 70.17548370361328, 108.37107849121094, 47.803401947021484, -0.03200000151991844, 0.01600000075995922, 1.0240000486373901, 0.0, 0.0, 0.0, 0.0, 0.0, 1.6206628658053074E9, 2021-05-10 18:07:45.805
70.0, -338.36932373046875, 55.85166549682617, 90.7374496459961, 35.65620803833008, -0.03200000151991844, 0.01600000075995922, 1.040000081062317, 0.0, 0.0, 0.0, 0.0, 0.0, 1.6206628658172994E9, 2021-05-10 18:07:45.817
70.0, -335.6915588378906, 60.91175079345703, 101.81129455566406, 39.95709228515625, -0.03200000151991844, 0.01600000075995922, 1.040000081062317, 0.0, 0.0, 0.0, 0.0, 0.0, 1.6206628658172994E9, 2021-05-10 18:07:45.817
71.0, -312.58270263671875, 80.68833923339844, 126.22162628173828, 53.98545455932617, -0.03200000151991844, 0.01600000075995922, 1.040000081062317, 0.0, 0.0, 0.0, 0.0, 0.0, 1.620662865833073E9, 2021-05-10 18:07:45.833
71.0, -319.826904296875, 72.19129180908203, 115.49932861328125, 41.830780029296875, -0.03200000151991844, 0.01600000075995922, 1.040000081062317, 0.0, 0.0, 0.0, 0.0, 0.0, 1.620662865833073E9, 2021-05-10 18:07:45.833
72.0, -334.4798278808594, 53.02056121826172, 94.25669860839844, 30.4876651763916, -0.04800000041723251, 0.01600000075995922, 1.040000081062317, 0.0, 0.0, 0.0, 0.0, 0.0, 1.620662865833825E9, 2021-05-10 18:07:45.833
72.0, -329.1654357910156, 57.313968658447266, 97.0167465209961, 36.76321792602539, -0.04800000041723251, 0.01600000075995922, 1.040000081062317, 0.0, 0.0, 0.0, 0.0, 0.0, 1.620662865833825E9, 2021-05-10 18:07:45.833
73.0, -313.5812683105469, 70.91224670410156, 112.86643981933594, 46.90956497192383, -0.04800000041723251, 0.01600000075995922, 1.040000081062317, 0.0, 0.0, 0.0, 0.0, 0.0, 1.6206628658473165E9, 2021-05-10 18:07:45.847
73.0, -316.8798522949219, 64.32254028320312, 105.46517944335938, 44.63944625854492, -0.04800000041723251, 0.01600000075995922, 1.040000081062317, 0.0, 0.0, 0.0, 0.0, 0.0, 1.6206628658473165E9, 2021-05-10 18:07:45.847
74.0, -337.2436218261719, 38.786502838134766, 90.03060913085938, 33.520721435546875, -0.04800000041723251, 0.01600000075995922, 1.040000081062317, 0.0, 0.0, 0.0, 0.0, 0.0, 1.6206628658630369E9, 2021-05-10 18:07:45.863
74.0, -328.36883544921875, 53.64886474609375, 97.49545288085938, 43.49503707885742, -0.04800000041723251, 0.01600000075995922, 1.040000081062317, 0.0, 0.0, 0.0, 0.0, 0.0, 1.6206628658630369E9, 2021-05-10 18:07:45.863
75.0, -311.2176513671875, 71.16655731201172, 113.90613555908203, 56.60338592529297, -0.04800000041723251, 0.01600000075995922, 1.040000081062317, 0.0, 0.0, 0.0, 0.0, 0.0, 1.6206628658637602E9, 2021-05-10 18:07:45.863
75.0, -322.9833679199219, 59.221317291259766, 106.35153198242188, 46.01198959350586, -0.04800000041723251, 0.01600000075995922, 1.040000081062317, 0.0, 0.0, 0.0, 0.0, 0.0, 1.6206628658637602E9, 2021-05-10 18:07:45.863
76.0, -336.0992126464844, 50.656944274902344, 85.96160125732422, 31.17206573486328, -0.04800000041723251, 0.01600000075995922, 1.040000081062317, 0.0, 0.0, 0.0, 0.0, 0.0, 1.620662865877334E9, 2021-05-10 18:07:45.877
76.0, -334.5920104980469, 50.380191802978516, 89.11807250976562, 37.08110809326172, -0.04800000041723251, 0.01600000075995922, 1.040000081062317, 0.0, 0.0, 0.0, 0.0, 0.0, 1.620662865877334E9, 2021-05-10 18:07:45.877
77.0, -317.6502685546875, 80.65093994140625, 111.02266693115234, 53.58528518676758, -0.04800000041723251, 0.01600000075995922, 1.040000081062317, 0.0, 0.0, 0.0, 0.0, 0.0, 1.6206628658930373E9, 2021-05-10 18:07:45.893
77.0, -322.1007385253906, 68.6982192993164, 101.14559173583984, 50.00994110107422, -0.04800000041723251, 0.01600000075995922, 1.040000081062317, 0.0, 0.0, 0.0, 0.0, 0.0, 1.6206628658930373E9, 2021-05-10 18:07:45.893
78.0, -340.3963317871094, 52.7662467956543, 86.64600372314453, 33.84609603881836, -0.04800000041723251, 0.01600000075995922, 1.040000081062317, 0.0, 0.0, 0.0, 0.0, 0.0, 1.620662865893777E9, 2021-05-10 18:07:45.893
78.0, -333.86273193359375, 60.605079650878906, 95.9957504272461, 37.27932357788086, -0.04800000041723251, 0.01600000075995922, 1.040000081062317, 0.0, 0.0, 0.0, 0.0, 0.0, 1.620662865893777E9, 2021-05-10 18:07:45.893
79.0, -316.6592102050781, 82.01974487304688, 116.70357513427734, 49.43025588989258, -0.04800000041723251, 0.01600000075995922, 1.040000081062317, 0.0, 0.0, 0.0, 0.0, 0.0, 1.6206628659073336E9, 2021-05-10 18:07:45.907
79.0, -322.6131286621094, 64.69278717041016, 112.10723876953125, 47.227455139160156, -0.04800000041723251, 0.01600000075995922, 1.040000081062317, 0.0, 0.0, 0.0, 0.0, 0.0, 1.6206628659073336E9, 2021-05-10 18:07:45.907
80.0, -343.9081115722656, 49.31806182861328, 89.20409393310547, 29.275936126708984, -0.04800000041723251, 0.01600000075995922, 1.040000081062317, 0.0, 0.0, 0.0, 0.0, 0.0, 1.6206628659230323E9, 2021-05-10 18:07:45.923
80.0, -334.4536437988281, 56.51362991333008, 94.37637329101562, 37.268104553222656, -0.04800000041723251, 0.01600000075995922, 1.040000081062317, 0.0, 0.0, 0.0, 0.0, 0.0, 1.6206628659230323E9, 2021-05-10 18:07:45.923
81.0, -321.50238037109375, 77.66650390625, 111.95016479492188, 45.86613464355469, -0.04800000041723251, 0.01600000075995922, 1.040000081062317, 0.0, 0.0, 0.0, 0.0, 0.0, 1.6206628659237936E9, 2021-05-10 18:07:45.923
81.0, -325.6686096191406, 74.53994750976562, 101.07827758789062, 41.13515853881836, -0.04800000041723251, 0.01600000075995922, 1.040000081062317, 0.0, 0.0, 0.0, 0.0, 0.0, 1.6206628659237936E9, 2021-05-10 18:07:45.923
82.0, -341.5632019042969, 56.74176025390625, 87.55854034423828, 30.00147819519043, -0.03200000151991844, 0.01600000075995922, 1.040000081062317, 0.0, 0.0, 0.0, 0.0, 0.0, 1.6206628659373212E9, 2021-05-10 18:07:45.937
82.0, -338.373046875, 56.74924087524414, 92.6073989868164, 29.769603729248047, -0.03200000151991844, 0.01600000075995922, 1.040000081062317, 0.0, 0.0, 0.0, 0.0, 0.0, 1.6206628659373212E9, 2021-05-10 18:07:45.937
83.0, -323.2825622558594, 84.75735473632812, 110.75713348388672, 42.01777648925781, -0.03200000151991844, 0.01600000075995922, 1.040000081062317, 0.0, 0.0, 0.0, 0.0, 0.0, 1.6206628659689288E9, 2021-05-10 18:07:45.968
83.0, -321.9212341308594, 77.01201629638672, 112.28302001953125, 47.272335052490234, -0.03200000151991844, 0.01600000075995922, 1.040000081062317, 0.0, 0.0, 0.0, 0.0, 0.0, 1.6206628659689288E9, 2021-05-10 18:07:45.968
84.0, -343.6911926269531, 52.0033073425293, 89.65288543701172, 32.2715950012207, -0.03200000151991844, 0.01600000075995922, 1.040000081062317, 0.0, 0.0, 0.0, 0.0, 0.0, 1.620662865969535E9, 2021-05-10 18:07:45.969
84.0, -332.5462951660156, 66.2037124633789, 95.25151062011719, 43.738128662109375, -0.03200000151991844, 0.01600000075995922, 1.040000081062317, 0.0, 0.0, 0.0, 0.0, 0.0, 1.620662865969535E9, 2021-05-10 18:07:45.969
85.0, -317.71759033203125, 83.88595581054688, 119.19808959960938, 50.7467041015625, -0.03200000151991844, 0.01600000075995922, 1.040000081062317, 0.0, 0.0, 0.0, 0.0, 0.0, 1.6206628659702165E9, 2021-05-10 18:07:45.970
85.0, -318.7198791503906, 66.81331634521484, 111.3106460571289, 52.88966369628906, -0.03200000151991844, 0.01600000075995922, 1.040000081062317, 0.0, 0.0, 0.0, 0.0, 0.0, 1.6206628659702165E9, 2021-05-10 18:07:45.970
86.0, -336.447021484375, 52.85600662231445, 90.42704010009766, 34.773590087890625, -0.03200000151991844, 0.01600000075995922, 1.040000081062317, 0.0, 0.0, 0.0, 0.0, 0.0, 1.620662865982992E9, 2021-05-10 18:07:45.982
86.0, -329.7750244140625, 61.39045715332031, 103.40823364257812, 40.79108810424805, -0.03200000151991844, 0.01600000075995922, 1.040000081062317, 0.0, 0.0, 0.0, 0.0, 0.0, 1.620662865982992E9, 2021-05-10 18:07:45.982
87.0, -310.9147033691406, 73.74334716796875, 117.86294555664062, 51.681678771972656, -0.03200000151991844, 0.01600000075995922, 1.040000081062317, 0.0, 0.0, 0.0, 0.0, 0.0, 1.6206628659837213E9, 2021-05-10 18:07:45.983
87.0, -324.2474670410156, 63.86627197265625, 108.63287353515625, 43.513736724853516, -0.03200000151991844, 0.01600000075995922, 1.040000081062317, 0.0, 0.0, 0.0, 0.0, 0.0, 1.6206628659837213E9, 2021-05-10 18:07:45.983
88.0, -336.0767517089844, 46.041908264160156, 90.16524505615234, 33.3748664855957, -0.03200000151991844, 0.01600000075995922, 1.040000081062317, 0.0, 0.0, 0.0, 0.0, 0.0, 1.6206628659974017E9, 2021-05-10 18:07:45.997
88.0, -333.39898681640625, 53.60024642944336, 95.07573699951172, 36.116214752197266, -0.03200000151991844, 0.01600000075995922, 1.040000081062317, 0.0, 0.0, 0.0, 0.0, 0.0, 1.6206628659974017E9, 2021-05-10 18:07:45.997
89.0, -309.803955078125, 77.16535949707031, 113.83133697509766, 49.512535095214844, -0.03200000151991844, 0.01600000075995922, 1.040000081062317, 0.0, 0.0, 0.0, 0.0, 0.0, 1.6206628660128236E9, 2021-05-10 18:07:46.012
89.0, -320.8665771484375, 65.78109741210938, 105.02387237548828, 42.62738037109375, -0.03200000151991844, 0.01600000075995922, 1.040000081062317, 0.0, 0.0, 0.0, 0.0, 0.0, 1.6206628660128236E9, 2021-05-10 18:07:46.012
90.0, -338.0514221191406, 50.952396392822266, 87.51365661621094, 24.709518432617188, -0.03200000151991844, 0.01600000075995922, 1.055999994277954, 0.0, 0.0, 0.0, 0.0, 0.0, 1.6206628660280013E9, 2021-05-10 18:07:46.028
90.0, -332.9277648925781, 59.554168701171875, 98.07139587402344, 34.79602813720703, -0.03200000151991844, 0.01600000075995922, 1.055999994277954, 0.0, 0.0, 0.0, 0.0, 0.0, 1.6206628660280013E9, 2021-05-10 18:07:46.028
91.0, -313.5401306152344, 73.24967956542969, 117.20472717285156, 53.57032775878906, -0.03200000151991844, 0.01600000075995922, 1.055999994277954, 0.0, 0.0, 0.0, 0.0, 0.0, 1.6206628660287511E9, 2021-05-10 18:07:46.028
91.0, -317.9045715332031, 67.748291015625, 111.84545135498047, 47.53413009643555, -0.03200000151991844, 0.01600000075995922, 1.055999994277954, 0.0, 0.0, 0.0, 0.0, 0.0, 1.6206628660287511E9, 2021-05-10 18:07:46.028
92.0, -337.35955810546875, 48.20357131958008, 87.47251892089844, 28.81218910217285, -0.03200000151991844, 0.01600000075995922, 1.055999994277954, 0.0, 0.0, 0.0, 0.0, 0.0, 1.6206628660430033E9, 2021-05-10 18:07:46.043
92.0, -330.74365234375, 57.934791564941406, 104.2684097290039, 38.880001068115234, -0.03200000151991844, 0.01600000075995922, 1.055999994277954, 0.0, 0.0, 0.0, 0.0, 0.0, 1.6206628660430033E9, 2021-05-10 18:07:46.043
93.0, -318.2710876464844, 73.76578521728516, 111.54251861572266, 47.25363540649414, -0.03200000151991844, 0.01600000075995922, 1.055999994277954, 0.0, 0.0, 0.0, 0.0, 0.0, 1.6206628660437317E9, 2021-05-10 18:07:46.043
93.0, -322.24285888671875, 72.22494506835938, 105.98876190185547, 46.92826461791992, -0.03200000151991844, 0.01600000075995922, 1.055999994277954, 0.0, 0.0, 0.0, 0.0, 0.0, 1.6206628660437317E9, 2021-05-10 18:07:46.043
94.0, -342.0867919921875, 50.96361541748047, 88.02228546142578, 29.616268157958984, -0.03200000151991844, 0.01600000075995922, 1.055999994277954, 0.0, 0.0, 0.0, 0.0, 0.0, 1.620662866057332E9, 2021-05-10 18:07:46.057
94.0, -333.8963928222656, 58.08064651489258, 104.36190795898438, 43.17714309692383, -0.03200000151991844, 0.01600000075995922, 1.055999994277954, 0.0, 0.0, 0.0, 0.0, 0.0, 1.620662866057332E9, 2021-05-10 18:07:46.057
95.0, -310.88104248046875, 76.563232421875, 120.03208923339844, 55.56743240356445, -0.03200000151991844, 0.01600000075995922, 1.055999994277954, 0.0, 0.0, 0.0, 0.0, 0.0, 1.6206628660730073E9, 2021-05-10 18:07:46.073
95.0, -319.0041198730469, 69.4200210571289, 115.91445922851562, 60.24604797363281, -0.03200000151991844, 0.01600000075995922, 1.055999994277954, 0.0, 0.0, 0.0, 0.0, 0.0, 1.6206628660730073E9, 2021-05-10 18:07:46.073
96.0, -335.2801513671875, 51.88363265991211, 99.3055648803711, 42.462825775146484, -0.03200000151991844, 0.01600000075995922, 1.055999994277954, 0.0, 0.0, 0.0, 0.0, 0.0, 1.6206628660737453E9, 2021-05-10 18:07:46.073
96.0, -328.9335632324219, 50.64946365356445, 100.36021423339844, 46.01572799682617, -0.03200000151991844, 0.01600000075995922, 1.055999994277954, 0.0, 0.0, 0.0, 0.0, 0.0, 1.6206628660737453E9, 2021-05-10 18:07:46.073
97.0, -315.48114013671875, 70.33629608154297, 118.52864837646484, 54.819454193115234, -0.03200000151991844, 0.01600000075995922, 1.055999994277954, 0.0, 0.0, 0.0, 0.0, 0.0, 1.6206628660873368E9, 2021-05-10 18:07:46.087
97.0, -322.16058349609375, 64.08318328857422, 107.1930160522461, 47.52290725708008, -0.03200000151991844, 0.01600000075995922, 1.055999994277954, 0.0, 0.0, 0.0, 0.0, 0.0, 1.6206628660873368E9, 2021-05-10 18:07:46.087
98.0, -337.82330322265625, 50.7579231262207, 90.25874328613281, 34.44447708129883, -0.03200000151991844, 0.01600000075995922, 1.055999994277954, 0.0, 0.0, 0.0, 0.0, 0.0, 1.6206628661030197E9, 2021-05-10 18:07:46.103
98.0, -327.3328857421875, 56.36029052734375, 100.3676986694336, 39.829933166503906, -0.03200000151991844, 0.01600000075995922, 1.055999994277954, 0.0, 0.0, 0.0, 0.0, 0.0, 1.6206628661030197E9, 2021-05-10 18:07:46.103
99.0, -310.3424987792969, 79.56636810302734, 118.47254943847656, 53.93309783935547, -0.03200000151991844, 0.01600000075995922, 1.055999994277954, 0.0, 0.0, 0.0, 0.0, 0.0, 1.6206628661037483E9, 2021-05-10 18:07:46.103
99.0, -318.82086181640625, 66.05037689208984, 110.98152923583984, 42.97145080566406, -0.03200000151991844, 0.01600000075995922, 1.055999994277954, 0.0, 0.0, 0.0, 0.0, 0.0, 1.6206628661037483E9, 2021-05-10 18:07:46.103
100.0, -334.06842041015625, 46.565494537353516, 97.09154510498047, 32.72786331176758, -0.03200000151991844, 0.01600000075995922, 1.055999994277954, 0.0, 0.0, 0.0, 0.0, 0.0, 1.6206628661341271E9, 2021-05-10 18:07:46.134
100.0, -326.7532043457031, 53.74984359741211, 105.89152526855469, 39.392364501953125, -0.03200000151991844, 0.01600000075995922, 1.055999994277954, 0.0, 0.0, 0.0, 0.0, 0.0, 1.6206628661341271E9, 2021-05-10 18:07:46.134
0.0, -312.7210693359375, 78.47245025634766, 115.5423355102539, 54.522132873535156, -0.03200000151991844, 0.01600000075995922, 1.055999994277954, 0.0, 0.0, 0.0, 0.0, 0.0, 1.6206628661348689E9, 2021-05-10 18:07:46.134
1.0, -320.0662536621094, 70.90663146972656, 113.8930435180664, 51.71720504760742, -0.03200000151991844, 0.03200000151991844, 1.055999994277954, 0.0, 0.0, 0.0, 0.0, 0.0, 1.620662866135596E9, 2021-05-10 18:07:46.135
1.0, -334.36761474609375, 45.18360137939453, 93.63400268554688, 35.990928649902344, -0.03200000151991844, 0.03200000151991844, 1.055999994277954, 0.0, 0.0, 0.0, 0.0, 0.0, 1.620662866135596E9, 2021-05-10 18:07:46.135
2.0, -325.0253601074219, 55.513206481933594, 102.04129791259766, 46.1110954284668, -0.03200000151991844, 0.03200000151991844, 1.055999994277954, 0.0, 0.0, 0.0, 0.0, 0.0, 1.620662866148038E9, 2021-05-10 18:07:46.148
2.0, -312.91180419921875, 74.00701141357422, 120.34436798095703, 55.501983642578125, -0.03200000151991844, 0.03200000151991844, 1.055999994277954, 0.0, 0.0, 0.0, 0.0, 0.0, 1.620662866148038E9, 2021-05-10 18:07:46.148
3.0, -319.3444519042969, 61.07443618774414, 114.7382583618164, 54.608150482177734, -0.03200000151991844, 0.03200000151991844, 1.055999994277954, 0.0, 0.0, 0.0, 0.0, 0.0, 1.6206628661487508E9, 2021-05-10 18:07:46.148
3.0, -341.0545654296875, 45.92784118652344, 98.92596435546875, 39.69342803955078, -0.03200000151991844, 0.03200000151991844, 1.055999994277954, 0.0, 0.0, 0.0, 0.0, 0.0, 1.6206628661487508E9, 2021-05-10 18:07:46.148
4.0, -331.1064453125, 56.34346389770508, 102.72196197509766, 45.639869689941406, -0.03200000151991844, 0.03200000151991844, 1.055999994277954, 0.0, 0.0, 0.0, 0.0, 0.0, 1.6206628661623018E9, 2021-05-10 18:07:46.162
4.0, -316.0196838378906, 73.50212097167969, 120.74828338623047, 60.767765045166016, -0.03200000151991844, 0.03200000151991844, 1.055999994277954, 0.0, 0.0, 0.0, 0.0, 0.0, 1.6206628661623018E9, 2021-05-10 18:07:46.162
5.0, -318.1776123046875, 62.955604553222656, 110.96844482421875, 48.968379974365234, -0.03200000151991844, 0.03200000151991844, 1.055999994277954, 0.0, 0.0, 0.0, 0.0, 0.0, 1.6206628661780305E9, 2021-05-10 18:07:46.178
5.0, -340.8301696777344, 43.87837600708008, 91.80519104003906, 33.234619140625, -0.03200000151991844, 0.03200000151991844, 1.055999994277954, 0.0, 0.0, 0.0, 0.0, 0.0, 1.6206628661780305E9, 2021-05-10 18:07:46.178
6.0, -337.8270263671875, 45.7296257019043, 96.69324493408203, 38.477962493896484, -0.03200000151991844, 0.03200000151991844, 1.055999994277954, 0.0, 0.0, 0.0, 0.0, 0.0, 1.6206628661787465E9, 2021-05-10 18:07:46.178
6.0, -313.0090637207031, 73.71903991699219, 114.68964385986328, 49.645301818847656, -0.03200000151991844, 0.03200000151991844, 1.055999994277954, 0.0, 0.0, 0.0, 0.0, 0.0, 1.6206628661787465E9, 2021-05-10 18:07:46.178
7.0, -317.620361328125, 62.17396545410156, 111.46585083007812, 41.8737907409668, -0.03200000151991844, 0.03200000151991844, 1.055999994277954, 0.0, 0.0, 0.0, 0.0, 0.0, 1.6206628661923697E9, 2021-05-10 18:07:46.192
7.0, -339.981201171875, 45.46783447265625, 87.66512298583984, 28.193235397338867, -0.03200000151991844, 0.03200000151991844, 1.055999994277954, 0.0, 0.0, 0.0, 0.0, 0.0, 1.6206628661923697E9, 2021-05-10 18:07:46.192
8.0, -329.8086853027344, 58.647239685058594, 100.72111511230469, 36.843624114990234, -0.03200000151991844, 0.03200000151991844, 1.055999994277954, 0.0, 0.0, 0.0, 0.0, 0.0, 1.6206628662081125E9, 2021-05-10 18:07:46.208
8.0, -317.7213439941406, 74.90458679199219, 119.05784606933594, 49.19277572631836, -0.03200000151991844, 0.03200000151991844, 1.055999994277954, 0.0, 0.0, 0.0, 0.0, 0.0, 1.6206628662081125E9, 2021-05-10 18:07:46.208
9.0, -315.0248718261719, 66.28038024902344, 114.37548828125, 48.96464157104492, -0.03200000151991844, 0.03200000151991844, 1.055999994277954, 0.0, 0.0, 0.0, 0.0, 0.0, 1.6206628662088456E9, 2021-05-10 18:07:46.208
9.0, -335.0220947265625, 46.013858795166016, 94.09400939941406, 30.9046630859375, -0.03200000151991844, 0.03200000151991844, 1.055999994277954, 0.0, 0.0, 0.0, 0.0, 0.0, 1.6206628662088456E9, 2021-05-10 18:07:46.208
10.0, -326.9700927734375, 54.62685012817383, 102.67333984375, 45.65108871459961, -0.03200000151991844, 0.03200000151991844, 1.055999994277954, 0.0, 0.0, 0.0, 0.0, 0.0, 1.6206628662387905E9, 2021-05-10 18:07:46.238
10.0, -310.1629943847656, 73.97335052490234, 115.9425048828125, 58.273250579833984, -0.03200000151991844, 0.03200000151991844, 1.055999994277954, 0.0, 0.0, 0.0, 0.0, 0.0, 1.6206628662387905E9, 2021-05-10 18:07:46.238
11.0, -313.12872314453125, 63.40065383911133, 115.66949462890625, 54.15562057495117, -0.03200000151991844, 0.01600000075995922, 1.055999994277954, 0.0, 0.0, 0.0, 0.0, 0.0, 1.6206628662394516E9, 2021-05-10 18:07:46.239
11.0, -334.6929931640625, 43.956912994384766, 96.02754211425781, 43.97187423706055, -0.03200000151991844, 0.01600000075995922, 1.055999994277954, 0.0, 0.0, 0.0, 0.0, 0.0, 1.6206628662394516E9, 2021-05-10 18:07:46.239
12.0, -325.5863342285156, 49.604164123535156, 107.21732330322266, 46.93761444091797, -0.03200000151991844, 0.01600000075995922, 1.055999994277954, 0.0, 0.0, 0.0, 0.0, 0.0, 1.62066286624017E9, 2021-05-10 18:07:46.240
12.0, -307.9901123046875, 63.913021087646484, 119.09150695800781, 57.30087661743164, -0.03200000151991844, 0.01600000075995922, 1.055999994277954, 0.0, 0.0, 0.0, 0.0, 0.0, 1.62066286624017E9, 2021-05-10 18:07:46.240
13.0, -314.41900634765625, 57.63746643066406, 115.55729675292969, 54.99335861206055, -0.03200000151991844, 0.01600000075995922, 1.055999994277954, 0.0, 0.0, 0.0, 0.0, 0.0, 1.620662866252322E9, 2021-05-10 18:07:46.252
13.0, -334.640625, 44.51416015625, 92.3100814819336, 40.51246643066406, -0.03200000151991844, 0.01600000075995922, 1.055999994277954, 0.0, 0.0, 0.0, 0.0, 0.0, 1.620662866252322E9, 2021-05-10 18:07:46.252
14.0, -328.5146789550781, 52.790557861328125, 104.53581237792969, 39.005287170410156, -0.03200000151991844, 0.01600000075995922, 1.055999994277954, 0.0, 0.0, 0.0, 0.0, 0.0, 1.620662866268006E9, 2021-05-10 18:07:46.268
14.0, -307.0962829589844, 72.62698364257812, 124.82476806640625, 57.0615234375, -0.03200000151991844, 0.01600000075995922, 1.055999994277954, 0.0, 0.0, 0.0, 0.0, 0.0, 1.620662866268006E9, 2021-05-10 18:07:46.268
15.0, -317.5754699707031, 56.223785400390625, 105.92705535888672, 46.141014099121094, -0.03200000151991844, 0.01600000075995922, 1.055999994277954, 0.0, 0.0, 0.0, 0.0, 0.0, 1.6206628662687414E9, 2021-05-10 18:07:46.268
15.0, -335.9795227050781, 48.50837326049805, 89.98760223388672, 36.44719314575195, -0.03200000151991844, 0.01600000075995922, 1.055999994277954, 0.0, 0.0, 0.0, 0.0, 0.0, 1.6206628662687414E9, 2021-05-10 18:07:46.268
16.0, -331.4131164550781, 50.37832260131836, 95.35061645507812, 42.06826400756836, -0.03200000151991844, 0.01600000075995922, 1.055999994277954, 0.0, 0.0, 0.0, 0.0, 0.0, 1.6206628662823403E9, 2021-05-10 18:07:46.282
16.0, -312.63507080078125, 67.9408950805664, 115.21322631835938, 55.04197692871094, -0.03200000151991844, 0.01600000075995922, 1.055999994277954, 0.0, 0.0, 0.0, 0.0, 0.0, 1.6206628662823403E9, 2021-05-10 18:07:46.282
17.0, -320.0288391113281, 58.123653411865234, 107.73342895507812, 48.635528564453125, -0.03200000151991844, 0.01600000075995922, 1.055999994277954, 0.0, 0.0, 0.0, 0.0, 0.0, 1.6206628662980084E9, 2021-05-10 18:07:46.298
17.0, -336.86962890625, 41.75037384033203, 92.09317016601562, 35.71791458129883, -0.03200000151991844, 0.01600000075995922, 1.055999994277954, 0.0, 0.0, 0.0, 0.0, 0.0, 1.6206628662980084E9, 2021-05-10 18:07:46.298
18.0, -325.1786804199219, 56.22004699707031, 105.44087219238281, 41.34646224975586, -0.03200000151991844, 0.01600000075995922, 1.055999994277954, 0.0, 0.0, 0.0, 0.0, 0.0, 1.6206628662987802E9, 2021-05-10 18:07:46.298
18.0, -305.30487060546875, 72.54470825195312, 126.3543930053711, 61.085655212402344, -0.03200000151991844, 0.01600000075995922, 1.055999994277954, 0.0, 0.0, 0.0, 0.0, 0.0, 1.6206628662987802E9, 2021-05-10 18:07:46.298
19.0, -310.4771423339844, 65.72687530517578, 120.06761932373047, 59.64579391479492, -0.03200000151991844, 0.01600000075995922, 1.055999994277954, 0.0, 0.0, 0.0, 0.0, 0.0, 1.620662866312334E9, 2021-05-10 18:07:46.312
19.0, -340.5160217285156, 40.807918548583984, 90.49996948242188, 33.642269134521484, -0.03200000151991844, 0.01600000075995922, 1.055999994277954, 0.0, 0.0, 0.0, 0.0, 0.0, 1.620662866312334E9, 2021-05-10 18:07:46.312
20.0, -332.6510009765625, 49.61538314819336, 102.2694320678711, 46.29435348510742, -0.03200000151991844, 0.01600000075995922, 1.055999994277954, 0.0, 0.0, 0.0, 0.0, 0.0, 1.620662866328113E9, 2021-05-10 18:07:46.328
20.0, -312.6949157714844, 73.37870788574219, 118.76239013671875, 56.81843185424805, -0.03200000151991844, 0.01600000075995922, 1.055999994277954, 0.0, 0.0, 0.0, 0.0, 0.0, 1.620662866328113E9, 2021-05-10 18:07:46.328
21.0, -320.09991455078125, 68.95440673828125, 105.69518280029297, 51.42549514770508, -0.03200000151991844, 0.01600000075995922, 1.055999994277954, 0.0, 0.0, 0.0, 0.0, 0.0, 1.6206628663287268E9, 2021-05-10 18:07:46.328
21.0, -342.7375183105469, 46.290611267089844, 84.16083526611328, 42.22908020019531, -0.03200000151991844, 0.01600000075995922, 1.055999994277954, 0.0, 0.0, 0.0, 0.0, 0.0, 1.6206628663287268E9, 2021-05-10 18:07:46.328
22.0, -325.6199951171875, 52.19591522216797, 95.07012939453125, 46.57110595703125, -0.03200000151991844, 0.01600000075995922, 1.055999994277954, 0.0, 0.0, 0.0, 0.0, 0.0, 1.6206628663423338E9, 2021-05-10 18:07:46.342
22.0, -319.3182678222656, 73.57691955566406, 114.19597625732422, 54.0621223449707, -0.03200000151991844, 0.01600000075995922, 1.055999994277954, 0.0, 0.0, 0.0, 0.0, 0.0, 1.6206628663423338E9, 2021-05-10 18:07:46.342
23.0, -322.4485778808594, 65.10604858398438, 107.29586029052734, 47.588356018066406, -0.03200000151991844, 0.01600000075995922, 1.055999994277954, 0.0, 0.0, 0.0, 0.0, 0.0, 1.6206628663580961E9, 2021-05-10 18:07:46.358
23.0, -340.4075622558594, 48.732765197753906, 91.61445617675781, 33.702110290527344, -0.03200000151991844, 0.01600000075995922, 1.055999994277954, 0.0, 0.0, 0.0, 0.0, 0.0, 1.6206628663580961E9, 2021-05-10 18:07:46.358
24.0, -329.00836181640625, 57.36445617675781, 102.28439331054688, 37.87209701538086, -0.03200000151991844, 0.01600000075995922, 1.055999994277954, 0.0, 0.0, 0.0, 0.0, 0.0, 1.620662866358753E9, 2021-05-10 18:07:46.358
24.0, -307.33935546875, 74.06684875488281, 123.23905181884766, 56.87078857421875, -0.03200000151991844, 0.01600000075995922, 1.055999994277954, 0.0, 0.0, 0.0, 0.0, 0.0, 1.620662866358753E9, 2021-05-10 18:07:46.358
25.0, -319.12005615234375, 63.49040985107422, 111.39852905273438, 42.670387268066406, -0.03200000151991844, 0.01600000075995922, 1.055999994277954, 0.0, 0.0, 0.0, 0.0, 0.0, 1.6206628663724012E9, 2021-05-10 18:07:46.372
25.0, -329.24395751953125, 48.45601272583008, 94.93549346923828, 34.94749450683594, -0.03200000151991844, 0.01600000075995922, 1.055999994277954, 0.0, 0.0, 0.0, 0.0, 0.0, 1.6206628663724012E9, 2021-05-10 18:07:46.372
26.0, -325.5863342285156, 60.35263442993164, 108.61604309082031, 42.54323196411133, -0.03200000151991844, 0.01600000075995922, 1.055999994277954, 0.0, 0.0, 0.0, 0.0, 0.0, 1.6206628663879983E9, 2021-05-10 18:07:46.387
26.0, -309.02606201171875, 79.39620971679688, 120.85673522949219, 61.1866340637207, -0.03200000151991844, 0.01600000075995922, 1.055999994277954, 0.0, 0.0, 0.0, 0.0, 0.0, 1.6206628663879983E9, 2021-05-10 18:07:46.387
27.0, -325.31707763671875, 67.7239761352539, 116.82512664794922, 48.029666900634766, -0.03200000151991844, 0.01600000075995922, 1.055999994277954, 0.0, 0.0, 0.0, 0.0, 0.0, 1.620662866388713E9, 2021-05-10 18:07:46.388
27.0, -334.73040771484375, 47.30412292480469, 104.65923309326172, 45.33319854736328, -0.03200000151991844, 0.01600000075995922, 1.055999994277954, 0.0, 0.0, 0.0, 0.0, 0.0, 1.620662866388713E9, 2021-05-10 18:07:46.388
28.0, -324.78973388671875, 56.09288787841797, 110.80388641357422, 51.04776382446289, -0.03200000151991844, 0.01600000075995922, 1.055999994277954, 0.0, 0.0, 0.0, 0.0, 0.0, 1.6206628664023695E9, 2021-05-10 18:07:46.402
28.0, -310.05078125, 74.25384521484375, 125.13143920898438, 56.53045654296875, -0.03200000151991844, 0.01600000075995922, 1.055999994277954, 0.0, 0.0, 0.0, 0.0, 0.0, 1.6206628664023695E9, 2021-05-10 18:07:46.402
29.0, -315.55218505859375, 68.41960144042969, 117.73017883300781, 54.798885345458984, -0.03200000151991844, 0.01600000075995922, 1.055999994277954, 0.0, 0.0, 0.0, 0.0, 0.0, 1.620662866418014E9, 2021-05-10 18:07:46.418
29.0, -337.4866943359375, 51.90046310424805, 96.0013656616211, 40.60596466064453, -0.03200000151991844, 0.01600000075995922, 1.055999994277954, 0.0, 0.0, 0.0, 0.0, 0.0, 1.620662866418014E9, 2021-05-10 18:07:46.418
30.0, -335.34375, 56.88200759887695, 101.77951049804688, 42.805023193359375, -0.03200000151991844, 0.01600000075995922, 1.055999994277954, 0.0, 0.0, 0.0, 0.0, 0.0, 1.6206628664187744E9, 2021-05-10 18:07:46.418
30.0, -314.733154296875, 83.14732360839844, 119.86940002441406, 52.75315856933594, -0.03200000151991844, 0.01600000075995922, 1.055999994277954, 0.0, 0.0, 0.0, 0.0, 0.0, 1.6206628664187744E9, 2021-05-10 18:07:46.418
31.0, -320.05877685546875, 67.27145385742188, 108.5936050415039, 49.46578598022461, -0.03200000151991844, 0.01600000075995922, 1.055999994277954, 0.0, 0.0, 0.0, 0.0, 0.0, 1.6206628664323337E9, 2021-05-10 18:07:46.432
31.0, -339.8652648925781, 50.77849197387695, 88.82449340820312, 33.806827545166016, -0.03200000151991844, 0.01600000075995922, 1.055999994277954, 0.0, 0.0, 0.0, 0.0, 0.0, 1.6206628664323337E9, 2021-05-10 18:07:46.432
32.0, -331.12139892578125, 67.05079650878906, 99.9619140625, 45.781986236572266, -0.04800000041723251, 0.01600000075995922, 1.055999994277954, 0.0, 0.0, 0.0, 0.0, 0.0, 1.6206628664480057E9, 2021-05-10 18:07:46.448
32.0, -313.7420654296875, 73.35253143310547, 112.1091079711914, 50.86450958251953, -0.04800000041723251, 0.01600000075995922, 1.055999994277954, 0.0, 0.0, 0.0, 0.0, 0.0, 1.6206628664480057E9, 2021-05-10 18:07:46.448
33.0, -321.6369934082031, 73.73400115966797, 112.16520690917969, 47.457462310791016, -0.04800000041723251, 0.01600000075995922, 1.055999994277954, 0.0, 0.0, 0.0, 0.0, 0.0, 1.6206628664487245E9, 2021-05-10 18:07:46.448
33.0, -336.001953125, 52.57738494873047, 89.9389877319336, 42.25899887084961, -0.04800000041723251, 0.01600000075995922, 1.055999994277954, 0.0, 0.0, 0.0, 0.0, 0.0, 1.6206628664487245E9, 2021-05-10 18:07:46.448
34.0, -328.5445861816406, 59.615875244140625, 101.07266998291016, 40.88271713256836, -0.04800000041723251, 0.01600000075995922, 1.055999994277954, 0.0, 0.0, 0.0, 0.0, 0.0, 1.6206628664623227E9, 2021-05-10 18:07:46.462
34.0, -310.8847961425781, 77.69081115722656, 116.1182861328125, 49.8846549987793, -0.04800000041723251, 0.01600000075995922, 1.055999994277954, 0.0, 0.0, 0.0, 0.0, 0.0, 1.6206628664623227E9, 2021-05-10 18:07:46.462
35.0, -322.4111633300781, 61.63167953491211, 112.68879699707031, 47.13956832885742, -0.04800000041723251, 0.01600000075995922, 1.055999994277954, 0.0, 0.0, 0.0, 0.0, 0.0, 1.620662866478041E9, 2021-05-10 18:07:46.478
35.0, -333.0025634765625, 47.05729293823242, 95.50021362304688, 36.15174102783203, -0.04800000041723251, 0.01600000075995922, 1.055999994277954, 0.0, 0.0, 0.0, 0.0, 0.0, 1.620662866478041E9, 2021-05-10 18:07:46.478
36.0, -325.55267333984375, 51.99021911621094, 99.16157531738281, 41.63817596435547, -0.04800000041723251, 0.01600000075995922, 1.055999994277954, 0.0, 0.0, 0.0, 0.0, 0.0, 1.6206628664787445E9, 2021-05-10 18:07:46.478
36.0, -307.8330383300781, 73.31138610839844, 118.56791687011719, 55.11677551269531, -0.04800000041723251, 0.01600000075995922, 1.055999994277954, 0.0, 0.0, 0.0, 0.0, 0.0, 1.6206628664787445E9, 2021-05-10 18:07:46.478
37.0, -323.970703125, 63.87187957763672, 105.560546875, 50.85702896118164, -0.04800000041723251, 0.01600000075995922, 1.055999994277954, 0.0, 0.0, 0.0, 0.0, 0.0, 1.6206628664923882E9, 2021-05-10 18:07:46.492
37.0, -338.6086730957031, 40.58352279663086, 88.86563110351562, 35.91986846923828, -0.04800000041723251, 0.01600000075995922, 1.055999994277954, 0.0, 0.0, 0.0, 0.0, 0.0, 1.6206628664923882E9, 2021-05-10 18:07:46.492
38.0, -331.353271484375, 49.589202880859375, 96.88397979736328, 44.41318130493164, -0.04800000041723251, 0.01600000075995922, 1.055999994277954, 0.0, 0.0, 0.0, 0.0, 0.0, 1.6206628665080142E9, 2021-05-10 18:07:46.508
38.0, -314.33673095703125, 68.31488037109375, 110.02224731445312, 52.40534973144531, -0.04800000041723251, 0.01600000075995922, 1.055999994277954, 0.0, 0.0, 0.0, 0.0, 0.0, 1.6206628665080142E9, 2021-05-10 18:07:46.508
39.0, -323.4471130371094, 59.03245162963867, 107.31829833984375, 46.66460037231445, -0.04800000041723251, 0.01600000075995922, 1.055999994277954, 0.0, 0.0, 0.0, 0.0, 0.0, 1.6206628665087647E9, 2021-05-10 18:07:46.508
39.0, -339.4576416015625, 44.94050598144531, 84.87142181396484, 36.39857482910156, -0.04800000041723251, 0.01600000075995922, 1.055999994277954, 0.0, 0.0, 0.0, 0.0, 0.0, 1.6206628665087647E9, 2021-05-10 18:07:46.508
40.0, -333.2306823730469, 51.878021240234375, 91.41250610351562, 38.59015655517578, -0.04800000041723251, 0.01600000075995922, 1.055999994277954, 0.0, 0.0, 0.0, 0.0, 0.0, 1.6206628665223536E9, 2021-05-10 18:07:46.522
40.0, -310.18170166015625, 68.27000427246094, 113.83694458007812, 56.844608306884766, -0.04800000041723251, 0.01600000075995922, 1.055999994277954, 0.0, 0.0, 0.0, 0.0, 0.0, 1.6206628665223536E9, 2021-05-10 18:07:46.522
41.0, -319.17242431640625, 59.791648864746094, 105.18655395507812, 46.066219329833984, -0.04800000041723251, 0.01600000075995922, 1.055999994277954, 0.0, 0.0, 0.0, 0.0, 0.0, 1.620662866538053E9, 2021-05-10 18:07:46.538
41.0, -337.9915771484375, 44.40196228027344, 90.47004699707031, 34.47626876831055, -0.04800000041723251, 0.01600000075995922, 1.055999994277954, 0.0, 0.0, 0.0, 0.0, 0.0, 1.620662866538053E9, 2021-05-10 18:07:46.538
42.0, -331.0054626464844, 47.498600006103516, 94.23239135742188, 37.50932693481445, -0.03200000151991844, 0.01600000075995922, 1.055999994277954, 0.0, 0.0, 0.0, 0.0, 0.0, 1.6206628665387225E9, 2021-05-10 18:07:46.538
42.0, -310.86236572265625, 78.22935485839844, 111.31251525878906, 51.930381774902344, -0.03200000151991844, 0.01600000075995922, 1.055999994277954, 0.0, 0.0, 0.0, 0.0, 0.0, 1.6206628665387225E9, 2021-05-10 18:07:46.538
43.0, -321.165771484375, 58.53878402709961, 103.50733947753906, 45.59498977661133, -0.03200000151991844, 0.01600000075995922, 1.055999994277954, 0.0, 0.0, 0.0, 0.0, 0.0, 1.620662866552312E9, 2021-05-10 18:07:46.552
43.0, -337.4642639160156, 45.46035385131836, 86.72640991210938, 34.07609939575195, -0.03200000151991844, 0.01600000075995922, 1.055999994277954, 0.0, 0.0, 0.0, 0.0, 0.0, 1.620662866552312E9, 2021-05-10 18:07:46.552
44.0, -324.6102294921875, 58.430328369140625, 104.87240600585938, 47.65567398071289, -0.03200000151991844, 0.01600000075995922, 1.055999994277954, 0.0, 0.0, 0.0, 0.0, 0.0, 1.6206628665681012E9, 2021-05-10 18:07:46.568
44.0, -304.2651672363281, 71.9575424194336, 123.66165924072266, 65.28556060791016, -0.03200000151991844, 0.01600000075995922, 1.055999994277954, 0.0, 0.0, 0.0, 0.0, 0.0, 1.6206628665681012E9, 2021-05-10 18:07:46.568
45.0, -315.42877197265625, 61.433467864990234, 116.29032135009766, 53.646995544433594, -0.03200000151991844, 0.01600000075995922, 1.055999994277954, 0.0, 0.0, 0.0, 0.0, 0.0, 1.620662866568794E9, 2021-05-10 18:07:46.568
45.0, -337.35205078125, 33.47771453857422, 90.45134735107422, 34.023738861083984, -0.03200000151991844, 0.01600000075995922, 1.055999994277954, 0.0, 0.0, 0.0, 0.0, 0.0, 1.620662866568794E9, 2021-05-10 18:07:46.568
46.0, -325.9490966796875, 47.016151428222656, 108.27197265625, 48.022186279296875, -0.03200000151991844, 0.01600000075995922, 1.055999994277954, 0.0, 0.0, 0.0, 0.0, 0.0, 1.6206628665823815E9, 2021-05-10 18:07:46.582
46.0, -308.1359558105469, 61.291351318359375, 123.56816101074219, 54.8026237487793, -0.03200000151991844, 0.01600000075995922, 1.055999994277954, 0.0, 0.0, 0.0, 0.0, 0.0, 1.6206628665823815E9, 2021-05-10 18:07:46.582
47.0, -314.37786865234375, 51.30207824707031, 108.40287017822266, 48.27649688720703, -0.03200000151991844, 0.01600000075995922, 1.055999994277954, 0.0, 0.0, 0.0, 0.0, 0.0, 1.6206628665984602E9, 2021-05-10 18:07:46.598
47.0, -332.28076171875, 38.67617416381836, 90.80290222167969, 33.028926849365234, -0.03200000151991844, 0.01600000075995922, 1.055999994277954, 0.0, 0.0, 0.0, 0.0, 0.0, 1.6206628665984602E9, 2021-05-10 18:07:46.598
48.0, -327.1944885253906, 50.32222366333008, 99.198974609375, 41.148250579833984, -0.03200000151991844, 0.01600000075995922, 1.055999994277954, 0.0, 0.0, 0.0, 0.0, 0.0, 1.6206628666130135E9, 2021-05-10 18:07:46.613
48.0, -309.134521484375, 70.03897857666016, 116.01730346679688, 51.07768249511719, -0.03200000151991844, 0.01600000075995922, 1.055999994277954, 0.0, 0.0, 0.0, 0.0, 0.0, 1.6206628666130135E9, 2021-05-10 18:07:46.613
49.0, -320.64593505859375, 56.279884338378906, 102.6135025024414, 45.32197570800781, -0.03200000151991844, 0.01600000075995922, 1.055999994277954, 0.0, 0.0, 0.0, 0.0, 0.0, 1.6206628666137207E9, 2021-05-10 18:07:46.613
49.0, -340.1233215332031, 40.21701431274414, 86.32624053955078, 29.217967987060547, -0.03200000151991844, 0.01600000075995922, 1.055999994277954, 0.0, 0.0, 0.0, 0.0, 0.0, 1.6206628666137207E9, 2021-05-10 18:07:46.613
50.0, -325.78082275390625, 49.17033386230469, 101.29705810546875, 42.954620361328125, -0.03200000151991844, 0.01600000075995922, 1.055999994277954, 0.0, 0.0, 0.0, 0.0, 0.0, 1.6206628666280866E9, 2021-05-10 18:07:46.628
50.0, -310.08819580078125, 72.74666595458984, 114.12865447998047, 56.14524841308594, -0.03200000151991844, 0.01600000075995922, 1.055999994277954, 0.0, 0.0, 0.0, 0.0, 0.0, 1.6206628666280866E9, 2021-05-10 18:07:46.628
51.0, -320.12982177734375, 59.25684356689453, 104.89484405517578, 44.23740768432617, -0.03200000151991844, 0.03200000151991844, 1.055999994277954, 0.0, 0.0, 0.0, 0.0, 0.0, 1.620662866628809E9, 2021-05-10 18:07:46.628
51.0, -335.601806640625, 44.59269714355469, 92.11934661865234, 30.26140022277832, -0.03200000151991844, 0.03200000151991844, 1.055999994277954, 0.0, 0.0, 0.0, 0.0, 0.0, 1.620662866628809E9, 2021-05-10 18:07:46.628
52.0, -325.8182067871094, 42.21411895751953, 102.70700073242188, 42.722747802734375, -0.03200000151991844, 0.03200000151991844, 1.055999994277954, 0.0, 0.0, 0.0, 0.0, 0.0, 1.620662866642341E9, 2021-05-10 18:07:46.642
52.0, -313.031494140625, 67.47340393066406, 121.03250885009766, 57.476654052734375, -0.03200000151991844, 0.03200000151991844, 1.055999994277954, 0.0, 0.0, 0.0, 0.0, 0.0, 1.620662866642341E9, 2021-05-10 18:07:46.642
53.0, -321.846435546875, 54.80636215209961, 113.2497787475586, 52.98503112792969, -0.03200000151991844, 0.03200000151991844, 1.055999994277954, 0.0, 0.0, 0.0, 0.0, 0.0, 1.6206628666577864E9, 2021-05-10 18:07:46.657
53.0, -332.40045166015625, 41.294105529785156, 98.30513763427734, 41.810211181640625, -0.03200000151991844, 0.03200000151991844, 1.055999994277954, 0.0, 0.0, 0.0, 0.0, 0.0, 1.6206628666577864E9, 2021-05-10 18:07:46.657
54.0, -327.5871887207031, 52.068756103515625, 106.0055923461914, 47.85388946533203, -0.03200000151991844, 0.03200000151991844, 1.055999994277954, 0.0, 0.0, 0.0, 0.0, 0.0, 1.6206628666730573E9, 2021-05-10 18:07:46.673
54.0, -305.3572082519531, 64.0289535522461, 131.05169677734375, 53.695613861083984, -0.03200000151991844, 0.03200000151991844, 1.055999994277954, 0.0, 0.0, 0.0, 0.0, 0.0, 1.6206628666730573E9, 2021-05-10 18:07:46.673
55.0, -317.0032653808594, 61.77753829956055, 119.51411437988281, 55.35987091064453, -0.03200000151991844, 0.03200000151991844, 1.055999994277954, 0.0, 0.0, 0.0, 0.0, 0.0, 1.6206628666738143E9, 2021-05-10 18:07:46.673
55.0, -342.1952209472656, 43.46324920654297, 89.2620620727539, 35.24668884277344, -0.03200000151991844, 0.03200000151991844, 1.055999994277954, 0.0, 0.0, 0.0, 0.0, 0.0, 1.6206628666738143E9, 2021-05-10 18:07:46.673
56.0, -331.19244384765625, 47.59957504272461, 94.6437759399414, 38.227386474609375, -0.03200000151991844, 0.03200000151991844, 1.055999994277954, 0.0, 0.0, 0.0, 0.0, 0.0, 1.620662866704453E9, 2021-05-10 18:07:46.704
56.0, -306.8120422363281, 65.55109405517578, 113.2310791015625, 53.13836669921875, -0.03200000151991844, 0.03200000151991844, 1.055999994277954, 0.0, 0.0, 0.0, 0.0, 0.0, 1.620662866704453E9, 2021-05-10 18:07:46.704
57.0, -322.64678955078125, 52.061275482177734, 101.00908660888672, 46.23451232910156, -0.03200000151991844, 0.03200000151991844, 1.055999994277954, 0.0, 0.0, 0.0, 0.0, 0.0, 1.6206628667051475E9, 2021-05-10 18:07:46.705
57.0, -336.5666809082031, 34.206993103027344, 79.98711395263672, 33.82926559448242, -0.03200000151991844, 0.03200000151991844, 1.055999994277954, 0.0, 0.0, 0.0, 0.0, 0.0, 1.6206628667051475E9, 2021-05-10 18:07:46.705
58.0, -328.7166442871094, 49.45830535888672, 88.91051483154297, 39.083824157714844, -0.03200000151991844, 0.03200000151991844, 1.055999994277954, 0.0, 0.0, 0.0, 0.0, 0.0, 1.620662866705934E9, 2021-05-10 18:07:46.705
58.0, -309.88623046875, 60.752803802490234, 105.08931732177734, 52.65966033935547, -0.03200000151991844, 0.03200000151991844, 1.055999994277954, 0.0, 0.0, 0.0, 0.0, 0.0, 1.620662866705934E9, 2021-05-10 18:07:46.705
59.0, -324.7785339355469, 57.58884811401367, 103.952392578125, 46.006378173828125, -0.03200000151991844, 0.03200000151991844, 1.055999994277954, 0.0, 0.0, 0.0, 0.0, 0.0, 1.620662866706638E9, 2021-05-10 18:07:46.706
59.0, -341.0059509277344, 43.92699432373047, 87.10787963867188, 30.231481552124023, -0.03200000151991844, 0.03200000151991844, 1.055999994277954, 0.0, 0.0, 0.0, 0.0, 0.0, 1.620662866706638E9, 2021-05-10 18:07:46.706
60.0, -335.65789794921875, 55.73011779785156, 94.5577621459961, 39.139923095703125, -0.03200000151991844, 0.03200000151991844, 1.055999994277954, 0.0, 0.0, 0.0, 0.0, 0.0, 1.6206628667173305E9, 2021-05-10 18:07:46.717
60.0, -315.1894226074219, 79.59815979003906, 117.18415832519531, 57.039085388183594, -0.03200000151991844, 0.03200000151991844, 1.055999994277954, 0.0, 0.0, 0.0, 0.0, 0.0, 1.6206628667173305E9, 2021-05-10 18:07:46.717
61.0, -326.5362854003906, 64.71710205078125, 106.88446807861328, 46.42898941040039, -0.03200000151991844, 0.01600000075995922, 1.055999994277954, 0.0, 0.0, 0.0, 0.0, 0.0, 1.6206628667324224E9, 2021-05-10 18:07:46.732
61.0, -341.76513671875, 50.18758773803711, 92.35869598388672, 42.88730239868164, -0.03200000151991844, 0.01600000075995922, 1.055999994277954, 0.0, 0.0, 0.0, 0.0, 0.0, 1.6206628667324224E9, 2021-05-10 18:07:46.732
62.0, -335.9009704589844, 55.18783187866211, 100.99412536621094, 46.877777099609375, -0.04800000041723251, 0.01600000075995922, 1.055999994277954, 0.0, 0.0, 0.0, 0.0, 0.0, 1.620662866748109E9, 2021-05-10 18:07:46.748
62.0, -318.0766296386719, 71.63217163085938, 124.00199127197266, 63.22113800048828, -0.04800000041723251, 0.01600000075995922, 1.055999994277954, 0.0, 0.0, 0.0, 0.0, 0.0, 1.620662866748109E9, 2021-05-10 18:07:46.748
63.0, -321.8950500488281, 61.44842529296875, 112.47187805175781, 57.68608856201172, -0.04800000041723251, 0.01600000075995922, 1.055999994277954, 0.0, 0.0, 0.0, 0.0, 0.0, 1.620662866748751E9, 2021-05-10 18:07:46.748
63.0, -337.610107421875, 39.46155548095703, 93.65270233154297, 43.48942565917969, -0.04800000041723251, 0.01600000075995922, 1.055999994277954, 0.0, 0.0, 0.0, 0.0, 0.0, 1.620662866748751E9, 2021-05-10 18:07:46.748
64.0, -325.84814453125, 45.89418411254883, 109.43134307861328, 50.76727294921875, -0.04800000041723251, 0.01600000075995922, 1.055999994277954, 0.0, 0.0, 0.0, 0.0, 0.0, 1.6206628667623532E9, 2021-05-10 18:07:46.762
64.0, -306.3819580078125, 67.98577117919922, 127.47261810302734, 56.76607131958008, -0.04800000041723251, 0.01600000075995922, 1.055999994277954, 0.0, 0.0, 0.0, 0.0, 0.0, 1.6206628667623532E9, 2021-05-10 18:07:46.762
65.0, -318.630126953125, 53.74049377441406, 112.01935577392578, 46.47012710571289, -0.04800000041723251, 0.01600000075995922, 1.055999994277954, 0.0, 0.0, 0.0, 0.0, 0.0, 1.6206628667780633E9, 2021-05-10 18:07:46.778
65.0, -335.2876281738281, 35.97222900390625, 91.55835723876953, 27.6472110748291, -0.04800000041723251, 0.01600000075995922, 1.055999994277954, 0.0, 0.0, 0.0, 0.0, 0.0, 1.6206628667780633E9, 2021-05-10 18:07:46.778
66.0, -327.50115966796875, 50.359622955322266, 102.6135025024414, 34.90635681152344, -0.04800000041723251, 0.01600000075995922, 1.055999994277954, 0.0, 0.0, 0.0, 0.0, 0.0, 1.620662866778768E9, 2021-05-10 18:07:46.778
66.0, -314.8677978515625, 64.85547637939453, 114.86167907714844, 48.42983627319336, -0.04800000041723251, 0.01600000075995922, 1.055999994277954, 0.0, 0.0, 0.0, 0.0, 0.0, 1.620662866778768E9, 2021-05-10 18:07:46.778
67.0, -322.4410705566406, 61.69900131225586, 101.24844360351562, 40.67702102661133, -0.04800000041723251, 0.01600000075995922, 1.055999994277954, 0.0, 0.0, 0.0, 0.0, 0.0, 1.6206628667923424E9, 2021-05-10 18:07:46.792
67.0, -340.6095275878906, 41.63069534301758, 87.51927185058594, 29.898630142211914, -0.04800000041723251, 0.01600000075995922, 1.055999994277954, 0.0, 0.0, 0.0, 0.0, 0.0, 1.6206628667923424E9, 2021-05-10 18:07:46.792
68.0, -331.7123107910156, 52.01639938354492, 96.34917449951172, 34.3491096496582, -0.04800000041723251, 0.01600000075995922, 1.055999994277954, 0.0, 0.0, 0.0, 0.0, 0.0, 1.6206628668080912E9, 2021-05-10 18:07:46.808
68.0, -314.5349426269531, 75.3084945678711, 116.664306640625, 50.82337188720703, -0.04800000041723251, 0.01600000075995922, 1.055999994277954, 0.0, 0.0, 0.0, 0.0, 0.0, 1.6206628668080912E9, 2021-05-10 18:07:46.808
69.0, -321.857666015625, 57.62998962402344, 107.93912506103516, 44.338382720947266, -0.04800000041723251, 0.01600000075995922, 1.055999994277954, 0.0, 0.0, 0.0, 0.0, 0.0, 1.6206628668088732E9, 2021-05-10 18:07:46.808
69.0, -339.17340087890625, 44.55903625488281, 88.84319305419922, 33.896583557128906, -0.04800000041723251, 0.01600000075995922, 1.055999994277954, 0.0, 0.0, 0.0, 0.0, 0.0, 1.6206628668088732E9, 2021-05-10 18:07:46.808
70.0, -331.65618896484375, 58.46024703979492, 103.12213134765625, 43.40715026855469, -0.04800000041723251, 0.01600000075995922, 1.040000081062317, 0.0, 0.0, 0.0, 0.0, 0.0, 1.6206628668223767E9, 2021-05-10 18:07:46.822
70.0, -312.10772705078125, 73.14309692382812, 127.05001068115234, 54.17058181762695, -0.04800000041723251, 0.01600000075995922, 1.040000081062317, 0.0, 0.0, 0.0, 0.0, 0.0, 1.6206628668223767E9, 2021-05-10 18:07:46.822
71.0, -319.53143310546875, 67.29015350341797, 115.02622985839844, 47.99600601196289, -0.04800000041723251, 0.01600000075995922, 1.040000081062317, 0.0, 0.0, 0.0, 0.0, 0.0, 1.620662866838046E9, 2021-05-10 18:07:46.838
71.0, -337.8457336425781, 51.37313461303711, 99.5617446899414, 39.951480865478516, -0.04800000041723251, 0.01600000075995922, 1.040000081062317, 0.0, 0.0, 0.0, 0.0, 0.0, 1.620662866838046E9, 2021-05-10 18:07:46.838
72.0, -329.2514343261719, 57.34575653076172, 113.94914245605469, 46.18589401245117, -0.03200000151991844, 0.01600000075995922, 1.040000081062317, 0.0, 0.0, 0.0, 0.0, 0.0, 1.6206628668387651E9, 2021-05-10 18:07:46.838
72.0, -305.6152648925781, 78.54351043701172, 135.7789306640625, 56.470619201660156, -0.03200000151991844, 0.01600000075995922, 1.040000081062317, 0.0, 0.0, 0.0, 0.0, 0.0, 1.6206628668387651E9, 2021-05-10 18:07:46.838
73.0, -318.301025390625, 59.29424285888672, 121.6009750366211, 50.1838493347168, -0.03200000151991844, 0.01600000075995922, 1.040000081062317, 0.0, 0.0, 0.0, 0.0, 0.0, 1.6206628668523605E9, 2021-05-10 18:07:46.852
73.0, -332.78192138671875, 44.671234130859375, 103.35774230957031, 33.81430435180664, -0.03200000151991844, 0.01600000075995922, 1.040000081062317, 0.0, 0.0, 0.0, 0.0, 0.0, 1.6206628668523605E9, 2021-05-10 18:07:46.852
74.0, -321.3078918457031, 51.702247619628906, 110.78892517089844, 43.384708404541016, -0.03200000151991844, 0.01600000075995922, 1.040000081062317, 0.0, 0.0, 0.0, 0.0, 0.0, 1.6206628668680396E9, 2021-05-10 18:07:46.868
74.0, -309.6917724609375, 63.59886932373047, 124.02442932128906, 58.1348762512207, -0.03200000151991844, 0.01600000075995922, 1.040000081062317, 0.0, 0.0, 0.0, 0.0, 0.0, 1.6206628668680396E9, 2021-05-10 18:07:46.868
75.0, -322.5869445800781, 52.25575256347656, 109.34532165527344, 48.46349334716797, -0.03200000151991844, 0.01600000075995922, 1.040000081062317, 0.0, 0.0, 0.0, 0.0, 0.0, 1.620662866868755E9, 2021-05-10 18:07:46.868
75.0, -342.7375183105469, 37.180213928222656, 86.86478424072266, 39.147403717041016, -0.03200000151991844, 0.01600000075995922, 1.040000081062317, 0.0, 0.0, 0.0, 0.0, 0.0, 1.620662866868755E9, 2021-05-10 18:07:46.868
76.0, -335.3212890625, 39.622371673583984, 89.05636596679688, 37.621524810791016, -0.03200000151991844, 0.01600000075995922, 1.040000081062317, 0.0, 0.0, 0.0, 0.0, 0.0, 1.6206628668823204E9, 2021-05-10 18:07:46.882
76.0, -317.26507568359375, 57.143802642822266, 104.44605255126953, 48.55699157714844, -0.03200000151991844, 0.01600000075995922, 1.040000081062317, 0.0, 0.0, 0.0, 0.0, 0.0, 1.6206628668823204E9, 2021-05-10 18:07:46.882
77.0, -325.403076171875, 49.53684616088867, 96.2294921875, 39.30821990966797, -0.03200000151991844, 0.01600000075995922, 1.040000081062317, 0.0, 0.0, 0.0, 0.0, 0.0, 1.6206628668980467E9, 2021-05-10 18:07:46.898
77.0, -336.65643310546875, 35.09709167480469, 78.6183090209961, 24.812366485595703, -0.03200000151991844, 0.01600000075995922, 1.040000081062317, 0.0, 0.0, 0.0, 0.0, 0.0, 1.6206628668980467E9, 2021-05-10 18:07:46.898
78.0, -331.4579772949219, 47.94364929199219, 94.6849136352539, 38.765933990478516, -0.03200000151991844, 0.01600000075995922, 1.040000081062317, 0.0, 0.0, 0.0, 0.0, 0.0, 1.6206628668987525E9, 2021-05-10 18:07:46.898
78.0, -311.0643005371094, 68.29991912841797, 113.79954528808594, 52.49136734008789, -0.03200000151991844, 0.01600000075995922, 1.040000081062317, 0.0, 0.0, 0.0, 0.0, 0.0, 1.6206628668987525E9, 2021-05-10 18:07:46.898
79.0, -321.0311279296875, 54.133182525634766, 101.8056869506836, 42.85364532470703, -0.03200000151991844, 0.01600000075995922, 1.040000081062317, 0.0, 0.0, 0.0, 0.0, 0.0, 1.620662866912331E9, 2021-05-10 18:07:46.912
79.0, -335.9907531738281, 40.13099670410156, 90.54484558105469, 38.702354431152344, -0.03200000151991844, 0.01600000075995922, 1.040000081062317, 0.0, 0.0, 0.0, 0.0, 0.0, 1.620662866912331E9, 2021-05-10 18:07:46.912
80.0, -325.59381103515625, 52.798038482666016, 99.1391372680664, 44.914329528808594, -0.03200000151991844, 0.01600000075995922, 1.040000081062317, 0.0, 0.0, 0.0, 0.0, 0.0, 1.6206628669281683E9, 2021-05-10 18:07:46.928
80.0, -312.8070983886719, 70.28581237792969, 121.9450454711914, 55.21775436401367, -0.03200000151991844, 0.01600000075995922, 1.040000081062317, 0.0, 0.0, 0.0, 0.0, 0.0, 1.6206628669281683E9, 2021-05-10 18:07:46.928
81.0, -319.2696533203125, 60.038482666015625, 115.5797348022461, 51.07768249511719, -0.03200000151991844, 0.03200000151991844, 1.040000081062317, 0.0, 0.0, 0.0, 0.0, 0.0, 1.6206628669287372E9, 2021-05-10 18:07:46.928
81.0, -332.47149658203125, 55.404747009277344, 101.66731262207031, 39.046424865722656, -0.03200000151991844, 0.03200000151991844, 1.040000081062317, 0.0, 0.0, 0.0, 0.0, 0.0, 1.6206628669287372E9, 2021-05-10 18:07:46.928
82.0, -329.3038024902344, 54.331398010253906, 103.95986938476562, 42.35249710083008, -0.03200000151991844, 0.03200000151991844, 1.040000081062317, 0.0, 0.0, 0.0, 0.0, 0.0, 1.6206628669423423E9, 2021-05-10 18:07:46.942
82.0, -313.4728088378906, 74.18278503417969, 120.06388092041016, 55.06441879272461, -0.03200000151991844, 0.03200000151991844, 1.040000081062317, 0.0, 0.0, 0.0, 0.0, 0.0, 1.6206628669423423E9, 2021-05-10 18:07:46.942
83.0, -320.04754638671875, 60.39751434326172, 115.91259002685547, 45.53889083862305, -0.03200000151991844, 0.03200000151991844, 1.040000081062317, 0.0, 0.0, 0.0, 0.0, 0.0, 1.6206628669580023E9, 2021-05-10 18:07:46.958
83.0, -339.25567626953125, 45.69596862792969, 97.00739288330078, 33.44031524658203, -0.03200000151991844, 0.03200000151991844, 1.040000081062317, 0.0, 0.0, 0.0, 0.0, 0.0, 1.6206628669580023E9, 2021-05-10 18:07:46.958
84.0, -326.54376220703125, 56.76980972290039, 104.06458282470703, 46.589805603027344, -0.03200000151991844, 0.03200000151991844, 1.040000081062317, 0.0, 0.0, 0.0, 0.0, 0.0, 1.6206628669587145E9, 2021-05-10 18:07:46.958
84.0, -313.6111755371094, 66.77404022216797, 123.19417572021484, 52.940155029296875, -0.03200000151991844, 0.03200000151991844, 1.040000081062317, 0.0, 0.0, 0.0, 0.0, 0.0, 1.6206628669587145E9, 2021-05-10 18:07:46.958
85.0, -327.8714294433594, 59.42887878417969, 112.78229522705078, 49.200252532958984, -0.03200000151991844, 0.03200000151991844, 1.040000081062317, 0.0, 0.0, 0.0, 0.0, 0.0, 1.620662866972324E9, 2021-05-10 18:07:46.972
85.0, -340.60577392578125, 43.717559814453125, 94.40816497802734, 35.931087493896484, -0.03200000151991844, 0.03200000151991844, 1.040000081062317, 0.0, 0.0, 0.0, 0.0, 0.0, 1.620662866972324E9, 2021-05-10 18:07:46.972
86.0, -330.1041259765625, 50.28108596801758, 106.87699127197266, 45.864261627197266, -0.03200000151991844, 0.03200000151991844, 1.040000081062317, 0.0, 0.0, 0.0, 0.0, 0.0, 1.620662866987992E9, 2021-05-10 18:07:46.987
86.0, -315.2754211425781, 61.040775299072266, 111.57430267333984, 52.1136360168457, -0.03200000151991844, 0.03200000151991844, 1.040000081062317, 0.0, 0.0, 0.0, 0.0, 0.0, 1.620662866987992E9, 2021-05-10 18:07:46.987
87.0, -320.14105224609375, 54.798885345458984, 107.58383178710938, 50.22872543334961, -0.03200000151991844, 0.03200000151991844, 1.040000081062317, 0.0, 0.0, 0.0, 0.0, 0.0, 1.6206628669887133E9, 2021-05-10 18:07:46.988
87.0, -340.2916259765625, 37.670143127441406, 89.60987091064453, 41.428741455078125, -0.03200000151991844, 0.03200000151991844, 1.040000081062317, 0.0, 0.0, 0.0, 0.0, 0.0, 1.6206628669887133E9, 2021-05-10 18:07:46.988
88.0, -321.65570068359375, 46.728179931640625, 105.30997467041016, 51.98273849487305, -0.03200000151991844, 0.03200000151991844, 1.040000081062317, 0.0, 0.0, 0.0, 0.0, 0.0, 1.6206628670023289E9, 2021-05-10 18:07:47.002
88.0, -308.54736328125, 56.620216369628906, 119.1924819946289, 61.44094467163086, -0.03200000151991844, 0.03200000151991844, 1.040000081062317, 0.0, 0.0, 0.0, 0.0, 0.0, 1.6206628670023289E9, 2021-05-10 18:07:47.002
89.0, -313.5438537597656, 55.07563781738281, 115.40769958496094, 55.48328399658203, -0.03200000151991844, 0.03200000151991844, 1.040000081062317, 0.0, 0.0, 0.0, 0.0, 0.0, 1.6206628670180082E9, 2021-05-10 18:07:47.018
89.0, -333.8440246582031, 34.992374420166016, 96.97373962402344, 41.00239181518555, -0.03200000151991844, 0.03200000151991844, 1.040000081062317, 0.0, 0.0, 0.0, 0.0, 0.0, 1.6206628670180082E9, 2021-05-10 18:07:47.018
90.0, -321.1695251464844, 49.42464828491211, 107.76708984375, 48.59812927246094, -0.03200000151991844, 0.03200000151991844, 1.055999994277954, 0.0, 0.0, 0.0, 0.0, 0.0, 1.6206628670187132E9, 2021-05-10 18:07:47.018
90.0, -310.74267578125, 62.99674606323242, 123.03710174560547, 52.75689697265625, -0.03200000151991844, 0.03200000151991844, 1.055999994277954, 0.0, 0.0, 0.0, 0.0, 0.0, 1.6206628670187132E9, 2021-05-10 18:07:47.018
91.0, -320.89276123046875, 58.34056854248047, 110.69168853759766, 49.779937744140625, -0.03200000151991844, 0.01600000075995922, 1.055999994277954, 0.0, 0.0, 0.0, 0.0, 0.0, 1.6206628670323224E9, 2021-05-10 18:07:47.032
91.0, -338.16363525390625, 45.202301025390625, 98.52205657958984, 39.72334671020508, -0.03200000151991844, 0.01600000075995922, 1.055999994277954, 0.0, 0.0, 0.0, 0.0, 0.0, 1.6206628670323224E9, 2021-05-10 18:07:47.032
92.0, -329.9395751953125, 59.44384002685547, 105.60542297363281, 45.385555267333984, -0.03200000151991844, 0.01600000075995922, 1.055999994277954, 0.0, 0.0, 0.0, 0.0, 0.0, 1.6206628670477757E9, 2021-05-10 18:07:47.047
92.0, -314.57232666015625, 71.72940826416016, 124.56298065185547, 58.295692443847656, -0.03200000151991844, 0.01600000075995922, 1.055999994277954, 0.0, 0.0, 0.0, 0.0, 0.0, 1.6206628670477757E9, 2021-05-10 18:07:47.047
93.0, -327.3590393066406, 67.01339721679688, 112.24374389648438, 47.1844482421875, -0.03200000151991844, 0.01600000075995922, 1.055999994277954, 0.0, 0.0, 0.0, 0.0, 0.0, 1.620662867063084E9, 2021-05-10 18:07:47.063
93.0, -341.847412109375, 47.737953186035156, 94.12019348144531, 39.6261100769043, -0.03200000151991844, 0.01600000075995922, 1.055999994277954, 0.0, 0.0, 0.0, 0.0, 0.0, 1.620662867063084E9, 2021-05-10 18:07:47.063
94.0, -336.6900939941406, 49.94075393676758, 103.21936798095703, 46.71696090698242, -0.03200000151991844, 0.01600000075995922, 1.055999994277954, 0.0, 0.0, 0.0, 0.0, 0.0, 1.6206628670637443E9, 2021-05-10 18:07:47.063
94.0, -313.3493957519531, 66.97599792480469, 120.60242462158203, 57.54022979736328, -0.03200000151991844, 0.01600000075995922, 1.055999994277954, 0.0, 0.0, 0.0, 0.0, 0.0, 1.6206628670637443E9, 2021-05-10 18:07:47.063
95.0, -319.5052490234375, 56.29110336303711, 111.15169525146484, 51.85558319091797, -0.03200000151991844, 0.01600000075995922, 1.055999994277954, 0.0, 0.0, 0.0, 0.0, 0.0, 1.6206628670780854E9, 2021-05-10 18:07:47.078
95.0, -332.2396240234375, 37.52802658081055, 94.39320373535156, 37.756160736083984, -0.03200000151991844, 0.01600000075995922, 1.055999994277954, 0.0, 0.0, 0.0, 0.0, 0.0, 1.6206628670780854E9, 2021-05-10 18:07:47.078
96.0, -324.9393310546875, 52.24453353881836, 104.78264617919922, 43.69137954711914, -0.03200000151991844, 0.01600000075995922, 1.055999994277954, 0.0, 0.0, 0.0, 0.0, 0.0, 1.6206628670787923E9, 2021-05-10 18:07:47.078
96.0, -317.16033935546875, 69.45928955078125, 115.64331817626953, 60.34141540527344, -0.03200000151991844, 0.01600000075995922, 1.055999994277954, 0.0, 0.0, 0.0, 0.0, 0.0, 1.6206628670787923E9, 2021-05-10 18:07:47.078
97.0, -325.98651123046875, 55.41596603393555, 108.98629760742188, 50.23246765136719, -0.03200000151991844, 0.01600000075995922, 1.055999994277954, 0.0, 0.0, 0.0, 0.0, 0.0, 1.6206628670923133E9, 2021-05-10 18:07:47.092
97.0, -337.1912536621094, 39.910343170166016, 92.38861846923828, 36.72020721435547, -0.03200000151991844, 0.01600000075995922, 1.055999994277954, 0.0, 0.0, 0.0, 0.0, 0.0, 1.6206628670923133E9, 2021-05-10 18:07:47.092
98.0, -326.2520446777344, 52.1323356628418, 103.15953063964844, 44.2149658203125, -0.03200000151991844, 0.01600000075995922, 1.055999994277954, 0.0, 0.0, 0.0, 0.0, 0.0, 1.6206628671082828E9, 2021-05-10 18:07:47.108
98.0, -310.21160888671875, 74.61661529541016, 120.99510955810547, 54.7614860534668, -0.03200000151991844, 0.01600000075995922, 1.055999994277954, 0.0, 0.0, 0.0, 0.0, 0.0, 1.6206628671082828E9, 2021-05-10 18:07:47.108
99.0, -320.167236328125, 61.051998138427734, 110.5420913696289, 41.5558967590332, -0.03200000151991844, 0.01600000075995922, 1.055999994277954, 0.0, 0.0, 0.0, 0.0, 0.0, 1.620662867140584E9, 2021-05-10 18:07:47.140
99.0, -331.7272644042969, 48.055843353271484, 93.18148040771484, 29.69667625427246, -0.03200000151991844, 0.01600000075995922, 1.055999994277954, 0.0, 0.0, 0.0, 0.0, 0.0, 1.620662867140584E9, 2021-05-10 18:07:47.140
100.0, -327.3403625488281, 57.7945442199707, 102.35545349121094, 36.00962829589844, -0.03200000151991844, 0.01600000075995922, 1.055999994277954, 0.0, 0.0, 0.0, 0.0, 0.0, 1.6206628671413069E9, 2021-05-10 18:07:47.141
100.0, -314.16094970703125, 74.949462890625, 119.10272216796875, 48.579429626464844, -0.03200000151991844, 0.01600000075995922, 1.055999994277954, 0.0, 0.0, 0.0, 0.0, 0.0, 1.6206628671413069E9, 2021-05-10 18:07:47.141
0.0, -323.2115173339844, 65.48751831054688, 112.87579345703125, 46.57671356201172, -0.03200000151991844, 0.01600000075995922, 1.055999994277954, 0.0, 0.0, 0.0, 0.0, 0.0, 1.620662867141997E9, 2021-05-10 18:07:47.141
1.0, -342.95819091796875, 49.009517669677734, 96.52494812011719, 34.8596076965332, -0.03200000151991844, 0.01600000075995922, 1.055999994277954, 0.0, 0.0, 0.0, 0.0, 0.0, 1.6206628671427531E9, 2021-05-10 18:07:47.142
1.0, -333.72808837890625, 64.9714126586914, 104.36377716064453, 41.123939514160156, -0.03200000151991844, 0.01600000075995922, 1.055999994277954, 0.0, 0.0, 0.0, 0.0, 0.0, 1.6206628671427531E9, 2021-05-10 18:07:47.142
2.0, -318.4580993652344, 74.65775299072266, 122.79774475097656, 56.352813720703125, -0.03200000151991844, 0.01600000075995922, 1.055999994277954, 0.0, 0.0, 0.0, 0.0, 0.0, 1.6206628671701837E9, 2021-05-10 18:07:47.170
2.0, -330.8670654296875, 53.9686279296875, 110.37005615234375, 45.364986419677734, -0.03200000151991844, 0.01600000075995922, 1.055999994277954, 0.0, 0.0, 0.0, 0.0, 0.0, 1.6206628671701837E9, 2021-05-10 18:07:47.170
3.0, -332.6547546386719, 46.75809860229492, 97.62821960449219, 39.549442291259766, -0.03200000151991844, 0.01600000075995922, 1.055999994277954, 0.0, 0.0, 0.0, 0.0, 0.0, 1.6206628671707692E9, 2021-05-10 18:07:47.170
3.0, -331.6337585449219, 50.931827545166016, 98.53327178955078, 39.28017044067383, -0.03200000151991844, 0.01600000075995922, 1.055999994277954, 0.0, 0.0, 0.0, 0.0, 0.0, 1.6206628671707692E9, 2021-05-10 18:07:47.170
4.0, -313.87298583984375, 64.07757568359375, 116.78024291992188, 57.53462219238281, -0.03200000151991844, 0.01600000075995922, 1.055999994277954, 0.0, 0.0, 0.0, 0.0, 0.0, 1.6206628671715343E9, 2021-05-10 18:07:47.171
4.0, -325.22357177734375, 52.498844146728516, 105.01078033447266, 47.567787170410156, -0.03200000151991844, 0.01600000075995922, 1.055999994277954, 0.0, 0.0, 0.0, 0.0, 0.0, 1.6206628671715343E9, 2021-05-10 18:07:47.171
5.0, -336.11041259765625, 40.27311325073242, 88.4579849243164, 37.82160949707031, -0.03200000151991844, 0.01600000075995922, 1.055999994277954, 0.0, 0.0, 0.0, 0.0, 0.0, 1.6206628671722724E9, 2021-05-10 18:07:47.172
5.0, -326.6484680175781, 53.66569519042969, 103.2492904663086, 49.63969039916992, -0.03200000151991844, 0.01600000075995922, 1.055999994277954, 0.0, 0.0, 0.0, 0.0, 0.0, 1.6206628671722724E9, 2021-05-10 18:07:47.172
6.0, -307.72833251953125, 64.91157531738281, 119.11394500732422, 59.819698333740234, -0.03200000151991844, 0.01600000075995922, 1.055999994277954, 0.0, 0.0, 0.0, 0.0, 0.0, 1.6206628671823328E9, 2021-05-10 18:07:47.182
6.0, -320.0662536621094, 57.1325798034668, 107.34073638916016, 54.288387298583984, -0.03200000151991844, 0.01600000075995922, 1.055999994277954, 0.0, 0.0, 0.0, 0.0, 0.0, 1.6206628671823328E9, 2021-05-10 18:07:47.182
7.0, -328.4884948730469, 42.59558868408203, 96.9512939453125, 46.00824737548828, -0.03200000151991844, 0.01600000075995922, 1.055999994277954, 0.0, 0.0, 0.0, 0.0, 0.0, 1.620662867197394E9, 2021-05-10 18:07:47.197
7.0, -325.8556213378906, 47.9174690246582, 101.5476303100586, 47.30599594116211, -0.03200000151991844, 0.01600000075995922, 1.055999994277954, 0.0, 0.0, 0.0, 0.0, 0.0, 1.620662867197394E9, 2021-05-10 18:07:47.197
8.0, -307.17108154296875, 70.44288635253906, 119.41313934326172, 58.63041305541992, -0.03200000151991844, 0.01600000075995922, 1.055999994277954, 0.0, 0.0, 0.0, 0.0, 0.0, 1.620662867213012E9, 2021-05-10 18:07:47.213
8.0, -321.3340759277344, 61.87851333618164, 104.75273132324219, 48.940330505371094, -0.03200000151991844, 0.01600000075995922, 1.055999994277954, 0.0, 0.0, 0.0, 0.0, 0.0, 1.620662867213012E9, 2021-05-10 18:07:47.213
9.0, -337.90557861328125, 41.82891082763672, 90.0848388671875, 42.118751525878906, -0.03200000151991844, 0.01600000075995922, 1.055999994277954, 0.0, 0.0, 0.0, 0.0, 0.0, 1.6206628672137475E9, 2021-05-10 18:07:47.213
9.0, -321.01617431640625, 59.21570587158203, 109.00873565673828, 50.63824462890625, -0.03200000151991844, 0.01600000075995922, 1.055999994277954, 0.0, 0.0, 0.0, 0.0, 0.0, 1.6206628672137475E9, 2021-05-10 18:07:47.213
10.0, -306.1351318359375, 78.177001953125, 126.4815444946289, 58.52569580078125, -0.03200000151991844, 0.01600000075995922, 1.055999994277954, 0.0, 0.0, 0.0, 0.0, 0.0, 1.620662867227314E9, 2021-05-10 18:07:47.227
10.0, -321.83148193359375, 68.99928283691406, 116.42121887207031, 50.35027313232422, -0.03200000151991844, 0.01600000075995922, 1.055999994277954, 0.0, 0.0, 0.0, 0.0, 0.0, 1.620662867227314E9, 2021-05-10 18:07:47.227
11.0, -340.2691955566406, 52.693321228027344, 95.89290618896484, 36.28076934814453, -0.03200000151991844, 0.01600000075995922, 1.055999994277954, 0.0, 0.0, 0.0, 0.0, 0.0, 1.6206628672430649E9, 2021-05-10 18:07:47.243
11.0, -326.6036071777344, 60.92110061645508, 109.10597229003906, 45.54450225830078, -0.03200000151991844, 0.01600000075995922, 1.055999994277954, 0.0, 0.0, 0.0, 0.0, 0.0, 1.6206628672430649E9, 2021-05-10 18:07:47.243
12.0, -314.0450134277344, 78.57342529296875, 123.87109375, 56.36777114868164, -0.03200000151991844, 0.01600000075995922, 1.055999994277954, 0.0, 0.0, 0.0, 0.0, 0.0, 1.6206628672437816E9, 2021-05-10 18:07:47.243
12.0, -317.0032653808594, 62.17770767211914, 115.05241394042969, 51.195491790771484, -0.03200000151991844, 0.01600000075995922, 1.055999994277954, 0.0, 0.0, 0.0, 0.0, 0.0, 1.6206628672437816E9, 2021-05-10 18:07:47.243
13.0, -333.3915100097656, 48.77390670776367, 98.18546295166016, 40.66019058227539, -0.03200000151991844, 0.01600000075995922, 1.055999994277954, 0.0, 0.0, 0.0, 0.0, 0.0, 1.6206628672573552E9, 2021-05-10 18:07:47.257
13.0, -325.75836181640625, 55.976951599121094, 104.61061096191406, 42.86299514770508, -0.03200000151991844, 0.01600000075995922, 1.055999994277954, 0.0, 0.0, 0.0, 0.0, 0.0, 1.6206628672573552E9, 2021-05-10 18:07:47.257
14.0, -303.7752380371094, 75.22248077392578, 127.02757263183594, 57.66177749633789, -0.03200000151991844, 0.01600000075995922, 1.055999994277954, 0.0, 0.0, 0.0, 0.0, 0.0, 1.6206628672730668E9, 2021-05-10 18:07:47.273
14.0, -318.46929931640625, 54.73530578613281, 112.67009735107422, 49.52375411987305, -0.03200000151991844, 0.01600000075995922, 1.055999994277954, 0.0, 0.0, 0.0, 0.0, 0.0, 1.6206628672730668E9, 2021-05-10 18:07:47.273
15.0, -331.2672424316406, 43.766178131103516, 98.43603515625, 41.99159622192383, -0.03200000151991844, 0.01600000075995922, 1.055999994277954, 0.0, 0.0, 0.0, 0.0, 0.0, 1.62066286727379E9, 2021-05-10 18:07:47.273
15.0, -322.2204284667969, 52.92145538330078, 107.88676452636719, 50.911258697509766, -0.03200000151991844, 0.01600000075995922, 1.055999994277954, 0.0, 0.0, 0.0, 0.0, 0.0, 1.62066286727379E9, 2021-05-10 18:07:47.273
16.0, -304.51947021484375, 72.94487762451172, 121.97122955322266, 59.24001693725586, -0.03200000151991844, 0.01600000075995922, 1.055999994277954, 0.0, 0.0, 0.0, 0.0, 0.0, 1.6206628672873275E9, 2021-05-10 18:07:47.287
16.0, -317.35107421875, 65.60345458984375, 115.97616577148438, 51.666717529296875, -0.03200000151991844, 0.01600000075995922, 1.055999994277954, 0.0, 0.0, 0.0, 0.0, 0.0, 1.6206628672873275E9, 2021-05-10 18:07:47.287
17.0, -337.6288146972656, 48.19422149658203, 102.80423736572266, 42.43290328979492, -0.03200000151991844, 0.01600000075995922, 1.055999994277954, 0.0, 0.0, 0.0, 0.0, 0.0, 1.6206628673030615E9, 2021-05-10 18:07:47.303
17.0, -327.620849609375, 62.43949890136719, 107.69976806640625, 47.223716735839844, -0.03200000151991844, 0.01600000075995922, 1.055999994277954, 0.0, 0.0, 0.0, 0.0, 0.0, 1.6206628673030615E9, 2021-05-10 18:07:47.303
18.0, -310.4060974121094, 83.18472290039062, 122.83514404296875, 56.4276123046875, -0.03200000151991844, 0.01600000075995922, 1.055999994277954, 0.0, 0.0, 0.0, 0.0, 0.0, 1.620662867303752E9, 2021-05-10 18:07:47.303
18.0, -319.4229736328125, 70.1885757446289, 112.43074035644531, 49.860347747802734, -0.03200000151991844, 0.01600000075995922, 1.055999994277954, 0.0, 0.0, 0.0, 0.0, 0.0, 1.620662867303752E9, 2021-05-10 18:07:47.303
19.0, -339.5735778808594, 46.88899612426758, 91.6294174194336, 28.026809692382812, -0.03200000151991844, 0.01600000075995922, 1.055999994277954, 0.0, 0.0, 0.0, 0.0, 0.0, 1.6206628673173888E9, 2021-05-10 18:07:47.317
19.0, -315.64569091796875, 63.4642333984375, 109.40142059326172, 32.25663757324219, -0.03200000151991844, 0.01600000075995922, 1.055999994277954, 0.0, 0.0, 0.0, 0.0, 0.0, 1.6206628673173888E9, 2021-05-10 18:07:47.317
20.0, -304.8261413574219, 80.88094329833984, 121.17089080810547, 46.99932098388672, -0.03200000151991844, 0.01600000075995922, 1.055999994277954, 0.0, 0.0, 0.0, 0.0, 0.0, 1.6206628673495257E9, 2021-05-10 18:07:47.349
20.0, -313.3232116699219, 77.02136993408203, 113.96036529541016, 47.702423095703125, -0.03200000151991844, 0.01600000075995922, 1.055999994277954, 0.0, 0.0, 0.0, 0.0, 0.0, 1.6206628673495257E9, 2021-05-10 18:07:47.349
21.0, -330.73992919921875, 56.11532974243164, 100.91184997558594, 28.80097007751465, -0.03200000151991844, 0.01600000075995922, 1.055999994277954, 0.0, 0.0, 0.0, 0.0, 0.0, 1.6206628673501613E9, 2021-05-10 18:07:47.350
21.0, -323.4359130859375, 65.48751831054688, 106.88446807861328, 40.2600212097168, -0.03200000151991844, 0.01600000075995922, 1.055999994277954, 0.0, 0.0, 0.0, 0.0, 0.0, 1.6206628673501613E9, 2021-05-10 18:07:47.350
22.0, -310.7912902832031, 86.7114486694336, 120.99885559082031, 51.04215621948242, -0.04800000041723251, 0.01600000075995922, 1.055999994277954, 0.0, 0.0, 0.0, 0.0, 0.0, 1.6206628673508575E9, 2021-05-10 18:07:47.350
22.0, -320.1186218261719, 65.70817565917969, 113.18620300292969, 50.45125198364258, -0.04800000041723251, 0.01600000075995922, 1.055999994277954, 0.0, 0.0, 0.0, 0.0, 0.0, 1.6206628673508575E9, 2021-05-10 18:07:47.350
23.0, -335.7513732910156, 54.91107940673828, 94.94670867919922, 38.109580993652344, -0.04800000041723251, 0.01600000075995922, 1.055999994277954, 0.0, 0.0, 0.0, 0.0, 0.0, 1.6206628673516824E9, 2021-05-10 18:07:47.351
23.0, -325.085205078125, 63.17626190185547, 110.10078430175781, 47.11899948120117, -0.04800000041723251, 0.01600000075995922, 1.055999994277954, 0.0, 0.0, 0.0, 0.0, 0.0, 1.6206628673516824E9, 2021-05-10 18:07:47.351
24.0, -308.12847900390625, 73.19171142578125, 124.86591339111328, 57.448604583740234, -0.04800000041723251, 0.01600000075995922, 1.055999994277954, 0.0, 0.0, 0.0, 0.0, 0.0, 1.620662867362364E9, 2021-05-10 18:07:47.362
24.0, -320.58984375, 59.410179138183594, 111.01332092285156, 52.65031051635742, -0.04800000041723251, 0.01600000075995922, 1.055999994277954, 0.0, 0.0, 0.0, 0.0, 0.0, 1.620662867362364E9, 2021-05-10 18:07:47.362
25.0, -333.0624084472656, 39.196022033691406, 100.08533477783203, 42.552581787109375, -0.04800000041723251, 0.01600000075995922, 1.055999994277954, 0.0, 0.0, 0.0, 0.0, 0.0, 1.6206628673774147E9, 2021-05-10 18:07:47.377
25.0, -325.48162841796875, 49.72758102416992, 112.87579345703125, 50.140838623046875, -0.04800000041723251, 0.01600000075995922, 1.055999994277954, 0.0, 0.0, 0.0, 0.0, 0.0, 1.6206628673774147E9, 2021-05-10 18:07:47.377
26.0, -312.71734619140625, 75.71988677978516, 123.07823944091797, 58.93334197998047, -0.04800000041723251, 0.01600000075995922, 1.055999994277954, 0.0, 0.0, 0.0, 0.0, 0.0, 1.620662867393705E9, 2021-05-10 18:07:47.393
26.0, -322.3288879394531, 65.35662078857422, 113.53775024414062, 53.32349395751953, -0.04800000041723251, 0.01600000075995922, 1.055999994277954, 0.0, 0.0, 0.0, 0.0, 0.0, 1.620662867393705E9, 2021-05-10 18:07:47.393
27.0, -342.0755615234375, 48.84870147705078, 99.0531234741211, 39.4970817565918, -0.04800000041723251, 0.01600000075995922, 1.055999994277954, 0.0, 0.0, 0.0, 0.0, 0.0, 1.620662867394389E9, 2021-05-10 18:07:47.394
27.0, -332.7781677246094, 58.30316925048828, 100.63883972167969, 44.04106140136719, -0.04800000041723251, 0.01600000075995922, 1.055999994277954, 0.0, 0.0, 0.0, 0.0, 0.0, 1.620662867394389E9, 2021-05-10 18:07:47.394
28.0, -316.7414855957031, 74.01448822021484, 111.33495330810547, 57.018516540527344, -0.04800000041723251, 0.01600000075995922, 1.055999994277954, 0.0, 0.0, 0.0, 0.0, 0.0, 1.6206628674237049E9, 2021-05-10 18:07:47.423
28.0, -318.11029052734375, 66.55339050292969, 111.59300231933594, 50.93369674682617, -0.04800000041723251, 0.01600000075995922, 1.055999994277954, 0.0, 0.0, 0.0, 0.0, 0.0, 1.6206628674237049E9, 2021-05-10 18:07:47.423
29.0, -335.4671630859375, 49.18155288696289, 95.7470474243164, 40.91824722290039, -0.04800000041723251, 0.01600000075995922, 1.055999994277954, 0.0, 0.0, 0.0, 0.0, 0.0, 1.620662867424408E9, 2021-05-10 18:07:47.424
29.0, -324.77105712890625, 66.71794891357422, 101.29705810546875, 39.90847396850586, -0.04800000041723251, 0.01600000075995922, 1.055999994277954, 0.0, 0.0, 0.0, 0.0, 0.0, 1.620662867424408E9, 2021-05-10 18:07:47.424
30.0, -311.13909912109375, 74.56425476074219, 113.26100158691406, 49.669612884521484, -0.04800000041723251, 0.01600000075995922, 1.055999994277954, 0.0, 0.0, 0.0, 0.0, 0.0, 1.620662867425143E9, 2021-05-10 18:07:47.425
30.0, -324.3708801269531, 66.6169662475586, 105.9195785522461, 42.66851806640625, -0.04800000041723251, 0.01600000075995922, 1.055999994277954, 0.0, 0.0, 0.0, 0.0, 0.0, 1.620662867425143E9, 2021-05-10 18:07:47.425
31.0, -338.46282958984375, 57.70478820800781, 92.14926147460938, 32.09955978393555, -0.04800000041723251, 0.01600000075995922, 1.055999994277954, 0.0, 0.0, 0.0, 0.0, 0.0, 1.620662867437362E9, 2021-05-10 18:07:47.437
31.0, -327.37774658203125, 66.87128448486328, 105.97941589355469, 40.83970642089844, -0.04800000041723251, 0.01600000075995922, 1.055999994277954, 0.0, 0.0, 0.0, 0.0, 0.0, 1.620662867437362E9, 2021-05-10 18:07:47.437
32.0, -311.13909912109375, 82.78455352783203, 120.7146224975586, 54.50904083251953, -0.04800000041723251, 0.01600000075995922, 1.055999994277954, 0.0, 0.0, 0.0, 0.0, 0.0, 1.6206628674530308E9, 2021-05-10 18:07:47.453
32.0, -326.33807373046875, 66.30655670166016, 107.14252471923828, 45.4884033203125, -0.04800000041723251, 0.01600000075995922, 1.055999994277954, 0.0, 0.0, 0.0, 0.0, 0.0, 1.6206628674530308E9, 2021-05-10 18:07:47.453
33.0, -337.950439453125, 43.388450622558594, 95.19354248046875, 33.12429428100586, -0.04800000041723251, 0.01600000075995922, 1.055999994277954, 0.0, 0.0, 0.0, 0.0, 0.0, 1.6206628674537282E9, 2021-05-10 18:07:47.453
33.0, -328.9223327636719, 63.65496826171875, 106.7273941040039, 45.645477294921875, -0.04800000041723251, 0.01600000075995922, 1.055999994277954, 0.0, 0.0, 0.0, 0.0, 0.0, 1.6206628674537282E9, 2021-05-10 18:07:47.453
34.0, -310.3836364746094, 77.9825210571289, 124.96315002441406, 55.631011962890625, -0.04800000041723251, 0.01600000075995922, 1.055999994277954, 0.0, 0.0, 0.0, 0.0, 0.0, 1.6206628674673662E9, 2021-05-10 18:07:47.467
34.0, -319.9054260253906, 64.00277709960938, 109.74549102783203, 50.46247100830078, -0.04800000041723251, 0.01600000075995922, 1.055999994277954, 0.0, 0.0, 0.0, 0.0, 0.0, 1.6206628674673662E9, 2021-05-10 18:07:47.467
35.0, -338.30572509765625, 49.17033386230469, 93.177734375, 45.264007568359375, -0.04800000041723251, 0.01600000075995922, 1.055999994277954, 0.0, 0.0, 0.0, 0.0, 0.0, 1.6206628674830184E9, 2021-05-10 18:07:47.483
35.0, -331.0914611816406, 62.29738235473633, 105.24639129638672, 44.254234313964844, -0.04800000041723251, 0.01600000075995922, 1.055999994277954, 0.0, 0.0, 0.0, 0.0, 0.0, 1.6206628674830184E9, 2021-05-10 18:07:47.483
36.0, -314.063720703125, 81.06420135498047, 117.93961334228516, 55.399139404296875, -0.04800000041723251, 0.01600000075995922, 1.055999994277954, 0.0, 0.0, 0.0, 0.0, 0.0, 1.6206628674837396E9, 2021-05-10 18:07:47.483
36.0, -321.4163513183594, 69.02546691894531, 111.02454376220703, 52.190303802490234, -0.04800000041723251, 0.01600000075995922, 1.055999994277954, 0.0, 0.0, 0.0, 0.0, 0.0, 1.6206628674837396E9, 2021-05-10 18:07:47.483
37.0, -341.9297180175781, 47.1956672668457, 90.84030151367188, 29.365694046020508, -0.04800000041723251, 0.01600000075995922, 1.055999994277954, 0.0, 0.0, 0.0, 0.0, 0.0, 1.620662867497314E9, 2021-05-10 18:07:47.497
37.0, -328.1219787597656, 58.089996337890625, 99.56548309326172, 42.74705505371094, -0.04800000041723251, 0.01600000075995922, 1.055999994277954, 0.0, 0.0, 0.0, 0.0, 0.0, 1.620662867497314E9, 2021-05-10 18:07:47.497
38.0, -309.4037780761719, 75.72362518310547, 118.85588836669922, 52.94202423095703, -0.04800000041723251, 0.01600000075995922, 1.055999994277954, 0.0, 0.0, 0.0, 0.0, 0.0, 1.620662867513052E9, 2021-05-10 18:07:47.513
38.0, -322.186767578125, 60.816383361816406, 104.8985824584961, 38.52845001220703, -0.04800000041723251, 0.01600000075995922, 1.055999994277954, 0.0, 0.0, 0.0, 0.0, 0.0, 1.620662867513052E9, 2021-05-10 18:07:47.513
39.0, -332.0526123046875, 54.903602600097656, 89.0414047241211, 28.266164779663086, -0.04800000041723251, 0.01600000075995922, 1.055999994277954, 0.0, 0.0, 0.0, 0.0, 0.0, 1.6206628675137317E9, 2021-05-10 18:07:47.513
39.0, -327.84149169921875, 62.21510696411133, 102.59480285644531, 34.25374221801758, -0.04800000041723251, 0.01600000075995922, 1.055999994277954, 0.0, 0.0, 0.0, 0.0, 0.0, 1.6206628675137317E9, 2021-05-10 18:07:47.513
40.0, -306.7596740722656, 81.0342788696289, 121.27560424804688, 48.805694580078125, -0.04800000041723251, 0.01600000075995922, 1.055999994277954, 0.0, 0.0, 0.0, 0.0, 0.0, 1.6206628675273147E9, 2021-05-10 18:07:47.527
40.0, -323.6789855957031, 60.513450622558594, 103.10343170166016, 36.31068801879883, -0.04800000041723251, 0.01600000075995922, 1.055999994277954, 0.0, 0.0, 0.0, 0.0, 0.0, 1.6206628675273147E9, 2021-05-10 18:07:47.527
41.0, -336.8583984375, 46.56362533569336, 87.90447998046875, 26.14937973022461, -0.04800000041723251, 0.01600000075995922, 1.055999994277954, 0.0, 0.0, 0.0, 0.0, 0.0, 1.6206628675430727E9, 2021-05-10 18:07:47.543
41.0, -324.6925048828125, 59.2792854309082, 101.83934783935547, 35.95166015625, -0.04800000041723251, 0.01600000075995922, 1.055999994277954, 0.0, 0.0, 0.0, 0.0, 0.0, 1.6206628675430727E9, 2021-05-10 18:07:47.543
42.0, -313.97021484375, 78.42383575439453, 120.62112426757812, 56.95493698120117, -0.04800000041723251, 0.01600000075995922, 1.055999994277954, 0.0, 0.0, 0.0, 0.0, 0.0, 1.6206628675437343E9, 2021-05-10 18:07:47.543
42.0, -320.4215393066406, 65.43889617919922, 109.01995086669922, 44.085941314697266, -0.04800000041723251, 0.01600000075995922, 1.055999994277954, 0.0, 0.0, 0.0, 0.0, 0.0, 1.6206628675437343E9, 2021-05-10 18:07:47.543
43.0, -335.86358642578125, 44.08781051635742, 96.7867431640625, 30.854175567626953, -0.04800000041723251, 0.01600000075995922, 1.055999994277954, 0.0, 0.0, 0.0, 0.0, 0.0, 1.6206628675573297E9, 2021-05-10 18:07:47.557
43.0, -325.1786804199219, 53.759193420410156, 107.62870788574219, 40.51433563232422, -0.04800000041723251, 0.01600000075995922, 1.055999994277954, 0.0, 0.0, 0.0, 0.0, 0.0, 1.6206628675573297E9, 2021-05-10 18:07:47.557
44.0, -312.84075927734375, 70.6074447631836, 115.37030029296875, 53.18137741088867, -0.04800000041723251, 0.01600000075995922, 1.055999994277954, 0.0, 0.0, 0.0, 0.0, 0.0, 1.620662867573073E9, 2021-05-10 18:07:47.573
44.0, -315.5185241699219, 63.927978515625, 106.74983215332031, 49.98002243041992, -0.04800000041723251, 0.01600000075995922, 1.055999994277954, 0.0, 0.0, 0.0, 0.0, 0.0, 1.620662867573073E9, 2021-05-10 18:07:47.573
45.0, -338.5712585449219, 43.4819450378418, 89.33686065673828, 38.640647888183594, -0.04800000041723251, 0.01600000075995922, 1.055999994277954, 0.0, 0.0, 0.0, 0.0, 0.0, 1.6206628675737836E9, 2021-05-10 18:07:47.573
45.0, -331.2635192871094, 56.75859069824219, 103.05107116699219, 50.52604675292969, -0.04800000041723251, 0.01600000075995922, 1.055999994277954, 0.0, 0.0, 0.0, 0.0, 0.0, 1.6206628675737836E9, 2021-05-10 18:07:47.573
46.0, -319.815673828125, 72.6830825805664, 119.09524536132812, 56.64826583862305, -0.04800000041723251, 0.01600000075995922, 1.055999994277954, 0.0, 0.0, 0.0, 0.0, 0.0, 1.6206628675873063E9, 2021-05-10 18:07:47.587
46.0, -328.05841064453125, 63.677406311035156, 103.80279541015625, 49.392860412597656, -0.04800000041723251, 0.01600000075995922, 1.055999994277954, 0.0, 0.0, 0.0, 0.0, 0.0, 1.6206628675873063E9, 2021-05-10 18:07:47.587
47.0, -340.44122314453125, 49.57424545288086, 84.79662322998047, 30.730758666992188, -0.04800000041723251, 0.01600000075995922, 1.055999994277954, 0.0, 0.0, 0.0, 0.0, 0.0, 1.6206628676030447E9, 2021-05-10 18:07:47.603
47.0, -334.20306396484375, 62.966827392578125, 98.82124328613281, 37.22322463989258, -0.04800000041723251, 0.01600000075995922, 1.055999994277954, 0.0, 0.0, 0.0, 0.0, 0.0, 1.6206628676030447E9, 2021-05-10 18:07:47.603
48.0, -312.45928955078125, 73.96587371826172, 113.33206176757812, 49.50131607055664, -0.04800000041723251, 0.01600000075995922, 1.055999994277954, 0.0, 0.0, 0.0, 0.0, 0.0, 1.620662867603774E9, 2021-05-10 18:07:47.603
48.0, -323.7575378417969, 65.71565246582031, 109.68565368652344, 45.28644943237305, -0.04800000041723251, 0.01600000075995922, 1.055999994277954, 0.0, 0.0, 0.0, 0.0, 0.0, 1.620662867603774E9, 2021-05-10 18:07:47.603
49.0, -342.44207763671875, 50.08287048339844, 92.93464660644531, 30.768156051635742, -0.04800000041723251, 0.01600000075995922, 1.055999994277954, 0.0, 0.0, 0.0, 0.0, 0.0, 1.620662867617363E9, 2021-05-10 18:07:47.617
49.0, -333.4289245605469, 58.505123138427734, 100.09281158447266, 36.490203857421875, -0.04800000041723251, 0.01600000075995922, 1.055999994277954, 0.0, 0.0, 0.0, 0.0, 0.0, 1.620662867617363E9, 2021-05-10 18:07:47.617
50.0, -315.1258544921875, 72.91121673583984, 120.53884887695312, 51.9210319519043, -0.04800000041723251, 0.01600000075995922, 1.055999994277954, 0.0, 0.0, 0.0, 0.0, 0.0, 1.6206628676327908E9, 2021-05-10 18:07:47.632
50.0, -321.43878173828125, 63.30341720581055, 110.25785827636719, 42.91535186767578, -0.04800000041723251, 0.01600000075995922, 1.055999994277954, 0.0, 0.0, 0.0, 0.0, 0.0, 1.6206628676327908E9, 2021-05-10 18:07:47.632
51.0, -339.36785888671875, 45.50149154663086, 91.83885192871094, 31.51987648010254, -0.04800000041723251, 0.01600000075995922, 1.055999994277954, 0.0, 0.0, 0.0, 0.0, 0.0, 1.6206628676644175E9, 2021-05-10 18:07:47.664
51.0, -321.2069091796875, 53.269264221191406, 109.68939208984375, 44.46366882324219, -0.04800000041723251, 0.01600000075995922, 1.055999994277954, 0.0, 0.0, 0.0, 0.0, 0.0, 1.6206628676644175E9, 2021-05-10 18:07:47.664
52.0, -303.4349060058594, 73.75643920898438, 123.65044403076172, 53.731143951416016, -0.04800000041723251, 0.01600000075995922, 1.055999994277954, 0.0, 0.0, 0.0, 0.0, 0.0, 1.6206628676651905E9, 2021-05-10 18:07:47.665
52.0, -324.9879455566406, 55.277591705322266, 110.08208465576172, 47.3658332824707, -0.04800000041723251, 0.01600000075995922, 1.055999994277954, 0.0, 0.0, 0.0, 0.0, 0.0, 1.6206628676651905E9, 2021-05-10 18:07:47.665
53.0, -338.455322265625, 39.506431579589844, 95.17110443115234, 43.64463424682617, -0.04800000041723251, 0.01600000075995922, 1.055999994277954, 0.0, 0.0, 0.0, 0.0, 0.0, 1.6206628676658857E9, 2021-05-10 18:07:47.665
53.0, -331.2522888183594, 53.28422546386719, 104.08328247070312, 48.49154281616211, -0.04800000041723251, 0.01600000075995922, 1.055999994277954, 0.0, 0.0, 0.0, 0.0, 0.0, 1.6206628676658857E9, 2021-05-10 18:07:47.665
54.0, -320.07373046875, 71.78550720214844, 118.33604431152344, 57.530879974365234, -0.04800000041723251, 0.01600000075995922, 1.055999994277954, 0.0, 0.0, 0.0, 0.0, 0.0, 1.620662867666654E9, 2021-05-10 18:07:47.666
54.0, -331.82073974609375, 55.023277282714844, 106.75357055664062, 48.82439422607422, -0.04800000041723251, 0.01600000075995922, 1.055999994277954, 0.0, 0.0, 0.0, 0.0, 0.0, 1.620662867666654E9, 2021-05-10 18:07:47.666
55.0, -342.1578369140625, 41.16695022583008, 84.4039306640625, 35.80206298828125, -0.04800000041723251, 0.01600000075995922, 1.055999994277954, 0.0, 0.0, 0.0, 0.0, 0.0, 1.6206628676774447E9, 2021-05-10 18:07:47.677
55.0, -329.33746337890625, 54.690425872802734, 98.53701782226562, 46.845985412597656, -0.04800000041723251, 0.01600000075995922, 1.055999994277954, 0.0, 0.0, 0.0, 0.0, 0.0, 1.6206628676774447E9, 2021-05-10 18:07:47.677
56.0, -315.2791748046875, 74.8073501586914, 119.46923065185547, 57.785194396972656, -0.04800000041723251, 0.01600000075995922, 1.055999994277954, 0.0, 0.0, 0.0, 0.0, 0.0, 1.6206628676930325E9, 2021-05-10 18:07:47.693
56.0, -327.456298828125, 59.11846923828125, 104.98460388183594, 48.72341537475586, -0.04800000041723251, 0.01600000075995922, 1.055999994277954, 0.0, 0.0, 0.0, 0.0, 0.0, 1.6206628676930325E9, 2021-05-10 18:07:47.693
57.0, -344.8206481933594, 47.38640213012695, 86.04574584960938, 29.23853874206543, -0.04800000041723251, 0.01600000075995922, 1.055999994277954, 0.0, 0.0, 0.0, 0.0, 0.0, 1.6206628676937337E9, 2021-05-10 18:07:47.693
57.0, -320.6085205078125, 61.71022033691406, 113.09270477294922, 44.882537841796875, -0.04800000041723251, 0.01600000075995922, 1.055999994277954, 0.0, 0.0, 0.0, 0.0, 0.0, 1.6206628676937337E9, 2021-05-10 18:07:47.693
58.0, -307.86669921875, 72.62698364257812, 127.42774200439453, 55.664669036865234, -0.04800000041723251, 0.01600000075995922, 1.055999994277954, 0.0, 0.0, 0.0, 0.0, 0.0, 1.6206628677073736E9, 2021-05-10 18:07:47.707
58.0, -320.2083740234375, 57.525272369384766, 115.22818756103516, 42.90787124633789, -0.04800000041723251, 0.01600000075995922, 1.055999994277954, 0.0, 0.0, 0.0, 0.0, 0.0, 1.6206628677073736E9, 2021-05-10 18:07:47.707
59.0, -333.8477783203125, 51.399314880371094, 98.36123657226562, 35.45425033569336, -0.04800000041723251, 0.01600000075995922, 1.055999994277954, 0.0, 0.0, 0.0, 0.0, 0.0, 1.6206628677230134E9, 2021-05-10 18:07:47.723
59.0, -321.2405700683594, 66.32151794433594, 115.7143783569336, 42.227210998535156, -0.04800000041723251, 0.01600000075995922, 1.055999994277954, 0.0, 0.0, 0.0, 0.0, 0.0, 1.6206628677230134E9, 2021-05-10 18:07:47.723
60.0, -312.16009521484375, 73.01219940185547, 123.10441589355469, 52.78868865966797, -0.04800000041723251, 0.01600000075995922, 1.055999994277954, 0.0, 0.0, 0.0, 0.0, 0.0, 1.6206628677237277E9, 2021-05-10 18:07:47.723
60.0, -320.39910888671875, 59.7617301940918, 117.3861083984375, 48.573822021484375, -0.04800000041723251, 0.01600000075995922, 1.055999994277954, 0.0, 0.0, 0.0, 0.0, 0.0, 1.6206628677237277E9, 2021-05-10 18:07:47.723
61.0, -332.8903503417969, 43.51560592651367, 101.1661605834961, 36.864192962646484, -0.04800000041723251, 0.01600000075995922, 1.055999994277954, 0.0, 0.0, 0.0, 0.0, 0.0, 1.620662867737347E9, 2021-05-10 18:07:47.737
61.0, -327.7816467285156, 54.10700225830078, 107.08268737792969, 44.39261245727539, -0.04800000041723251, 0.01600000075995922, 1.055999994277954, 0.0, 0.0, 0.0, 0.0, 0.0, 1.620662867737347E9, 2021-05-10 18:07:47.737
62.0, -317.5306091308594, 72.86260223388672, 122.80896759033203, 56.760459899902344, -0.04800000041723251, 0.01600000075995922, 1.055999994277954, 0.0, 0.0, 0.0, 0.0, 0.0, 1.6206628677534194E9, 2021-05-10 18:07:47.753
62.0, -324.7785339355469, 63.72602462768555, 107.9092025756836, 51.1580924987793, -0.04800000041723251, 0.01600000075995922, 1.055999994277954, 0.0, 0.0, 0.0, 0.0, 0.0, 1.6206628677534194E9, 2021-05-10 18:07:47.753
63.0, -347.8574523925781, 52.85787582397461, 93.97059631347656, 34.964324951171875, -0.04800000041723251, 0.01600000075995922, 1.055999994277954, 0.0, 0.0, 0.0, 0.0, 0.0, 1.6206628677681055E9, 2021-05-10 18:07:47.768
63.0, -336.27496337890625, 67.88479614257812, 94.69613647460938, 41.25483703613281, -0.04800000041723251, 0.01600000075995922, 1.055999994277954, 0.0, 0.0, 0.0, 0.0, 0.0, 1.6206628677681055E9, 2021-05-10 18:07:47.768
64.0, -323.8136291503906, 76.50526428222656, 107.8082275390625, 51.79387283325195, -0.04800000041723251, 0.01600000075995922, 1.055999994277954, 0.0, 0.0, 0.0, 0.0, 0.0, 1.6206628677687817E9, 2021-05-10 18:07:47.768
64.0, -336.7349853515625, 67.98950958251953, 96.53617095947266, 43.12104797363281, -0.04800000041723251, 0.01600000075995922, 1.055999994277954, 0.0, 0.0, 0.0, 0.0, 0.0, 1.6206628677687817E9, 2021-05-10 18:07:47.768
65.0, -347.14312744140625, 57.77958297729492, 84.703125, 34.88578796386719, -0.04800000041723251, 0.01600000075995922, 1.055999994277954, 0.0, 0.0, 0.0, 0.0, 0.0, 1.6206628677831223E9, 2021-05-10 18:07:47.783
65.0, -332.94647216796875, 70.57378387451172, 102.8715591430664, 48.53642272949219, -0.04800000041723251, 0.01600000075995922, 1.055999994277954, 0.0, 0.0, 0.0, 0.0, 0.0, 1.6206628677831223E9, 2021-05-10 18:07:47.783
66.0, -319.88671875, 73.11317443847656, 115.10851287841797, 53.241214752197266, -0.04800000041723251, 0.01600000075995922, 1.055999994277954, 0.0, 0.0, 0.0, 0.0, 0.0, 1.6206628677837496E9, 2021-05-10 18:07:47.783
66.0, -326.1847229003906, 64.21968841552734, 106.49552154541016, 49.7144889831543, -0.04800000041723251, 0.01600000075995922, 1.055999994277954, 0.0, 0.0, 0.0, 0.0, 0.0, 1.6206628677837496E9, 2021-05-10 18:07:47.783
67.0, -338.8966369628906, 42.30013656616211, 90.83656311035156, 35.932960510253906, -0.04800000041723251, 0.01600000075995922, 1.055999994277954, 0.0, 0.0, 0.0, 0.0, 0.0, 1.6206628677973812E9, 2021-05-10 18:07:47.797
67.0, -326.270751953125, 60.17686080932617, 102.54618835449219, 45.31262969970703, -0.04800000041723251, 0.01600000075995922, 1.055999994277954, 0.0, 0.0, 0.0, 0.0, 0.0, 1.6206628677973812E9, 2021-05-10 18:07:47.797
68.0, -308.0649108886719, 75.9517593383789, 121.32048797607422, 55.85914611816406, -0.04800000041723251, 0.01600000075995922, 1.055999994277954, 0.0, 0.0, 0.0, 0.0, 0.0, 1.6206628678133135E9, 2021-05-10 18:07:47.813
68.0, -322.24285888671875, 63.93545913696289, 107.8718032836914, 46.37849807739258, -0.04800000041723251, 0.01600000075995922, 1.055999994277954, 0.0, 0.0, 0.0, 0.0, 0.0, 1.6206628678133135E9, 2021-05-10 18:07:47.813
69.0, -334.5994873046875, 46.60102462768555, 94.08279418945312, 31.37775993347168, -0.04800000041723251, 0.01600000075995922, 1.055999994277954, 0.0, 0.0, 0.0, 0.0, 0.0, 1.6206628678139424E9, 2021-05-10 18:07:47.813
69.0, -323.5780029296875, 58.78561782836914, 110.4373779296875, 43.214542388916016, -0.04800000041723251, 0.01600000075995922, 1.055999994277954, 0.0, 0.0, 0.0, 0.0, 0.0, 1.6206628678139424E9, 2021-05-10 18:07:47.813
70.0, -309.9722595214844, 74.27254486083984, 124.24508666992188, 49.131065368652344, -0.04800000041723251, 0.01600000075995922, 1.055999994277954, 0.0, 0.0, 0.0, 0.0, 0.0, 1.6206628678273387E9, 2021-05-10 18:07:47.827
70.0, -322.0184631347656, 58.38544845581055, 108.41783142089844, 40.5704345703125, -0.04800000041723251, 0.01600000075995922, 1.055999994277954, 0.0, 0.0, 0.0, 0.0, 0.0, 1.6206628678273387E9, 2021-05-10 18:07:47.827
71.0, -347.17303466796875, 48.18300247192383, 85.36134338378906, 34.294883728027344, -0.04800000041723251, 0.01600000075995922, 1.055999994277954, 0.0, 0.0, 0.0, 0.0, 0.0, 1.6206628678757865E9, 2021-05-10 18:07:47.875
71.0, -332.10498046875, 61.93087387084961, 105.90461730957031, 44.95359802246094, -0.04800000041723251, 0.01600000075995922, 1.055999994277954, 0.0, 0.0, 0.0, 0.0, 0.0, 1.6206628678757865E9, 2021-05-10 18:07:47.875
72.0, -317.6726989746094, 75.01678466796875, 113.75840759277344, 54.73717498779297, -0.04800000041723251, 0.01600000075995922, 1.055999994277954, 0.0, 0.0, 0.0, 0.0, 0.0, 1.620662867876484E9, 2021-05-10 18:07:47.876
72.0, -333.58599853515625, 63.722286224365234, 100.21248626708984, 45.33506774902344, -0.04800000041723251, 0.01600000075995922, 1.055999994277954, 0.0, 0.0, 0.0, 0.0, 0.0, 1.620662867876484E9, 2021-05-10 18:07:47.876
73.0, -343.22369384765625, 47.476158142089844, 87.0106430053711, 40.361000061035156, -0.04800000041723251, 0.01600000075995922, 1.055999994277954, 0.0, 0.0, 0.0, 0.0, 0.0, 1.6206628678772347E9, 2021-05-10 18:07:47.877
73.0, -330.5155334472656, 58.34431076049805, 102.31805419921875, 49.15350341796875, -0.04800000041723251, 0.01600000075995922, 1.055999994277954, 0.0, 0.0, 0.0, 0.0, 0.0, 1.6206628678772347E9, 2021-05-10 18:07:47.877
74.0, -310.71649169921875, 73.52082061767578, 123.23905181884766, 61.0351676940918, -0.04800000041723251, 0.01600000075995922, 1.055999994277954, 0.0, 0.0, 0.0, 0.0, 0.0, 1.6206628678780127E9, 2021-05-10 18:07:47.878
74.0, -325.2160949707031, 63.98781967163086, 107.28089904785156, 48.5289421081543, -0.04800000041723251, 0.01600000075995922, 1.055999994277954, 0.0, 0.0, 0.0, 0.0, 0.0, 1.6206628678780127E9, 2021-05-10 18:07:47.878
75.0, -342.3560485839844, 39.570011138916016, 93.87335968017578, 34.534236907958984, -0.04800000041723251, 0.01600000075995922, 1.055999994277954, 0.0, 0.0, 0.0, 0.0, 0.0, 1.6206628678881052E9, 2021-05-10 18:07:47.888
75.0, -324.31103515625, 59.87018966674805, 109.68191528320312, 47.73982238769531, -0.04800000041723251, 0.01600000075995922, 1.055999994277954, 0.0, 0.0, 0.0, 0.0, 0.0, 1.6206628678881052E9, 2021-05-10 18:07:47.888
