Sample Index, EXG Channel 0, EXG Channel 1, EXG Channel 2, EXG Channel 3, Accel Channel 0, Accel Channel 1, Accel Channel 2, Other, Other, Other, Other, Other, Timestamp, Timestamp (Formatted)
0.0, -341.6192932128906, 74.70449829101562, 96.35104370117188, -35.577667236328125, 0.0, 0.0, 0.0, 0.0, 0.0, 0.0, 0.0, 0.0, 1.6206616710857484E9, 2021-05-10 17:47:51.085
1.0, -316.84619140625, 102.34984588623047, 121.32235717773438, -16.728572845458984, 0.0, 0.01600000075995922, 0.0, 0.0, 0.0, 0.0, 0.0, 0.0, 1.6206616710989203E9, 2021-05-10 17:47:51.098
1.0, -303.6892395019531, 104.87053680419922, 126.37496185302734, -9.892035484313965, 0.0, 0.01600000075995922, 0.0, 0.0, 0.0, 0.0, 0.0, 0.0, 1.6206616710989203E9, 2021-05-10 17:47:51.098
2.0, -334.2890930175781, 67.81934356689453, 102.0394287109375, -26.123201370239258, -0.03200000151991844, 0.01600000075995922, 0.0, 0.0, 0.0, 0.0, 0.0, 0.0, 1.6206616711156785E9, 2021-05-10 17:47:51.115
2.0, -338.3094787597656, 75.32906341552734, 99.55239868164062, -30.854175567626953, -0.03200000151991844, 0.01600000075995922, 0.0, 0.0, 0.0, 0.0, 0.0, 0.0, 1.6206616711156785E9, 2021-05-10 17:47:51.115
3.0, -314.9500732421875, 101.10445404052734, 117.23090362548828, -14.23405933380127, -0.03200000151991844, 0.01600000075995922, 0.0, 0.0, 0.0, 0.0, 0.0, 0.0, 1.6206616711163952E9, 2021-05-10 17:47:51.116
3.0, -306.082763671875, 92.24089050292969, 123.03897094726562, -16.672473907470703, -0.03200000151991844, 0.01600000075995922, 0.0, 0.0, 0.0, 0.0, 0.0, 0.0, 1.6206616711163952E9, 2021-05-10 17:47:51.116
4.0, -331.6038513183594, 78.4518814086914, 96.1939697265625, -31.987363815307617, -0.03200000151991844, 0.01600000075995922, 0.0, 0.0, 0.0, 0.0, 0.0, 0.0, 1.6206616711288238E9, 2021-05-10 17:47:51.128
4.0, -335.1044006347656, 72.65129852294922, 96.09298706054688, -33.10185623168945, -0.03200000151991844, 0.01600000075995922, 0.0, 0.0, 0.0, 0.0, 0.0, 0.0, 1.6206616711288238E9, 2021-05-10 17:47:51.128
5.0, -311.8796081542969, 86.04387664794922, 113.94353485107422, -20.988319396972656, -0.03200000151991844, 0.01600000075995922, 0.0, 0.0, 0.0, 0.0, 0.0, 0.0, 1.6206616711445262E9, 2021-05-10 17:47:51.144
5.0, -307.6273498535156, 89.64913940429688, 119.9460678100586, -17.951519012451172, -0.03200000151991844, 0.01600000075995922, 0.0, 0.0, 0.0, 0.0, 0.0, 0.0, 1.6206616711445262E9, 2021-05-10 17:47:51.144
6.0, -328.8138732910156, 60.70979690551758, 96.88584899902344, -31.78915023803711, -0.03200000151991844, 0.01600000075995922, 0.0, 0.0, 0.0, 0.0, 0.0, 0.0, 1.6206616711452718E9, 2021-05-10 17:47:51.145
6.0, -333.4700622558594, 63.09585189819336, 98.01903533935547, -37.41395950317383, -0.03200000151991844, 0.01600000075995922, 0.0, 0.0, 0.0, 0.0, 0.0, 0.0, 1.6206616711452718E9, 2021-05-10 17:47:51.145
7.0, -310.836181640625, 84.03181457519531, 116.26600646972656, -21.21645164489746, -0.03200000151991844, 0.01600000075995922, 0.0, 0.0, 0.0, 0.0, 0.0, 0.0, 1.6206616711587782E9, 2021-05-10 17:47:51.158
7.0, -302.2456359863281, 91.77340698242188, 129.38931274414062, -8.54941177368164, -0.03200000151991844, 0.01600000075995922, 0.0, 0.0, 0.0, 0.0, 0.0, 0.0, 1.6206616711587782E9, 2021-05-10 17:47:51.158
8.0, -325.6499328613281, 70.2203598022461, 112.30919647216797, -28.542917251586914, -0.03200000151991844, 0.01600000075995922, 0.0, 0.0, 0.0, 0.0, 0.0, 0.0, 1.6206616711745825E9, 2021-05-10 17:47:51.174
8.0, -338.7619934082031, 66.4281005859375, 104.07393646240234, -31.13092803955078, -0.03200000151991844, 0.01600000075995922, 0.0, 0.0, 0.0, 0.0, 0.0, 0.0, 1.6206616711745825E9, 2021-05-10 17:47:51.174
9.0, -313.1025695800781, 78.92311096191406, 134.0941162109375, -7.928587913513184, -0.03200000151991844, 0.01600000075995922, 0.0, 0.0, 0.0, 0.0, 0.0, 0.0, 1.6206616711753464E9, 2021-05-10 17:47:51.175
9.0, -305.48065185546875, 88.50846862792969, 128.8358154296875, -10.381961822509766, -0.03200000151991844, 0.01600000075995922, 0.0, 0.0, 0.0, 0.0, 0.0, 0.0, 1.6206616711753464E9, 2021-05-10 17:47:51.175
10.0, -329.8610534667969, 68.6159439086914, 106.38893127441406, -30.274490356445312, -0.03200000151991844, 0.01600000075995922, 1.055999994277954, 0.0, 0.0, 0.0, 0.0, 0.0, 1.6206616711887305E9, 2021-05-10 17:47:51.188
10.0, -330.003173828125, 66.2859878540039, 109.9081802368164, -28.34844207763672, -0.03200000151991844, 0.01600000075995922, 1.055999994277954, 0.0, 0.0, 0.0, 0.0, 0.0, 1.6206616711887305E9, 2021-05-10 17:47:51.188
11.0, -308.80914306640625, 99.23076629638672, 138.32020568847656, -9.323570251464844, -0.03200000151991844, 0.01600000075995922, 1.055999994277954, 0.0, 0.0, 0.0, 0.0, 0.0, 1.6206616712046392E9, 2021-05-10 17:47:51.204
11.0, -306.7185363769531, 89.52572631835938, 132.02969360351562, -15.8309965133667, -0.03200000151991844, 0.01600000075995922, 1.055999994277954, 0.0, 0.0, 0.0, 0.0, 0.0, 1.6206616712046392E9, 2021-05-10 17:47:51.204
12.0, -328.4623107910156, 66.47672271728516, 113.07587432861328, -35.55896759033203, -0.03200000151991844, 0.01600000075995922, 1.055999994277954, 0.0, 0.0, 0.0, 0.0, 0.0, 1.6206616712053852E9, 2021-05-10 17:47:51.205
12.0, -328.06964111328125, 62.553565979003906, 107.85123443603516, -34.17520523071289, -0.03200000151991844, 0.01600000075995922, 1.055999994277954, 0.0, 0.0, 0.0, 0.0, 0.0, 1.6206616712053852E9, 2021-05-10 17:47:51.205
13.0, -298.1728820800781, 85.90550231933594, 135.21234130859375, -13.863809585571289, -0.03200000151991844, 0.01600000075995922, 1.055999994277954, 0.0, 0.0, 0.0, 0.0, 0.0, 1.6206616712188032E9, 2021-05-10 17:47:51.218
13.0, -301.493896484375, 87.10601043701172, 131.97732543945312, -22.308504104614258, -0.03200000151991844, 0.01600000075995922, 1.055999994277954, 0.0, 0.0, 0.0, 0.0, 0.0, 1.6206616712188032E9, 2021-05-10 17:47:51.218
14.0, -319.97650146484375, 58.634151458740234, 110.11761474609375, -36.17605209350586, -0.03200000151991844, 0.01600000075995922, 1.055999994277954, 0.0, 0.0, 0.0, 0.0, 0.0, 1.6206616712344916E9, 2021-05-10 17:47:51.234
14.0, -326.7943420410156, 54.916690826416016, 104.9864730834961, -36.32190704345703, -0.03200000151991844, 0.01600000075995922, 1.055999994277954, 0.0, 0.0, 0.0, 0.0, 0.0, 1.6206616712344916E9, 2021-05-10 17:47:51.234
15.0, -306.9728698730469, 88.7889633178711, 134.19883728027344, -11.586210250854492, -0.03200000151991844, 0.01600000075995922, 1.055999994277954, 0.0, 0.0, 0.0, 0.0, 0.0, 1.6206616712352126E9, 2021-05-10 17:47:51.235
15.0, -305.3684387207031, 87.75301361083984, 135.30958557128906, -5.161061763763428, -0.03200000151991844, 0.01600000075995922, 1.055999994277954, 0.0, 0.0, 0.0, 0.0, 0.0, 1.6206616712352126E9, 2021-05-10 17:47:51.235
16.0, -329.0756530761719, 58.05820846557617, 110.54396057128906, -24.069995880126953, -0.03200000151991844, 0.01600000075995922, 1.055999994277954, 0.0, 0.0, 0.0, 0.0, 0.0, 1.620661671248865E9, 2021-05-10 17:47:51.248
16.0, -337.4979248046875, 67.83056640625, 104.15247344970703, -31.048648834228516, -0.03200000151991844, 0.01600000075995922, 1.055999994277954, 0.0, 0.0, 0.0, 0.0, 0.0, 1.620661671248865E9, 2021-05-10 17:47:51.248
17.0, -313.9103698730469, 75.0971908569336, 121.36723327636719, -18.41900634765625, -0.03200000151991844, 0.01600000075995922, 1.055999994277954, 0.0, 0.0, 0.0, 0.0, 0.0, 1.6206616712645175E9, 2021-05-10 17:47:51.264
17.0, -307.0738220214844, 78.38082122802734, 127.5343246459961, -14.15178108215332, -0.03200000151991844, 0.01600000075995922, 1.055999994277954, 0.0, 0.0, 0.0, 0.0, 0.0, 1.6206616712645175E9, 2021-05-10 17:47:51.264
18.0, -328.7166442871094, 61.255821228027344, 104.74337768554688, -32.72786331176758, -0.03200000151991844, 0.01600000075995922, 1.055999994277954, 0.0, 0.0, 0.0, 0.0, 0.0, 1.6206616712652032E9, 2021-05-10 17:47:51.265
18.0, -329.0233154296875, 70.95338439941406, 98.6660385131836, -39.594322204589844, -0.03200000151991844, 0.01600000075995922, 1.055999994277954, 0.0, 0.0, 0.0, 0.0, 0.0, 1.6206616712652032E9, 2021-05-10 17:47:51.265
19.0, -310.5332336425781, 89.07693481445312, 126.72277069091797, -15.733758926391602, -0.03200000151991844, 0.01600000075995922, 1.055999994277954, 0.0, 0.0, 0.0, 0.0, 0.0, 1.6206616712788978E9, 2021-05-10 17:47:51.278
19.0, -309.8488464355469, 81.72055053710938, 133.44337463378906, -7.0796308517456055, -0.03200000151991844, 0.01600000075995922, 1.055999994277954, 0.0, 0.0, 0.0, 0.0, 0.0, 1.6206616712788978E9, 2021-05-10 17:47:51.278
20.0, -331.1288757324219, 74.3978271484375, 111.5350341796875, -23.707225799560547, -0.03200000151991844, 0.01600000075995922, 1.055999994277954, 0.0, 0.0, 0.0, 0.0, 0.0, 1.6206616712949047E9, 2021-05-10 17:47:51.294
20.0, -332.3106689453125, 71.52184295654297, 112.64952850341797, -14.626749038696289, -0.03200000151991844, 0.01600000075995922, 1.055999994277954, 0.0, 0.0, 0.0, 0.0, 0.0, 1.6206616712949047E9, 2021-05-10 17:47:51.294
21.0, -313.4167175292969, 84.45442199707031, 130.55990600585938, -6.346610069274902, -0.03200000151991844, 0.01600000075995922, 1.055999994277954, 0.0, 0.0, 0.0, 0.0, 0.0, 1.6206616713092427E9, 2021-05-10 17:47:51.309
21.0, -304.48583984375, 94.84760284423828, 147.0266876220703, 0.8788765072822571, -0.03200000151991844, 0.01600000075995922, 1.055999994277954, 0.0, 0.0, 0.0, 0.0, 0.0, 1.6206616713092427E9, 2021-05-10 17:47:51.309
22.0, -317.1640930175781, 61.60737228393555, 117.56001281738281, -21.964431762695312, -0.04800000041723251, 0.01600000075995922, 1.055999994277954, 0.0, 0.0, 0.0, 0.0, 0.0, 1.6206616713252032E9, 2021-05-10 17:47:51.325
22.0, -321.2518005371094, 51.01223373413086, 115.58161163330078, -28.34844207763672, -0.04800000041723251, 0.01600000075995922, 1.055999994277954, 0.0, 0.0, 0.0, 0.0, 0.0, 1.6206616713252032E9, 2021-05-10 17:47:51.325
23.0, -294.5339660644531, 74.44271087646484, 139.1803741455078, -7.865009784698486, -0.04800000041723251, 0.01600000075995922, 1.055999994277954, 0.0, 0.0, 0.0, 0.0, 0.0, 1.6206616713258543E9, 2021-05-10 17:47:51.325
23.0, -286.68389892578125, 75.64695739746094, 143.85899353027344, -3.7174606323242188, -0.04800000041723251, 0.01600000075995922, 1.055999994277954, 0.0, 0.0, 0.0, 0.0, 0.0, 1.6206616713258543E9, 2021-05-10 17:47:51.325
24.0, -323.1553955078125, 55.55247497558594, 118.04620361328125, -24.780576705932617, -0.04800000041723251, 0.01600000075995922, 1.055999994277954, 0.0, 0.0, 0.0, 0.0, 0.0, 1.620661671326647E9, 2021-05-10 17:47:51.326
24.0, -327.9088134765625, 43.65959167480469, 107.64553833007812, -35.487911224365234, -0.04800000041723251, 0.01600000075995922, 1.055999994277954, 0.0, 0.0, 0.0, 0.0, 0.0, 1.620661671326647E9, 2021-05-10 17:47:51.326
25.0, -302.54107666015625, 70.50833129882812, 134.84957885742188, -9.241292953491211, -0.04800000041723251, 0.01600000075995922, 1.055999994277954, 0.0, 0.0, 0.0, 0.0, 0.0, 1.6206616713389783E9, 2021-05-10 17:47:51.338
25.0, -309.4224853515625, 74.28937530517578, 126.40861511230469, -12.667040824890137, -0.04800000041723251, 0.01600000075995922, 1.055999994277954, 0.0, 0.0, 0.0, 0.0, 0.0, 1.6206616713389783E9, 2021-05-10 17:47:51.338
26.0, -324.6925048828125, 50.918739318847656, 102.55179595947266, -31.691911697387695, -0.04800000041723251, 0.01600000075995922, 1.055999994277954, 0.0, 0.0, 0.0, 0.0, 0.0, 1.6206616713545794E9, 2021-05-10 17:47:51.354
26.0, -326.0538330078125, 54.00041580200195, 104.23101043701172, -33.83113479614258, -0.04800000041723251, 0.01600000075995922, 1.055999994277954, 0.0, 0.0, 0.0, 0.0, 0.0, 1.6206616713545794E9, 2021-05-10 17:47:51.354
27.0, -304.4334716796875, 74.85783386230469, 122.58644104003906, -13.515998840332031, -0.04800000041723251, 0.01600000075995922, 1.055999994277954, 0.0, 0.0, 0.0, 0.0, 0.0, 1.620661671355194E9, 2021-05-10 17:47:51.355
27.0, -303.4573669433594, 96.9569091796875, 137.07107543945312, -1.3800231218338013, -0.04800000041723251, 0.01600000075995922, 1.055999994277954, 0.0, 0.0, 0.0, 0.0, 0.0, 1.620661671355194E9, 2021-05-10 17:47:51.355
28.0, -328.0920715332031, 53.4581298828125, 104.61996459960938, -31.011249542236328, -0.04800000041723251, 0.01600000075995922, 1.055999994277954, 0.0, 0.0, 0.0, 0.0, 0.0, 1.6206616713688452E9, 2021-05-10 17:47:51.368
28.0, -331.3757019042969, 54.78205490112305, 110.69355773925781, -28.68503189086914, -0.04800000041723251, 0.01600000075995922, 1.055999994277954, 0.0, 0.0, 0.0, 0.0, 0.0, 1.6206616713688452E9, 2021-05-10 17:47:51.368
29.0, -312.7248229980469, 78.8109130859375, 136.97756958007812, -15.711319923400879, -0.04800000041723251, 0.01600000075995922, 1.055999994277954, 0.0, 0.0, 0.0, 0.0, 0.0, 1.6206616713846197E9, 2021-05-10 17:47:51.384
29.0, -304.7401428222656, 86.8853530883789, 140.08169555664062, -13.441200256347656, -0.04800000041723251, 0.01600000075995922, 1.055999994277954, 0.0, 0.0, 0.0, 0.0, 0.0, 1.6206616713846197E9, 2021-05-10 17:47:51.384
30.0, -323.9333190917969, 57.93104934692383, 118.47628784179688, -35.70108413696289, -0.04800000041723251, 0.01600000075995922, 1.055999994277954, 0.0, 0.0, 0.0, 0.0, 0.0, 1.6206616713853629E9, 2021-05-10 17:47:51.385
30.0, -325.8182067871094, 53.29731369018555, 113.23294830322266, -41.66622543334961, -0.04800000041723251, 0.01600000075995922, 1.055999994277954, 0.0, 0.0, 0.0, 0.0, 0.0, 1.6206616713853629E9, 2021-05-10 17:47:51.385
31.0, -299.44818115234375, 89.24149322509766, 137.65823364257812, -18.923892974853516, -0.04800000041723251, 0.03200000151991844, 1.055999994277954, 0.0, 0.0, 0.0, 0.0, 0.0, 1.6206616714315207E9, 2021-05-10 17:47:51.431
31.0, -288.4491271972656, 86.51510620117188, 150.25796508789062, -5.531311988830566, -0.04800000041723251, 0.03200000151991844, 1.055999994277954, 0.0, 0.0, 0.0, 0.0, 0.0, 1.6206616714315207E9, 2021-05-10 17:47:51.431
32.0, -321.77911376953125, 44.078460693359375, 121.42707061767578, -26.17930030822754, -0.03200000151991844, 0.03200000151991844, 1.055999994277954, 0.0, 0.0, 0.0, 0.0, 0.0, 1.620661671432279E9, 2021-05-10 17:47:51.432
32.0, -318.5067138671875, 46.36354064941406, 115.57786560058594, -27.383546829223633, -0.03200000151991844, 0.03200000151991844, 1.055999994277954, 0.0, 0.0, 0.0, 0.0, 0.0, 1.620661671432279E9, 2021-05-10 17:47:51.432
33.0, -297.8213195800781, 80.3966293334961, 142.28823852539062, -5.078783988952637, -0.03200000151991844, 0.03200000151991844, 1.055999994277954, 0.0, 0.0, 0.0, 0.0, 0.0, 1.6206616714330812E9, 2021-05-10 17:47:51.433
33.0, -295.9289245605469, 82.40121459960938, 143.9263153076172, -0.2879723012447357, -0.03200000151991844, 0.03200000151991844, 1.055999994277954, 0.0, 0.0, 0.0, 0.0, 0.0, 1.6206616714330812E9, 2021-05-10 17:47:51.433
34.0, -321.5472412109375, 48.97024917602539, 108.4832763671875, -26.90484046936035, -0.03200000151991844, 0.03200000151991844, 1.055999994277954, 0.0, 0.0, 0.0, 0.0, 0.0, 1.6206616714338095E9, 2021-05-10 17:47:51.433
34.0, -328.1481628417969, 55.84044647216797, 101.31015014648438, -31.310441970825195, -0.03200000151991844, 0.03200000151991844, 1.055999994277954, 0.0, 0.0, 0.0, 0.0, 0.0, 1.6206616714338095E9, 2021-05-10 17:47:51.433
35.0, -305.1103820800781, 66.19248962402344, 121.85716247558594, -13.538437843322754, -0.03200000151991844, 0.03200000151991844, 1.055999994277954, 0.0, 0.0, 0.0, 0.0, 0.0, 1.6206616714601035E9, 2021-05-10 17:47:51.460
35.0, -300.6561584472656, 70.68036651611328, 135.6050262451172, -1.4286417961120605, -0.03200000151991844, 0.03200000151991844, 1.055999994277954, 0.0, 0.0, 0.0, 0.0, 0.0, 1.6206616714601035E9, 2021-05-10 17:47:51.460
36.0, -324.1651916503906, 49.00764846801758, 105.40534210205078, -26.818822860717773, -0.03200000151991844, 0.03200000151991844, 1.055999994277954, 0.0, 0.0, 0.0, 0.0, 0.0, 1.6206616714756503E9, 2021-05-10 17:47:51.475
36.0, -321.18072509765625, 42.24216842651367, 107.20423126220703, -19.84016990661621, -0.03200000151991844, 0.03200000151991844, 1.055999994277954, 0.0, 0.0, 0.0, 0.0, 0.0, 1.6206616714756503E9, 2021-05-10 17:47:51.475
37.0, -303.6593017578125, 65.23133850097656, 124.56111145019531, -8.018345832824707, -0.03200000151991844, 0.03200000151991844, 1.055999994277954, 0.0, 0.0, 0.0, 0.0, 0.0, 1.6206616714763536E9, 2021-05-10 17:47:51.476
37.0, -302.45880126953125, 73.27960205078125, 125.8438949584961, -11.30197811126709, -0.03200000151991844, 0.03200000151991844, 1.055999994277954, 0.0, 0.0, 0.0, 0.0, 0.0, 1.6206616714763536E9, 2021-05-10 17:47:51.476
38.0, -327.2206726074219, 64.04953002929688, 107.54830169677734, -24.69455909729004, -0.03200000151991844, 0.03200000151991844, 1.055999994277954, 0.0, 0.0, 0.0, 0.0, 0.0, 1.6206616714771042E9, 2021-05-10 17:47:51.477
38.0, -329.29632568359375, 46.285003662109375, 100.34525299072266, -35.88433837890625, -0.03200000151991844, 0.03200000151991844, 1.055999994277954, 0.0, 0.0, 0.0, 0.0, 0.0, 1.6206616714771042E9, 2021-05-10 17:47:51.477
39.0, -310.0919494628906, 82.3077163696289, 122.19749450683594, -9.035598754882812, -0.03200000151991844, 0.03200000151991844, 1.055999994277954, 0.0, 0.0, 0.0, 0.0, 0.0, 1.6206616714894626E9, 2021-05-10 17:47:51.489
39.0, -307.7657165527344, 69.92117309570312, 117.03643035888672, -17.192319869995117, -0.03200000151991844, 0.03200000151991844, 1.055999994277954, 0.0, 0.0, 0.0, 0.0, 0.0, 1.6206616714894626E9, 2021-05-10 17:47:51.489
40.0, -321.35650634765625, 50.73548126220703, 106.26177978515625, -26.20547866821289, -0.03200000151991844, 0.03200000151991844, 1.055999994277954, 0.0, 0.0, 0.0, 0.0, 0.0, 1.6206616714902296E9, 2021-05-10 17:47:51.490
40.0, -326.16229248046875, 40.398399353027344, 101.5569839477539, -36.00027847290039, -0.03200000151991844, 0.03200000151991844, 1.055999994277954, 0.0, 0.0, 0.0, 0.0, 0.0, 1.6206616714902296E9, 2021-05-10 17:47:51.490
41.0, -302.855224609375, 71.61908721923828, 133.8323211669922, -8.336236953735352, -0.03200000151991844, 0.01600000075995922, 1.055999994277954, 0.0, 0.0, 0.0, 0.0, 0.0, 1.62066167152094E9, 2021-05-10 17:47:51.520
41.0, -301.1722717285156, 72.53910064697266, 140.00315856933594, -5.104963302612305, -0.03200000151991844, 0.01600000075995922, 1.055999994277954, 0.0, 0.0, 0.0, 0.0, 0.0, 1.62066167152094E9, 2021-05-10 17:47:51.520
42.0, -316.47967529296875, 57.695438385009766, 121.48316955566406, -16.171327590942383, -0.04800000041723251, 0.01600000075995922, 1.055999994277954, 0.0, 0.0, 0.0, 0.0, 0.0, 1.6206616715215583E9, 2021-05-10 17:47:51.521
42.0, -317.4670104980469, 47.39201354980469, 124.73314666748047, -20.053342819213867, -0.04800000041723251, 0.01600000075995922, 1.055999994277954, 0.0, 0.0, 0.0, 0.0, 0.0, 1.6206616715215583E9, 2021-05-10 17:47:51.521
43.0, -298.3299560546875, 82.45357513427734, 143.85525512695312, -2.63288950920105, -0.04800000041723251, 0.01600000075995922, 1.055999994277954, 0.0, 0.0, 0.0, 0.0, 0.0, 1.6206616715222983E9, 2021-05-10 17:47:51.522
43.0, -297.9035949707031, 93.9051513671875, 150.44122314453125, 6.44384765625, -0.04800000041723251, 0.01600000075995922, 1.055999994277954, 0.0, 0.0, 0.0, 0.0, 0.0, 1.6206616715222983E9, 2021-05-10 17:47:51.522
44.0, -324.1539611816406, 41.56898880004883, 115.9892578125, -19.683094024658203, -0.04800000041723251, 0.01600000075995922, 1.055999994277954, 0.0, 0.0, 0.0, 0.0, 0.0, 1.6206616715230663E9, 2021-05-10 17:47:51.523
44.0, -319.2098083496094, 43.5511360168457, 120.83990478515625, -17.39427375793457, -0.04800000041723251, 0.01600000075995922, 1.055999994277954, 0.0, 0.0, 0.0, 0.0, 0.0, 1.6206616715230663E9, 2021-05-10 17:47:51.523
45.0, -301.6397705078125, 68.30553436279297, 138.05093383789062, -5.512612342834473, -0.04800000041723251, 0.01600000075995922, 1.055999994277954, 0.0, 0.0, 0.0, 0.0, 0.0, 1.6206616715338526E9, 2021-05-10 17:47:51.533
45.0, -301.6622009277344, 71.67518615722656, 132.57571411132812, -5.220900535583496, -0.04800000041723251, 0.01600000075995922, 1.055999994277954, 0.0, 0.0, 0.0, 0.0, 0.0, 1.6206616715338526E9, 2021-05-10 17:47:51.533
46.0, -320.9488525390625, 53.45064926147461, 107.68293762207031, -24.032596588134766, -0.04800000041723251, 0.01600000075995922, 1.055999994277954, 0.0, 0.0, 0.0, 0.0, 0.0, 1.6206616715487287E9, 2021-05-10 17:47:51.548
46.0, -325.6087646484375, 59.37839126586914, 99.48881530761719, -31.246864318847656, -0.04800000041723251, 0.01600000075995922, 1.055999994277954, 0.0, 0.0, 0.0, 0.0, 0.0, 1.6206616715487287E9, 2021-05-10 17:47:51.548
47.0, -300.7347106933594, 83.68399810791016, 128.3571014404297, -11.275798797607422, -0.04800000041723251, 0.01600000075995922, 1.055999994277954, 0.0, 0.0, 0.0, 0.0, 0.0, 1.6206616715653176E9, 2021-05-10 17:47:51.565
47.0, -301.2695007324219, 82.15438079833984, 127.33611297607422, -4.738453388214111, -0.04800000041723251, 0.01600000075995922, 1.055999994277954, 0.0, 0.0, 0.0, 0.0, 0.0, 1.6206616715653176E9, 2021-05-10 17:47:51.565
48.0, -320.44024658203125, 75.20565032958984, 109.1863784790039, -28.475597381591797, -0.04800000041723251, 0.01600000075995922, 1.055999994277954, 0.0, 0.0, 0.0, 0.0, 0.0, 1.6206616715658727E9, 2021-05-10 17:47:51.565
48.0, -327.05987548828125, 55.86662673950195, 104.03653717041016, -31.239383697509766, -0.04800000041723251, 0.01600000075995922, 1.055999994277954, 0.0, 0.0, 0.0, 0.0, 0.0, 1.6206616715658727E9, 2021-05-10 17:47:51.565
49.0, -308.5137023925781, 83.71765899658203, 121.68138122558594, -17.611188888549805, -0.04800000041723251, 0.01600000075995922, 1.055999994277954, 0.0, 0.0, 0.0, 0.0, 0.0, 1.6206616715787446E9, 2021-05-10 17:47:51.578
49.0, -301.58740234375, 81.0398941040039, 127.7549819946289, -16.698654174804688, -0.04800000041723251, 0.01600000075995922, 1.055999994277954, 0.0, 0.0, 0.0, 0.0, 0.0, 1.6206616715787446E9, 2021-05-10 17:47:51.578
50.0, -320.89276123046875, 58.776268005371094, 108.82734680175781, -37.8590087890625, -0.04800000041723251, 0.01600000075995922, 1.055999994277954, 0.0, 0.0, 0.0, 0.0, 0.0, 1.6206616715944216E9, 2021-05-10 17:47:51.594
50.0, -324.96551513671875, 54.06025314331055, 110.45420837402344, -38.32649612426758, -0.04800000041723251, 0.01600000075995922, 1.055999994277954, 0.0, 0.0, 0.0, 0.0, 0.0, 1.6206616715944216E9, 2021-05-10 17:47:51.594
51.0, -302.8477478027344, 87.89138793945312, 129.6810302734375, -17.0838623046875, -0.04800000041723251, 0.01600000075995922, 1.055999994277954, 0.0, 0.0, 0.0, 0.0, 0.0, 1.6206616715951476E9, 2021-05-10 17:47:51.595
51.0, -296.6357727050781, 91.36201477050781, 141.11764526367188, -4.888049125671387, -0.04800000041723251, 0.01600000075995922, 1.055999994277954, 0.0, 0.0, 0.0, 0.0, 0.0, 1.6206616715951476E9, 2021-05-10 17:47:51.595
52.0, -315.3689270019531, 66.4468002319336, 118.15091705322266, -24.09991455078125, -0.04800000041723251, 0.01600000075995922, 1.055999994277954, 0.0, 0.0, 0.0, 0.0, 0.0, 1.6206616716087856E9, 2021-05-10 17:47:51.608
52.0, -328.1219787597656, 47.4256706237793, 111.40039825439453, -19.78407096862793, -0.04800000041723251, 0.01600000075995922, 1.055999994277954, 0.0, 0.0, 0.0, 0.0, 0.0, 1.6206616716087856E9, 2021-05-10 17:47:51.608
53.0, -302.7318115234375, 73.59748840332031, 137.01870727539062, -9.903255462646484, -0.04800000041723251, 0.01600000075995922, 1.055999994277954, 0.0, 0.0, 0.0, 0.0, 0.0, 1.620661671624441E9, 2021-05-10 17:47:51.624
53.0, -297.3725280761719, 94.0921401977539, 144.0908660888672, 8.141761779785156, -0.04800000041723251, 0.01600000075995922, 1.055999994277954, 0.0, 0.0, 0.0, 0.0, 0.0, 1.620661671624441E9, 2021-05-10 17:47:51.624
54.0, -322.84124755859375, 54.42676544189453, 121.17649841308594, -10.348302841186523, -0.04800000041723251, 0.01600000075995922, 1.055999994277954, 0.0, 0.0, 0.0, 0.0, 0.0, 1.620661671625168E9, 2021-05-10 17:47:51.625
54.0, -322.2765197753906, 48.54764175415039, 115.29363250732422, -19.00617218017578, -0.04800000041723251, 0.01600000075995922, 1.055999994277954, 0.0, 0.0, 0.0, 0.0, 0.0, 1.620661671625168E9, 2021-05-10 17:47:51.625
55.0, -302.9187927246094, 72.50170135498047, 134.2549285888672, -5.995059490203857, -0.04800000041723251, 0.01600000075995922, 1.055999994277954, 0.0, 0.0, 0.0, 0.0, 0.0, 1.6206616716388357E9, 2021-05-10 17:47:51.638
55.0, -296.40765380859375, 79.12506103515625, 137.66946411132812, -6.844017028808594, -0.04800000041723251, 0.01600000075995922, 1.055999994277954, 0.0, 0.0, 0.0, 0.0, 0.0, 1.6206616716388357E9, 2021-05-10 17:47:51.638
56.0, -315.55218505859375, 59.389610290527344, 117.85920715332031, -22.727371215820312, -0.04800000041723251, 0.01600000075995922, 1.055999994277954, 0.0, 0.0, 0.0, 0.0, 0.0, 1.620661671654496E9, 2021-05-10 17:47:51.654
56.0, -316.9733581542969, 53.016822814941406, 102.52561950683594, -32.83258056640625, -0.04800000041723251, 0.01600000075995922, 1.055999994277954, 0.0, 0.0, 0.0, 0.0, 0.0, 1.620661671654496E9, 2021-05-10 17:47:51.654
57.0, -303.1993103027344, 73.32821655273438, 126.76764678955078, -12.528664588928223, -0.04800000041723251, 0.01600000075995922, 1.055999994277954, 0.0, 0.0, 0.0, 0.0, 0.0, 1.620661671655169E9, 2021-05-10 17:47:51.655
57.0, -302.11846923828125, 81.2418441772461, 122.99408721923828, -6.806617736816406, -0.04800000041723251, 0.01600000075995922, 1.055999994277954, 0.0, 0.0, 0.0, 0.0, 0.0, 1.620661671655169E9, 2021-05-10 17:47:51.655
58.0, -327.17205810546875, 58.166664123535156, 102.03569030761719, -24.724477767944336, -0.04800000041723251, 0.01600000075995922, 1.055999994277954, 0.0, 0.0, 0.0, 0.0, 0.0, 1.6206616716687944E9, 2021-05-10 17:47:51.668
58.0, -326.5549621582031, 60.455482482910156, 103.43067169189453, -28.782270431518555, -0.04800000041723251, 0.01600000075995922, 1.055999994277954, 0.0, 0.0, 0.0, 0.0, 0.0, 1.6206616716687944E9, 2021-05-10 17:47:51.668
59.0, -295.7008056640625, 91.70608520507812, 132.9758758544922, -6.099776744842529, -0.04800000041723251, 0.01600000075995922, 1.055999994277954, 0.0, 0.0, 0.0, 0.0, 0.0, 1.6206616717000577E9, 2021-05-10 17:47:51.700
59.0, -307.1636047363281, 82.2628402709961, 131.40512084960938, -9.570404052734375, -0.04800000041723251, 0.01600000075995922, 1.055999994277954, 0.0, 0.0, 0.0, 0.0, 0.0, 1.6206616717000577E9, 2021-05-10 17:47:51.700
60.0, -326.82049560546875, 68.30179595947266, 113.36384582519531, -28.65885353088379, -0.04800000041723251, 0.01600000075995922, 1.055999994277954, 0.0, 0.0, 0.0, 0.0, 0.0, 1.6206616717007358E9, 2021-05-10 17:47:51.700
60.0, -325.4516906738281, 65.19767761230469, 114.39231872558594, -32.16687774658203, -0.04800000041723251, 0.01600000075995922, 1.055999994277954, 0.0, 0.0, 0.0, 0.0, 0.0, 1.6206616717007358E9, 2021-05-10 17:47:51.700
61.0, -300.6673889160156, 82.3862533569336, 136.27447509765625, -7.210526943206787, -0.04800000041723251, 0.01600000075995922, 1.055999994277954, 0.0, 0.0, 0.0, 0.0, 0.0, 1.6206616717151587E9, 2021-05-10 17:47:51.715
61.0, -302.09228515625, 98.45660400390625, 139.0943603515625, -8.396075248718262, -0.04800000041723251, 0.01600000075995922, 1.055999994277954, 0.0, 0.0, 0.0, 0.0, 0.0, 1.6206616717151587E9, 2021-05-10 17:47:51.715
62.0, -315.8700866699219, 60.833213806152344, 113.69670104980469, -30.491403579711914, -0.04800000041723251, 0.01600000075995922, 1.055999994277954, 0.0, 0.0, 0.0, 0.0, 0.0, 1.6206616717158663E9, 2021-05-10 17:47:51.715
62.0, -314.4377136230469, 65.79605865478516, 118.88020324707031, -24.87781524658203, -0.04800000041723251, 0.01600000075995922, 1.055999994277954, 0.0, 0.0, 0.0, 0.0, 0.0, 1.6206616717158663E9, 2021-05-10 17:47:51.715
63.0, -297.0284729003906, 84.89946746826172, 144.30029296875, -4.929188251495361, -0.04800000041723251, 0.01600000075995922, 1.055999994277954, 0.0, 0.0, 0.0, 0.0, 0.0, 1.6206616717165763E9, 2021-05-10 17:47:51.716
63.0, -293.9953918457031, 82.50218963623047, 142.7482452392578, -7.083370685577393, -0.04800000041723251, 0.01600000075995922, 1.055999994277954, 0.0, 0.0, 0.0, 0.0, 0.0, 1.6206616717165763E9, 2021-05-10 17:47:51.716
64.0, -308.3828125, 66.01297760009766, 119.61695861816406, -26.766464233398438, -0.04800000041723251, 0.01600000075995922, 1.055999994277954, 0.0, 0.0, 0.0, 0.0, 0.0, 1.6206616717452672E9, 2021-05-10 17:47:51.745
64.0, -323.6416015625, 52.395999908447266, 109.01060485839844, -24.77309799194336, -0.04800000041723251, 0.01600000075995922, 1.055999994277954, 0.0, 0.0, 0.0, 0.0, 0.0, 1.6206616717452672E9, 2021-05-10 17:47:51.745
65.0, -303.8425598144531, 79.28961944580078, 121.84967803955078, -13.100869178771973, -0.04800000041723251, 0.01600000075995922, 1.055999994277954, 0.0, 0.0, 0.0, 0.0, 0.0, 1.6206616717458525E9, 2021-05-10 17:47:51.745
65.0, -290.5733947753906, 96.45201873779297, 133.7163848876953, -4.46544075012207, -0.04800000041723251, 0.01600000075995922, 1.055999994277954, 0.0, 0.0, 0.0, 0.0, 0.0, 1.6206616717458525E9, 2021-05-10 17:47:51.745
66.0, -331.23358154296875, 54.46790313720703, 92.2221908569336, -29.623746871948242, -0.04800000041723251, 0.01600000075995922, 1.055999994277954, 0.0, 0.0, 0.0, 0.0, 0.0, 1.6206616717466424E9, 2021-05-10 17:47:51.746
66.0, -312.78839111328125, 57.347625732421875, 105.0089111328125, -27.106794357299805, -0.04800000041723251, 0.01600000075995922, 1.055999994277954, 0.0, 0.0, 0.0, 0.0, 0.0, 1.6206616717466424E9, 2021-05-10 17:47:51.746
67.0, -297.4959411621094, 81.05859375, 122.76221466064453, -6.12221622467041, -0.04800000041723251, 0.01600000075995922, 1.055999994277954, 0.0, 0.0, 0.0, 0.0, 0.0, 1.6206616717587852E9, 2021-05-10 17:47:51.758
67.0, -304.40728759765625, 88.57579040527344, 125.51478576660156, -5.321877479553223, -0.04800000041723251, 0.01600000075995922, 1.055999994277954, 0.0, 0.0, 0.0, 0.0, 0.0, 1.6206616717587852E9, 2021-05-10 17:47:51.758
68.0, -323.64532470703125, 62.53860855102539, 100.86510467529297, -23.13128089904785, -0.04800000041723251, 0.01600000075995922, 1.055999994277954, 0.0, 0.0, 0.0, 0.0, 0.0, 1.6206616717744622E9, 2021-05-10 17:47:51.774
68.0, -316.61431884765625, 60.02165603637695, 106.235595703125, -27.069395065307617, -0.04800000041723251, 0.01600000075995922, 1.055999994277954, 0.0, 0.0, 0.0, 0.0, 0.0, 1.6206616717744622E9, 2021-05-10 17:47:51.774
69.0, -300.2485046386719, 84.25994873046875, 127.22017669677734, -5.9987993240356445, -0.04800000041723251, 0.01600000075995922, 1.055999994277954, 0.0, 0.0, 0.0, 0.0, 0.0, 1.620661671775231E9, 2021-05-10 17:47:51.775
69.0, -298.42718505859375, 86.12989807128906, 128.94801330566406, -15.468226432800293, -0.04800000041723251, 0.01600000075995922, 1.055999994277954, 0.0, 0.0, 0.0, 0.0, 0.0, 1.620661671775231E9, 2021-05-10 17:47:51.775
70.0, -311.26251220703125, 60.9940299987793, 107.53334045410156, -31.916305541992188, -0.04800000041723251, 0.01600000075995922, 1.055999994277954, 0.0, 0.0, 0.0, 0.0, 0.0, 1.620661671788847E9, 2021-05-10 17:47:51.788
70.0, -321.41259765625, 71.17029571533203, 112.7018814086914, -32.955997467041016, -0.04800000041723251, 0.01600000075995922, 1.055999994277954, 0.0, 0.0, 0.0, 0.0, 0.0, 1.620661671788847E9, 2021-05-10 17:47:51.788
71.0, -295.04632568359375, 96.76991271972656, 133.16287231445312, -16.036691665649414, -0.04800000041723251, 0.03200000151991844, 1.055999994277954, 0.0, 0.0, 0.0, 0.0, 0.0, 1.6206616718210351E9, 2021-05-10 17:47:51.821
71.0, -315.17071533203125, 97.59642791748047, 133.36483764648438, -17.17736053466797, -0.04800000041723251, 0.03200000151991844, 1.055999994277954, 0.0, 0.0, 0.0, 0.0, 0.0, 1.6206616718210351E9, 2021-05-10 17:47:51.821
72.0, -329.9508056640625, 79.2110824584961, 118.50994873046875, -25.46497917175293, -0.03200000151991844, 0.03200000151991844, 1.055999994277954, 0.0, 0.0, 0.0, 0.0, 0.0, 1.620661671821689E9, 2021-05-10 17:47:51.821
72.0, -326.0500793457031, 75.69557189941406, 123.03523254394531, -20.883602142333984, -0.03200000151991844, 0.03200000151991844, 1.055999994277954, 0.0, 0.0, 0.0, 0.0, 0.0, 1.620661671821689E9, 2021-05-10 17:47:51.821
73.0, -304.8261413574219, 90.83094787597656, 140.1190948486328, -5.187241077423096, -0.03200000151991844, 0.03200000151991844, 1.055999994277954, 0.0, 0.0, 0.0, 0.0, 0.0, 1.620661671822487E9, 2021-05-10 17:47:51.822
73.0, -296.6918640136719, 89.78752136230469, 144.72665405273438, -2.172881841659546, -0.03200000151991844, 0.03200000151991844, 1.055999994277954, 0.0, 0.0, 0.0, 0.0, 0.0, 1.620661671822487E9, 2021-05-10 17:47:51.822
74.0, -316.9920654296875, 70.54946899414062, 125.03607177734375, -16.997844696044922, -0.03200000151991844, 0.03200000151991844, 1.055999994277954, 0.0, 0.0, 0.0, 0.0, 0.0, 1.6206616718231E9, 2021-05-10 17:47:51.823
74.0, -327.7554931640625, 64.87230682373047, 114.26142120361328, -22.106548309326172, -0.03200000151991844, 0.03200000151991844, 1.055999994277954, 0.0, 0.0, 0.0, 0.0, 0.0, 1.6206616718231E9, 2021-05-10 17:47:51.823
75.0, -297.6492919921875, 85.44549560546875, 134.19883728027344, -9.1814546585083, -0.03200000151991844, 0.03200000151991844, 1.055999994277954, 0.0, 0.0, 0.0, 0.0, 0.0, 1.6206616718339086E9, 2021-05-10 17:47:51.833
75.0, -316.8237609863281, 86.79185485839844, 128.8732147216797, -13.889988899230957, -0.03200000151991844, 0.03200000151991844, 1.055999994277954, 0.0, 0.0, 0.0, 0.0, 0.0, 1.6206616718339086E9, 2021-05-10 17:47:51.833
76.0, -320.660888671875, 72.3857650756836, 105.90274810791016, -29.672367095947266, -0.03200000151991844, 0.03200000151991844, 1.055999994277954, 0.0, 0.0, 0.0, 0.0, 0.0, 1.620661671848808E9, 2021-05-10 17:47:51.848
76.0, -328.5259094238281, 63.85131072998047, 99.84037017822266, -34.149024963378906, -0.03200000151991844, 0.03200000151991844, 1.055999994277954, 0.0, 0.0, 0.0, 0.0, 0.0, 1.620661671848808E9, 2021-05-10 17:47:51.848
77.0, -310.7090148925781, 69.7192153930664, 111.1124267578125, -16.504179000854492, -0.03200000151991844, 0.03200000151991844, 1.055999994277954, 0.0, 0.0, 0.0, 0.0, 0.0, 1.6206616718815944E9, 2021-05-10 17:47:51.881
77.0, -300.2373046875, 88.68798828125, 121.6888656616211, -7.4611005783081055, -0.03200000151991844, 0.03200000151991844, 1.055999994277954, 0.0, 0.0, 0.0, 0.0, 0.0, 1.6206616718815944E9, 2021-05-10 17:47:51.881
78.0, -324.3147888183594, 55.43653869628906, 96.25006866455078, -28.767311096191406, -0.03200000151991844, 0.03200000151991844, 1.055999994277954, 0.0, 0.0, 0.0, 0.0, 0.0, 1.6206616718823457E9, 2021-05-10 17:47:51.882
78.0, -326.8653869628906, 56.23687744140625, 92.1025161743164, -34.541717529296875, -0.03200000151991844, 0.03200000151991844, 1.055999994277954, 0.0, 0.0, 0.0, 0.0, 0.0, 1.6206616718823457E9, 2021-05-10 17:47:51.882
79.0, -301.7108154296875, 73.51895141601562, 110.67859649658203, -15.105456352233887, -0.03200000151991844, 0.03200000151991844, 1.055999994277954, 0.0, 0.0, 0.0, 0.0, 0.0, 1.6206616718830981E9, 2021-05-10 17:47:51.883
79.0, -308.5398864746094, 89.86979675292969, 116.43804168701172, -15.808557510375977, -0.03200000151991844, 0.03200000151991844, 1.055999994277954, 0.0, 0.0, 0.0, 0.0, 0.0, 1.6206616718830981E9, 2021-05-10 17:47:51.883
80.0, -317.04815673828125, 58.53691482543945, 99.04003143310547, -36.90159225463867, -0.03200000151991844, 0.03200000151991844, 1.040000081062317, 0.0, 0.0, 0.0, 0.0, 0.0, 1.6206616718838508E9, 2021-05-10 17:47:51.883
80.0, -322.4036865234375, 54.961570739746094, 98.38180541992188, -33.909671783447266, -0.03200000151991844, 0.03200000151991844, 1.040000081062317, 0.0, 0.0, 0.0, 0.0, 0.0, 1.6206616718838508E9, 2021-05-10 17:47:51.883
81.0, -305.52178955078125, 83.59424591064453, 128.1177520751953, -17.865501403808594, -0.03200000151991844, 0.01600000075995922, 1.040000081062317, 0.0, 0.0, 0.0, 0.0, 0.0, 1.6206616718938222E9, 2021-05-10 17:47:51.893
81.0, -287.8058776855469, 91.08900451660156, 142.9913330078125, -11.186040878295898, -0.03200000151991844, 0.01600000075995922, 1.040000081062317, 0.0, 0.0, 0.0, 0.0, 0.0, 1.6206616718938222E9, 2021-05-10 17:47:51.893
82.0, -321.53228759765625, 61.37175750732422, 114.79622650146484, -27.211511611938477, -0.03200000151991844, 0.01600000075995922, 1.040000081062317, 0.0, 0.0, 0.0, 0.0, 0.0, 1.6206616719088633E9, 2021-05-10 17:47:51.908
82.0, -324.8608093261719, 59.42327117919922, 113.74905395507812, -31.897605895996094, -0.03200000151991844, 0.01600000075995922, 1.040000081062317, 0.0, 0.0, 0.0, 0.0, 0.0, 1.6206616719088633E9, 2021-05-10 17:47:51.908
83.0, -308.8988952636719, 90.48313903808594, 138.32394409179688, -4.7721123695373535, -0.03200000151991844, 0.01600000075995922, 1.040000081062317, 0.0, 0.0, 0.0, 0.0, 0.0, 1.6206616719243252E9, 2021-05-10 17:47:51.924
83.0, -305.14404296875, 91.70234680175781, 144.6817626953125, 0.9611542820930481, -0.03200000151991844, 0.01600000075995922, 1.040000081062317, 0.0, 0.0, 0.0, 0.0, 0.0, 1.6206616719243252E9, 2021-05-10 17:47:51.924
84.0, -323.8809509277344, 69.09091186523438, 117.96766662597656, -20.431074142456055, -0.03200000151991844, 0.01600000075995922, 1.040000081062317, 0.0, 0.0, 0.0, 0.0, 0.0, 1.620661671939556E9, 2021-05-10 17:47:51.939
84.0, -333.7206115722656, 59.47562789916992, 105.32305908203125, -26.66548728942871, -0.03200000151991844, 0.01600000075995922, 1.040000081062317, 0.0, 0.0, 0.0, 0.0, 0.0, 1.620661671939556E9, 2021-05-10 17:47:51.939
85.0, -309.392578125, 78.34716796875, 127.00700378417969, -2.879723072052002, -0.03200000151991844, 0.01600000075995922, 1.040000081062317, 0.0, 0.0, 0.0, 0.0, 0.0, 1.6206616719403112E9, 2021-05-10 17:47:51.940
85.0, -310.4360046386719, 82.5620346069336, 123.41670227050781, 1.7353135347366333, -0.03200000151991844, 0.01600000075995922, 1.040000081062317, 0.0, 0.0, 0.0, 0.0, 0.0, 1.6206616719403112E9, 2021-05-10 17:47:51.940
86.0, -310.2602233886719, 62.935035705566406, 100.80525970458984, -20.980838775634766, -0.03200000151991844, 0.01600000075995922, 1.040000081062317, 0.0, 0.0, 0.0, 0.0, 0.0, 1.6206616719545403E9, 2021-05-10 17:47:51.954
86.0, -328.301513671875, 46.78614807128906, 92.92155456542969, -36.23588943481445, -0.03200000151991844, 0.01600000075995922, 1.040000081062317, 0.0, 0.0, 0.0, 0.0, 0.0, 1.6206616719545403E9, 2021-05-10 17:47:51.954
87.0, -304.11932373046875, 77.99935150146484, 118.01254272460938, -12.984932899475098, -0.03200000151991844, 0.01600000075995922, 1.040000081062317, 0.0, 0.0, 0.0, 0.0, 0.0, 1.6206616719552689E9, 2021-05-10 17:47:51.955
87.0, -290.55096435546875, 78.93058776855469, 126.07576751708984, -14.11438274383545, -0.03200000151991844, 0.01600000075995922, 1.040000081062317, 0.0, 0.0, 0.0, 0.0, 0.0, 1.6206616719552689E9, 2021-05-10 17:47:51.955
88.0, -313.3942565917969, 55.399139404296875, 104.98273468017578, -32.17061996459961, -0.03200000151991844, 0.01600000075995922, 1.040000081062317, 0.0, 0.0, 0.0, 0.0, 0.0, 1.6206616719848828E9, 2021-05-10 17:47:51.984
88.0, -324.92437744140625, 52.063148498535156, 101.10819244384766, -30.798076629638672, -0.03200000151991844, 0.01600000075995922, 1.040000081062317, 0.0, 0.0, 0.0, 0.0, 0.0, 1.6206616719848828E9, 2021-05-10 17:47:51.984
89.0, -307.92279052734375, 72.81959533691406, 129.10882568359375, -9.940653800964355, -0.03200000151991844, 0.01600000075995922, 1.040000081062317, 0.0, 0.0, 0.0, 0.0, 0.0, 1.6206616719856224E9, 2021-05-10 17:47:51.985
89.0, -294.9266357421875, 79.33075714111328, 129.55014038085938, -8.081923484802246, -0.03200000151991844, 0.01600000075995922, 1.040000081062317, 0.0, 0.0, 0.0, 0.0, 0.0, 1.6206616719856224E9, 2021-05-10 17:47:51.985
90.0, -314.40777587890625, 67.3855209350586, 107.47350311279297, -30.491403579711914, -0.03200000151991844, 0.01600000075995922, 1.040000081062317, 0.0, 0.0, 0.0, 0.0, 0.0, 1.6206616719995325E9, 2021-05-10 17:47:51.999
90.0, -326.1585388183594, 56.22565460205078, 110.40184783935547, -37.32046127319336, -0.03200000151991844, 0.01600000075995922, 1.040000081062317, 0.0, 0.0, 0.0, 0.0, 0.0, 1.6206616719995325E9, 2021-05-10 17:47:51.999
91.0, -294.66485595703125, 87.25560760498047, 135.90048217773438, -18.96503257751465, -0.03200000151991844, 0.03200000151991844, 1.040000081062317, 0.0, 0.0, 0.0, 0.0, 0.0, 1.6206616720002253E9, 2021-05-10 17:47:52.000
91.0, -300.6000671386719, 92.13617706298828, 148.5450897216797, -9.607803344726562, -0.03200000151991844, 0.03200000151991844, 1.040000081062317, 0.0, 0.0, 0.0, 0.0, 0.0, 1.6206616720002253E9, 2021-05-10 17:47:52.000
92.0, -320.1634826660156, 69.0385513305664, 123.47279357910156, -28.41950035095215, -0.04800000041723251, 0.03200000151991844, 1.040000081062317, 0.0, 0.0, 0.0, 0.0, 0.0, 1.6206616720144608E9, 2021-05-10 17:47:52.014
92.0, -321.2181396484375, 58.99692153930664, 116.29592895507812, -28.434459686279297, -0.04800000041723251, 0.03200000151991844, 1.040000081062317, 0.0, 0.0, 0.0, 0.0, 0.0, 1.6206616720144608E9, 2021-05-10 17:47:52.014
93.0, -292.4545593261719, 87.10974884033203, 140.16770935058594, -6.346610069274902, -0.04800000041723251, 0.03200000151991844, 1.040000081062317, 0.0, 0.0, 0.0, 0.0, 0.0, 1.620661672015209E9, 2021-05-10 17:47:52.015
93.0, -288.9353332519531, 90.09793090820312, 146.27122497558594, -0.7105810046195984, -0.04800000041723251, 0.03200000151991844, 1.040000081062317, 0.0, 0.0, 0.0, 0.0, 0.0, 1.620661672015209E9, 2021-05-10 17:47:52.015
94.0, -322.6991271972656, 70.12686157226562, 121.92073822021484, -22.712411880493164, -0.04800000041723251, 0.03200000151991844, 1.040000081062317, 0.0, 0.0, 0.0, 0.0, 0.0, 1.6206616720287836E9, 2021-05-10 17:47:52.028
94.0, -320.672119140625, 61.54753494262695, 114.31378173828125, -24.724477767944336, -0.04800000041723251, 0.03200000151991844, 1.040000081062317, 0.0, 0.0, 0.0, 0.0, 0.0, 1.6206616720287836E9, 2021-05-10 17:47:52.028
95.0, -292.7388000488281, 59.868316650390625, 129.59127807617188, -5.250819683074951, -0.04800000041723251, 0.03200000151991844, 1.040000081062317, 0.0, 0.0, 0.0, 0.0, 0.0, 1.6206616720447474E9, 2021-05-10 17:47:52.044
95.0, -285.61053466796875, 84.00936889648438, 136.82049560546875, 1.955967664718628, -0.04800000041723251, 0.03200000151991844, 1.040000081062317, 0.0, 0.0, 0.0, 0.0, 0.0, 1.6206616720447474E9, 2021-05-10 17:47:52.044
96.0, -323.14044189453125, 52.98690414428711, 106.09722137451172, -22.847049713134766, -0.04800000041723251, 0.03200000151991844, 1.040000081062317, 0.0, 0.0, 0.0, 0.0, 0.0, 1.6206616720594711E9, 2021-05-10 17:47:52.059
96.0, -326.9439392089844, 55.242061614990234, 102.09178924560547, -19.870088577270508, -0.04800000041723251, 0.03200000151991844, 1.040000081062317, 0.0, 0.0, 0.0, 0.0, 0.0, 1.6206616720594711E9, 2021-05-10 17:47:52.059
97.0, -284.89996337890625, 83.93083190917969, 134.6775360107422, -0.45252788066864014, -0.04800000041723251, 0.03200000151991844, 1.040000081062317, 0.0, 0.0, 0.0, 0.0, 0.0, 1.620661672060196E9, 2021-05-10 17:47:52.060
97.0, -302.6570129394531, 76.81380462646484, 130.33924865722656, -1.682955026626587, -0.04800000041723251, 0.03200000151991844, 1.040000081062317, 0.0, 0.0, 0.0, 0.0, 0.0, 1.620661672060196E9, 2021-05-10 17:47:52.060
98.0, -321.27423095703125, 57.818851470947266, 106.18698120117188, -17.835582733154297, -0.04800000041723251, 0.03200000151991844, 1.040000081062317, 0.0, 0.0, 0.0, 0.0, 0.0, 1.6206616720743709E9, 2021-05-10 17:47:52.074
98.0, -325.7322082519531, 55.12612533569336, 100.36395263671875, -25.87262725830078, -0.04800000041723251, 0.03200000151991844, 1.040000081062317, 0.0, 0.0, 0.0, 0.0, 0.0, 1.6206616720743709E9, 2021-05-10 17:47:52.074
99.0, -302.5036926269531, 85.87184143066406, 127.05561828613281, -4.802031517028809, -0.04800000041723251, 0.03200000151991844, 1.040000081062317, 0.0, 0.0, 0.0, 0.0, 0.0, 1.620661672090171E9, 2021-05-10 17:47:52.090
99.0, -294.0851745605469, 89.34246826171875, 136.341796875, -6.544825077056885, -0.04800000041723251, 0.03200000151991844, 1.040000081062317, 0.0, 0.0, 0.0, 0.0, 0.0, 1.620661672090171E9, 2021-05-10 17:47:52.090
100.0, -310.5332336425781, 80.99127197265625, 120.95210266113281, -24.8067569732666, -0.04800000041723251, 0.03200000151991844, 1.055999994277954, 0.0, 0.0, 0.0, 0.0, 0.0, 1.6206616720908852E9, 2021-05-10 17:47:52.090
100.0, -336.6489562988281, 69.72669219970703, 107.13317108154297, -35.49913024902344, -0.04800000041723251, 0.03200000151991844, 1.055999994277954, 0.0, 0.0, 0.0, 0.0, 0.0, 1.6206616720908852E9, 2021-05-10 17:47:52.090
0.0, -295.9532470703125, 93.79108428955078, 130.9114532470703, -15.619691848754883, -0.04800000041723251, 0.03200000151991844, 1.055999994277954, 0.0, 0.0, 0.0, 0.0, 0.0, 1.6206616720916529E9, 2021-05-10 17:47:52.091
1.0, -284.15386962890625, 95.14118194580078, 147.3894500732422, -12.070527076721191, -0.04800000041723251, 0.03200000151991844, 1.055999994277954, 0.0, 0.0, 0.0, 0.0, 0.0, 1.6206616721037743E9, 2021-05-10 17:47:52.103
1.0, -320.079345703125, 79.65799713134766, 120.51079559326172, -31.267433166503906, -0.04800000041723251, 0.03200000151991844, 1.055999994277954, 0.0, 0.0, 0.0, 0.0, 0.0, 1.6206616721037743E9, 2021-05-10 17:47:52.103
2.0, -317.005126953125, 69.36205291748047, 116.92423248291016, -34.53236770629883, -0.04800000041723251, 0.03200000151991844, 1.055999994277954, 0.0, 0.0, 0.0, 0.0, 0.0, 1.6206616721196418E9, 2021-05-10 17:47:52.119
2.0, -304.54754638671875, 89.66970825195312, 140.08917236328125, -14.82309341430664, -0.04800000041723251, 0.03200000151991844, 1.055999994277954, 0.0, 0.0, 0.0, 0.0, 0.0, 1.6206616721196418E9, 2021-05-10 17:47:52.119
3.0, -302.7261962890625, 101.13624572753906, 140.485595703125, -10.473589897155762, -0.04800000041723251, 0.03200000151991844, 1.055999994277954, 0.0, 0.0, 0.0, 0.0, 0.0, 1.6206616721203806E9, 2021-05-10 17:47:52.120
3.0, -308.4893798828125, 71.20956420898438, 124.68452453613281, -22.893796920776367, -0.04800000041723251, 0.03200000151991844, 1.055999994277954, 0.0, 0.0, 0.0, 0.0, 0.0, 1.6206616721203806E9, 2021-05-10 17:47:52.120
4.0, -324.3128967285156, 71.34420013427734, 106.84893798828125, -27.318099975585938, -0.04800000041723251, 0.03200000151991844, 1.055999994277954, 0.0, 0.0, 0.0, 0.0, 0.0, 1.6206616721338043E9, 2021-05-10 17:47:52.133
4.0, -306.170654296875, 80.33866119384766, 130.7431640625, -5.570580959320068, -0.04800000041723251, 0.03200000151991844, 1.055999994277954, 0.0, 0.0, 0.0, 0.0, 0.0, 1.6206616721338043E9, 2021-05-10 17:47:52.133
5.0, -294.33013916015625, 93.4582290649414, 138.888671875, -0.2636629343032837, -0.04800000041723251, 0.03200000151991844, 1.055999994277954, 0.0, 0.0, 0.0, 0.0, 0.0, 1.6206616721495056E9, 2021-05-10 17:47:52.149
5.0, -320.4159240722656, 65.19954681396484, 117.63107299804688, -21.47263526916504, -0.04800000041723251, 0.03200000151991844, 1.055999994277954, 0.0, 0.0, 0.0, 0.0, 0.0, 1.6206616721495056E9, 2021-05-10 17:47:52.149
6.0, -304.9776306152344, 57.74592590332031, 113.74531555175781, -30.526933670043945, -0.04800000041723251, 0.03200000151991844, 1.055999994277954, 0.0, 0.0, 0.0, 0.0, 0.0, 1.6206616721502297E9, 2021-05-10 17:47:52.150
6.0, -300.3476257324219, 90.64956665039062, 130.72821044921875, -11.247749328613281, -0.04800000041723251, 0.03200000151991844, 1.055999994277954, 0.0, 0.0, 0.0, 0.0, 0.0, 1.6206616721502297E9, 2021-05-10 17:47:52.150
7.0, -309.375732421875, 95.6610336303711, 138.51841735839844, -8.854212760925293, -0.04800000041723251, 0.03200000151991844, 1.055999994277954, 0.0, 0.0, 0.0, 0.0, 0.0, 1.6206616721638334E9, 2021-05-10 17:47:52.163
7.0, -316.6161804199219, 59.12220764160156, 115.19639587402344, -23.45104217529297, -0.04800000041723251, 0.03200000151991844, 1.055999994277954, 0.0, 0.0, 0.0, 0.0, 0.0, 1.6206616721638334E9, 2021-05-10 17:47:52.163
8.0, -322.614990234375, 61.37736892700195, 103.28107452392578, -33.739505767822266, -0.04800000041723251, 0.03200000151991844, 1.055999994277954, 0.0, 0.0, 0.0, 0.0, 0.0, 1.6206616721795762E9, 2021-05-10 17:47:52.179
8.0, -312.17694091796875, 93.06179809570312, 126.13560485839844, -16.543447494506836, -0.04800000041723251, 0.03200000151991844, 1.055999994277954, 0.0, 0.0, 0.0, 0.0, 0.0, 1.6206616721795762E9, 2021-05-10 17:47:52.179
9.0, -294.8462219238281, 92.7962646484375, 137.3104248046875, -6.408318519592285, -0.04800000041723251, 0.03200000151991844, 1.055999994277954, 0.0, 0.0, 0.0, 0.0, 0.0, 1.6206616721803887E9, 2021-05-10 17:47:52.180
9.0, -317.4464416503906, 72.98601531982422, 114.65785217285156, -31.278654098510742, -0.04800000041723251, 0.03200000151991844, 1.055999994277954, 0.0, 0.0, 0.0, 0.0, 0.0, 1.6206616721803887E9, 2021-05-10 17:47:52.180
10.0, -335.4839782714844, 70.83557891845703, 103.15017700195312, -34.379032135009766, -0.04800000041723251, 0.03200000151991844, 1.055999994277954, 0.0, 0.0, 0.0, 0.0, 0.0, 1.6206616721938174E9, 2021-05-10 17:47:52.193
10.0, -306.6269226074219, 99.4794692993164, 134.95054626464844, -8.899091720581055, -0.04800000041723251, 0.03200000151991844, 1.055999994277954, 0.0, 0.0, 0.0, 0.0, 0.0, 1.6206616721938174E9, 2021-05-10 17:47:52.193
11.0, -292.90521240234375, 99.85346221923828, 138.64930725097656, -11.95458984375, -0.04800000041723251, 0.01600000075995922, 1.055999994277954, 0.0, 0.0, 0.0, 0.0, 0.0, 1.620661672226536E9, 2021-05-10 17:47:52.226
11.0, -326.9944152832031, 75.97419738769531, 117.29074096679688, -24.4608154296875, -0.04800000041723251, 0.01600000075995922, 1.055999994277954, 0.0, 0.0, 0.0, 0.0, 0.0, 1.620661672226536E9, 2021-05-10 17:47:52.226
12.0, -333.5354919433594, 77.23828125, 113.7640151977539, -18.87340545654297, -0.04800000041723251, 0.01600000075995922, 1.055999994277954, 0.0, 0.0, 0.0, 0.0, 0.0, 1.620661672227228E9, 2021-05-10 17:47:52.227
12.0, -289.0531311035156, 87.837158203125, 137.67320251464844, -5.308787822723389, -0.04800000041723251, 0.01600000075995922, 1.055999994277954, 0.0, 0.0, 0.0, 0.0, 0.0, 1.620661672227228E9, 2021-05-10 17:47:52.227
13.0, -298.2084045410156, 93.28993225097656, 137.98361206054688, 2.6721584796905518, -0.04800000041723251, 0.01600000075995922, 1.055999994277954, 0.0, 0.0, 0.0, 0.0, 0.0, 1.6206616722281196E9, 2021-05-10 17:47:52.228
13.0, -319.84747314453125, 69.2872543334961, 110.64119720458984, -22.819000244140625, -0.04800000041723251, 0.01600000075995922, 1.055999994277954, 0.0, 0.0, 0.0, 0.0, 0.0, 1.6206616722281196E9, 2021-05-10 17:47:52.228
14.0, -341.6136779785156, 63.39317321777344, 103.40449523925781, -23.084531784057617, -0.04800000041723251, 0.01600000075995922, 1.055999994277954, 0.0, 0.0, 0.0, 0.0, 0.0, 1.620661672228706E9, 2021-05-10 17:47:52.228
14.0, -307.13555908203125, 78.73424530029297, 127.01448059082031, -4.037221908569336, -0.04800000041723251, 0.01600000075995922, 1.055999994277954, 0.0, 0.0, 0.0, 0.0, 0.0, 1.620661672228706E9, 2021-05-10 17:47:52.228
15.0, -300.4448547363281, 88.68611907958984, 134.2586669921875, -0.2823624610900879, -0.04800000041723251, 0.01600000075995922, 1.055999994277954, 0.0, 0.0, 0.0, 0.0, 0.0, 1.6206616722388425E9, 2021-05-10 17:47:52.238
15.0, -320.46453857421875, 73.60310363769531, 115.70502471923828, -17.13435173034668, -0.04800000041723251, 0.01600000075995922, 1.055999994277954, 0.0, 0.0, 0.0, 0.0, 0.0, 1.6206616722388425E9, 2021-05-10 17:47:52.238
16.0, -322.28961181640625, 60.345157623291016, 104.5863037109375, -24.415937423706055, -0.04800000041723251, 0.01600000075995922, 1.055999994277954, 0.0, 0.0, 0.0, 0.0, 0.0, 1.6206616722537856E9, 2021-05-10 17:47:52.253
16.0, -293.20440673828125, 75.81712341308594, 140.72496032714844, -0.33098113536834717, -0.04800000041723251, 0.01600000075995922, 1.055999994277954, 0.0, 0.0, 0.0, 0.0, 0.0, 1.6206616722537856E9, 2021-05-10 17:47:52.253
17.0, -294.26654052734375, 80.72013092041016, 144.83135986328125, -2.1822316646575928, -0.04800000041723251, 0.01600000075995922, 1.055999994277954, 0.0, 0.0, 0.0, 0.0, 0.0, 1.620661672285852E9, 2021-05-10 17:47:52.285
17.0, -298.6011047363281, 55.85353469848633, 113.12823486328125, -22.74420166015625, -0.04800000041723251, 0.01600000075995922, 1.055999994277954, 0.0, 0.0, 0.0, 0.0, 0.0, 1.620661672285852E9, 2021-05-10 17:47:52.285
18.0, -329.15606689453125, 57.19615936279297, 114.09687042236328, -20.55261993408203, -0.04800000041723251, 0.01600000075995922, 1.055999994277954, 0.0, 0.0, 0.0, 0.0, 0.0, 1.6206616722866452E9, 2021-05-10 17:47:52.286
18.0, -312.6107482910156, 82.59381866455078, 137.1496124267578, -1.5801076889038086, -0.04800000041723251, 0.01600000075995922, 1.055999994277954, 0.0, 0.0, 0.0, 0.0, 0.0, 1.6206616722866452E9, 2021-05-10 17:47:52.286
19.0, -296.5179748535156, 82.29088592529297, 140.60902404785156, -3.2069642543792725, -0.04800000041723251, 0.01600000075995922, 1.055999994277954, 0.0, 0.0, 0.0, 0.0, 0.0, 1.6206616722874277E9, 2021-05-10 17:47:52.287
19.0, -308.4258117675781, 62.7012939453125, 120.99324035644531, -22.067279815673828, -0.04800000041723251, 0.01600000075995922, 1.055999994277954, 0.0, 0.0, 0.0, 0.0, 0.0, 1.6206616722874277E9, 2021-05-10 17:47:52.287
20.0, -334.16754150390625, 59.410179138183594, 108.7188949584961, -27.785587310791016, -0.04800000041723251, 0.01600000075995922, 1.055999994277954, 0.0, 0.0, 0.0, 0.0, 0.0, 1.6206616722881703E9, 2021-05-10 17:47:52.288
20.0, -310.1199951171875, 82.80325317382812, 129.12753295898438, -5.054474830627441, -0.04800000041723251, 0.01600000075995922, 1.055999994277954, 0.0, 0.0, 0.0, 0.0, 0.0, 1.6206616722881703E9, 2021-05-10 17:47:52.288
21.0, -305.12347412109375, 88.32334899902344, 135.09640502929688, -6.191404342651367, -0.04800000041723251, 0.01600000075995922, 1.055999994277954, 0.0, 0.0, 0.0, 0.0, 0.0, 1.6206616722987788E9, 2021-05-10 17:47:52.298
21.0, -321.4107360839844, 73.92098999023438, 116.07901763916016, -23.017213821411133, -0.04800000041723251, 0.01600000075995922, 1.055999994277954, 0.0, 0.0, 0.0, 0.0, 0.0, 1.6206616722987788E9, 2021-05-10 17:47:52.298
22.0, -314.03564453125, 67.54072570800781, 115.5442123413086, -22.811519622802734, -0.04800000041723251, 0.01600000075995922, 1.055999994277954, 0.0, 0.0, 0.0, 0.0, 0.0, 1.6206616723138463E9, 2021-05-10 17:47:52.313
22.0, -303.1413269042969, 89.14238739013672, 135.17868041992188, -4.747803211212158, -0.04800000041723251, 0.01600000075995922, 1.055999994277954, 0.0, 0.0, 0.0, 0.0, 0.0, 1.6206616723138463E9, 2021-05-10 17:47:52.313
23.0, -304.8841247558594, 85.95973205566406, 142.09750366210938, -4.317714691162109, -0.04800000041723251, 0.01600000075995922, 1.055999994277954, 0.0, 0.0, 0.0, 0.0, 0.0, 1.620661672330161E9, 2021-05-10 17:47:52.330
23.0, -318.66192626953125, 58.295692443847656, 116.7933349609375, -18.009489059448242, -0.04800000041723251, 0.01600000075995922, 1.055999994277954, 0.0, 0.0, 0.0, 0.0, 0.0, 1.620661672330161E9, 2021-05-10 17:47:52.330
24.0, -324.78411865234375, 58.14983367919922, 113.71165466308594, -29.677976608276367, -0.04800000041723251, 0.01600000075995922, 1.055999994277954, 0.0, 0.0, 0.0, 0.0, 0.0, 1.6206616723308487E9, 2021-05-10 17:47:52.330
24.0, -302.251220703125, 87.11910247802734, 138.35760498046875, -11.580599784851074, -0.04800000041723251, 0.01600000075995922, 1.055999994277954, 0.0, 0.0, 0.0, 0.0, 0.0, 1.6206616723308487E9, 2021-05-10 17:47:52.330
25.0, -288.2752380371094, 79.75897979736328, 142.80433654785156, -9.819107055664062, -0.04800000041723251, 0.01600000075995922, 1.055999994277954, 0.0, 0.0, 0.0, 0.0, 0.0, 1.6206616723438544E9, 2021-05-10 17:47:52.343
25.0, -301.89593505859375, 62.77983093261719, 122.82953643798828, -33.5450325012207, -0.04800000041723251, 0.01600000075995922, 1.055999994277954, 0.0, 0.0, 0.0, 0.0, 0.0, 1.6206616723438544E9, 2021-05-10 17:47:52.343
26.0, -305.9462585449219, 49.26757049560547, 115.15151977539062, -38.23112869262695, -0.04800000041723251, 0.01600000075995922, 1.055999994277954, 0.0, 0.0, 0.0, 0.0, 0.0, 1.6206616723594968E9, 2021-05-10 17:47:52.359
26.0, -310.5500793457031, 90.63086700439453, 127.30245208740234, -17.822492599487305, -0.04800000041723251, 0.01600000075995922, 1.055999994277954, 0.0, 0.0, 0.0, 0.0, 0.0, 1.6206616723594968E9, 2021-05-10 17:47:52.359
27.0, -286.6147155761719, 85.32769012451172, 133.73133850097656, -17.272727966308594, -0.04800000041723251, 0.01600000075995922, 1.055999994277954, 0.0, 0.0, 0.0, 0.0, 0.0, 1.6206616723602288E9, 2021-05-10 17:47:52.360
27.0, -313.0558166503906, 57.461692810058594, 108.32620239257812, -32.65119552612305, -0.04800000041723251, 0.01600000075995922, 1.055999994277954, 0.0, 0.0, 0.0, 0.0, 0.0, 1.6206616723602288E9, 2021-05-10 17:47:52.360
28.0, -324.3241271972656, 64.05887603759766, 94.8513412475586, -33.10746383666992, -0.04800000041723251, 0.01600000075995922, 1.055999994277954, 0.0, 0.0, 0.0, 0.0, 0.0, 1.6206616723738313E9, 2021-05-10 17:47:52.373
28.0, -307.9657897949219, 88.68985748291016, 116.4530029296875, -15.784247398376465, -0.04800000041723251, 0.01600000075995922, 1.055999994277954, 0.0, 0.0, 0.0, 0.0, 0.0, 1.6206616723738313E9, 2021-05-10 17:47:52.373
29.0, -300.1568908691406, 90.78046417236328, 123.86174774169922, -3.6146132946014404, -0.04800000041723251, 0.01600000075995922, 1.055999994277954, 0.0, 0.0, 0.0, 0.0, 0.0, 1.620661672390214E9, 2021-05-10 17:47:52.390
29.0, -323.1273498535156, 67.36494445800781, 108.84978485107422, -11.786294937133789, -0.04800000041723251, 0.01600000075995922, 1.055999994277954, 0.0, 0.0, 0.0, 0.0, 0.0, 1.620661672390214E9, 2021-05-10 17:47:52.390
30.0, -335.92529296875, 71.99120330810547, 101.30267333984375, -22.332813262939453, -0.04800000041723251, 0.01600000075995922, 1.055999994277954, 0.0, 0.0, 0.0, 0.0, 0.0, 1.6206616723908732E9, 2021-05-10 17:47:52.390
30.0, -313.3662109375, 92.07072448730469, 122.82205200195312, -4.067141056060791, -0.04800000041723251, 0.01600000075995922, 1.055999994277954, 0.0, 0.0, 0.0, 0.0, 0.0, 1.6206616723908732E9, 2021-05-10 17:47:52.390
31.0, -306.92236328125, 95.25711822509766, 132.36627197265625, 0.2636629343032837, -0.04800000041723251, 0.01600000075995922, 1.055999994277954, 0.0, 0.0, 0.0, 0.0, 0.0, 1.6206616724037745E9, 2021-05-10 17:47:52.403
31.0, -320.0082702636719, 78.59212493896484, 115.52925109863281, -12.03686809539795, -0.04800000041723251, 0.01600000075995922, 1.055999994277954, 0.0, 0.0, 0.0, 0.0, 0.0, 1.6206616724037745E9, 2021-05-10 17:47:52.403
32.0, -329.0999755859375, 66.43745422363281, 98.34066772460938, -27.15354347229004, -0.03200000151991844, 0.01600000075995922, 1.055999994277954, 0.0, 0.0, 0.0, 0.0, 0.0, 1.6206616724358587E9, 2021-05-10 17:47:52.435
32.0, -303.7509460449219, 87.40333557128906, 129.53143310546875, -7.309634685516357, -0.03200000151991844, 0.01600000075995922, 1.055999994277954, 0.0, 0.0, 0.0, 0.0, 0.0, 1.6206616724358587E9, 2021-05-10 17:47:52.435
33.0, -289.87591552734375, 92.83740997314453, 135.49658203125, -0.7535898685455322, -0.03200000151991844, 0.01600000075995922, 1.055999994277954, 0.0, 0.0, 0.0, 0.0, 0.0, 1.6206616724365678E9, 2021-05-10 17:47:52.436
33.0, -307.2552185058594, 62.56291580200195, 116.76342010498047, -21.64841079711914, -0.03200000151991844, 0.01600000075995922, 1.055999994277954, 0.0, 0.0, 0.0, 0.0, 0.0, 1.6206616724365678E9, 2021-05-10 17:47:52.436
34.0, -328.59881591796875, 53.587158203125, 110.14753723144531, -26.712234497070312, -0.03200000151991844, 0.01600000075995922, 1.055999994277954, 0.0, 0.0, 0.0, 0.0, 0.0, 1.6206616724374192E9, 2021-05-10 17:47:52.437
34.0, -297.6549072265625, 83.52505493164062, 132.5944061279297, -15.342939376831055, -0.03200000151991844, 0.01600000075995922, 1.055999994277954, 0.0, 0.0, 0.0, 0.0, 0.0, 1.6206616724374192E9, 2021-05-10 17:47:52.437
35.0, -283.600341796875, 84.3216552734375, 143.60467529296875, -7.578907489776611, -0.03200000151991844, 0.01600000075995922, 1.055999994277954, 0.0, 0.0, 0.0, 0.0, 0.0, 1.6206616724382267E9, 2021-05-10 17:47:52.438
35.0, -309.3458251953125, 58.49390411376953, 113.6406021118164, -25.601484298706055, -0.03200000151991844, 0.01600000075995922, 1.055999994277954, 0.0, 0.0, 0.0, 0.0, 0.0, 1.6206616724382267E9, 2021-05-10 17:47:52.438
36.0, -323.9426574707031, 59.54107666015625, 106.26177978515625, -27.920223236083984, -0.03200000151991844, 0.01600000075995922, 1.055999994277954, 0.0, 0.0, 0.0, 0.0, 0.0, 1.6206616724644003E9, 2021-05-10 17:47:52.464
36.0, -278.9740905761719, 82.67984008789062, 134.5952606201172, -10.241716384887695, -0.03200000151991844, 0.01600000075995922, 1.055999994277954, 0.0, 0.0, 0.0, 0.0, 0.0, 1.6206616724644003E9, 2021-05-10 17:47:52.464
37.0, -293.5073547363281, 90.4251708984375, 140.94935607910156, -1.3145748376846313, -0.03200000151991844, 0.01600000075995922, 1.055999994277954, 0.0, 0.0, 0.0, 0.0, 0.0, 1.6206616724651926E9, 2021-05-10 17:47:52.465
37.0, -301.64910888671875, 59.185787200927734, 120.79502868652344, -18.622831344604492, -0.03200000151991844, 0.01600000075995922, 1.055999994277954, 0.0, 0.0, 0.0, 0.0, 0.0, 1.6206616724651926E9, 2021-05-10 17:47:52.465
38.0, -320.3598327636719, 61.54566192626953, 104.62370300292969, -27.314359664916992, -0.03200000151991844, 0.01600000075995922, 1.055999994277954, 0.0, 0.0, 0.0, 0.0, 0.0, 1.6206616724795375E9, 2021-05-10 17:47:52.479
38.0, -307.0457763671875, 75.13272094726562, 127.70636749267578, -4.553328037261963, -0.03200000151991844, 0.01600000075995922, 1.055999994277954, 0.0, 0.0, 0.0, 0.0, 0.0, 1.6206616724795375E9, 2021-05-10 17:47:52.479
39.0, -302.2437438964844, 75.09906005859375, 127.49693298339844, 0.7386302351951599, -0.03200000151991844, 0.01600000075995922, 1.055999994277954, 0.0, 0.0, 0.0, 0.0, 0.0, 1.6206616724802728E9, 2021-05-10 17:47:52.480
39.0, -312.3863525390625, 63.65122604370117, 108.58425903320312, -13.768442153930664, -0.03200000151991844, 0.01600000075995922, 1.055999994277954, 0.0, 0.0, 0.0, 0.0, 0.0, 1.6206616724802728E9, 2021-05-10 17:47:52.480
40.0, -326.94580078125, 55.95451354980469, 99.17466735839844, -20.720914840698242, -0.03200000151991844, 0.01600000075995922, 1.055999994277954, 0.0, 0.0, 0.0, 0.0, 0.0, 1.620661672493748E9, 2021-05-10 17:47:52.493
40.0, -316.5488586425781, 75.3122329711914, 121.67390441894531, 0.7199307680130005, -0.03200000151991844, 0.01600000075995922, 1.055999994277954, 0.0, 0.0, 0.0, 0.0, 0.0, 1.620661672493748E9, 2021-05-10 17:47:52.493
41.0, -297.29962158203125, 87.54544830322266, 132.67295837402344, -2.2832088470458984, -0.03200000151991844, 0.01600000075995922, 1.055999994277954, 0.0, 0.0, 0.0, 0.0, 0.0, 1.6206616725100505E9, 2021-05-10 17:47:52.510
41.0, -326.1304931640625, 69.43311309814453, 112.20073699951172, -21.09116554260254, -0.03200000151991844, 0.01600000075995922, 1.055999994277954, 0.0, 0.0, 0.0, 0.0, 0.0, 1.6206616725100505E9, 2021-05-10 17:47:52.510
42.0, -325.5133972167969, 60.46109390258789, 100.56217193603516, -32.217369079589844, -0.03200000151991844, 0.01600000075995922, 1.055999994277954, 0.0, 0.0, 0.0, 0.0, 0.0, 1.6206616725244353E9, 2021-05-10 17:47:52.524
42.0, -309.0129699707031, 86.39356231689453, 120.57437133789062, -15.223262786865234, -0.03200000151991844, 0.01600000075995922, 1.055999994277954, 0.0, 0.0, 0.0, 0.0, 0.0, 1.6206616725244353E9, 2021-05-10 17:47:52.524
43.0, -288.7576904296875, 92.44845581054688, 134.56907653808594, -7.253535747528076, -0.03200000151991844, 0.01600000075995922, 1.055999994277954, 0.0, 0.0, 0.0, 0.0, 0.0, 1.6206616725252397E9, 2021-05-10 17:47:52.525
43.0, -298.0775146484375, 66.01484680175781, 111.87910461425781, -31.42824935913086, -0.03200000151991844, 0.01600000075995922, 1.055999994277954, 0.0, 0.0, 0.0, 0.0, 0.0, 1.6206616725252397E9, 2021-05-10 17:47:52.525
44.0, -331.0185546875, 64.84051513671875, 109.09288024902344, -29.868711471557617, -0.03200000151991844, 0.01600000075995922, 1.055999994277954, 0.0, 0.0, 0.0, 0.0, 0.0, 1.6206616725395436E9, 2021-05-10 17:47:52.539
44.0, -294.4759826660156, 81.72242736816406, 139.76754760742188, -6.744909763336182, -0.03200000151991844, 0.01600000075995922, 1.055999994277954, 0.0, 0.0, 0.0, 0.0, 0.0, 1.6206616725395436E9, 2021-05-10 17:47:52.539
45.0, -283.3759460449219, 91.68925476074219, 145.54942321777344, 2.432804822921753, -0.03200000151991844, 0.01600000075995922, 1.055999994277954, 0.0, 0.0, 0.0, 0.0, 0.0, 1.620661672540249E9, 2021-05-10 17:47:52.540
45.0, -315.7821960449219, 60.65182876586914, 117.76570892333984, -22.28419303894043, -0.03200000151991844, 0.01600000075995922, 1.055999994277954, 0.0, 0.0, 0.0, 0.0, 0.0, 1.620661672540249E9, 2021-05-10 17:47:52.540
46.0, -323.7369689941406, 57.49909210205078, 113.14693450927734, -22.98355484008789, -0.03200000151991844, 0.01600000075995922, 1.055999994277954, 0.0, 0.0, 0.0, 0.0, 0.0, 1.6206616725538528E9, 2021-05-10 17:47:52.553
46.0, -301.4097595214844, 79.45604705810547, 129.73338317871094, -9.003808975219727, -0.03200000151991844, 0.01600000075995922, 1.055999994277954, 0.0, 0.0, 0.0, 0.0, 0.0, 1.6206616725538528E9, 2021-05-10 17:47:52.553
47.0, -281.6032409667969, 86.88348388671875, 138.32020568847656, -4.0185227394104, -0.03200000151991844, 0.01600000075995922, 1.055999994277954, 0.0, 0.0, 0.0, 0.0, 0.0, 1.620661672569497E9, 2021-05-10 17:47:52.569
47.0, -321.1526794433594, 57.368194580078125, 108.37482452392578, -22.452489852905273, -0.03200000151991844, 0.01600000075995922, 1.055999994277954, 0.0, 0.0, 0.0, 0.0, 0.0, 1.620661672569497E9, 2021-05-10 17:47:52.569
48.0, -321.0255432128906, 54.72408676147461, 106.4749526977539, -22.05232048034668, -0.03200000151991844, 0.01600000075995922, 1.055999994277954, 0.0, 0.0, 0.0, 0.0, 0.0, 1.6206616725702548E9, 2021-05-10 17:47:52.570
48.0, -296.63763427734375, 76.84559631347656, 134.44940185546875, -0.24870334565639496, -0.03200000151991844, 0.01600000075995922, 1.055999994277954, 0.0, 0.0, 0.0, 0.0, 0.0, 1.6206616725702548E9, 2021-05-10 17:47:52.570
49.0, -295.89715576171875, 86.32624053955078, 137.93499755859375, 0.7984686493873596, -0.03200000151991844, 0.01600000075995922, 1.055999994277954, 0.0, 0.0, 0.0, 0.0, 0.0, 1.6206616725838172E9, 2021-05-10 17:47:52.583
49.0, -322.17742919921875, 63.482933044433594, 110.53648376464844, -17.27646827697754, -0.03200000151991844, 0.01600000075995922, 1.055999994277954, 0.0, 0.0, 0.0, 0.0, 0.0, 1.6206616725838172E9, 2021-05-10 17:47:52.583
50.0, -326.48577880859375, 62.7723503112793, 110.31208801269531, -23.488441467285156, -0.03200000151991844, 0.01600000075995922, 1.055999994277954, 0.0, 0.0, 0.0, 0.0, 0.0, 1.6206616725994716E9, 2021-05-10 17:47:52.599
50.0, -296.7498474121094, 85.66801452636719, 136.01268005371094, -3.8801462650299072, -0.03200000151991844, 0.01600000075995922, 1.055999994277954, 0.0, 0.0, 0.0, 0.0, 0.0, 1.6206616725994716E9, 2021-05-10 17:47:52.599
51.0, -300.3363952636719, 93.69758605957031, 133.57052612304688, -4.553328037261963, -0.03200000151991844, 0.01600000075995922, 1.055999994277954, 0.0, 0.0, 0.0, 0.0, 0.0, 1.6206616726001918E9, 2021-05-10 17:47:52.600
51.0, -319.41363525390625, 74.23140716552734, 117.9601821899414, -15.197083473205566, -0.03200000151991844, 0.01600000075995922, 1.055999994277954, 0.0, 0.0, 0.0, 0.0, 0.0, 1.6206616726001918E9, 2021-05-10 17:47:52.600
52.0, -321.0367431640625, 68.25878143310547, 107.47350311279297, -22.661924362182617, -0.03200000151991844, 0.01600000075995922, 1.055999994277954, 0.0, 0.0, 0.0, 0.0, 0.0, 1.6206616726138735E9, 2021-05-10 17:47:52.613
52.0, -315.9317932128906, 89.83800506591797, 124.59476470947266, -5.9557905197143555, -0.03200000151991844, 0.01600000075995922, 1.055999994277954, 0.0, 0.0, 0.0, 0.0, 0.0, 1.6206616726138735E9, 2021-05-10 17:47:52.613
53.0, -299.0872802734375, 92.52325439453125, 141.35325622558594, 1.1761984825134277, -0.03200000151991844, 0.01600000075995922, 1.055999994277954, 0.0, 0.0, 0.0, 0.0, 0.0, 1.6206616726294885E9, 2021-05-10 17:47:52.629
53.0, -319.2453308105469, 72.08096313476562, 125.83641052246094, -19.59894561767578, -0.03200000151991844, 0.01600000075995922, 1.055999994277954, 0.0, 0.0, 0.0, 0.0, 0.0, 1.6206616726294885E9, 2021-05-10 17:47:52.629
54.0, -313.811279296875, 57.26721954345703, 115.31607818603516, -26.697275161743164, -0.03200000151991844, 0.01600000075995922, 1.055999994277954, 0.0, 0.0, 0.0, 0.0, 0.0, 1.6206616726302238E9, 2021-05-10 17:47:52.630
54.0, -303.60882568359375, 83.83546447753906, 136.4614715576172, -8.633559226989746, -0.03200000151991844, 0.01600000075995922, 1.055999994277954, 0.0, 0.0, 0.0, 0.0, 0.0, 1.6206616726302238E9, 2021-05-10 17:47:52.630
55.0, -293.66815185546875, 95.20476531982422, 138.69418334960938, -4.063401222229004, -0.03200000151991844, 0.01600000075995922, 1.055999994277954, 0.0, 0.0, 0.0, 0.0, 0.0, 1.62066167264381E9, 2021-05-10 17:47:52.643
55.0, -315.2660827636719, 72.83641815185547, 120.13306427001953, -23.742753982543945, -0.03200000151991844, 0.01600000075995922, 1.055999994277954, 0.0, 0.0, 0.0, 0.0, 0.0, 1.62066167264381E9, 2021-05-10 17:47:52.643
56.0, -316.0028381347656, 59.997344970703125, 112.04740142822266, -29.367565155029297, -0.03200000151991844, 0.01600000075995922, 1.055999994277954, 0.0, 0.0, 0.0, 0.0, 0.0, 1.6206616726595433E9, 2021-05-10 17:47:52.659
56.0, -301.6416320800781, 77.91520690917969, 127.57172393798828, -10.17813777923584, -0.03200000151991844, 0.01600000075995922, 1.055999994277954, 0.0, 0.0, 0.0, 0.0, 0.0, 1.6206616726595433E9, 2021-05-10 17:47:52.659
57.0, -293.72052001953125, 91.4686050415039, 135.7845458984375, -3.139646053314209, -0.03200000151991844, 0.01600000075995922, 1.055999994277954, 0.0, 0.0, 0.0, 0.0, 0.0, 1.6206616726602E9, 2021-05-10 17:47:52.660
57.0, -310.6061706542969, 60.58076858520508, 115.94063568115234, -24.909603118896484, -0.03200000151991844, 0.01600000075995922, 1.055999994277954, 0.0, 0.0, 0.0, 0.0, 0.0, 1.6206616726602E9, 2021-05-10 17:47:52.660
58.0, -319.9409484863281, 57.44673156738281, 101.08201599121094, -34.6370849609375, -0.03200000151991844, 0.01600000075995922, 1.055999994277954, 0.0, 0.0, 0.0, 0.0, 0.0, 1.620661672673867E9, 2021-05-10 17:47:52.673
58.0, -299.4201354980469, 76.92787170410156, 132.8711700439453, -2.9302115440368652, -0.03200000151991844, 0.01600000075995922, 1.055999994277954, 0.0, 0.0, 0.0, 0.0, 0.0, 1.620661672673867E9, 2021-05-10 17:47:52.673
59.0, -288.7838439941406, 92.99822235107422, 138.88491821289062, -5.450904369354248, -0.03200000151991844, 0.01600000075995922, 1.055999994277954, 0.0, 0.0, 0.0, 0.0, 0.0, 1.6206616726897783E9, 2021-05-10 17:47:52.689
59.0, -325.9771728515625, 65.99240112304688, 112.32415771484375, -19.258615493774414, -0.03200000151991844, 0.01600000075995922, 1.055999994277954, 0.0, 0.0, 0.0, 0.0, 0.0, 1.6206616726897783E9, 2021-05-10 17:47:52.689
60.0, -324.12591552734375, 54.09952163696289, 105.91022491455078, -24.928302764892578, -0.03200000151991844, 0.01600000075995922, 1.055999994277954, 0.0, 0.0, 0.0, 0.0, 0.0, 1.620661672704631E9, 2021-05-10 17:47:52.704
60.0, -302.1390380859375, 81.13526153564453, 123.54385375976562, -9.21324348449707, -0.03200000151991844, 0.01600000075995922, 1.055999994277954, 0.0, 0.0, 0.0, 0.0, 0.0, 1.620661672704631E9, 2021-05-10 17:47:52.704
61.0, -275.2005310058594, 91.0459976196289, 141.53277587890625, 4.310234546661377, -0.03200000151991844, 0.01600000075995922, 1.055999994277954, 0.0, 0.0, 0.0, 0.0, 0.0, 1.6206616727052603E9, 2021-05-10 17:47:52.705
61.0, -319.387451171875, 60.92110061645508, 111.87162780761719, -11.240269660949707, -0.03200000151991844, 0.01600000075995922, 1.055999994277954, 0.0, 0.0, 0.0, 0.0, 0.0, 1.6206616727052603E9, 2021-05-10 17:47:52.705
62.0, -320.2139892578125, 51.88924026489258, 105.26322174072266, -21.786787033081055, -0.03200000151991844, 0.01600000075995922, 1.055999994277954, 0.0, 0.0, 0.0, 0.0, 0.0, 1.6206616727195144E9, 2021-05-10 17:47:52.719
62.0, -307.027099609375, 70.03524017333984, 128.1177520751953, -6.703770637512207, -0.03200000151991844, 0.01600000075995922, 1.055999994277954, 0.0, 0.0, 0.0, 0.0, 0.0, 1.6206616727195144E9, 2021-05-10 17:47:52.719
63.0, -299.8988342285156, 84.95743560791016, 137.3927001953125, -3.4724972248077393, -0.03200000151991844, 0.01600000075995922, 1.055999994277954, 0.0, 0.0, 0.0, 0.0, 0.0, 1.620661672720225E9, 2021-05-10 17:47:52.720
63.0, -307.0457763671875, 67.14429473876953, 119.38508605957031, -23.37250518798828, -0.03200000151991844, 0.01600000075995922, 1.055999994277954, 0.0, 0.0, 0.0, 0.0, 0.0, 1.620661672720225E9, 2021-05-10 17:47:52.720
64.0, -316.3843078613281, 48.3999137878418, 104.68354034423828, -30.171642303466797, -0.03200000151991844, 0.01600000075995922, 1.055999994277954, 0.0, 0.0, 0.0, 0.0, 0.0, 1.6206616727337353E9, 2021-05-10 17:47:52.733
64.0, -305.4825134277344, 91.40876770019531, 133.16287231445312, -8.693397521972656, -0.03200000151991844, 0.01600000075995922, 1.055999994277954, 0.0, 0.0, 0.0, 0.0, 0.0, 1.6206616727337353E9, 2021-05-10 17:47:52.733
65.0, -279.86419677734375, 86.49079895019531, 137.2655487060547, -7.754682540893555, -0.03200000151991844, 0.01600000075995922, 1.055999994277954, 0.0, 0.0, 0.0, 0.0, 0.0, 1.6206616727495964E9, 2021-05-10 17:47:52.749
65.0, -324.1483459472656, 62.34600067138672, 109.39581298828125, -29.94350814819336, -0.03200000151991844, 0.01600000075995922, 1.055999994277954, 0.0, 0.0, 0.0, 0.0, 0.0, 1.6206616727495964E9, 2021-05-10 17:47:52.749
66.0, -315.0865783691406, 49.877174377441406, 112.10350036621094, -28.36153221130371, -0.03200000151991844, 0.01600000075995922, 1.055999994277954, 0.0, 0.0, 0.0, 0.0, 0.0, 1.620661672750272E9, 2021-05-10 17:47:52.750
66.0, -293.5709228515625, 84.0411605834961, 129.92787170410156, -9.953743934631348, -0.03200000151991844, 0.01600000075995922, 1.055999994277954, 0.0, 0.0, 0.0, 0.0, 0.0, 1.620661672750272E9, 2021-05-10 17:47:52.750
67.0, -282.4185485839844, 90.63834381103516, 137.7779083251953, -6.756129264831543, -0.03200000151991844, 0.01600000075995922, 1.055999994277954, 0.0, 0.0, 0.0, 0.0, 0.0, 1.6206616727638109E9, 2021-05-10 17:47:52.763
67.0, -321.73236083984375, 64.06635284423828, 109.55663299560547, -25.96051597595215, -0.03200000151991844, 0.01600000075995922, 1.055999994277954, 0.0, 0.0, 0.0, 0.0, 0.0, 1.6206616727638109E9, 2021-05-10 17:47:52.763
68.0, -301.6865234375, 58.40788650512695, 111.42658233642578, -28.009981155395508, -0.03200000151991844, 0.01600000075995922, 1.055999994277954, 0.0, 0.0, 0.0, 0.0, 0.0, 1.6206616727796044E9, 2021-05-10 17:47:52.779
68.0, -285.4478759765625, 84.10848236083984, 137.7891387939453, -9.504955291748047, -0.03200000151991844, 0.01600000075995922, 1.055999994277954, 0.0, 0.0, 0.0, 0.0, 0.0, 1.6206616727796044E9, 2021-05-10 17:47:52.779
69.0, -308.2724609375, 87.17893981933594, 137.62457275390625, 4.033482074737549, -0.03200000151991844, 0.01600000075995922, 1.055999994277954, 0.0, 0.0, 0.0, 0.0, 0.0, 1.6206616727802696E9, 2021-05-10 17:47:52.780
69.0, -307.11309814453125, 69.0441665649414, 116.59138488769531, -7.9117584228515625, -0.03200000151991844, 0.01600000075995922, 1.055999994277954, 0.0, 0.0, 0.0, 0.0, 0.0, 1.6206616727802696E9, 2021-05-10 17:47:52.780
70.0, -311.40277099609375, 50.47182083129883, 112.6383056640625, -15.518714904785156, -0.03200000151991844, 0.01600000075995922, 1.055999994277954, 0.0, 0.0, 0.0, 0.0, 0.0, 1.6206616728102567E9, 2021-05-10 17:47:52.810
70.0, -297.8269348144531, 73.6218032836914, 128.39450073242188, 7.605086326599121, -0.03200000151991844, 0.01600000075995922, 1.055999994277954, 0.0, 0.0, 0.0, 0.0, 0.0, 1.6206616728102567E9, 2021-05-10 17:47:52.810
71.0, -301.83984375, 83.02391052246094, 136.9850616455078, 7.788341522216797, -0.03200000151991844, 0.01600000075995922, 1.055999994277954, 0.0, 0.0, 0.0, 0.0, 0.0, 1.6206616728109944E9, 2021-05-10 17:47:52.810
71.0, -292.6434326171875, 64.6497802734375, 113.84629821777344, -8.177290916442871, -0.03200000151991844, 0.01600000075995922, 1.055999994277954, 0.0, 0.0, 0.0, 0.0, 0.0, 1.6206616728109944E9, 2021-05-10 17:47:52.810
72.0, -321.6687927246094, 60.21426010131836, 112.55229187011719, -13.899337768554688, -0.03200000151991844, 0.01600000075995922, 1.055999994277954, 0.0, 0.0, 0.0, 0.0, 0.0, 1.6206616728116732E9, 2021-05-10 17:47:52.811
72.0, -311.81414794921875, 78.1583023071289, 129.02281188964844, 1.8643401861190796, -0.03200000151991844, 0.01600000075995922, 1.055999994277954, 0.0, 0.0, 0.0, 0.0, 0.0, 1.6206616728116732E9, 2021-05-10 17:47:52.811
73.0, -289.0867919921875, 90.29801177978516, 139.07940673828125, 3.3677799701690674, -0.03200000151991844, 0.01600000075995922, 1.055999994277954, 0.0, 0.0, 0.0, 0.0, 0.0, 1.620661672823778E9, 2021-05-10 17:47:52.823
73.0, -325.8238220214844, 65.07987213134766, 118.03498077392578, -14.6921968460083, -0.03200000151991844, 0.01600000075995922, 1.055999994277954, 0.0, 0.0, 0.0, 0.0, 0.0, 1.620661672823778E9, 2021-05-10 17:47:52.823
74.0, -320.8721923828125, 48.70284652709961, 106.33657836914062, -29.85749053955078, -0.03200000151991844, 0.01600000075995922, 1.055999994277954, 0.0, 0.0, 0.0, 0.0, 0.0, 1.6206616728394887E9, 2021-05-10 17:47:52.839
74.0, -298.76190185546875, 77.20836639404297, 127.7923812866211, -13.704863548278809, -0.03200000151991844, 0.01600000075995922, 1.055999994277954, 0.0, 0.0, 0.0, 0.0, 0.0, 1.6206616728394887E9, 2021-05-10 17:47:52.839
75.0, -294.3226318359375, 87.20511627197266, 135.79202270507812, -10.918638229370117, -0.03200000151991844, 0.01600000075995922, 1.055999994277954, 0.0, 0.0, 0.0, 0.0, 0.0, 1.62066167284028E9, 2021-05-10 17:47:52.840
75.0, -317.0911560058594, 61.575584411621094, 114.7850112915039, -28.929996490478516, -0.03200000151991844, 0.01600000075995922, 1.055999994277954, 0.0, 0.0, 0.0, 0.0, 0.0, 1.62066167284028E9, 2021-05-10 17:47:52.840
76.0, -313.87109375, 57.54022979736328, 117.31692504882812, -34.072357177734375, -0.03200000151991844, 0.01600000075995922, 1.055999994277954, 0.0, 0.0, 0.0, 0.0, 0.0, 1.62066167285383E9, 2021-05-10 17:47:52.853
76.0, -290.6051940917969, 87.04804229736328, 142.72206115722656, -11.816213607788086, -0.03200000151991844, 0.01600000075995922, 1.055999994277954, 0.0, 0.0, 0.0, 0.0, 0.0, 1.62066167285383E9, 2021-05-10 17:47:52.853
77.0, -292.58734130859375, 81.44940948486328, 140.64642333984375, -6.329780578613281, -0.03200000151991844, 0.01600000075995922, 1.055999994277954, 0.0, 0.0, 0.0, 0.0, 0.0, 1.620661672869442E9, 2021-05-10 17:47:52.869
77.0, -311.49627685546875, 59.29424285888672, 119.59452056884766, -19.11275863647461, -0.03200000151991844, 0.01600000075995922, 1.055999994277954, 0.0, 0.0, 0.0, 0.0, 0.0, 1.620661672869442E9, 2021-05-10 17:47:52.869
78.0, -317.10986328125, 52.76437759399414, 110.80575561523438, -24.337398529052734, -0.03200000151991844, 0.01600000075995922, 1.055999994277954, 0.0, 0.0, 0.0, 0.0, 0.0, 1.620661672870154E9, 2021-05-10 17:47:52.870
78.0, -287.4748840332031, 71.56485748291016, 132.9085693359375, -2.2570295333862305, -0.03200000151991844, 0.01600000075995922, 1.055999994277954, 0.0, 0.0, 0.0, 0.0, 0.0, 1.620661672870154E9, 2021-05-10 17:47:52.870
79.0, -291.13250732421875, 81.16517639160156, 133.43963623046875, 2.814274787902832, -0.03200000151991844, 0.01600000075995922, 1.055999994277954, 0.0, 0.0, 0.0, 0.0, 0.0, 1.6206616728837428E9, 2021-05-10 17:47:52.883
79.0, -322.2297668457031, 60.49101257324219, 114.96452331542969, -15.98994255065918, -0.03200000151991844, 0.01600000075995922, 1.055999994277954, 0.0, 0.0, 0.0, 0.0, 0.0, 1.6206616728837428E9, 2021-05-10 17:47:52.883
80.0, -310.6211242675781, 56.57907485961914, 117.56375885009766, -17.074512481689453, -0.03200000151991844, 0.01600000075995922, 1.055999994277954, 0.0, 0.0, 0.0, 0.0, 0.0, 1.620661672899444E9, 2021-05-10 17:47:52.899
80.0, -290.8707275390625, 75.71988677978516, 136.77561950683594, 0.5890342593193054, -0.03200000151991844, 0.01600000075995922, 1.055999994277954, 0.0, 0.0, 0.0, 0.0, 0.0, 1.620661672899444E9, 2021-05-10 17:47:52.899
81.0, -314.8547058105469, 88.93295288085938, 130.28689575195312, 0.817168116569519, -0.03200000151991844, 0.01600000075995922, 1.055999994277954, 0.0, 0.0, 0.0, 0.0, 0.0, 1.6206616729001656E9, 2021-05-10 17:47:52.900
81.0, -319.14434814453125, 68.20268249511719, 119.08589172363281, -12.186464309692383, -0.03200000151991844, 0.01600000075995922, 1.055999994277954, 0.0, 0.0, 0.0, 0.0, 0.0, 1.6206616729001656E9, 2021-05-10 17:47:52.900
82.0, -319.61932373046875, 59.671974182128906, 109.84834289550781, -20.866771697998047, -0.04800000041723251, 0.01600000075995922, 1.055999994277954, 0.0, 0.0, 0.0, 0.0, 0.0, 1.6206616729139192E9, 2021-05-10 17:47:52.913
82.0, -303.5938720703125, 78.96611785888672, 130.71697998046875, -5.054474830627441, -0.04800000041723251, 0.01600000075995922, 1.055999994277954, 0.0, 0.0, 0.0, 0.0, 0.0, 1.6206616729139192E9, 2021-05-10 17:47:52.913
83.0, -298.60858154296875, 93.88832092285156, 141.27471923828125, -0.4095190465450287, -0.04800000041723251, 0.01600000075995922, 1.055999994277954, 0.0, 0.0, 0.0, 0.0, 0.0, 1.6206616729294894E9, 2021-05-10 17:47:52.929
83.0, -303.40313720703125, 59.68693161010742, 117.07756805419922, -25.395790100097656, -0.04800000041723251, 0.01600000075995922, 1.055999994277954, 0.0, 0.0, 0.0, 0.0, 0.0, 1.6206616729294894E9, 2021-05-10 17:47:52.929
84.0, -323.7967834472656, 64.91157531738281, 111.38543701171875, -26.94036865234375, -0.04800000041723251, 0.01600000075995922, 1.055999994277954, 0.0, 0.0, 0.0, 0.0, 0.0, 1.620661672930204E9, 2021-05-10 17:47:52.930
84.0, -303.46295166015625, 83.99254608154297, 126.18048095703125, -19.1202392578125, -0.04800000041723251, 0.01600000075995922, 1.055999994277954, 0.0, 0.0, 0.0, 0.0, 0.0, 1.620661672930204E9, 2021-05-10 17:47:52.930
85.0, -294.31890869140625, 85.41370391845703, 137.88636779785156, -9.347880363464355, -0.04800000041723251, 0.01600000075995922, 1.055999994277954, 0.0, 0.0, 0.0, 0.0, 0.0, 1.620661672943926E9, 2021-05-10 17:47:52.943
85.0, -310.5201416015625, 72.88504028320312, 112.94123840332031, -32.696075439453125, -0.04800000041723251, 0.01600000075995922, 1.055999994277954, 0.0, 0.0, 0.0, 0.0, 0.0, 1.620661672943926E9, 2021-05-10 17:47:52.943
86.0, -311.5074768066406, 69.41067504882812, 109.1452407836914, -34.083580017089844, -0.04800000041723251, 0.01600000075995922, 1.055999994277954, 0.0, 0.0, 0.0, 0.0, 0.0, 1.6206616729594707E9, 2021-05-10 17:47:52.959
86.0, -311.1708984375, 93.86962127685547, 122.02171325683594, -20.331966400146484, -0.04800000041723251, 0.01600000075995922, 1.055999994277954, 0.0, 0.0, 0.0, 0.0, 0.0, 1.6206616729594707E9, 2021-05-10 17:47:52.959
87.0, -295.06689453125, 92.26145935058594, 137.75173950195312, -5.836113929748535, -0.04800000041723251, 0.01600000075995922, 1.055999994277954, 0.0, 0.0, 0.0, 0.0, 0.0, 1.6206616729601943E9, 2021-05-10 17:47:52.960
87.0, -308.3996276855469, 82.10389709472656, 120.64543151855469, -20.997669219970703, -0.04800000041723251, 0.01600000075995922, 1.055999994277954, 0.0, 0.0, 0.0, 0.0, 0.0, 1.6206616729601943E9, 2021-05-10 17:47:52.960
88.0, -320.2962646484375, 75.64134979248047, 114.87850952148438, -24.917083740234375, -0.04800000041723251, 0.01600000075995922, 1.055999994277954, 0.0, 0.0, 0.0, 0.0, 0.0, 1.6206616729738092E9, 2021-05-10 17:47:52.973
88.0, -286.2033386230469, 76.44542694091797, 136.41659545898438, -8.936491012573242, -0.04800000041723251, 0.01600000075995922, 1.055999994277954, 0.0, 0.0, 0.0, 0.0, 0.0, 1.6206616729738092E9, 2021-05-10 17:47:52.973
89.0, -310.9951171875, 88.11017608642578, 138.26409912109375, -1.561408281326294, -0.04800000041723251, 0.01600000075995922, 1.055999994277954, 0.0, 0.0, 0.0, 0.0, 0.0, 1.6206616729896092E9, 2021-05-10 17:47:52.989
89.0, -309.2822570800781, 55.10555648803711, 117.29074096679688, -13.525348663330078, -0.04800000041723251, 0.01600000075995922, 1.055999994277954, 0.0, 0.0, 0.0, 0.0, 0.0, 1.6206616729896092E9, 2021-05-10 17:47:52.989
90.0, -313.48590087890625, 53.29170608520508, 114.41475677490234, -21.420276641845703, -0.04800000041723251, 0.01600000075995922, 1.055999994277954, 0.0, 0.0, 0.0, 0.0, 0.0, 1.620661672990338E9, 2021-05-10 17:47:52.990
90.0, -305.1870422363281, 77.56365203857422, 128.2411651611328, -6.793528079986572, -0.04800000041723251, 0.01600000075995922, 1.055999994277954, 0.0, 0.0, 0.0, 0.0, 0.0, 1.620661672990338E9, 2021-05-10 17:47:52.990
91.0, -297.4080505371094, 87.58658599853516, 134.98046875, -2.103693723678589, -0.04800000041723251, 0.03200000151991844, 1.055999994277954, 0.0, 0.0, 0.0, 0.0, 0.0, 1.620661673003784E9, 2021-05-10 17:47:53.003
91.0, -309.0765380859375, 68.9095230102539, 113.86873626708984, -15.937583923339844, -0.04800000041723251, 0.03200000151991844, 1.055999994277954, 0.0, 0.0, 0.0, 0.0, 0.0, 1.620661673003784E9, 2021-05-10 17:47:53.003
92.0, -320.7413024902344, 60.577030181884766, 105.1098861694336, -21.349218368530273, -0.03200000151991844, 0.03200000151991844, 1.055999994277954, 0.0, 0.0, 0.0, 0.0, 0.0, 1.6206616730195537E9, 2021-05-10 17:47:53.019
92.0, -299.1882629394531, 80.0656509399414, 136.53253173828125, -11.610519409179688, -0.03200000151991844, 0.03200000151991844, 1.055999994277954, 0.0, 0.0, 0.0, 0.0, 0.0, 1.6206616730195537E9, 2021-05-10 17:47:53.019
93.0, -289.198974609375, 81.38583374023438, 133.84727478027344, -9.418937683105469, -0.03200000151991844, 0.03200000151991844, 1.055999994277954, 0.0, 0.0, 0.0, 0.0, 0.0, 1.6206616730202928E9, 2021-05-10 17:47:53.020
93.0, -312.7865295410156, 62.394622802734375, 115.76860046386719, -26.745895385742188, -0.03200000151991844, 0.03200000151991844, 1.055999994277954, 0.0, 0.0, 0.0, 0.0, 0.0, 1.6206616730202928E9, 2021-05-10 17:47:53.020
94.0, -306.7652893066406, 65.76426696777344, 116.96910858154297, -25.900676727294922, -0.03200000151991844, 0.03200000151991844, 1.055999994277954, 0.0, 0.0, 0.0, 0.0, 0.0, 1.6206616730337803E9, 2021-05-10 17:47:53.033
94.0, -303.12261962890625, 86.90966796875, 130.17469787597656, -12.65769100189209, -0.03200000151991844, 0.03200000151991844, 1.055999994277954, 0.0, 0.0, 0.0, 0.0, 0.0, 1.6206616730337803E9, 2021-05-10 17:47:53.033
95.0, -298.2420654296875, 81.10160064697266, 125.36518859863281, -14.00031566619873, -0.03200000151991844, 0.03200000151991844, 1.055999994277954, 0.0, 0.0, 0.0, 0.0, 0.0, 1.620661673049569E9, 2021-05-10 17:47:53.049
95.0, -327.87701416015625, 75.42069244384766, 109.04051971435547, -21.749387741088867, -0.03200000151991844, 0.03200000151991844, 1.055999994277954, 0.0, 0.0, 0.0, 0.0, 0.0, 1.620661673049569E9, 2021-05-10 17:47:53.049
96.0, -337.9598083496094, 70.36061096191406, 103.53913116455078, -23.185510635375977, -0.03200000151991844, 0.03200000151991844, 1.055999994277954, 0.0, 0.0, 0.0, 0.0, 0.0, 1.6206616730502598E9, 2021-05-10 17:47:53.050
96.0, -311.7169189453125, 85.9073715209961, 131.8052978515625, 0.25244325399398804, -0.03200000151991844, 0.03200000151991844, 1.055999994277954, 0.0, 0.0, 0.0, 0.0, 0.0, 1.6206616730502598E9, 2021-05-10 17:47:53.050
97.0, -295.2314453125, 100.0030517578125, 142.51637268066406, 7.399392127990723, -0.03200000151991844, 0.03200000151991844, 1.055999994277954, 0.0, 0.0, 0.0, 0.0, 0.0, 1.6206616730638227E9, 2021-05-10 17:47:53.063
97.0, -305.9499816894531, 87.67634582519531, 130.01014709472656, -9.755529403686523, -0.03200000151991844, 0.03200000151991844, 1.055999994277954, 0.0, 0.0, 0.0, 0.0, 0.0, 1.6206616730638227E9, 2021-05-10 17:47:53.063
98.0, -312.33026123046875, 74.8036117553711, 128.52914428710938, -6.887025833129883, -0.03200000151991844, 0.03200000151991844, 1.055999994277954, 0.0, 0.0, 0.0, 0.0, 0.0, 1.6206616730795465E9, 2021-05-10 17:47:53.079
98.0, -293.8252258300781, 84.87142181396484, 145.32876586914062, 4.994636535644531, -0.03200000151991844, 0.03200000151991844, 1.055999994277954, 0.0, 0.0, 0.0, 0.0, 0.0, 1.6206616730795465E9, 2021-05-10 17:47:53.079
99.0, -289.5281066894531, 92.50081634521484, 149.0574493408203, 7.945417404174805, -0.03200000151991844, 0.03200000151991844, 1.055999994277954, 0.0, 0.0, 0.0, 0.0, 0.0, 1.620661673080315E9, 2021-05-10 17:47:53.080
99.0, -319.1481018066406, 70.83557891845703, 127.57546997070312, -11.733936309814453, -0.03200000151991844, 0.03200000151991844, 1.055999994277954, 0.0, 0.0, 0.0, 0.0, 0.0, 1.620661673080315E9, 2021-05-10 17:47:53.080
100.0, -319.8998107910156, 61.770057678222656, 118.37531280517578, -21.064987182617188, -0.03200000151991844, 0.03200000151991844, 1.055999994277954, 0.0, 0.0, 0.0, 0.0, 0.0, 1.6206616730945096E9, 2021-05-10 17:47:53.094
100.0, -292.5499267578125, 70.3905258178711, 132.66172790527344, -13.136398315429688, -0.03200000151991844, 0.03200000151991844, 1.055999994277954, 0.0, 0.0, 0.0, 0.0, 0.0, 1.6206616730945096E9, 2021-05-10 17:47:53.094
0.0, -289.3822326660156, 89.46588897705078, 132.11383056640625, -11.771334648132324, -0.03200000151991844, 0.03200000151991844, 1.055999994277954, 0.0, 0.0, 0.0, 0.0, 0.0, 1.620661673095186E9, 2021-05-10 17:47:53.095
1.0, -308.9718322753906, 65.62776184082031, 108.09619903564453, -30.26140022277832, -0.03200000151991844, 0.01600000075995922, 1.055999994277954, 0.0, 0.0, 0.0, 0.0, 0.0, 1.6206616731088676E9, 2021-05-10 17:47:53.108
1.0, -327.1178283691406, 59.389610290527344, 98.90726470947266, -33.930240631103516, -0.03200000151991844, 0.01600000075995922, 1.055999994277954, 0.0, 0.0, 0.0, 0.0, 0.0, 1.6206616731088676E9, 2021-05-10 17:47:53.108
2.0, -298.48516845703125, 75.52728271484375, 128.42630004882812, -15.436436653137207, -0.04800000041723251, 0.01600000075995922, 1.055999994277954, 0.0, 0.0, 0.0, 0.0, 0.0, 1.620661673140924E9, 2021-05-10 17:47:53.140
2.0, -296.91815185546875, 86.81055450439453, 132.83937072753906, -12.268741607666016, -0.04800000041723251, 0.01600000075995922, 1.055999994277954, 0.0, 0.0, 0.0, 0.0, 0.0, 1.620661673140924E9, 2021-05-10 17:47:53.140
3.0, -318.8489074707031, 64.63668823242188, 107.23228454589844, -31.97801399230957, -0.04800000041723251, 0.01600000075995922, 1.055999994277954, 0.0, 0.0, 0.0, 0.0, 0.0, 1.620661673141606E9, 2021-05-10 17:47:53.141
3.0, -317.8840026855469, 47.84828186035156, 92.0520248413086, -40.018798828125, -0.04800000041723251, 0.01600000075995922, 1.055999994277954, 0.0, 0.0, 0.0, 0.0, 0.0, 1.620661673141606E9, 2021-05-10 17:47:53.141
4.0, -314.1777648925781, 77.75626373291016, 119.86192321777344, -17.328826904296875, -0.04800000041723251, 0.01600000075995922, 1.055999994277954, 0.0, 0.0, 0.0, 0.0, 0.0, 1.6206616731424468E9, 2021-05-10 17:47:53.142
4.0, -291.9964294433594, 95.06451416015625, 127.62969207763672, -6.584094047546387, -0.04800000041723251, 0.01600000075995922, 1.055999994277954, 0.0, 0.0, 0.0, 0.0, 0.0, 1.6206616731424468E9, 2021-05-10 17:47:53.142
5.0, -311.6308898925781, 68.9562759399414, 105.61664581298828, -23.566980361938477, -0.04800000041723251, 0.01600000075995922, 1.055999994277954, 0.0, 0.0, 0.0, 0.0, 0.0, 1.6206616731431856E9, 2021-05-10 17:47:53.143
5.0, -336.8939208984375, 55.765647888183594, 95.0626449584961, -24.520654678344727, -0.04800000041723251, 0.01600000075995922, 1.055999994277954, 0.0, 0.0, 0.0, 0.0, 0.0, 1.6206616731431856E9, 2021-05-10 17:47:53.143
6.0, -304.1062316894531, 79.31954193115234, 130.46453857421875, -4.2952752113342285, -0.04800000041723251, 0.01600000075995922, 1.055999994277954, 0.0, 0.0, 0.0, 0.0, 0.0, 1.6206616731537604E9, 2021-05-10 17:47:53.153
6.0, -300.66925048828125, 92.65228271484375, 141.7964324951172, 0.6900115609169006, -0.04800000041723251, 0.01600000075995922, 1.055999994277954, 0.0, 0.0, 0.0, 0.0, 0.0, 1.6206616731537604E9, 2021-05-10 17:47:53.153
7.0, -309.2972106933594, 59.827178955078125, 124.87712860107422, -15.006348609924316, -0.04800000041723251, 0.01600000075995922, 1.055999994277954, 0.0, 0.0, 0.0, 0.0, 0.0, 1.6206616731687949E9, 2021-05-10 17:47:53.168
7.0, -308.51556396484375, 59.85335922241211, 117.47960662841797, -21.842885971069336, -0.04800000041723251, 0.01600000075995922, 1.055999994277954, 0.0, 0.0, 0.0, 0.0, 0.0, 1.6206616731687949E9, 2021-05-10 17:47:53.168
8.0, -294.3450927734375, 91.20494079589844, 143.42703247070312, -7.33207368850708, -0.04800000041723251, 0.01600000075995922, 1.055999994277954, 0.0, 0.0, 0.0, 0.0, 0.0, 1.6206616731845007E9, 2021-05-10 17:47:53.184
8.0, -287.4150390625, 93.82660675048828, 149.51559448242188, -1.7970219850540161, -0.04800000041723251, 0.01600000075995922, 1.055999994277954, 0.0, 0.0, 0.0, 0.0, 0.0, 1.6206616731845007E9, 2021-05-10 17:47:53.184
9.0, -297.7259521484375, 70.34751892089844, 130.38226318359375, -17.70655632019043, -0.04800000041723251, 0.01600000075995922, 1.055999994277954, 0.0, 0.0, 0.0, 0.0, 0.0, 1.6206616731852303E9, 2021-05-10 17:47:53.185
9.0, -317.84661865234375, 53.33845138549805, 123.87483978271484, -23.615598678588867, -0.04800000041723251, 0.01600000075995922, 1.055999994277954, 0.0, 0.0, 0.0, 0.0, 0.0, 1.6206616731852303E9, 2021-05-10 17:47:53.185
10.0, -294.89111328125, 79.44669342041016, 140.94374084472656, -7.979076385498047, -0.04800000041723251, 0.01600000075995922, 1.040000081062317, 0.0, 0.0, 0.0, 0.0, 0.0, 1.6206616731988025E9, 2021-05-10 17:47:53.198
10.0, -290.2274475097656, 84.25994873046875, 146.40399169921875, -2.3916659355163574, -0.04800000041723251, 0.01600000075995922, 1.040000081062317, 0.0, 0.0, 0.0, 0.0, 0.0, 1.6206616731988025E9, 2021-05-10 17:47:53.198
11.0, -314.7686767578125, 64.28514099121094, 113.16376495361328, -24.561792373657227, -0.04800000041723251, 0.03200000151991844, 1.040000081062317, 0.0, 0.0, 0.0, 0.0, 0.0, 1.6206616732145364E9, 2021-05-10 17:47:53.214
11.0, -317.6671142578125, 55.365478515625, 100.7472915649414, -33.03266525268555, -0.04800000041723251, 0.03200000151991844, 1.040000081062317, 0.0, 0.0, 0.0, 0.0, 0.0, 1.6206616732145364E9, 2021-05-10 17:47:53.214
12.0, -296.2225036621094, 72.06413269042969, 123.22409057617188, -9.680730819702148, -0.04800000041723251, 0.03200000151991844, 1.040000081062317, 0.0, 0.0, 0.0, 0.0, 0.0, 1.6206616732151845E9, 2021-05-10 17:47:53.215
12.0, -293.776611328125, 93.75555419921875, 133.7593994140625, 1.3220546245574951, -0.04800000041723251, 0.03200000151991844, 1.040000081062317, 0.0, 0.0, 0.0, 0.0, 0.0, 1.6206616732151845E9, 2021-05-10 17:47:53.215
13.0, -300.42242431640625, 61.58493423461914, 107.59130859375, -20.690996170043945, -0.04800000041723251, 0.03200000151991844, 1.040000081062317, 0.0, 0.0, 0.0, 0.0, 0.0, 1.620661673228865E9, 2021-05-10 17:47:53.228
13.0, -325.0870666503906, 49.950103759765625, 95.28704071044922, -30.089365005493164, -0.04800000041723251, 0.03200000151991844, 1.040000081062317, 0.0, 0.0, 0.0, 0.0, 0.0, 1.620661673228865E9, 2021-05-10 17:47:53.228
14.0, -294.09075927734375, 71.17403411865234, 119.80582427978516, -13.057860374450684, -0.04800000041723251, 0.03200000151991844, 1.040000081062317, 0.0, 0.0, 0.0, 0.0, 0.0, 1.6206616732445471E9, 2021-05-10 17:47:53.244
14.0, -299.61834716796875, 91.89308166503906, 123.85614013671875, -4.55706787109375, -0.04800000041723251, 0.03200000151991844, 1.040000081062317, 0.0, 0.0, 0.0, 0.0, 0.0, 1.6206616732445471E9, 2021-05-10 17:47:53.244
15.0, -315.8532409667969, 72.86073303222656, 110.95722198486328, -24.677730560302734, -0.04800000041723251, 0.03200000151991844, 1.040000081062317, 0.0, 0.0, 0.0, 0.0, 0.0, 1.6206616732453103E9, 2021-05-10 17:47:53.245
15.0, -322.60003662109375, 67.25836181640625, 104.69288635253906, -24.41219711303711, -0.04800000041723251, 0.03200000151991844, 1.040000081062317, 0.0, 0.0, 0.0, 0.0, 0.0, 1.6206616732453103E9, 2021-05-10 17:47:53.245
16.0, -292.778076171875, 86.8404769897461, 132.7010040283203, -9.056167602539062, -0.04800000041723251, 0.03200000151991844, 1.040000081062317, 0.0, 0.0, 0.0, 0.0, 0.0, 1.6206616732911415E9, 2021-05-10 17:47:53.291
16.0, -289.5467834472656, 97.97789764404297, 148.06077575683594, -0.3459407389163971, -0.04800000041723251, 0.03200000151991844, 1.040000081062317, 0.0, 0.0, 0.0, 0.0, 0.0, 1.6206616732911415E9, 2021-05-10 17:47:53.291
17.0, -303.8518981933594, 71.77616119384766, 134.974853515625, -12.511835098266602, -0.04800000041723251, 0.03200000151991844, 1.040000081062317, 0.0, 0.0, 0.0, 0.0, 0.0, 1.6206616732918563E9, 2021-05-10 17:47:53.291
17.0, -332.7276916503906, 62.8826789855957, 120.72583770751953, -26.58133888244629, -0.04800000041723251, 0.03200000151991844, 1.040000081062317, 0.0, 0.0, 0.0, 0.0, 0.0, 1.6206616732918563E9, 2021-05-10 17:47:53.291
18.0, -302.0492858886719, 89.5519027709961, 144.3433074951172, -2.4141054153442383, -0.04800000041723251, 0.03200000151991844, 1.040000081062317, 0.0, 0.0, 0.0, 0.0, 0.0, 1.620661673292616E9, 2021-05-10 17:47:53.292
18.0, -294.85369873046875, 96.89706420898438, 140.4949493408203, 3.8801462650299072, -0.04800000041723251, 0.03200000151991844, 1.040000081062317, 0.0, 0.0, 0.0, 0.0, 0.0, 1.620661673292616E9, 2021-05-10 17:47:53.292
19.0, -310.8118591308594, 70.70281219482422, 126.01032257080078, -16.330272674560547, -0.04800000041723251, 0.03200000151991844, 1.040000081062317, 0.0, 0.0, 0.0, 0.0, 0.0, 1.6206616733216555E9, 2021-05-10 17:47:53.321
19.0, -311.8104248046875, 62.81909942626953, 115.1197280883789, -23.948450088500977, -0.04800000041723251, 0.03200000151991844, 1.040000081062317, 0.0, 0.0, 0.0, 0.0, 0.0, 1.6206616733216555E9, 2021-05-10 17:47:53.321
20.0, -303.9977722167969, 81.14460754394531, 134.5111083984375, -7.964117050170898, -0.04800000041723251, 0.03200000151991844, 1.055999994277954, 0.0, 0.0, 0.0, 0.0, 0.0, 1.6206616733222194E9, 2021-05-10 17:47:53.322
20.0, -291.5326843261719, 98.58002471923828, 143.55792236328125, 1.0939207077026367, -0.04800000041723251, 0.03200000151991844, 1.055999994277954, 0.0, 0.0, 0.0, 0.0, 0.0, 1.6206616733222194E9, 2021-05-10 17:47:53.322
21.0, -307.5805969238281, 71.73127746582031, 114.37174987792969, -21.151004791259766, -0.04800000041723251, 0.03200000151991844, 1.055999994277954, 0.0, 0.0, 0.0, 0.0, 0.0, 1.6206616733230724E9, 2021-05-10 17:47:53.323
21.0, -309.07281494140625, 58.29756164550781, 110.20550537109375, -26.005393981933594, -0.04800000041723251, 0.03200000151991844, 1.055999994277954, 0.0, 0.0, 0.0, 0.0, 0.0, 1.6206616733230724E9, 2021-05-10 17:47:53.323
22.0, -305.8714599609375, 83.26887512207031, 130.97691345214844, -7.578907489776611, -0.03200000151991844, 0.03200000151991844, 1.055999994277954, 0.0, 0.0, 0.0, 0.0, 0.0, 1.620661673323823E9, 2021-05-10 17:47:53.323
22.0, -282.8897705078125, 90.04557037353516, 143.18394470214844, 5.679038047790527, -0.03200000151991844, 0.03200000151991844, 1.055999994277954, 0.0, 0.0, 0.0, 0.0, 0.0, 1.620661673323823E9, 2021-05-10 17:47:53.323
23.0, -323.38916015625, 60.84817123413086, 104.78638458251953, -20.230989456176758, -0.03200000151991844, 0.03200000151991844, 1.055999994277954, 0.0, 0.0, 0.0, 0.0, 0.0, 1.620661673334448E9, 2021-05-10 17:47:53.334
23.0, -318.34027099609375, 67.82308197021484, 107.77830505371094, -15.002608299255371, -0.03200000151991844, 0.03200000151991844, 1.055999994277954, 0.0, 0.0, 0.0, 0.0, 0.0, 1.620661673334448E9, 2021-05-10 17:47:53.334
24.0, -297.2285461425781, 95.24403381347656, 130.0157470703125, -2.8554136753082275, -0.03200000151991844, 0.03200000151991844, 1.055999994277954, 0.0, 0.0, 0.0, 0.0, 0.0, 1.6206616733351655E9, 2021-05-10 17:47:53.335
24.0, -296.6114807128906, 82.86495971679688, 135.75650024414062, -2.6384994983673096, -0.03200000151991844, 0.03200000151991844, 1.055999994277954, 0.0, 0.0, 0.0, 0.0, 0.0, 1.6206616733351655E9, 2021-05-10 17:47:53.335
25.0, -319.727783203125, 68.54488372802734, 113.24604034423828, -19.886917114257812, -0.03200000151991844, 0.03200000151991844, 1.055999994277954, 0.0, 0.0, 0.0, 0.0, 0.0, 1.620661673348982E9, 2021-05-10 17:47:53.348
25.0, -318.62078857421875, 72.22120666503906, 107.28463745117188, -27.6883487701416, -0.03200000151991844, 0.03200000151991844, 1.055999994277954, 0.0, 0.0, 0.0, 0.0, 0.0, 1.620661673348982E9, 2021-05-10 17:47:53.348
26.0, -292.6210021972656, 85.21736145019531, 132.75335693359375, -6.195144176483154, -0.03200000151991844, 0.03200000151991844, 1.055999994277954, 0.0, 0.0, 0.0, 0.0, 0.0, 1.620661673364603E9, 2021-05-10 17:47:53.364
26.0, -283.3161315917969, 92.70464324951172, 139.20468139648438, -6.213843822479248, -0.03200000151991844, 0.03200000151991844, 1.055999994277954, 0.0, 0.0, 0.0, 0.0, 0.0, 1.620661673364603E9, 2021-05-10 17:47:53.364
27.0, -310.35186767578125, 69.53221893310547, 126.67227935791016, -20.59749984741211, -0.03200000151991844, 0.03200000151991844, 1.055999994277954, 0.0, 0.0, 0.0, 0.0, 0.0, 1.620661673365268E9, 2021-05-10 17:47:53.365
27.0, -314.304931640625, 73.32821655273438, 125.57649230957031, -27.49761390686035, -0.03200000151991844, 0.03200000151991844, 1.055999994277954, 0.0, 0.0, 0.0, 0.0, 0.0, 1.620661673365268E9, 2021-05-10 17:47:53.365
28.0, -295.3099670410156, 89.63043975830078, 142.1405029296875, -7.810781002044678, -0.03200000151991844, 0.03200000151991844, 1.055999994277954, 0.0, 0.0, 0.0, 0.0, 0.0, 1.6206616733953369E9, 2021-05-10 17:47:53.395
28.0, -291.70098876953125, 99.61223602294922, 152.42149353027344, -0.05048865079879761, -0.03200000151991844, 0.03200000151991844, 1.055999994277954, 0.0, 0.0, 0.0, 0.0, 0.0, 1.6206616733953369E9, 2021-05-10 17:47:53.395
29.0, -304.57745361328125, 79.4915771484375, 128.8302001953125, -18.71632957458496, -0.03200000151991844, 0.03200000151991844, 1.055999994277954, 0.0, 0.0, 0.0, 0.0, 0.0, 1.6206616733960707E9, 2021-05-10 17:47:53.396
29.0, -323.284423828125, 65.01441955566406, 110.80388641357422, -26.9141902923584, -0.03200000151991844, 0.03200000151991844, 1.055999994277954, 0.0, 0.0, 0.0, 0.0, 0.0, 1.6206616733960707E9, 2021-05-10 17:47:53.396
30.0, -309.79461669921875, 92.83927917480469, 130.92080688476562, -6.206364154815674, -0.03200000151991844, 0.03200000151991844, 1.055999994277954, 0.0, 0.0, 0.0, 0.0, 0.0, 1.6206616733968325E9, 2021-05-10 17:47:53.396
30.0, -293.3951416015625, 93.76676940917969, 137.67132568359375, 3.1246864795684814, -0.03200000151991844, 0.03200000151991844, 1.055999994277954, 0.0, 0.0, 0.0, 0.0, 0.0, 1.6206616733968325E9, 2021-05-10 17:47:53.396
31.0, -314.5330810546875, 72.86447143554688, 114.53630828857422, -11.064494132995605, -0.03200000151991844, 0.01600000075995922, 1.055999994277954, 0.0, 0.0, 0.0, 0.0, 0.0, 1.620661673408851E9, 2021-05-10 17:47:53.408
31.0, -321.94927978515625, 70.14930725097656, 102.9126968383789, -24.879684448242188, -0.03200000151991844, 0.01600000075995922, 1.055999994277954, 0.0, 0.0, 0.0, 0.0, 0.0, 1.620661673408851E9, 2021-05-10 17:47:53.408
32.0, -298.458984375, 85.15003967285156, 116.06966400146484, -8.64103889465332, -0.03200000151991844, 0.01600000075995922, 1.055999994277954, 0.0, 0.0, 0.0, 0.0, 0.0, 1.6206616734245648E9, 2021-05-10 17:47:53.424
32.0, -285.23095703125, 90.03060913085938, 133.0413360595703, 3.038668632507324, -0.03200000151991844, 0.01600000075995922, 1.055999994277954, 0.0, 0.0, 0.0, 0.0, 0.0, 1.6206616734245648E9, 2021-05-10 17:47:53.424
33.0, -321.9679870605469, 62.81909942626953, 103.5522232055664, -20.848072052001953, -0.03200000151991844, 0.01600000075995922, 1.055999994277954, 0.0, 0.0, 0.0, 0.0, 0.0, 1.6206616734252665E9, 2021-05-10 17:47:53.425
33.0, -323.7706298828125, 65.78484344482422, 95.63484954833984, -22.295413970947266, -0.03200000151991844, 0.01600000075995922, 1.055999994277954, 0.0, 0.0, 0.0, 0.0, 0.0, 1.6206616734252665E9, 2021-05-10 17:47:53.425
34.0, -303.0029602050781, 78.9530258178711, 116.54463195800781, -6.513035774230957, -0.03200000151991844, 0.01600000075995922, 1.055999994277954, 0.0, 0.0, 0.0, 0.0, 0.0, 1.6206616734387627E9, 2021-05-10 17:47:53.438
34.0, -301.7052001953125, 89.69402313232422, 128.67686462402344, 1.67360520362854, -0.03200000151991844, 0.01600000075995922, 1.055999994277954, 0.0, 0.0, 0.0, 0.0, 0.0, 1.6206616734387627E9, 2021-05-10 17:47:53.438
35.0, -304.03515625, 73.24594116210938, 116.28658294677734, -11.610519409179688, -0.03200000151991844, 0.01600000075995922, 1.055999994277954, 0.0, 0.0, 0.0, 0.0, 0.0, 1.6206616734544845E9, 2021-05-10 17:47:53.454
35.0, -318.94989013671875, 61.899085998535156, 107.31082153320312, -17.224109649658203, -0.03200000151991844, 0.01600000075995922, 1.055999994277954, 0.0, 0.0, 0.0, 0.0, 0.0, 1.6206616734544845E9, 2021-05-10 17:47:53.454
36.0, -296.4506530761719, 76.01720428466797, 130.7861785888672, -6.999222755432129, -0.03200000151991844, 0.01600000075995922, 1.055999994277954, 0.0, 0.0, 0.0, 0.0, 0.0, 1.6206616734553292E9, 2021-05-10 17:47:53.455
36.0, -289.703857421875, 92.8243179321289, 142.9520721435547, 7.436790943145752, -0.03200000151991844, 0.01600000075995922, 1.055999994277954, 0.0, 0.0, 0.0, 0.0, 0.0, 1.6206616734553292E9, 2021-05-10 17:47:53.455
37.0, -308.0331115722656, 73.676025390625, 121.0960922241211, -10.933597564697266, -0.03200000151991844, 0.01600000075995922, 1.055999994277954, 0.0, 0.0, 0.0, 0.0, 0.0, 1.620661673468894E9, 2021-05-10 17:47:53.468
37.0, -318.60955810546875, 59.352210998535156, 108.81426239013672, -27.89404296875, -0.03200000151991844, 0.01600000075995922, 1.055999994277954, 0.0, 0.0, 0.0, 0.0, 0.0, 1.620661673468894E9, 2021-05-10 17:47:53.468
38.0, -295.42218017578125, 82.35633850097656, 134.0885009765625, -11.786294937133789, -0.03200000151991844, 0.01600000075995922, 1.055999994277954, 0.0, 0.0, 0.0, 0.0, 0.0, 1.620661673484578E9, 2021-05-10 17:47:53.484
38.0, -291.3269958496094, 91.00298309326172, 140.31918334960938, -6.793528079986572, -0.03200000151991844, 0.01600000075995922, 1.055999994277954, 0.0, 0.0, 0.0, 0.0, 0.0, 1.620661673484578E9, 2021-05-10 17:47:53.484
39.0, -306.3127746582031, 69.06098937988281, 119.54777526855469, -24.576751708984375, -0.03200000151991844, 0.01600000075995922, 1.055999994277954, 0.0, 0.0, 0.0, 0.0, 0.0, 1.620661673485263E9, 2021-05-10 17:47:53.485
39.0, -314.3759765625, 52.36981964111328, 109.0573501586914, -35.59449768066406, -0.03200000151991844, 0.01600000075995922, 1.055999994277954, 0.0, 0.0, 0.0, 0.0, 0.0, 1.620661673485263E9, 2021-05-10 17:47:53.485
40.0, -291.4504089355469, 82.53958892822266, 134.1745147705078, -11.386125564575195, -0.03200000151991844, 0.01600000075995922, 1.055999994277954, 0.0, 0.0, 0.0, 0.0, 0.0, 1.620661673498816E9, 2021-05-10 17:47:53.498
40.0, -301.13299560546875, 84.73865509033203, 139.97511291503906, -3.824047803878784, -0.03200000151991844, 0.01600000075995922, 1.055999994277954, 0.0, 0.0, 0.0, 0.0, 0.0, 1.620661673498816E9, 2021-05-10 17:47:53.498
41.0, -303.10394287109375, 73.53765106201172, 127.0986328125, -16.2853946685791, -0.03200000151991844, 0.01600000075995922, 1.055999994277954, 0.0, 0.0, 0.0, 0.0, 0.0, 1.620661673514607E9, 2021-05-10 17:47:53.514
41.0, -327.49554443359375, 60.58638000488281, 109.3116683959961, -21.001407623291016, -0.03200000151991844, 0.01600000075995922, 1.055999994277954, 0.0, 0.0, 0.0, 0.0, 0.0, 1.620661673514607E9, 2021-05-10 17:47:53.514
42.0, -309.2448425292969, 83.39228820800781, 132.7384033203125, -1.8755598068237305, -0.04800000041723251, 0.01600000075995922, 1.055999994277954, 0.0, 0.0, 0.0, 0.0, 0.0, 1.6206616735152714E9, 2021-05-10 17:47:53.515
42.0, -288.8885803222656, 86.7170639038086, 137.2337646484375, 2.9376914501190186, -0.04800000041723251, 0.01600000075995922, 1.055999994277954, 0.0, 0.0, 0.0, 0.0, 0.0, 1.6206616735152714E9, 2021-05-10 17:47:53.515
43.0, -313.4971008300781, 66.02045440673828, 108.27571105957031, -19.142677307128906, -0.04800000041723251, 0.01600000075995922, 1.055999994277954, 0.0, 0.0, 0.0, 0.0, 0.0, 1.6206616735287256E9, 2021-05-10 17:47:53.528
43.0, -333.26995849609375, 58.020809173583984, 102.56488800048828, -29.524641036987305, -0.04800000041723251, 0.01600000075995922, 1.055999994277954, 0.0, 0.0, 0.0, 0.0, 0.0, 1.6206616735287256E9, 2021-05-10 17:47:53.528
44.0, -298.5749206542969, 82.39373779296875, 129.36500549316406, -8.940230369567871, -0.04800000041723251, 0.01600000075995922, 1.055999994277954, 0.0, 0.0, 0.0, 0.0, 0.0, 1.620661673544577E9, 2021-05-10 17:47:53.544
44.0, -299.4911804199219, 87.50617980957031, 132.63368225097656, -3.4799768924713135, -0.04800000041723251, 0.01600000075995922, 1.055999994277954, 0.0, 0.0, 0.0, 0.0, 0.0, 1.620661673544577E9, 2021-05-10 17:47:53.544
45.0, -322.83563232421875, 74.66709899902344, 114.7569580078125, -20.085132598876953, -0.04800000041723251, 0.01600000075995922, 1.055999994277954, 0.0, 0.0, 0.0, 0.0, 0.0, 1.620661673545292E9, 2021-05-10 17:47:53.545
45.0, -318.6581726074219, 65.96435546875, 115.72559356689453, -24.378538131713867, -0.04800000041723251, 0.01600000075995922, 1.055999994277954, 0.0, 0.0, 0.0, 0.0, 0.0, 1.620661673545292E9, 2021-05-10 17:47:53.545
46.0, -295.01080322265625, 84.99296569824219, 134.74298095703125, -8.745756149291992, -0.04800000041723251, 0.01600000075995922, 1.055999994277954, 0.0, 0.0, 0.0, 0.0, 0.0, 1.6206616735589323E9, 2021-05-10 17:47:53.558
46.0, -294.2964782714844, 86.62730407714844, 132.67108154296875, -7.4218316078186035, -0.04800000041723251, 0.01600000075995922, 1.055999994277954, 0.0, 0.0, 0.0, 0.0, 0.0, 1.6206616735589323E9, 2021-05-10 17:47:53.558
47.0, -294.2142028808594, 74.76434326171875, 125.40445709228516, -19.85325813293457, -0.04800000041723251, 0.01600000075995922, 1.055999994277954, 0.0, 0.0, 0.0, 0.0, 0.0, 1.620661673574573E9, 2021-05-10 17:47:53.574
47.0, -308.1939392089844, 60.38442611694336, 113.952880859375, -30.706449508666992, -0.04800000041723251, 0.01600000075995922, 1.055999994277954, 0.0, 0.0, 0.0, 0.0, 0.0, 1.620661673574573E9, 2021-05-10 17:47:53.574
48.0, -294.9210205078125, 81.06233215332031, 139.83299255371094, -6.673851490020752, -0.04800000041723251, 0.01600000075995922, 1.055999994277954, 0.0, 0.0, 0.0, 0.0, 0.0, 1.6206616735753047E9, 2021-05-10 17:47:53.575
48.0, -281.3115234375, 93.82286834716797, 138.17247009277344, -3.326641082763672, -0.04800000041723251, 0.01600000075995922, 1.055999994277954, 0.0, 0.0, 0.0, 0.0, 0.0, 1.6206616735753047E9, 2021-05-10 17:47:53.575
49.0, -314.0244445800781, 67.66974639892578, 112.7037582397461, -24.03072738647461, -0.04800000041723251, 0.01600000075995922, 1.055999994277954, 0.0, 0.0, 0.0, 0.0, 0.0, 1.6206616735888155E9, 2021-05-10 17:47:53.588
49.0, -318.6432189941406, 56.23687744140625, 105.38102722167969, -26.428003311157227, -0.04800000041723251, 0.01600000075995922, 1.055999994277954, 0.0, 0.0, 0.0, 0.0, 0.0, 1.6206616735888155E9, 2021-05-10 17:47:53.588
50.0, -307.4721374511719, 78.0479736328125, 115.25811004638672, -12.21264362335205, -0.04800000041723251, 0.01600000075995922, 1.055999994277954, 0.0, 0.0, 0.0, 0.0, 0.0, 1.6206616736372347E9, 2021-05-10 17:47:53.637
50.0, -292.7257080078125, 92.97391510009766, 129.42111206054688, -4.837560653686523, -0.04800000041723251, 0.01600000075995922, 1.055999994277954, 0.0, 0.0, 0.0, 0.0, 0.0, 1.6206616736372347E9, 2021-05-10 17:47:53.637
51.0, -307.37115478515625, 63.98594665527344, 106.6413803100586, -23.79511260986328, -0.04800000041723251, 0.03200000151991844, 1.055999994277954, 0.0, 0.0, 0.0, 0.0, 0.0, 1.620661673637948E9, 2021-05-10 17:47:53.637
51.0, -315.08282470703125, 58.533172607421875, 101.88422393798828, -27.291919708251953, -0.04800000041723251, 0.03200000151991844, 1.055999994277954, 0.0, 0.0, 0.0, 0.0, 0.0, 1.620661673637948E9, 2021-05-10 17:47:53.637
52.0, -316.1487121582031, 91.68738555908203, 120.26956939697266, -2.346787214279175, -0.03200000151991844, 0.03200000151991844, 1.055999994277954, 0.0, 0.0, 0.0, 0.0, 0.0, 1.6206616736386907E9, 2021-05-10 17:47:53.638
52.0, -283.3161315917969, 90.34850311279297, 136.6353759765625, 0.6002539396286011, -0.03200000151991844, 0.03200000151991844, 1.055999994277954, 0.0, 0.0, 0.0, 0.0, 0.0, 1.6206616736386907E9, 2021-05-10 17:47:53.638
53.0, -314.7051086425781, 74.47636413574219, 112.89449310302734, -11.685317039489746, -0.03200000151991844, 0.03200000151991844, 1.055999994277954, 0.0, 0.0, 0.0, 0.0, 0.0, 1.6206616736394775E9, 2021-05-10 17:47:53.639
53.0, -318.1682434082031, 68.0138168334961, 103.6344985961914, -15.081146240234375, -0.03200000151991844, 0.03200000151991844, 1.055999994277954, 0.0, 0.0, 0.0, 0.0, 0.0, 1.6206616736394775E9, 2021-05-10 17:47:53.639
54.0, -311.6944885253906, 87.23316955566406, 119.73851013183594, -0.3384609520435333, -0.03200000151991844, 0.03200000151991844, 1.055999994277954, 0.0, 0.0, 0.0, 0.0, 0.0, 1.6206616736495214E9, 2021-05-10 17:47:53.649
54.0, -302.0380554199219, 97.69740295410156, 133.63970947265625, 6.071727752685547, -0.03200000151991844, 0.03200000151991844, 1.055999994277954, 0.0, 0.0, 0.0, 0.0, 0.0, 1.6206616736495214E9, 2021-05-10 17:47:53.649
55.0, -311.8739929199219, 74.05375671386719, 112.0230941772461, -18.252582550048828, -0.03200000151991844, 0.03200000151991844, 1.055999994277954, 0.0, 0.0, 0.0, 0.0, 0.0, 1.620661673650251E9, 2021-05-10 17:47:53.650
55.0, -316.8330993652344, 67.74080657958984, 110.08208465576172, -25.051719665527344, -0.03200000151991844, 0.03200000151991844, 1.055999994277954, 0.0, 0.0, 0.0, 0.0, 0.0, 1.620661673650251E9, 2021-05-10 17:47:53.650
56.0, -302.1352844238281, 93.2469253540039, 131.2947998046875, -15.219522476196289, -0.03200000151991844, 0.03200000151991844, 1.055999994277954, 0.0, 0.0, 0.0, 0.0, 0.0, 1.6206616736645863E9, 2021-05-10 17:47:53.664
56.0, -282.6915588378906, 92.38674926757812, 142.71270751953125, -14.108772277832031, -0.03200000151991844, 0.03200000151991844, 1.055999994277954, 0.0, 0.0, 0.0, 0.0, 0.0, 1.6206616736645863E9, 2021-05-10 17:47:53.664
57.0, -287.684326171875, 73.79944610595703, 120.8006362915039, -34.603424072265625, -0.03200000151991844, 0.03200000151991844, 1.055999994277954, 0.0, 0.0, 0.0, 0.0, 0.0, 1.6206616736652637E9, 2021-05-10 17:47:53.665
57.0, -322.88427734375, 69.52848052978516, 116.97472381591797, -34.00878143310547, -0.03200000151991844, 0.03200000151991844, 1.055999994277954, 0.0, 0.0, 0.0, 0.0, 0.0, 1.6206616736652637E9, 2021-05-10 17:47:53.665
58.0, -300.32891845703125, 90.88330841064453, 137.81344604492188, -22.082239151000977, -0.03200000151991844, 0.03200000151991844, 1.055999994277954, 0.0, 0.0, 0.0, 0.0, 0.0, 1.6206616736787553E9, 2021-05-10 17:47:53.678
58.0, -287.343994140625, 94.48109436035156, 138.8045196533203, -11.58434009552002, -0.03200000151991844, 0.03200000151991844, 1.055999994277954, 0.0, 0.0, 0.0, 0.0, 0.0, 1.6206616736787553E9, 2021-05-10 17:47:53.678
59.0, -302.6439208984375, 78.89692687988281, 122.25920104980469, -20.664817810058594, -0.03200000151991844, 0.03200000151991844, 1.055999994277954, 0.0, 0.0, 0.0, 0.0, 0.0, 1.6206616736944828E9, 2021-05-10 17:47:53.694
59.0, -310.2508850097656, 67.37429809570312, 115.73681640625, -27.935182571411133, -0.03200000151991844, 0.03200000151991844, 1.055999994277954, 0.0, 0.0, 0.0, 0.0, 0.0, 1.6206616736944828E9, 2021-05-10 17:47:53.694
60.0, -288.5819091796875, 80.83793640136719, 134.79534912109375, -6.614013195037842, -0.03200000151991844, 0.03200000151991844, 1.055999994277954, 0.0, 0.0, 0.0, 0.0, 0.0, 1.6206616736953068E9, 2021-05-10 17:47:53.695
60.0, -287.23553466796875, 87.31170654296875, 145.13616943359375, 1.48287034034729, -0.03200000151991844, 0.03200000151991844, 1.055999994277954, 0.0, 0.0, 0.0, 0.0, 0.0, 1.6206616736953068E9, 2021-05-10 17:47:53.695
61.0, -306.6568298339844, 68.71318054199219, 124.29744720458984, -8.83177375793457, -0.03200000151991844, 0.03200000151991844, 1.055999994277954, 0.0, 0.0, 0.0, 0.0, 0.0, 1.620661673708884E9, 2021-05-10 17:47:53.708
61.0, -308.8596496582031, 58.09934616088867, 112.93936920166016, -17.489641189575195, -0.03200000151991844, 0.03200000151991844, 1.055999994277954, 0.0, 0.0, 0.0, 0.0, 0.0, 1.620661673708884E9, 2021-05-10 17:47:53.708
62.0, -294.8574523925781, 74.34921264648438, 130.25137329101562, -7.9117584228515625, -0.03200000151991844, 0.03200000151991844, 1.055999994277954, 0.0, 0.0, 0.0, 0.0, 0.0, 1.6206616737245247E9, 2021-05-10 17:47:53.724
62.0, -294.2740173339844, 85.35199737548828, 138.64744567871094, 7.691104412078857, -0.03200000151991844, 0.03200000151991844, 1.055999994277954, 0.0, 0.0, 0.0, 0.0, 0.0, 1.6206616737245247E9, 2021-05-10 17:47:53.724
63.0, -327.34222412109375, 62.79291915893555, 112.04179382324219, -14.505202293395996, -0.03200000151991844, 0.03200000151991844, 1.055999994277954, 0.0, 0.0, 0.0, 0.0, 0.0, 1.6206616737252796E9, 2021-05-10 17:47:53.725
63.0, -311.7243957519531, 54.5726203918457, 104.93598175048828, -21.898984909057617, -0.03200000151991844, 0.03200000151991844, 1.055999994277954, 0.0, 0.0, 0.0, 0.0, 0.0, 1.6206616737252796E9, 2021-05-10 17:47:53.725
64.0, -314.71630859375, 79.87678527832031, 126.42544555664062, -3.1246864795684814, -0.03200000151991844, 0.03200000151991844, 1.055999994277954, 0.0, 0.0, 0.0, 0.0, 0.0, 1.6206616737387283E9, 2021-05-10 17:47:53.738
64.0, -298.39166259765625, 91.06656646728516, 133.63223266601562, -0.0205694492906332, -0.03200000151991844, 0.03200000151991844, 1.055999994277954, 0.0, 0.0, 0.0, 0.0, 0.0, 1.6206616737387283E9, 2021-05-10 17:47:53.738
65.0, -315.2212219238281, 75.55719757080078, 114.14735412597656, -21.072465896606445, -0.03200000151991844, 0.03200000151991844, 1.055999994277954, 0.0, 0.0, 0.0, 0.0, 0.0, 1.620661673754884E9, 2021-05-10 17:47:53.754
65.0, -320.1391906738281, 70.119384765625, 110.478515625, -25.900676727294922, -0.03200000151991844, 0.03200000151991844, 1.055999994277954, 0.0, 0.0, 0.0, 0.0, 0.0, 1.620661673754884E9, 2021-05-10 17:47:53.754
66.0, -300.747802734375, 82.9061050415039, 125.3782730102539, -19.02674102783203, -0.03200000151991844, 0.03200000151991844, 1.055999994277954, 0.0, 0.0, 0.0, 0.0, 0.0, 1.6206616737694912E9, 2021-05-10 17:47:53.769
66.0, -290.4331359863281, 98.79319763183594, 136.64659118652344, -7.575167179107666, -0.03200000151991844, 0.03200000151991844, 1.055999994277954, 0.0, 0.0, 0.0, 0.0, 0.0, 1.6206616737694912E9, 2021-05-10 17:47:53.769
67.0, -303.1001892089844, 68.76927947998047, 114.3979263305664, -29.962207794189453, -0.03200000151991844, 0.03200000151991844, 1.055999994277954, 0.0, 0.0, 0.0, 0.0, 0.0, 1.62066167377023E9, 2021-05-10 17:47:53.770
67.0, -317.7157287597656, 65.45198822021484, 112.61773681640625, -33.309417724609375, -0.03200000151991844, 0.03200000151991844, 1.055999994277954, 0.0, 0.0, 0.0, 0.0, 0.0, 1.62066167377023E9, 2021-05-10 17:47:53.770
68.0, -289.0680847167969, 86.43283081054688, 135.10202026367188, -19.101539611816406, -0.03200000151991844, 0.03200000151991844, 1.055999994277954, 0.0, 0.0, 0.0, 0.0, 0.0, 1.6206616737848082E9, 2021-05-10 17:47:53.784
68.0, -285.7994079589844, 89.8922348022461, 143.625244140625, -17.96834945678711, -0.03200000151991844, 0.03200000151991844, 1.055999994277954, 0.0, 0.0, 0.0, 0.0, 0.0, 1.6206616737848082E9, 2021-05-10 17:47:53.784
69.0, -303.0852355957031, 69.26668548583984, 127.03131103515625, -32.711036682128906, -0.03200000151991844, 0.03200000151991844, 1.055999994277954, 0.0, 0.0, 0.0, 0.0, 0.0, 1.6206616737853737E9, 2021-05-10 17:47:53.785
69.0, -299.2593078613281, 50.623287200927734, 117.52074432373047, -36.62297058105469, -0.03200000151991844, 0.03200000151991844, 1.055999994277954, 0.0, 0.0, 0.0, 0.0, 0.0, 1.6206616737853737E9, 2021-05-10 17:47:53.785
70.0, -307.87603759765625, 72.5129165649414, 137.9929656982422, -12.829727172851562, -0.03200000151991844, 0.03200000151991844, 1.055999994277954, 0.0, 0.0, 0.0, 0.0, 0.0, 1.6206616737987916E9, 2021-05-10 17:47:53.798
70.0, -288.364990234375, 86.8629150390625, 147.60076904296875, -1.5240092277526855, -0.03200000151991844, 0.03200000151991844, 1.055999994277954, 0.0, 0.0, 0.0, 0.0, 0.0, 1.6206616737987916E9, 2021-05-10 17:47:53.798
71.0, -311.4065246582031, 62.48250961303711, 122.26667785644531, -21.73442840576172, -0.03200000151991844, 0.01600000075995922, 1.055999994277954, 0.0, 0.0, 0.0, 0.0, 0.0, 1.6206616738145905E9, 2021-05-10 17:47:53.814
71.0, -319.36126708984375, 50.713043212890625, 117.41229248046875, -25.051719665527344, -0.03200000151991844, 0.01600000075995922, 1.055999994277954, 0.0, 0.0, 0.0, 0.0, 0.0, 1.6206616738145905E9, 2021-05-10 17:47:53.814
72.0, -292.8379211425781, 76.06582641601562, 132.41676330566406, -7.560207843780518, -0.03200000151991844, 0.01600000075995922, 1.055999994277954, 0.0, 0.0, 0.0, 0.0, 0.0, 1.6206616738152905E9, 2021-05-10 17:47:53.815
72.0, -283.3609924316406, 87.83155059814453, 144.17501831054688, -1.2435166835784912, -0.03200000151991844, 0.01600000075995922, 1.055999994277954, 0.0, 0.0, 0.0, 0.0, 0.0, 1.6206616738152905E9, 2021-05-10 17:47:53.815
73.0, -320.4308776855469, 60.309627532958984, 113.79580688476562, -20.126272201538086, -0.03200000151991844, 0.01600000075995922, 1.055999994277954, 0.0, 0.0, 0.0, 0.0, 0.0, 1.6206616738289852E9, 2021-05-10 17:47:53.828
73.0, -335.1585998535156, 61.60737228393555, 103.72051239013672, -17.583139419555664, -0.03200000151991844, 0.01600000075995922, 1.055999994277954, 0.0, 0.0, 0.0, 0.0, 0.0, 1.6206616738289852E9, 2021-05-10 17:47:53.828
74.0, -298.60858154296875, 83.84855651855469, 124.85842895507812, -7.0141825675964355, -0.03200000151991844, 0.01600000075995922, 1.055999994277954, 0.0, 0.0, 0.0, 0.0, 0.0, 1.6206616738616908E9, 2021-05-10 17:47:53.861
74.0, -307.6741027832031, 87.6071548461914, 129.82875061035156, -3.3490803241729736, -0.03200000151991844, 0.01600000075995922, 1.055999994277954, 0.0, 0.0, 0.0, 0.0, 0.0, 1.6206616738616908E9, 2021-05-10 17:47:53.861
75.0, -317.30059814453125, 60.56768035888672, 111.84732055664062, -18.32737922668457, -0.03200000151991844, 0.01600000075995922, 1.055999994277954, 0.0, 0.0, 0.0, 0.0, 0.0, 1.6206616738624263E9, 2021-05-10 17:47:53.862
