Sample Index, EXG Channel 0, EXG Channel 1, EXG Channel 2, EXG Channel 3, Accel Channel 0, Accel Channel 1, Accel Channel 2, Other, Other, Other, Other, Other, Timestamp, Timestamp (Formatted)
0.0, -223.43284606933594, 166.41432189941406, 171.519287109375, 67.20039367675781, 0.0, 0.0, 0.0, 0.0, 0.0, 0.0, 0.0, 0.0, 1.6206586639871528E9, 2021-05-10 16:57:43.987
1.0, -213.78390502929688, 168.4226531982422, 181.07847595214844, 70.05767822265625, 0.0, 0.06400000303983688, 0.0, 0.0, 0.0, 0.0, 0.0, 0.0, 1.6206586639878707E9, 2021-05-10 16:57:43.987
1.0, -253.22488403320312, 140.7025146484375, 142.0900115966797, 41.0809326171875, 0.0, 0.06400000303983688, 0.0, 0.0, 0.0, 0.0, 0.0, 0.0, 1.6206586639878707E9, 2021-05-10 16:57:43.987
2.0, -255.66329956054688, 142.78564453125, 140.22381591796875, 40.4301872253418, -0.08000000566244125, 0.06400000303983688, 0.0, 0.0, 0.0, 0.0, 0.0, 0.0, 1.6206586640031755E9, 2021-05-10 16:57:44.003
2.0, -230.85279846191406, 173.6809539794922, 172.86566162109375, 72.41007232666016, -0.08000000566244125, 0.06400000303983688, 0.0, 0.0, 0.0, 0.0, 0.0, 0.0, 1.6206586640031755E9, 2021-05-10 16:57:44.003
3.0, -234.82083129882812, 179.27584838867188, 170.82366943359375, 75.71988677978516, -0.08000000566244125, 0.06400000303983688, 0.0, 0.0, 0.0, 0.0, 0.0, 0.0, 1.620658664003928E9, 2021-05-10 16:57:44.003
3.0, -249.9636993408203, 152.9993133544922, 143.56727600097656, 48.08950424194336, -0.08000000566244125, 0.06400000303983688, 0.0, 0.0, 0.0, 0.0, 0.0, 0.0, 1.620658664003928E9, 2021-05-10 16:57:44.003
4.0, -262.1856994628906, 147.49417114257812, 136.3866729736328, 45.250919342041016, -0.08000000566244125, 0.06400000303983688, 0.0, 0.0, 0.0, 0.0, 0.0, 0.0, 1.6206586640164063E9, 2021-05-10 16:57:44.016
4.0, -226.70526123046875, 178.6849365234375, 167.42410278320312, 87.42203521728516, -0.08000000566244125, 0.06400000303983688, 0.0, 0.0, 0.0, 0.0, 0.0, 0.0, 1.6206586640164063E9, 2021-05-10 16:57:44.016
5.0, -222.6025848388672, 176.42604064941406, 171.75115966796875, 78.10968017578125, -0.08000000566244125, 0.06400000303983688, 0.0, 0.0, 0.0, 0.0, 0.0, 0.0, 1.6206586640320008E9, 2021-05-10 16:57:44.032
5.0, -249.0586395263672, 143.0885772705078, 138.1706085205078, 47.89876937866211, -0.08000000566244125, 0.06400000303983688, 0.0, 0.0, 0.0, 0.0, 0.0, 0.0, 1.6206586640320008E9, 2021-05-10 16:57:44.032
6.0, -243.5497589111328, 141.22610473632812, 148.03271484375, 52.81673812866211, -0.08000000566244125, 0.06400000303983688, 0.0, 0.0, 0.0, 0.0, 0.0, 0.0, 1.6206586640327506E9, 2021-05-10 16:57:44.032
6.0, -210.93783569335938, 171.46693420410156, 180.82415771484375, 81.7972183227539, -0.08000000566244125, 0.06400000303983688, 0.0, 0.0, 0.0, 0.0, 0.0, 0.0, 1.6206586640327506E9, 2021-05-10 16:57:44.032
7.0, -214.2139892578125, 171.3996124267578, 182.46971130371094, 80.79866790771484, -0.08000000566244125, 0.06400000303983688, 0.0, 0.0, 0.0, 0.0, 0.0, 0.0, 1.6206586640463092E9, 2021-05-10 16:57:44.046
7.0, -244.42489624023438, 142.8641815185547, 160.1200714111328, 48.115684509277344, -0.08000000566244125, 0.06400000303983688, 0.0, 0.0, 0.0, 0.0, 0.0, 0.0, 1.6206586640463092E9, 2021-05-10 16:57:44.046
8.0, -239.17782592773438, 140.2761688232422, 150.90496826171875, 45.89418411254883, -0.08000000566244125, 0.06400000303983688, 0.0, 0.0, 0.0, 0.0, 0.0, 0.0, 1.620658664062035E9, 2021-05-10 16:57:44.062
8.0, -216.78704833984375, 178.8046112060547, 181.13082885742188, 69.32465362548828, -0.08000000566244125, 0.06400000303983688, 0.0, 0.0, 0.0, 0.0, 0.0, 0.0, 1.620658664062035E9, 2021-05-10 16:57:44.062
9.0, -197.7733917236328, 182.05459594726562, 190.1439971923828, 70.29702758789062, -0.08000000566244125, 0.06400000303983688, 0.0, 0.0, 0.0, 0.0, 0.0, 0.0, 1.6206586640627527E9, 2021-05-10 16:57:44.062
9.0, -246.41078186035156, 149.31924438476562, 151.15179443359375, 37.16525650024414, -0.08000000566244125, 0.06400000303983688, 0.0, 0.0, 0.0, 0.0, 0.0, 0.0, 1.6206586640627527E9, 2021-05-10 16:57:44.062
10.0, -250.98468017578125, 148.126220703125, 147.51287841796875, 39.25212097167969, -0.08000000566244125, 0.06400000303983688, 1.055999994277954, 0.0, 0.0, 0.0, 0.0, 0.0, 1.6206586640762699E9, 2021-05-10 16:57:44.076
10.0, -217.50509643554688, 184.80715942382812, 183.3598175048828, 70.9926528930664, -0.08000000566244125, 0.06400000303983688, 1.055999994277954, 0.0, 0.0, 0.0, 0.0, 0.0, 1.6206586640762699E9, 2021-05-10 16:57:44.076
11.0, -224.15090942382812, 185.02406311035156, 180.26318359375, 72.85137939453125, -0.08000000566244125, 0.06400000303983688, 1.055999994277954, 0.0, 0.0, 0.0, 0.0, 0.0, 1.620658664091688E9, 2021-05-10 16:57:44.091
11.0, -265.1850891113281, 151.2976531982422, 139.07940673828125, 43.392189025878906, -0.08000000566244125, 0.06400000303983688, 1.055999994277954, 0.0, 0.0, 0.0, 0.0, 0.0, 1.620658664091688E9, 2021-05-10 16:57:44.091
12.0, -261.1422424316406, 152.3672637939453, 136.17349243164062, 39.02024459838867, -0.06400000303983688, 0.06400000303983688, 1.055999994277954, 0.0, 0.0, 0.0, 0.0, 0.0, 1.62065866410694E9, 2021-05-10 16:57:44.106
12.0, -230.47882080078125, 178.5989227294922, 167.86166381835938, 73.21788787841797, -0.06400000303983688, 0.06400000303983688, 1.055999994277954, 0.0, 0.0, 0.0, 0.0, 0.0, 1.62065866410694E9, 2021-05-10 16:57:44.106
13.0, -228.7659454345703, 179.7433319091797, 167.48019409179688, 69.90434265136719, -0.06400000303983688, 0.06400000303983688, 1.055999994277954, 0.0, 0.0, 0.0, 0.0, 0.0, 1.6206586641077526E9, 2021-05-10 16:57:44.107
13.0, -249.20823669433594, 148.48150634765625, 138.17808532714844, 42.101924896240234, -0.06400000303983688, 0.06400000303983688, 1.055999994277954, 0.0, 0.0, 0.0, 0.0, 0.0, 1.6206586641077526E9, 2021-05-10 16:57:44.107
14.0, -250.55459594726562, 147.5839385986328, 144.94729614257812, 44.764732360839844, -0.06400000303983688, 0.06400000303983688, 1.055999994277954, 0.0, 0.0, 0.0, 0.0, 0.0, 1.6206586641219068E9, 2021-05-10 16:57:44.121
14.0, -220.13050842285156, 181.7329559326172, 177.9668731689453, 79.7253189086914, -0.06400000303983688, 0.06400000303983688, 1.055999994277954, 0.0, 0.0, 0.0, 0.0, 0.0, 1.6206586641219068E9, 2021-05-10 16:57:44.121
15.0, -210.95654296875, 176.54197692871094, 185.6486358642578, 85.69793701171875, -0.06400000303983688, 0.06400000303983688, 1.055999994277954, 0.0, 0.0, 0.0, 0.0, 0.0, 1.6206586641226647E9, 2021-05-10 16:57:44.122
15.0, -237.71925354003906, 142.04139709472656, 153.36581420898438, 54.522132873535156, -0.06400000303983688, 0.06400000303983688, 1.055999994277954, 0.0, 0.0, 0.0, 0.0, 0.0, 1.6206586641226647E9, 2021-05-10 16:57:44.122
16.0, -250.1656494140625, 149.34542846679688, 158.7662353515625, 52.409088134765625, -0.06400000303983688, 0.06400000303983688, 1.055999994277954, 0.0, 0.0, 0.0, 0.0, 0.0, 1.620658664136396E9, 2021-05-10 16:57:44.136
16.0, -227.9506378173828, 182.66793823242188, 183.17282104492188, 83.59237670898438, -0.06400000303983688, 0.06400000303983688, 1.055999994277954, 0.0, 0.0, 0.0, 0.0, 0.0, 1.620658664136396E9, 2021-05-10 16:57:44.136
17.0, -221.2075958251953, 179.13372802734375, 183.32241821289062, 79.4635238647461, -0.06400000303983688, 0.06400000303983688, 1.055999994277954, 0.0, 0.0, 0.0, 0.0, 0.0, 1.6206586641517236E9, 2021-05-10 16:57:44.151
17.0, -246.52671813964844, 146.8621368408203, 151.6791229248047, 42.389896392822266, -0.06400000303983688, 0.06400000303983688, 1.055999994277954, 0.0, 0.0, 0.0, 0.0, 0.0, 1.6206586641517236E9, 2021-05-10 16:57:44.151
18.0, -250.0272674560547, 150.64691162109375, 152.6066131591797, 40.078636169433594, -0.06400000303983688, 0.06400000303983688, 1.055999994277954, 0.0, 0.0, 0.0, 0.0, 0.0, 1.6206586641669831E9, 2021-05-10 16:57:44.166
18.0, -228.2834930419922, 180.3304901123047, 180.5511474609375, 68.13910675048828, -0.06400000303983688, 0.06400000303983688, 1.055999994277954, 0.0, 0.0, 0.0, 0.0, 0.0, 1.6206586641669831E9, 2021-05-10 16:57:44.166
19.0, -224.50245666503906, 183.20648193359375, 181.51229858398438, 64.37303161621094, -0.06400000303983688, 0.06400000303983688, 1.055999994277954, 0.0, 0.0, 0.0, 0.0, 0.0, 1.6206586641677089E9, 2021-05-10 16:57:44.167
19.0, -245.0718994140625, 159.30477905273438, 150.5010528564453, 34.14715576171875, -0.06400000303983688, 0.06400000303983688, 1.055999994277954, 0.0, 0.0, 0.0, 0.0, 0.0, 1.6206586641677089E9, 2021-05-10 16:57:44.167
20.0, -260.4952392578125, 165.02308654785156, 143.64955139160156, 35.11579132080078, -0.06400000303983688, 0.06400000303983688, 1.055999994277954, 0.0, 0.0, 0.0, 0.0, 0.0, 1.6206586641820495E9, 2021-05-10 16:57:44.182
20.0, -228.19000244140625, 195.88099670410156, 175.6070098876953, 61.32875061035156, -0.06400000303983688, 0.06400000303983688, 1.055999994277954, 0.0, 0.0, 0.0, 0.0, 0.0, 1.6206586641820495E9, 2021-05-10 16:57:44.182
21.0, -232.68161010742188, 191.9167022705078, 174.35414123535156, 61.74013900756836, -0.06400000303983688, 0.06400000303983688, 1.055999994277954, 0.0, 0.0, 0.0, 0.0, 0.0, 1.6206586641827953E9, 2021-05-10 16:57:44.182
21.0, -259.0254821777344, 151.3874053955078, 144.28160095214844, 35.654335021972656, -0.06400000303983688, 0.06400000303983688, 1.055999994277954, 0.0, 0.0, 0.0, 0.0, 0.0, 1.6206586641827953E9, 2021-05-10 16:57:44.182
22.0, -253.19122314453125, 154.78323364257812, 145.25022888183594, 35.47481918334961, -0.06400000303983688, 0.06400000303983688, 1.055999994277954, 0.0, 0.0, 0.0, 0.0, 0.0, 1.6206586641962557E9, 2021-05-10 16:57:44.196
22.0, -218.6158447265625, 182.974609375, 176.3998565673828, 73.49464416503906, -0.06400000303983688, 0.06400000303983688, 1.055999994277954, 0.0, 0.0, 0.0, 0.0, 0.0, 1.6206586641962557E9, 2021-05-10 16:57:44.196
23.0, -216.7197265625, 178.6400604248047, 178.9467315673828, 72.0959243774414, -0.06400000303983688, 0.06400000303983688, 1.055999994277954, 0.0, 0.0, 0.0, 0.0, 0.0, 1.6206586642124028E9, 2021-05-10 16:57:44.212
23.0, -255.14720153808594, 154.04273986816406, 134.78973388671875, 44.768470764160156, -0.06400000303983688, 0.06400000303983688, 1.055999994277954, 0.0, 0.0, 0.0, 0.0, 0.0, 1.6206586642124028E9, 2021-05-10 16:57:44.212
24.0, -255.7642822265625, 150.673095703125, 137.0149688720703, 50.28856658935547, -0.06400000303983688, 0.06400000303983688, 1.055999994277954, 0.0, 0.0, 0.0, 0.0, 0.0, 1.62065866422734E9, 2021-05-10 16:57:44.227
24.0, -224.9774169921875, 182.66793823242188, 169.01356506347656, 83.91026306152344, -0.06400000303983688, 0.06400000303983688, 1.055999994277954, 0.0, 0.0, 0.0, 0.0, 0.0, 1.62065866422734E9, 2021-05-10 16:57:44.227
25.0, -211.3828887939453, 179.25340270996094, 178.643798828125, 86.74137115478516, -0.06400000303983688, 0.06400000303983688, 1.055999994277954, 0.0, 0.0, 0.0, 0.0, 0.0, 1.6206586642418144E9, 2021-05-10 16:57:44.241
25.0, -254.41790771484375, 148.81436157226562, 147.35580444335938, 54.903602600097656, -0.06400000303983688, 0.06400000303983688, 1.055999994277954, 0.0, 0.0, 0.0, 0.0, 0.0, 1.6206586642418144E9, 2021-05-10 16:57:44.241
26.0, -256.4561462402344, 148.7919158935547, 144.63314819335938, 48.396175384521484, -0.06400000303983688, 0.06400000303983688, 1.055999994277954, 0.0, 0.0, 0.0, 0.0, 0.0, 1.6206586642567112E9, 2021-05-10 16:57:44.256
26.0, -222.61380004882812, 182.4734649658203, 177.1964569091797, 77.42901611328125, -0.06400000303983688, 0.06400000303983688, 1.055999994277954, 0.0, 0.0, 0.0, 0.0, 0.0, 1.6206586642567112E9, 2021-05-10 16:57:44.256
27.0, -214.70391845703125, 185.2073211669922, 181.25425720214844, 75.32345581054688, -0.06400000303983688, 0.06400000303983688, 1.055999994277954, 0.0, 0.0, 0.0, 0.0, 0.0, 1.620658664274124E9, 2021-05-10 16:57:44.274
27.0, -262.7354431152344, 153.52662658691406, 148.0439453125, 41.30532455444336, -0.06400000303983688, 0.06400000303983688, 1.055999994277954, 0.0, 0.0, 0.0, 0.0, 0.0, 1.620658664274124E9, 2021-05-10 16:57:44.274
28.0, -266.1088562011719, 158.1641082763672, 145.77755737304688, 34.77920150756836, -0.06400000303983688, 0.06400000303983688, 1.055999994277954, 0.0, 0.0, 0.0, 0.0, 0.0, 1.6206586642748432E9, 2021-05-10 16:57:44.274
28.0, -231.19313049316406, 195.5257110595703, 184.48178100585938, 66.08216094970703, -0.06400000303983688, 0.06400000303983688, 1.055999994277954, 0.0, 0.0, 0.0, 0.0, 0.0, 1.6206586642748432E9, 2021-05-10 16:57:44.274
29.0, -233.1603240966797, 193.02371215820312, 178.40444946289062, 64.89661407470703, -0.06400000303983688, 0.06400000303983688, 1.055999994277954, 0.0, 0.0, 0.0, 0.0, 0.0, 1.620658664275663E9, 2021-05-10 16:57:44.275
29.0, -255.9662322998047, 151.2228546142578, 144.04598999023438, 30.111804962158203, -0.06400000303983688, 0.06400000303983688, 1.055999994277954, 0.0, 0.0, 0.0, 0.0, 0.0, 1.620658664275663E9, 2021-05-10 16:57:44.275
30.0, -259.0815734863281, 154.570068359375, 144.4349365234375, 35.57953643798828, -0.06400000303983688, 0.06400000303983688, 1.055999994277954, 0.0, 0.0, 0.0, 0.0, 0.0, 1.6206586642762463E9, 2021-05-10 16:57:44.276
30.0, -230.34791564941406, 180.99246215820312, 164.8734893798828, 64.57872009277344, -0.06400000303983688, 0.06400000303983688, 1.055999994277954, 0.0, 0.0, 0.0, 0.0, 0.0, 1.6206586642762463E9, 2021-05-10 16:57:44.276
31.0, -219.67050170898438, 175.76034545898438, 170.2477264404297, 73.93595123291016, -0.06400000303983688, 0.06400000303983688, 1.055999994277954, 0.0, 0.0, 0.0, 0.0, 0.0, 1.6206586642863505E9, 2021-05-10 16:57:44.286
31.0, -235.7483367919922, 147.5839385986328, 139.50949096679688, 46.65338134765625, -0.06400000303983688, 0.06400000303983688, 1.055999994277954, 0.0, 0.0, 0.0, 0.0, 0.0, 1.6206586642863505E9, 2021-05-10 16:57:44.286
32.0, -249.50369262695312, 143.5111846923828, 130.66836547851562, 41.26792526245117, -0.08000000566244125, 0.06400000303983688, 1.055999994277954, 0.0, 0.0, 0.0, 0.0, 0.0, 1.6206586643481069E9, 2021-05-10 16:57:44.348
32.0, -214.02699279785156, 173.6061553955078, 168.8228302001953, 81.91690063476562, -0.08000000566244125, 0.06400000303983688, 1.055999994277954, 0.0, 0.0, 0.0, 0.0, 0.0, 1.6206586643481069E9, 2021-05-10 16:57:44.348
33.0, -222.20989990234375, 175.6780548095703, 168.2581024169922, 81.01557922363281, -0.08000000566244125, 0.06400000303983688, 1.055999994277954, 0.0, 0.0, 0.0, 0.0, 0.0, 1.6206586643488603E9, 2021-05-10 16:57:44.348
33.0, -249.6457977294922, 137.13839721679688, 141.40562438964844, 56.2574462890625, -0.08000000566244125, 0.06400000303983688, 1.055999994277954, 0.0, 0.0, 0.0, 0.0, 0.0, 1.6206586643488603E9, 2021-05-10 16:57:44.348
34.0, -251.13427734375, 139.70770263671875, 143.56727600097656, 59.709373474121094, -0.08000000566244125, 0.06400000303983688, 1.055999994277954, 0.0, 0.0, 0.0, 0.0, 0.0, 1.6206586643495104E9, 2021-05-10 16:57:44.349
34.0, -229.9739227294922, 169.80641174316406, 163.27655029296875, 84.29173278808594, -0.08000000566244125, 0.06400000303983688, 1.055999994277954, 0.0, 0.0, 0.0, 0.0, 0.0, 1.6206586643495104E9, 2021-05-10 16:57:44.349
35.0, -225.6206817626953, 174.17462158203125, 167.38296508789062, 81.09786224365234, -0.08000000566244125, 0.06400000303983688, 1.055999994277954, 0.0, 0.0, 0.0, 0.0, 0.0, 1.620658664364208E9, 2021-05-10 16:57:44.364
35.0, -250.8837127685547, 148.96022033691406, 136.86912536621094, 50.692474365234375, -0.08000000566244125, 0.06400000303983688, 1.055999994277954, 0.0, 0.0, 0.0, 0.0, 0.0, 1.620658664364208E9, 2021-05-10 16:57:44.364
36.0, -261.14599609375, 154.50648498535156, 141.92919921875, 47.21810531616211, -0.08000000566244125, 0.06400000303983688, 1.055999994277954, 0.0, 0.0, 0.0, 0.0, 0.0, 1.6206586643648667E9, 2021-05-10 16:57:44.364
36.0, -235.35189819335938, 189.3623504638672, 169.61941528320312, 82.4778823852539, -0.08000000566244125, 0.06400000303983688, 1.055999994277954, 0.0, 0.0, 0.0, 0.0, 0.0, 1.6206586643648667E9, 2021-05-10 16:57:44.364
37.0, -231.22305297851562, 189.5381317138672, 179.52267456054688, 73.03463745117188, -0.08000000566244125, 0.06400000303983688, 1.055999994277954, 0.0, 0.0, 0.0, 0.0, 0.0, 1.6206586643655975E9, 2021-05-10 16:57:44.365
37.0, -255.02377319335938, 164.49575805664062, 152.4495391845703, 43.063079833984375, -0.08000000566244125, 0.06400000303983688, 1.055999994277954, 0.0, 0.0, 0.0, 0.0, 0.0, 1.6206586643655975E9, 2021-05-10 16:57:44.365
38.0, -258.92822265625, 162.80906677246094, 154.78323364257812, 39.768226623535156, -0.08000000566244125, 0.06400000303983688, 1.055999994277954, 0.0, 0.0, 0.0, 0.0, 0.0, 1.6206586643940127E9, 2021-05-10 16:57:44.394
38.0, -225.34393310546875, 183.42340087890625, 184.81837463378906, 70.2297134399414, -0.08000000566244125, 0.06400000303983688, 1.055999994277954, 0.0, 0.0, 0.0, 0.0, 0.0, 1.6206586643940127E9, 2021-05-10 16:57:44.394
39.0, -216.8431396484375, 183.28128051757812, 178.24737548828125, 72.00990295410156, -0.08000000566244125, 0.06400000303983688, 1.055999994277954, 0.0, 0.0, 0.0, 0.0, 0.0, 1.6206586643947241E9, 2021-05-10 16:57:44.394
39.0, -240.5765380859375, 151.9446563720703, 140.37339782714844, 33.309417724609375, -0.08000000566244125, 0.06400000303983688, 1.055999994277954, 0.0, 0.0, 0.0, 0.0, 0.0, 1.6206586643947241E9, 2021-05-10 16:57:44.394
40.0, -246.32850646972656, 146.74620056152344, 138.89614868164062, 36.09938430786133, -0.08000000566244125, 0.06400000303983688, 1.055999994277954, 0.0, 0.0, 0.0, 0.0, 0.0, 1.62065866439545E9, 2021-05-10 16:57:44.395
40.0, -216.79078674316406, 180.15846252441406, 165.66635131835938, 66.10459899902344, -0.08000000566244125, 0.06400000303983688, 1.055999994277954, 0.0, 0.0, 0.0, 0.0, 0.0, 1.62065866439545E9, 2021-05-10 16:57:44.395
41.0, -219.9771728515625, 170.12057495117188, 166.33204650878906, 72.1333236694336, -0.08000000566244125, 0.06400000303983688, 1.055999994277954, 0.0, 0.0, 0.0, 0.0, 0.0, 1.620658664396211E9, 2021-05-10 16:57:44.396
41.0, -246.31729125976562, 137.37774658203125, 133.27133178710938, 43.79983901977539, -0.08000000566244125, 0.06400000303983688, 1.055999994277954, 0.0, 0.0, 0.0, 0.0, 0.0, 1.620658664396211E9, 2021-05-10 16:57:44.396
42.0, -238.55699157714844, 142.34059143066406, 140.93438720703125, 52.76437759399414, -0.08000000566244125, 0.06400000303983688, 1.055999994277954, 0.0, 0.0, 0.0, 0.0, 0.0, 1.620658664407015E9, 2021-05-10 16:57:44.407
42.0, -212.4300537109375, 167.48768615722656, 170.0906524658203, 81.4344482421875, -0.08000000566244125, 0.06400000303983688, 1.055999994277954, 0.0, 0.0, 0.0, 0.0, 0.0, 1.620658664407015E9, 2021-05-10 16:57:44.407
43.0, -215.40701293945312, 170.40106201171875, 169.38006591796875, 79.08953094482422, -0.08000000566244125, 0.06400000303983688, 1.055999994277954, 0.0, 0.0, 0.0, 0.0, 0.0, 1.6206586644077265E9, 2021-05-10 16:57:44.407
43.0, -248.06382751464844, 136.47268676757812, 141.67489624023438, 49.20399475097656, -0.08000000566244125, 0.06400000303983688, 1.055999994277954, 0.0, 0.0, 0.0, 0.0, 0.0, 1.6206586644077265E9, 2021-05-10 16:57:44.407
44.0, -248.3817138671875, 147.0640869140625, 148.11874389648438, 52.0911979675293, -0.08000000566244125, 0.06400000303983688, 1.055999994277954, 0.0, 0.0, 0.0, 0.0, 0.0, 1.620658664421965E9, 2021-05-10 16:57:44.421
44.0, -223.47398376464844, 180.84286499023438, 176.9945068359375, 79.49718475341797, -0.08000000566244125, 0.06400000303983688, 1.055999994277954, 0.0, 0.0, 0.0, 0.0, 0.0, 1.620658664421965E9, 2021-05-10 16:57:44.421
45.0, -214.7338409423828, 177.3722381591797, 179.77325439453125, 84.96865844726562, -0.08000000566244125, 0.06400000303983688, 1.055999994277954, 0.0, 0.0, 0.0, 0.0, 0.0, 1.62065866442266E9, 2021-05-10 16:57:44.422
45.0, -268.63702392578125, 156.9785614013672, 148.4927215576172, 54.451072692871094, -0.08000000566244125, 0.06400000303983688, 1.055999994277954, 0.0, 0.0, 0.0, 0.0, 0.0, 1.62065866442266E9, 2021-05-10 16:57:44.422
46.0, -269.11572265625, 154.53640747070312, 147.0266876220703, 51.09638214111328, -0.08000000566244125, 0.06400000303983688, 1.055999994277954, 0.0, 0.0, 0.0, 0.0, 0.0, 1.6206586644698148E9, 2021-05-10 16:57:44.469
46.0, -233.98309326171875, 189.76626586914062, 179.7508087158203, 83.79432678222656, -0.08000000566244125, 0.06400000303983688, 1.055999994277954, 0.0, 0.0, 0.0, 0.0, 0.0, 1.6206586644698148E9, 2021-05-10 16:57:44.469
47.0, -228.8893585205078, 188.89112854003906, 178.97291564941406, 77.55243682861328, -0.08000000566244125, 0.06400000303983688, 1.055999994277954, 0.0, 0.0, 0.0, 0.0, 0.0, 1.6206586644704893E9, 2021-05-10 16:57:44.470
47.0, -253.7222900390625, 157.0758056640625, 149.48379516601562, 47.18070602416992, -0.08000000566244125, 0.06400000303983688, 1.055999994277954, 0.0, 0.0, 0.0, 0.0, 0.0, 1.6206586644704893E9, 2021-05-10 16:57:44.470
48.0, -253.29220581054688, 163.1007843017578, 147.77841186523438, 49.70513916015625, -0.08000000566244125, 0.06400000303983688, 1.055999994277954, 0.0, 0.0, 0.0, 0.0, 0.0, 1.620658664471204E9, 2021-05-10 16:57:44.471
48.0, -214.68521118164062, 198.3942108154297, 180.98123168945312, 82.14877319335938, -0.08000000566244125, 0.06400000303983688, 1.055999994277954, 0.0, 0.0, 0.0, 0.0, 0.0, 1.620658664471204E9, 2021-05-10 16:57:44.471
49.0, -201.94711303710938, 183.67022705078125, 177.77239990234375, 77.89276885986328, -0.08000000566244125, 0.06400000303983688, 1.055999994277954, 0.0, 0.0, 0.0, 0.0, 0.0, 1.6206586644720764E9, 2021-05-10 16:57:44.472
49.0, -246.26119995117188, 155.8004913330078, 152.0605926513672, 51.305816650390625, -0.08000000566244125, 0.06400000303983688, 1.055999994277954, 0.0, 0.0, 0.0, 0.0, 0.0, 1.6206586644720764E9, 2021-05-10 16:57:44.472
50.0, -237.4799041748047, 157.5694580078125, 149.2332305908203, 53.736751556396484, -0.08000000566244125, 0.06400000303983688, 1.055999994277954, 0.0, 0.0, 0.0, 0.0, 0.0, 1.6206586644820683E9, 2021-05-10 16:57:44.482
50.0, -212.91624450683594, 178.37078857421875, 181.2355499267578, 76.35566711425781, -0.08000000566244125, 0.06400000303983688, 1.055999994277954, 0.0, 0.0, 0.0, 0.0, 0.0, 1.6206586644820683E9, 2021-05-10 16:57:44.482
51.0, -212.36648559570312, 179.8704833984375, 177.2974395751953, 71.20208740234375, -0.08000000566244125, 0.06400000303983688, 1.055999994277954, 0.0, 0.0, 0.0, 0.0, 0.0, 1.620658664482815E9, 2021-05-10 16:57:44.482
51.0, -239.89962768554688, 150.321533203125, 150.6207275390625, 43.90455627441406, -0.08000000566244125, 0.06400000303983688, 1.055999994277954, 0.0, 0.0, 0.0, 0.0, 0.0, 1.620658664482815E9, 2021-05-10 16:57:44.482
52.0, -240.1277618408203, 147.0079803466797, 146.8097686767578, 43.31739044189453, -0.08000000566244125, 0.06400000303983688, 1.055999994277954, 0.0, 0.0, 0.0, 0.0, 0.0, 1.6206586644962182E9, 2021-05-10 16:57:44.496
52.0, -215.34718322753906, 179.0402374267578, 176.3961181640625, 80.03572845458984, -0.08000000566244125, 0.06400000303983688, 1.055999994277954, 0.0, 0.0, 0.0, 0.0, 0.0, 1.6206586644962182E9, 2021-05-10 16:57:44.496
53.0, -210.55636596679688, 178.5615234375, 177.2039337158203, 71.95380401611328, -0.08000000566244125, 0.06400000303983688, 1.055999994277954, 0.0, 0.0, 0.0, 0.0, 0.0, 1.6206586645119853E9, 2021-05-10 16:57:44.511
53.0, -248.845458984375, 143.91134643554688, 142.6547393798828, 41.12955093383789, -0.08000000566244125, 0.06400000303983688, 1.055999994277954, 0.0, 0.0, 0.0, 0.0, 0.0, 1.6206586645119853E9, 2021-05-10 16:57:44.511
54.0, -245.67776489257812, 148.72085571289062, 142.51637268066406, 43.58666229248047, -0.08000000566244125, 0.06400000303983688, 1.055999994277954, 0.0, 0.0, 0.0, 0.0, 0.0, 1.6206586645127025E9, 2021-05-10 16:57:44.512
54.0, -240.35963439941406, 180.53993225097656, 163.56826782226562, 75.44686889648438, -0.08000000566244125, 0.06400000303983688, 1.055999994277954, 0.0, 0.0, 0.0, 0.0, 0.0, 1.6206586645127025E9, 2021-05-10 16:57:44.512
55.0, -239.27505493164062, 180.18838500976562, 170.49081420898438, 75.17385864257812, -0.08000000566244125, 0.06400000303983688, 1.055999994277954, 0.0, 0.0, 0.0, 0.0, 0.0, 1.62065866452621E9, 2021-05-10 16:57:44.526
55.0, -260.65606689453125, 154.1736297607422, 143.77671813964844, 43.111698150634766, -0.08000000566244125, 0.06400000303983688, 1.055999994277954, 0.0, 0.0, 0.0, 0.0, 0.0, 1.62065866452621E9, 2021-05-10 16:57:44.526
56.0, -260.6598205566406, 158.32118225097656, 143.70191955566406, 43.18275451660156, -0.08000000566244125, 0.06400000303983688, 1.055999994277954, 0.0, 0.0, 0.0, 0.0, 0.0, 1.620658664542122E9, 2021-05-10 16:57:44.542
56.0, -230.56109619140625, 187.18572998046875, 167.55873107910156, 72.42503356933594, -0.08000000566244125, 0.06400000303983688, 1.055999994277954, 0.0, 0.0, 0.0, 0.0, 0.0, 1.620658664542122E9, 2021-05-10 16:57:44.542
57.0, -228.65000915527344, 190.1776580810547, 165.06048583984375, 69.43311309814453, -0.08000000566244125, 0.06400000303983688, 1.055999994277954, 0.0, 0.0, 0.0, 0.0, 0.0, 1.6206586645428293E9, 2021-05-10 16:57:44.542
57.0, -260.6897277832031, 154.68226623535156, 134.92811584472656, 41.99720764160156, -0.08000000566244125, 0.06400000303983688, 1.055999994277954, 0.0, 0.0, 0.0, 0.0, 0.0, 1.6206586645428293E9, 2021-05-10 16:57:44.542
58.0, -253.26976013183594, 158.79615783691406, 131.7940673828125, 37.24379348754883, -0.08000000566244125, 0.06400000303983688, 1.055999994277954, 0.0, 0.0, 0.0, 0.0, 0.0, 1.620658664556201E9, 2021-05-10 16:57:44.556
58.0, -233.72879028320312, 195.7837677001953, 169.63438415527344, 70.44288635253906, -0.08000000566244125, 0.06400000303983688, 1.055999994277954, 0.0, 0.0, 0.0, 0.0, 0.0, 1.620658664556201E9, 2021-05-10 16:57:44.556
59.0, -232.225341796875, 189.18284606933594, 168.19451904296875, 69.89311981201172, -0.08000000566244125, 0.06400000303983688, 1.055999994277954, 0.0, 0.0, 0.0, 0.0, 0.0, 1.620658664572111E9, 2021-05-10 16:57:44.572
59.0, -261.91265869140625, 155.920166015625, 137.42262268066406, 39.43911361694336, -0.08000000566244125, 0.06400000303983688, 1.055999994277954, 0.0, 0.0, 0.0, 0.0, 0.0, 1.620658664572111E9, 2021-05-10 16:57:44.572
60.0, -247.9142303466797, 158.49322509765625, 140.85211181640625, 40.01131820678711, -0.08000000566244125, 0.06400000303983688, 1.040000081062317, 0.0, 0.0, 0.0, 0.0, 0.0, 1.6206586645727808E9, 2021-05-10 16:57:44.572
60.0, -221.48062133789062, 186.13108825683594, 178.93551635742188, 75.14019775390625, -0.08000000566244125, 0.06400000303983688, 1.040000081062317, 0.0, 0.0, 0.0, 0.0, 0.0, 1.6206586645727808E9, 2021-05-10 16:57:44.572
61.0, -221.8433837890625, 179.34690856933594, 176.6167755126953, 71.18338775634766, -0.08000000566244125, 0.06400000303983688, 1.040000081062317, 0.0, 0.0, 0.0, 0.0, 0.0, 1.6206586645862346E9, 2021-05-10 16:57:44.586
61.0, -262.0361022949219, 149.79046630859375, 140.26869201660156, 42.93966293334961, -0.08000000566244125, 0.06400000303983688, 1.040000081062317, 0.0, 0.0, 0.0, 0.0, 0.0, 1.6206586645862346E9, 2021-05-10 16:57:44.586
62.0, -252.1515350341797, 145.0707244873047, 138.5745086669922, 40.89019775390625, -0.08000000566244125, 0.06400000303983688, 1.040000081062317, 0.0, 0.0, 0.0, 0.0, 0.0, 1.6206586646020749E9, 2021-05-10 16:57:44.602
62.0, -234.82083129882812, 178.50167846679688, 168.11224365234375, 76.81941223144531, -0.08000000566244125, 0.06400000303983688, 1.040000081062317, 0.0, 0.0, 0.0, 0.0, 0.0, 1.6206586646020749E9, 2021-05-10 16:57:44.602
63.0, -233.22015380859375, 177.66769409179688, 169.75405883789062, 75.47679138183594, -0.08000000566244125, 0.06400000303983688, 1.040000081062317, 0.0, 0.0, 0.0, 0.0, 0.0, 1.6206586646026816E9, 2021-05-10 16:57:44.602
63.0, -267.48138427734375, 146.764892578125, 134.54664611816406, 37.16151428222656, -0.08000000566244125, 0.06400000303983688, 1.040000081062317, 0.0, 0.0, 0.0, 0.0, 0.0, 1.6206586646026816E9, 2021-05-10 16:57:44.602
64.0, -268.5697021484375, 144.218017578125, 129.92787170410156, 36.11434555053711, -0.08000000566244125, 0.06400000303983688, 1.040000081062317, 0.0, 0.0, 0.0, 0.0, 0.0, 1.6206586646163003E9, 2021-05-10 16:57:44.616
64.0, -232.9583740234375, 177.61158752441406, 163.90859985351562, 65.07987213134766, -0.08000000566244125, 0.06400000303983688, 1.040000081062317, 0.0, 0.0, 0.0, 0.0, 0.0, 1.6206586646163003E9, 2021-05-10 16:57:44.616
65.0, -230.7069549560547, 185.32325744628906, 166.66864013671875, 66.18688201904297, -0.08000000566244125, 0.06400000303983688, 1.040000081062317, 0.0, 0.0, 0.0, 0.0, 0.0, 1.620658664632434E9, 2021-05-10 16:57:44.632
65.0, -259.6163635253906, 148.64605712890625, 133.25637817382812, 34.29301452636719, -0.08000000566244125, 0.06400000303983688, 1.040000081062317, 0.0, 0.0, 0.0, 0.0, 0.0, 1.620658664632434E9, 2021-05-10 16:57:44.632
66.0, -260.8804626464844, 153.75851440429688, 133.08807373046875, 36.795005798339844, -0.08000000566244125, 0.06400000303983688, 1.040000081062317, 0.0, 0.0, 0.0, 0.0, 0.0, 1.6206586646470613E9, 2021-05-10 16:57:44.647
66.0, -233.59414672851562, 185.96652221679688, 170.0831756591797, 70.9515151977539, -0.08000000566244125, 0.06400000303983688, 1.040000081062317, 0.0, 0.0, 0.0, 0.0, 0.0, 1.6206586646470613E9, 2021-05-10 16:57:44.647
67.0, -237.63697814941406, 183.41964721679688, 161.18968200683594, 64.9901123046875, -0.08000000566244125, 0.06400000303983688, 1.040000081062317, 0.0, 0.0, 0.0, 0.0, 0.0, 1.6206586646478057E9, 2021-05-10 16:57:44.647
67.0, -261.49755859375, 150.86756896972656, 136.1622772216797, 40.08985900878906, -0.08000000566244125, 0.06400000303983688, 1.040000081062317, 0.0, 0.0, 0.0, 0.0, 0.0, 1.6206586646478057E9, 2021-05-10 16:57:44.647
68.0, -255.03500366210938, 154.07640075683594, 134.4307098388672, 37.52802658081055, -0.08000000566244125, 0.06400000303983688, 1.040000081062317, 0.0, 0.0, 0.0, 0.0, 0.0, 1.6206586646621337E9, 2021-05-10 16:57:44.662
68.0, -226.72021484375, 183.0980224609375, 169.67926025390625, 73.09821319580078, -0.08000000566244125, 0.06400000303983688, 1.040000081062317, 0.0, 0.0, 0.0, 0.0, 0.0, 1.6206586646621337E9, 2021-05-10 16:57:44.662
69.0, -223.81805419921875, 187.23434448242188, 181.94239807128906, 70.64109802246094, -0.08000000566244125, 0.06400000303983688, 1.040000081062317, 0.0, 0.0, 0.0, 0.0, 0.0, 1.6206586646628056E9, 2021-05-10 16:57:44.662
69.0, -253.68862915039062, 158.8933868408203, 152.2775115966797, 31.989234924316406, -0.08000000566244125, 0.06400000303983688, 1.040000081062317, 0.0, 0.0, 0.0, 0.0, 0.0, 1.6206586646628056E9, 2021-05-10 16:57:44.662
70.0, -254.38426208496094, 157.38995361328125, 154.62989807128906, 34.655784606933594, -0.08000000566244125, 0.06400000303983688, 1.055999994277954, 0.0, 0.0, 0.0, 0.0, 0.0, 1.6206586646763158E9, 2021-05-10 16:57:44.676
70.0, -224.67822265625, 189.98318481445312, 186.01889038085938, 66.08216094970703, -0.08000000566244125, 0.06400000303983688, 1.055999994277954, 0.0, 0.0, 0.0, 0.0, 0.0, 1.6206586646763158E9, 2021-05-10 16:57:44.676
71.0, -226.5406951904297, 187.66818237304688, 184.6687774658203, 67.86983489990234, -0.08000000566244125, 0.06400000303983688, 1.055999994277954, 0.0, 0.0, 0.0, 0.0, 0.0, 1.62065866469196E9, 2021-05-10 16:57:44.691
71.0, -253.78961181640625, 157.98085021972656, 152.09425354003906, 44.79839324951172, -0.08000000566244125, 0.06400000303983688, 1.055999994277954, 0.0, 0.0, 0.0, 0.0, 0.0, 1.62065866469196E9, 2021-05-10 16:57:44.691
72.0, -248.91278076171875, 149.19956970214844, 154.70469665527344, 39.81684494018555, -0.06400000303983688, 0.06400000303983688, 1.055999994277954, 0.0, 0.0, 0.0, 0.0, 0.0, 1.62065866469269E9, 2021-05-10 16:57:44.692
72.0, -224.62960815429688, 179.6685333251953, 181.9573516845703, 70.27832794189453, -0.06400000303983688, 0.06400000303983688, 1.055999994277954, 0.0, 0.0, 0.0, 0.0, 0.0, 1.62065866469269E9, 2021-05-10 16:57:44.692
73.0, -223.6721954345703, 176.00717163085938, 174.4925079345703, 65.33792114257812, -0.06400000303983688, 0.06400000303983688, 1.055999994277954, 0.0, 0.0, 0.0, 0.0, 0.0, 1.6206586647062883E9, 2021-05-10 16:57:44.706
73.0, -255.59971618652344, 150.31031799316406, 138.09207153320312, 32.31834411621094, -0.06400000303983688, 0.06400000303983688, 1.055999994277954, 0.0, 0.0, 0.0, 0.0, 0.0, 1.6206586647062883E9, 2021-05-10 16:57:44.706
74.0, -256.7852783203125, 152.4009246826172, 135.3170623779297, 31.2861328125, -0.06400000303983688, 0.06400000303983688, 1.055999994277954, 0.0, 0.0, 0.0, 0.0, 0.0, 1.620658664721993E9, 2021-05-10 16:57:44.721
74.0, -220.7775115966797, 182.9297332763672, 157.90231323242188, 63.55398941040039, -0.06400000303983688, 0.06400000303983688, 1.055999994277954, 0.0, 0.0, 0.0, 0.0, 0.0, 1.620658664721993E9, 2021-05-10 16:57:44.721
75.0, -230.7779998779297, 182.6791534423828, 151.1331024169922, 64.31693267822266, -0.06400000303983688, 0.06400000303983688, 1.055999994277954, 0.0, 0.0, 0.0, 0.0, 0.0, 1.6206586647226915E9, 2021-05-10 16:57:44.722
75.0, -247.1176300048828, 155.5349578857422, 125.81771087646484, 31.820938110351562, -0.06400000303983688, 0.06400000303983688, 1.055999994277954, 0.0, 0.0, 0.0, 0.0, 0.0, 1.6206586647226915E9, 2021-05-10 16:57:44.722
76.0, -257.05828857421875, 160.8755340576172, 123.65605163574219, 37.49810791015625, -0.06400000303983688, 0.06400000303983688, 1.055999994277954, 0.0, 0.0, 0.0, 0.0, 0.0, 1.6206586647362895E9, 2021-05-10 16:57:44.736
76.0, -228.72105407714844, 197.36573791503906, 160.80821228027344, 74.13042449951172, -0.06400000303983688, 0.06400000303983688, 1.055999994277954, 0.0, 0.0, 0.0, 0.0, 0.0, 1.6206586647362895E9, 2021-05-10 16:57:44.736
77.0, -224.9736785888672, 191.6287384033203, 159.5740509033203, 70.10255432128906, -0.06400000303983688, 0.06400000303983688, 1.055999994277954, 0.0, 0.0, 0.0, 0.0, 0.0, 1.620658664752043E9, 2021-05-10 16:57:44.752
77.0, -254.85548400878906, 164.9969024658203, 131.4687042236328, 41.64939498901367, -0.06400000303983688, 0.06400000303983688, 1.055999994277954, 0.0, 0.0, 0.0, 0.0, 0.0, 1.620658664752043E9, 2021-05-10 16:57:44.752
78.0, -245.13548278808594, 164.71267700195312, 137.63954162597656, 38.515357971191406, -0.06400000303983688, 0.06400000303983688, 1.055999994277954, 0.0, 0.0, 0.0, 0.0, 0.0, 1.6206586647528048E9, 2021-05-10 16:57:44.752
78.0, -234.0504150390625, 194.39999389648438, 170.88351440429688, 69.51165008544922, -0.06400000303983688, 0.06400000303983688, 1.055999994277954, 0.0, 0.0, 0.0, 0.0, 0.0, 1.6206586647528048E9, 2021-05-10 16:57:44.752
79.0, -233.410888671875, 194.6767578125, 175.4125213623047, 70.3306884765625, -0.06400000303983688, 0.06400000303983688, 1.055999994277954, 0.0, 0.0, 0.0, 0.0, 0.0, 1.6206586647662897E9, 2021-05-10 16:57:44.766
79.0, -260.6111755371094, 168.36282348632812, 155.8827667236328, 42.995758056640625, -0.06400000303983688, 0.06400000303983688, 1.055999994277954, 0.0, 0.0, 0.0, 0.0, 0.0, 1.6206586647662897E9, 2021-05-10 16:57:44.766
80.0, -248.79684448242188, 162.7978515625, 161.94140625, 49.4433479309082, -0.06400000303983688, 0.06400000303983688, 1.055999994277954, 0.0, 0.0, 0.0, 0.0, 0.0, 1.620658664797156E9, 2021-05-10 16:57:44.797
80.0, -223.1074676513672, 189.63536071777344, 187.78411865234375, 76.42298889160156, -0.06400000303983688, 0.06400000303983688, 1.055999994277954, 0.0, 0.0, 0.0, 0.0, 0.0, 1.620658664797156E9, 2021-05-10 16:57:44.797
81.0, -217.6883544921875, 185.7720489501953, 189.93455505371094, 74.60539245605469, -0.06400000303983688, 0.06400000303983688, 1.055999994277954, 0.0, 0.0, 0.0, 0.0, 0.0, 1.6206586648126276E9, 2021-05-10 16:57:44.812
81.0, -247.30088806152344, 148.96395874023438, 154.28582763671875, 47.51729965209961, -0.06400000303983688, 0.06400000303983688, 1.055999994277954, 0.0, 0.0, 0.0, 0.0, 0.0, 1.6206586648126276E9, 2021-05-10 16:57:44.812
82.0, -253.5203399658203, 149.6969757080078, 143.32418823242188, 38.72853469848633, -0.06400000303983688, 0.06400000303983688, 1.055999994277954, 0.0, 0.0, 0.0, 0.0, 0.0, 1.6206586648131373E9, 2021-05-10 16:57:44.813
82.0, -224.10601806640625, 182.04710388183594, 170.91717529296875, 63.845703125, -0.06400000303983688, 0.06400000303983688, 1.055999994277954, 0.0, 0.0, 0.0, 0.0, 0.0, 1.6206586648131373E9, 2021-05-10 16:57:44.813
83.0, -225.08961486816406, 177.9668731689453, 165.61024475097656, 66.28785705566406, -0.06400000303983688, 0.06400000303983688, 1.055999994277954, 0.0, 0.0, 0.0, 0.0, 0.0, 1.6206586648275876E9, 2021-05-10 16:57:44.827
83.0, -256.650634765625, 151.8025360107422, 127.57920837402344, 33.410396575927734, -0.06400000303983688, 0.06400000303983688, 1.055999994277954, 0.0, 0.0, 0.0, 0.0, 0.0, 1.6206586648275876E9, 2021-05-10 16:57:44.827
84.0, -261.0151062011719, 150.9984588623047, 127.89710235595703, 37.01565933227539, -0.06400000303983688, 0.06400000303983688, 1.055999994277954, 0.0, 0.0, 0.0, 0.0, 0.0, 1.6206586648283503E9, 2021-05-10 16:57:44.828
84.0, -230.97996520996094, 179.65731811523438, 153.60516357421875, 68.01194763183594, -0.06400000303983688, 0.06400000303983688, 1.055999994277954, 0.0, 0.0, 0.0, 0.0, 0.0, 1.6206586648283503E9, 2021-05-10 16:57:44.828
85.0, -226.7987518310547, 189.98318481445312, 155.837890625, 71.7518539428711, -0.06400000303983688, 0.06400000303983688, 1.055999994277954, 0.0, 0.0, 0.0, 0.0, 0.0, 1.62065866482905E9, 2021-05-10 16:57:44.829
85.0, -260.2521667480469, 157.53955078125, 126.30016326904297, 45.400516510009766, -0.06400000303983688, 0.06400000303983688, 1.055999994277954, 0.0, 0.0, 0.0, 0.0, 0.0, 1.62065866482905E9, 2021-05-10 16:57:44.829
86.0, -249.9038543701172, 150.56089782714844, 126.74520874023438, 44.51789855957031, -0.06400000303983688, 0.06400000303983688, 1.055999994277954, 0.0, 0.0, 0.0, 0.0, 0.0, 1.6206586648419697E9, 2021-05-10 16:57:44.841
86.0, -231.66436767578125, 186.12359619140625, 160.1275634765625, 68.75244903564453, -0.06400000303983688, 0.06400000303983688, 1.055999994277954, 0.0, 0.0, 0.0, 0.0, 0.0, 1.6206586648419697E9, 2021-05-10 16:57:44.841
87.0, -230.7518310546875, 191.28466796875, 166.80328369140625, 68.60659790039062, -0.06400000303983688, 0.06400000303983688, 1.055999994277954, 0.0, 0.0, 0.0, 0.0, 0.0, 1.6206586648426883E9, 2021-05-10 16:57:44.842
87.0, -261.721923828125, 165.98049926757812, 137.46376037597656, 40.17587661743164, -0.06400000303983688, 0.06400000303983688, 1.055999994277954, 0.0, 0.0, 0.0, 0.0, 0.0, 1.6206586648426883E9, 2021-05-10 16:57:44.842
88.0, -259.2386474609375, 163.48973083496094, 138.3762969970703, 34.92131423950195, -0.06400000303983688, 0.06400000303983688, 1.055999994277954, 0.0, 0.0, 0.0, 0.0, 0.0, 1.6206586648727562E9, 2021-05-10 16:57:44.872
88.0, -226.89599609375, 197.23110961914062, 182.1181640625, 72.65690612792969, -0.06400000303983688, 0.06400000303983688, 1.055999994277954, 0.0, 0.0, 0.0, 0.0, 0.0, 1.6206586648727562E9, 2021-05-10 16:57:44.872
89.0, -232.9209747314453, 195.1442413330078, 179.43292236328125, 74.93824768066406, -0.06400000303983688, 0.06400000303983688, 1.055999994277954, 0.0, 0.0, 0.0, 0.0, 0.0, 1.6206586648734791E9, 2021-05-10 16:57:44.873
89.0, -259.8183288574219, 154.8692626953125, 152.59913635253906, 45.52393341064453, -0.06400000303983688, 0.06400000303983688, 1.055999994277954, 0.0, 0.0, 0.0, 0.0, 0.0, 1.6206586648734791E9, 2021-05-10 16:57:44.873
90.0, -254.0588836669922, 158.75875854492188, 158.78118896484375, 40.92385482788086, -0.06400000303983688, 0.06400000303983688, 1.055999994277954, 0.0, 0.0, 0.0, 0.0, 0.0, 1.6206586648742108E9, 2021-05-10 16:57:44.874
90.0, -218.72804260253906, 186.2470245361328, 185.5551300048828, 71.4937973022461, -0.06400000303983688, 0.06400000303983688, 1.055999994277954, 0.0, 0.0, 0.0, 0.0, 0.0, 1.6206586648742108E9, 2021-05-10 16:57:44.874
91.0, -215.04798889160156, 183.6403045654297, 177.88833618164062, 64.64604187011719, -0.06400000303983688, 0.06400000303983688, 1.055999994277954, 0.0, 0.0, 0.0, 0.0, 0.0, 1.620658664886252E9, 2021-05-10 16:57:44.886
91.0, -249.42514038085938, 158.07435607910156, 140.8408966064453, 38.63877487182617, -0.06400000303983688, 0.06400000303983688, 1.055999994277954, 0.0, 0.0, 0.0, 0.0, 0.0, 1.620658664886252E9, 2021-05-10 16:57:44.886
92.0, -248.6360321044922, 152.46824645996094, 140.62771606445312, 33.67593002319336, -0.06400000303983688, 0.06400000303983688, 1.055999994277954, 0.0, 0.0, 0.0, 0.0, 0.0, 1.6206586649191575E9, 2021-05-10 16:57:44.919
92.0, -223.2009735107422, 187.53353881835938, 160.2958526611328, 64.75823974609375, -0.06400000303983688, 0.06400000303983688, 1.055999994277954, 0.0, 0.0, 0.0, 0.0, 0.0, 1.6206586649191575E9, 2021-05-10 16:57:44.919
93.0, -226.9633026123047, 181.66563415527344, 155.9650421142578, 65.37532043457031, -0.06400000303983688, 0.06400000303983688, 1.055999994277954, 0.0, 0.0, 0.0, 0.0, 0.0, 1.6206586649198704E9, 2021-05-10 16:57:44.919
93.0, -250.44239807128906, 158.81858825683594, 123.12872314453125, 38.29470443725586, -0.06400000303983688, 0.06400000303983688, 1.055999994277954, 0.0, 0.0, 0.0, 0.0, 0.0, 1.6206586649198704E9, 2021-05-10 16:57:44.919
94.0, -257.0433349609375, 157.9210205078125, 116.86813354492188, 38.77715301513672, -0.06400000303983688, 0.06400000303983688, 1.055999994277954, 0.0, 0.0, 0.0, 0.0, 0.0, 1.6206586649205995E9, 2021-05-10 16:57:44.920
94.0, -227.3971405029297, 189.3212127685547, 148.78817749023438, 66.99469757080078, -0.06400000303983688, 0.06400000303983688, 1.055999994277954, 0.0, 0.0, 0.0, 0.0, 0.0, 1.6206586649205995E9, 2021-05-10 16:57:44.920
95.0, -225.71792602539062, 190.71246337890625, 151.0583038330078, 71.65835571289062, -0.06400000303983688, 0.06400000303983688, 1.055999994277954, 0.0, 0.0, 0.0, 0.0, 0.0, 1.620658664921338E9, 2021-05-10 16:57:44.921
95.0, -265.2149963378906, 161.354248046875, 118.44637298583984, 38.88187026977539, -0.06400000303983688, 0.06400000303983688, 1.055999994277954, 0.0, 0.0, 0.0, 0.0, 0.0, 1.620658664921338E9, 2021-05-10 16:57:44.921
96.0, -263.423583984375, 165.02682495117188, 124.35541534423828, 36.16670227050781, -0.06400000303983688, 0.06400000303983688, 1.055999994277954, 0.0, 0.0, 0.0, 0.0, 0.0, 1.620658664931368E9, 2021-05-10 16:57:44.931
96.0, -232.0196533203125, 191.8344268798828, 164.4434051513672, 68.89456939697266, -0.06400000303983688, 0.06400000303983688, 1.055999994277954, 0.0, 0.0, 0.0, 0.0, 0.0, 1.620658664931368E9, 2021-05-10 16:57:44.931
97.0, -225.17938232421875, 189.324951171875, 171.354736328125, 73.24781036376953, -0.06400000303983688, 0.06400000303983688, 1.055999994277954, 0.0, 0.0, 0.0, 0.0, 0.0, 1.6206586649463024E9, 2021-05-10 16:57:44.946
97.0, -261.74810791015625, 156.48489379882812, 141.54025268554688, 42.38615798950195, -0.06400000303983688, 0.06400000303983688, 1.055999994277954, 0.0, 0.0, 0.0, 0.0, 0.0, 1.6206586649463024E9, 2021-05-10 16:57:44.946
98.0, -262.4773864746094, 158.02947998046875, 140.27243041992188, 39.39423751831055, -0.06400000303983688, 0.06400000303983688, 1.055999994277954, 0.0, 0.0, 0.0, 0.0, 0.0, 1.6206586649619637E9, 2021-05-10 16:57:44.961
98.0, -232.13185119628906, 190.58529663085938, 174.4027557373047, 73.2777328491211, -0.06400000303983688, 0.06400000303983688, 1.055999994277954, 0.0, 0.0, 0.0, 0.0, 0.0, 1.6206586649619637E9, 2021-05-10 16:57:44.961
99.0, -231.97103881835938, 194.87496948242188, 180.5661163330078, 75.26361846923828, -0.06400000303983688, 0.06400000303983688, 1.055999994277954, 0.0, 0.0, 0.0, 0.0, 0.0, 1.620658664962696E9, 2021-05-10 16:57:44.962
99.0, -249.04367065429688, 163.9272918701172, 155.39283752441406, 44.772212982177734, -0.06400000303983688, 0.06400000303983688, 1.055999994277954, 0.0, 0.0, 0.0, 0.0, 0.0, 1.620658664962696E9, 2021-05-10 16:57:44.962
100.0, -252.18145751953125, 157.54702758789062, 152.4009246826172, 46.03629684448242, -0.06400000303983688, 0.06400000303983688, 1.055999994277954, 0.0, 0.0, 0.0, 0.0, 0.0, 1.6206586649770017E9, 2021-05-10 16:57:44.977
100.0, -218.77667236328125, 191.6287384033203, 173.9390106201172, 69.47051239013672, -0.06400000303983688, 0.06400000303983688, 1.055999994277954, 0.0, 0.0, 0.0, 0.0, 0.0, 1.6206586649770017E9, 2021-05-10 16:57:44.977
0.0, -215.2798614501953, 182.4117431640625, 173.91470336914062, 70.81126403808594, -0.06400000303983688, 0.06400000303983688, 1.055999994277954, 0.0, 0.0, 0.0, 0.0, 0.0, 1.6206586649776947E9, 2021-05-10 16:57:44.977
1.0, -258.66644287109375, 152.53369140625, 136.6727752685547, 32.69420623779297, -0.06400000303983688, 0.06400000303983688, 1.055999994277954, 0.0, 0.0, 0.0, 0.0, 0.0, 1.6206586649912505E9, 2021-05-10 16:57:44.991
1.0, -258.09423828125, 156.99539184570312, 131.00308227539062, 37.89266586303711, -0.06400000303983688, 0.06400000303983688, 1.055999994277954, 0.0, 0.0, 0.0, 0.0, 0.0, 1.6206586649912505E9, 2021-05-10 16:57:44.991
2.0, -227.19517517089844, 190.78164672851562, 163.11386108398438, 70.17174530029297, -0.06400000303983688, 0.06400000303983688, 1.055999994277954, 0.0, 0.0, 0.0, 0.0, 0.0, 1.6206586650071013E9, 2021-05-10 16:57:45.007
2.0, -224.7305908203125, 192.03451538085938, 163.16249084472656, 74.06871795654297, -0.06400000303983688, 0.06400000303983688, 1.055999994277954, 0.0, 0.0, 0.0, 0.0, 0.0, 1.6206586650071013E9, 2021-05-10 16:57:45.007
3.0, -250.2890625, 162.2836151123047, 132.08392333984375, 44.20935821533203, -0.06400000303983688, 0.06400000303983688, 1.055999994277954, 0.0, 0.0, 0.0, 0.0, 0.0, 1.6206586650077088E9, 2021-05-10 16:57:45.007
3.0, -257.38739013671875, 168.1328125, 132.098876953125, 46.75249099731445, -0.06400000303983688, 0.06400000303983688, 1.055999994277954, 0.0, 0.0, 0.0, 0.0, 0.0, 1.6206586650077088E9, 2021-05-10 16:57:45.007
4.0, -235.41921997070312, 190.9948272705078, 161.090576171875, 76.85120391845703, -0.06400000303983688, 0.06400000303983688, 1.055999994277954, 0.0, 0.0, 0.0, 0.0, 0.0, 1.6206586650373797E9, 2021-05-10 16:57:45.037
4.0, -222.92796325683594, 191.59320068359375, 163.0914306640625, 76.94096374511719, -0.06400000303983688, 0.06400000303983688, 1.055999994277954, 0.0, 0.0, 0.0, 0.0, 0.0, 1.6206586650373797E9, 2021-05-10 16:57:45.037
5.0, -258.7337646484375, 157.85931396484375, 132.35693359375, 41.37451171875, -0.06400000303983688, 0.06400000303983688, 1.055999994277954, 0.0, 0.0, 0.0, 0.0, 0.0, 1.6206586650381584E9, 2021-05-10 16:57:45.038
5.0, -258.62530517578125, 161.40847778320312, 135.7415313720703, 45.22660827636719, -0.06400000303983688, 0.06400000303983688, 1.055999994277954, 0.0, 0.0, 0.0, 0.0, 0.0, 1.6206586650381584E9, 2021-05-10 16:57:45.038
6.0, -226.24899291992188, 186.80239868164062, 168.23379516601562, 73.52268981933594, -0.06400000303983688, 0.06400000303983688, 1.055999994277954, 0.0, 0.0, 0.0, 0.0, 0.0, 1.6206586650518925E9, 2021-05-10 16:57:45.051
6.0, -232.80877685546875, 189.39414978027344, 177.19833374023438, 73.53765106201172, -0.06400000303983688, 0.06400000303983688, 1.055999994277954, 0.0, 0.0, 0.0, 0.0, 0.0, 1.6206586650518925E9, 2021-05-10 16:57:45.051
7.0, -259.54156494140625, 156.7261199951172, 143.3634490966797, 39.94213104248047, -0.06400000303983688, 0.06400000303983688, 1.055999994277954, 0.0, 0.0, 0.0, 0.0, 0.0, 1.620658665052603E9, 2021-05-10 16:57:45.052
7.0, -250.23297119140625, 156.73733520507812, 150.9629364013672, 47.44063186645508, -0.06400000303983688, 0.06400000303983688, 1.055999994277954, 0.0, 0.0, 0.0, 0.0, 0.0, 1.620658665052603E9, 2021-05-10 16:57:45.052
8.0, -228.833251953125, 182.04898071289062, 177.63589477539062, 73.47781372070312, -0.06400000303983688, 0.06400000303983688, 1.055999994277954, 0.0, 0.0, 0.0, 0.0, 0.0, 1.6206586650670257E9, 2021-05-10 16:57:45.067
8.0, -213.80633544921875, 184.64447021484375, 180.4370880126953, 73.61993408203125, -0.06400000303983688, 0.06400000303983688, 1.055999994277954, 0.0, 0.0, 0.0, 0.0, 0.0, 1.6206586650670257E9, 2021-05-10 16:57:45.067
9.0, -246.88575744628906, 147.54092407226562, 147.8363800048828, 39.594322204589844, -0.06400000303983688, 0.06400000303983688, 1.055999994277954, 0.0, 0.0, 0.0, 0.0, 0.0, 1.6206586650677445E9, 2021-05-10 16:57:45.067
9.0, -253.5540008544922, 147.37637329101562, 143.60655212402344, 35.27473449707031, -0.06400000303983688, 0.06400000303983688, 1.055999994277954, 0.0, 0.0, 0.0, 0.0, 0.0, 1.6206586650677445E9, 2021-05-10 16:57:45.067
10.0, -226.06199645996094, 186.33489990234375, 168.41329956054688, 64.17668151855469, -0.06400000303983688, 0.06400000303983688, 1.055999994277954, 0.0, 0.0, 0.0, 0.0, 0.0, 1.6206586650812097E9, 2021-05-10 16:57:45.081
10.0, -225.3327178955078, 189.05381774902344, 171.16961669921875, 67.35559844970703, -0.06400000303983688, 0.06400000303983688, 1.055999994277954, 0.0, 0.0, 0.0, 0.0, 0.0, 1.6206586650812097E9, 2021-05-10 16:57:45.081
11.0, -252.1926727294922, 156.07164001464844, 133.2058868408203, 37.88518524169922, -0.06400000303983688, 0.06400000303983688, 1.055999994277954, 0.0, 0.0, 0.0, 0.0, 0.0, 1.6206586650969648E9, 2021-05-10 16:57:45.096
11.0, -254.83677673339844, 158.24826049804688, 129.18174743652344, 34.34724044799805, -0.06400000303983688, 0.06400000303983688, 1.055999994277954, 0.0, 0.0, 0.0, 0.0, 0.0, 1.6206586650969648E9, 2021-05-10 16:57:45.096
12.0, -235.04896545410156, 192.9395751953125, 160.95220947265625, 66.22615051269531, -0.08000000566244125, 0.06400000303983688, 1.055999994277954, 0.0, 0.0, 0.0, 0.0, 0.0, 1.6206586650977542E9, 2021-05-10 16:57:45.097
12.0, -234.84327697753906, 186.4470977783203, 158.0762176513672, 71.94071197509766, -0.08000000566244125, 0.06400000303983688, 1.055999994277954, 0.0, 0.0, 0.0, 0.0, 0.0, 1.6206586650977542E9, 2021-05-10 16:57:45.097
13.0, -262.671875, 159.6843719482422, 125.86446380615234, 40.46571731567383, -0.08000000566244125, 0.06400000303983688, 1.055999994277954, 0.0, 0.0, 0.0, 0.0, 0.0, 1.6206586651113315E9, 2021-05-10 16:57:45.111
13.0, -259.5041809082031, 163.5140380859375, 132.88800048828125, 45.82125473022461, -0.08000000566244125, 0.06400000303983688, 1.055999994277954, 0.0, 0.0, 0.0, 0.0, 0.0, 1.6206586651113315E9, 2021-05-10 16:57:45.111
14.0, -227.658935546875, 187.2511749267578, 160.57821655273438, 78.54911804199219, -0.08000000566244125, 0.06400000303983688, 1.055999994277954, 0.0, 0.0, 0.0, 0.0, 0.0, 1.6206586651269672E9, 2021-05-10 16:57:45.126
14.0, -231.8513641357422, 187.23622131347656, 163.0128936767578, 79.2335205078125, -0.08000000566244125, 0.06400000303983688, 1.055999994277954, 0.0, 0.0, 0.0, 0.0, 0.0, 1.6206586651269672E9, 2021-05-10 16:57:45.126
15.0, -257.1480407714844, 154.88983154296875, 134.14834594726562, 55.346778869628906, -0.08000000566244125, 0.06400000303983688, 1.055999994277954, 0.0, 0.0, 0.0, 0.0, 0.0, 1.620658665127673E9, 2021-05-10 16:57:45.127
15.0, -250.05345153808594, 154.85617065429688, 138.83070373535156, 53.25991439819336, -0.08000000566244125, 0.06400000303983688, 1.055999994277954, 0.0, 0.0, 0.0, 0.0, 0.0, 1.620658665127673E9, 2021-05-10 16:57:45.127
16.0, -220.10433959960938, 181.5403594970703, 173.94461059570312, 81.67567443847656, -0.08000000566244125, 0.06400000303983688, 1.055999994277954, 0.0, 0.0, 0.0, 0.0, 0.0, 1.6206586651413813E9, 2021-05-10 16:57:45.141
16.0, -215.82962036132812, 184.25926208496094, 177.74061584472656, 86.23834991455078, -0.08000000566244125, 0.06400000303983688, 1.055999994277954, 0.0, 0.0, 0.0, 0.0, 0.0, 1.6206586651413813E9, 2021-05-10 16:57:45.141
17.0, -250.81639099121094, 148.5581817626953, 147.21554565429688, 54.03033447265625, -0.08000000566244125, 0.06400000303983688, 1.055999994277954, 0.0, 0.0, 0.0, 0.0, 0.0, 1.6206586651570096E9, 2021-05-10 16:57:45.157
17.0, -252.0281219482422, 148.378662109375, 140.72308349609375, 44.66936492919922, -0.08000000566244125, 0.06400000303983688, 1.055999994277954, 0.0, 0.0, 0.0, 0.0, 0.0, 1.6206586651570096E9, 2021-05-10 16:57:45.157
18.0, -222.6025848388672, 181.84329223632812, 167.22401428222656, 70.81126403808594, -0.08000000566244125, 0.06400000303983688, 1.055999994277954, 0.0, 0.0, 0.0, 0.0, 0.0, 1.6206586651577368E9, 2021-05-10 16:57:45.157
18.0, -227.2624969482422, 179.35250854492188, 163.8431396484375, 68.9525375366211, -0.08000000566244125, 0.06400000303983688, 1.055999994277954, 0.0, 0.0, 0.0, 0.0, 0.0, 1.6206586651577368E9, 2021-05-10 16:57:45.157
19.0, -256.9722595214844, 146.6732635498047, 130.88714599609375, 36.205970764160156, -0.08000000566244125, 0.06400000303983688, 1.055999994277954, 0.0, 0.0, 0.0, 0.0, 0.0, 1.6206586651713157E9, 2021-05-10 16:57:45.171
19.0, -251.83738708496094, 154.95713806152344, 127.4202651977539, 35.521568298339844, -0.08000000566244125, 0.06400000303983688, 1.055999994277954, 0.0, 0.0, 0.0, 0.0, 0.0, 1.6206586651713157E9, 2021-05-10 16:57:45.171
20.0, -227.37095642089844, 187.02679443359375, 158.8017578125, 69.72295379638672, -0.08000000566244125, 0.06400000303983688, 1.055999994277954, 0.0, 0.0, 0.0, 0.0, 0.0, 1.6206586651870558E9, 2021-05-10 16:57:45.187
20.0, -234.62261962890625, 186.95947265625, 157.3319854736328, 76.02468872070312, -0.08000000566244125, 0.06400000303983688, 1.055999994277954, 0.0, 0.0, 0.0, 0.0, 0.0, 1.6206586651870558E9, 2021-05-10 16:57:45.187
21.0, -263.1281433105469, 157.76206970214844, 128.4599609375, 47.949256896972656, -0.08000000566244125, 0.06400000303983688, 1.055999994277954, 0.0, 0.0, 0.0, 0.0, 0.0, 1.6206586651878211E9, 2021-05-10 16:57:45.187
21.0, -260.4690856933594, 154.9010467529297, 128.25425720214844, 49.68831253051758, -0.08000000566244125, 0.06400000303983688, 1.055999994277954, 0.0, 0.0, 0.0, 0.0, 0.0, 1.6206586651878211E9, 2021-05-10 16:57:45.187
22.0, -236.3542022705078, 183.40281677246094, 162.4967803955078, 79.72344970703125, -0.08000000566244125, 0.06400000303983688, 1.055999994277954, 0.0, 0.0, 0.0, 0.0, 0.0, 1.620658665201399E9, 2021-05-10 16:57:45.201
22.0, -230.86776733398438, 187.8420867919922, 172.22799682617188, 84.1103515625, -0.08000000566244125, 0.06400000303983688, 1.055999994277954, 0.0, 0.0, 0.0, 0.0, 0.0, 1.620658665201399E9, 2021-05-10 16:57:45.201
23.0, -254.99386596679688, 154.9421844482422, 137.76856994628906, 48.132511138916016, -0.08000000566244125, 0.06400000303983688, 1.055999994277954, 0.0, 0.0, 0.0, 0.0, 0.0, 1.6206586652170105E9, 2021-05-10 16:57:45.217
23.0, -265.1289978027344, 151.4752960205078, 137.6002655029297, 45.93345260620117, -0.08000000566244125, 0.06400000303983688, 1.055999994277954, 0.0, 0.0, 0.0, 0.0, 0.0, 1.6206586652170105E9, 2021-05-10 16:57:45.217
24.0, -219.92855834960938, 187.206298828125, 175.38821411132812, 85.65119171142578, -0.08000000566244125, 0.06400000303983688, 1.055999994277954, 0.0, 0.0, 0.0, 0.0, 0.0, 1.6206586652177837E9, 2021-05-10 16:57:45.217
24.0, -220.09310913085938, 181.5814971923828, 176.9926300048828, 81.14460754394531, -0.08000000566244125, 0.06400000303983688, 1.055999994277954, 0.0, 0.0, 0.0, 0.0, 0.0, 1.6206586652177837E9, 2021-05-10 16:57:45.217
25.0, -246.2312774658203, 146.25439453125, 145.86544799804688, 44.19813919067383, -0.08000000566244125, 0.06400000303983688, 1.055999994277954, 0.0, 0.0, 0.0, 0.0, 0.0, 1.6206586652312095E9, 2021-05-10 16:57:45.231
25.0, -254.9976043701172, 148.55068969726562, 144.27972412109375, 47.58648681640625, -0.08000000566244125, 0.06400000303983688, 1.055999994277954, 0.0, 0.0, 0.0, 0.0, 0.0, 1.6206586652312095E9, 2021-05-10 16:57:45.231
26.0, -220.55685424804688, 175.22740173339844, 174.90951538085938, 70.53825378417969, -0.08000000566244125, 0.06400000303983688, 1.055999994277954, 0.0, 0.0, 0.0, 0.0, 0.0, 1.6206586652469132E9, 2021-05-10 16:57:45.246
26.0, -212.4300537109375, 171.62588500976562, 171.16212463378906, 75.50483703613281, -0.08000000566244125, 0.06400000303983688, 1.055999994277954, 0.0, 0.0, 0.0, 0.0, 0.0, 1.6206586652469132E9, 2021-05-10 16:57:45.246
27.0, -249.4849853515625, 148.22532653808594, 138.718505859375, 37.585994720458984, -0.08000000566244125, 0.06400000303983688, 1.055999994277954, 0.0, 0.0, 0.0, 0.0, 0.0, 1.620658665247641E9, 2021-05-10 16:57:45.247
27.0, -244.85873413085938, 145.42039489746094, 138.69979858398438, 38.7042236328125, -0.08000000566244125, 0.06400000303983688, 1.055999994277954, 0.0, 0.0, 0.0, 0.0, 0.0, 1.620658665247641E9, 2021-05-10 16:57:45.247
28.0, -221.5067901611328, 178.20436096191406, 166.25912475585938, 68.04000091552734, -0.08000000566244125, 0.06400000303983688, 1.055999994277954, 0.0, 0.0, 0.0, 0.0, 0.0, 1.6206586652612183E9, 2021-05-10 16:57:45.261
28.0, -220.9420623779297, 175.1301727294922, 168.50306701660156, 65.882080078125, -0.08000000566244125, 0.06400000303983688, 1.055999994277954, 0.0, 0.0, 0.0, 0.0, 0.0, 1.6206586652612183E9, 2021-05-10 16:57:45.261
29.0, -251.53445434570312, 152.46263122558594, 136.7176513671875, 40.51433563232422, -0.08000000566244125, 0.06400000303983688, 1.055999994277954, 0.0, 0.0, 0.0, 0.0, 0.0, 1.620658665277042E9, 2021-05-10 16:57:45.277
29.0, -262.4175720214844, 155.18527221679688, 140.68194580078125, 39.71025848388672, -0.08000000566244125, 0.06400000303983688, 1.055999994277954, 0.0, 0.0, 0.0, 0.0, 0.0, 1.620658665277042E9, 2021-05-10 16:57:45.277
30.0, -237.80528259277344, 182.11630249023438, 164.04136657714844, 70.36621856689453, -0.08000000566244125, 0.06400000303983688, 1.055999994277954, 0.0, 0.0, 0.0, 0.0, 0.0, 1.6206586652778423E9, 2021-05-10 16:57:45.277
30.0, -233.7474822998047, 186.5780029296875, 168.7611083984375, 75.89752960205078, -0.08000000566244125, 0.06400000303983688, 1.055999994277954, 0.0, 0.0, 0.0, 0.0, 0.0, 1.6206586652778423E9, 2021-05-10 16:57:45.277
31.0, -262.0435791015625, 155.59292602539062, 133.70703125, 46.127925872802734, -0.08000000566244125, 0.06400000303983688, 1.055999994277954, 0.0, 0.0, 0.0, 0.0, 0.0, 1.6206586652913573E9, 2021-05-10 16:57:45.291
31.0, -261.59478759765625, 159.01119995117188, 137.89572143554688, 42.96397018432617, -0.08000000566244125, 0.06400000303983688, 1.055999994277954, 0.0, 0.0, 0.0, 0.0, 0.0, 1.6206586652913573E9, 2021-05-10 16:57:45.291
32.0, -220.67279052734375, 182.01158142089844, 176.45034790039062, 74.95881652832031, -0.08000000566244125, 0.06400000303983688, 1.055999994277954, 0.0, 0.0, 0.0, 0.0, 0.0, 1.6206586653071303E9, 2021-05-10 16:57:45.307
32.0, -219.70790100097656, 184.659423828125, 177.22076416015625, 79.48035430908203, -0.08000000566244125, 0.06400000303983688, 1.055999994277954, 0.0, 0.0, 0.0, 0.0, 0.0, 1.6206586653071303E9, 2021-05-10 16:57:45.307
33.0, -244.12570190429688, 145.49893188476562, 147.92987060546875, 48.31576919555664, -0.08000000566244125, 0.06400000303983688, 1.055999994277954, 0.0, 0.0, 0.0, 0.0, 0.0, 1.6206586653078215E9, 2021-05-10 16:57:45.307
33.0, -241.48159790039062, 150.9554443359375, 157.1973419189453, 54.67359924316406, -0.08000000566244125, 0.06400000303983688, 1.055999994277954, 0.0, 0.0, 0.0, 0.0, 0.0, 1.6206586653078215E9, 2021-05-10 16:57:45.307
34.0, -215.51547241210938, 179.8312225341797, 182.18736267089844, 77.16161346435547, -0.08000000566244125, 0.06400000303983688, 1.055999994277954, 0.0, 0.0, 0.0, 0.0, 0.0, 1.6206586653376143E9, 2021-05-10 16:57:45.337
34.0, -217.5686798095703, 179.90602111816406, 179.85365295410156, 79.85060119628906, -0.08000000566244125, 0.06400000303983688, 1.055999994277954, 0.0, 0.0, 0.0, 0.0, 0.0, 1.6206586653376143E9, 2021-05-10 16:57:45.337
35.0, -244.948486328125, 147.20059204101562, 147.12205505371094, 45.15181350708008, -0.08000000566244125, 0.06400000303983688, 1.055999994277954, 0.0, 0.0, 0.0, 0.0, 0.0, 1.6206586653384447E9, 2021-05-10 16:57:45.338
35.0, -242.9626007080078, 146.6508331298828, 141.44114685058594, 39.84489440917969, -0.08000000566244125, 0.06400000303983688, 1.055999994277954, 0.0, 0.0, 0.0, 0.0, 0.0, 1.6206586653384447E9, 2021-05-10 16:57:45.338
36.0, -219.9771728515625, 175.28350830078125, 170.23837280273438, 70.30638122558594, -0.08000000566244125, 0.06400000303983688, 1.055999994277954, 0.0, 0.0, 0.0, 0.0, 0.0, 1.6206586653390944E9, 2021-05-10 16:57:45.339
36.0, -222.07899475097656, 177.0262908935547, 170.9302520751953, 61.8392448425293, -0.08000000566244125, 0.06400000303983688, 1.055999994277954, 0.0, 0.0, 0.0, 0.0, 0.0, 1.6206586653390944E9, 2021-05-10 16:57:45.339
37.0, -244.93353271484375, 153.71176147460938, 140.54356384277344, 31.998584747314453, -0.08000000566244125, 0.06400000303983688, 1.055999994277954, 0.0, 0.0, 0.0, 0.0, 0.0, 1.6206586653513372E9, 2021-05-10 16:57:45.351
37.0, -243.85269165039062, 159.5385284423828, 141.22422790527344, 32.21923828125, -0.08000000566244125, 0.06400000303983688, 1.055999994277954, 0.0, 0.0, 0.0, 0.0, 0.0, 1.6206586653513372E9, 2021-05-10 16:57:45.351
38.0, -228.9304962158203, 191.1930389404297, 168.7985076904297, 66.31216430664062, -0.08000000566244125, 0.06400000303983688, 1.055999994277954, 0.0, 0.0, 0.0, 0.0, 0.0, 1.6206586653980503E9, 2021-05-10 16:57:45.398
38.0, -228.4891815185547, 190.88262939453125, 170.5899200439453, 70.11564636230469, -0.08000000566244125, 0.06400000303983688, 1.055999994277954, 0.0, 0.0, 0.0, 0.0, 0.0, 1.6206586653980503E9, 2021-05-10 16:57:45.398
39.0, -256.310302734375, 165.09600830078125, 143.2176055908203, 42.37306594848633, -0.08000000566244125, 0.06400000303983688, 1.055999994277954, 0.0, 0.0, 0.0, 0.0, 0.0, 1.6206586653987877E9, 2021-05-10 16:57:45.398
39.0, -257.2789306640625, 159.16453552246094, 139.42160034179688, 41.782161712646484, -0.08000000566244125, 0.06400000303983688, 1.055999994277954, 0.0, 0.0, 0.0, 0.0, 0.0, 1.6206586653987877E9, 2021-05-10 16:57:45.398
40.0, -229.98141479492188, 184.5808868408203, 169.50161743164062, 72.11649322509766, -0.08000000566244125, 0.06400000303983688, 1.055999994277954, 0.0, 0.0, 0.0, 0.0, 0.0, 1.6206586653995433E9, 2021-05-10 16:57:45.399
40.0, -228.4630126953125, 188.95657348632812, 172.18312072753906, 75.08971405029297, -0.08000000566244125, 0.06400000303983688, 1.055999994277954, 0.0, 0.0, 0.0, 0.0, 0.0, 1.6206586653995433E9, 2021-05-10 16:57:45.399
41.0, -248.86790466308594, 156.71864318847656, 146.71066284179688, 48.465362548828125, -0.08000000566244125, 0.06400000303983688, 1.055999994277954, 0.0, 0.0, 0.0, 0.0, 0.0, 1.6206586654290648E9, 2021-05-10 16:57:45.429
41.0, -252.52552795410156, 157.54141235351562, 151.04147338867188, 53.31601333618164, -0.08000000566244125, 0.06400000303983688, 1.055999994277954, 0.0, 0.0, 0.0, 0.0, 0.0, 1.6206586654290648E9, 2021-05-10 16:57:45.429
42.0, -214.49073791503906, 179.6741485595703, 175.87814331054688, 75.32158660888672, -0.06400000303983688, 0.06400000303983688, 1.055999994277954, 0.0, 0.0, 0.0, 0.0, 0.0, 1.6206586654297512E9, 2021-05-10 16:57:45.429
42.0, -217.87161254882812, 176.6485595703125, 179.24778747558594, 86.05136108398438, -0.06400000303983688, 0.06400000303983688, 1.055999994277954, 0.0, 0.0, 0.0, 0.0, 0.0, 1.6206586654297512E9, 2021-05-10 16:57:45.429
43.0, -244.7390594482422, 142.52197265625, 143.73744201660156, 51.569480895996094, -0.06400000303983688, 0.06400000303983688, 1.055999994277954, 0.0, 0.0, 0.0, 0.0, 0.0, 1.6206586654304967E9, 2021-05-10 16:57:45.430
43.0, -241.556396484375, 144.1675262451172, 152.440185546875, 53.08414077758789, -0.06400000303983688, 0.06400000303983688, 1.055999994277954, 0.0, 0.0, 0.0, 0.0, 0.0, 1.6206586654304967E9, 2021-05-10 16:57:45.430
44.0, -217.57615661621094, 172.98345947265625, 174.89080810546875, 78.24618530273438, -0.06400000303983688, 0.06400000303983688, 1.055999994277954, 0.0, 0.0, 0.0, 0.0, 0.0, 1.6206586654311993E9, 2021-05-10 16:57:45.431
44.0, -216.82069396972656, 181.32717895507812, 173.98574829101562, 68.21577453613281, -0.06400000303983688, 0.06400000303983688, 1.055999994277954, 0.0, 0.0, 0.0, 0.0, 0.0, 1.6206586654311993E9, 2021-05-10 16:57:45.431
45.0, -252.90699768066406, 151.8904266357422, 137.46189880371094, 38.47608947753906, -0.06400000303983688, 0.06400000303983688, 1.055999994277954, 0.0, 0.0, 0.0, 0.0, 0.0, 1.6206586654417336E9, 2021-05-10 16:57:45.441
45.0, -259.16009521484375, 159.0560760498047, 143.6289825439453, 42.09257507324219, -0.06400000303983688, 0.06400000303983688, 1.055999994277954, 0.0, 0.0, 0.0, 0.0, 0.0, 1.6206586654417336E9, 2021-05-10 16:57:45.441
46.0, -218.72804260253906, 187.64761352539062, 170.90782165527344, 61.842987060546875, -0.06400000303983688, 0.06400000303983688, 1.055999994277954, 0.0, 0.0, 0.0, 0.0, 0.0, 1.620658665457724E9, 2021-05-10 16:57:45.457
46.0, -225.2915802001953, 187.23248291015625, 167.5792999267578, 60.86687088012695, -0.06400000303983688, 0.06400000303983688, 1.055999994277954, 0.0, 0.0, 0.0, 0.0, 0.0, 1.620658665457724E9, 2021-05-10 16:57:45.457
47.0, -259.7248229980469, 160.61187744140625, 141.14195251464844, 30.416606903076172, -0.06400000303983688, 0.06400000303983688, 1.055999994277954, 0.0, 0.0, 0.0, 0.0, 0.0, 1.620658665458441E9, 2021-05-10 16:57:45.458
47.0, -258.6065979003906, 170.8479766845703, 143.57289123535156, 33.87975311279297, -0.06400000303983688, 0.06400000303983688, 1.055999994277954, 0.0, 0.0, 0.0, 0.0, 0.0, 1.620658665458441E9, 2021-05-10 16:57:45.458
48.0, -232.46096801757812, 196.97866821289062, 174.67015075683594, 70.80752563476562, -0.06400000303983688, 0.06400000303983688, 1.055999994277954, 0.0, 0.0, 0.0, 0.0, 0.0, 1.6206586654590657E9, 2021-05-10 16:57:45.459
48.0, -223.35804748535156, 196.54856872558594, 169.85316467285156, 73.05894470214844, -0.06400000303983688, 0.06400000303983688, 1.055999994277954, 0.0, 0.0, 0.0, 0.0, 0.0, 1.6206586654590657E9, 2021-05-10 16:57:45.459
49.0, -248.16854858398438, 170.1785430908203, 143.7598876953125, 48.69349670410156, -0.06400000303983688, 0.06400000303983688, 1.055999994277954, 0.0, 0.0, 0.0, 0.0, 0.0, 1.6206586654714055E9, 2021-05-10 16:57:45.471
49.0, -251.71771240234375, 166.47604370117188, 148.65167236328125, 51.11695098876953, -0.06400000303983688, 0.06400000303983688, 1.055999994277954, 0.0, 0.0, 0.0, 0.0, 0.0, 1.6206586654714055E9, 2021-05-10 16:57:45.471
50.0, -219.4274139404297, 190.64700317382812, 177.9126434326172, 82.54707336425781, -0.06400000303983688, 0.06400000303983688, 1.055999994277954, 0.0, 0.0, 0.0, 0.0, 0.0, 1.6206586654878395E9, 2021-05-10 16:57:45.487
50.0, -219.3040008544922, 183.9937286376953, 175.96041870117188, 81.8626708984375, -0.06400000303983688, 0.06400000303983688, 1.055999994277954, 0.0, 0.0, 0.0, 0.0, 0.0, 1.6206586654878395E9, 2021-05-10 16:57:45.487
51.0, -242.26324462890625, 157.52272033691406, 149.54925537109375, 60.13759231567383, -0.06400000303983688, 0.06400000303983688, 1.055999994277954, 0.0, 0.0, 0.0, 0.0, 0.0, 1.620658665488572E9, 2021-05-10 16:57:45.488
51.0, -241.44793701171875, 156.03050231933594, 150.40194702148438, 56.551025390625, -0.06400000303983688, 0.06400000303983688, 1.055999994277954, 0.0, 0.0, 0.0, 0.0, 0.0, 1.620658665488572E9, 2021-05-10 16:57:45.488
52.0, -214.02699279785156, 189.43902587890625, 181.17758178710938, 89.55938720703125, -0.06400000303983688, 0.06400000303983688, 1.055999994277954, 0.0, 0.0, 0.0, 0.0, 0.0, 1.6206586655176165E9, 2021-05-10 16:57:45.517
52.0, -203.749755859375, 189.94764709472656, 184.1919403076172, 86.28697204589844, -0.06400000303983688, 0.06400000303983688, 1.055999994277954, 0.0, 0.0, 0.0, 0.0, 0.0, 1.6206586655176165E9, 2021-05-10 16:57:45.517
53.0, -237.4537353515625, 149.08924865722656, 147.18190002441406, 43.28560256958008, -0.06400000303983688, 0.06400000303983688, 1.055999994277954, 0.0, 0.0, 0.0, 0.0, 0.0, 1.6206586655183513E9, 2021-05-10 16:57:45.518
53.0, -262.5821228027344, 153.4237823486328, 136.88595581054688, 41.65126419067383, -0.06400000303983688, 0.06400000303983688, 1.055999994277954, 0.0, 0.0, 0.0, 0.0, 0.0, 1.6206586655183513E9, 2021-05-10 16:57:45.518
54.0, -234.55905151367188, 187.60647583007812, 167.30628967285156, 66.58892059326172, -0.06400000303983688, 0.06400000303983688, 1.055999994277954, 0.0, 0.0, 0.0, 0.0, 0.0, 1.6206586655191257E9, 2021-05-10 16:57:45.519
54.0, -230.52743530273438, 188.7882843017578, 166.15066528320312, 67.72584533691406, -0.06400000303983688, 0.06400000303983688, 1.055999994277954, 0.0, 0.0, 0.0, 0.0, 0.0, 1.6206586655191257E9, 2021-05-10 16:57:45.519
55.0, -260.7159118652344, 155.30870056152344, 138.19117736816406, 32.71290588378906, -0.06400000303983688, 0.06400000303983688, 1.055999994277954, 0.0, 0.0, 0.0, 0.0, 0.0, 1.6206586655312157E9, 2021-05-10 16:57:45.531
55.0, -256.3439636230469, 162.029296875, 142.25643920898438, 29.679845809936523, -0.06400000303983688, 0.06400000303983688, 1.055999994277954, 0.0, 0.0, 0.0, 0.0, 0.0, 1.6206586655312157E9, 2021-05-10 16:57:45.531
56.0, -236.1372833251953, 181.9442596435547, 166.96595764160156, 50.84394073486328, -0.06400000303983688, 0.06400000303983688, 1.055999994277954, 0.0, 0.0, 0.0, 0.0, 0.0, 1.620658665579107E9, 2021-05-10 16:57:45.579
56.0, -230.45263671875, 183.1821746826172, 168.3048553466797, 47.96047592163086, -0.06400000303983688, 0.06400000303983688, 1.055999994277954, 0.0, 0.0, 0.0, 0.0, 0.0, 1.620658665579107E9, 2021-05-10 16:57:45.579
57.0, -264.6727294921875, 153.5808563232422, 132.51400756835938, 20.10944175720215, -0.06400000303983688, 0.06400000303983688, 1.055999994277954, 0.0, 0.0, 0.0, 0.0, 0.0, 1.620658665579801E9, 2021-05-10 16:57:45.579
57.0, -270.09930419921875, 154.3475341796875, 130.12794494628906, 17.11378288269043, -0.06400000303983688, 0.06400000303983688, 1.055999994277954, 0.0, 0.0, 0.0, 0.0, 0.0, 1.620658665579801E9, 2021-05-10 16:57:45.579
58.0, -226.1367950439453, 178.215576171875, 161.92083740234375, 51.40118408203125, -0.06400000303983688, 0.06400000303983688, 1.055999994277954, 0.0, 0.0, 0.0, 0.0, 0.0, 1.6206586655805504E9, 2021-05-10 16:57:45.580
58.0, -228.14511108398438, 180.3959503173828, 160.27902221679688, 52.41095733642578, -0.06400000303983688, 0.06400000303983688, 1.055999994277954, 0.0, 0.0, 0.0, 0.0, 0.0, 1.6206586655805504E9, 2021-05-10 16:57:45.580
59.0, -259.4443359375, 139.61233520507812, 132.34945678710938, 21.231412887573242, -0.06400000303983688, 0.06400000303983688, 1.055999994277954, 0.0, 0.0, 0.0, 0.0, 0.0, 1.6206586655813012E9, 2021-05-10 16:57:45.581
59.0, -247.94789123535156, 135.68544006347656, 127.89148712158203, 27.043216705322266, -0.06400000303983688, 0.06400000303983688, 1.055999994277954, 0.0, 0.0, 0.0, 0.0, 0.0, 1.6206586655813012E9, 2021-05-10 16:57:45.581
60.0, -224.62960815429688, 166.15814208984375, 160.6268310546875, 64.5394515991211, -0.06400000303983688, 0.06400000303983688, 1.055999994277954, 0.0, 0.0, 0.0, 0.0, 0.0, 1.6206586655919552E9, 2021-05-10 16:57:45.591
60.0, -223.1897430419922, 167.51199340820312, 166.21051025390625, 63.6456184387207, -0.06400000303983688, 0.06400000303983688, 1.055999994277954, 0.0, 0.0, 0.0, 0.0, 0.0, 1.6206586655919552E9, 2021-05-10 16:57:45.591
61.0, -258.845947265625, 135.7116241455078, 133.10116577148438, 32.32021713256836, -0.06400000303983688, 0.06400000303983688, 1.055999994277954, 0.0, 0.0, 0.0, 0.0, 0.0, 1.620658665592656E9, 2021-05-10 16:57:45.592
61.0, -255.30801391601562, 135.150634765625, 135.8163299560547, 31.714351654052734, -0.06400000303983688, 0.06400000303983688, 1.055999994277954, 0.0, 0.0, 0.0, 0.0, 0.0, 1.620658665592656E9, 2021-05-10 16:57:45.592
62.0, -238.3774871826172, 169.80455017089844, 162.25369262695312, 67.14242553710938, -0.08000000566244125, 0.06400000303983688, 1.055999994277954, 0.0, 0.0, 0.0, 0.0, 0.0, 1.620658665607016E9, 2021-05-10 16:57:45.607
62.0, -229.06887817382812, 174.09046936035156, 158.69705200195312, 67.54259490966797, -0.08000000566244125, 0.06400000303983688, 1.055999994277954, 0.0, 0.0, 0.0, 0.0, 0.0, 1.620658665607016E9, 2021-05-10 16:57:45.607
63.0, -257.2153625488281, 153.10963439941406, 133.6658935546875, 38.54340744018555, -0.08000000566244125, 0.06400000303983688, 1.055999994277954, 0.0, 0.0, 0.0, 0.0, 0.0, 1.6206586656076796E9, 2021-05-10 16:57:45.607
63.0, -268.6332702636719, 150.4954376220703, 133.01889038085938, 32.914859771728516, -0.08000000566244125, 0.06400000303983688, 1.055999994277954, 0.0, 0.0, 0.0, 0.0, 0.0, 1.6206586656076796E9, 2021-05-10 16:57:45.607
64.0, -241.0066375732422, 187.60647583007812, 165.13340759277344, 63.59700012207031, -0.08000000566244125, 0.06400000303983688, 1.055999994277954, 0.0, 0.0, 0.0, 0.0, 0.0, 1.6206586656212256E9, 2021-05-10 16:57:45.621
64.0, -239.6527862548828, 197.49476623535156, 169.4455108642578, 67.77820587158203, -0.08000000566244125, 0.06400000303983688, 1.055999994277954, 0.0, 0.0, 0.0, 0.0, 0.0, 1.6206586656212256E9, 2021-05-10 16:57:45.621
65.0, -257.836181640625, 173.27517700195312, 146.3516387939453, 44.84513854980469, -0.08000000566244125, 0.06400000303983688, 1.055999994277954, 0.0, 0.0, 0.0, 0.0, 0.0, 1.6206586656369522E9, 2021-05-10 16:57:45.636
65.0, -264.268798828125, 164.31063842773438, 141.94229125976562, 38.80520248413086, -0.08000000566244125, 0.06400000303983688, 1.055999994277954, 0.0, 0.0, 0.0, 0.0, 0.0, 1.6206586656369522E9, 2021-05-10 16:57:45.636
66.0, -239.865966796875, 198.7476348876953, 175.48919677734375, 73.0477294921875, -0.08000000566244125, 0.06400000303983688, 1.055999994277954, 0.0, 0.0, 0.0, 0.0, 0.0, 1.6206586656376233E9, 2021-05-10 16:57:45.637
66.0, -223.5824432373047, 194.5327606201172, 180.39968872070312, 71.0244369506836, -0.08000000566244125, 0.06400000303983688, 1.055999994277954, 0.0, 0.0, 0.0, 0.0, 0.0, 1.6206586656376233E9, 2021-05-10 16:57:45.637
67.0, -258.4046325683594, 158.53622436523438, 147.26043701171875, 36.81183624267578, -0.08000000566244125, 0.06400000303983688, 1.055999994277954, 0.0, 0.0, 0.0, 0.0, 0.0, 1.620658665651218E9, 2021-05-10 16:57:45.651
67.0, -253.8606719970703, 160.1668243408203, 142.9520721435547, 31.153366088867188, -0.08000000566244125, 0.06400000303983688, 1.055999994277954, 0.0, 0.0, 0.0, 0.0, 0.0, 1.620658665651218E9, 2021-05-10 16:57:45.651
68.0, -227.4420166015625, 186.7799530029297, 175.39569091796875, 58.357398986816406, -0.08000000566244125, 0.06400000303983688, 1.055999994277954, 0.0, 0.0, 0.0, 0.0, 0.0, 1.6206586656668966E9, 2021-05-10 16:57:45.666
68.0, -220.96824645996094, 182.99517822265625, 169.4567413330078, 55.22710418701172, -0.08000000566244125, 0.06400000303983688, 1.055999994277954, 0.0, 0.0, 0.0, 0.0, 0.0, 1.6206586656668966E9, 2021-05-10 16:57:45.666
69.0, -253.87188720703125, 151.5164337158203, 135.34136962890625, 31.56849479675293, -0.08000000566244125, 0.06400000303983688, 1.055999994277954, 0.0, 0.0, 0.0, 0.0, 0.0, 1.620658665667686E9, 2021-05-10 16:57:45.667
69.0, -255.95501708984375, 149.0555877685547, 133.9276885986328, 33.34868621826172, -0.08000000566244125, 0.06400000303983688, 1.055999994277954, 0.0, 0.0, 0.0, 0.0, 0.0, 1.620658665667686E9, 2021-05-10 16:57:45.667
70.0, -226.72769165039062, 178.33151245117188, 169.4530029296875, 70.39239501953125, -0.08000000566244125, 0.06400000303983688, 1.055999994277954, 0.0, 0.0, 0.0, 0.0, 0.0, 1.6206586656812296E9, 2021-05-10 16:57:45.681
70.0, -220.25392150878906, 177.09735107421875, 169.00794982910156, 73.67977142333984, -0.08000000566244125, 0.06400000303983688, 1.055999994277954, 0.0, 0.0, 0.0, 0.0, 0.0, 1.6206586656812296E9, 2021-05-10 16:57:45.681
71.0, -244.33140563964844, 149.23883056640625, 141.37008666992188, 46.97314453125, -0.08000000566244125, 0.06400000303983688, 1.055999994277954, 0.0, 0.0, 0.0, 0.0, 0.0, 1.6206586656968975E9, 2021-05-10 16:57:45.696
71.0, -253.02293395996094, 154.27273559570312, 142.07693481445312, 45.851173400878906, -0.08000000566244125, 0.06400000303983688, 1.055999994277954, 0.0, 0.0, 0.0, 0.0, 0.0, 1.6206586656968975E9, 2021-05-10 16:57:45.696
72.0, -230.56109619140625, 184.154541015625, 170.5936737060547, 73.81814575195312, -0.08000000566244125, 0.06400000303983688, 1.055999994277954, 0.0, 0.0, 0.0, 0.0, 0.0, 1.6206586656976364E9, 2021-05-10 16:57:45.697
72.0, -228.06283569335938, 184.58462524414062, 169.96536254882812, 71.63030242919922, -0.08000000566244125, 0.06400000303983688, 1.055999994277954, 0.0, 0.0, 0.0, 0.0, 0.0, 1.6206586656976364E9, 2021-05-10 16:57:45.697
73.0, -261.3741149902344, 161.8909149169922, 145.1548614501953, 42.00281524658203, -0.08000000566244125, 0.06400000303983688, 1.055999994277954, 0.0, 0.0, 0.0, 0.0, 0.0, 1.6206586657112527E9, 2021-05-10 16:57:45.711
73.0, -259.0142517089844, 158.74192810058594, 140.2742919921875, 36.62110137939453, -0.08000000566244125, 0.06400000303983688, 1.055999994277954, 0.0, 0.0, 0.0, 0.0, 0.0, 1.6206586657112527E9, 2021-05-10 16:57:45.711
74.0, -231.97103881835938, 190.66944885253906, 173.29013061523438, 72.76349639892578, -0.08000000566244125, 0.06400000303983688, 1.055999994277954, 0.0, 0.0, 0.0, 0.0, 0.0, 1.6206586657267537E9, 2021-05-10 16:57:45.726
74.0, -224.5510711669922, 193.66885375976562, 178.4287567138672, 72.86820983886719, -0.08000000566244125, 0.06400000303983688, 1.055999994277954, 0.0, 0.0, 0.0, 0.0, 0.0, 1.6206586657267537E9, 2021-05-10 16:57:45.726
75.0, -254.85548400878906, 162.2424774169922, 141.74034118652344, 42.14119338989258, -0.08000000566244125, 0.06400000303983688, 1.055999994277954, 0.0, 0.0, 0.0, 0.0, 0.0, 1.62065866574245E9, 2021-05-10 16:57:45.742
75.0, -257.3836669921875, 161.6104278564453, 140.17332458496094, 38.348934173583984, -0.08000000566244125, 0.06400000303983688, 1.055999994277954, 0.0, 0.0, 0.0, 0.0, 0.0, 1.62065866574245E9, 2021-05-10 16:57:45.742
76.0, -219.86497497558594, 187.43443298339844, 172.09336853027344, 66.09525299072266, -0.08000000566244125, 0.06400000303983688, 1.055999994277954, 0.0, 0.0, 0.0, 0.0, 0.0, 1.6206586657576175E9, 2021-05-10 16:57:45.757
76.0, -216.2559814453125, 187.98046875, 171.3079833984375, 68.4925308227539, -0.08000000566244125, 0.06400000303983688, 1.055999994277954, 0.0, 0.0, 0.0, 0.0, 0.0, 1.6206586657576175E9, 2021-05-10 16:57:45.757
77.0, -250.1656494140625, 149.47445678710938, 145.14364624023438, 33.3935661315918, -0.08000000566244125, 0.06400000303983688, 1.055999994277954, 0.0, 0.0, 0.0, 0.0, 0.0, 1.6206586657583528E9, 2021-05-10 16:57:45.758
77.0, -238.73277282714844, 148.43475341796875, 143.09043884277344, 36.781917572021484, -0.08000000566244125, 0.06400000303983688, 1.055999994277954, 0.0, 0.0, 0.0, 0.0, 0.0, 1.6206586657583528E9, 2021-05-10 16:57:45.758
78.0, -225.41873168945312, 181.41693115234375, 168.62648010253906, 74.55864715576172, -0.08000000566244125, 0.06400000303983688, 1.055999994277954, 0.0, 0.0, 0.0, 0.0, 0.0, 1.6206586657590835E9, 2021-05-10 16:57:45.759
78.0, -220.77377319335938, 181.93678283691406, 171.6632843017578, 74.8391342163086, -0.08000000566244125, 0.06400000303983688, 1.055999994277954, 0.0, 0.0, 0.0, 0.0, 0.0, 1.6206586657590835E9, 2021-05-10 16:57:45.759
79.0, -256.1868896484375, 143.91322326660156, 136.61666870117188, 41.224918365478516, -0.08000000566244125, 0.06400000303983688, 1.055999994277954, 0.0, 0.0, 0.0, 0.0, 0.0, 1.6206586657712483E9, 2021-05-10 16:57:45.771
79.0, -253.7372589111328, 140.1471405029297, 138.55020141601562, 40.2301025390625, -0.08000000566244125, 0.06400000303983688, 1.055999994277954, 0.0, 0.0, 0.0, 0.0, 0.0, 1.6206586657712483E9, 2021-05-10 16:57:45.771
80.0, -230.3142547607422, 172.56085205078125, 167.00335693359375, 73.9527816772461, -0.08000000566244125, 0.06400000303983688, 1.055999994277954, 0.0, 0.0, 0.0, 0.0, 0.0, 1.620658665786974E9, 2021-05-10 16:57:45.786
80.0, -226.30508422851562, 178.49607849121094, 175.73602294921875, 81.00623321533203, -0.08000000566244125, 0.06400000303983688, 1.055999994277954, 0.0, 0.0, 0.0, 0.0, 0.0, 1.620658665786974E9, 2021-05-10 16:57:45.786
81.0, -258.71881103515625, 144.0553436279297, 142.41726684570312, 45.843692779541016, -0.08000000566244125, 0.06400000303983688, 1.055999994277954, 0.0, 0.0, 0.0, 0.0, 0.0, 1.6206586657876823E9, 2021-05-10 16:57:45.787
81.0, -262.1744689941406, 148.99200439453125, 136.10430908203125, 39.4148063659668, -0.08000000566244125, 0.06400000303983688, 1.055999994277954, 0.0, 0.0, 0.0, 0.0, 0.0, 1.6206586657876823E9, 2021-05-10 16:57:45.787
82.0, -227.87210083007812, 173.2602081298828, 172.13450622558594, 74.51002502441406, -0.06400000303983688, 0.06400000303983688, 1.055999994277954, 0.0, 0.0, 0.0, 0.0, 0.0, 1.620658665817593E9, 2021-05-10 16:57:45.817
82.0, -227.46070861816406, 181.1551513671875, 175.6387939453125, 72.75975036621094, -0.06400000303983688, 0.06400000303983688, 1.055999994277954, 0.0, 0.0, 0.0, 0.0, 0.0, 1.620658665817593E9, 2021-05-10 16:57:45.817
83.0, -260.1661376953125, 149.6016082763672, 142.1367645263672, 40.69011306762695, -0.06400000303983688, 0.06400000303983688, 1.055999994277954, 0.0, 0.0, 0.0, 0.0, 0.0, 1.6206586658183973E9, 2021-05-10 16:57:45.818
83.0, -269.867431640625, 148.06077575683594, 135.7415313720703, 33.03827667236328, -0.06400000303983688, 0.06400000303983688, 1.055999994277954, 0.0, 0.0, 0.0, 0.0, 0.0, 1.6206586658183973E9, 2021-05-10 16:57:45.818
84.0, -235.7558135986328, 187.97671508789062, 174.44577026367188, 66.27476501464844, -0.06400000303983688, 0.06400000303983688, 1.055999994277954, 0.0, 0.0, 0.0, 0.0, 0.0, 1.6206586658191104E9, 2021-05-10 16:57:45.819
84.0, -227.50933837890625, 186.49197387695312, 169.13510131835938, 63.07341384887695, -0.06400000303983688, 0.06400000303983688, 1.055999994277954, 0.0, 0.0, 0.0, 0.0, 0.0, 1.6206586658191104E9, 2021-05-10 16:57:45.819
85.0, -262.3801574707031, 147.74661254882812, 137.6825408935547, 29.960338592529297, -0.06400000303983688, 0.06400000303983688, 1.055999994277954, 0.0, 0.0, 0.0, 0.0, 0.0, 1.6206586658313768E9, 2021-05-10 16:57:45.831
85.0, -253.03414916992188, 151.27708435058594, 140.65576171875, 34.848388671875, -0.06400000303983688, 0.06400000303983688, 1.055999994277954, 0.0, 0.0, 0.0, 0.0, 0.0, 1.6206586658313768E9, 2021-05-10 16:57:45.831
86.0, -232.80877685546875, 180.27252197265625, 172.13824462890625, 66.46923828125, -0.06400000303983688, 0.06400000303983688, 1.055999994277954, 0.0, 0.0, 0.0, 0.0, 0.0, 1.620658665862597E9, 2021-05-10 16:57:45.862
86.0, -224.1471710205078, 175.2610626220703, 179.1168975830078, 69.6369400024414, -0.06400000303983688, 0.06400000303983688, 1.055999994277954, 0.0, 0.0, 0.0, 0.0, 0.0, 1.620658665862597E9, 2021-05-10 16:57:45.862
87.0, -252.51429748535156, 139.7656707763672, 141.3887939453125, 34.50057601928711, -0.06400000303983688, 0.06400000303983688, 1.055999994277954, 0.0, 0.0, 0.0, 0.0, 0.0, 1.6206586658633463E9, 2021-05-10 16:57:45.863
87.0, -243.75546264648438, 135.68917846679688, 147.26043701171875, 36.830535888671875, -0.06400000303983688, 0.06400000303983688, 1.055999994277954, 0.0, 0.0, 0.0, 0.0, 0.0, 1.6206586658633463E9, 2021-05-10 16:57:45.863
88.0, -231.66062927246094, 163.9740447998047, 172.63565063476562, 69.06473541259766, -0.06400000303983688, 0.06400000303983688, 1.055999994277954, 0.0, 0.0, 0.0, 0.0, 0.0, 1.6206586658640842E9, 2021-05-10 16:57:45.864
88.0, -237.0348663330078, 170.10374450683594, 174.18023681640625, 73.1898422241211, -0.06400000303983688, 0.06400000303983688, 1.055999994277954, 0.0, 0.0, 0.0, 0.0, 0.0, 1.6206586658640842E9, 2021-05-10 16:57:45.864
89.0, -267.6272277832031, 143.3821563720703, 134.37648010253906, 40.10294723510742, -0.06400000303983688, 0.06400000303983688, 1.055999994277954, 0.0, 0.0, 0.0, 0.0, 0.0, 1.6206586658770552E9, 2021-05-10 16:57:45.877
89.0, -268.681884765625, 144.9454345703125, 138.0827178955078, 42.361846923828125, -0.06400000303983688, 0.06400000303983688, 1.055999994277954, 0.0, 0.0, 0.0, 0.0, 0.0, 1.6206586658770552E9, 2021-05-10 16:57:45.877
90.0, -229.90286254882812, 178.74664306640625, 171.3229522705078, 73.89668273925781, -0.06400000303983688, 0.06400000303983688, 1.055999994277954, 0.0, 0.0, 0.0, 0.0, 0.0, 1.6206586658777113E9, 2021-05-10 16:57:45.877
90.0, -240.93931579589844, 176.0988006591797, 172.23922729492188, 71.05809783935547, -0.06400000303983688, 0.06400000303983688, 1.055999994277954, 0.0, 0.0, 0.0, 0.0, 0.0, 1.6206586658777113E9, 2021-05-10 16:57:45.877
91.0, -258.516845703125, 150.6226043701172, 144.93795776367188, 40.031890869140625, -0.06400000303983688, 0.06400000303983688, 1.055999994277954, 0.0, 0.0, 0.0, 0.0, 0.0, 1.620658665907532E9, 2021-05-10 16:57:45.907
91.0, -254.47401428222656, 153.1619873046875, 141.8076629638672, 40.39466094970703, -0.06400000303983688, 0.06400000303983688, 1.055999994277954, 0.0, 0.0, 0.0, 0.0, 0.0, 1.620658665907532E9, 2021-05-10 16:57:45.907
92.0, -229.78318786621094, 178.20436096191406, 169.54649353027344, 68.2307357788086, -0.08000000566244125, 0.06400000303983688, 1.055999994277954, 0.0, 0.0, 0.0, 0.0, 0.0, 1.6206586659381158E9, 2021-05-10 16:57:45.938
92.0, -215.77352905273438, 179.0570526123047, 171.77548217773438, 70.51581573486328, -0.08000000566244125, 0.06400000303983688, 1.055999994277954, 0.0, 0.0, 0.0, 0.0, 0.0, 1.6206586659381158E9, 2021-05-10 16:57:45.938
93.0, -247.4579620361328, 149.93446350097656, 132.2671661376953, 34.956844329833984, -0.08000000566244125, 0.06400000303983688, 1.055999994277954, 0.0, 0.0, 0.0, 0.0, 0.0, 1.6206586659388883E9, 2021-05-10 16:57:45.938
93.0, -256.0111083984375, 155.95944213867188, 134.645751953125, 33.438446044921875, -0.08000000566244125, 0.06400000303983688, 1.055999994277954, 0.0, 0.0, 0.0, 0.0, 0.0, 1.6206586659388883E9, 2021-05-10 16:57:45.938
94.0, -226.00962829589844, 182.97647094726562, 164.00022888183594, 56.5398063659668, -0.08000000566244125, 0.06400000303983688, 1.055999994277954, 0.0, 0.0, 0.0, 0.0, 0.0, 1.620658665939633E9, 2021-05-10 16:57:45.939
94.0, -227.16526794433594, 182.61370849609375, 165.01373291015625, 61.487693786621094, -0.08000000566244125, 0.06400000303983688, 1.055999994277954, 0.0, 0.0, 0.0, 0.0, 0.0, 1.620658665939633E9, 2021-05-10 16:57:45.939
95.0, -259.6724853515625, 152.82540893554688, 133.11239624023438, 29.130081176757812, -0.08000000566244125, 0.06400000303983688, 1.055999994277954, 0.0, 0.0, 0.0, 0.0, 0.0, 1.6206586659541123E9, 2021-05-10 16:57:45.954
95.0, -259.4480895996094, 161.91709899902344, 144.31338500976562, 36.856712341308594, -0.08000000566244125, 0.06400000303983688, 1.055999994277954, 0.0, 0.0, 0.0, 0.0, 0.0, 1.6206586659541123E9, 2021-05-10 16:57:45.954
96.0, -225.00360107421875, 191.38377380371094, 179.86114501953125, 74.40157318115234, -0.08000000566244125, 0.06400000303983688, 1.055999994277954, 0.0, 0.0, 0.0, 0.0, 0.0, 1.6206586659548104E9, 2021-05-10 16:57:45.954
96.0, -230.4563751220703, 190.1795196533203, 184.34527587890625, 71.66022491455078, -0.08000000566244125, 0.06400000303983688, 1.055999994277954, 0.0, 0.0, 0.0, 0.0, 0.0, 1.6206586659548104E9, 2021-05-10 16:57:45.954
97.0, -255.95127868652344, 161.19529724121094, 155.3236541748047, 40.60783386230469, -0.08000000566244125, 0.06400000303983688, 1.055999994277954, 0.0, 0.0, 0.0, 0.0, 0.0, 1.6206586659555478E9, 2021-05-10 16:57:45.955
97.0, -258.9805908203125, 164.0226593017578, 151.6323699951172, 47.040462493896484, -0.08000000566244125, 0.06400000303983688, 1.055999994277954, 0.0, 0.0, 0.0, 0.0, 0.0, 1.6206586659555478E9, 2021-05-10 16:57:45.955
98.0, -235.21726989746094, 181.77597045898438, 177.69200134277344, 75.23930358886719, -0.08000000566244125, 0.06400000303983688, 1.055999994277954, 0.0, 0.0, 0.0, 0.0, 0.0, 1.620658665956296E9, 2021-05-10 16:57:45.956
98.0, -225.7403564453125, 183.66461181640625, 175.15634155273438, 73.00658416748047, -0.08000000566244125, 0.06400000303983688, 1.055999994277954, 0.0, 0.0, 0.0, 0.0, 0.0, 1.620658665956296E9, 2021-05-10 16:57:45.956
99.0, -259.3807678222656, 160.2416229248047, 147.81019592285156, 42.43290328979492, -0.08000000566244125, 0.06400000303983688, 1.055999994277954, 0.0, 0.0, 0.0, 0.0, 0.0, 1.620658665982494E9, 2021-05-10 16:57:45.982
99.0, -252.92568969726562, 153.1358184814453, 152.17091369628906, 45.19668960571289, -0.08000000566244125, 0.06400000303983688, 1.055999994277954, 0.0, 0.0, 0.0, 0.0, 0.0, 1.620658665982494E9, 2021-05-10 16:57:45.982
100.0, -222.23233032226562, 181.67124938964844, 176.45408630371094, 69.62197875976562, -0.08000000566244125, 0.06400000303983688, 1.040000081062317, 0.0, 0.0, 0.0, 0.0, 0.0, 1.6206586659831183E9, 2021-05-10 16:57:45.983
100.0, -216.06524658203125, 184.8913116455078, 182.7259063720703, 70.55695343017578, -0.08000000566244125, 0.06400000303983688, 1.040000081062317, 0.0, 0.0, 0.0, 0.0, 0.0, 1.6206586659831183E9, 2021-05-10 16:57:45.983
0.0, -255.58102416992188, 155.29934692382812, 151.11439514160156, 39.00715637207031, -0.08000000566244125, 0.06400000303983688, 1.040000081062317, 0.0, 0.0, 0.0, 0.0, 0.0, 1.6206586659968932E9, 2021-05-10 16:57:45.996
1.0, -252.66015625, 151.8960418701172, 145.08193969726562, 38.21803665161133, -0.08000000566244125, 0.06400000303983688, 1.040000081062317, 0.0, 0.0, 0.0, 0.0, 0.0, 1.620658665997635E9, 2021-05-10 16:57:45.997
1.0, -215.36961364746094, 181.32530212402344, 168.79664611816406, 73.44415283203125, -0.08000000566244125, 0.06400000303983688, 1.040000081062317, 0.0, 0.0, 0.0, 0.0, 0.0, 1.620658665997635E9, 2021-05-10 16:57:45.997
2.0, -225.71044921875, 179.1973114013672, 166.6387176513672, 69.93238830566406, -0.06400000303983688, 0.06400000303983688, 1.040000081062317, 0.0, 0.0, 0.0, 0.0, 0.0, 1.6206586660119553E9, 2021-05-10 16:57:46.011
2.0, -253.7596893310547, 151.39114379882812, 138.1182403564453, 45.87361145019531, -0.06400000303983688, 0.06400000303983688, 1.040000081062317, 0.0, 0.0, 0.0, 0.0, 0.0, 1.6206586660119553E9, 2021-05-10 16:57:46.011
3.0, -247.70852661132812, 151.30886840820312, 132.42611694335938, 40.83222961425781, -0.06400000303983688, 0.06400000303983688, 1.040000081062317, 0.0, 0.0, 0.0, 0.0, 0.0, 1.620658666012689E9, 2021-05-10 16:57:46.012
3.0, -223.48519897460938, 183.54681396484375, 169.09210205078125, 74.34921264648438, -0.06400000303983688, 0.06400000303983688, 1.040000081062317, 0.0, 0.0, 0.0, 0.0, 0.0, 1.620658666012689E9, 2021-05-10 16:57:46.012
4.0, -224.091064453125, 179.63113403320312, 168.220703125, 72.41567993164062, -0.06400000303983688, 0.06400000303983688, 1.040000081062317, 0.0, 0.0, 0.0, 0.0, 0.0, 1.6206586660263097E9, 2021-05-10 16:57:46.026
4.0, -256.1233215332031, 155.8416290283203, 150.69178771972656, 44.15325927734375, -0.06400000303983688, 0.06400000303983688, 1.040000081062317, 0.0, 0.0, 0.0, 0.0, 0.0, 1.6206586660263097E9, 2021-05-10 16:57:46.026
5.0, -255.3042755126953, 155.6995086669922, 150.93862915039062, 45.462223052978516, -0.06400000303983688, 0.06400000303983688, 1.040000081062317, 0.0, 0.0, 0.0, 0.0, 0.0, 1.6206586660420377E9, 2021-05-10 16:57:46.042
5.0, -227.55421447753906, 184.747314453125, 181.9984893798828, 75.48988342285156, -0.06400000303983688, 0.06400000303983688, 1.040000081062317, 0.0, 0.0, 0.0, 0.0, 0.0, 1.6206586660420377E9, 2021-05-10 16:57:46.042
6.0, -227.6439666748047, 184.27609252929688, 183.1802978515625, 75.92745208740234, -0.06400000303983688, 0.06400000303983688, 1.040000081062317, 0.0, 0.0, 0.0, 0.0, 0.0, 1.6206586660427155E9, 2021-05-10 16:57:46.042
6.0, -260.1997985839844, 159.67129516601562, 153.24240112304688, 47.272335052490234, -0.06400000303983688, 0.06400000303983688, 1.040000081062317, 0.0, 0.0, 0.0, 0.0, 0.0, 1.6206586660427155E9, 2021-05-10 16:57:46.042
7.0, -255.24069213867188, 157.03091430664062, 151.99700927734375, 49.03382873535156, -0.06400000303983688, 0.06400000303983688, 1.040000081062317, 0.0, 0.0, 0.0, 0.0, 0.0, 1.6206586660562913E9, 2021-05-10 16:57:46.056
7.0, -225.8712615966797, 184.42942810058594, 179.41421508789062, 79.61125183105469, -0.06400000303983688, 0.06400000303983688, 1.040000081062317, 0.0, 0.0, 0.0, 0.0, 0.0, 1.6206586660562913E9, 2021-05-10 16:57:46.056
8.0, -226.0769500732422, 184.13771057128906, 174.21575927734375, 73.42171478271484, -0.06400000303983688, 0.06400000303983688, 1.040000081062317, 0.0, 0.0, 0.0, 0.0, 0.0, 1.6206586660720513E9, 2021-05-10 16:57:46.072
8.0, -257.0133972167969, 153.6724853515625, 140.4519500732422, 50.043601989746094, -0.06400000303983688, 0.06400000303983688, 1.040000081062317, 0.0, 0.0, 0.0, 0.0, 0.0, 1.6206586660720513E9, 2021-05-10 16:57:46.072
9.0, -249.1072540283203, 151.5145721435547, 140.5791015625, 47.48550796508789, -0.06400000303983688, 0.06400000303983688, 1.040000081062317, 0.0, 0.0, 0.0, 0.0, 0.0, 1.620658666072745E9, 2021-05-10 16:57:46.072
9.0, -222.2211151123047, 179.4628448486328, 166.7733612060547, 70.29141998291016, -0.06400000303983688, 0.06400000303983688, 1.040000081062317, 0.0, 0.0, 0.0, 0.0, 0.0, 1.620658666072745E9, 2021-05-10 16:57:46.072
10.0, -225.88247680664062, 184.8445587158203, 161.45147705078125, 69.56214141845703, -0.06400000303983688, 0.06400000303983688, 1.055999994277954, 0.0, 0.0, 0.0, 0.0, 0.0, 1.6206586661026385E9, 2021-05-10 16:57:46.102
10.0, -251.1455078125, 148.40670776367188, 133.80987548828125, 41.92053985595703, -0.06400000303983688, 0.06400000303983688, 1.055999994277954, 0.0, 0.0, 0.0, 0.0, 0.0, 1.6206586661026385E9, 2021-05-10 16:57:46.102
11.0, -238.39617919921875, 148.71337890625, 133.2526397705078, 40.70881271362305, -0.06400000303983688, 0.06400000303983688, 1.055999994277954, 0.0, 0.0, 0.0, 0.0, 0.0, 1.620658666103419E9, 2021-05-10 16:57:46.103
11.0, -220.4371795654297, 172.34580993652344, 164.09185791015625, 67.11998748779297, -0.06400000303983688, 0.06400000303983688, 1.055999994277954, 0.0, 0.0, 0.0, 0.0, 0.0, 1.620658666103419E9, 2021-05-10 16:57:46.103
12.0, -219.1693572998047, 174.01754760742188, 166.16749572753906, 69.05351257324219, -0.06400000303983688, 0.06400000303983688, 1.055999994277954, 0.0, 0.0, 0.0, 0.0, 0.0, 1.6206586661040957E9, 2021-05-10 16:57:46.104
12.0, -242.67088317871094, 146.28619384765625, 137.86767578125, 41.65126419067383, -0.06400000303983688, 0.06400000303983688, 1.055999994277954, 0.0, 0.0, 0.0, 0.0, 0.0, 1.6206586661040957E9, 2021-05-10 16:57:46.104
13.0, -255.29678344726562, 145.1978759765625, 136.10618591308594, 34.956844329833984, -0.06400000303983688, 0.06400000303983688, 1.055999994277954, 0.0, 0.0, 0.0, 0.0, 0.0, 1.620658666116396E9, 2021-05-10 16:57:46.116
13.0, -226.5968017578125, 182.56695556640625, 171.4818878173828, 68.05496215820312, -0.06400000303983688, 0.06400000303983688, 1.055999994277954, 0.0, 0.0, 0.0, 0.0, 0.0, 1.620658666116396E9, 2021-05-10 16:57:46.116
14.0, -224.73806762695312, 185.73464965820312, 178.40818786621094, 68.34293365478516, -0.06400000303983688, 0.06400000303983688, 1.055999994277954, 0.0, 0.0, 0.0, 0.0, 0.0, 1.6206586661319284E9, 2021-05-10 16:57:46.131
14.0, -257.578125, 159.25242614746094, 145.1118621826172, 39.27268981933594, -0.06400000303983688, 0.06400000303983688, 1.055999994277954, 0.0, 0.0, 0.0, 0.0, 0.0, 1.6206586661319284E9, 2021-05-10 16:57:46.131
15.0, -261.074951171875, 165.43447875976562, 142.08253479003906, 37.559814453125, -0.06400000303983688, 0.06400000303983688, 1.055999994277954, 0.0, 0.0, 0.0, 0.0, 0.0, 1.620658666132678E9, 2021-05-10 16:57:46.132
15.0, -233.1266632080078, 193.15835571289062, 178.7672119140625, 69.75287628173828, -0.06400000303983688, 0.06400000303983688, 1.055999994277954, 0.0, 0.0, 0.0, 0.0, 0.0, 1.620658666132678E9, 2021-05-10 16:57:46.132
16.0, -234.61514282226562, 186.75564575195312, 170.57308959960938, 67.98764038085938, -0.06400000303983688, 0.06400000303983688, 1.055999994277954, 0.0, 0.0, 0.0, 0.0, 0.0, 1.620658666146402E9, 2021-05-10 16:57:46.146
16.0, -252.6751251220703, 161.04757690429688, 146.39463806152344, 42.833072662353516, -0.06400000303983688, 0.06400000303983688, 1.055999994277954, 0.0, 0.0, 0.0, 0.0, 0.0, 1.620658666146402E9, 2021-05-10 16:57:46.146
17.0, -258.9918212890625, 161.75440979003906, 141.13259887695312, 40.2188835144043, -0.06400000303983688, 0.06400000303983688, 1.055999994277954, 0.0, 0.0, 0.0, 0.0, 0.0, 1.6206586661777525E9, 2021-05-10 16:57:46.177
17.0, -227.19143676757812, 188.58071899414062, 168.0972900390625, 71.86217498779297, -0.06400000303983688, 0.06400000303983688, 1.055999994277954, 0.0, 0.0, 0.0, 0.0, 0.0, 1.6206586661777525E9, 2021-05-10 16:57:46.177
18.0, -220.33245849609375, 181.21685791015625, 168.45631408691406, 72.90560913085938, -0.06400000303983688, 0.06400000303983688, 1.055999994277954, 0.0, 0.0, 0.0, 0.0, 0.0, 1.620658666178532E9, 2021-05-10 16:57:46.178
18.0, -246.3359832763672, 151.40985107421875, 142.4901885986328, 43.547393798828125, -0.06400000303983688, 0.06400000303983688, 1.055999994277954, 0.0, 0.0, 0.0, 0.0, 0.0, 1.620658666178532E9, 2021-05-10 16:57:46.178
19.0, -246.27989196777344, 153.24240112304688, 142.37799072265625, 42.24964904785156, -0.06400000303983688, 0.06400000303983688, 1.055999994277954, 0.0, 0.0, 0.0, 0.0, 0.0, 1.6206586661792092E9, 2021-05-10 16:57:46.179
19.0, -220.59425354003906, 182.40614318847656, 169.0247802734375, 77.95821380615234, -0.06400000303983688, 0.06400000303983688, 1.055999994277954, 0.0, 0.0, 0.0, 0.0, 0.0, 1.6206586661792092E9, 2021-05-10 16:57:46.179
20.0, -213.1892547607422, 177.76866149902344, 172.1550750732422, 72.69243621826172, -0.06400000303983688, 0.06400000303983688, 1.055999994277954, 0.0, 0.0, 0.0, 0.0, 0.0, 1.6206586661918187E9, 2021-05-10 16:57:46.191
20.0, -240.04173278808594, 154.26339721679688, 139.25143432617188, 47.455589294433594, -0.06400000303983688, 0.06400000303983688, 1.055999994277954, 0.0, 0.0, 0.0, 0.0, 0.0, 1.6206586661918187E9, 2021-05-10 16:57:46.191
21.0, -251.36241149902344, 154.28582763671875, 147.2436065673828, 53.31601333618164, -0.06400000303983688, 0.06400000303983688, 1.055999994277954, 0.0, 0.0, 0.0, 0.0, 0.0, 1.6206586662081528E9, 2021-05-10 16:57:46.208
21.0, -216.57760620117188, 183.36355590820312, 175.427490234375, 88.00358581542969, -0.06400000303983688, 0.06400000303983688, 1.055999994277954, 0.0, 0.0, 0.0, 0.0, 0.0, 1.6206586662081528E9, 2021-05-10 16:57:46.208
22.0, -226.5556640625, 176.8187255859375, 177.04685974121094, 82.46105194091797, -0.06400000303983688, 0.06400000303983688, 1.055999994277954, 0.0, 0.0, 0.0, 0.0, 0.0, 1.620658666222748E9, 2021-05-10 16:57:46.222
22.0, -251.3137969970703, 151.99700927734375, 148.09255981445312, 55.50759506225586, -0.06400000303983688, 0.06400000303983688, 1.055999994277954, 0.0, 0.0, 0.0, 0.0, 0.0, 1.620658666222748E9, 2021-05-10 16:57:46.222
23.0, -249.11846923828125, 158.4296417236328, 148.9751739501953, 53.13275909423828, -0.06400000303983688, 0.06400000303983688, 1.055999994277954, 0.0, 0.0, 0.0, 0.0, 0.0, 1.6206586662234595E9, 2021-05-10 16:57:46.223
23.0, -220.85604858398438, 196.05677795410156, 179.97894287109375, 80.88655853271484, -0.06400000303983688, 0.06400000303983688, 1.055999994277954, 0.0, 0.0, 0.0, 0.0, 0.0, 1.6206586662234595E9, 2021-05-10 16:57:46.223
24.0, -226.5182647705078, 197.10020446777344, 177.98931884765625, 74.30807495117188, -0.06400000303983688, 0.06400000303983688, 1.055999994277954, 0.0, 0.0, 0.0, 0.0, 0.0, 1.6206586662242503E9, 2021-05-10 16:57:46.224
24.0, -255.40150451660156, 164.7089385986328, 148.22718811035156, 36.17979049682617, -0.06400000303983688, 0.06400000303983688, 1.055999994277954, 0.0, 0.0, 0.0, 0.0, 0.0, 1.6206586662242503E9, 2021-05-10 16:57:46.224
25.0, -258.011962890625, 161.1822052001953, 144.91738891601562, 30.64474105834961, -0.06400000303983688, 0.06400000303983688, 1.055999994277954, 0.0, 0.0, 0.0, 0.0, 0.0, 1.6206586662363288E9, 2021-05-10 16:57:46.236
25.0, -223.23463439941406, 191.23977661132812, 177.78363037109375, 63.76903533935547, -0.06400000303983688, 0.06400000303983688, 1.055999994277954, 0.0, 0.0, 0.0, 0.0, 0.0, 1.6206586662363288E9, 2021-05-10 16:57:46.236
26.0, -230.08238220214844, 192.23460388183594, 176.22409057617188, 63.85879135131836, -0.06400000303983688, 0.06400000303983688, 1.055999994277954, 0.0, 0.0, 0.0, 0.0, 0.0, 1.620658666252045E9, 2021-05-10 16:57:46.252
26.0, -245.31126403808594, 166.6424560546875, 148.86671447753906, 40.82474899291992, -0.06400000303983688, 0.06400000303983688, 1.055999994277954, 0.0, 0.0, 0.0, 0.0, 0.0, 1.620658666252045E9, 2021-05-10 16:57:46.252
27.0, -251.908447265625, 164.33120727539062, 144.9884490966797, 42.653560638427734, -0.06400000303983688, 0.06400000303983688, 1.055999994277954, 0.0, 0.0, 0.0, 0.0, 0.0, 1.620658666252722E9, 2021-05-10 16:57:46.252
27.0, -217.99502563476562, 186.88279724121094, 174.9899139404297, 72.31096649169922, -0.06400000303983688, 0.06400000303983688, 1.055999994277954, 0.0, 0.0, 0.0, 0.0, 0.0, 1.620658666252722E9, 2021-05-10 16:57:46.252
28.0, -209.48675537109375, 183.04193115234375, 179.31698608398438, 70.69906616210938, -0.06400000303983688, 0.06400000303983688, 1.055999994277954, 0.0, 0.0, 0.0, 0.0, 0.0, 1.620658666266283E9, 2021-05-10 16:57:46.266
28.0, -242.061279296875, 146.2974090576172, 146.74246215820312, 44.56838607788086, -0.06400000303983688, 0.06400000303983688, 1.055999994277954, 0.0, 0.0, 0.0, 0.0, 0.0, 1.620658666266283E9, 2021-05-10 16:57:46.266
29.0, -245.9320831298828, 139.54689025878906, 147.6662139892578, 49.34049987792969, -0.06400000303983688, 0.06400000303983688, 1.055999994277954, 0.0, 0.0, 0.0, 0.0, 0.0, 1.6206586662820303E9, 2021-05-10 16:57:46.282
29.0, -205.780517578125, 171.79978942871094, 178.43063354492188, 84.36466217041016, -0.06400000303983688, 0.06400000303983688, 1.055999994277954, 0.0, 0.0, 0.0, 0.0, 0.0, 1.6206586662820303E9, 2021-05-10 16:57:46.282
30.0, -214.0494384765625, 163.69541931152344, 176.5345001220703, 84.2524642944336, -0.06400000303983688, 0.06400000303983688, 1.055999994277954, 0.0, 0.0, 0.0, 0.0, 0.0, 1.6206586662827144E9, 2021-05-10 16:57:46.282
30.0, -247.5813751220703, 133.81736755371094, 148.43663024902344, 55.152305603027344, -0.06400000303983688, 0.06400000303983688, 1.055999994277954, 0.0, 0.0, 0.0, 0.0, 0.0, 1.6206586662827144E9, 2021-05-10 16:57:46.282
31.0, -249.85150146484375, 137.3066864013672, 144.11331176757812, 51.32264709472656, -0.06400000303983688, 0.06400000303983688, 1.055999994277954, 0.0, 0.0, 0.0, 0.0, 0.0, 1.6206586662962828E9, 2021-05-10 16:57:46.296
31.0, -224.99612426757812, 176.2689666748047, 177.77613830566406, 77.34113311767578, -0.06400000303983688, 0.06400000303983688, 1.055999994277954, 0.0, 0.0, 0.0, 0.0, 0.0, 1.6206586662962828E9, 2021-05-10 16:57:46.296
32.0, -221.90322875976562, 180.7643280029297, 183.0942840576172, 75.53102111816406, -0.06400000303983688, 0.06400000303983688, 1.055999994277954, 0.0, 0.0, 0.0, 0.0, 0.0, 1.6206586663124826E9, 2021-05-10 16:57:46.312
32.0, -252.6638946533203, 152.83474731445312, 153.16012573242188, 36.28824996948242, -0.06400000303983688, 0.06400000303983688, 1.055999994277954, 0.0, 0.0, 0.0, 0.0, 0.0, 1.6206586663124826E9, 2021-05-10 16:57:46.312
33.0, -245.90589904785156, 164.67153930664062, 159.0579376220703, 45.60060119628906, -0.06400000303983688, 0.06400000303983688, 1.055999994277954, 0.0, 0.0, 0.0, 0.0, 0.0, 1.6206586663274004E9, 2021-05-10 16:57:46.327
33.0, -215.2200164794922, 197.11141967773438, 191.42677307128906, 71.5816879272461, -0.06400000303983688, 0.06400000303983688, 1.055999994277954, 0.0, 0.0, 0.0, 0.0, 0.0, 1.6206586663274004E9, 2021-05-10 16:57:46.327
34.0, -213.409912109375, 203.92552185058594, 191.61376953125, 73.61993408203125, -0.06400000303983688, 0.06400000303983688, 1.055999994277954, 0.0, 0.0, 0.0, 0.0, 0.0, 1.6206586663427763E9, 2021-05-10 16:57:46.342
34.0, -233.8297576904297, 173.4416046142578, 165.95057678222656, 46.92078399658203, -0.06400000303983688, 0.06400000303983688, 1.055999994277954, 0.0, 0.0, 0.0, 0.0, 0.0, 1.6206586663427763E9, 2021-05-10 16:57:46.342
35.0, -246.56411743164062, 170.20285034179688, 159.9966583251953, 48.480323791503906, -0.06400000303983688, 0.06400000303983688, 1.055999994277954, 0.0, 0.0, 0.0, 0.0, 0.0, 1.6206586663434176E9, 2021-05-10 16:57:46.343
35.0, -209.1277313232422, 207.90103149414062, 192.4664764404297, 78.60147857666016, -0.06400000303983688, 0.06400000303983688, 1.055999994277954, 0.0, 0.0, 0.0, 0.0, 0.0, 1.6206586663434176E9, 2021-05-10 16:57:46.343
36.0, -209.0940704345703, 206.46865844726562, 194.17559814453125, 77.77870178222656, -0.06400000303983688, 0.06400000303983688, 1.055999994277954, 0.0, 0.0, 0.0, 0.0, 0.0, 1.6206586663441973E9, 2021-05-10 16:57:46.344
36.0, -226.92965698242188, 170.89846801757812, 167.14361572265625, 53.92935562133789, -0.06400000303983688, 0.06400000303983688, 1.055999994277954, 0.0, 0.0, 0.0, 0.0, 0.0, 1.6206586663441973E9, 2021-05-10 16:57:46.344
37.0, -240.01930236816406, 159.2711181640625, 158.31370544433594, 56.345333099365234, -0.06400000303983688, 0.06400000303983688, 1.055999994277954, 0.0, 0.0, 0.0, 0.0, 0.0, 1.6206586663563972E9, 2021-05-10 16:57:46.356
37.0, -203.64503479003906, 186.76312255859375, 187.76541137695312, 90.83094787597656, -0.06400000303983688, 0.06400000303983688, 1.055999994277954, 0.0, 0.0, 0.0, 0.0, 0.0, 1.6206586663563972E9, 2021-05-10 16:57:46.356
38.0, -210.4778289794922, 186.60604858398438, 186.15725708007812, 96.11168670654297, -0.06400000303983688, 0.06400000303983688, 1.055999994277954, 0.0, 0.0, 0.0, 0.0, 0.0, 1.62065866637243E9, 2021-05-10 16:57:46.372
38.0, -241.78826904296875, 154.0950927734375, 146.34228515625, 63.58203887939453, -0.06400000303983688, 0.06400000303983688, 1.055999994277954, 0.0, 0.0, 0.0, 0.0, 0.0, 1.62065866637243E9, 2021-05-10 16:57:46.372
39.0, -248.57244873046875, 152.7823944091797, 145.04827880859375, 61.71582794189453, -0.06400000303983688, 0.06400000303983688, 1.055999994277954, 0.0, 0.0, 0.0, 0.0, 0.0, 1.6206586663868876E9, 2021-05-10 16:57:46.386
39.0, -215.88198852539062, 188.7228240966797, 177.26004028320312, 93.26188659667969, -0.06400000303983688, 0.06400000303983688, 1.055999994277954, 0.0, 0.0, 0.0, 0.0, 0.0, 1.6206586663868876E9, 2021-05-10 16:57:46.386
40.0, -217.13111877441406, 179.2833251953125, 176.93466186523438, 90.42704010009766, -0.06400000303983688, 0.06400000303983688, 1.040000081062317, 0.0, 0.0, 0.0, 0.0, 0.0, 1.620658666387771E9, 2021-05-10 16:57:46.387
40.0, -253.64749145507812, 143.4588165283203, 149.22201538085938, 56.012481689453125, -0.06400000303983688, 0.06400000303983688, 1.040000081062317, 0.0, 0.0, 0.0, 0.0, 0.0, 1.620658666387771E9, 2021-05-10 16:57:46.387
41.0, -246.1714324951172, 142.75198364257812, 142.3592987060547, 52.755027770996094, -0.06400000303983688, 0.08000000566244125, 1.040000081062317, 0.0, 0.0, 0.0, 0.0, 0.0, 1.620658666401984E9, 2021-05-10 16:57:46.401
41.0, -220.50076293945312, 171.41458129882812, 177.02816772460938, 70.75890350341797, -0.06400000303983688, 0.08000000566244125, 1.040000081062317, 0.0, 0.0, 0.0, 0.0, 0.0, 1.620658666401984E9, 2021-05-10 16:57:46.401
42.0, -218.1894989013672, 177.05809020996094, 176.49710083007812, 66.4094009399414, -0.08000000566244125, 0.08000000566244125, 1.040000081062317, 0.0, 0.0, 0.0, 0.0, 0.0, 1.6206586664026992E9, 2021-05-10 16:57:46.402
42.0, -250.48353576660156, 148.62362670898438, 143.1708526611328, 31.819068908691406, -0.08000000566244125, 0.08000000566244125, 1.040000081062317, 0.0, 0.0, 0.0, 0.0, 0.0, 1.6206586664026992E9, 2021-05-10 16:57:46.402
43.0, -260.23345947265625, 150.88626098632812, 135.16372680664062, 23.45665168762207, -0.08000000566244125, 0.08000000566244125, 1.040000081062317, 0.0, 0.0, 0.0, 0.0, 0.0, 1.62065866643263E9, 2021-05-10 16:57:46.432
43.0, -223.91903686523438, 192.810546875, 177.5779266357422, 51.77517318725586, -0.08000000566244125, 0.08000000566244125, 1.040000081062317, 0.0, 0.0, 0.0, 0.0, 0.0, 1.62065866643263E9, 2021-05-10 16:57:46.432
44.0, -227.84967041015625, 195.6865234375, 170.55813598632812, 52.968204498291016, -0.08000000566244125, 0.08000000566244125, 1.040000081062317, 0.0, 0.0, 0.0, 0.0, 0.0, 1.6206586664333568E9, 2021-05-10 16:57:46.433
44.0, -264.796142578125, 160.78204345703125, 137.51986694335938, 17.775745391845703, -0.08000000566244125, 0.08000000566244125, 1.040000081062317, 0.0, 0.0, 0.0, 0.0, 0.0, 1.6206586664333568E9, 2021-05-10 16:57:46.433
45.0, -267.40283203125, 158.83355712890625, 140.68756103515625, 21.710119247436523, -0.08000000566244125, 0.08000000566244125, 1.040000081062317, 0.0, 0.0, 0.0, 0.0, 0.0, 1.6206586664340692E9, 2021-05-10 16:57:46.434
45.0, -230.47882080078125, 177.73500061035156, 178.99160766601562, 65.00694274902344, -0.08000000566244125, 0.08000000566244125, 1.040000081062317, 0.0, 0.0, 0.0, 0.0, 0.0, 1.6206586664340692E9, 2021-05-10 16:57:46.434
46.0, -221.7162322998047, 166.601318359375, 178.03793334960938, 66.82079315185547, -0.08000000566244125, 0.08000000566244125, 1.040000081062317, 0.0, 0.0, 0.0, 0.0, 0.0, 1.6206586664463782E9, 2021-05-10 16:57:46.446
46.0, -258.5953674316406, 128.55532836914062, 142.0900115966797, 42.39924621582031, -0.08000000566244125, 0.08000000566244125, 1.040000081062317, 0.0, 0.0, 0.0, 0.0, 0.0, 1.6206586664463782E9, 2021-05-10 16:57:46.446
47.0, -253.0977325439453, 134.041748046875, 149.8540496826172, 51.681678771972656, -0.08000000566244125, 0.08000000566244125, 1.040000081062317, 0.0, 0.0, 0.0, 0.0, 0.0, 1.6206586664621036E9, 2021-05-10 16:57:46.462
47.0, -234.7871856689453, 167.83175659179688, 170.3786163330078, 82.39373779296875, -0.08000000566244125, 0.08000000566244125, 1.040000081062317, 0.0, 0.0, 0.0, 0.0, 0.0, 1.6206586664621036E9, 2021-05-10 16:57:46.462
48.0, -233.60537719726562, 168.5572967529297, 175.9884796142578, 84.76483154296875, -0.08000000566244125, 0.08000000566244125, 1.040000081062317, 0.0, 0.0, 0.0, 0.0, 0.0, 1.6206586664627547E9, 2021-05-10 16:57:46.462
48.0, -263.7115783691406, 129.88671875, 138.1706085205078, 46.73379135131836, -0.08000000566244125, 0.08000000566244125, 1.040000081062317, 0.0, 0.0, 0.0, 0.0, 0.0, 1.6206586664627547E9, 2021-05-10 16:57:46.462
49.0, -253.3969268798828, 141.6412353515625, 141.02415466308594, 50.00994110107422, -0.08000000566244125, 0.08000000566244125, 1.040000081062317, 0.0, 0.0, 0.0, 0.0, 0.0, 1.6206586664764988E9, 2021-05-10 16:57:46.476
49.0, -236.52622985839844, 173.58746337890625, 171.08172607421875, 76.49217224121094, -0.08000000566244125, 0.08000000566244125, 1.040000081062317, 0.0, 0.0, 0.0, 0.0, 0.0, 1.6206586664764988E9, 2021-05-10 16:57:46.476
50.0, -232.85365295410156, 172.98159790039062, 172.42808532714844, 74.99247741699219, -0.08000000566244125, 0.08000000566244125, 1.055999994277954, 0.0, 0.0, 0.0, 0.0, 0.0, 1.6206586664921162E9, 2021-05-10 16:57:46.492
50.0, -267.2944030761719, 147.5839385986328, 128.36083984375, 41.79338073730469, -0.08000000566244125, 0.08000000566244125, 1.055999994277954, 0.0, 0.0, 0.0, 0.0, 0.0, 1.6206586664921162E9, 2021-05-10 16:57:46.492
51.0, -256.61322021484375, 145.95333862304688, 135.79202270507812, 46.763710021972656, -0.08000000566244125, 0.08000000566244125, 1.055999994277954, 0.0, 0.0, 0.0, 0.0, 0.0, 1.6206586664928796E9, 2021-05-10 16:57:46.492
51.0, -218.44381713867188, 180.6820526123047, 176.16050720214844, 70.66915130615234, -0.08000000566244125, 0.08000000566244125, 1.055999994277954, 0.0, 0.0, 0.0, 0.0, 0.0, 1.6206586664928796E9, 2021-05-10 16:57:46.492
52.0, -213.2902374267578, 182.40240478515625, 170.48707580566406, 71.40965270996094, -0.08000000566244125, 0.08000000566244125, 1.055999994277954, 0.0, 0.0, 0.0, 0.0, 0.0, 1.6206586665064301E9, 2021-05-10 16:57:46.506
52.0, -247.04283142089844, 156.08473205566406, 144.28160095214844, 38.453651428222656, -0.08000000566244125, 0.08000000566244125, 1.055999994277954, 0.0, 0.0, 0.0, 0.0, 0.0, 1.6206586665064301E9, 2021-05-10 16:57:46.506
53.0, -245.85728454589844, 160.10885620117188, 144.5620880126953, 38.117061614990234, -0.08000000566244125, 0.08000000566244125, 1.055999994277954, 0.0, 0.0, 0.0, 0.0, 0.0, 1.6206586665390956E9, 2021-05-10 16:57:46.539
53.0, -215.96800231933594, 194.94229125976562, 178.99908447265625, 73.71717071533203, -0.08000000566244125, 0.08000000566244125, 1.055999994277954, 0.0, 0.0, 0.0, 0.0, 0.0, 1.6206586665390956E9, 2021-05-10 16:57:46.539
54.0, -218.34657287597656, 195.65660095214844, 176.00717163085938, 67.07510375976562, -0.08000000566244125, 0.08000000566244125, 1.055999994277954, 0.0, 0.0, 0.0, 0.0, 0.0, 1.6206586665397327E9, 2021-05-10 16:57:46.539
54.0, -253.4642333984375, 158.77371215820312, 152.47198486328125, 37.38029861450195, -0.08000000566244125, 0.08000000566244125, 1.055999994277954, 0.0, 0.0, 0.0, 0.0, 0.0, 1.6206586665397327E9, 2021-05-10 16:57:46.539
55.0, -245.85728454589844, 156.3988800048828, 150.60203552246094, 42.537620544433594, -0.08000000566244125, 0.08000000566244125, 1.055999994277954, 0.0, 0.0, 0.0, 0.0, 0.0, 1.6206586665404804E9, 2021-05-10 16:57:46.540
55.0, -220.65036010742188, 196.6663818359375, 186.58360290527344, 81.9225082397461, -0.08000000566244125, 0.08000000566244125, 1.055999994277954, 0.0, 0.0, 0.0, 0.0, 0.0, 1.6206586665404804E9, 2021-05-10 16:57:46.540
56.0, -213.5782012939453, 188.75648498535156, 187.28671264648438, 80.46395111083984, -0.08000000566244125, 0.08000000566244125, 1.055999994277954, 0.0, 0.0, 0.0, 0.0, 0.0, 1.6206586665412328E9, 2021-05-10 16:57:46.541
56.0, -239.7761993408203, 147.81207275390625, 156.12586975097656, 49.187164306640625, -0.08000000566244125, 0.08000000566244125, 1.055999994277954, 0.0, 0.0, 0.0, 0.0, 0.0, 1.6206586665412328E9, 2021-05-10 16:57:46.541
57.0, -232.77137756347656, 146.4806671142578, 158.36231994628906, 59.685062408447266, -0.08000000566244125, 0.08000000566244125, 1.055999994277954, 0.0, 0.0, 0.0, 0.0, 0.0, 1.620658666551391E9, 2021-05-10 16:57:46.551
57.0, -210.24221801757812, 172.94046020507812, 185.44668579101562, 88.35513305664062, -0.08000000566244125, 0.08000000566244125, 1.055999994277954, 0.0, 0.0, 0.0, 0.0, 0.0, 1.620658666551391E9, 2021-05-10 16:57:46.551
58.0, -215.79222106933594, 175.7304229736328, 177.282470703125, 89.74637603759766, -0.08000000566244125, 0.08000000566244125, 1.055999994277954, 0.0, 0.0, 0.0, 0.0, 0.0, 1.6206586665663059E9, 2021-05-10 16:57:46.566
58.0, -249.49620056152344, 145.68032836914062, 150.22804260253906, 60.638736724853516, -0.08000000566244125, 0.08000000566244125, 1.055999994277954, 0.0, 0.0, 0.0, 0.0, 0.0, 1.6206586665663059E9, 2021-05-10 16:57:46.566
59.0, -242.5811309814453, 151.0807342529297, 152.6253204345703, 64.53571319580078, -0.08000000566244125, 0.08000000566244125, 1.055999994277954, 0.0, 0.0, 0.0, 0.0, 0.0, 1.6206586665820732E9, 2021-05-10 16:57:46.582
59.0, -219.79391479492188, 177.458251953125, 179.47779846191406, 85.03036499023438, -0.08000000566244125, 0.08000000566244125, 1.055999994277954, 0.0, 0.0, 0.0, 0.0, 0.0, 1.6206586665820732E9, 2021-05-10 16:57:46.582
60.0, -202.7250213623047, 180.603515625, 184.60519409179688, 85.037841796875, -0.08000000566244125, 0.08000000566244125, 1.055999994277954, 0.0, 0.0, 0.0, 0.0, 0.0, 1.6206586665828078E9, 2021-05-10 16:57:46.582
60.0, -245.18035888671875, 149.2294921875, 157.18051147460938, 55.84418487548828, -0.08000000566244125, 0.08000000566244125, 1.055999994277954, 0.0, 0.0, 0.0, 0.0, 0.0, 1.6206586665828078E9, 2021-05-10 16:57:46.582
61.0, -240.28857421875, 151.8175048828125, 156.2567596435547, 55.98630142211914, -0.08000000566244125, 0.06400000303983688, 1.055999994277954, 0.0, 0.0, 0.0, 0.0, 0.0, 1.620658666596278E9, 2021-05-10 16:57:46.596
61.0, -212.32908630371094, 181.0522918701172, 185.52896118164062, 86.61234283447266, -0.08000000566244125, 0.06400000303983688, 1.055999994277954, 0.0, 0.0, 0.0, 0.0, 0.0, 1.620658666596278E9, 2021-05-10 16:57:46.596
62.0, -220.0145721435547, 181.30661010742188, 180.37911987304688, 79.7571029663086, -0.08000000566244125, 0.06400000303983688, 1.055999994277954, 0.0, 0.0, 0.0, 0.0, 0.0, 1.6206586666120975E9, 2021-05-10 16:57:46.612
62.0, -245.72637939453125, 152.10546875, 156.16326904296875, 57.28030776977539, -0.08000000566244125, 0.06400000303983688, 1.055999994277954, 0.0, 0.0, 0.0, 0.0, 0.0, 1.6206586666120975E9, 2021-05-10 16:57:46.612
63.0, -243.31788635253906, 148.87794494628906, 149.8129119873047, 56.64452362060547, -0.08000000566244125, 0.06400000303983688, 1.055999994277954, 0.0, 0.0, 0.0, 0.0, 0.0, 1.620658666612707E9, 2021-05-10 16:57:46.612
63.0, -221.77980041503906, 185.51025390625, 182.376220703125, 79.14002227783203, -0.08000000566244125, 0.06400000303983688, 1.055999994277954, 0.0, 0.0, 0.0, 0.0, 0.0, 1.620658666612707E9, 2021-05-10 16:57:46.612
64.0, -221.95558166503906, 181.7740936279297, 179.0813751220703, 78.52294158935547, -0.08000000566244125, 0.06400000303983688, 1.055999994277954, 0.0, 0.0, 0.0, 0.0, 0.0, 1.6206586666263833E9, 2021-05-10 16:57:46.626
64.0, -248.96888732910156, 148.74330139160156, 149.38282775878906, 51.92851257324219, -0.08000000566244125, 0.06400000303983688, 1.055999994277954, 0.0, 0.0, 0.0, 0.0, 0.0, 1.6206586666263833E9, 2021-05-10 16:57:46.626
65.0, -248.74449157714844, 149.53616333007812, 155.2095947265625, 52.22022247314453, -0.08000000566244125, 0.06400000303983688, 1.055999994277954, 0.0, 0.0, 0.0, 0.0, 0.0, 1.62065866664205E9, 2021-05-10 16:57:46.642
65.0, -218.85147094726562, 178.7373046875, 184.65382385253906, 82.61064910888672, -0.08000000566244125, 0.06400000303983688, 1.055999994277954, 0.0, 0.0, 0.0, 0.0, 0.0, 1.62065866664205E9, 2021-05-10 16:57:46.642
66.0, -217.57615661621094, 183.3523406982422, 186.38912963867188, 83.58302307128906, -0.08000000566244125, 0.06400000303983688, 1.055999994277954, 0.0, 0.0, 0.0, 0.0, 0.0, 1.6206586666427405E9, 2021-05-10 16:57:46.642
66.0, -251.8598175048828, 147.67742919921875, 153.9305419921875, 49.527496337890625, -0.08000000566244125, 0.06400000303983688, 1.055999994277954, 0.0, 0.0, 0.0, 0.0, 0.0, 1.6206586666427405E9, 2021-05-10 16:57:46.642
67.0, -252.9556121826172, 143.90760803222656, 146.8022918701172, 52.35111999511719, -0.08000000566244125, 0.06400000303983688, 1.055999994277954, 0.0, 0.0, 0.0, 0.0, 0.0, 1.6206586666563687E9, 2021-05-10 16:57:46.656
67.0, -221.3235321044922, 174.7879638671875, 185.65985107421875, 81.86640930175781, -0.08000000566244125, 0.06400000303983688, 1.055999994277954, 0.0, 0.0, 0.0, 0.0, 0.0, 1.6206586666563687E9, 2021-05-10 16:57:46.656
68.0, -216.63369750976562, 178.9467315673828, 180.23326110839844, 82.85000610351562, -0.08000000566244125, 0.06400000303983688, 1.055999994277954, 0.0, 0.0, 0.0, 0.0, 0.0, 1.6206586666720068E9, 2021-05-10 16:57:46.672
68.0, -245.37857055664062, 142.71458435058594, 151.9371795654297, 51.73777770996094, -0.08000000566244125, 0.06400000303983688, 1.055999994277954, 0.0, 0.0, 0.0, 0.0, 0.0, 1.6206586666720068E9, 2021-05-10 16:57:46.672
69.0, -245.39353942871094, 140.80349731445312, 152.2662811279297, 53.23747634887695, -0.08000000566244125, 0.06400000303983688, 1.055999994277954, 0.0, 0.0, 0.0, 0.0, 0.0, 1.6206586666727164E9, 2021-05-10 16:57:46.672
69.0, -215.10781860351562, 177.51809692382812, 185.19984436035156, 88.94229888916016, -0.08000000566244125, 0.06400000303983688, 1.055999994277954, 0.0, 0.0, 0.0, 0.0, 0.0, 1.6206586666727164E9, 2021-05-10 16:57:46.672
70.0, -217.51258850097656, 175.251708984375, 183.55429077148438, 82.85000610351562, -0.08000000566244125, 0.06400000303983688, 1.055999994277954, 0.0, 0.0, 0.0, 0.0, 0.0, 1.6206586666863675E9, 2021-05-10 16:57:46.686
70.0, -243.71058654785156, 141.28219604492188, 148.03271484375, 51.75647735595703, -0.08000000566244125, 0.06400000303983688, 1.055999994277954, 0.0, 0.0, 0.0, 0.0, 0.0, 1.6206586666863675E9, 2021-05-10 16:57:46.686
71.0, -248.02268981933594, 143.35784912109375, 148.7283477783203, 48.30080795288086, -0.08000000566244125, 0.06400000303983688, 1.055999994277954, 0.0, 0.0, 0.0, 0.0, 0.0, 1.6206586667019477E9, 2021-05-10 16:57:46.701
71.0, -216.6673583984375, 177.3385772705078, 178.0977783203125, 78.46684265136719, -0.08000000566244125, 0.06400000303983688, 1.055999994277954, 0.0, 0.0, 0.0, 0.0, 0.0, 1.6206586667019477E9, 2021-05-10 16:57:46.701
72.0, -217.57241821289062, 174.84031677246094, 176.37368774414062, 76.72030639648438, -0.08000000566244125, 0.06400000303983688, 1.055999994277954, 0.0, 0.0, 0.0, 0.0, 0.0, 1.6206586667026556E9, 2021-05-10 16:57:46.702
72.0, -249.21945190429688, 148.61241149902344, 142.83425903320312, 49.49009704589844, -0.08000000566244125, 0.06400000303983688, 1.055999994277954, 0.0, 0.0, 0.0, 0.0, 0.0, 1.6206586667026556E9, 2021-05-10 16:57:46.702
73.0, -254.1000213623047, 148.50021362304688, 143.5934600830078, 54.385623931884766, -0.08000000566244125, 0.06400000303983688, 1.055999994277954, 0.0, 0.0, 0.0, 0.0, 0.0, 1.6206586667326145E9, 2021-05-10 16:57:46.732
73.0, -215.3172607421875, 180.6483917236328, 180.33798217773438, 88.82636260986328, -0.08000000566244125, 0.06400000303983688, 1.055999994277954, 0.0, 0.0, 0.0, 0.0, 0.0, 1.6206586667326145E9, 2021-05-10 16:57:46.732
74.0, -220.01083374023438, 172.55523681640625, 175.31903076171875, 88.00358581542969, -0.08000000566244125, 0.06400000303983688, 1.055999994277954, 0.0, 0.0, 0.0, 0.0, 0.0, 1.620658666733359E9, 2021-05-10 16:57:46.733
74.0, -250.61444091796875, 140.9231719970703, 144.06094360351562, 56.88761901855469, -0.08000000566244125, 0.06400000303983688, 1.055999994277954, 0.0, 0.0, 0.0, 0.0, 0.0, 1.620658666733359E9, 2021-05-10 16:57:46.733
75.0, -239.38351440429688, 145.63919067382812, 147.17254638671875, 53.95927810668945, -0.08000000566244125, 0.06400000303983688, 1.055999994277954, 0.0, 0.0, 0.0, 0.0, 0.0, 1.6206586667341428E9, 2021-05-10 16:57:46.734
75.0, -215.24993896484375, 174.6234130859375, 184.05169677734375, 86.0775375366211, -0.08000000566244125, 0.06400000303983688, 1.055999994277954, 0.0, 0.0, 0.0, 0.0, 0.0, 1.6206586667341428E9, 2021-05-10 16:57:46.734
