Sample Index, EXG Channel 0, EXG Channel 1, EXG Channel 2, EXG Channel 3, Accel Channel 0, Accel Channel 1, Accel Channel 2, Other, Other, Other, Other, Other, Timestamp, Timestamp (Formatted)
0.0, -111.61731719970703, -33.855445861816406, 60.96971893310547, 190.8134307861328, 0.0, 0.0, 0.0, 0.0, 0.0, 0.0, 0.0, 0.0, 1.6209903681299589E9, 2021-05-14 13:06:08.129
1.0, -101.84495544433594, -23.346324920654297, 70.79069519042969, 205.11480712890625, 0.0, -0.04800000041723251, 0.0, 0.0, 0.0, 0.0, 0.0, 0.0, 1.6209903681462777E9, 2021-05-14 13:06:08.146
1.0, -120.33876037597656, -46.862815856933594, 61.66160202026367, 173.96517944335938, 0.0, -0.04800000041723251, 0.0, 0.0, 0.0, 0.0, 0.0, 0.0, 1.6209903681462777E9, 2021-05-14 13:06:08.146
2.0, -116.3894271850586, -43.867156982421875, 54.57075119018555, 166.11138916015625, 0.03200000151991844, -0.04800000041723251, 0.0, 0.0, 0.0, 0.0, 0.0, 0.0, 1.620990368147128E9, 2021-05-14 13:06:08.147
2.0, -111.0077133178711, -29.341384887695312, 60.012306213378906, 190.42074584960938, 0.03200000151991844, -0.04800000041723251, 0.0, 0.0, 0.0, 0.0, 0.0, 0.0, 1.620990368147128E9, 2021-05-14 13:06:08.147
3.0, -94.58206939697266, -17.175491333007812, 66.88623809814453, 203.34210205078125, 0.03200000151991844, -0.04800000041723251, 0.0, 0.0, 0.0, 0.0, 0.0, 0.0, 1.62099036814842E9, 2021-05-14 13:06:08.148
3.0, -115.17021942138672, -41.484840393066406, 61.50826644897461, 176.92344665527344, 0.03200000151991844, -0.04800000041723251, 0.0, 0.0, 0.0, 0.0, 0.0, 0.0, 1.62099036814842E9, 2021-05-14 13:06:08.148
4.0, -117.73579406738281, -44.914329528808594, 50.445640563964844, 167.39418029785156, 0.03200000151991844, -0.04800000041723251, 0.0, 0.0, 0.0, 0.0, 0.0, 0.0, 1.6209903681746397E9, 2021-05-14 13:06:08.174
4.0, -109.42947387695312, -29.790172576904297, 62.45071792602539, 189.1192626953125, 0.03200000151991844, -0.04800000041723251, 0.0, 0.0, 0.0, 0.0, 0.0, 0.0, 1.6209903681746397E9, 2021-05-14 13:06:08.174
5.0, -103.9056396484375, -19.976675033569336, 69.23863983154297, 201.2477569580078, 0.03200000151991844, -0.04800000041723251, 0.0, 0.0, 0.0, 0.0, 0.0, 0.0, 1.6209903681913402E9, 2021-05-14 13:06:08.191
5.0, -122.70985412597656, -42.7003059387207, 59.57099533081055, 176.94589233398438, 0.03200000151991844, -0.04800000041723251, 0.0, 0.0, 0.0, 0.0, 0.0, 0.0, 1.6209903681913402E9, 2021-05-14 13:06:08.191
6.0, -128.30848693847656, -45.292057037353516, 50.61019515991211, 171.3996124267578, 0.03200000151991844, -0.04800000041723251, 0.0, 0.0, 0.0, 0.0, 0.0, 0.0, 1.620990368191995E9, 2021-05-14 13:06:08.191
6.0, -108.06440734863281, -25.73986053466797, 61.467124938964844, 194.7852020263672, 0.03200000151991844, -0.04800000041723251, 0.0, 0.0, 0.0, 0.0, 0.0, 0.0, 1.620990368191995E9, 2021-05-14 13:06:08.191
7.0, -105.19216918945312, -29.28528594970703, 66.40005493164062, 207.73648071289062, 0.03200000151991844, -0.04800000041723251, 0.0, 0.0, 0.0, 0.0, 0.0, 0.0, 1.620990368192774E9, 2021-05-14 13:06:08.192
7.0, -126.04584503173828, -40.94255447387695, 60.666786193847656, 178.56900024414062, 0.03200000151991844, -0.04800000041723251, 0.0, 0.0, 0.0, 0.0, 0.0, 0.0, 1.620990368192774E9, 2021-05-14 13:06:08.192
8.0, -126.44601440429688, -47.95486831665039, 57.44673156738281, 172.44305419921875, 0.03200000151991844, -0.04800000041723251, 0.0, 0.0, 0.0, 0.0, 0.0, 0.0, 1.6209903681934772E9, 2021-05-14 13:06:08.193
8.0, -108.62539672851562, -26.3681640625, 69.45555114746094, 193.4949493408203, 0.03200000151991844, -0.04800000041723251, 0.0, 0.0, 0.0, 0.0, 0.0, 0.0, 1.6209903681934772E9, 2021-05-14 13:06:08.193
9.0, -100.95860290527344, -23.237869262695312, 73.3600082397461, 197.28346252441406, 0.03200000151991844, -0.04800000041723251, 0.0, 0.0, 0.0, 0.0, 0.0, 0.0, 1.6209903682041705E9, 2021-05-14 13:06:08.204
9.0, -107.43610382080078, -39.181060791015625, 68.22512817382812, 177.44703674316406, 0.03200000151991844, -0.04800000041723251, 0.0, 0.0, 0.0, 0.0, 0.0, 0.0, 1.6209903682041705E9, 2021-05-14 13:06:08.204
10.0, -116.32210540771484, -45.494014739990234, 63.08650207519531, 161.40286254882812, 0.03200000151991844, -0.04800000041723251, 1.055999994277954, 0.0, 0.0, 0.0, 0.0, 0.0, 1.6209903682192612E9, 2021-05-14 13:06:08.219
10.0, -96.3360824584961, -32.58013916015625, 71.5386734008789, 191.72596740722656, 0.03200000151991844, -0.04800000041723251, 1.055999994277954, 0.0, 0.0, 0.0, 0.0, 0.0, 1.6209903682192612E9, 2021-05-14 13:06:08.219
11.0, -96.02193450927734, -32.86063003540039, 75.57776641845703, 203.6113739013672, 0.03200000151991844, -0.04800000041723251, 1.055999994277954, 0.0, 0.0, 0.0, 0.0, 0.0, 1.6209903682673728E9, 2021-05-14 13:06:08.267
11.0, -113.49474334716797, -43.3809700012207, 69.48172760009766, 181.1457977294922, 0.03200000151991844, -0.04800000041723251, 1.055999994277954, 0.0, 0.0, 0.0, 0.0, 0.0, 1.6209903682673728E9, 2021-05-14 13:06:08.267
12.0, -114.39231872558594, -55.86101531982422, 57.68608856201172, 169.04721069335938, 0.03200000151991844, -0.04800000041723251, 1.055999994277954, 0.0, 0.0, 0.0, 0.0, 0.0, 1.620990368268144E9, 2021-05-14 13:06:08.268
12.0, -104.42548370361328, -33.2234001159668, 71.40778350830078, 195.6416473388672, 0.03200000151991844, -0.04800000041723251, 1.055999994277954, 0.0, 0.0, 0.0, 0.0, 0.0, 1.620990368268144E9, 2021-05-14 13:06:08.268
13.0, -96.47445678710938, -22.901277542114258, 79.43360137939453, 203.90682983398438, 0.03200000151991844, -0.04800000041723251, 1.055999994277954, 0.0, 0.0, 0.0, 0.0, 0.0, 1.620990368268916E9, 2021-05-14 13:06:08.268
13.0, -117.18976593017578, -48.85244369506836, 57.809505462646484, 171.9568634033203, 0.03200000151991844, -0.04800000041723251, 1.055999994277954, 0.0, 0.0, 0.0, 0.0, 0.0, 1.620990368268916E9, 2021-05-14 13:06:08.268
14.0, -125.23429107666016, -44.8657112121582, 58.70708084106445, 167.22589111328125, 0.03200000151991844, -0.04800000041723251, 1.055999994277954, 0.0, 0.0, 0.0, 0.0, 0.0, 1.6209903682696395E9, 2021-05-14 13:06:08.269
14.0, -109.01434326171875, -32.408103942871094, 67.31259155273438, 187.5111083984375, 0.03200000151991844, -0.04800000041723251, 1.055999994277954, 0.0, 0.0, 0.0, 0.0, 0.0, 1.6209903682696395E9, 2021-05-14 13:06:08.269
15.0, -106.07852172851562, -22.774120330810547, 76.02655792236328, 202.57542419433594, 0.03200000151991844, -0.04800000041723251, 1.055999994277954, 0.0, 0.0, 0.0, 0.0, 0.0, 1.6209903682799048E9, 2021-05-14 13:06:08.279
15.0, -117.23090362548828, -44.5440788269043, 68.39716339111328, 178.7821807861328, 0.03200000151991844, -0.04800000041723251, 1.055999994277954, 0.0, 0.0, 0.0, 0.0, 0.0, 1.6209903682799048E9, 2021-05-14 13:06:08.279
16.0, -115.5068130493164, -50.9580078125, 66.4561538696289, 174.51495361328125, 0.03200000151991844, -0.04800000041723251, 1.055999994277954, 0.0, 0.0, 0.0, 0.0, 0.0, 1.6209903682806833E9, 2021-05-14 13:06:08.280
16.0, -107.52586364746094, -30.081884384155273, 64.57872009277344, 190.5666046142578, 0.03200000151991844, -0.04800000041723251, 1.055999994277954, 0.0, 0.0, 0.0, 0.0, 0.0, 1.6209903682806833E9, 2021-05-14 13:06:08.280
17.0, -95.04207611083984, -25.75482177734375, 76.16119384765625, 210.9004364013672, 0.03200000151991844, -0.04800000041723251, 1.055999994277954, 0.0, 0.0, 0.0, 0.0, 0.0, 1.6209903682952912E9, 2021-05-14 13:06:08.295
17.0, -107.11821746826172, -47.71925354003906, 62.98178482055664, 176.4746551513672, 0.03200000151991844, -0.04800000041723251, 1.055999994277954, 0.0, 0.0, 0.0, 0.0, 0.0, 1.6209903682952912E9, 2021-05-14 13:06:08.295
18.0, -118.9363021850586, -50.6064567565918, 51.75460433959961, 164.14047241210938, 0.03200000151991844, -0.04800000041723251, 1.055999994277954, 0.0, 0.0, 0.0, 0.0, 0.0, 1.6209903683099003E9, 2021-05-14 13:06:08.309
18.0, -107.3800048828125, -35.127010345458984, 66.27289581298828, 185.75709533691406, 0.03200000151991844, -0.04800000041723251, 1.055999994277954, 0.0, 0.0, 0.0, 0.0, 0.0, 1.6209903683099003E9, 2021-05-14 13:06:08.309
19.0, -97.3608169555664, -26.80573272705078, 72.74292755126953, 200.58580017089844, 0.03200000151991844, -0.04800000041723251, 1.055999994277954, 0.0, 0.0, 0.0, 0.0, 0.0, 1.6209903683105884E9, 2021-05-14 13:06:08.310
19.0, -111.14234924316406, -47.31908416748047, 59.709373474121094, 169.80641174316406, 0.03200000151991844, -0.04800000041723251, 1.055999994277954, 0.0, 0.0, 0.0, 0.0, 0.0, 1.6209903683105884E9, 2021-05-14 13:06:08.310
20.0, -114.29882049560547, -54.82132339477539, 58.24333190917969, 169.4099884033203, 0.03200000151991844, -0.04800000041723251, 1.055999994277954, 0.0, 0.0, 0.0, 0.0, 0.0, 1.620990368324942E9, 2021-05-14 13:06:08.324
20.0, -102.66399383544922, -29.99960708618164, 63.59886932373047, 195.33123779296875, 0.03200000151991844, -0.04800000041723251, 1.055999994277954, 0.0, 0.0, 0.0, 0.0, 0.0, 1.620990368324942E9, 2021-05-14 13:06:08.324
21.0, -97.7796859741211, -30.440916061401367, 75.2673568725586, 212.62826538085938, 0.03200000151991844, -0.04800000041723251, 1.055999994277954, 0.0, 0.0, 0.0, 0.0, 0.0, 1.6209903683257265E9, 2021-05-14 13:06:08.325
21.0, -119.37760925292969, -42.232818603515625, 61.92339324951172, 177.89207458496094, 0.03200000151991844, -0.04800000041723251, 1.055999994277954, 0.0, 0.0, 0.0, 0.0, 0.0, 1.6209903683257265E9, 2021-05-14 13:06:08.325
22.0, -122.44806671142578, -54.35383605957031, 58.44154739379883, 174.18209838867188, 0.03200000151991844, -0.04800000041723251, 1.055999994277954, 0.0, 0.0, 0.0, 0.0, 0.0, 1.620990368356398E9, 2021-05-14 13:06:08.356
22.0, -111.64723205566406, -29.573259353637695, 58.53878402709961, 196.0642547607422, 0.03200000151991844, -0.04800000041723251, 1.055999994277954, 0.0, 0.0, 0.0, 0.0, 0.0, 1.620990368356398E9, 2021-05-14 13:06:08.356
23.0, -106.09722137451172, -32.10143280029297, 67.7838134765625, 205.37660217285156, 0.03200000151991844, -0.04800000041723251, 1.055999994277954, 0.0, 0.0, 0.0, 0.0, 0.0, 1.620990368356949E9, 2021-05-14 13:06:08.356
23.0, -117.18976593017578, -47.300384521484375, 67.11811828613281, 184.42942810058594, 0.03200000151991844, -0.04800000041723251, 1.055999994277954, 0.0, 0.0, 0.0, 0.0, 0.0, 1.620990368356949E9, 2021-05-14 13:06:08.356
24.0, -111.1947021484375, -59.83279037475586, 57.67112731933594, 168.61712646484375, 0.03200000151991844, -0.04800000041723251, 1.055999994277954, 0.0, 0.0, 0.0, 0.0, 0.0, 1.620990368357742E9, 2021-05-14 13:06:08.357
24.0, -97.30471801757812, -34.66326141357422, 67.2153549194336, 194.0409698486328, 0.03200000151991844, -0.04800000041723251, 1.055999994277954, 0.0, 0.0, 0.0, 0.0, 0.0, 1.620990368357742E9, 2021-05-14 13:06:08.357
25.0, -98.9240951538086, -24.202762603759766, 82.41056823730469, 208.1067352294922, 0.03200000151991844, -0.04800000041723251, 1.055999994277954, 0.0, 0.0, 0.0, 0.0, 0.0, 1.6209903683692124E9, 2021-05-14 13:06:08.369
25.0, -108.15042877197266, -47.50981903076172, 74.31368255615234, 179.58251953125, 0.03200000151991844, -0.04800000041723251, 1.055999994277954, 0.0, 0.0, 0.0, 0.0, 0.0, 1.6209903683692124E9, 2021-05-14 13:06:08.369
26.0, -109.13776397705078, -58.295692443847656, 61.07817459106445, 166.53025817871094, 0.03200000151991844, -0.04800000041723251, 1.055999994277954, 0.0, 0.0, 0.0, 0.0, 0.0, 1.620990368384895E9, 2021-05-14 13:06:08.384
26.0, -107.73529815673828, -33.608612060546875, 66.27289581298828, 192.70582580566406, 0.03200000151991844, -0.04800000041723251, 1.055999994277954, 0.0, 0.0, 0.0, 0.0, 0.0, 1.620990368384895E9, 2021-05-14 13:06:08.384
27.0, -98.99140930175781, -24.195281982421875, 74.9906005859375, 203.60015869140625, 0.03200000151991844, -0.04800000041723251, 1.055999994277954, 0.0, 0.0, 0.0, 0.0, 0.0, 1.620990368385582E9, 2021-05-14 13:06:08.385
27.0, -111.32933807373047, -50.56157684326172, 67.96333312988281, 182.08824157714844, 0.03200000151991844, -0.04800000041723251, 1.055999994277954, 0.0, 0.0, 0.0, 0.0, 0.0, 1.620990368385582E9, 2021-05-14 13:06:08.385
28.0, -120.69031524658203, -60.16938018798828, 60.74906539916992, 173.51266479492188, 0.03200000151991844, -0.04800000041723251, 1.055999994277954, 0.0, 0.0, 0.0, 0.0, 0.0, 1.6209903684309728E9, 2021-05-14 13:06:08.430
28.0, -106.49739074707031, -29.01975440979004, 70.37556457519531, 203.9554443359375, 0.03200000151991844, -0.04800000041723251, 1.055999994277954, 0.0, 0.0, 0.0, 0.0, 0.0, 1.6209903684309728E9, 2021-05-14 13:06:08.430
29.0, -113.34514617919922, -27.808025360107422, 73.54700469970703, 209.7148895263672, 0.03200000151991844, -0.04800000041723251, 1.055999994277954, 0.0, 0.0, 0.0, 0.0, 0.0, 1.6209903684317646E9, 2021-05-14 13:06:08.431
29.0, -124.91639709472656, -49.08431625366211, 67.30510711669922, 187.49240112304688, 0.03200000151991844, -0.04800000041723251, 1.055999994277954, 0.0, 0.0, 0.0, 0.0, 0.0, 1.6209903684317646E9, 2021-05-14 13:06:08.431
30.0, -133.89964294433594, -48.97211837768555, 61.190372467041016, 174.97122192382812, 0.03200000151991844, -0.04800000041723251, 1.055999994277954, 0.0, 0.0, 0.0, 0.0, 0.0, 1.6209903684324305E9, 2021-05-14 13:06:08.432
30.0, -108.40473937988281, -37.471927642822266, 69.41815185546875, 198.9514617919922, 0.03200000151991844, -0.04800000041723251, 1.055999994277954, 0.0, 0.0, 0.0, 0.0, 0.0, 1.6209903684324305E9, 2021-05-14 13:06:08.432
31.0, -105.40534210205078, -25.728641510009766, 72.76162719726562, 213.2902374267578, 0.03200000151991844, -0.04800000041723251, 1.055999994277954, 0.0, 0.0, 0.0, 0.0, 0.0, 1.6209903684447408E9, 2021-05-14 13:06:08.444
31.0, -118.80914306640625, -43.56422424316406, 69.64628601074219, 181.7105255126953, 0.03200000151991844, -0.04800000041723251, 1.055999994277954, 0.0, 0.0, 0.0, 0.0, 0.0, 1.6209903684447408E9, 2021-05-14 13:06:08.444
32.0, -112.6607437133789, -50.35588455200195, 64.02147674560547, 165.26617431640625, 0.03200000151991844, -0.04800000041723251, 1.055999994277954, 0.0, 0.0, 0.0, 0.0, 0.0, 1.6209903684619594E9, 2021-05-14 13:06:08.461
32.0, -104.28337097167969, -35.82637023925781, 72.53349304199219, 189.94578552246094, 0.03200000151991844, -0.04800000041723251, 1.055999994277954, 0.0, 0.0, 0.0, 0.0, 0.0, 1.6209903684619594E9, 2021-05-14 13:06:08.461
33.0, -95.214111328125, -26.5439395904541, 77.836669921875, 198.49893188476562, 0.03200000151991844, -0.04800000041723251, 1.055999994277954, 0.0, 0.0, 0.0, 0.0, 0.0, 1.620990368462644E9, 2021-05-14 13:06:08.462
33.0, -113.0384750366211, -51.28711700439453, 67.29389190673828, 174.90016174316406, 0.03200000151991844, -0.04800000041723251, 1.055999994277954, 0.0, 0.0, 0.0, 0.0, 0.0, 1.620990368462644E9, 2021-05-14 13:06:08.462
34.0, -117.65351104736328, -62.09169006347656, 58.9688720703125, 167.68963623046875, 0.03200000151991844, -0.04800000041723251, 1.055999994277954, 0.0, 0.0, 0.0, 0.0, 0.0, 1.6209903684633985E9, 2021-05-14 13:06:08.463
34.0, -105.51753997802734, -39.59244918823242, 66.43745422363281, 192.376708984375, 0.03200000151991844, -0.04800000041723251, 1.055999994277954, 0.0, 0.0, 0.0, 0.0, 0.0, 1.6209903684633985E9, 2021-05-14 13:06:08.463
35.0, -95.1916732788086, -26.420522689819336, 81.4531478881836, 210.1449737548828, 0.03200000151991844, -0.04800000041723251, 1.055999994277954, 0.0, 0.0, 0.0, 0.0, 0.0, 1.6209903684641497E9, 2021-05-14 13:06:08.464
35.0, -108.61043548583984, -48.310157775878906, 65.4762954711914, 181.75914001464844, 0.03200000151991844, -0.04800000041723251, 1.055999994277954, 0.0, 0.0, 0.0, 0.0, 0.0, 1.6209903684641497E9, 2021-05-14 13:06:08.464
36.0, -125.91495513916016, -52.67087936401367, 63.70732498168945, 175.86878967285156, 0.03200000151991844, -0.04800000041723251, 1.055999994277954, 0.0, 0.0, 0.0, 0.0, 0.0, 1.6209903684742355E9, 2021-05-14 13:06:08.474
36.0, -110.390625, -33.126163482666016, 63.51285171508789, 198.08006286621094, 0.03200000151991844, -0.04800000041723251, 1.055999994277954, 0.0, 0.0, 0.0, 0.0, 0.0, 1.6209903684742355E9, 2021-05-14 13:06:08.474
37.0, -99.48507690429688, -27.59111213684082, 79.53458404541016, 219.2104949951172, 0.03200000151991844, -0.04800000041723251, 1.055999994277954, 0.0, 0.0, 0.0, 0.0, 0.0, 1.620990368489226E9, 2021-05-14 13:06:08.489
37.0, -122.67245483398438, -42.50957107543945, 61.433467864990234, 184.57528686523438, 0.03200000151991844, -0.04800000041723251, 1.055999994277954, 0.0, 0.0, 0.0, 0.0, 0.0, 1.620990368489226E9, 2021-05-14 13:06:08.489
38.0, -131.25552368164062, -60.37507629394531, 55.18783187866211, 169.9560089111328, 0.03200000151991844, -0.04800000041723251, 1.055999994277954, 0.0, 0.0, 0.0, 0.0, 0.0, 1.620990368505009E9, 2021-05-14 13:06:08.505
38.0, -109.28361511230469, -24.359838485717773, 71.10485076904297, 202.95689392089844, 0.03200000151991844, -0.04800000041723251, 1.055999994277954, 0.0, 0.0, 0.0, 0.0, 0.0, 1.620990368505009E9, 2021-05-14 13:06:08.505
39.0, -102.24138641357422, -26.469141006469727, 77.52999877929688, 212.482421875, 0.03200000151991844, -0.04800000041723251, 1.055999994277954, 0.0, 0.0, 0.0, 0.0, 0.0, 1.6209903685057192E9, 2021-05-14 13:06:08.505
39.0, -117.32440185546875, -53.85268783569336, 63.1126823425293, 181.0709991455078, 0.03200000151991844, -0.04800000041723251, 1.055999994277954, 0.0, 0.0, 0.0, 0.0, 0.0, 1.6209903685057192E9, 2021-05-14 13:06:08.505
40.0, -123.48401641845703, -58.1348762512207, 62.914466857910156, 169.78024291992188, 0.03200000151991844, -0.04800000041723251, 1.055999994277954, 0.0, 0.0, 0.0, 0.0, 0.0, 1.6209903685192404E9, 2021-05-14 13:06:08.519
40.0, -106.71804809570312, -39.62984848022461, 70.11751556396484, 194.9385528564453, 0.03200000151991844, -0.04800000041723251, 1.055999994277954, 0.0, 0.0, 0.0, 0.0, 0.0, 1.6209903685192404E9, 2021-05-14 13:06:08.519
41.0, -94.709228515625, -33.96390151977539, 80.34613800048828, 204.66229248046875, 0.03200000151991844, -0.04800000041723251, 1.055999994277954, 0.0, 0.0, 0.0, 0.0, 0.0, 1.620990368534889E9, 2021-05-14 13:06:08.534
41.0, -111.82300567626953, -45.43043518066406, 71.26192474365234, 179.42918395996094, 0.03200000151991844, -0.04800000041723251, 1.055999994277954, 0.0, 0.0, 0.0, 0.0, 0.0, 1.620990368534889E9, 2021-05-14 13:06:08.534
42.0, -119.7852554321289, -55.97321319580078, 60.25165939331055, 167.19970703125, 0.03200000151991844, -0.04800000041723251, 1.055999994277954, 0.0, 0.0, 0.0, 0.0, 0.0, 1.6209903685356E9, 2021-05-14 13:06:08.535
42.0, -104.50402069091797, -33.57869338989258, 70.08759307861328, 198.85047912597656, 0.03200000151991844, -0.04800000041723251, 1.055999994277954, 0.0, 0.0, 0.0, 0.0, 0.0, 1.6209903685356E9, 2021-05-14 13:06:08.535
43.0, -92.70089721679688, -25.62018394470215, 69.6500244140625, 201.9284210205078, 0.03200000151991844, -0.04800000041723251, 1.055999994277954, 0.0, 0.0, 0.0, 0.0, 0.0, 1.6209903685492132E9, 2021-05-14 13:06:08.549
43.0, -114.81492614746094, -49.398468017578125, 60.51719284057617, 183.40469360351562, 0.03200000151991844, -0.04800000041723251, 1.055999994277954, 0.0, 0.0, 0.0, 0.0, 0.0, 1.6209903685492132E9, 2021-05-14 13:06:08.549
44.0, -128.7984161376953, -50.38954162597656, 54.24911880493164, 170.90594482421875, 0.03200000151991844, -0.04800000041723251, 1.055999994277954, 0.0, 0.0, 0.0, 0.0, 0.0, 1.6209903685648513E9, 2021-05-14 13:06:08.564
44.0, -116.4717025756836, -30.504493713378906, 64.72084045410156, 186.71824645996094, 0.03200000151991844, -0.04800000041723251, 1.055999994277954, 0.0, 0.0, 0.0, 0.0, 0.0, 1.6209903685648513E9, 2021-05-14 13:06:08.564
45.0, -114.13800811767578, -33.01396560668945, 64.86295318603516, 201.8050079345703, 0.03200000151991844, -0.04800000041723251, 1.055999994277954, 0.0, 0.0, 0.0, 0.0, 0.0, 1.6209903685655668E9, 2021-05-14 13:06:08.565
45.0, -133.26385498046875, -38.11518859863281, 54.937259674072266, 174.05494689941406, 0.03200000151991844, -0.04800000041723251, 1.055999994277954, 0.0, 0.0, 0.0, 0.0, 0.0, 1.6209903685655668E9, 2021-05-14 13:06:08.565
46.0, -130.5262451171875, -48.72528839111328, 49.66026306152344, 167.98509216308594, 0.03200000151991844, -0.04800000041723251, 1.055999994277954, 0.0, 0.0, 0.0, 0.0, 0.0, 1.6209903685945787E9, 2021-05-14 13:06:08.594
46.0, -119.61695861816406, -30.399776458740234, 56.49305725097656, 198.5699920654297, 0.03200000151991844, -0.04800000041723251, 1.055999994277954, 0.0, 0.0, 0.0, 0.0, 0.0, 1.6209903685945787E9, 2021-05-14 13:06:08.594
47.0, -100.0273666381836, -27.086225509643555, 66.31029510498047, 210.21229553222656, 0.03200000151991844, -0.04800000041723251, 1.055999994277954, 0.0, 0.0, 0.0, 0.0, 0.0, 1.620990368611202E9, 2021-05-14 13:06:08.611
47.0, -118.2556381225586, -43.493167877197266, 57.30461883544922, 179.8779754638672, 0.03200000151991844, -0.04800000041723251, 1.055999994277954, 0.0, 0.0, 0.0, 0.0, 0.0, 1.620990368611202E9, 2021-05-14 13:06:08.611
48.0, -119.00735473632812, -43.089256286621094, 60.203041076660156, 175.2068328857422, 0.03200000151991844, -0.04800000041723251, 1.055999994277954, 0.0, 0.0, 0.0, 0.0, 0.0, 1.6209903686119118E9, 2021-05-14 13:06:08.611
48.0, -104.58256530761719, -27.000207901000977, 68.1428451538086, 192.18597412109375, 0.03200000151991844, -0.04800000041723251, 1.055999994277954, 0.0, 0.0, 0.0, 0.0, 0.0, 1.6209903686119118E9, 2021-05-14 13:06:08.611
49.0, -97.77220153808594, -16.636945724487305, 74.43335723876953, 202.84469604492188, 0.03200000151991844, -0.04800000041723251, 1.055999994277954, 0.0, 0.0, 0.0, 0.0, 0.0, 1.620990368625583E9, 2021-05-14 13:06:08.625
49.0, -122.43310546875, -41.9373664855957, 63.280975341796875, 175.58456420898438, 0.03200000151991844, -0.04800000041723251, 1.055999994277954, 0.0, 0.0, 0.0, 0.0, 0.0, 1.620990368625583E9, 2021-05-14 13:06:08.625
50.0, -125.41754150390625, -50.883209228515625, 57.78706359863281, 171.70254516601562, 0.03200000151991844, -0.04800000041723251, 1.055999994277954, 0.0, 0.0, 0.0, 0.0, 0.0, 1.6209903686263344E9, 2021-05-14 13:06:08.626
50.0, -111.90528869628906, -32.38566207885742, 69.2461166381836, 203.04290771484375, 0.03200000151991844, -0.04800000041723251, 1.055999994277954, 0.0, 0.0, 0.0, 0.0, 0.0, 1.6209903686263344E9, 2021-05-14 13:06:08.626
51.0, -102.20772552490234, -24.2551212310791, 71.8154296875, 209.8121337890625, 0.03200000151991844, -0.06400000303983688, 1.055999994277954, 0.0, 0.0, 0.0, 0.0, 0.0, 1.6209903686270459E9, 2021-05-14 13:06:08.627
51.0, -125.1856689453125, -42.74518585205078, 58.71455764770508, 180.6296844482422, 0.03200000151991844, -0.06400000303983688, 1.055999994277954, 0.0, 0.0, 0.0, 0.0, 0.0, 1.6209903686270459E9, 2021-05-14 13:06:08.627
52.0, -129.32200622558594, -41.238006591796875, 60.584510803222656, 178.83453369140625, 0.03200000151991844, -0.06400000303983688, 1.055999994277954, 0.0, 0.0, 0.0, 0.0, 0.0, 1.6209903686393127E9, 2021-05-14 13:06:08.639
52.0, -114.13800811767578, -28.739261627197266, 70.56256103515625, 200.7353973388672, 0.03200000151991844, -0.06400000303983688, 1.055999994277954, 0.0, 0.0, 0.0, 0.0, 0.0, 1.6209903686393127E9, 2021-05-14 13:06:08.639
53.0, -104.21979522705078, -23.709095001220703, 75.62265014648438, 215.63514709472656, 0.03200000151991844, -0.06400000303983688, 1.055999994277954, 0.0, 0.0, 0.0, 0.0, 0.0, 1.6209903686549327E9, 2021-05-14 13:06:08.654
53.0, -130.41030883789062, -50.643856048583984, 65.89891052246094, 185.45042419433594, 0.03200000151991844, -0.06400000303983688, 1.055999994277954, 0.0, 0.0, 0.0, 0.0, 0.0, 1.6209903686549327E9, 2021-05-14 13:06:08.654
54.0, -125.03233337402344, -48.212921142578125, 64.03643798828125, 182.18548583984375, 0.03200000151991844, -0.06400000303983688, 1.055999994277954, 0.0, 0.0, 0.0, 0.0, 0.0, 1.620990368655678E9, 2021-05-14 13:06:08.655
54.0, -105.95136260986328, -33.511375427246094, 68.44951629638672, 206.35272216796875, 0.03200000151991844, -0.06400000303983688, 1.055999994277954, 0.0, 0.0, 0.0, 0.0, 0.0, 1.620990368655678E9, 2021-05-14 13:06:08.655
55.0, -107.12195587158203, -30.253921508789062, 75.43939208984375, 213.01348876953125, 0.03200000151991844, -0.06400000303983688, 1.055999994277954, 0.0, 0.0, 0.0, 0.0, 0.0, 1.6209903686692455E9, 2021-05-14 13:06:08.669
55.0, -118.15840148925781, -51.80322265625, 61.78501892089844, 178.10525512695312, 0.03200000151991844, -0.06400000303983688, 1.055999994277954, 0.0, 0.0, 0.0, 0.0, 0.0, 1.6209903686692455E9, 2021-05-14 13:06:08.669
56.0, -119.33272552490234, -51.212318420410156, 57.66364669799805, 172.94793701171875, 0.03200000151991844, -0.06400000303983688, 1.055999994277954, 0.0, 0.0, 0.0, 0.0, 0.0, 1.6209903686849375E9, 2021-05-14 13:06:08.684
56.0, -103.03050231933594, -32.20988845825195, 66.88249969482422, 190.9480743408203, 0.03200000151991844, -0.06400000303983688, 1.055999994277954, 0.0, 0.0, 0.0, 0.0, 0.0, 1.6209903686849375E9, 2021-05-14 13:06:08.684
57.0, -97.68618774414062, -23.645517349243164, 72.83267974853516, 203.49169921875, 0.03200000151991844, -0.06400000303983688, 1.055999994277954, 0.0, 0.0, 0.0, 0.0, 0.0, 1.6209903686856618E9, 2021-05-14 13:06:08.685
57.0, -117.88164520263672, -39.78318405151367, 63.232357025146484, 174.35040283203125, 0.03200000151991844, -0.06400000303983688, 1.055999994277954, 0.0, 0.0, 0.0, 0.0, 0.0, 1.6209903686856618E9, 2021-05-14 13:06:08.685
58.0, -128.08782958984375, -45.149940490722656, 52.58112335205078, 166.79205322265625, 0.03200000151991844, -0.06400000303983688, 1.055999994277954, 0.0, 0.0, 0.0, 0.0, 0.0, 1.6209903686992865E9, 2021-05-14 13:06:08.699
58.0, -105.16224670410156, -32.69981384277344, 63.995296478271484, 189.7026824951172, 0.03200000151991844, -0.06400000303983688, 1.055999994277954, 0.0, 0.0, 0.0, 0.0, 0.0, 1.6209903686992865E9, 2021-05-14 13:06:08.699
59.0, -105.45770263671875, -23.106971740722656, 70.71963500976562, 206.5471954345703, 0.03200000151991844, -0.06400000303983688, 1.055999994277954, 0.0, 0.0, 0.0, 0.0, 0.0, 1.620990368714928E9, 2021-05-14 13:06:08.714
59.0, -117.33936309814453, -42.326316833496094, 61.051998138427734, 178.8158416748047, 0.03200000151991844, -0.06400000303983688, 1.055999994277954, 0.0, 0.0, 0.0, 0.0, 0.0, 1.620990368714928E9, 2021-05-14 13:06:08.714
60.0, -130.1036376953125, -48.396175384521484, 52.99999237060547, 166.2310791015625, 0.03200000151991844, -0.06400000303983688, 1.055999994277954, 0.0, 0.0, 0.0, 0.0, 0.0, 1.6209903687156792E9, 2021-05-14 13:06:08.715
60.0, -121.6477279663086, -20.952789306640625, 60.146942138671875, 190.24496459960938, 0.03200000151991844, -0.06400000303983688, 1.055999994277954, 0.0, 0.0, 0.0, 0.0, 0.0, 1.6209903687156792E9, 2021-05-14 13:06:08.715
61.0, -107.7427749633789, -26.801992416381836, 72.63446807861328, 200.58953857421875, 0.03200000151991844, -0.04800000041723251, 1.055999994277954, 0.0, 0.0, 0.0, 0.0, 0.0, 1.6209903687448695E9, 2021-05-14 13:06:08.744
61.0, -121.25129699707031, -46.440208435058594, 63.69610595703125, 172.0765380859375, 0.03200000151991844, -0.04800000041723251, 1.055999994277954, 0.0, 0.0, 0.0, 0.0, 0.0, 1.6209903687448695E9, 2021-05-14 13:06:08.744
62.0, -127.25757598876953, -43.99805450439453, 62.94438552856445, 170.06446838378906, 0.03200000151991844, -0.04800000041723251, 1.055999994277954, 0.0, 0.0, 0.0, 0.0, 0.0, 1.6209903687612655E9, 2021-05-14 13:06:08.761
62.0, -102.87716674804688, -27.71826934814453, 67.71649932861328, 194.4598388671875, 0.03200000151991844, -0.04800000041723251, 1.055999994277954, 0.0, 0.0, 0.0, 0.0, 0.0, 1.6209903687612655E9, 2021-05-14 13:06:08.761
63.0, -101.0932388305664, -26.85061264038086, 75.75728607177734, 203.0316925048828, 0.03200000151991844, -0.04800000041723251, 1.055999994277954, 0.0, 0.0, 0.0, 0.0, 0.0, 1.6209903687619753E9, 2021-05-14 13:06:08.761
63.0, -113.64807891845703, -45.89418411254883, 68.44951629638672, 177.04312133789062, 0.03200000151991844, -0.04800000041723251, 1.055999994277954, 0.0, 0.0, 0.0, 0.0, 0.0, 1.6209903687619753E9, 2021-05-14 13:06:08.761
64.0, -121.68512725830078, -51.272159576416016, 55.28133010864258, 165.87203979492188, 0.03200000151991844, -0.04800000041723251, 1.055999994277954, 0.0, 0.0, 0.0, 0.0, 0.0, 1.6209903687627282E9, 2021-05-14 13:06:08.762
64.0, -107.7390365600586, -31.465648651123047, 62.67885208129883, 193.51364135742188, 0.03200000151991844, -0.04800000041723251, 1.055999994277954, 0.0, 0.0, 0.0, 0.0, 0.0, 1.6209903687627282E9, 2021-05-14 13:06:08.762
65.0, -105.73445129394531, -21.00514793395996, 72.60828399658203, 204.4640655517578, 0.03200000151991844, -0.04800000041723251, 1.055999994277954, 0.0, 0.0, 0.0, 0.0, 0.0, 1.6209903687634544E9, 2021-05-14 13:06:08.763
65.0, -119.33272552490234, -38.900569915771484, 63.13886260986328, 179.17112731933594, 0.03200000151991844, -0.04800000041723251, 1.055999994277954, 0.0, 0.0, 0.0, 0.0, 0.0, 1.6209903687634544E9, 2021-05-14 13:06:08.763
66.0, -124.00760650634766, -49.25261306762695, 59.051151275634766, 170.13552856445312, 0.03200000151991844, -0.04800000041723251, 1.055999994277954, 0.0, 0.0, 0.0, 0.0, 0.0, 1.6209903687742505E9, 2021-05-14 13:06:08.774
66.0, -112.6196060180664, -35.25790786743164, 60.760284423828125, 195.0507354736328, 0.03200000151991844, -0.04800000041723251, 1.055999994277954, 0.0, 0.0, 0.0, 0.0, 0.0, 1.6209903687742505E9, 2021-05-14 13:06:08.774
67.0, -110.7945327758789, -24.378538131713867, 71.08615112304688, 206.59207153320312, 0.03200000151991844, -0.04800000041723251, 1.055999994277954, 0.0, 0.0, 0.0, 0.0, 0.0, 1.620990368789274E9, 2021-05-14 13:06:08.789
67.0, -119.63939666748047, -34.180816650390625, 59.791648864746094, 183.6178741455078, 0.03200000151991844, -0.04800000041723251, 1.055999994277954, 0.0, 0.0, 0.0, 0.0, 0.0, 1.620990368789274E9, 2021-05-14 13:06:08.789
68.0, -131.165771484375, -48.500892639160156, 50.15018844604492, 168.99485778808594, 0.03200000151991844, -0.04800000041723251, 1.055999994277954, 0.0, 0.0, 0.0, 0.0, 0.0, 1.6209903688195815E9, 2021-05-14 13:06:08.819
68.0, -110.53274536132812, -21.121084213256836, 71.34420013427734, 196.71873474121094, 0.03200000151991844, -0.04800000041723251, 1.055999994277954, 0.0, 0.0, 0.0, 0.0, 0.0, 1.6209903688195815E9, 2021-05-14 13:06:08.819
69.0, -105.14354705810547, -25.721162796020508, 70.50646209716797, 198.51388549804688, 0.03200000151991844, -0.04800000041723251, 1.055999994277954, 0.0, 0.0, 0.0, 0.0, 0.0, 1.6209903688364604E9, 2021-05-14 13:06:08.836
69.0, -118.09481811523438, -48.46723175048828, 63.479190826416016, 173.03768920898438, 0.03200000151991844, -0.04800000041723251, 1.055999994277954, 0.0, 0.0, 0.0, 0.0, 0.0, 1.6209903688364604E9, 2021-05-14 13:06:08.836
70.0, -121.41585540771484, -46.70199966430664, 62.60779571533203, 171.07798767089844, 0.03200000151991844, -0.04800000041723251, 1.055999994277954, 0.0, 0.0, 0.0, 0.0, 0.0, 1.6209903688370843E9, 2021-05-14 13:06:08.837
70.0, -105.94014739990234, -35.897430419921875, 67.0021743774414, 182.4622344970703, 0.03200000151991844, -0.04800000041723251, 1.055999994277954, 0.0, 0.0, 0.0, 0.0, 0.0, 1.6209903688370843E9, 2021-05-14 13:06:08.837
71.0, -97.0990219116211, -21.865325927734375, 73.39740753173828, 191.9690704345703, 0.03200000151991844, -0.04800000041723251, 1.055999994277954, 0.0, 0.0, 0.0, 0.0, 0.0, 1.6209903688513277E9, 2021-05-14 13:06:08.851
71.0, -114.8635482788086, -46.31304931640625, 62.79104995727539, 167.05758666992188, 0.03200000151991844, -0.04800000041723251, 1.055999994277954, 0.0, 0.0, 0.0, 0.0, 0.0, 1.6209903688513277E9, 2021-05-14 13:06:08.851
72.0, -118.78670501708984, -44.9255485534668, 56.92688751220703, 165.40455627441406, 0.03200000151991844, -0.04800000041723251, 1.055999994277954, 0.0, 0.0, 0.0, 0.0, 0.0, 1.6209903688520463E9, 2021-05-14 13:06:08.852
72.0, -107.5370864868164, -29.457321166992188, 61.02955627441406, 193.0947723388672, 0.03200000151991844, -0.04800000041723251, 1.055999994277954, 0.0, 0.0, 0.0, 0.0, 0.0, 1.6209903688520463E9, 2021-05-14 13:06:08.852
73.0, -101.94593048095703, -22.329072952270508, 68.00820922851562, 199.01502990722656, 0.03200000151991844, -0.04800000041723251, 1.055999994277954, 0.0, 0.0, 0.0, 0.0, 0.0, 1.6209903688528712E9, 2021-05-14 13:06:08.852
73.0, -110.03533935546875, -38.002994537353516, 67.76885986328125, 184.51170349121094, 0.03200000151991844, -0.04800000041723251, 1.055999994277954, 0.0, 0.0, 0.0, 0.0, 0.0, 1.6209903688528712E9, 2021-05-14 13:06:08.852
74.0, -120.25274658203125, -45.591251373291016, 55.47954559326172, 173.47900390625, 0.03200000151991844, -0.04800000041723251, 1.055999994277954, 0.0, 0.0, 0.0, 0.0, 0.0, 1.6209903688535793E9, 2021-05-14 13:06:08.853
74.0, -110.3719253540039, -25.680023193359375, 63.55773162841797, 197.0441131591797, 0.03200000151991844, -0.04800000041723251, 1.055999994277954, 0.0, 0.0, 0.0, 0.0, 0.0, 1.6209903688535793E9, 2021-05-14 13:06:08.853
75.0, -110.648681640625, -18.622831344604492, 76.81193542480469, 209.14642333984375, 0.03200000151991844, -0.04800000041723251, 1.055999994277954, 0.0, 0.0, 0.0, 0.0, 0.0, 1.6209903688641624E9, 2021-05-14 13:06:08.864
75.0, -125.61576080322266, -37.19891357421875, 63.37821578979492, 182.6380157470703, 0.03200000151991844, -0.04800000041723251, 1.055999994277954, 0.0, 0.0, 0.0, 0.0, 0.0, 1.6209903688641624E9, 2021-05-14 13:06:08.864
76.0, -128.55532836914062, -38.425601959228516, 61.74013900756836, 171.74368286132812, 0.03200000151991844, -0.04800000041723251, 1.055999994277954, 0.0, 0.0, 0.0, 0.0, 0.0, 1.6209903688793032E9, 2021-05-14 13:06:08.879
76.0, -107.15935516357422, -17.710296630859375, 68.845947265625, 192.23085021972656, 0.03200000151991844, -0.04800000041723251, 1.055999994277954, 0.0, 0.0, 0.0, 0.0, 0.0, 1.6209903688793032E9, 2021-05-14 13:06:08.879
77.0, -100.48363494873047, -18.58917236328125, 76.47908782958984, 202.6726531982422, 0.03200000151991844, -0.04800000041723251, 1.055999994277954, 0.0, 0.0, 0.0, 0.0, 0.0, 1.6209903688949428E9, 2021-05-14 13:06:08.894
77.0, -118.58848571777344, -39.469032287597656, 64.76945495605469, 170.95831298828125, 0.03200000151991844, -0.04800000041723251, 1.055999994277954, 0.0, 0.0, 0.0, 0.0, 0.0, 1.6209903688949428E9, 2021-05-14 13:06:08.894
78.0, -119.0223159790039, -40.50498580932617, 66.51225280761719, 160.6361846923828, 0.03200000151991844, -0.04800000041723251, 1.055999994277954, 0.0, 0.0, 0.0, 0.0, 0.0, 1.6209903688956215E9, 2021-05-14 13:06:08.895
78.0, -99.6084976196289, -28.82901954650879, 66.5346908569336, 187.69436645507812, 0.03200000151991844, -0.04800000041723251, 1.055999994277954, 0.0, 0.0, 0.0, 0.0, 0.0, 1.6209903688956215E9, 2021-05-14 13:06:08.895
79.0, -112.42513275146484, -27.53501319885254, 71.69200897216797, 196.55792236328125, 0.03200000151991844, -0.04800000041723251, 1.055999994277954, 0.0, 0.0, 0.0, 0.0, 0.0, 1.620990368925724E9, 2021-05-14 13:06:08.925
79.0, -121.90203857421875, -40.66954040527344, 62.443241119384766, 173.4378662109375, 0.03200000151991844, -0.04800000041723251, 1.055999994277954, 0.0, 0.0, 0.0, 0.0, 0.0, 1.620990368925724E9, 2021-05-14 13:06:08.925
80.0, -114.49329376220703, -40.55360412597656, 59.88514709472656, 169.1893310546875, 0.03200000151991844, -0.04800000041723251, 1.055999994277954, 0.0, 0.0, 0.0, 0.0, 0.0, 1.620990368926274E9, 2021-05-14 13:06:08.926
80.0, -102.32366180419922, -21.644670486450195, 71.46387481689453, 193.68194580078125, 0.03200000151991844, -0.04800000041723251, 1.055999994277954, 0.0, 0.0, 0.0, 0.0, 0.0, 1.620990368926274E9, 2021-05-14 13:06:08.926
81.0, -99.73564910888672, -19.714881896972656, 78.18074035644531, 214.5580596923828, 0.03200000151991844, -0.04800000041723251, 1.055999994277954, 0.0, 0.0, 0.0, 0.0, 0.0, 1.6209903689270198E9, 2021-05-14 13:06:08.927
81.0, -125.10713195800781, -43.152835845947266, 70.48776245117188, 183.24014282226562, 0.03200000151991844, -0.04800000041723251, 1.055999994277954, 0.0, 0.0, 0.0, 0.0, 0.0, 1.6209903689270198E9, 2021-05-14 13:06:08.927
82.0, -133.6154022216797, -49.0207405090332, 59.623355865478516, 174.9637451171875, 0.03200000151991844, -0.04800000041723251, 1.055999994277954, 0.0, 0.0, 0.0, 0.0, 0.0, 1.6209903689393127E9, 2021-05-14 13:06:08.939
82.0, -114.51199340820312, -24.741308212280273, 73.52830505371094, 203.749755859375, 0.03200000151991844, -0.04800000041723251, 1.055999994277954, 0.0, 0.0, 0.0, 0.0, 0.0, 1.6209903689393127E9, 2021-05-14 13:06:08.939
83.0, -105.62225341796875, -24.60293197631836, 81.42323303222656, 216.4990692138672, 0.03200000151991844, -0.04800000041723251, 1.055999994277954, 0.0, 0.0, 0.0, 0.0, 0.0, 1.620990368955066E9, 2021-05-14 13:06:08.955
83.0, -131.5846405029297, -44.64505386352539, 67.43600463867188, 185.768310546875, 0.03200000151991844, -0.04800000041723251, 1.055999994277954, 0.0, 0.0, 0.0, 0.0, 0.0, 1.620990368955066E9, 2021-05-14 13:06:08.955
84.0, -127.75872039794922, -47.42753982543945, 65.6894760131836, 175.90992736816406, 0.03200000151991844, -0.04800000041723251, 1.055999994277954, 0.0, 0.0, 0.0, 0.0, 0.0, 1.620990368955652E9, 2021-05-14 13:06:08.955
84.0, -107.16309356689453, -23.398683547973633, 75.41695404052734, 195.4359588623047, 0.03200000151991844, -0.04800000041723251, 1.055999994277954, 0.0, 0.0, 0.0, 0.0, 0.0, 1.620990368955652E9, 2021-05-14 13:06:08.955
85.0, -95.13931274414062, -27.621030807495117, 84.95743560791016, 206.449951171875, 0.03200000151991844, -0.04800000041723251, 1.055999994277954, 0.0, 0.0, 0.0, 0.0, 0.0, 1.620990368985292E9, 2021-05-14 13:06:08.985
85.0, -123.67101287841797, -43.94195556640625, 72.64942932128906, 170.15048217773438, 0.03200000151991844, -0.04800000041723251, 1.055999994277954, 0.0, 0.0, 0.0, 0.0, 0.0, 1.620990368985292E9, 2021-05-14 13:06:08.985
86.0, -122.05911254882812, -42.158023834228516, 64.48522186279297, 161.3392791748047, 0.03200000151991844, -0.04800000041723251, 1.055999994277954, 0.0, 0.0, 0.0, 0.0, 0.0, 1.6209903689860413E9, 2021-05-14 13:06:08.986
86.0, -96.15657043457031, -19.85325813293457, 77.72447204589844, 192.2570343017578, 0.03200000151991844, -0.04800000041723251, 1.055999994277954, 0.0, 0.0, 0.0, 0.0, 0.0, 1.6209903689860413E9, 2021-05-14 13:06:08.986
87.0, -94.08092498779297, -11.531981468200684, 86.41973876953125, 206.5023193359375, 0.03200000151991844, -0.04800000041723251, 1.055999994277954, 0.0, 0.0, 0.0, 0.0, 0.0, 1.620990369000316E9, 2021-05-14 13:06:09.000
87.0, -111.1722640991211, -30.478315353393555, 75.18133544921875, 181.0298614501953, 0.03200000151991844, -0.04800000041723251, 1.055999994277954, 0.0, 0.0, 0.0, 0.0, 0.0, 1.620990369000316E9, 2021-05-14 13:06:09.000
88.0, -120.82868957519531, -42.76014709472656, 66.55712890625, 166.58262634277344, 0.03200000151991844, -0.04800000041723251, 1.055999994277954, 0.0, 0.0, 0.0, 0.0, 0.0, 1.6209903690155945E9, 2021-05-14 13:06:09.015
88.0, -102.30496215820312, -16.693042755126953, 78.58464813232422, 192.7694091796875, 0.03200000151991844, -0.04800000041723251, 1.055999994277954, 0.0, 0.0, 0.0, 0.0, 0.0, 1.6209903690155945E9, 2021-05-14 13:06:09.015
89.0, -99.82914733886719, -9.071126937866211, 80.25638580322266, 207.22412109375, 0.03200000151991844, -0.04800000041723251, 1.055999994277954, 0.0, 0.0, 0.0, 0.0, 0.0, 1.620990369016448E9, 2021-05-14 13:06:09.016
89.0, -119.94981384277344, -24.314960479736328, 77.70951080322266, 179.5675506591797, 0.03200000151991844, -0.04800000041723251, 1.055999994277954, 0.0, 0.0, 0.0, 0.0, 0.0, 1.620990369016448E9, 2021-05-14 13:06:09.016
90.0, -132.57571411132812, -36.05076599121094, 73.53578186035156, 173.23590087890625, 0.03200000151991844, -0.04800000041723251, 1.055999994277954, 0.0, 0.0, 0.0, 0.0, 0.0, 1.6209903690170524E9, 2021-05-14 13:06:09.017
90.0, -122.55278015136719, -11.01213550567627, 78.35277557373047, 188.74526977539062, 0.03200000151991844, -0.04800000041723251, 1.055999994277954, 0.0, 0.0, 0.0, 0.0, 0.0, 1.6209903690170524E9, 2021-05-14 13:06:09.017
91.0, -111.12364959716797, -2.735736846923828, 83.43904113769531, 201.93589782714844, 0.03200000151991844, -0.04800000041723251, 1.055999994277954, 0.0, 0.0, 0.0, 0.0, 0.0, 1.6209903690291584E9, 2021-05-14 13:06:09.029
91.0, -117.81058502197266, -27.819246292114258, 74.04814910888672, 181.16448974609375, 0.03200000151991844, -0.04800000041723251, 1.055999994277954, 0.0, 0.0, 0.0, 0.0, 0.0, 1.6209903690291584E9, 2021-05-14 13:06:09.029
92.0, -123.48775482177734, -33.38795852661133, 62.21510696411133, 166.6050567626953, 0.03200000151991844, -0.04800000041723251, 1.055999994277954, 0.0, 0.0, 0.0, 0.0, 0.0, 1.620990369060528E9, 2021-05-14 13:06:09.060
92.0, -100.14704132080078, -19.393251419067383, 71.72193145751953, 188.17306518554688, 0.03200000151991844, -0.04800000041723251, 1.055999994277954, 0.0, 0.0, 0.0, 0.0, 0.0, 1.620990369060528E9, 2021-05-14 13:06:09.060
93.0, -95.63298034667969, -11.786294937133789, 83.18098449707031, 198.42039489746094, 0.03200000151991844, -0.04800000041723251, 1.055999994277954, 0.0, 0.0, 0.0, 0.0, 0.0, 1.6209903690919576E9, 2021-05-14 13:06:09.091
93.0, -118.2182388305664, -21.65589141845703, 74.74002838134766, 168.6881866455078, 0.03200000151991844, -0.04800000041723251, 1.055999994277954, 0.0, 0.0, 0.0, 0.0, 0.0, 1.6209903690919576E9, 2021-05-14 13:06:09.091
94.0, -124.74810028076172, -30.055706024169922, 65.64833068847656, 160.8792724609375, 0.03200000151991844, -0.04800000041723251, 1.055999994277954, 0.0, 0.0, 0.0, 0.0, 0.0, 1.6209903690927372E9, 2021-05-14 13:06:09.092
94.0, -102.35358428955078, -7.799561500549316, 75.11028289794922, 194.06341552734375, 0.03200000151991844, -0.04800000041723251, 1.055999994277954, 0.0, 0.0, 0.0, 0.0, 0.0, 1.6209903690927372E9, 2021-05-14 13:06:09.092
95.0, -96.62405395507812, -6.1203460693359375, 81.0118408203125, 201.44970703125, 0.03200000151991844, -0.04800000041723251, 1.055999994277954, 0.0, 0.0, 0.0, 0.0, 0.0, 1.6209903690934591E9, 2021-05-14 13:06:09.093
95.0, -109.34719848632812, -18.34981918334961, 73.18048858642578, 169.88494873046875, 0.03200000151991844, -0.04800000041723251, 1.055999994277954, 0.0, 0.0, 0.0, 0.0, 0.0, 1.6209903690934591E9, 2021-05-14 13:06:09.093
96.0, -121.19893646240234, -31.779800415039062, 59.989864349365234, 163.6842041015625, 0.03200000151991844, -0.04800000041723251, 1.055999994277954, 0.0, 0.0, 0.0, 0.0, 0.0, 1.6209903691226263E9, 2021-05-14 13:06:09.122
96.0, -103.68124389648438, -11.599299430847168, 75.24491882324219, 197.52655029296875, 0.03200000151991844, -0.04800000041723251, 1.055999994277954, 0.0, 0.0, 0.0, 0.0, 0.0, 1.6209903691226263E9, 2021-05-14 13:06:09.122
97.0, -105.3492431640625, -6.550434589385986, 85.73907470703125, 207.3512725830078, 0.03200000151991844, -0.04800000041723251, 1.055999994277954, 0.0, 0.0, 0.0, 0.0, 0.0, 1.6209903691233668E9, 2021-05-14 13:06:09.123
97.0, -119.22801208496094, -23.67169761657715, 73.03463745117188, 184.35462951660156, 0.03200000151991844, -0.04800000041723251, 1.055999994277954, 0.0, 0.0, 0.0, 0.0, 0.0, 1.6209903691233668E9, 2021-05-14 13:06:09.123
98.0, -123.21100616455078, -24.89090347290039, 65.82411193847656, 175.05349731445312, 0.03200000151991844, -0.04800000041723251, 1.055999994277954, 0.0, 0.0, 0.0, 0.0, 0.0, 1.6209903691240983E9, 2021-05-14 13:06:09.124
98.0, -109.62020874023438, -16.61076545715332, 78.37895202636719, 194.75155639648438, 0.03200000151991844, -0.04800000041723251, 1.055999994277954, 0.0, 0.0, 0.0, 0.0, 0.0, 1.6209903691240983E9, 2021-05-14 13:06:09.124
99.0, -99.25694274902344, -2.922731876373291, 87.3958511352539, 216.14378356933594, 0.03200000151991844, -0.04800000041723251, 1.055999994277954, 0.0, 0.0, 0.0, 0.0, 0.0, 1.620990369124853E9, 2021-05-14 13:06:09.124
99.0, -114.17914581298828, -22.68810272216797, 67.58560180664062, 178.10525512695312, 0.03200000151991844, -0.04800000041723251, 1.055999994277954, 0.0, 0.0, 0.0, 0.0, 0.0, 1.620990369124853E9, 2021-05-14 13:06:09.124
100.0, -117.18228912353516, -30.97572135925293, 62.809749603271484, 167.79061889648438, 0.03200000151991844, -0.04800000041723251, 1.055999994277954, 0.0, 0.0, 0.0, 0.0, 0.0, 1.620990369135985E9, 2021-05-14 13:06:09.135
100.0, -102.7799301147461, -8.229649543762207, 82.85187530517578, 197.5976104736328, 0.03200000151991844, -0.04800000041723251, 1.055999994277954, 0.0, 0.0, 0.0, 0.0, 0.0, 1.620990369135985E9, 2021-05-14 13:06:09.135
0.0, -98.92970275878906, -9.65455150604248, 83.75879669189453, 202.75306701660156, 0.03200000151991844, -0.04800000041723251, 1.055999994277954, 0.0, 0.0, 0.0, 0.0, 0.0, 1.62099036913678E9, 2021-05-14 13:06:09.136
1.0, -100.44062042236328, -33.234619140625, 74.16969299316406, 183.29063415527344, 0.03200000151991844, -0.04800000041723251, 1.055999994277954, 0.0, 0.0, 0.0, 0.0, 0.0, 1.6209903691374593E9, 2021-05-14 13:06:09.137
1.0, -123.49337005615234, -37.58038330078125, 59.71124267578125, 165.4999237060547, 0.03200000151991844, -0.04800000041723251, 1.055999994277954, 0.0, 0.0, 0.0, 0.0, 0.0, 1.6209903691374593E9, 2021-05-14 13:06:09.137
2.0, -111.30876922607422, -1.0677413940429688, 74.84288024902344, 191.95223999023438, 0.03200000151991844, -0.04800000041723251, 1.055999994277954, 0.0, 0.0, 0.0, 0.0, 0.0, 1.6209903691498823E9, 2021-05-14 13:06:09.149
2.0, -98.85116577148438, -7.137598991394043, 86.8853530883789, 209.30911254882812, 0.03200000151991844, -0.04800000041723251, 1.055999994277954, 0.0, 0.0, 0.0, 0.0, 0.0, 1.6209903691498823E9, 2021-05-14 13:06:09.149
3.0, -120.62860107421875, -29.868711471557617, 78.0068359375, 182.1275177001953, 0.03200000151991844, -0.04800000041723251, 1.055999994277954, 0.0, 0.0, 0.0, 0.0, 0.0, 1.6209903691506598E9, 2021-05-14 13:06:09.150
3.0, -119.94419860839844, -38.896827697753906, 75.14581298828125, 173.46591186523438, 0.03200000151991844, -0.04800000041723251, 1.055999994277954, 0.0, 0.0, 0.0, 0.0, 0.0, 1.6209903691506598E9, 2021-05-14 13:06:09.150
4.0, -111.58552551269531, -11.135552406311035, 81.12590789794922, 195.75570678710938, 0.03200000151991844, -0.04800000041723251, 1.055999994277954, 0.0, 0.0, 0.0, 0.0, 0.0, 1.6209903691806164E9, 2021-05-14 13:06:09.180
4.0, -117.61050415039062, -3.195744514465332, 83.0669174194336, 204.78756713867188, 0.03200000151991844, -0.04800000041723251, 1.055999994277954, 0.0, 0.0, 0.0, 0.0, 0.0, 1.6209903691806164E9, 2021-05-14 13:06:09.180
5.0, -126.73211669921875, -15.066186904907227, 85.03036499023438, 184.12461853027344, 0.03200000151991844, -0.04800000041723251, 1.055999994277954, 0.0, 0.0, 0.0, 0.0, 0.0, 1.6209903691813128E9, 2021-05-14 13:06:09.181
5.0, -135.38624572753906, -25.478069305419922, 77.20275115966797, 176.8692169189453, 0.03200000151991844, -0.04800000041723251, 1.055999994277954, 0.0, 0.0, 0.0, 0.0, 0.0, 1.6209903691813128E9, 2021-05-14 13:06:09.181
6.0, -110.31769561767578, -9.074867248535156, 86.7208023071289, 203.3664093017578, 0.03200000151991844, -0.04800000041723251, 1.055999994277954, 0.0, 0.0, 0.0, 0.0, 0.0, 1.6209903691820996E9, 2021-05-14 13:06:09.182
6.0, -96.79048156738281, -8.113713264465332, 94.98971557617188, 216.7702178955078, 0.03200000151991844, -0.04800000041723251, 1.055999994277954, 0.0, 0.0, 0.0, 0.0, 0.0, 1.6209903691820996E9, 2021-05-14 13:06:09.182
7.0, -121.20829010009766, -29.692935943603516, 83.4932632446289, 181.08782958984375, 0.03200000151991844, -0.04800000041723251, 1.055999994277954, 0.0, 0.0, 0.0, 0.0, 0.0, 1.620990369194179E9, 2021-05-14 13:06:09.194
7.0, -120.23591613769531, -28.754220962524414, 80.62102508544922, 177.47882080078125, 0.03200000151991844, -0.04800000041723251, 1.055999994277954, 0.0, 0.0, 0.0, 0.0, 0.0, 1.620990369194179E9, 2021-05-14 13:06:09.194
8.0, -103.27920532226562, -9.52365493774414, 84.6376724243164, 200.0491180419922, 0.03200000151991844, -0.04800000041723251, 1.055999994277954, 0.0, 0.0, 0.0, 0.0, 0.0, 1.620990369209911E9, 2021-05-14 13:06:09.209
8.0, -101.36064147949219, -14.725855827331543, 91.0403823852539, 213.05274963378906, 0.03200000151991844, -0.04800000041723251, 1.055999994277954, 0.0, 0.0, 0.0, 0.0, 0.0, 1.620990369209911E9, 2021-05-14 13:06:09.209
9.0, -105.95323944091797, -35.231727600097656, 84.21880340576172, 185.39993286132812, 0.03200000151991844, -0.04800000041723251, 1.055999994277954, 0.0, 0.0, 0.0, 0.0, 0.0, 1.6209903692107584E9, 2021-05-14 13:06:09.210
9.0, -120.66600036621094, -32.92047119140625, 77.38227081298828, 172.5084991455078, 0.03200000151991844, -0.04800000041723251, 1.055999994277954, 0.0, 0.0, 0.0, 0.0, 0.0, 1.6209903692107584E9, 2021-05-14 13:06:09.210
10.0, -98.63799285888672, -9.42641830444336, 91.94544219970703, 203.2355194091797, 0.03200000151991844, -0.04800000041723251, 1.055999994277954, 0.0, 0.0, 0.0, 0.0, 0.0, 1.620990369241002E9, 2021-05-14 13:06:09.241
10.0, -97.78903198242188, -11.423524856567383, 88.94978332519531, 207.74583435058594, 0.03200000151991844, -0.04800000041723251, 1.055999994277954, 0.0, 0.0, 0.0, 0.0, 0.0, 1.620990369241002E9, 2021-05-14 13:06:09.241
11.0, -116.03226470947266, -35.96848678588867, 80.90525817871094, 185.0970001220703, 0.03200000151991844, -0.04800000041723251, 1.055999994277954, 0.0, 0.0, 0.0, 0.0, 0.0, 1.6209903692413554E9, 2021-05-14 13:06:09.241
11.0, -121.7804946899414, -40.7705192565918, 68.9936752319336, 171.70816040039062, 0.03200000151991844, -0.04800000041723251, 1.055999994277954, 0.0, 0.0, 0.0, 0.0, 0.0, 1.6209903692413554E9, 2021-05-14 13:06:09.241
12.0, -109.46126556396484, -16.09465980529785, 73.66854858398438, 194.97781372070312, 0.03200000151991844, -0.04800000041723251, 1.055999994277954, 0.0, 0.0, 0.0, 0.0, 0.0, 1.6209903692420735E9, 2021-05-14 13:06:09.242
12.0, -107.931640625, -11.004655838012695, 85.50907135009766, 210.29644775390625, 0.03200000151991844, -0.04800000041723251, 1.055999994277954, 0.0, 0.0, 0.0, 0.0, 0.0, 1.6209903692420735E9, 2021-05-14 13:06:09.242
13.0, -132.74588012695312, -38.002994537353516, 74.32677459716797, 186.6565399169922, 0.03200000151991844, -0.04800000041723251, 1.055999994277954, 0.0, 0.0, 0.0, 0.0, 0.0, 1.6209903692541792E9, 2021-05-14 13:06:09.254
13.0, -132.50653076171875, -38.362022399902344, 70.66541290283203, 174.318603515625, 0.03200000151991844, -0.04800000041723251, 1.055999994277954, 0.0, 0.0, 0.0, 0.0, 0.0, 1.6209903692541792E9, 2021-05-14 13:06:09.254
14.0, -109.78289031982422, -15.567333221435547, 72.01925659179688, 197.85379028320312, 0.03200000151991844, -0.04800000041723251, 1.055999994277954, 0.0, 0.0, 0.0, 0.0, 0.0, 1.62099036927031E9, 2021-05-14 13:06:09.270
14.0, -103.09969329833984, -8.476483345031738, 76.36502075195312, 206.89688110351562, 0.03200000151991844, -0.04800000041723251, 1.055999994277954, 0.0, 0.0, 0.0, 0.0, 0.0, 1.62099036927031E9, 2021-05-14 13:06:09.270
15.0, -111.19283294677734, -28.077299118041992, 70.13434600830078, 177.05247497558594, 0.03200000151991844, -0.04800000041723251, 1.055999994277954, 0.0, 0.0, 0.0, 0.0, 0.0, 1.6209903693003364E9, 2021-05-14 13:06:09.300
15.0, -119.07280731201172, -29.939769744873047, 62.34039306640625, 170.94895935058594, 0.03200000151991844, -0.04800000041723251, 1.055999994277954, 0.0, 0.0, 0.0, 0.0, 0.0, 1.6209903693003364E9, 2021-05-14 13:06:09.300
16.0, -114.38297271728516, -19.396991729736328, 70.29889678955078, 193.39208984375, 0.03200000151991844, -0.04800000041723251, 1.055999994277954, 0.0, 0.0, 0.0, 0.0, 0.0, 1.6209903693010955E9, 2021-05-14 13:06:09.301
16.0, -92.63545227050781, -9.407718658447266, 76.34632110595703, 213.26593017578125, 0.03200000151991844, -0.04800000041723251, 1.055999994277954, 0.0, 0.0, 0.0, 0.0, 0.0, 1.6209903693010955E9, 2021-05-14 13:06:09.301
17.0, -119.42061614990234, -33.94894027709961, 62.50868606567383, 184.5509796142578, 0.03200000151991844, -0.04800000041723251, 1.055999994277954, 0.0, 0.0, 0.0, 0.0, 0.0, 1.6209903693167243E9, 2021-05-14 13:06:09.316
17.0, -127.59977722167969, -39.704647064208984, 60.496620178222656, 173.4285125732422, 0.03200000151991844, -0.04800000041723251, 1.055999994277954, 0.0, 0.0, 0.0, 0.0, 0.0, 1.6209903693167243E9, 2021-05-14 13:06:09.316
18.0, -107.35943603515625, -14.879192352294922, 68.85530090332031, 205.6140899658203, 0.03200000151991844, -0.04800000041723251, 1.055999994277954, 0.0, 0.0, 0.0, 0.0, 0.0, 1.6209903693174171E9, 2021-05-14 13:06:09.317
18.0, -106.49552154541016, -13.207456588745117, 78.26114654541016, 210.98085021972656, 0.03200000151991844, -0.04800000041723251, 1.055999994277954, 0.0, 0.0, 0.0, 0.0, 0.0, 1.6209903693174171E9, 2021-05-14 13:06:09.317
19.0, -120.78568267822266, -36.66410827636719, 63.353904724121094, 179.30015563964844, 0.03200000151991844, -0.04800000041723251, 1.055999994277954, 0.0, 0.0, 0.0, 0.0, 0.0, 1.620990369318172E9, 2021-05-14 13:06:09.318
19.0, -126.8630142211914, -44.02049255371094, 52.429656982421875, 161.74131774902344, 0.03200000151991844, -0.04800000041723251, 1.055999994277954, 0.0, 0.0, 0.0, 0.0, 0.0, 1.620990369318172E9, 2021-05-14 13:06:09.318
20.0, -115.55355834960938, -23.847471237182617, 74.8391342163086, 193.6875457763672, 0.03200000151991844, -0.04800000041723251, 1.055999994277954, 0.0, 0.0, 0.0, 0.0, 0.0, 1.6209903693299098E9, 2021-05-14 13:06:09.329
20.0, -106.51422119140625, -21.064987182617188, 75.87509155273438, 204.58935546875, 0.03200000151991844, -0.04800000041723251, 1.055999994277954, 0.0, 0.0, 0.0, 0.0, 0.0, 1.6209903693299098E9, 2021-05-14 13:06:09.329
21.0, -123.05580139160156, -30.32497787475586, 62.987396240234375, 177.79296875, 0.03200000151991844, -0.04800000041723251, 1.055999994277954, 0.0, 0.0, 0.0, 0.0, 0.0, 1.6209903693306012E9, 2021-05-14 13:06:09.330
21.0, -124.24882507324219, -31.925655364990234, 54.38188552856445, 167.17539978027344, 0.03200000151991844, -0.04800000041723251, 1.055999994277954, 0.0, 0.0, 0.0, 0.0, 0.0, 1.6209903693306012E9, 2021-05-14 13:06:09.330
22.0, -106.8059310913086, -18.90706443786621, 67.47527313232422, 201.67971801757812, 0.03200000151991844, -0.04800000041723251, 1.055999994277954, 0.0, 0.0, 0.0, 0.0, 0.0, 1.6209903693442512E9, 2021-05-14 13:06:09.344
22.0, -99.8609390258789, -17.153051376342773, 75.89379119873047, 204.98204040527344, 0.03200000151991844, -0.04800000041723251, 1.055999994277954, 0.0, 0.0, 0.0, 0.0, 0.0, 1.6209903693442512E9, 2021-05-14 13:06:09.344
23.0, -119.71981048583984, -25.54912567138672, 68.66830444335938, 170.87042236328125, 0.03200000151991844, -0.04800000041723251, 1.055999994277954, 0.0, 0.0, 0.0, 0.0, 0.0, 1.6209903693599658E9, 2021-05-14 13:06:09.359
23.0, -118.94938659667969, -32.59135818481445, 66.80583190917969, 159.09347534179688, 0.03200000151991844, -0.04800000041723251, 1.055999994277954, 0.0, 0.0, 0.0, 0.0, 0.0, 1.6209903693599658E9, 2021-05-14 13:06:09.359
24.0, -105.83729553222656, -12.09670639038086, 75.52728271484375, 192.52444458007812, 0.03200000151991844, -0.04800000041723251, 1.055999994277954, 0.0, 0.0, 0.0, 0.0, 0.0, 1.6209903693606317E9, 2021-05-14 13:06:09.360
24.0, -103.22685241699219, -16.072219848632812, 76.33509826660156, 200.1912384033203, 0.03200000151991844, -0.04800000041723251, 1.055999994277954, 0.0, 0.0, 0.0, 0.0, 0.0, 1.6209903693606317E9, 2021-05-14 13:06:09.360
25.0, -115.70689392089844, -30.99816131591797, 67.59495544433594, 176.12872314453125, 0.03200000151991844, -0.04800000041723251, 1.055999994277954, 0.0, 0.0, 0.0, 0.0, 0.0, 1.6209903693742225E9, 2021-05-14 13:06:09.374
25.0, -129.5894012451172, -31.10287857055664, 51.801353454589844, 162.94183349609375, 0.03200000151991844, -0.04800000041723251, 1.055999994277954, 0.0, 0.0, 0.0, 0.0, 0.0, 1.6209903693742225E9, 2021-05-14 13:06:09.374
26.0, -107.78204345703125, -20.87799072265625, 58.02828598022461, 192.5880126953125, 0.03200000151991844, -0.04800000041723251, 1.055999994277954, 0.0, 0.0, 0.0, 0.0, 0.0, 1.620990369389907E9, 2021-05-14 13:06:09.389
26.0, -106.21502685546875, -14.022754669189453, 66.21492767333984, 205.06057739257812, 0.03200000151991844, -0.04800000041723251, 1.055999994277954, 0.0, 0.0, 0.0, 0.0, 0.0, 1.620990369389907E9, 2021-05-14 13:06:09.389
27.0, -119.89932250976562, -30.57929229736328, 63.24544906616211, 179.62925720214844, 0.03200000151991844, -0.04800000041723251, 1.055999994277954, 0.0, 0.0, 0.0, 0.0, 0.0, 1.6209903693905876E9, 2021-05-14 13:06:09.390
27.0, -122.71546936035156, -33.90780258178711, 59.24001693725586, 165.43634033203125, 0.03200000151991844, -0.04800000041723251, 1.055999994277954, 0.0, 0.0, 0.0, 0.0, 0.0, 1.6209903693905876E9, 2021-05-14 13:06:09.390
28.0, -116.5408935546875, -19.142677307128906, 67.62113189697266, 190.83773803710938, 0.03200000151991844, -0.04800000041723251, 1.055999994277954, 0.0, 0.0, 0.0, 0.0, 0.0, 1.620990369404204E9, 2021-05-14 13:06:09.404
28.0, -107.69229125976562, -5.705217361450195, 83.18659210205078, 209.86636352539062, 0.03200000151991844, -0.04800000041723251, 1.055999994277954, 0.0, 0.0, 0.0, 0.0, 0.0, 1.620990369404204E9, 2021-05-14 13:06:09.404
29.0, -127.45765686035156, -38.31340408325195, 71.04313659667969, 177.53866577148438, 0.03200000151991844, -0.04800000041723251, 1.055999994277954, 0.0, 0.0, 0.0, 0.0, 0.0, 1.6209903694196408E9, 2021-05-14 13:06:09.419
29.0, -131.68374633789062, -34.999855041503906, 61.71957015991211, 165.26805114746094, 0.03200000151991844, -0.04800000041723251, 1.055999994277954, 0.0, 0.0, 0.0, 0.0, 0.0, 1.6209903694196408E9, 2021-05-14 13:06:09.419
30.0, -112.4494400024414, -11.161731719970703, 74.60352325439453, 191.00978088378906, 0.03200000151991844, -0.04800000041723251, 1.055999994277954, 0.0, 0.0, 0.0, 0.0, 0.0, 1.6209903694348836E9, 2021-05-14 13:06:09.434
30.0, -114.21841430664062, -4.033482074737549, 80.91273498535156, 203.42251586914062, 0.03200000151991844, -0.04800000041723251, 1.055999994277954, 0.0, 0.0, 0.0, 0.0, 0.0, 1.6209903694348836E9, 2021-05-14 13:06:09.434
31.0, -126.81066131591797, -27.643470764160156, 67.78194427490234, 175.0927734375, 0.03200000151991844, -0.04800000041723251, 1.055999994277954, 0.0, 0.0, 0.0, 0.0, 0.0, 1.6209903694355793E9, 2021-05-14 13:06:09.435
31.0, -116.00234985351562, -32.86063003540039, 57.497222900390625, 165.23812866210938, 0.03200000151991844, -0.04800000041723251, 1.055999994277954, 0.0, 0.0, 0.0, 0.0, 0.0, 1.6209903694355793E9, 2021-05-14 13:06:09.435
32.0, -94.91679382324219, -22.400131225585938, 62.50868606567383, 196.23068237304688, 0.03200000151991844, -0.04800000041723251, 1.055999994277954, 0.0, 0.0, 0.0, 0.0, 0.0, 1.6209903694500644E9, 2021-05-14 13:06:09.450
32.0, -88.01667785644531, -18.462017059326172, 75.28418731689453, 206.59768676757812, 0.03200000151991844, -0.04800000041723251, 1.055999994277954, 0.0, 0.0, 0.0, 0.0, 0.0, 1.6209903694500644E9, 2021-05-14 13:06:09.450
33.0, -120.58746337890625, -35.31400680541992, 55.14108657836914, 163.8581085205078, 0.03200000151991844, -0.04800000041723251, 1.055999994277954, 0.0, 0.0, 0.0, 0.0, 0.0, 1.62099036945065E9, 2021-05-14 13:06:09.450
33.0, -123.8523941040039, -28.541046142578125, 55.12986373901367, 158.61102294921875, 0.03200000151991844, -0.04800000041723251, 1.055999994277954, 0.0, 0.0, 0.0, 0.0, 0.0, 1.62099036945065E9, 2021-05-14 13:06:09.450
34.0, -106.74235534667969, -2.7693958282470703, 68.79545593261719, 184.8763427734375, 0.03200000151991844, -0.04800000041723251, 1.055999994277954, 0.0, 0.0, 0.0, 0.0, 0.0, 1.6209903694642577E9, 2021-05-14 13:06:09.464
34.0, -102.37789154052734, -11.707756996154785, 74.96255493164062, 192.78997802734375, 0.03200000151991844, -0.04800000041723251, 1.055999994277954, 0.0, 0.0, 0.0, 0.0, 0.0, 1.6209903694642577E9, 2021-05-14 13:06:09.464
35.0, -114.6148452758789, -24.13544464111328, 66.29346466064453, 167.84109497070312, 0.03200000151991844, -0.04800000041723251, 1.055999994277954, 0.0, 0.0, 0.0, 0.0, 0.0, 1.6209903694799783E9, 2021-05-14 13:06:09.479
35.0, -129.48468017578125, -32.696075439453125, 54.82319259643555, 151.2583770751953, 0.03200000151991844, -0.04800000041723251, 1.055999994277954, 0.0, 0.0, 0.0, 0.0, 0.0, 1.6209903694799783E9, 2021-05-14 13:06:09.479
36.0, -105.62786102294922, -5.133012771606445, 70.36621856689453, 194.35699462890625, 0.03200000151991844, -0.04800000041723251, 1.055999994277954, 0.0, 0.0, 0.0, 0.0, 0.0, 1.6209903694805949E9, 2021-05-14 13:06:09.480
36.0, -110.64307403564453, -7.7472028732299805, 77.15039825439453, 199.92196655273438, 0.03200000151991844, -0.04800000041723251, 1.055999994277954, 0.0, 0.0, 0.0, 0.0, 0.0, 1.6209903694805949E9, 2021-05-14 13:06:09.480
37.0, -117.44220733642578, -24.464555740356445, 66.31590270996094, 174.39340209960938, 0.03200000151991844, -0.04800000041723251, 1.055999994277954, 0.0, 0.0, 0.0, 0.0, 0.0, 1.620990369494175E9, 2021-05-14 13:06:09.494
37.0, -119.80956268310547, -36.1330451965332, 68.42147064208984, 165.81781005859375, 0.03200000151991844, -0.04800000041723251, 1.055999994277954, 0.0, 0.0, 0.0, 0.0, 0.0, 1.620990369494175E9, 2021-05-14 13:06:09.494
38.0, -107.21732330322266, -15.578553199768066, 80.03012084960938, 192.5880126953125, 0.03200000151991844, -0.04800000041723251, 1.055999994277954, 0.0, 0.0, 0.0, 0.0, 0.0, 1.6209903695106213E9, 2021-05-14 13:06:09.510
38.0, -104.25906372070312, -5.671558380126953, 84.30856323242188, 201.1935272216797, 0.03200000151991844, -0.04800000041723251, 1.055999994277954, 0.0, 0.0, 0.0, 0.0, 0.0, 1.6209903695106213E9, 2021-05-14 13:06:09.510
39.0, -119.82078552246094, -26.570119857788086, 68.84033966064453, 170.6759490966797, 0.03200000151991844, -0.04800000041723251, 1.055999994277954, 0.0, 0.0, 0.0, 0.0, 0.0, 1.6209903695114274E9, 2021-05-14 13:06:09.511
39.0, -121.94879150390625, -30.362377166748047, 67.21722412109375, 164.11990356445312, 0.03200000151991844, -0.04800000041723251, 1.055999994277954, 0.0, 0.0, 0.0, 0.0, 0.0, 1.6209903695114274E9, 2021-05-14 13:06:09.511
40.0, -112.20635223388672, -13.67868423461914, 75.00369262695312, 189.4913787841797, 0.03200000151991844, -0.04800000041723251, 1.055999994277954, 0.0, 0.0, 0.0, 0.0, 0.0, 1.6209903695241733E9, 2021-05-14 13:06:09.524
40.0, -103.02115631103516, -9.886425971984863, 74.67084503173828, 201.290771484375, 0.03200000151991844, -0.04800000041723251, 1.055999994277954, 0.0, 0.0, 0.0, 0.0, 0.0, 1.6209903695241733E9, 2021-05-14 13:06:09.524
41.0, -115.396484375, -35.63937759399414, 70.8411865234375, 182.22100830078125, 0.03200000151991844, -0.04800000041723251, 1.055999994277954, 0.0, 0.0, 0.0, 0.0, 0.0, 1.6209903695562227E9, 2021-05-14 13:06:09.556
41.0, -117.50204467773438, -35.5122184753418, 64.19538116455078, 174.86463928222656, 0.03200000151991844, -0.04800000041723251, 1.055999994277954, 0.0, 0.0, 0.0, 0.0, 0.0, 1.6209903695562227E9, 2021-05-14 13:06:09.556
42.0, -96.23323822021484, -16.2853946685791, 67.13868713378906, 190.258056640625, 0.03200000151991844, -0.04800000041723251, 1.055999994277954, 0.0, 0.0, 0.0, 0.0, 0.0, 1.620990369556944E9, 2021-05-14 13:06:09.556
42.0, -96.97747802734375, -19.1202392578125, 73.78074645996094, 193.321044921875, 0.03200000151991844, -0.04800000041723251, 1.055999994277954, 0.0, 0.0, 0.0, 0.0, 0.0, 1.620990369556944E9, 2021-05-14 13:06:09.556
43.0, -106.9854507446289, -26.143770217895508, 72.12397003173828, 174.54299926757812, 0.03200000151991844, -0.04800000041723251, 1.055999994277954, 0.0, 0.0, 0.0, 0.0, 0.0, 1.620990369557723E9, 2021-05-14 13:06:09.557
43.0, -118.80353546142578, -37.77486038208008, 59.677581787109375, 154.1007080078125, 0.03200000151991844, -0.04800000041723251, 1.055999994277954, 0.0, 0.0, 0.0, 0.0, 0.0, 1.620990369557723E9, 2021-05-14 13:06:09.557
44.0, -103.87759399414062, -12.47817611694336, 68.82911682128906, 176.93280029296875, 0.03200000151991844, -0.04800000041723251, 1.055999994277954, 0.0, 0.0, 0.0, 0.0, 0.0, 1.620990369558494E9, 2021-05-14 13:06:09.558
44.0, -101.8468246459961, -4.796421527862549, 79.98149871826172, 192.62167358398438, 0.03200000151991844, -0.04800000041723251, 1.055999994277954, 0.0, 0.0, 0.0, 0.0, 0.0, 1.620990369558494E9, 2021-05-14 13:06:09.558
45.0, -120.03022003173828, -22.295413970947266, 69.861328125, 169.00047302246094, 0.03200000151991844, -0.04800000041723251, 1.055999994277954, 0.0, 0.0, 0.0, 0.0, 0.0, 1.6209903695692208E9, 2021-05-14 13:06:09.569
45.0, -125.08282470703125, -25.62766456604004, 64.7563705444336, 158.40533447265625, 0.03200000151991844, -0.04800000041723251, 1.055999994277954, 0.0, 0.0, 0.0, 0.0, 0.0, 1.6209903695692208E9, 2021-05-14 13:06:09.569
46.0, -105.83355712890625, -13.17753791809082, 69.0348129272461, 187.7672882080078, 0.03200000151991844, -0.04800000041723251, 1.055999994277954, 0.0, 0.0, 0.0, 0.0, 0.0, 1.620990369584272E9, 2021-05-14 13:06:09.584
46.0, -102.66212463378906, -10.907418251037598, 73.09634399414062, 198.84861755371094, 0.03200000151991844, -0.04800000041723251, 1.055999994277954, 0.0, 0.0, 0.0, 0.0, 0.0, 1.620990369584272E9, 2021-05-14 13:06:09.584
47.0, -115.51615905761719, -21.9962215423584, 68.79545593261719, 173.5968017578125, 0.03200000151991844, -0.04800000041723251, 1.055999994277954, 0.0, 0.0, 0.0, 0.0, 0.0, 1.62099036959991E9, 2021-05-14 13:06:09.599
47.0, -126.66106414794922, -33.634788513183594, 63.335205078125, 166.6031951904297, 0.03200000151991844, -0.04800000041723251, 1.055999994277954, 0.0, 0.0, 0.0, 0.0, 0.0, 1.62099036959991E9, 2021-05-14 13:06:09.599
48.0, -114.98135375976562, -13.121438980102539, 66.94046783447266, 186.33489990234375, 0.03200000151991844, -0.04800000041723251, 1.055999994277954, 0.0, 0.0, 0.0, 0.0, 0.0, 1.6209903696006422E9, 2021-05-14 13:06:09.600
48.0, -105.08931732177734, -13.379491806030273, 77.55056762695312, 201.72833251953125, 0.03200000151991844, -0.04800000041723251, 1.055999994277954, 0.0, 0.0, 0.0, 0.0, 0.0, 1.6209903696006422E9, 2021-05-14 13:06:09.600
49.0, -121.70569610595703, -35.18684768676758, 65.34727478027344, 175.02919006347656, 0.03200000151991844, -0.04800000041723251, 1.055999994277954, 0.0, 0.0, 0.0, 0.0, 0.0, 1.6209903696142173E9, 2021-05-14 13:06:09.614
49.0, -126.75456237792969, -41.17816925048828, 56.78664016723633, 165.7205810546875, 0.03200000151991844, -0.04800000041723251, 1.055999994277954, 0.0, 0.0, 0.0, 0.0, 0.0, 1.6209903696142173E9, 2021-05-14 13:06:09.614
50.0, -100.15264892578125, -17.672897338867188, 66.96290588378906, 189.33056640625, 0.03200000151991844, -0.04800000041723251, 1.055999994277954, 0.0, 0.0, 0.0, 0.0, 0.0, 1.6209903696298804E9, 2021-05-14 13:06:09.629
50.0, -98.52579498291016, -17.654197692871094, 74.2744140625, 202.90640258789062, 0.03200000151991844, -0.04800000041723251, 1.055999994277954, 0.0, 0.0, 0.0, 0.0, 0.0, 1.6209903696298804E9, 2021-05-14 13:06:09.629
51.0, -108.76190185546875, -32.894290924072266, 69.62945556640625, 172.0260467529297, 0.03200000151991844, -0.04800000041723251, 1.055999994277954, 0.0, 0.0, 0.0, 0.0, 0.0, 1.6209903696305978E9, 2021-05-14 13:06:09.630
51.0, -111.9632568359375, -34.132198333740234, 67.68844604492188, 173.46217346191406, 0.03200000151991844, -0.04800000041723251, 1.055999994277954, 0.0, 0.0, 0.0, 0.0, 0.0, 1.6209903696305978E9, 2021-05-14 13:06:09.630
52.0, -101.98519897460938, -18.862184524536133, 74.79051971435547, 188.5302276611328, 0.03200000151991844, -0.04800000041723251, 1.055999994277954, 0.0, 0.0, 0.0, 0.0, 0.0, 1.6209903696443756E9, 2021-05-14 13:06:09.644
52.0, -96.10234069824219, -12.175244331359863, 72.18754577636719, 195.48269653320312, 0.03200000151991844, -0.04800000041723251, 1.055999994277954, 0.0, 0.0, 0.0, 0.0, 0.0, 1.6209903696443756E9, 2021-05-14 13:06:09.644
53.0, -115.44884490966797, -27.80428695678711, 68.6982192993164, 171.55108642578125, 0.03200000151991844, -0.04800000041723251, 1.055999994277954, 0.0, 0.0, 0.0, 0.0, 0.0, 1.6209903696598723E9, 2021-05-14 13:06:09.659
53.0, -121.7393569946289, -38.07405090332031, 62.321693420410156, 161.50196838378906, 0.03200000151991844, -0.04800000041723251, 1.055999994277954, 0.0, 0.0, 0.0, 0.0, 0.0, 1.6209903696598723E9, 2021-05-14 13:06:09.659
54.0, -112.45692443847656, -24.947002410888672, 66.97786712646484, 183.87405395507812, 0.03200000151991844, -0.04800000041723251, 1.055999994277954, 0.0, 0.0, 0.0, 0.0, 0.0, 1.6209903696606083E9, 2021-05-14 13:06:09.660
54.0, -92.85984802246094, -13.416891098022461, 84.66385650634766, 203.3664093017578, 0.03200000151991844, -0.04800000041723251, 1.055999994277954, 0.0, 0.0, 0.0, 0.0, 0.0, 1.6209903696606083E9, 2021-05-14 13:06:09.660
55.0, -113.53401184082031, -38.657474517822266, 65.76614379882812, 166.80514526367188, 0.03200000151991844, -0.04800000041723251, 1.055999994277954, 0.0, 0.0, 0.0, 0.0, 0.0, 1.6209903696741636E9, 2021-05-14 13:06:09.674
55.0, -132.28213500976562, -30.39603614807129, 60.930450439453125, 166.63685607910156, 0.03200000151991844, -0.04800000041723251, 1.055999994277954, 0.0, 0.0, 0.0, 0.0, 0.0, 1.6209903696741636E9, 2021-05-14 13:06:09.674
56.0, -105.63908386230469, -21.136045455932617, 70.46719360351562, 187.89817810058594, 0.03200000151991844, -0.04800000041723251, 1.055999994277954, 0.0, 0.0, 0.0, 0.0, 0.0, 1.6209903696898706E9, 2021-05-14 13:06:09.689
56.0, -102.28439331054688, -17.138092041015625, 78.86701202392578, 197.9024200439453, 0.03200000151991844, -0.04800000041723251, 1.055999994277954, 0.0, 0.0, 0.0, 0.0, 0.0, 1.6209903696898706E9, 2021-05-14 13:06:09.689
57.0, -113.22360229492188, -34.11349868774414, 69.09465026855469, 169.20242309570312, 0.03200000151991844, -0.04800000041723251, 1.055999994277954, 0.0, 0.0, 0.0, 0.0, 0.0, 1.6209903696906316E9, 2021-05-14 13:06:09.690
57.0, -120.96519470214844, -38.76967239379883, 59.01188278198242, 157.96401977539062, 0.03200000151991844, -0.04800000041723251, 1.055999994277954, 0.0, 0.0, 0.0, 0.0, 0.0, 1.6209903696906316E9, 2021-05-14 13:06:09.690
58.0, -116.24169921875, -15.612212181091309, 70.26524353027344, 185.32513427734375, 0.03200000151991844, -0.04800000041723251, 1.055999994277954, 0.0, 0.0, 0.0, 0.0, 0.0, 1.6209903697041883E9, 2021-05-14 13:06:09.704
58.0, -101.65608978271484, -7.249795913696289, 82.56951141357422, 195.5313262939453, 0.03200000151991844, -0.04800000041723251, 1.055999994277954, 0.0, 0.0, 0.0, 0.0, 0.0, 1.6209903697041883E9, 2021-05-14 13:06:09.704
59.0, -122.2031021118164, -30.859785079956055, 70.80752563476562, 166.0908203125, 0.03200000151991844, -0.04800000041723251, 1.055999994277954, 0.0, 0.0, 0.0, 0.0, 0.0, 1.6209903697199206E9, 2021-05-14 13:06:09.719
59.0, -114.26329040527344, -34.96245574951172, 71.1216812133789, 166.0646514892578, 0.03200000151991844, -0.04800000041723251, 1.055999994277954, 0.0, 0.0, 0.0, 0.0, 0.0, 1.6209903697199206E9, 2021-05-14 13:06:09.719
60.0, -105.52688598632812, -23.914791107177734, 73.48529052734375, 191.6642608642578, 0.03200000151991844, -0.04800000041723251, 1.055999994277954, 0.0, 0.0, 0.0, 0.0, 0.0, 1.6209903697206376E9, 2021-05-14 13:06:09.720
60.0, -106.15145111083984, -19.40821075439453, 77.29999542236328, 199.0804901123047, 0.03200000151991844, -0.04800000041723251, 1.055999994277954, 0.0, 0.0, 0.0, 0.0, 0.0, 1.6209903697206376E9, 2021-05-14 13:06:09.720
61.0, -123.75889587402344, -34.77545928955078, 69.65937805175781, 167.36239624023438, 0.03200000151991844, -0.04800000041723251, 1.055999994277954, 0.0, 0.0, 0.0, 0.0, 0.0, 1.6209903697505767E9, 2021-05-14 13:06:09.750
61.0, -125.83454132080078, -30.313758850097656, 64.32254028320312, 164.6023406982422, 0.03200000151991844, -0.04800000041723251, 1.055999994277954, 0.0, 0.0, 0.0, 0.0, 0.0, 1.6209903697505767E9, 2021-05-14 13:06:09.750
62.0, -106.75731658935547, -18.23014259338379, 70.06702423095703, 186.877197265625, 0.03200000151991844, -0.04800000041723251, 1.055999994277954, 0.0, 0.0, 0.0, 0.0, 0.0, 1.6209903697513046E9, 2021-05-14 13:06:09.751
62.0, -105.34737396240234, -14.142431259155273, 73.82562255859375, 197.82762145996094, 0.03200000151991844, -0.04800000041723251, 1.055999994277954, 0.0, 0.0, 0.0, 0.0, 0.0, 1.6209903697513046E9, 2021-05-14 13:06:09.751
63.0, -117.39359283447266, -34.468788146972656, 68.60846710205078, 176.08009338378906, 0.03200000151991844, -0.04800000041723251, 1.055999994277954, 0.0, 0.0, 0.0, 0.0, 0.0, 1.620990369752025E9, 2021-05-14 13:06:09.752
63.0, -131.2162628173828, -45.19108200073242, 62.77048110961914, 161.00830078125, 0.03200000151991844, -0.04800000041723251, 1.055999994277954, 0.0, 0.0, 0.0, 0.0, 0.0, 1.620990369752025E9, 2021-05-14 13:06:09.752
64.0, -110.88990020751953, -10.05846118927002, 78.09284973144531, 186.61166381835938, 0.03200000151991844, -0.04800000041723251, 1.055999994277954, 0.0, 0.0, 0.0, 0.0, 0.0, 1.6209903697960396E9, 2021-05-14 13:06:09.796
64.0, -102.07495880126953, -9.90512466430664, 83.42594909667969, 201.38426208496094, 0.03200000151991844, -0.04800000041723251, 1.055999994277954, 0.0, 0.0, 0.0, 0.0, 0.0, 1.6209903697960396E9, 2021-05-14 13:06:09.796
65.0, -107.01536560058594, -30.672788619995117, 71.30867004394531, 170.081298828125, 0.03200000151991844, -0.04800000041723251, 1.055999994277954, 0.0, 0.0, 0.0, 0.0, 0.0, 1.6209903697968209E9, 2021-05-14 13:06:09.796
65.0, -121.27560424804688, -35.51969909667969, 63.76903533935547, 164.09371948242188, 0.03200000151991844, -0.04800000041723251, 1.055999994277954, 0.0, 0.0, 0.0, 0.0, 0.0, 1.6209903697968209E9, 2021-05-14 13:06:09.796
66.0, -105.25761413574219, -17.583139419555664, 71.33485412597656, 196.73182678222656, 0.03200000151991844, -0.04800000041723251, 1.055999994277954, 0.0, 0.0, 0.0, 0.0, 0.0, 1.620990369797486E9, 2021-05-14 13:06:09.797
66.0, -109.7567138671875, -18.241361618041992, 72.78593444824219, 199.25999450683594, 0.03200000151991844, -0.04800000041723251, 1.055999994277954, 0.0, 0.0, 0.0, 0.0, 0.0, 1.620990369797486E9, 2021-05-14 13:06:09.797
67.0, -122.0048828125, -31.891996383666992, 68.79920196533203, 174.35226440429688, 0.03200000151991844, -0.04800000041723251, 1.055999994277954, 0.0, 0.0, 0.0, 0.0, 0.0, 1.6209903698253317E9, 2021-05-14 13:06:09.825
67.0, -126.87049865722656, -44.02049255371094, 62.82658004760742, 160.9671630859375, 0.03200000151991844, -0.04800000041723251, 1.055999994277954, 0.0, 0.0, 0.0, 0.0, 0.0, 1.6209903698253317E9, 2021-05-14 13:06:09.825
68.0, -109.26304626464844, -14.19105052947998, 66.56273651123047, 190.88262939453125, 0.03200000151991844, -0.04800000041723251, 1.055999994277954, 0.0, 0.0, 0.0, 0.0, 0.0, 1.620990369841014E9, 2021-05-14 13:06:09.841
68.0, -102.39285278320312, -12.773628234863281, 79.35693359375, 201.42913818359375, 0.03200000151991844, -0.04800000041723251, 1.055999994277954, 0.0, 0.0, 0.0, 0.0, 0.0, 1.620990369841014E9, 2021-05-14 13:06:09.841
69.0, -119.44305419921875, -34.072357177734375, 66.92550659179688, 172.76280212402344, 0.03200000151991844, -0.04800000041723251, 1.055999994277954, 0.0, 0.0, 0.0, 0.0, 0.0, 1.620990369841787E9, 2021-05-14 13:06:09.841
69.0, -124.54428100585938, -34.2855339050293, 66.63005828857422, 164.91650390625, 0.03200000151991844, -0.04800000041723251, 1.055999994277954, 0.0, 0.0, 0.0, 0.0, 0.0, 1.620990369841787E9, 2021-05-14 13:06:09.841
70.0, -106.81341552734375, -12.837206840515137, 77.16161346435547, 193.92315673828125, 0.03200000151991844, -0.04800000041723251, 1.055999994277954, 0.0, 0.0, 0.0, 0.0, 0.0, 1.620990369842451E9, 2021-05-14 13:06:09.842
70.0, -109.74923706054688, -17.83371353149414, 77.22145080566406, 204.0470733642578, 0.03200000151991844, -0.04800000041723251, 1.055999994277954, 0.0, 0.0, 0.0, 0.0, 0.0, 1.620990369842451E9, 2021-05-14 13:06:09.842
71.0, -126.79570007324219, -36.57809066772461, 65.41085052490234, 178.6082763671875, 0.03200000151991844, -0.04800000041723251, 1.055999994277954, 0.0, 0.0, 0.0, 0.0, 0.0, 1.6209903698876634E9, 2021-05-14 13:06:09.887
71.0, -129.31265258789062, -34.47626876831055, 61.360538482666016, 170.2047119140625, 0.03200000151991844, -0.04800000041723251, 1.055999994277954, 0.0, 0.0, 0.0, 0.0, 0.0, 1.6209903698876634E9, 2021-05-14 13:06:09.887
72.0, -97.96855163574219, -9.220723152160645, 74.2519760131836, 197.06468200683594, 0.03200000151991844, -0.04800000041723251, 1.055999994277954, 0.0, 0.0, 0.0, 0.0, 0.0, 1.620990369888357E9, 2021-05-14 13:06:09.888
72.0, -100.29850769042969, -6.412058353424072, 83.37358856201172, 207.7271270751953, 0.03200000151991844, -0.04800000041723251, 1.055999994277954, 0.0, 0.0, 0.0, 0.0, 0.0, 1.620990369888357E9, 2021-05-14 13:06:09.888
73.0, -112.68505859375, -32.8007926940918, 68.55984497070312, 176.83181762695312, 0.03200000151991844, -0.04800000041723251, 1.055999994277954, 0.0, 0.0, 0.0, 0.0, 0.0, 1.6209903698891063E9, 2021-05-14 13:06:09.889
73.0, -119.891845703125, -38.31340408325195, 67.32942199707031, 169.25852966308594, 0.03200000151991844, -0.04800000041723251, 1.055999994277954, 0.0, 0.0, 0.0, 0.0, 0.0, 1.6209903698891063E9, 2021-05-14 13:06:09.889
74.0, -107.1088638305664, -22.852659225463867, 69.44245910644531, 194.10267639160156, 0.03200000151991844, -0.04800000041723251, 1.055999994277954, 0.0, 0.0, 0.0, 0.0, 0.0, 1.620990369889856E9, 2021-05-14 13:06:09.889
74.0, -91.14697265625, -12.552973747253418, 79.89922332763672, 204.10316467285156, 0.03200000151991844, -0.04800000041723251, 1.055999994277954, 0.0, 0.0, 0.0, 0.0, 0.0, 1.620990369889856E9, 2021-05-14 13:06:09.889
75.0, -109.14337158203125, -35.422462463378906, 65.97183227539062, 174.16152954101562, 0.03200000151991844, -0.04800000041723251, 1.055999994277954, 0.0, 0.0, 0.0, 0.0, 0.0, 1.6209903699010801E9, 2021-05-14 13:06:09.901
75.0, -121.39154052734375, -38.833251953125, 61.61485290527344, 169.89804077148438, 0.03200000151991844, -0.04800000041723251, 1.055999994277954, 0.0, 0.0, 0.0, 0.0, 0.0, 1.6209903699010801E9, 2021-05-14 13:06:09.901
76.0, -119.04288482666016, -17.938430786132812, 64.80498504638672, 185.3438262939453, 0.03200000151991844, -0.04800000041723251, 1.055999994277954, 0.0, 0.0, 0.0, 0.0, 0.0, 1.6209903699019132E9, 2021-05-14 13:06:09.901
76.0, -119.88062286376953, -8.517621994018555, 75.28044891357422, 198.3212890625, 0.03200000151991844, -0.04800000041723251, 1.055999994277954, 0.0, 0.0, 0.0, 0.0, 0.0, 1.6209903699019132E9, 2021-05-14 13:06:09.901
77.0, -128.99850463867188, -30.26888084411621, 64.95084381103516, 172.3663787841797, 0.03200000151991844, -0.04800000041723251, 1.055999994277954, 0.0, 0.0, 0.0, 0.0, 0.0, 1.62099036990251E9, 2021-05-14 13:06:09.902
77.0, -130.92080688476562, -34.554805755615234, 54.34074783325195, 159.42259216308594, 0.03200000151991844, -0.04800000041723251, 1.055999994277954, 0.0, 0.0, 0.0, 0.0, 0.0, 1.62099036990251E9, 2021-05-14 13:06:09.902
78.0, -108.9339370727539, -9.897644996643066, 74.37165069580078, 193.30233764648438, 0.03200000151991844, -0.04800000041723251, 1.055999994277954, 0.0, 0.0, 0.0, 0.0, 0.0, 1.6209903699320064E9, 2021-05-14 13:06:09.932
78.0, -112.93563079833984, -4.7590227127075195, 73.24220275878906, 201.42539978027344, 0.03200000151991844, -0.04800000041723251, 1.055999994277954, 0.0, 0.0, 0.0, 0.0, 0.0, 1.6209903699320064E9, 2021-05-14 13:06:09.932
79.0, -116.75032806396484, -25.86701774597168, 66.81331634521484, 170.8853759765625, 0.03200000151991844, -0.04800000041723251, 1.055999994277954, 0.0, 0.0, 0.0, 0.0, 0.0, 1.6209903699326723E9, 2021-05-14 13:06:09.932
79.0, -121.66455841064453, -29.229188919067383, 61.592411041259766, 165.8813934326172, 0.03200000151991844, -0.04800000041723251, 1.055999994277954, 0.0, 0.0, 0.0, 0.0, 0.0, 1.6209903699326723E9, 2021-05-14 13:06:09.932
80.0, -104.70410919189453, -13.091519355773926, 68.51870727539062, 188.33575439453125, 0.03200000151991844, -0.04800000041723251, 1.055999994277954, 0.0, 0.0, 0.0, 0.0, 0.0, 1.6209903699333968E9, 2021-05-14 13:06:09.933
80.0, -104.3338623046875, -10.600746154785156, 81.05485534667969, 205.38595581054688, 0.03200000151991844, -0.04800000041723251, 1.055999994277954, 0.0, 0.0, 0.0, 0.0, 0.0, 1.6209903699333968E9, 2021-05-14 13:06:09.933
81.0, -118.92694854736328, -29.47228240966797, 71.01696014404297, 175.06658935546875, 0.03200000151991844, -0.04800000041723251, 1.055999994277954, 0.0, 0.0, 0.0, 0.0, 0.0, 1.6209903699341211E9, 2021-05-14 13:06:09.934
81.0, -125.53160858154297, -35.23920822143555, 63.94480895996094, 162.00685119628906, 0.03200000151991844, -0.04800000041723251, 1.055999994277954, 0.0, 0.0, 0.0, 0.0, 0.0, 1.6209903699341211E9, 2021-05-14 13:06:09.934
82.0, -110.5832290649414, -8.042654991149902, 66.77217102050781, 181.07659912109375, 0.03200000151991844, -0.04800000041723251, 1.055999994277954, 0.0, 0.0, 0.0, 0.0, 0.0, 1.620990369944307E9, 2021-05-14 13:06:09.944
82.0, -114.43158721923828, -7.376952648162842, 78.9567642211914, 191.35011291503906, 0.03200000151991844, -0.04800000041723251, 1.055999994277954, 0.0, 0.0, 0.0, 0.0, 0.0, 1.620990369944307E9, 2021-05-14 13:06:09.944
83.0, -127.65587615966797, -22.99851417541504, 69.30034637451172, 166.95848083496094, 0.03200000151991844, -0.04800000041723251, 1.055999994277954, 0.0, 0.0, 0.0, 0.0, 0.0, 1.6209903699599068E9, 2021-05-14 13:06:09.959
83.0, -130.8160858154297, -28.253074645996094, 56.80533981323242, 154.47096252441406, 0.03200000151991844, -0.04800000041723251, 1.055999994277954, 0.0, 0.0, 0.0, 0.0, 0.0, 1.6209903699599068E9, 2021-05-14 13:06:09.959
84.0, -107.1462631225586, -10.013582229614258, 71.71632385253906, 184.3265838623047, 0.03200000151991844, -0.04800000041723251, 1.055999994277954, 0.0, 0.0, 0.0, 0.0, 0.0, 1.620990369960818E9, 2021-05-14 13:06:09.960
84.0, -95.22720336914062, -9.893905639648438, 77.7899169921875, 192.99940490722656, 0.03200000151991844, -0.04800000041723251, 1.055999994277954, 0.0, 0.0, 0.0, 0.0, 0.0, 1.620990369960818E9, 2021-05-14 13:06:09.960
85.0, -126.24593353271484, -30.766286849975586, 64.15424346923828, 163.7197265625, 0.03200000151991844, -0.04800000041723251, 1.055999994277954, 0.0, 0.0, 0.0, 0.0, 0.0, 1.6209903699741647E9, 2021-05-14 13:06:09.974
85.0, -128.47865295410156, -30.07814598083496, 53.28235626220703, 154.0969696044922, 0.03200000151991844, -0.04800000041723251, 1.055999994277954, 0.0, 0.0, 0.0, 0.0, 0.0, 1.6209903699741647E9, 2021-05-14 13:06:09.974
86.0, -121.7393569946289, -10.065940856933594, 61.39419937133789, 178.07347106933594, 0.03200000151991844, -0.04800000041723251, 1.055999994277954, 0.0, 0.0, 0.0, 0.0, 0.0, 1.6209903699905548E9, 2021-05-14 13:06:09.990
86.0, -113.80328369140625, -2.926471710205078, 72.40446472167969, 198.89349365234375, 0.03200000151991844, -0.04800000041723251, 1.055999994277954, 0.0, 0.0, 0.0, 0.0, 0.0, 1.6209903699905548E9, 2021-05-14 13:06:09.990
87.0, -121.12226867675781, -29.169349670410156, 63.20056915283203, 176.2222137451172, 0.03200000151991844, -0.04800000041723251, 1.055999994277954, 0.0, 0.0, 0.0, 0.0, 0.0, 1.6209903699912672E9, 2021-05-14 13:06:09.991
87.0, -122.43497467041016, -31.278654098510742, 54.92790985107422, 163.3943634033203, 0.03200000151991844, -0.04800000041723251, 1.055999994277954, 0.0, 0.0, 0.0, 0.0, 0.0, 1.6209903699912672E9, 2021-05-14 13:06:09.991
88.0, -101.39055633544922, -7.5302886962890625, 66.2822494506836, 187.10157775878906, 0.03200000151991844, -0.04800000041723251, 1.055999994277954, 0.0, 0.0, 0.0, 0.0, 0.0, 1.62099037000417E9, 2021-05-14 13:06:10.004
88.0, -101.09136199951172, -20.118791580200195, 72.01177215576172, 200.5128631591797, 0.03200000151991844, -0.04800000041723251, 1.055999994277954, 0.0, 0.0, 0.0, 0.0, 0.0, 1.62099037000417E9, 2021-05-14 13:06:10.004
89.0, -114.61858367919922, -24.60293197631836, 70.74768829345703, 181.3159637451172, 0.03200000151991844, -0.04800000041723251, 1.055999994277954, 0.0, 0.0, 0.0, 0.0, 0.0, 1.6209903700198538E9, 2021-05-14 13:06:10.019
89.0, -126.71341705322266, -35.856292724609375, 51.09825134277344, 161.84603881835938, 0.03200000151991844, -0.04800000041723251, 1.055999994277954, 0.0, 0.0, 0.0, 0.0, 0.0, 1.6209903700198538E9, 2021-05-14 13:06:10.019
90.0, -109.14710998535156, -13.712343215942383, 69.51351928710938, 193.2425079345703, 0.03200000151991844, -0.04800000041723251, 1.055999994277954, 0.0, 0.0, 0.0, 0.0, 0.0, 1.6209903700205753E9, 2021-05-14 13:06:10.020
90.0, -104.56573486328125, -7.186217784881592, 76.42859649658203, 203.23178100585938, 0.03200000151991844, -0.04800000041723251, 1.055999994277954, 0.0, 0.0, 0.0, 0.0, 0.0, 1.6209903700205753E9, 2021-05-14 13:06:10.020
91.0, -121.06990814208984, -26.222309112548828, 66.3458251953125, 171.23318481445312, 0.03200000151991844, -0.04800000041723251, 1.055999994277954, 0.0, 0.0, 0.0, 0.0, 0.0, 1.6209903700342464E9, 2021-05-14 13:06:10.034
91.0, -123.54572296142578, -30.081884384155273, 60.26848602294922, 161.33741760253906, 0.03200000151991844, -0.04800000041723251, 1.055999994277954, 0.0, 0.0, 0.0, 0.0, 0.0, 1.6209903700342464E9, 2021-05-14 13:06:10.034
92.0, -117.60302734375, -7.578907489776611, 69.04228973388672, 186.2339324951172, 0.03200000151991844, -0.04800000041723251, 1.055999994277954, 0.0, 0.0, 0.0, 0.0, 0.0, 1.6209903700505517E9, 2021-05-14 13:06:10.050
92.0, -106.03925323486328, 5.813674449920654, 85.34825897216797, 203.13453674316406, 0.03200000151991844, -0.04800000041723251, 1.055999994277954, 0.0, 0.0, 0.0, 0.0, 0.0, 1.6209903700505517E9, 2021-05-14 13:06:10.050
93.0, -124.82102966308594, -17.081993103027344, 69.3340072631836, 176.6859588623047, 0.03200000151991844, -0.04800000041723251, 1.055999994277954, 0.0, 0.0, 0.0, 0.0, 0.0, 1.6209903700512724E9, 2021-05-14 13:06:10.051
93.0, -127.8802719116211, -26.43922233581543, 64.95832061767578, 165.7093505859375, 0.03200000151991844, -0.04800000041723251, 1.055999994277954, 0.0, 0.0, 0.0, 0.0, 0.0, 1.6209903700512724E9, 2021-05-14 13:06:10.051
94.0, -111.90715789794922, -10.451150894165039, 74.54742431640625, 194.64495849609375, 0.03200000151991844, -0.04800000041723251, 1.055999994277954, 0.0, 0.0, 0.0, 0.0, 0.0, 1.620990370064193E9, 2021-05-14 13:06:10.064
94.0, -107.66236877441406, -3.7529895305633545, 79.9964599609375, 206.74728393554688, 0.03200000151991844, -0.04800000041723251, 1.055999994277954, 0.0, 0.0, 0.0, 0.0, 0.0, 1.620990370064193E9, 2021-05-14 13:06:10.064
95.0, -124.63029479980469, -32.92420959472656, 65.46694946289062, 175.0553741455078, 0.03200000151991844, -0.04800000041723251, 1.055999994277954, 0.0, 0.0, 0.0, 0.0, 0.0, 1.620990370096224E9, 2021-05-14 13:06:10.096
95.0, -127.75685119628906, -30.54563331604004, 59.95059585571289, 173.10313415527344, 0.03200000151991844, -0.04800000041723251, 1.055999994277954, 0.0, 0.0, 0.0, 0.0, 0.0, 1.620990370096224E9, 2021-05-14 13:06:10.096
96.0, -112.05300903320312, -9.441377639770508, 67.07136535644531, 188.9490966796875, 0.03200000151991844, -0.04800000041723251, 1.055999994277954, 0.0, 0.0, 0.0, 0.0, 0.0, 1.6209903700969555E9, 2021-05-14 13:06:10.096
96.0, -100.23493194580078, -4.112020015716553, 76.12940216064453, 201.197265625, 0.03200000151991844, -0.04800000041723251, 1.055999994277954, 0.0, 0.0, 0.0, 0.0, 0.0, 1.6209903700969555E9, 2021-05-14 13:06:10.096
97.0, -129.9895782470703, -30.46709442138672, 58.634151458740234, 167.13800048828125, 0.03200000151991844, -0.04800000041723251, 1.055999994277954, 0.0, 0.0, 0.0, 0.0, 0.0, 1.6209903700977383E9, 2021-05-14 13:06:10.097
97.0, -124.05809020996094, -29.064632415771484, 61.603633880615234, 161.5206756591797, 0.03200000151991844, -0.04800000041723251, 1.055999994277954, 0.0, 0.0, 0.0, 0.0, 0.0, 1.6209903700977383E9, 2021-05-14 13:06:10.097
98.0, -114.96265411376953, -11.049534797668457, 74.52498626708984, 188.73965454101562, 0.03200000151991844, -0.04800000041723251, 1.055999994277954, 0.0, 0.0, 0.0, 0.0, 0.0, 1.620990370098486E9, 2021-05-14 13:06:10.098
98.0, -110.27655792236328, -8.031435012817383, 74.779296875, 198.9234161376953, 0.03200000151991844, -0.04800000041723251, 1.055999994277954, 0.0, 0.0, 0.0, 0.0, 0.0, 1.620990370098486E9, 2021-05-14 13:06:10.098
99.0, -115.30672454833984, -27.228342056274414, 62.62088394165039, 167.04449462890625, 0.03200000151991844, -0.04800000041723251, 1.055999994277954, 0.0, 0.0, 0.0, 0.0, 0.0, 1.6209903701252887E9, 2021-05-14 13:06:10.125
99.0, -127.86531066894531, -29.83131217956543, 55.963863372802734, 163.24850463867188, 0.03200000151991844, -0.04800000041723251, 1.055999994277954, 0.0, 0.0, 0.0, 0.0, 0.0, 1.6209903701252887E9, 2021-05-14 13:06:10.125
100.0, -101.0838851928711, -12.309880256652832, 69.89125061035156, 190.96490478515625, 0.03200000151991844, -0.04800000041723251, 1.055999994277954, 0.0, 0.0, 0.0, 0.0, 0.0, 1.6209903701260023E9, 2021-05-14 13:06:10.126
100.0, -107.69602966308594, -11.827433586120605, 76.0807876586914, 198.66162109375, 0.03200000151991844, -0.04800000041723251, 1.055999994277954, 0.0, 0.0, 0.0, 0.0, 0.0, 1.6209903701260023E9, 2021-05-14 13:06:10.126
0.0, -125.8438949584961, -25.395790100097656, 65.32857513427734, 174.4495086669922, 0.03200000151991844, -0.04800000041723251, 1.055999994277954, 0.0, 0.0, 0.0, 0.0, 0.0, 1.620990370139958E9, 2021-05-14 13:06:10.139
1.0, -128.54783630371094, -33.358036041259766, 60.54523849487305, 164.46771240234375, 0.03200000151991844, -0.04800000041723251, 1.055999994277954, 0.0, 0.0, 0.0, 0.0, 0.0, 1.6209903701406536E9, 2021-05-14 13:06:10.140
1.0, -118.75678253173828, -14.493982315063477, 64.58807373046875, 192.95826721191406, 0.03200000151991844, -0.04800000041723251, 1.055999994277954, 0.0, 0.0, 0.0, 0.0, 0.0, 1.6209903701406536E9, 2021-05-14 13:06:10.140
2.0, -114.67281341552734, -1.1799384355545044, 70.21662139892578, 197.91363525390625, 0.03200000151991844, -0.04800000041723251, 1.055999994277954, 0.0, 0.0, 0.0, 0.0, 0.0, 1.6209903701548588E9, 2021-05-14 13:06:10.154
2.0, -128.6974334716797, -29.864971160888672, 59.221317291259766, 172.38133239746094, 0.03200000151991844, -0.04800000041723251, 1.055999994277954, 0.0, 0.0, 0.0, 0.0, 0.0, 1.6209903701548588E9, 2021-05-14 13:06:10.154
3.0, -134.93185424804688, -29.9360294342041, 56.83525848388672, 159.89755249023438, 0.03200000151991844, -0.04800000041723251, 1.055999994277954, 0.0, 0.0, 0.0, 0.0, 0.0, 1.620990370155578E9, 2021-05-14 13:06:10.155
3.0, -118.26685333251953, -8.420384407043457, 68.29057312011719, 195.53880310058594, 0.03200000151991844, -0.04800000041723251, 1.055999994277954, 0.0, 0.0, 0.0, 0.0, 0.0, 1.620990370155578E9, 2021-05-14 13:06:10.155
4.0, -100.39013671875, -0.5516352653503418, 85.80452728271484, 209.56716918945312, 0.03200000151991844, -0.04800000041723251, 1.055999994277954, 0.0, 0.0, 0.0, 0.0, 0.0, 1.6209903701858504E9, 2021-05-14 13:06:10.185
4.0, -122.5378189086914, -26.76459312438965, 69.68555450439453, 175.87440490722656, 0.03200000151991844, -0.04800000041723251, 1.055999994277954, 0.0, 0.0, 0.0, 0.0, 0.0, 1.6209903701858504E9, 2021-05-14 13:06:10.185
5.0, -115.74616241455078, -30.392297744750977, 73.8705062866211, 178.43997192382812, 0.03200000151991844, -0.04800000041723251, 1.055999994277954, 0.0, 0.0, 0.0, 0.0, 0.0, 1.6209903701865747E9, 2021-05-14 13:06:10.186
5.0, -102.67521667480469, -15.040007591247559, 79.83564758300781, 196.08108520507812, 0.03200000151991844, -0.04800000041723251, 1.055999994277954, 0.0, 0.0, 0.0, 0.0, 0.0, 1.6209903701865747E9, 2021-05-14 13:06:10.186
6.0, -102.94448852539062, -8.528841972351074, 81.75047302246094, 202.2556610107422, 0.03200000151991844, -0.04800000041723251, 1.055999994277954, 0.0, 0.0, 0.0, 0.0, 0.0, 1.6209903701999393E9, 2021-05-14 13:06:10.199
6.0, -117.10000610351562, -33.71332931518555, 72.28104400634766, 175.24610900878906, 0.03200000151991844, -0.04800000041723251, 1.055999994277954, 0.0, 0.0, 0.0, 0.0, 0.0, 1.6209903701999393E9, 2021-05-14 13:06:10.199
7.0, -121.2699966430664, -33.18600082397461, 68.933837890625, 168.66387939453125, 0.03200000151991844, -0.04800000041723251, 1.055999994277954, 0.0, 0.0, 0.0, 0.0, 0.0, 1.6209903702007058E9, 2021-05-14 13:06:10.200
7.0, -109.26117706298828, -9.209503173828125, 71.3460693359375, 188.8294219970703, 0.03200000151991844, -0.04800000041723251, 1.055999994277954, 0.0, 0.0, 0.0, 0.0, 0.0, 1.6209903702007058E9, 2021-05-14 13:06:10.200
8.0, -117.0700912475586, -3.195744514465332, 74.41278839111328, 199.2113800048828, 0.03200000151991844, -0.04800000041723251, 1.055999994277954, 0.0, 0.0, 0.0, 0.0, 0.0, 1.6209903702149625E9, 2021-05-14 13:06:10.214
8.0, -131.79782104492188, -17.321346282958984, 68.43268585205078, 174.63275146484375, 0.03200000151991844, -0.04800000041723251, 1.055999994277954, 0.0, 0.0, 0.0, 0.0, 0.0, 1.6209903702149625E9, 2021-05-14 13:06:10.214
9.0, -133.08433532714844, -23.275266647338867, 60.66865539550781, 169.37071228027344, 0.03200000151991844, -0.04800000041723251, 1.055999994277954, 0.0, 0.0, 0.0, 0.0, 0.0, 1.6209903702156093E9, 2021-05-14 13:06:10.215
9.0, -118.28929901123047, -7.545248031616211, 67.912841796875, 189.1286163330078, 0.03200000151991844, -0.04800000041723251, 1.055999994277954, 0.0, 0.0, 0.0, 0.0, 0.0, 1.6209903702156093E9, 2021-05-14 13:06:10.215
10.0, -107.06211853027344, -7.833220481872559, 78.22748565673828, 203.2766571044922, 0.03200000151991844, -0.04800000041723251, 1.055999994277954, 0.0, 0.0, 0.0, 0.0, 0.0, 1.620990370246004E9, 2021-05-14 13:06:10.246
10.0, -118.782958984375, -17.4298038482666, 74.74564361572266, 177.5835418701172, 0.03200000151991844, -0.04800000041723251, 1.055999994277954, 0.0, 0.0, 0.0, 0.0, 0.0, 1.620990370246004E9, 2021-05-14 13:06:10.246
11.0, -127.16781616210938, -30.029525756835938, 59.254974365234375, 160.761474609375, 0.03200000151991844, -0.04800000041723251, 1.055999994277954, 0.0, 0.0, 0.0, 0.0, 0.0, 1.6209903702467084E9, 2021-05-14 13:06:10.246
11.0, -107.71286010742188, -10.82140064239502, 72.71487426757812, 192.71517944335938, 0.03200000151991844, -0.04800000041723251, 1.055999994277954, 0.0, 0.0, 0.0, 0.0, 0.0, 1.6209903702467084E9, 2021-05-14 13:06:10.246
12.0, -96.65023803710938, -0.9405848383903503, 75.882568359375, 201.7171173095703, 0.03200000151991844, -0.04800000041723251, 1.055999994277954, 0.0, 0.0, 0.0, 0.0, 0.0, 1.6209903702602952E9, 2021-05-14 13:06:10.260
12.0, -111.99504089355469, -22.84143829345703, 72.86447143554688, 179.81625366210938, 0.03200000151991844, -0.04800000041723251, 1.055999994277954, 0.0, 0.0, 0.0, 0.0, 0.0, 1.6209903702602952E9, 2021-05-14 13:06:10.260
13.0, -115.5442123413086, -25.571565628051758, 64.14676666259766, 165.8065948486328, 0.03200000151991844, -0.04800000041723251, 1.055999994277954, 0.0, 0.0, 0.0, 0.0, 0.0, 1.6209903702756765E9, 2021-05-14 13:06:10.275
13.0, -101.85991668701172, -10.413751602172852, 73.2945556640625, 191.71287536621094, 0.03200000151991844, -0.04800000041723251, 1.055999994277954, 0.0, 0.0, 0.0, 0.0, 0.0, 1.6209903702756765E9, 2021-05-14 13:06:10.275
14.0, -104.53394317626953, -3.951204299926758, 73.59375, 201.0364532470703, 0.03200000151991844, -0.04800000041723251, 1.055999994277954, 0.0, 0.0, 0.0, 0.0, 0.0, 1.6209903702763612E9, 2021-05-14 13:06:10.276
14.0, -125.30535125732422, -15.986202239990234, 66.17752838134766, 171.7792205810547, 0.03200000151991844, -0.04800000041723251, 1.055999994277954, 0.0, 0.0, 0.0, 0.0, 0.0, 1.6209903702763612E9, 2021-05-14 13:06:10.276
15.0, -131.52479553222656, -25.833358764648438, 58.776268005371094, 170.5936737060547, 0.03200000151991844, -0.04800000041723251, 1.055999994277954, 0.0, 0.0, 0.0, 0.0, 0.0, 1.6209903702771237E9, 2021-05-14 13:06:10.277
15.0, -112.97116088867188, 6.527995586395264, 70.9870376586914, 202.32298278808594, 0.03200000151991844, -0.04800000041723251, 1.055999994277954, 0.0, 0.0, 0.0, 0.0, 0.0, 1.6209903702771237E9, 2021-05-14 13:06:10.277
16.0, -100.4125747680664, 5.570580959320068, 78.8109130859375, 209.6269989013672, 0.03200000151991844, -0.04800000041723251, 1.055999994277954, 0.0, 0.0, 0.0, 0.0, 0.0, 1.6209903702892241E9, 2021-05-14 13:06:10.289
16.0, -125.14079284667969, -17.938430786132812, 68.55610656738281, 184.26300048828125, 0.03200000151991844, -0.04800000041723251, 1.055999994277954, 0.0, 0.0, 0.0, 0.0, 0.0, 1.6209903702892241E9, 2021-05-14 13:06:10.289
17.0, -129.32200622558594, -22.572166442871094, 62.662025451660156, 174.0194091796875, 0.03200000151991844, -0.04800000041723251, 1.055999994277954, 0.0, 0.0, 0.0, 0.0, 0.0, 1.6209903703049676E9, 2021-05-14 13:06:10.304
17.0, -105.46891784667969, 1.1761984825134277, 76.00972747802734, 203.58706665039062, 0.03200000151991844, -0.04800000041723251, 1.055999994277954, 0.0, 0.0, 0.0, 0.0, 0.0, 1.6209903703049676E9, 2021-05-14 13:06:10.304
18.0, -100.53973388671875, 3.850227117538452, 81.11094665527344, 212.88819885253906, 0.03200000151991844, -0.04800000041723251, 1.055999994277954, 0.0, 0.0, 0.0, 0.0, 0.0, 1.6209903703057387E9, 2021-05-14 13:06:10.305
18.0, -120.83990478515625, -20.369365692138672, 62.695682525634766, 175.78465270996094, 0.03200000151991844, -0.04800000041723251, 1.055999994277954, 0.0, 0.0, 0.0, 0.0, 0.0, 1.6209903703057387E9, 2021-05-14 13:06:10.305
19.0, -118.12474060058594, -24.51691436767578, 62.172096252441406, 165.90757751464844, 0.03200000151991844, -0.04800000041723251, 1.055999994277954, 0.0, 0.0, 0.0, 0.0, 0.0, 1.620990370319268E9, 2021-05-14 13:06:10.319
19.0, -95.67411804199219, -12.624032020568848, 69.08343505859375, 185.46351623535156, 0.03200000151991844, -0.04800000041723251, 1.055999994277954, 0.0, 0.0, 0.0, 0.0, 0.0, 1.620990370319268E9, 2021-05-14 13:06:10.319
20.0, -95.38614654541016, -9.576013565063477, 71.49192810058594, 195.9352264404297, 0.03200000151991844, -0.04800000041723251, 1.055999994277954, 0.0, 0.0, 0.0, 0.0, 0.0, 1.620990370334988E9, 2021-05-14 13:06:10.334
20.0, -103.85327911376953, -16.883777618408203, 68.2307357788086, 173.75387573242188, 0.03200000151991844, -0.04800000041723251, 1.055999994277954, 0.0, 0.0, 0.0, 0.0, 0.0, 1.620990370334988E9, 2021-05-14 13:06:10.334
21.0, -117.74327087402344, -26.858091354370117, 56.637046813964844, 153.72671508789062, 0.03200000151991844, -0.04800000041723251, 1.055999994277954, 0.0, 0.0, 0.0, 0.0, 0.0, 1.6209903703356338E9, 2021-05-14 13:06:10.335
21.0, -99.94134521484375, 5.686517715454102, 75.56468200683594, 189.5399932861328, 0.03200000151991844, -0.04800000041723251, 1.055999994277954, 0.0, 0.0, 0.0, 0.0, 0.0, 1.6209903703356338E9, 2021-05-14 13:06:10.335
22.0, -97.9068374633789, 0.17016544938087463, 80.30313110351562, 193.62771606445312, 0.03200000151991844, -0.04800000041723251, 1.055999994277954, 0.0, 0.0, 0.0, 0.0, 0.0, 1.6209903703663192E9, 2021-05-14 13:06:10.366
22.0, -112.75424194335938, -20.952789306640625, 74.22205352783203, 168.9742889404297, 0.03200000151991844, -0.04800000041723251, 1.055999994277954, 0.0, 0.0, 0.0, 0.0, 0.0, 1.6209903703663192E9, 2021-05-14 13:06:10.366
23.0, -117.68717193603516, -20.586278915405273, 75.29166412353516, 167.35116577148438, 0.03200000151991844, -0.04800000041723251, 1.055999994277954, 0.0, 0.0, 0.0, 0.0, 0.0, 1.6209903703670623E9, 2021-05-14 13:06:10.367
23.0, -112.72432708740234, -11.629219055175781, 79.62995147705078, 190.14959716796875, 0.03200000151991844, -0.04800000041723251, 1.055999994277954, 0.0, 0.0, 0.0, 0.0, 0.0, 1.6209903703670623E9, 2021-05-14 13:06:10.367
24.0, -107.3800048828125, -1.1387995481491089, 87.29300689697266, 202.6446075439453, 0.03200000151991844, -0.04800000041723251, 1.055999994277954, 0.0, 0.0, 0.0, 0.0, 0.0, 1.6209903703678937E9, 2021-05-14 13:06:10.367
24.0, -123.13994598388672, -18.91454315185547, 78.30976867675781, 175.01797485351562, 0.03200000151991844, -0.04800000041723251, 1.055999994277954, 0.0, 0.0, 0.0, 0.0, 0.0, 1.6209903703678937E9, 2021-05-14 13:06:10.367
25.0, -125.7616195678711, -21.05002784729004, 67.71463012695312, 167.2726287841797, 0.03200000151991844, -0.04800000041723251, 1.055999994277954, 0.0, 0.0, 0.0, 0.0, 0.0, 1.62099037037932E9, 2021-05-14 13:06:10.379
25.0, -108.91336822509766, 1.049041986465454, 76.75396728515625, 193.37339782714844, 0.03200000151991844, -0.04800000041723251, 1.055999994277954, 0.0, 0.0, 0.0, 0.0, 0.0, 1.62099037037932E9, 2021-05-14 13:06:10.379
26.0, -103.97296142578125, -1.4903501272201538, 82.79390716552734, 203.8301544189453, 0.03200000151991844, -0.04800000041723251, 1.055999994277954, 0.0, 0.0, 0.0, 0.0, 0.0, 1.6209903703950453E9, 2021-05-14 13:06:10.395
26.0, -122.26107025146484, -16.853858947753906, 74.35295104980469, 178.051025390625, 0.03200000151991844, -0.04800000041723251, 1.055999994277954, 0.0, 0.0, 0.0, 0.0, 0.0, 1.6209903703950453E9, 2021-05-14 13:06:10.395
27.0, -127.70262145996094, -26.334505081176758, 64.00838470458984, 170.2982177734375, 0.03200000151991844, -0.04800000041723251, 1.055999994277954, 0.0, 0.0, 0.0, 0.0, 0.0, 1.6209903703956776E9, 2021-05-14 13:06:10.395
27.0, -103.9243392944336, -9.576013565063477, 67.26583862304688, 191.85125732421875, 0.03200000151991844, -0.04800000041723251, 1.055999994277954, 0.0, 0.0, 0.0, 0.0, 0.0, 1.6209903703956776E9, 2021-05-14 13:06:10.395
28.0, -104.545166015625, -3.3490803241729736, 76.42859649658203, 202.58102416992188, 0.03200000151991844, -0.04800000041723251, 1.055999994277954, 0.0, 0.0, 0.0, 0.0, 0.0, 1.6209903704092648E9, 2021-05-14 13:06:10.409
28.0, -124.77428436279297, -19.131458282470703, 63.14821243286133, 168.2524871826172, 0.03200000151991844, -0.04800000041723251, 1.055999994277954, 0.0, 0.0, 0.0, 0.0, 0.0, 1.6209903704092648E9, 2021-05-14 13:06:10.409
29.0, -128.7498016357422, -15.054966926574707, 56.28923416137695, 157.8181610107422, 0.03200000151991844, -0.04800000041723251, 1.055999994277954, 0.0, 0.0, 0.0, 0.0, 0.0, 1.620990370424906E9, 2021-05-14 13:06:10.424
29.0, -105.6484375, -9.317960739135742, 74.53246307373047, 190.2543182373047, 0.03200000151991844, -0.04800000041723251, 1.055999994277954, 0.0, 0.0, 0.0, 0.0, 0.0, 1.620990370424906E9, 2021-05-14 13:06:10.424
30.0, -106.31787872314453, 0.08788765221834183, 81.43257904052734, 198.45591735839844, 0.03200000151991844, -0.04800000041723251, 1.055999994277954, 0.0, 0.0, 0.0, 0.0, 0.0, 1.6209903704256537E9, 2021-05-14 13:06:10.425
30.0, -117.8741683959961, -22.92745590209961, 62.79291915893555, 175.1339111328125, 0.03200000151991844, -0.04800000041723251, 1.055999994277954, 0.0, 0.0, 0.0, 0.0, 0.0, 1.6209903704256537E9, 2021-05-14 13:06:10.425
31.0, -126.52081298828125, -24.266340255737305, 60.54523849487305, 164.6135711669922, 0.03200000151991844, -0.06400000303983688, 1.055999994277954, 0.0, 0.0, 0.0, 0.0, 0.0, 1.6209903704392931E9, 2021-05-14 13:06:10.439
31.0, -111.61731719970703, -11.180431365966797, 72.16510772705078, 196.18954467773438, 0.03200000151991844, -0.06400000303983688, 1.055999994277954, 0.0, 0.0, 0.0, 0.0, 0.0, 1.6209903704392931E9, 2021-05-14 13:06:10.439
32.0, -107.80635833740234, -6.599053382873535, 78.58651733398438, 200.8307647705078, 0.03200000151991844, -0.06400000303983688, 1.055999994277954, 0.0, 0.0, 0.0, 0.0, 0.0, 1.6209903704860232E9, 2021-05-14 13:06:10.486
32.0, -121.95813751220703, -27.434036254882812, 68.92635345458984, 176.607421875, 0.03200000151991844, -0.06400000303983688, 1.055999994277954, 0.0, 0.0, 0.0, 0.0, 0.0, 1.6209903704860232E9, 2021-05-14 13:06:10.486
33.0, -125.60079956054688, -32.20615005493164, 64.01960754394531, 171.6034393310547, 0.03200000151991844, -0.06400000303983688, 1.055999994277954, 0.0, 0.0, 0.0, 0.0, 0.0, 1.620990370486787E9, 2021-05-14 13:06:10.486
33.0, -115.15899658203125, -9.691950798034668, 75.29166412353516, 197.12451171875, 0.03200000151991844, -0.06400000303983688, 1.055999994277954, 0.0, 0.0, 0.0, 0.0, 0.0, 1.620990370486787E9, 2021-05-14 13:06:10.486
34.0, -103.93181610107422, -0.9443247318267822, 76.59689331054688, 208.95382690429688, 0.03200000151991844, -0.06400000303983688, 1.055999994277954, 0.0, 0.0, 0.0, 0.0, 0.0, 1.620990370487456E9, 2021-05-14 13:06:10.487
34.0, -125.062255859375, -24.53935432434082, 63.00609588623047, 181.94052124023438, 0.03200000151991844, -0.06400000303983688, 1.055999994277954, 0.0, 0.0, 0.0, 0.0, 0.0, 1.620990370487456E9, 2021-05-14 13:06:10.487
35.0, -124.81168365478516, -28.196975708007812, 54.84189224243164, 170.19723510742188, 0.03200000151991844, -0.06400000303983688, 1.055999994277954, 0.0, 0.0, 0.0, 0.0, 0.0, 1.6209903705012958E9, 2021-05-14 13:06:10.501
35.0, -109.2237777709961, -15.159684181213379, 62.15339660644531, 197.79769897460938, 0.03200000151991844, -0.06400000303983688, 1.055999994277954, 0.0, 0.0, 0.0, 0.0, 0.0, 1.6209903705012958E9, 2021-05-14 13:06:10.501
36.0, -104.38434600830078, -1.2435166835784912, 66.14012908935547, 200.2136688232422, 0.03200000151991844, -0.06400000303983688, 1.055999994277954, 0.0, 0.0, 0.0, 0.0, 0.0, 1.6209903705020547E9, 2021-05-14 13:06:10.502
36.0, -122.73977661132812, -24.77870750427246, 61.940223693847656, 172.23922729492188, 0.03200000151991844, -0.06400000303983688, 1.055999994277954, 0.0, 0.0, 0.0, 0.0, 0.0, 1.6209903705020547E9, 2021-05-14 13:06:10.502
37.0, -127.23513793945312, -29.876190185546875, 56.99981689453125, 160.33511352539062, 0.03200000151991844, -0.06400000303983688, 1.055999994277954, 0.0, 0.0, 0.0, 0.0, 0.0, 1.6209903705027945E9, 2021-05-14 13:06:10.502
37.0, -102.67147064208984, -16.01238250732422, 65.36222839355469, 183.5673828125, 0.03200000151991844, -0.06400000303983688, 1.055999994277954, 0.0, 0.0, 0.0, 0.0, 0.0, 1.6209903705027945E9, 2021-05-14 13:06:10.502
38.0, -100.65192413330078, -14.045194625854492, 71.41339111328125, 197.2142791748047, 0.03200000151991844, -0.06400000303983688, 1.055999994277954, 0.0, 0.0, 0.0, 0.0, 0.0, 1.6209903705036373E9, 2021-05-14 13:06:10.503
38.0, -107.596923828125, -35.90116882324219, 66.73851776123047, 178.65689086914062, 0.03200000151991844, -0.06400000303983688, 1.055999994277954, 0.0, 0.0, 0.0, 0.0, 0.0, 1.6209903705036373E9, 2021-05-14 13:06:10.503
39.0, -116.68487548828125, -41.802730560302734, 56.57346725463867, 168.18890380859375, 0.03200000151991844, -0.06400000303983688, 1.055999994277954, 0.0, 0.0, 0.0, 0.0, 0.0, 1.6209903705141668E9, 2021-05-14 13:06:10.514
39.0, -101.1942138671875, -34.05739974975586, 65.99801635742188, 197.1357421875, 0.03200000151991844, -0.06400000303983688, 1.055999994277954, 0.0, 0.0, 0.0, 0.0, 0.0, 1.6209903705141668E9, 2021-05-14 13:06:10.514
40.0, -95.64046478271484, -19.11275863647461, 80.99127197265625, 209.6307373046875, 0.03200000151991844, -0.06400000303983688, 1.055999994277954, 0.0, 0.0, 0.0, 0.0, 0.0, 1.6209903705293603E9, 2021-05-14 13:06:10.529
40.0, -123.30824279785156, -39.35309600830078, 62.033721923828125, 173.8511199951172, 0.03200000151991844, -0.06400000303983688, 1.055999994277954, 0.0, 0.0, 0.0, 0.0, 0.0, 1.6209903705293603E9, 2021-05-14 13:06:10.529
41.0, -132.1456298828125, -33.05884552001953, 66.49542236328125, 174.29991149902344, 0.03200000151991844, -0.06400000303983688, 1.055999994277954, 0.0, 0.0, 0.0, 0.0, 0.0, 1.6209903705612304E9, 2021-05-14 13:06:10.561
41.0, -119.85631561279297, -24.109264373779297, 72.17633056640625, 196.3316650390625, 0.03200000151991844, -0.06400000303983688, 1.055999994277954, 0.0, 0.0, 0.0, 0.0, 0.0, 1.6209903705612304E9, 2021-05-14 13:06:10.561
42.0, -110.41680908203125, -15.687010765075684, 75.37020111083984, 206.27230834960938, 0.03200000151991844, -0.06400000303983688, 1.055999994277954, 0.0, 0.0, 0.0, 0.0, 0.0, 1.6209903705619388E9, 2021-05-14 13:06:10.561
42.0, -123.16612243652344, -40.74433898925781, 63.42122268676758, 182.03402709960938, 0.03200000151991844, -0.06400000303983688, 1.055999994277954, 0.0, 0.0, 0.0, 0.0, 0.0, 1.6209903705619388E9, 2021-05-14 13:06:10.561
43.0, -127.76994323730469, -46.18963623046875, 57.08583450317383, 167.6540985107422, 0.03200000151991844, -0.06400000303983688, 1.055999994277954, 0.0, 0.0, 0.0, 0.0, 0.0, 1.6209903705627449E9, 2021-05-14 13:06:10.562
43.0, -106.50861358642578, -30.04822540283203, 63.58203887939453, 192.86477661132812, 0.03200000151991844, -0.06400000303983688, 1.055999994277954, 0.0, 0.0, 0.0, 0.0, 0.0, 1.6209903705627449E9, 2021-05-14 13:06:10.562
44.0, -94.94483947753906, -22.56842613220215, 78.26488494873047, 209.85887145996094, 0.03200000151991844, -0.06400000303983688, 1.055999994277954, 0.0, 0.0, 0.0, 0.0, 0.0, 1.62099037056363E9, 2021-05-14 13:06:10.563
44.0, -118.18083953857422, -48.104461669921875, 63.05097198486328, 173.24525451660156, 0.03200000151991844, -0.06400000303983688, 1.055999994277954, 0.0, 0.0, 0.0, 0.0, 0.0, 1.62099037056363E9, 2021-05-14 13:06:10.563
45.0, -116.03787231445312, -48.628047943115234, 60.00669479370117, 167.5830535888672, 0.03200000151991844, -0.06400000303983688, 1.055999994277954, 0.0, 0.0, 0.0, 0.0, 0.0, 1.6209903705898852E9, 2021-05-14 13:06:10.589
45.0, -96.25006866455078, -38.186248779296875, 69.62945556640625, 196.47377014160156, 0.03200000151991844, -0.06400000303983688, 1.055999994277954, 0.0, 0.0, 0.0, 0.0, 0.0, 1.6209903705898852E9, 2021-05-14 13:06:10.589
46.0, -97.53659057617188, -28.48120880126953, 76.40241241455078, 210.74148559570312, 0.03200000151991844, -0.06400000303983688, 1.055999994277954, 0.0, 0.0, 0.0, 0.0, 0.0, 1.6209903705906165E9, 2021-05-14 13:06:10.590
46.0, -116.80829620361328, -41.578338623046875, 65.62776184082031, 179.8312225341797, 0.03200000151991844, -0.06400000303983688, 1.055999994277954, 0.0, 0.0, 0.0, 0.0, 0.0, 1.6209903705906165E9, 2021-05-14 13:06:10.590
47.0, -124.23573303222656, -47.06476974487305, 57.67673873901367, 169.65121459960938, 0.03200000151991844, -0.06400000303983688, 1.055999994277954, 0.0, 0.0, 0.0, 0.0, 0.0, 1.6209903706049917E9, 2021-05-14 13:06:10.604
47.0, -103.50920867919922, -28.787879943847656, 80.6995620727539, 199.09918212890625, 0.03200000151991844, -0.06400000303983688, 1.055999994277954, 0.0, 0.0, 0.0, 0.0, 0.0, 1.6209903706049917E9, 2021-05-14 13:06:10.604
48.0, -99.0101089477539, -21.90272331237793, 85.0191421508789, 202.34915161132812, 0.03200000151991844, -0.06400000303983688, 1.055999994277954, 0.0, 0.0, 0.0, 0.0, 0.0, 1.6209903706057625E9, 2021-05-14 13:06:10.605
48.0, -125.8887710571289, -46.31679153442383, 67.92780303955078, 169.89804077148438, 0.03200000151991844, -0.06400000303983688, 1.055999994277954, 0.0, 0.0, 0.0, 0.0, 0.0, 1.6209903706057625E9, 2021-05-14 13:06:10.605
49.0, -131.19195556640625, -38.956668853759766, 63.81391143798828, 164.0189208984375, 0.03200000151991844, -0.06400000303983688, 1.055999994277954, 0.0, 0.0, 0.0, 0.0, 0.0, 1.620990370619317E9, 2021-05-14 13:06:10.619
49.0, -117.12244415283203, -29.648056030273438, 74.42027282714844, 190.80409240722656, 0.03200000151991844, -0.06400000303983688, 1.055999994277954, 0.0, 0.0, 0.0, 0.0, 0.0, 1.620990370619317E9, 2021-05-14 13:06:10.619
50.0, -104.13003540039062, -19.819599151611328, 82.50967407226562, 210.49465942382812, 0.03200000151991844, -0.06400000303983688, 1.055999994277954, 0.0, 0.0, 0.0, 0.0, 0.0, 1.6209903706350265E9, 2021-05-14 13:06:10.635
50.0, -125.46990203857422, -35.99840545654297, 72.8943862915039, 185.62432861328125, 0.03200000151991844, -0.06400000303983688, 1.055999994277954, 0.0, 0.0, 0.0, 0.0, 0.0, 1.6209903706350265E9, 2021-05-14 13:06:10.635
51.0, -130.59356689453125, -50.258644104003906, 53.525447845458984, 170.71334838867188, 0.03200000151991844, -0.04800000041723251, 1.055999994277954, 0.0, 0.0, 0.0, 0.0, 0.0, 1.620990370635677E9, 2021-05-14 13:06:10.635
51.0, -102.73505401611328, -22.344032287597656, 68.42147064208984, 201.94151306152344, 0.03200000151991844, -0.04800000041723251, 1.055999994277954, 0.0, 0.0, 0.0, 0.0, 0.0, 1.620990370635677E9, 2021-05-14 13:06:10.635
52.0, -97.13268280029297, -20.3057861328125, 77.82357788085938, 208.39283752441406, 0.03200000151991844, -0.04800000041723251, 1.055999994277954, 0.0, 0.0, 0.0, 0.0, 0.0, 1.6209903706493037E9, 2021-05-14 13:06:10.649
52.0, -120.66413116455078, -42.59933090209961, 64.8797836303711, 174.1503143310547, 0.03200000151991844, -0.04800000041723251, 1.055999994277954, 0.0, 0.0, 0.0, 0.0, 0.0, 1.6209903706493037E9, 2021-05-14 13:06:10.649
53.0, -125.8438949584961, -44.60391616821289, 64.60677337646484, 169.50535583496094, 0.03200000151991844, -0.04800000041723251, 1.055999994277954, 0.0, 0.0, 0.0, 0.0, 0.0, 1.6209903706650295E9, 2021-05-14 13:06:10.665
53.0, -107.89237213134766, -26.839391708374023, 62.03746032714844, 191.114501953125, 0.03200000151991844, -0.04800000041723251, 1.055999994277954, 0.0, 0.0, 0.0, 0.0, 0.0, 1.6209903706650295E9, 2021-05-14 13:06:10.665
54.0, -111.28820037841797, -23.1518497467041, 73.35813903808594, 212.8956756591797, 0.03200000151991844, -0.04800000041723251, 1.055999994277954, 0.0, 0.0, 0.0, 0.0, 0.0, 1.6209903706656349E9, 2021-05-14 13:06:10.665
54.0, -122.70985412597656, -34.28179168701172, 63.3763427734375, 183.87779235839844, 0.03200000151991844, -0.04800000041723251, 1.055999994277954, 0.0, 0.0, 0.0, 0.0, 0.0, 1.6209903706656349E9, 2021-05-14 13:06:10.665
55.0, -131.35650634765625, -47.42753982543945, 54.98774719238281, 173.06573486328125, 0.03200000151991844, -0.04800000041723251, 1.055999994277954, 0.0, 0.0, 0.0, 0.0, 0.0, 1.6209903706792254E9, 2021-05-14 13:06:10.679
55.0, -120.11436462402344, -29.535860061645508, 63.16691207885742, 194.98155212402344, 0.03200000151991844, -0.04800000041723251, 1.055999994277954, 0.0, 0.0, 0.0, 0.0, 0.0, 1.6209903706792254E9, 2021-05-14 13:06:10.679
56.0, -106.96862030029297, -16.188156127929688, 71.38720703125, 208.6247100830078, 0.03200000151991844, -0.04800000041723251, 1.055999994277954, 0.0, 0.0, 0.0, 0.0, 0.0, 1.6209903706957605E9, 2021-05-14 13:06:10.695
56.0, -131.6856231689453, -36.02084732055664, 58.4284553527832, 175.39944458007812, 0.03200000151991844, -0.04800000041723251, 1.055999994277954, 0.0, 0.0, 0.0, 0.0, 0.0, 1.6209903706957605E9, 2021-05-14 13:06:10.695
57.0, -134.62144470214844, -42.053306579589844, 56.73054122924805, 168.22256469726562, 0.03200000151991844, -0.04800000041723251, 1.055999994277954, 0.0, 0.0, 0.0, 0.0, 0.0, 1.620990370696419E9, 2021-05-14 13:06:10.696
57.0, -118.85401916503906, -22.893796920776367, 65.76988220214844, 195.80059814453125, 0.03200000151991844, -0.04800000041723251, 1.055999994277954, 0.0, 0.0, 0.0, 0.0, 0.0, 1.620990370696419E9, 2021-05-14 13:06:10.696
58.0, -114.38484191894531, -10.697983741760254, 71.13289642333984, 199.7499237060547, 0.03200000151991844, -0.04800000041723251, 1.055999994277954, 0.0, 0.0, 0.0, 0.0, 0.0, 1.620990370709351E9, 2021-05-14 13:06:10.709
58.0, -134.99542236328125, -36.72020721435547, 56.827781677246094, 173.66786193847656, 0.03200000151991844, -0.04800000041723251, 1.055999994277954, 0.0, 0.0, 0.0, 0.0, 0.0, 1.620990370709351E9, 2021-05-14 13:06:10.709
59.0, -137.29173278808594, -42.621768951416016, 56.23687744140625, 168.37216186523438, 0.03200000151991844, -0.04800000041723251, 1.055999994277954, 0.0, 0.0, 0.0, 0.0, 0.0, 1.6209903707248535E9, 2021-05-14 13:06:10.724
59.0, -114.03703308105469, -17.403623580932617, 69.51351928710938, 200.7372589111328, 0.03200000151991844, -0.04800000041723251, 1.055999994277954, 0.0, 0.0, 0.0, 0.0, 0.0, 1.6209903707248535E9, 2021-05-14 13:06:10.724
60.0, -106.14209747314453, -22.48988914489746, 71.71632385253906, 206.0778350830078, 0.03200000151991844, -0.04800000041723251, 1.055999994277954, 0.0, 0.0, 0.0, 0.0, 0.0, 1.620990370725618E9, 2021-05-14 13:06:10.725
60.0, -119.49728393554688, -52.689579010009766, 54.29960632324219, 172.44491577148438, 0.03200000151991844, -0.04800000041723251, 1.055999994277954, 0.0, 0.0, 0.0, 0.0, 0.0, 1.620990370725618E9, 2021-05-14 13:06:10.725
61.0, -117.48521423339844, -46.20833206176758, 61.454036712646484, 168.94436645507812, 0.03200000151991844, -0.04800000041723251, 1.055999994277954, 0.0, 0.0, 0.0, 0.0, 0.0, 1.6209903707393496E9, 2021-05-14 13:06:10.739
61.0, -108.0008316040039, -33.66844940185547, 61.31565856933594, 191.89239501953125, 0.03200000151991844, -0.04800000041723251, 1.055999994277954, 0.0, 0.0, 0.0, 0.0, 0.0, 1.6209903707393496E9, 2021-05-14 13:06:10.739
62.0, -107.09577178955078, -28.612104415893555, 69.1170883178711, 209.52976989746094, 0.03200000151991844, -0.04800000041723251, 1.055999994277954, 0.0, 0.0, 0.0, 0.0, 0.0, 1.6209903707549243E9, 2021-05-14 13:06:10.754
62.0, -124.62842559814453, -43.06681823730469, 50.01742172241211, 173.11062622070312, 0.03200000151991844, -0.04800000041723251, 1.055999994277954, 0.0, 0.0, 0.0, 0.0, 0.0, 1.6209903707549243E9, 2021-05-14 13:06:10.754
63.0, -132.23538208007812, -39.83554458618164, 45.24156951904297, 170.7993621826172, 0.03200000151991844, -0.04800000041723251, 1.055999994277954, 0.0, 0.0, 0.0, 0.0, 0.0, 1.6209903707555895E9, 2021-05-14 13:06:10.755
63.0, -118.8989028930664, -23.249088287353516, 65.77362060546875, 195.856689453125, 0.03200000151991844, -0.04800000041723251, 1.055999994277954, 0.0, 0.0, 0.0, 0.0, 0.0, 1.6209903707555895E9, 2021-05-14 13:06:10.755
64.0, -122.5565185546875, -20.0589542388916, 63.18935012817383, 194.2111358642578, 0.03200000151991844, -0.04800000041723251, 1.055999994277954, 0.0, 0.0, 0.0, 0.0, 0.0, 1.6209903707692535E9, 2021-05-14 13:06:10.769
64.0, -138.80264282226562, -33.39917755126953, 56.0984992980957, 170.94522094726562, 0.03200000151991844, -0.04800000041723251, 1.055999994277954, 0.0, 0.0, 0.0, 0.0, 0.0, 1.6209903707692535E9, 2021-05-14 13:06:10.769
65.0, -138.89614868164062, -31.132797241210938, 53.921878814697266, 167.39231872558594, 0.03200000151991844, -0.04800000041723251, 1.055999994277954, 0.0, 0.0, 0.0, 0.0, 0.0, 1.6209903707849967E9, 2021-05-14 13:06:10.784
65.0, -105.73818969726562, -14.355606079101562, 69.7154769897461, 192.40476989746094, 0.03200000151991844, -0.04800000041723251, 1.055999994277954, 0.0, 0.0, 0.0, 0.0, 0.0, 1.6209903707849967E9, 2021-05-14 13:06:10.784
66.0, -111.20218658447266, -13.895598411560059, 75.21312713623047, 203.56088256835938, 0.03200000151991844, -0.04800000041723251, 1.055999994277954, 0.0, 0.0, 0.0, 0.0, 0.0, 1.6209903707856576E9, 2021-05-14 13:06:10.785
66.0, -128.61141967773438, -36.06946563720703, 67.47901153564453, 176.94775390625, 0.03200000151991844, -0.04800000041723251, 1.055999994277954, 0.0, 0.0, 0.0, 0.0, 0.0, 1.6209903707856576E9, 2021-05-14 13:06:10.785
67.0, -127.14163970947266, -41.62321472167969, 62.77421951293945, 167.39979553222656, 0.03200000151991844, -0.04800000041723251, 1.055999994277954, 0.0, 0.0, 0.0, 0.0, 0.0, 1.620990370799278E9, 2021-05-14 13:06:10.799
67.0, -108.60669708251953, -24.06438636779785, 68.72814178466797, 197.49102783203125, 0.03200000151991844, -0.04800000041723251, 1.055999994277954, 0.0, 0.0, 0.0, 0.0, 0.0, 1.620990370799278E9, 2021-05-14 13:06:10.799
68.0, -93.5835189819336, -13.11021900177002, 78.13398742675781, 208.77804565429688, 0.03200000151991844, -0.04800000041723251, 1.055999994277954, 0.0, 0.0, 0.0, 0.0, 0.0, 1.6209903708146749E9, 2021-05-14 13:06:10.814
68.0, -122.72481536865234, -42.56193161010742, 62.033721923828125, 172.93858337402344, 0.03200000151991844, -0.04800000041723251, 1.055999994277954, 0.0, 0.0, 0.0, 0.0, 0.0, 1.6209903708146749E9, 2021-05-14 13:06:10.814
69.0, -121.66642761230469, -45.11628341674805, 56.28923416137695, 165.11097717285156, 0.03200000151991844, -0.04800000041723251, 1.055999994277954, 0.0, 0.0, 0.0, 0.0, 0.0, 1.62099037083033E9, 2021-05-14 13:06:10.830
69.0, -111.25454711914062, -24.299999237060547, 67.37803649902344, 194.18121337890625, 0.03200000151991844, -0.04800000041723251, 1.055999994277954, 0.0, 0.0, 0.0, 0.0, 0.0, 1.62099037083033E9, 2021-05-14 13:06:10.830
70.0, -103.77848052978516, -16.090919494628906, 72.39698028564453, 206.42190551757812, 0.03200000151991844, -0.04800000041723251, 1.055999994277954, 0.0, 0.0, 0.0, 0.0, 0.0, 1.620990370845698E9, 2021-05-14 13:06:10.845
70.0, -122.12269592285156, -36.6379280090332, 63.62691879272461, 176.89166259765625, 0.03200000151991844, -0.04800000041723251, 1.055999994277954, 0.0, 0.0, 0.0, 0.0, 0.0, 1.620990370845698E9, 2021-05-14 13:06:10.845
71.0, -128.4169464111328, -46.94135284423828, 56.98485565185547, 173.20411682128906, 0.03200000151991844, -0.04800000041723251, 1.055999994277954, 0.0, 0.0, 0.0, 0.0, 0.0, 1.6209903708464134E9, 2021-05-14 13:06:10.846
71.0, -112.03992462158203, -21.151004791259766, 62.10477828979492, 190.84523010253906, 0.03200000151991844, -0.04800000041723251, 1.055999994277954, 0.0, 0.0, 0.0, 0.0, 0.0, 1.6209903708464134E9, 2021-05-14 13:06:10.846
72.0, -107.25285339355469, -13.850719451904297, 72.73357391357422, 207.90664672851562, 0.03200000151991844, -0.04800000041723251, 1.055999994277954, 0.0, 0.0, 0.0, 0.0, 0.0, 1.620990370847048E9, 2021-05-14 13:06:10.847
72.0, -123.18856811523438, -41.62321472167969, 66.0690689086914, 180.64651489257812, 0.03200000151991844, -0.04800000041723251, 1.055999994277954, 0.0, 0.0, 0.0, 0.0, 0.0, 1.620990370847048E9, 2021-05-14 13:06:10.847
73.0, -125.82145690917969, -41.294105529785156, 60.77711486816406, 173.66412353515625, 0.03200000151991844, -0.04800000041723251, 1.055999994277954, 0.0, 0.0, 0.0, 0.0, 0.0, 1.6209903708591835E9, 2021-05-14 13:06:10.859
73.0, -110.813232421875, -28.79909896850586, 63.57830047607422, 193.3659210205078, 0.03200000151991844, -0.04800000041723251, 1.055999994277954, 0.0, 0.0, 0.0, 0.0, 0.0, 1.6209903708591835E9, 2021-05-14 13:06:10.859
74.0, -109.85208129882812, -14.639838218688965, 81.02867126464844, 203.07469177246094, 0.03200000151991844, -0.04800000041723251, 1.055999994277954, 0.0, 0.0, 0.0, 0.0, 0.0, 1.620990370874951E9, 2021-05-14 13:06:10.874
74.0, -120.82120513916016, -36.08442306518555, 70.33255767822266, 174.46820068359375, 0.03200000151991844, -0.04800000041723251, 1.055999994277954, 0.0, 0.0, 0.0, 0.0, 0.0, 1.620990370874951E9, 2021-05-14 13:06:10.874
