Sample Index, EXG Channel 0, EXG Channel 1, EXG Channel 2, EXG Channel 3, Accel Channel 0, Accel Channel 1, Accel Channel 2, Other, Other, Other, Other, Other, Timestamp, Timestamp (Formatted)
0.0, -131.46682739257812, -61.863555908203125, -4.448610782623291, 104.4161376953125, 0.0, 0.0, 0.0, 0.0, 0.0, 0.0, 0.0, 0.0, 1.6209949128474436E9, 2021-05-14 14:21:52.847
1.0, -123.23157501220703, -74.29124450683594, 5.720177173614502, 108.17473602294922, 0.0, -0.04800000041723251, 0.0, 0.0, 0.0, 0.0, 0.0, 0.0, 1.6209949128607252E9, 2021-05-14 14:21:52.860
1.0, -142.25643920898438, -86.3524169921875, -9.61715316772461, 96.2070541381836, 0.0, -0.04800000041723251, 0.0, 0.0, 0.0, 0.0, 0.0, 0.0, 1.6209949128607252E9, 2021-05-14 14:21:52.860
2.0, -155.7649688720703, -72.68682861328125, -24.546833038330078, 88.8805923461914, 0.03200000151991844, -0.04800000041723251, 0.0, 0.0, 0.0, 0.0, 0.0, 0.0, 1.620994912891906E9, 2021-05-14 14:21:52.891
2.0, -135.150634765625, -59.559776306152344, -14.546340942382812, 126.06641387939453, 0.03200000151991844, -0.04800000041723251, 0.0, 0.0, 0.0, 0.0, 0.0, 0.0, 1.620994912891906E9, 2021-05-14 14:21:52.891
3.0, -141.44488525390625, -61.766319274902344, -10.170658111572266, 128.47865295410156, 0.03200000151991844, -0.04800000041723251, 0.0, 0.0, 0.0, 0.0, 0.0, 0.0, 1.6209949129360645E9, 2021-05-14 14:21:52.936
3.0, -152.0325469970703, -71.3741226196289, -23.159330368041992, 107.53520965576172, 0.03200000151991844, -0.04800000041723251, 0.0, 0.0, 0.0, 0.0, 0.0, 0.0, 1.6209949129360645E9, 2021-05-14 14:21:52.936
4.0, -152.77304077148438, -67.48462677001953, -25.762300491333008, 108.28693389892578, 0.03200000151991844, -0.04800000041723251, 0.0, 0.0, 0.0, 0.0, 0.0, 0.0, 1.620994912951032E9, 2021-05-14 14:21:52.951
4.0, -137.8171844482422, -58.24333190917969, -11.681577682495117, 131.36959838867188, 0.03200000151991844, -0.04800000041723251, 0.0, 0.0, 0.0, 0.0, 0.0, 0.0, 1.620994912951032E9, 2021-05-14 14:21:52.951
5.0, -148.60305786132812, -65.20328521728516, -11.520761489868164, 128.9237060546875, 0.03200000151991844, -0.04800000041723251, 0.0, 0.0, 0.0, 0.0, 0.0, 0.0, 1.6209949129681947E9, 2021-05-14 14:21:52.968
5.0, -163.91419982910156, -71.44892120361328, -27.505094528198242, 101.8505630493164, 0.03200000151991844, -0.04800000041723251, 0.0, 0.0, 0.0, 0.0, 0.0, 0.0, 1.6209949129681947E9, 2021-05-14 14:21:52.968
6.0, -156.96173095703125, -71.81169128417969, -25.62018394470215, 102.59854888916016, 0.03200000151991844, -0.04800000041723251, 0.0, 0.0, 0.0, 0.0, 0.0, 0.0, 1.6209949129688737E9, 2021-05-14 14:21:52.968
6.0, -135.22543334960938, -54.548309326171875, -13.17753791809082, 117.84237670898438, 0.03200000151991844, -0.04800000041723251, 0.0, 0.0, 0.0, 0.0, 0.0, 0.0, 1.6209949129688737E9, 2021-05-14 14:21:52.968
7.0, -132.779541015625, -54.28651809692383, -2.0662946701049805, 108.86287689208984, 0.03200000151991844, -0.04800000041723251, 0.0, 0.0, 0.0, 0.0, 0.0, 0.0, 1.6209949129696095E9, 2021-05-14 14:21:52.969
7.0, -143.09043884277344, -66.70298767089844, -13.458029747009277, 83.10244750976562, 0.03200000151991844, -0.04800000041723251, 0.0, 0.0, 0.0, 0.0, 0.0, 0.0, 1.6209949129696095E9, 2021-05-14 14:21:52.969
8.0, -144.6911163330078, -65.49125671386719, -17.56443977355957, 81.23997497558594, 0.03200000151991844, -0.04800000041723251, 0.0, 0.0, 0.0, 0.0, 0.0, 0.0, 1.6209949129703448E9, 2021-05-14 14:21:52.970
8.0, -130.79739379882812, -50.67377471923828, -3.764209270477295, 103.33904266357422, 0.03200000151991844, -0.04800000041723251, 0.0, 0.0, 0.0, 0.0, 0.0, 0.0, 1.6209949129703448E9, 2021-05-14 14:21:52.970
9.0, -136.160400390625, -48.269020080566406, -5.1404924392700195, 87.66138458251953, 0.03200000151991844, -0.04800000041723251, 0.0, 0.0, 0.0, 0.0, 0.0, 0.0, 1.620994912982649E9, 2021-05-14 14:21:52.982
9.0, -150.83203125, -54.929779052734375, -17.149311065673828, 65.85028839111328, 0.03200000151991844, -0.04800000041723251, 0.0, 0.0, 0.0, 0.0, 0.0, 0.0, 1.620994912982649E9, 2021-05-14 14:21:52.982
10.0, -150.72732543945312, -53.800331115722656, -20.133750915527344, 67.91844940185547, 0.03200000151991844, -0.04800000041723251, 1.055999994277954, 0.0, 0.0, 0.0, 0.0, 0.0, 1.6209949129834397E9, 2021-05-14 14:21:52.983
10.0, -132.28587341308594, -43.63902282714844, -5.118052959442139, 95.07012939453125, 0.03200000151991844, -0.04800000041723251, 1.055999994277954, 0.0, 0.0, 0.0, 0.0, 0.0, 1.6209949129834397E9, 2021-05-14 14:21:52.983
13.0, -131.49301147460938, -43.73625946044922, -1.4230319261550903, 102.79676055908203, 0.03200000151991844, -0.04800000041723251, 1.055999994277954, 0.0, 0.0, 0.0, 0.0, 0.0, 1.6209949129842145E9, 2021-05-14 14:21:52.984
13.0, -153.7977752685547, -60.936058044433594, -12.968103408813477, 80.91834259033203, 0.03200000151991844, -0.04800000041723251, 1.055999994277954, 0.0, 0.0, 0.0, 0.0, 0.0, 1.6209949129842145E9, 2021-05-14 14:21:52.984
14.0, -152.20831298828125, -58.804317474365234, -18.25632095336914, 85.1444320678711, 0.03200000151991844, -0.04800000041723251, 1.055999994277954, 0.0, 0.0, 0.0, 0.0, 0.0, 1.620994912984806E9, 2021-05-14 14:21:52.984
14.0, -136.73635864257812, -45.490272521972656, -8.40168571472168, 106.77227020263672, 0.03200000151991844, -0.04800000041723251, 1.055999994277954, 0.0, 0.0, 0.0, 0.0, 0.0, 1.620994912984806E9, 2021-05-14 14:21:52.984
15.0, -128.0822296142578, -48.10820388793945, -6.112866401672363, 99.75621795654297, 0.03200000151991844, -0.04800000041723251, 1.055999994277954, 0.0, 0.0, 0.0, 0.0, 0.0, 1.620994913011248E9, 2021-05-14 14:21:53.011
15.0, -139.67591857910156, -70.2297134399414, -16.072219848632812, 65.76426696777344, 0.03200000151991844, -0.04800000041723251, 1.055999994277954, 0.0, 0.0, 0.0, 0.0, 0.0, 1.620994913011248E9, 2021-05-14 14:21:53.011
16.0, -130.34112548828125, -59.182044982910156, -9.16462516784668, 70.25962829589844, 0.03200000151991844, -0.04800000041723251, 1.055999994277954, 0.0, 0.0, 0.0, 0.0, 0.0, 1.6209949130120738E9, 2021-05-14 14:21:53.012
16.0, -118.07424926757812, -46.447689056396484, -3.876406192779541, 85.17435455322266, 0.03200000151991844, -0.04800000041723251, 1.055999994277954, 0.0, 0.0, 0.0, 0.0, 0.0, 1.6209949130120738E9, 2021-05-14 14:21:53.012
17.0, -121.13349151611328, -42.64046859741211, -6.385879039764404, 74.0855484008789, 0.03200000151991844, -0.04800000041723251, 1.055999994277954, 0.0, 0.0, 0.0, 0.0, 0.0, 1.6209949130262508E9, 2021-05-14 14:21:53.026
17.0, -135.76397705078125, -59.42887878417969, -15.22700309753418, 49.62286376953125, 0.03200000151991844, -0.04800000041723251, 1.055999994277954, 0.0, 0.0, 0.0, 0.0, 0.0, 1.6209949130262508E9, 2021-05-14 14:21:53.026
18.0, -134.99356079101562, -57.92918014526367, -12.837206840515137, 43.874637603759766, 0.03200000151991844, -0.04800000041723251, 1.055999994277954, 0.0, 0.0, 0.0, 0.0, 0.0, 1.6209949130270452E9, 2021-05-14 14:21:53.027
18.0, -121.0549545288086, -41.21556854248047, -6.0380682945251465, 71.46387481689453, 0.03200000151991844, -0.04800000041723251, 1.055999994277954, 0.0, 0.0, 0.0, 0.0, 0.0, 1.6209949130270452E9, 2021-05-14 14:21:53.027
19.0, -122.50977325439453, -41.94858932495117, -1.1313197612762451, 67.83991241455078, 0.03200000151991844, -0.04800000041723251, 1.055999994277954, 0.0, 0.0, 0.0, 0.0, 0.0, 1.620994913040552E9, 2021-05-14 14:21:53.040
19.0, -129.45103454589844, -56.91566848754883, -11.057014465332031, 45.004085540771484, 0.03200000151991844, -0.04800000041723251, 1.055999994277954, 0.0, 0.0, 0.0, 0.0, 0.0, 1.620994913040552E9, 2021-05-14 14:21:53.040
20.0, -138.1238555908203, -51.380615234375, -14.176091194152832, 55.78247833251953, 0.03200000151991844, -0.04800000041723251, 1.055999994277954, 0.0, 0.0, 0.0, 0.0, 0.0, 1.6209949130566177E9, 2021-05-14 14:21:53.056
20.0, -120.81185913085938, -36.87728500366211, 1.1724586486816406, 84.74800109863281, 0.03200000151991844, -0.04800000041723251, 1.055999994277954, 0.0, 0.0, 0.0, 0.0, 0.0, 1.6209949130566177E9, 2021-05-14 14:21:53.056
21.0, -124.60037994384766, -40.50124740600586, -2.918991804122925, 86.32250213623047, 0.03200000151991844, -0.04800000041723251, 1.055999994277954, 0.0, 0.0, 0.0, 0.0, 0.0, 1.6209949130876284E9, 2021-05-14 14:21:53.087
21.0, -140.93252563476562, -59.327903747558594, -18.895845413208008, 66.474853515625, 0.03200000151991844, -0.04800000041723251, 1.055999994277954, 0.0, 0.0, 0.0, 0.0, 0.0, 1.6209949130876284E9, 2021-05-14 14:21:53.087
22.0, -142.42848205566406, -61.332489013671875, -17.815013885498047, 80.29752349853516, 0.03200000151991844, -0.04800000041723251, 1.055999994277954, 0.0, 0.0, 0.0, 0.0, 0.0, 1.6209949130883088E9, 2021-05-14 14:21:53.088
22.0, -129.27525329589844, -37.91323471069336, 0.28984224796295166, 108.72824096679688, 0.03200000151991844, -0.04800000041723251, 1.055999994277954, 0.0, 0.0, 0.0, 0.0, 0.0, 1.6209949130883088E9, 2021-05-14 14:21:53.088
23.0, -129.24533081054688, -44.671234130859375, 7.107679843902588, 102.52000427246094, 0.03200000151991844, -0.04800000041723251, 1.055999994277954, 0.0, 0.0, 0.0, 0.0, 0.0, 1.620994913089068E9, 2021-05-14 14:21:53.089
23.0, -142.0582275390625, -57.169979095458984, -11.876051902770996, 77.16722869873047, 0.03200000151991844, -0.04800000041723251, 1.055999994277954, 0.0, 0.0, 0.0, 0.0, 0.0, 1.620994913089068E9, 2021-05-14 14:21:53.089
24.0, -142.6192169189453, -60.70044708251953, -11.984509468078613, 77.50755310058594, 0.03200000151991844, -0.04800000041723251, 1.055999994277954, 0.0, 0.0, 0.0, 0.0, 0.0, 1.6209949130898316E9, 2021-05-14 14:21:53.089
24.0, -112.7261962890625, -43.137874603271484, 1.7596229314804077, 97.6955337524414, 0.03200000151991844, -0.04800000041723251, 1.055999994277954, 0.0, 0.0, 0.0, 0.0, 0.0, 1.6209949130898316E9, 2021-05-14 14:21:53.089
25.0, -120.65852355957031, -47.95112609863281, -4.609426498413086, 75.55158996582031, 0.03200000151991844, -0.04800000041723251, 1.055999994277954, 0.0, 0.0, 0.0, 0.0, 0.0, 1.62099491313241E9, 2021-05-14 14:21:53.132
25.0, -132.62994384765625, -57.06900405883789, -13.633805274963379, 53.893829345703125, 0.03200000151991844, -0.04800000041723251, 1.055999994277954, 0.0, 0.0, 0.0, 0.0, 0.0, 1.62099491313241E9, 2021-05-14 14:21:53.132
26.0, -124.6527328491211, -53.837730407714844, -2.9077723026275635, 60.48727035522461, 0.03200000151991844, -0.04800000041723251, 1.055999994277954, 0.0, 0.0, 0.0, 0.0, 0.0, 1.6209949131330738E9, 2021-05-14 14:21:53.133
26.0, -106.95552825927734, -40.332950592041016, 10.024802207946777, 78.3602523803711, 0.03200000151991844, -0.04800000041723251, 1.055999994277954, 0.0, 0.0, 0.0, 0.0, 0.0, 1.6209949131330738E9, 2021-05-14 14:21:53.133
27.0, -104.62931060791016, -50.9991455078125, 5.159192085266113, 62.708770751953125, 0.03200000151991844, -0.04800000041723251, 1.055999994277954, 0.0, 0.0, 0.0, 0.0, 0.0, 1.6209949131338408E9, 2021-05-14 14:21:53.133
27.0, -125.05290222167969, -67.32380676269531, -9.336660385131836, 42.40859603881836, 0.03200000151991844, -0.04800000041723251, 1.055999994277954, 0.0, 0.0, 0.0, 0.0, 0.0, 1.6209949131338408E9, 2021-05-14 14:21:53.133
28.0, -123.62425994873047, -64.69465637207031, -6.262462615966797, 60.55833053588867, 0.03200000151991844, -0.04800000041723251, 1.055999994277954, 0.0, 0.0, 0.0, 0.0, 0.0, 1.6209949131470711E9, 2021-05-14 14:21:53.147
28.0, -110.07086181640625, -50.18010711669922, 1.8306810855865479, 86.29631805419922, 0.03200000151991844, -0.04800000041723251, 1.055999994277954, 0.0, 0.0, 0.0, 0.0, 0.0, 1.6209949131470711E9, 2021-05-14 14:21:53.147
29.0, -122.21057891845703, -54.13692092895508, 1.1350595951080322, 79.75523376464844, 0.03200000151991844, -0.04800000041723251, 1.055999994277954, 0.0, 0.0, 0.0, 0.0, 0.0, 1.6209949131478124E9, 2021-05-14 14:21:53.147
29.0, -140.13966369628906, -64.01399993896484, -7.1226396560668945, 63.68862533569336, 0.03200000151991844, -0.04800000041723251, 1.055999994277954, 0.0, 0.0, 0.0, 0.0, 0.0, 1.6209949131478124E9, 2021-05-14 14:21:53.147
30.0, -136.79244995117188, -60.8874397277832, -11.32254695892334, 70.46532440185547, 0.03200000151991844, -0.04800000041723251, 1.055999994277954, 0.0, 0.0, 0.0, 0.0, 0.0, 1.620994913148512E9, 2021-05-14 14:21:53.148
30.0, -122.21806335449219, -47.71925354003906, 4.994636535644531, 104.70037078857422, 0.03200000151991844, -0.04800000041723251, 1.055999994277954, 0.0, 0.0, 0.0, 0.0, 0.0, 1.620994913148512E9, 2021-05-14 14:21:53.148
31.0, -121.07365417480469, -49.74253845214844, 5.67529821395874, 108.11489868164062, 0.03200000151991844, -0.06400000303983688, 1.055999994277954, 0.0, 0.0, 0.0, 0.0, 0.0, 1.6209949131777568E9, 2021-05-14 14:21:53.177
31.0, -140.3303985595703, -72.74292755126953, -10.447410583496094, 78.64822387695312, 0.03200000151991844, -0.06400000303983688, 1.055999994277954, 0.0, 0.0, 0.0, 0.0, 0.0, 1.6209949131777568E9, 2021-05-14 14:21:53.177
32.0, -135.3189239501953, -62.02437210083008, -16.55466651916504, 76.31452941894531, 0.03200000151991844, -0.06400000303983688, 1.055999994277954, 0.0, 0.0, 0.0, 0.0, 0.0, 1.6209949131784067E9, 2021-05-14 14:21:53.178
32.0, -120.15363311767578, -49.36854934692383, -2.2009310722351074, 98.18172454833984, 0.03200000151991844, -0.06400000303983688, 1.055999994277954, 0.0, 0.0, 0.0, 0.0, 0.0, 1.6209949131784067E9, 2021-05-14 14:21:53.178
33.0, -124.54428100585938, -47.67811584472656, 1.2435166835784912, 92.90472412109375, 0.03200000151991844, -0.06400000303983688, 1.055999994277954, 0.0, 0.0, 0.0, 0.0, 0.0, 1.62099491317923E9, 2021-05-14 14:21:53.179
33.0, -132.5775909423828, -64.09627532958984, -15.103586196899414, 67.50706481933594, 0.03200000151991844, -0.06400000303983688, 1.055999994277954, 0.0, 0.0, 0.0, 0.0, 0.0, 1.62099491317923E9, 2021-05-14 14:21:53.179
34.0, -130.9544677734375, -57.7721061706543, -24.400978088378906, 62.92194747924805, 0.03200000151991844, -0.06400000303983688, 1.055999994277954, 0.0, 0.0, 0.0, 0.0, 0.0, 1.6209949131905296E9, 2021-05-14 14:21:53.190
34.0, -116.9410629272461, -40.35538864135742, -8.016475677490234, 85.63809967041016, 0.03200000151991844, -0.06400000303983688, 1.055999994277954, 0.0, 0.0, 0.0, 0.0, 0.0, 1.6209949131905296E9, 2021-05-14 14:21:53.190
35.0, -119.84322357177734, -43.78861999511719, -8.37924575805664, 68.21016693115234, 0.03200000151991844, -0.06400000303983688, 1.055999994277954, 0.0, 0.0, 0.0, 0.0, 0.0, 1.6209949132062464E9, 2021-05-14 14:21:53.206
35.0, -136.23146057128906, -48.983341217041016, -19.3371524810791, 50.2249870300293, 0.03200000151991844, -0.06400000303983688, 1.055999994277954, 0.0, 0.0, 0.0, 0.0, 0.0, 1.6209949132062464E9, 2021-05-14 14:21:53.206
36.0, -140.1920166015625, -43.3585319519043, -19.363332748413086, 41.395084381103516, 0.03200000151991844, -0.06400000303983688, 1.055999994277954, 0.0, 0.0, 0.0, 0.0, 0.0, 1.6209949132068765E9, 2021-05-14 14:21:53.206
36.0, -117.88725280761719, -31.30109214782715, -1.348233938217163, 70.37931060791016, 0.03200000151991844, -0.06400000303983688, 1.055999994277954, 0.0, 0.0, 0.0, 0.0, 0.0, 1.6209949132068765E9, 2021-05-14 14:21:53.206
37.0, -126.72463989257812, -27.366718292236328, -0.6226933598518372, 65.90264892578125, 0.03200000151991844, -0.06400000303983688, 1.055999994277954, 0.0, 0.0, 0.0, 0.0, 0.0, 1.6209949132540488E9, 2021-05-14 14:21:53.254
37.0, -135.490966796875, -42.69282913208008, -8.106233596801758, 54.357574462890625, 0.03200000151991844, -0.06400000303983688, 1.055999994277954, 0.0, 0.0, 0.0, 0.0, 0.0, 1.6209949132540488E9, 2021-05-14 14:21:53.254
38.0, -142.34620666503906, -39.614891052246094, -7.2310967445373535, 62.708770751953125, 0.03200000151991844, -0.06400000303983688, 1.055999994277954, 0.0, 0.0, 0.0, 0.0, 0.0, 1.620994913254732E9, 2021-05-14 14:21:53.254
38.0, -136.32122802734375, -28.253074645996094, -2.728256940841675, 82.9790267944336, 0.03200000151991844, -0.06400000303983688, 1.055999994277954, 0.0, 0.0, 0.0, 0.0, 0.0, 1.620994913254732E9, 2021-05-14 14:21:53.254
39.0, -142.36863708496094, -42.5768928527832, -7.074020862579346, 79.01847839355469, 0.03200000151991844, -0.06400000303983688, 1.055999994277954, 0.0, 0.0, 0.0, 0.0, 0.0, 1.6209949132554405E9, 2021-05-14 14:21:53.255
39.0, -147.13327026367188, -50.303524017333984, -9.99862289428711, 71.71070861816406, 0.03200000151991844, -0.06400000303983688, 1.055999994277954, 0.0, 0.0, 0.0, 0.0, 0.0, 1.6209949132554405E9, 2021-05-14 14:21:53.255
40.0, -144.1376190185547, -52.203392028808594, -13.600146293640137, 76.15745544433594, 0.03200000151991844, -0.06400000303983688, 1.055999994277954, 0.0, 0.0, 0.0, 0.0, 0.0, 1.6209949132561803E9, 2021-05-14 14:21:53.256
40.0, -124.81729125976562, -33.369258880615234, 3.4837167263031006, 101.37185668945312, 0.03200000151991844, -0.06400000303983688, 1.055999994277954, 0.0, 0.0, 0.0, 0.0, 0.0, 1.6209949132561803E9, 2021-05-14 14:21:53.256
41.0, -121.83284759521484, -44.630096435546875, 2.2046709060668945, 95.55631256103516, 0.03200000151991844, -0.06400000303983688, 1.055999994277954, 0.0, 0.0, 0.0, 0.0, 0.0, 1.6209949132663467E9, 2021-05-14 14:21:53.266
41.0, -133.0749969482422, -60.98841857910156, -10.776521682739258, 66.1569595336914, 0.03200000151991844, -0.06400000303983688, 1.055999994277954, 0.0, 0.0, 0.0, 0.0, 0.0, 1.6209949132663467E9, 2021-05-14 14:21:53.266
42.0, -134.129638671875, -59.02123260498047, -9.351619720458984, 65.06864929199219, 0.03200000151991844, -0.06400000303983688, 1.055999994277954, 0.0, 0.0, 0.0, 0.0, 0.0, 1.6209949132670882E9, 2021-05-14 14:21:53.267
42.0, -121.0998306274414, -42.9770622253418, -4.392512321472168, 80.31248474121094, 0.03200000151991844, -0.06400000303983688, 1.055999994277954, 0.0, 0.0, 0.0, 0.0, 0.0, 1.6209949132670882E9, 2021-05-14 14:21:53.267
43.0, -132.53269958496094, -53.92374801635742, -9.893905639648438, 72.16697692871094, 0.03200000151991844, -0.06400000303983688, 1.055999994277954, 0.0, 0.0, 0.0, 0.0, 0.0, 1.6209949132807312E9, 2021-05-14 14:21:53.280
43.0, -146.10479736328125, -63.46797180175781, -26.5439395904541, 43.336090087890625, 0.03200000151991844, -0.06400000303983688, 1.055999994277954, 0.0, 0.0, 0.0, 0.0, 0.0, 1.6209949132807312E9, 2021-05-14 14:21:53.280
44.0, -132.38685607910156, -55.87223434448242, -22.72176170349121, 47.51355743408203, 0.03200000151991844, -0.06400000303983688, 1.055999994277954, 0.0, 0.0, 0.0, 0.0, 0.0, 1.620994913296376E9, 2021-05-14 14:21:53.296
44.0, -114.52508544921875, -34.71562194824219, -4.848780155181885, 68.80107116699219, 0.03200000151991844, -0.06400000303983688, 1.055999994277954, 0.0, 0.0, 0.0, 0.0, 0.0, 1.620994913296376E9, 2021-05-14 14:21:53.296
45.0, -120.54632568359375, -45.482791900634766, -2.4141054153442383, 54.458553314208984, 0.03200000151991844, -0.06400000303983688, 1.055999994277954, 0.0, 0.0, 0.0, 0.0, 0.0, 1.6209949132970507E9, 2021-05-14 14:21:53.297
45.0, -134.36898803710938, -49.90709686279297, -3.5360753536224365, 34.992374420166016, 0.03200000151991844, -0.06400000303983688, 1.055999994277954, 0.0, 0.0, 0.0, 0.0, 0.0, 1.6209949132970507E9, 2021-05-14 14:21:53.297
46.0, -138.73345947265625, -45.03026580810547, -2.9302115440368652, 38.94544982910156, 0.03200000151991844, -0.06400000303983688, 1.055999994277954, 0.0, 0.0, 0.0, 0.0, 0.0, 1.620994913326906E9, 2021-05-14 14:21:53.326
46.0, -122.73416900634766, -29.09455108642578, 7.21239709854126, 74.90084838867188, 0.03200000151991844, -0.06400000303983688, 1.055999994277954, 0.0, 0.0, 0.0, 0.0, 0.0, 1.620994913326906E9, 2021-05-14 14:21:53.326
47.0, -135.4348602294922, -45.250919342041016, 2.3692266941070557, 77.2158432006836, 0.03200000151991844, -0.06400000303983688, 1.055999994277954, 0.0, 0.0, 0.0, 0.0, 0.0, 1.6209949133277063E9, 2021-05-14 14:21:53.327
47.0, -144.83323669433594, -56.48183822631836, -8.857953071594238, 61.762577056884766, 0.03200000151991844, -0.06400000303983688, 1.055999994277954, 0.0, 0.0, 0.0, 0.0, 0.0, 1.6209949133277063E9, 2021-05-14 14:21:53.327
48.0, -136.9308319091797, -56.97176742553711, -13.05038070678711, 71.1123275756836, 0.03200000151991844, -0.06400000303983688, 1.055999994277954, 0.0, 0.0, 0.0, 0.0, 0.0, 1.6209949133284025E9, 2021-05-14 14:21:53.328
48.0, -120.72209930419922, -42.1954231262207, -5.174151420593262, 99.0755615234375, 0.03200000151991844, -0.06400000303983688, 1.055999994277954, 0.0, 0.0, 0.0, 0.0, 0.0, 1.6209949133284025E9, 2021-05-14 14:21:53.328
49.0, -120.2733154296875, -51.298336029052734, -0.2187841534614563, 90.60094451904297, 0.03200000151991844, -0.06400000303983688, 1.055999994277954, 0.0, 0.0, 0.0, 0.0, 0.0, 1.6209949133567529E9, 2021-05-14 14:21:53.356
49.0, -133.65841674804688, -70.27458953857422, -12.208903312683105, 70.70468139648438, 0.03200000151991844, -0.06400000303983688, 1.055999994277954, 0.0, 0.0, 0.0, 0.0, 0.0, 1.6209949133567529E9, 2021-05-14 14:21:53.356
50.0, -123.83744049072266, -65.22946166992188, -8.124932289123535, 84.91629791259766, 0.03200000151991844, -0.06400000303983688, 1.055999994277954, 0.0, 0.0, 0.0, 0.0, 0.0, 1.6209949133574991E9, 2021-05-14 14:21:53.357
50.0, -110.97592163085938, -56.87826919555664, 1.2622162103652954, 104.96964263916016, 0.03200000151991844, -0.06400000303983688, 1.055999994277954, 0.0, 0.0, 0.0, 0.0, 0.0, 1.6209949133574991E9, 2021-05-14 14:21:53.357
51.0, -117.685302734375, -59.78417205810547, -1.0789611339569092, 98.35749816894531, 0.03200000151991844, -0.04800000041723251, 1.055999994277954, 0.0, 0.0, 0.0, 0.0, 0.0, 1.6209949133716085E9, 2021-05-14 14:21:53.371
51.0, -126.08885955810547, -71.00012969970703, -11.550681114196777, 72.85137939453125, 0.03200000151991844, -0.04800000041723251, 1.055999994277954, 0.0, 0.0, 0.0, 0.0, 0.0, 1.6209949133716085E9, 2021-05-14 14:21:53.371
52.0, -135.21047973632812, -80.01702880859375, -21.192142486572266, 64.96393585205078, 0.03200000151991844, -0.04800000041723251, 1.055999994277954, 0.0, 0.0, 0.0, 0.0, 0.0, 1.6209949133720005E9, 2021-05-14 14:21:53.372
52.0, -120.34811401367188, -61.373626708984375, -7.6387457847595215, 89.07506561279297, 0.03200000151991844, -0.04800000041723251, 1.055999994277954, 0.0, 0.0, 0.0, 0.0, 0.0, 1.6209949133720005E9, 2021-05-14 14:21:53.372
53.0, -116.77650451660156, -63.84196090698242, -7.115159511566162, 76.12005615234375, 0.03200000151991844, -0.04800000041723251, 1.055999994277954, 0.0, 0.0, 0.0, 0.0, 0.0, 1.6209949133863351E9, 2021-05-14 14:21:53.386
53.0, -130.9582061767578, -73.76765441894531, -14.146171569824219, 47.203147888183594, 0.03200000151991844, -0.04800000041723251, 1.055999994277954, 0.0, 0.0, 0.0, 0.0, 0.0, 1.6209949133863351E9, 2021-05-14 14:21:53.386
54.0, -136.02203369140625, -69.49668884277344, -18.15908432006836, 39.94026184082031, 0.03200000151991844, -0.04800000041723251, 1.055999994277954, 0.0, 0.0, 0.0, 0.0, 0.0, 1.6209949133869357E9, 2021-05-14 14:21:53.386
54.0, -123.12311553955078, -53.594635009765625, -6.124086380004883, 63.35203552246094, 0.03200000151991844, -0.04800000041723251, 1.055999994277954, 0.0, 0.0, 0.0, 0.0, 0.0, 1.6209949133869357E9, 2021-05-14 14:21:53.386
55.0, -120.37055206298828, -49.94823455810547, 5.593020439147949, 63.636268615722656, 0.03200000151991844, -0.04800000041723251, 1.055999994277954, 0.0, 0.0, 0.0, 0.0, 0.0, 1.6209949134005291E9, 2021-05-14 14:21:53.400
55.0, -132.40554809570312, -58.39666748046875, -4.145678997039795, 47.5359992980957, 0.03200000151991844, -0.04800000041723251, 1.055999994277954, 0.0, 0.0, 0.0, 0.0, 0.0, 1.6209949134005291E9, 2021-05-14 14:21:53.400
56.0, -122.19187927246094, -58.710819244384766, 1.1350595951080322, 55.06441879272461, 0.03200000151991844, -0.04800000041723251, 1.055999994277954, 0.0, 0.0, 0.0, 0.0, 0.0, 1.6209949134161105E9, 2021-05-14 14:21:53.416
56.0, -105.56428527832031, -49.91083526611328, 10.402531623840332, 72.52227020263672, 0.03200000151991844, -0.04800000041723251, 1.055999994277954, 0.0, 0.0, 0.0, 0.0, 0.0, 1.6209949134161105E9, 2021-05-14 14:21:53.416
57.0, -104.12442779541016, -48.09698486328125, 19.7485408782959, 81.02306365966797, 0.03200000151991844, -0.04800000041723251, 1.055999994277954, 0.0, 0.0, 0.0, 0.0, 0.0, 1.6209949134312975E9, 2021-05-14 14:21:53.431
57.0, -125.34087371826172, -61.425987243652344, 3.7716891765594482, 65.8353271484375, 0.03200000151991844, -0.04800000041723251, 1.055999994277954, 0.0, 0.0, 0.0, 0.0, 0.0, 1.6209949134312975E9, 2021-05-14 14:21:53.431
58.0, -125.37079620361328, -57.89552307128906, 4.586987495422363, 68.73748779296875, 0.03200000151991844, -0.04800000041723251, 1.055999994277954, 0.0, 0.0, 0.0, 0.0, 0.0, 1.6209949134320364E9, 2021-05-14 14:21:53.432
58.0, -114.79435729980469, -52.24453353881836, 12.807287216186523, 100.22370910644531, 0.03200000151991844, -0.04800000041723251, 1.055999994277954, 0.0, 0.0, 0.0, 0.0, 0.0, 1.6209949134320364E9, 2021-05-14 14:21:53.432
59.0, -119.2747573852539, -62.17022705078125, 5.536921977996826, 91.63690185546875, 0.03200000151991844, -0.04800000041723251, 1.055999994277954, 0.0, 0.0, 0.0, 0.0, 0.0, 1.6209949134627151E9, 2021-05-14 14:21:53.462
59.0, -126.12999725341797, -76.18363189697266, -8.39046573638916, 72.40259552001953, 0.03200000151991844, -0.04800000041723251, 1.055999994277954, 0.0, 0.0, 0.0, 0.0, 0.0, 1.6209949134627151E9, 2021-05-14 14:21:53.462
60.0, -131.3770751953125, -78.18447875976562, -14.811873435974121, 77.9376449584961, 0.03200000151991844, -0.04800000041723251, 1.055999994277954, 0.0, 0.0, 0.0, 0.0, 0.0, 1.6209949134634073E9, 2021-05-14 14:21:53.463
60.0, -115.14591217041016, -57.899261474609375, -0.22252404689788818, 110.75526428222656, 0.03200000151991844, -0.04800000041723251, 1.055999994277954, 0.0, 0.0, 0.0, 0.0, 0.0, 1.6209949134634073E9, 2021-05-14 14:21:53.463
61.0, -126.55260467529297, -64.48148345947266, -1.3893728256225586, 94.67369842529297, 0.03200000151991844, -0.04800000041723251, 1.055999994277954, 0.0, 0.0, 0.0, 0.0, 0.0, 1.6209949134641383E9, 2021-05-14 14:21:53.464
61.0, -147.49978637695312, -80.09556579589844, -18.028186798095703, 69.55652618408203, 0.03200000151991844, -0.04800000041723251, 1.055999994277954, 0.0, 0.0, 0.0, 0.0, 0.0, 1.6209949134641383E9, 2021-05-14 14:21:53.464
62.0, -150.0279541015625, -76.7969741821289, -15.485055923461914, 67.92967224121094, 0.03200000151991844, -0.04800000041723251, 1.055999994277954, 0.0, 0.0, 0.0, 0.0, 0.0, 1.6209949134648209E9, 2021-05-14 14:21:53.464
62.0, -128.09344482421875, -55.27385330200195, -3.6108734607696533, 89.13116455078125, 0.03200000151991844, -0.04800000041723251, 1.055999994277954, 0.0, 0.0, 0.0, 0.0, 0.0, 1.6209949134648209E9, 2021-05-14 14:21:53.464
63.0, -133.25450134277344, -68.8048095703125, -5.783755302429199, 73.52456665039062, 0.03200000151991844, -0.04800000041723251, 1.055999994277954, 0.0, 0.0, 0.0, 0.0, 0.0, 1.620994913491229E9, 2021-05-14 14:21:53.491
63.0, -138.21360778808594, -72.98975372314453, -10.686763763427734, 49.24513244628906, 0.03200000151991844, -0.04800000041723251, 1.055999994277954, 0.0, 0.0, 0.0, 0.0, 0.0, 1.620994913491229E9, 2021-05-14 14:21:53.491
64.0, -132.48782348632812, -64.89661407470703, -13.1663179397583, 46.32427215576172, 0.03200000151991844, -0.04800000041723251, 1.055999994277954, 0.0, 0.0, 0.0, 0.0, 0.0, 1.6209949134918976E9, 2021-05-14 14:21:53.491
64.0, -115.44509887695312, -48.078285217285156, -3.767949104309082, 60.92483901977539, 0.03200000151991844, -0.04800000041723251, 1.055999994277954, 0.0, 0.0, 0.0, 0.0, 0.0, 1.6209949134918976E9, 2021-05-14 14:21:53.491
65.0, -107.07894897460938, -46.34297180175781, 4.957237243652344, 51.53021240234375, 0.03200000151991844, -0.04800000041723251, 1.055999994277954, 0.0, 0.0, 0.0, 0.0, 0.0, 1.6209949135062232E9, 2021-05-14 14:21:53.506
65.0, -121.42520141601562, -63.827003479003906, -3.169565200805664, 34.595943450927734, 0.03200000151991844, -0.04800000041723251, 1.055999994277954, 0.0, 0.0, 0.0, 0.0, 0.0, 1.6209949135062232E9, 2021-05-14 14:21:53.506
66.0, -120.12745666503906, -55.85353469848633, 1.2023777961730957, 46.67582321166992, 0.03200000151991844, -0.04800000041723251, 1.055999994277954, 0.0, 0.0, 0.0, 0.0, 0.0, 1.6209949135069466E9, 2021-05-14 14:21:53.506
66.0, -104.87240600585938, -50.69621276855469, 13.03916072845459, 73.24781036376953, 0.03200000151991844, -0.04800000041723251, 1.055999994277954, 0.0, 0.0, 0.0, 0.0, 0.0, 1.6209949135069466E9, 2021-05-14 14:21:53.506
67.0, -106.10657501220703, -51.851844787597656, 15.874005317687988, 74.68767547607422, 0.03200000151991844, -0.04800000041723251, 1.055999994277954, 0.0, 0.0, 0.0, 0.0, 0.0, 1.6209949135206068E9, 2021-05-14 14:21:53.520
67.0, -123.61678314208984, -63.73724365234375, -4.9198384284973145, 63.1949577331543, 0.03200000151991844, -0.04800000041723251, 1.055999994277954, 0.0, 0.0, 0.0, 0.0, 0.0, 1.6209949135206068E9, 2021-05-14 14:21:53.520
68.0, -124.5106201171875, -62.26746368408203, 3.468757152557373, 77.6197509765625, 0.03200000151991844, -0.04800000041723251, 1.055999994277954, 0.0, 0.0, 0.0, 0.0, 0.0, 1.6209949135363412E9, 2021-05-14 14:21:53.536
68.0, -117.92091369628906, -53.568458557128906, 0.08414775133132935, 98.3761978149414, 0.03200000151991844, -0.04800000041723251, 1.055999994277954, 0.0, 0.0, 0.0, 0.0, 0.0, 1.6209949135363412E9, 2021-05-14 14:21:53.536
69.0, -123.7289810180664, -58.613582611083984, 0.9705040454864502, 101.53641510009766, 0.03200000151991844, -0.04800000041723251, 1.055999994277954, 0.0, 0.0, 0.0, 0.0, 0.0, 1.6209949135369933E9, 2021-05-14 14:21:53.536
69.0, -143.89825439453125, -70.25962829589844, -14.662278175354004, 74.53059387207031, 0.03200000151991844, -0.04800000041723251, 1.055999994277954, 0.0, 0.0, 0.0, 0.0, 0.0, 1.6209949135369933E9, 2021-05-14 14:21:53.536
70.0, -153.28915405273438, -71.14972686767578, -17.448503494262695, 78.42008972167969, 0.03200000151991844, -0.04800000041723251, 1.055999994277954, 0.0, 0.0, 0.0, 0.0, 0.0, 1.6209949135504808E9, 2021-05-14 14:21:53.550
70.0, -142.0731964111328, -58.5574836730957, -7.036621570587158, 97.57959747314453, 0.03200000151991844, -0.04800000041723251, 1.055999994277954, 0.0, 0.0, 0.0, 0.0, 0.0, 1.6209949135504808E9, 2021-05-14 14:21:53.550
71.0, -132.37936401367188, -62.04307174682617, -4.695444583892822, 97.46739959716797, 0.03200000151991844, -0.04800000041723251, 1.055999994277954, 0.0, 0.0, 0.0, 0.0, 0.0, 1.6209949135662482E9, 2021-05-14 14:21:53.566
71.0, -145.85423278808594, -76.93161010742188, -18.495676040649414, 59.42887878417969, 0.03200000151991844, -0.04800000041723251, 1.055999994277954, 0.0, 0.0, 0.0, 0.0, 0.0, 1.6209949135662482E9, 2021-05-14 14:21:53.566
72.0, -136.68772888183594, -67.39112854003906, -23.8624324798584, 61.283870697021484, 0.03200000151991844, -0.04800000041723251, 1.055999994277954, 0.0, 0.0, 0.0, 0.0, 0.0, 1.620994913567038E9, 2021-05-14 14:21:53.567
72.0, -114.48020935058594, -54.372535705566406, -8.375506401062012, 80.49947357177734, 0.03200000151991844, -0.04800000041723251, 1.055999994277954, 0.0, 0.0, 0.0, 0.0, 0.0, 1.620994913567038E9, 2021-05-14 14:21:53.567
73.0, -113.2123794555664, -62.36844253540039, -12.208903312683105, 62.993003845214844, 0.03200000151991844, -0.04800000041723251, 1.055999994277954, 0.0, 0.0, 0.0, 0.0, 0.0, 1.620994913580485E9, 2021-05-14 14:21:53.580
73.0, -121.90764617919922, -72.55219268798828, -20.167409896850586, 41.49980163574219, 0.03200000151991844, -0.04800000041723251, 1.055999994277954, 0.0, 0.0, 0.0, 0.0, 0.0, 1.620994913580485E9, 2021-05-14 14:21:53.580
74.0, -116.47357177734375, -58.000240325927734, -12.586633682250977, 47.547218322753906, 0.03200000151991844, -0.04800000041723251, 1.055999994277954, 0.0, 0.0, 0.0, 0.0, 0.0, 1.6209949135962944E9, 2021-05-14 14:21:53.596
74.0, -103.48863983154297, -47.40884017944336, -0.5104963183403015, 70.00531768798828, 0.03200000151991844, -0.04800000041723251, 1.055999994277954, 0.0, 0.0, 0.0, 0.0, 0.0, 1.6209949135962944E9, 2021-05-14 14:21:53.596
75.0, -106.53665924072266, -50.35588455200195, -7.627525806427002, 60.40873336791992, 0.03200000151991844, -0.04800000041723251, 1.055999994277954, 0.0, 0.0, 0.0, 0.0, 0.0, 1.6209949135970669E9, 2021-05-14 14:21:53.597
75.0, -121.64585876464844, -58.321868896484375, -14.924070358276367, 38.62007522583008, 0.03200000151991844, -0.04800000041723251, 1.055999994277954, 0.0, 0.0, 0.0, 0.0, 0.0, 1.6209949135970669E9, 2021-05-14 14:21:53.597
76.0, -120.14615631103516, -49.1628532409668, -3.9362447261810303, 49.72758102416992, 0.03200000151991844, -0.04800000041723251, 1.055999994277954, 0.0, 0.0, 0.0, 0.0, 0.0, 1.6209949136432996E9, 2021-05-14 14:21:53.643
76.0, -103.90003204345703, -40.27311325073242, 8.416645050048828, 77.78057098388672, 0.03200000151991844, -0.04800000041723251, 1.055999994277954, 0.0, 0.0, 0.0, 0.0, 0.0, 1.6209949136432996E9, 2021-05-14 14:21:53.643
77.0, -117.44969177246094, -40.359130859375, 11.38238525390625, 82.26844787597656, 0.03200000151991844, -0.04800000041723251, 1.055999994277954, 0.0, 0.0, 0.0, 0.0, 0.0, 1.6209949136440291E9, 2021-05-14 14:21:53.644
77.0, -143.5841064453125, -51.45167541503906, -6.05676794052124, 59.69441223144531, 0.03200000151991844, -0.04800000041723251, 1.055999994277954, 0.0, 0.0, 0.0, 0.0, 0.0, 1.6209949136440291E9, 2021-05-14 14:21:53.644
78.0, -150.0840606689453, -55.53938293457031, -13.304694175720215, 71.4937973022461, 0.03200000151991844, -0.04800000041723251, 1.055999994277954, 0.0, 0.0, 0.0, 0.0, 0.0, 1.6209949136447833E9, 2021-05-14 14:21:53.644
78.0, -128.5796356201172, -35.25790786743164, 3.3715198040008545, 103.53352355957031, 0.03200000151991844, -0.04800000041723251, 1.055999994277954, 0.0, 0.0, 0.0, 0.0, 0.0, 1.6209949136447833E9, 2021-05-14 14:21:53.644
79.0, -141.4598388671875, -49.72010040283203, -3.7529895305633545, 92.00341033935547, 0.03200000151991844, -0.04800000041723251, 1.055999994277954, 0.0, 0.0, 0.0, 0.0, 0.0, 1.620994913645542E9, 2021-05-14 14:21:53.645
79.0, -141.61317443847656, -56.45940017700195, -8.824294090270996, 79.69539642333984, 0.03200000151991844, -0.04800000041723251, 1.055999994277954, 0.0, 0.0, 0.0, 0.0, 0.0, 1.620994913645542E9, 2021-05-14 14:21:53.645
80.0, -141.4673309326172, -61.81867599487305, -11.468402862548828, 78.82025909423828, 0.03200000151991844, -0.04800000041723251, 1.055999994277954, 0.0, 0.0, 0.0, 0.0, 0.0, 1.6209949136562843E9, 2021-05-14 14:21:53.656
80.0, -120.46778869628906, -42.89104080200195, -0.48431703448295593, 105.06687927246094, 0.03200000151991844, -0.04800000041723251, 1.055999994277954, 0.0, 0.0, 0.0, 0.0, 0.0, 1.6209949136562843E9, 2021-05-14 14:21:53.656
81.0, -122.2442398071289, -49.20399475097656, 0.7461100220680237, 90.7019271850586, 0.03200000151991844, -0.04800000041723251, 1.055999994277954, 0.0, 0.0, 0.0, 0.0, 0.0, 1.620994913656919E9, 2021-05-14 14:21:53.656
81.0, -127.21456909179688, -67.27145385742188, -17.583139419555664, 55.950775146484375, 0.03200000151991844, -0.04800000041723251, 1.055999994277954, 0.0, 0.0, 0.0, 0.0, 0.0, 1.620994913656919E9, 2021-05-14 14:21:53.656
82.0, -129.40988159179688, -64.09627532958984, -17.399885177612305, 50.85702896118164, 0.03200000151991844, -0.04800000041723251, 1.055999994277954, 0.0, 0.0, 0.0, 0.0, 0.0, 1.6209949136705787E9, 2021-05-14 14:21:53.670
82.0, -111.61918640136719, -48.93846130371094, -5.828634262084961, 66.93112182617188, 0.03200000151991844, -0.04800000041723251, 1.055999994277954, 0.0, 0.0, 0.0, 0.0, 0.0, 1.6209949136705787E9, 2021-05-14 14:21:53.670
83.0, -113.46295166015625, -48.36625671386719, 1.4155521392822266, 63.11642074584961, 0.03200000151991844, -0.04800000041723251, 1.055999994277954, 0.0, 0.0, 0.0, 0.0, 0.0, 1.620994913686253E9, 2021-05-14 14:21:53.686
83.0, -121.47382354736328, -63.32211685180664, -8.56998062133789, 46.672080993652344, 0.03200000151991844, -0.04800000041723251, 1.055999994277954, 0.0, 0.0, 0.0, 0.0, 0.0, 1.620994913686253E9, 2021-05-14 14:21:53.686
84.0, -122.15447998046875, -64.93401336669922, -10.626925468444824, 47.18818664550781, 0.03200000151991844, -0.04800000041723251, 1.055999994277954, 0.0, 0.0, 0.0, 0.0, 0.0, 1.6209949136869361E9, 2021-05-14 14:21:53.686
84.0, -105.90461730957031, -44.50667953491211, 4.123239517211914, 81.62518310546875, 0.03200000151991844, -0.04800000041723251, 1.055999994277954, 0.0, 0.0, 0.0, 0.0, 0.0, 1.6209949136869361E9, 2021-05-14 14:21:53.686
85.0, -115.6769790649414, -49.66026306152344, 8.734536170959473, 79.3214111328125, 0.03200000151991844, -0.04800000041723251, 1.055999994277954, 0.0, 0.0, 0.0, 0.0, 0.0, 1.6209949137006385E9, 2021-05-14 14:21:53.700
85.0, -132.53269958496094, -64.14115142822266, -4.916098594665527, 60.98468017578125, 0.03200000151991844, -0.04800000041723251, 1.055999994277954, 0.0, 0.0, 0.0, 0.0, 0.0, 1.6209949137006385E9, 2021-05-14 14:21:53.700
86.0, -132.6598663330078, -55.72264099121094, -3.629572868347168, 73.50212097167969, 0.03200000151991844, -0.04800000041723251, 1.055999994277954, 0.0, 0.0, 0.0, 0.0, 0.0, 1.6209949137163284E9, 2021-05-14 14:21:53.716
86.0, -120.74079895019531, -37.39339065551758, 11.045794486999512, 100.57525634765625, 0.03200000151991844, -0.04800000041723251, 1.055999994277954, 0.0, 0.0, 0.0, 0.0, 0.0, 1.6209949137163284E9, 2021-05-14 14:21:53.716
87.0, -125.38201904296875, -48.04836654663086, 3.7791688442230225, 97.1906509399414, 0.03200000151991844, -0.04800000041723251, 1.055999994277954, 0.0, 0.0, 0.0, 0.0, 0.0, 1.6209949137170312E9, 2021-05-14 14:21:53.717
87.0, -134.65696716308594, -53.23934555053711, 2.6347594261169434, 81.27737426757812, 0.03200000151991844, -0.04800000041723251, 1.055999994277954, 0.0, 0.0, 0.0, 0.0, 0.0, 1.6209949137170312E9, 2021-05-14 14:21:53.717
88.0, -139.03639221191406, -60.70044708251953, -5.4920430183410645, 82.47040557861328, 0.03200000151991844, -0.04800000041723251, 1.055999994277954, 0.0, 0.0, 0.0, 0.0, 0.0, 1.6209949137306316E9, 2021-05-14 14:21:53.730
88.0, -120.53136444091797, -44.439361572265625, 10.784001350402832, 101.36811828613281, 0.03200000151991844, -0.04800000041723251, 1.055999994277954, 0.0, 0.0, 0.0, 0.0, 0.0, 1.6209949137306316E9, 2021-05-14 14:21:53.730
89.0, -133.25076293945312, -57.96657943725586, 5.346187114715576, 92.83740997314453, 0.03200000151991844, -0.04800000041723251, 1.055999994277954, 0.0, 0.0, 0.0, 0.0, 0.0, 1.6209949137463124E9, 2021-05-14 14:21:53.746
89.0, -142.099365234375, -67.33129119873047, -4.837560653686523, 75.85826110839844, 0.03200000151991844, -0.04800000041723251, 1.055999994277954, 0.0, 0.0, 0.0, 0.0, 0.0, 1.6209949137463124E9, 2021-05-14 14:21:53.746
90.0, -135.9547119140625, -63.8756217956543, -10.421231269836426, 70.83931732177734, 0.03200000151991844, -0.04800000041723251, 1.055999994277954, 0.0, 0.0, 0.0, 0.0, 0.0, 1.6209949137470536E9, 2021-05-14 14:21:53.747
90.0, -121.29056549072266, -50.03050994873047, -5.607979774475098, 87.07795715332031, 0.03200000151991844, -0.04800000041723251, 1.055999994277954, 0.0, 0.0, 0.0, 0.0, 0.0, 1.6209949137470536E9, 2021-05-14 14:21:53.747
91.0, -120.42290496826172, -54.178062438964844, -5.256429195404053, 72.98601531982422, 0.03200000151991844, -0.06400000303983688, 1.055999994277954, 0.0, 0.0, 0.0, 0.0, 0.0, 1.620994913760528E9, 2021-05-14 14:21:53.760
91.0, -138.59881591796875, -65.42394256591797, -26.65987777709961, 43.186492919921875, 0.03200000151991844, -0.06400000303983688, 1.055999994277954, 0.0, 0.0, 0.0, 0.0, 0.0, 1.620994913760528E9, 2021-05-14 14:21:53.760
92.0, -134.62704467773438, -62.529258728027344, -25.309772491455078, 40.26189422607422, 0.03200000151991844, -0.06400000303983688, 1.055999994277954, 0.0, 0.0, 0.0, 0.0, 0.0, 1.6209949137764628E9, 2021-05-14 14:21:53.776
92.0, -116.62690734863281, -41.9560661315918, -9.561054229736328, 72.33153533935547, 0.03200000151991844, -0.06400000303983688, 1.055999994277954, 0.0, 0.0, 0.0, 0.0, 0.0, 1.6209949137764628E9, 2021-05-14 14:21:53.776
93.0, -124.35728454589844, -47.79405212402344, -4.837560653686523, 74.09302520751953, 0.03200000151991844, -0.06400000303983688, 1.055999994277954, 0.0, 0.0, 0.0, 0.0, 0.0, 1.6209949137770452E9, 2021-05-14 14:21:53.777
93.0, -135.29275512695312, -58.39292907714844, -19.834558486938477, 57.229820251464844, 0.03200000151991844, -0.06400000303983688, 1.055999994277954, 0.0, 0.0, 0.0, 0.0, 0.0, 1.6209949137770452E9, 2021-05-14 14:21:53.777
94.0, -138.77085876464844, -54.16310119628906, -18.757469177246094, 66.8338851928711, 0.03200000151991844, -0.06400000303983688, 1.055999994277954, 0.0, 0.0, 0.0, 0.0, 0.0, 1.620994913790546E9, 2021-05-14 14:21:53.790
94.0, -127.97377014160156, -45.864261627197266, -9.40397834777832, 90.26435852050781, 0.03200000151991844, -0.06400000303983688, 1.055999994277954, 0.0, 0.0, 0.0, 0.0, 0.0, 1.620994913790546E9, 2021-05-14 14:21:53.790
95.0, -128.0635223388672, -44.05414962768555, -3.790388584136963, 91.5097427368164, 0.03200000151991844, -0.06400000303983688, 1.055999994277954, 0.0, 0.0, 0.0, 0.0, 0.0, 1.6209949138069248E9, 2021-05-14 14:21:53.806
95.0, -136.91212463378906, -52.79429626464844, -10.63066577911377, 69.91555786132812, 0.03200000151991844, -0.06400000303983688, 1.055999994277954, 0.0, 0.0, 0.0, 0.0, 0.0, 1.6209949138069248E9, 2021-05-14 14:21:53.806
96.0, -143.00816345214844, -53.605857849121094, -15.197083473205566, 73.0608139038086, 0.03200000151991844, -0.06400000303983688, 1.055999994277954, 0.0, 0.0, 0.0, 0.0, 0.0, 1.6209949138077767E9, 2021-05-14 14:21:53.807
96.0, -126.47406768798828, -35.609458923339844, 5.196590900421143, 103.44002532958984, 0.03200000151991844, -0.06400000303983688, 1.055999994277954, 0.0, 0.0, 0.0, 0.0, 0.0, 1.6209949138077767E9, 2021-05-14 14:21:53.807
97.0, -129.0919952392578, -42.59933090209961, 4.471050262451172, 96.0836410522461, 0.03200000151991844, -0.06400000303983688, 1.055999994277954, 0.0, 0.0, 0.0, 0.0, 0.0, 1.620994913820582E9, 2021-05-14 14:21:53.820
97.0, -139.35801696777344, -60.25539779663086, -8.364286422729492, 70.94403076171875, 0.03200000151991844, -0.06400000303983688, 1.055999994277954, 0.0, 0.0, 0.0, 0.0, 0.0, 1.620994913820582E9, 2021-05-14 14:21:53.820
98.0, -136.1230010986328, -55.59174346923828, -6.352220058441162, 78.73424530029297, 0.03200000151991844, -0.06400000303983688, 1.055999994277954, 0.0, 0.0, 0.0, 0.0, 0.0, 1.620994913836234E9, 2021-05-14 14:21:53.836
98.0, -118.01067352294922, -39.611148834228516, 8.573720932006836, 96.55487060546875, 0.03200000151991844, -0.06400000303983688, 1.055999994277954, 0.0, 0.0, 0.0, 0.0, 0.0, 1.620994913836234E9, 2021-05-14 14:21:53.836
99.0, -119.16630554199219, -44.61139678955078, 4.336413860321045, 83.01642608642578, 0.03200000151991844, -0.06400000303983688, 1.055999994277954, 0.0, 0.0, 0.0, 0.0, 0.0, 1.6209949138369825E9, 2021-05-14 14:21:53.836
99.0, -131.38455200195312, -63.36325454711914, -12.78858757019043, 54.522132873535156, 0.03200000151991844, -0.06400000303983688, 1.055999994277954, 0.0, 0.0, 0.0, 0.0, 0.0, 1.6209949138369825E9, 2021-05-14 14:21:53.836
100.0, -141.16439819335938, -59.55229568481445, -21.121084213256836, 51.81444549560547, 0.03200000151991844, -0.06400000303983688, 1.055999994277954, 0.0, 0.0, 0.0, 0.0, 0.0, 1.620994913851308E9, 2021-05-14 14:21:53.851
100.0, -119.551513671875, -49.67522048950195, -11.049534797668457, 72.88877868652344, 0.03200000151991844, -0.06400000303983688, 1.055999994277954, 0.0, 0.0, 0.0, 0.0, 0.0, 1.620994913851308E9, 2021-05-14 14:21:53.851
0.0, -135.21421813964844, -65.87272644042969, -14.658537864685059, 92.35682678222656, 0.03200000151991844, -0.06400000303983688, 1.055999994277954, 0.0, 0.0, 0.0, 0.0, 0.0, 1.6209949138520129E9, 2021-05-14 14:21:53.852
1.0, -148.82745361328125, -79.36628723144531, -30.47457504272461, 70.88606262207031, 0.03200000151991844, -0.04800000041723251, 1.055999994277954, 0.0, 0.0, 0.0, 0.0, 0.0, 1.6209949138655596E9, 2021-05-14 14:21:53.865
1.0, -147.0210723876953, -75.30101776123047, -28.978614807128906, 83.54936218261719, 0.03200000151991844, -0.04800000041723251, 1.055999994277954, 0.0, 0.0, 0.0, 0.0, 0.0, 1.6209949138655596E9, 2021-05-14 14:21:53.865
2.0, -132.7421417236328, -68.28496551513672, -17.530780792236328, 110.41680908203125, 0.03200000151991844, -0.04800000041723251, 1.055999994277954, 0.0, 0.0, 0.0, 0.0, 0.0, 1.6209949138976965E9, 2021-05-14 14:21:53.897
2.0, -134.0436248779297, -60.943538665771484, -12.586633682250977, 114.17914581298828, 0.03200000151991844, -0.04800000041723251, 1.055999994277954, 0.0, 0.0, 0.0, 0.0, 0.0, 1.6209949138976965E9, 2021-05-14 14:21:53.897
3.0, -143.55044555664062, -80.53687286376953, -25.956775665283203, 95.03833770751953, 0.03200000151991844, -0.04800000041723251, 1.055999994277954, 0.0, 0.0, 0.0, 0.0, 0.0, 1.620994913898353E9, 2021-05-14 14:21:53.898
3.0, -145.7046356201172, -74.1678237915039, -25.694982528686523, 104.44418334960938, 0.03200000151991844, -0.04800000041723251, 1.055999994277954, 0.0, 0.0, 0.0, 0.0, 0.0, 1.620994913898353E9, 2021-05-14 14:21:53.898
4.0, -130.49072265625, -59.2792854309082, -5.67529821395874, 125.7616195678711, 0.03200000151991844, -0.04800000041723251, 1.055999994277954, 0.0, 0.0, 0.0, 0.0, 0.0, 1.6209949138991313E9, 2021-05-14 14:21:53.899
4.0, -127.85782623291016, -62.20388412475586, -1.5950673818588257, 120.57811737060547, 0.03200000151991844, -0.04800000041723251, 1.055999994277954, 0.0, 0.0, 0.0, 0.0, 0.0, 1.6209949138991313E9, 2021-05-14 14:21:53.899
5.0, -146.19082641601562, -76.62120056152344, -15.369118690490723, 98.46782684326172, 0.03200000151991844, -0.04800000041723251, 1.055999994277954, 0.0, 0.0, 0.0, 0.0, 0.0, 1.6209949138997865E9, 2021-05-14 14:21:53.899
5.0, -144.35452270507812, -76.98770904541016, -11.853612899780273, 103.39327239990234, 0.03200000151991844, -0.04800000041723251, 1.055999994277954, 0.0, 0.0, 0.0, 0.0, 0.0, 1.6209949138997865E9, 2021-05-14 14:21:53.899
6.0, -121.00259399414062, -64.81433868408203, 4.803901672363281, 123.04270935058594, 0.03200000151991844, -0.04800000041723251, 1.055999994277954, 0.0, 0.0, 0.0, 0.0, 0.0, 1.6209949139106345E9, 2021-05-14 14:21:53.910
6.0, -132.9403533935547, -65.67451477050781, 8.353066444396973, 109.53044891357422, 0.03200000151991844, -0.04800000041723251, 1.055999994277954, 0.0, 0.0, 0.0, 0.0, 0.0, 1.6209949139106345E9, 2021-05-14 14:21:53.910
7.0, -137.21505737304688, -73.7452163696289, -2.301908493041992, 86.27949523925781, 0.03200000151991844, -0.04800000041723251, 1.055999994277954, 0.0, 0.0, 0.0, 0.0, 0.0, 1.6209949139255307E9, 2021-05-14 14:21:53.925
7.0, -133.35174560546875, -72.22307586669922, 1.48287034034729, 90.60655975341797, 0.03200000151991844, -0.04800000041723251, 1.055999994277954, 0.0, 0.0, 0.0, 0.0, 0.0, 1.6209949139255307E9, 2021-05-14 14:21:53.925
8.0, -130.18405151367188, -55.1541748046875, 4.24665641784668, 103.78970336914062, 0.03200000151991844, -0.04800000041723251, 1.055999994277954, 0.0, 0.0, 0.0, 0.0, 0.0, 1.6209949139576244E9, 2021-05-14 14:21:53.957
8.0, -140.26307678222656, -65.7717514038086, -3.681931495666504, 89.65288543701172, 0.03200000151991844, -0.04800000041723251, 1.055999994277954, 0.0, 0.0, 0.0, 0.0, 0.0, 1.6209949139576244E9, 2021-05-14 14:21:53.957
9.0, -149.87461853027344, -76.81941223144531, -13.727302551269531, 77.63658142089844, 0.03200000151991844, -0.04800000041723251, 1.055999994277954, 0.0, 0.0, 0.0, 0.0, 0.0, 1.6209949139583092E9, 2021-05-14 14:21:53.958
9.0, -142.83238220214844, -77.9825210571289, -14.946510314941406, 81.48867797851562, 0.03200000151991844, -0.04800000041723251, 1.055999994277954, 0.0, 0.0, 0.0, 0.0, 0.0, 1.6209949139583092E9, 2021-05-14 14:21:53.958
10.0, -123.57190704345703, -67.02835845947266, -6.348480224609375, 105.44274139404297, 0.03200000151991844, -0.04800000041723251, 1.055999994277954, 0.0, 0.0, 0.0, 0.0, 0.0, 1.6209949139590945E9, 2021-05-14 14:21:53.959
10.0, -122.73043060302734, -71.37786102294922, -11.842392921447754, 99.3504409790039, 0.03200000151991844, -0.04800000041723251, 1.055999994277954, 0.0, 0.0, 0.0, 0.0, 0.0, 1.6209949139590945E9, 2021-05-14 14:21:53.959
11.0, -141.9796905517578, -90.4438705444336, -33.45527648925781, 82.43487548828125, 0.03200000151991844, -0.04800000041723251, 1.055999994277954, 0.0, 0.0, 0.0, 0.0, 0.0, 1.6209949139598236E9, 2021-05-14 14:21:53.959
11.0, -130.00453186035156, -88.1363525390625, -26.831912994384766, 93.40399932861328, 0.03200000151991844, -0.04800000041723251, 1.055999994277954, 0.0, 0.0, 0.0, 0.0, 0.0, 1.6209949139598236E9, 2021-05-14 14:21:53.959
12.0, -109.45004272460938, -67.38739013671875, -12.410858154296875, 123.91410827636719, 0.03200000151991844, -0.04800000041723251, 1.055999994277954, 0.0, 0.0, 0.0, 0.0, 0.0, 1.6209949139705706E9, 2021-05-14 14:21:53.970
12.0, -123.3475112915039, -79.03717803955078, -13.49168872833252, 111.59861755371094, 0.03200000151991844, -0.04800000041723251, 1.055999994277954, 0.0, 0.0, 0.0, 0.0, 0.0, 1.6209949139705706E9, 2021-05-14 14:21:53.970
13.0, -133.25076293945312, -91.0833969116211, -29.333906173706055, 94.66060638427734, 0.03200000151991844, -0.04800000041723251, 1.055999994277954, 0.0, 0.0, 0.0, 0.0, 0.0, 1.6209949139856372E9, 2021-05-14 14:21:53.985
13.0, -126.78821563720703, -85.14069366455078, -20.287086486816406, 105.45770263671875, 0.03200000151991844, -0.04800000041723251, 1.055999994277954, 0.0, 0.0, 0.0, 0.0, 0.0, 1.6209949139856372E9, 2021-05-14 14:21:53.985
14.0, -116.16690063476562, -70.73833465576172, -6.3372602462768555, 122.59766387939453, 0.03200000151991844, -0.04800000041723251, 1.055999994277954, 0.0, 0.0, 0.0, 0.0, 0.0, 1.6209949140013883E9, 2021-05-14 14:21:54.001
14.0, -117.37114715576172, -74.70262908935547, -0.5628549456596375, 113.06465911865234, 0.03200000151991844, -0.04800000041723251, 1.055999994277954, 0.0, 0.0, 0.0, 0.0, 0.0, 1.6209949140013883E9, 2021-05-14 14:21:54.001
15.0, -134.09597778320312, -84.40019226074219, -8.577460289001465, 89.3910903930664, 0.03200000151991844, -0.04800000041723251, 1.055999994277954, 0.0, 0.0, 0.0, 0.0, 0.0, 1.6209949140019863E9, 2021-05-14 14:21:54.001
15.0, -129.52581787109375, -76.3332290649414, -5.147972106933594, 99.59353637695312, 0.03200000151991844, -0.04800000041723251, 1.055999994277954, 0.0, 0.0, 0.0, 0.0, 0.0, 1.6209949140019863E9, 2021-05-14 14:21:54.001
16.0, -115.15338897705078, -58.09373474121094, 10.009841918945312, 119.33272552490234, 0.03200000151991844, -0.04800000041723251, 1.055999994277954, 0.0, 0.0, 0.0, 0.0, 0.0, 1.6209949140155325E9, 2021-05-14 14:21:54.015
16.0, -134.305419921875, -60.57328796386719, 5.585540771484375, 105.59981536865234, 0.03200000151991844, -0.04800000041723251, 1.055999994277954, 0.0, 0.0, 0.0, 0.0, 0.0, 1.6209949140155325E9, 2021-05-14 14:21:54.015
17.0, -159.25054931640625, -75.55158996582031, -12.889565467834473, 77.4308853149414, 0.03200000151991844, -0.04800000041723251, 1.055999994277954, 0.0, 0.0, 0.0, 0.0, 0.0, 1.6209949140312808E9, 2021-05-14 14:21:54.031
17.0, -159.15330505371094, -64.40668487548828, -16.708003997802734, 72.28104400634766, 0.03200000151991844, -0.04800000041723251, 1.055999994277954, 0.0, 0.0, 0.0, 0.0, 0.0, 1.6209949140312808E9, 2021-05-14 14:21:54.031
18.0, -136.05943298339844, -50.72239303588867, 3.2630627155303955, 95.89851379394531, 0.03200000151991844, -0.04800000041723251, 1.055999994277954, 0.0, 0.0, 0.0, 0.0, 0.0, 1.6209949140320168E9, 2021-05-14 14:21:54.032
18.0, -133.6210174560547, -62.12908935546875, -0.3197614550590515, 84.17766571044922, 0.03200000151991844, -0.04800000041723251, 1.055999994277954, 0.0, 0.0, 0.0, 0.0, 0.0, 1.6209949140320168E9, 2021-05-14 14:21:54.032
19.0, -142.9932098388672, -72.12957763671875, -14.198530197143555, 66.64875793457031, 0.03200000151991844, -0.04800000041723251, 1.055999994277954, 0.0, 0.0, 0.0, 0.0, 0.0, 1.6209949140455728E9, 2021-05-14 14:21:54.045
19.0, -136.2987823486328, -73.58440399169922, -23.02843475341797, 75.98355102539062, 0.03200000151991844, -0.04800000041723251, 1.055999994277954, 0.0, 0.0, 0.0, 0.0, 0.0, 1.6209949140455728E9, 2021-05-14 14:21:54.045
20.0, -122.52847290039062, -56.11532974243164, -5.787495136260986, 105.70079040527344, 0.03200000151991844, -0.04800000041723251, 1.055999994277954, 0.0, 0.0, 0.0, 0.0, 0.0, 1.6209949140616362E9, 2021-05-14 14:21:54.061
20.0, -127.03878784179688, -66.80770111083984, -8.697136878967285, 103.61392974853516, 0.03200000151991844, -0.04800000041723251, 1.055999994277954, 0.0, 0.0, 0.0, 0.0, 0.0, 1.6209949140616362E9, 2021-05-14 14:21:54.061
21.0, -139.11866760253906, -80.81736755371094, -19.3371524810791, 88.6655502319336, 0.03200000151991844, -0.04800000041723251, 1.055999994277954, 0.0, 0.0, 0.0, 0.0, 0.0, 1.6209949140763535E9, 2021-05-14 14:21:54.076
21.0, -137.6563720703125, -81.50924682617188, -23.207948684692383, 91.18997955322266, 0.03200000151991844, -0.04800000041723251, 1.055999994277954, 0.0, 0.0, 0.0, 0.0, 0.0, 1.6209949140763535E9, 2021-05-14 14:21:54.076
22.0, -125.98413848876953, -68.4831771850586, -9.052428245544434, 115.37591552734375, 0.03200000151991844, -0.04800000041723251, 1.055999994277954, 0.0, 0.0, 0.0, 0.0, 0.0, 1.6209949140771086E9, 2021-05-14 14:21:54.077
22.0, -122.02732849121094, -65.03125, -2.9863100051879883, 115.79104614257812, 0.03200000151991844, -0.04800000041723251, 1.055999994277954, 0.0, 0.0, 0.0, 0.0, 0.0, 1.6209949140771086E9, 2021-05-14 14:21:54.077
23.0, -134.13711547851562, -84.14588165283203, -15.327980041503906, 85.83818054199219, 0.03200000151991844, -0.04800000041723251, 1.055999994277954, 0.0, 0.0, 0.0, 0.0, 0.0, 1.6209949140912268E9, 2021-05-14 14:21:54.091
23.0, -134.47744750976562, -79.82255554199219, -21.955081939697266, 86.38794708251953, 0.03200000151991844, -0.04800000041723251, 1.055999994277954, 0.0, 0.0, 0.0, 0.0, 0.0, 1.6209949140912268E9, 2021-05-14 14:21:54.091
24.0, -116.68675231933594, -64.23464965820312, -3.551034927368164, 114.97574615478516, 0.03200000151991844, -0.04800000041723251, 1.055999994277954, 0.0, 0.0, 0.0, 0.0, 0.0, 1.6209949140919428E9, 2021-05-14 14:21:54.091
24.0, -123.55694580078125, -66.54965209960938, -2.3617467880249023, 109.82215881347656, 0.03200000151991844, -0.04800000041723251, 1.055999994277954, 0.0, 0.0, 0.0, 0.0, 0.0, 1.6209949140919428E9, 2021-05-14 14:21:54.091
25.0, -145.69715881347656, -83.0762710571289, -15.877745628356934, 84.2337646484375, 0.03200000151991844, -0.04800000041723251, 1.055999994277954, 0.0, 0.0, 0.0, 0.0, 0.0, 1.620994914121937E9, 2021-05-14 14:21:54.121
25.0, -137.64889526367188, -77.0550308227539, -14.082592964172363, 90.00069427490234, 0.03200000151991844, -0.04800000041723251, 1.055999994277954, 0.0, 0.0, 0.0, 0.0, 0.0, 1.620994914121937E9, 2021-05-14 14:21:54.121
26.0, -132.439208984375, -51.45167541503906, -1.8456406593322754, 112.52984619140625, 0.03200000151991844, -0.04800000041723251, 1.055999994277954, 0.0, 0.0, 0.0, 0.0, 0.0, 1.6209949141226647E9, 2021-05-14 14:21:54.122
26.0, -131.94180297851562, -58.05259704589844, 1.9241784811019897, 94.20433807373047, 0.03200000151991844, -0.04800000041723251, 1.055999994277954, 0.0, 0.0, 0.0, 0.0, 0.0, 1.6209949141226647E9, 2021-05-14 14:21:54.122
27.0, -143.27743530273438, -68.9469223022461, -14.744555473327637, 65.33231353759766, 0.03200000151991844, -0.04800000041723251, 1.055999994277954, 0.0, 0.0, 0.0, 0.0, 0.0, 1.6209949141233857E9, 2021-05-14 14:21:54.123
27.0, -146.32919311523438, -68.56919860839844, -20.840593338012695, 62.033721923828125, 0.03200000151991844, -0.04800000041723251, 1.055999994277954, 0.0, 0.0, 0.0, 0.0, 0.0, 1.6209949141233857E9, 2021-05-14 14:21:54.123
28.0, -125.07908630371094, -47.341522216796875, -2.0139360427856445, 92.68219757080078, 0.03200000151991844, -0.04800000041723251, 1.055999994277954, 0.0, 0.0, 0.0, 0.0, 0.0, 1.6209949141356227E9, 2021-05-14 14:21:54.135
28.0, -129.9484405517578, -64.39546966552734, -6.1203460693359375, 84.17766571044922, 0.03200000151991844, -0.04800000041723251, 1.055999994277954, 0.0, 0.0, 0.0, 0.0, 0.0, 1.6209949141356227E9, 2021-05-14 14:21:54.135
29.0, -141.6356201171875, -73.63675689697266, -15.062447547912598, 69.47611999511719, 0.03200000151991844, -0.04800000041723251, 1.055999994277954, 0.0, 0.0, 0.0, 0.0, 0.0, 1.620994914168189E9, 2021-05-14 14:21:54.168
29.0, -136.20155334472656, -69.09278106689453, -10.851319313049316, 86.38420867919922, 0.03200000151991844, -0.04800000041723251, 1.055999994277954, 0.0, 0.0, 0.0, 0.0, 0.0, 1.620994914168189E9, 2021-05-14 14:21:54.168
30.0, -125.51290893554688, -60.27409744262695, -1.4903501272201538, 108.64409637451172, 0.03200000151991844, -0.04800000041723251, 1.055999994277954, 0.0, 0.0, 0.0, 0.0, 0.0, 1.6209949141687777E9, 2021-05-14 14:21:54.168
30.0, -120.95023345947266, -67.61177825927734, -1.7110042572021484, 107.63432312011719, 0.03200000151991844, -0.04800000041723251, 1.055999994277954, 0.0, 0.0, 0.0, 0.0, 0.0, 1.6209949141687777E9, 2021-05-14 14:21:54.168
31.0, -133.0637664794922, -86.77128601074219, -18.005748748779297, 88.20179748535156, 0.03200000151991844, -0.04800000041723251, 1.055999994277954, 0.0, 0.0, 0.0, 0.0, 0.0, 1.620994914169503E9, 2021-05-14 14:21:54.169
31.0, -135.7041473388672, -80.2713394165039, -18.41339683532715, 94.25296020507812, 0.03200000151991844, -0.04800000041723251, 1.055999994277954, 0.0, 0.0, 0.0, 0.0, 0.0, 1.620994914169503E9, 2021-05-14 14:21:54.169
32.0, -129.52581787109375, -74.68019104003906, -7.5863871574401855, 127.58294677734375, 0.03200000151991844, -0.04800000041723251, 1.055999994277954, 0.0, 0.0, 0.0, 0.0, 0.0, 1.620994914182002E9, 2021-05-14 14:21:54.182
32.0, -133.15353393554688, -80.19280242919922, -12.702569961547852, 117.98636627197266, 0.03200000151991844, -0.04800000041723251, 1.055999994277954, 0.0, 0.0, 0.0, 0.0, 0.0, 1.620994914182002E9, 2021-05-14 14:21:54.182
33.0, -145.68966674804688, -100.93428802490234, -28.03615951538086, 103.74856567382812, 0.03200000151991844, -0.04800000041723251, 1.055999994277954, 0.0, 0.0, 0.0, 0.0, 0.0, 1.6209949141827288E9, 2021-05-14 14:21:54.182
33.0, -137.95556640625, -85.66801452636719, -23.727794647216797, 110.61502075195312, 0.03200000151991844, -0.04800000041723251, 1.055999994277954, 0.0, 0.0, 0.0, 0.0, 0.0, 1.6209949141827288E9, 2021-05-14 14:21:54.182
34.0, -125.29973602294922, -77.12982940673828, -11.707756996154785, 128.9554901123047, 0.03200000151991844, -0.04800000041723251, 1.055999994277954, 0.0, 0.0, 0.0, 0.0, 0.0, 1.62099491419557E9, 2021-05-14 14:21:54.195
34.0, -130.31494140625, -83.97010040283203, -11.625478744506836, 117.02894592285156, 0.03200000151991844, -0.04800000041723251, 1.055999994277954, 0.0, 0.0, 0.0, 0.0, 0.0, 1.62099491419557E9, 2021-05-14 14:21:54.195
35.0, -144.21615600585938, -87.07048034667969, -22.26923370361328, 92.73455810546875, 0.03200000151991844, -0.04800000041723251, 1.055999994277954, 0.0, 0.0, 0.0, 0.0, 0.0, 1.6209949142275622E9, 2021-05-14 14:21:54.227
35.0, -146.31797790527344, -77.11860656738281, -18.746248245239258, 92.27455139160156, 0.03200000151991844, -0.04800000041723251, 1.055999994277954, 0.0, 0.0, 0.0, 0.0, 0.0, 1.6209949142275622E9, 2021-05-14 14:21:54.227
36.0, -131.14146423339844, -65.21076202392578, -9.329180717468262, 95.74517822265625, 0.03200000151991844, -0.04800000041723251, 1.055999994277954, 0.0, 0.0, 0.0, 0.0, 0.0, 1.620994914228325E9, 2021-05-14 14:21:54.228
36.0, -131.73609924316406, -65.73809051513672, -2.3430473804473877, 84.42449951171875, 0.03200000151991844, -0.04800000041723251, 1.055999994277954, 0.0, 0.0, 0.0, 0.0, 0.0, 1.620994914228325E9, 2021-05-14 14:21:54.228
37.0, -141.43740844726562, -81.47559356689453, -14.88293170928955, 55.88158416748047, 0.03200000151991844, -0.04800000041723251, 1.055999994277954, 0.0, 0.0, 0.0, 0.0, 0.0, 1.6209949142290733E9, 2021-05-14 14:21:54.229
37.0, -130.7824249267578, -74.9083251953125, 0.7386302351951599, 68.94131469726562, 0.03200000151991844, -0.04800000041723251, 1.055999994277954, 0.0, 0.0, 0.0, 0.0, 0.0, 1.6209949142290733E9, 2021-05-14 14:21:54.229
38.0, -126.02902221679688, -60.00108337402344, 7.552728176116943, 89.72767639160156, 0.03200000151991844, -0.04800000041723251, 1.055999994277954, 0.0, 0.0, 0.0, 0.0, 0.0, 1.6209949142298908E9, 2021-05-14 14:21:54.229
38.0, -129.47720336914062, -51.21979904174805, 3.824047803878784, 87.21446990966797, 0.03200000151991844, -0.04800000041723251, 1.055999994277954, 0.0, 0.0, 0.0, 0.0, 0.0, 1.6209949142298908E9, 2021-05-14 14:21:54.229
39.0, -137.5179901123047, -67.0021743774414, -10.623186111450195, 76.21542358398438, 0.03200000151991844, -0.04800000041723251, 1.055999994277954, 0.0, 0.0, 0.0, 0.0, 0.0, 1.62099491424058E9, 2021-05-14 14:21:54.240
39.0, -137.09912109375, -69.11148071289062, -10.208057403564453, 91.95665740966797, 0.03200000151991844, -0.04800000041723251, 1.055999994277954, 0.0, 0.0, 0.0, 0.0, 0.0, 1.62099491424058E9, 2021-05-14 14:21:54.240
40.0, -130.88340759277344, -54.009765625, -3.8651866912841797, 117.84050750732422, 0.03200000151991844, -0.04800000041723251, 1.055999994277954, 0.0, 0.0, 0.0, 0.0, 0.0, 1.6209949142555745E9, 2021-05-14 14:21:54.255
40.0, -133.31808471679688, -53.00747299194336, -2.5076029300689697, 118.91011810302734, 0.03200000151991844, -0.04800000041723251, 1.055999994277954, 0.0, 0.0, 0.0, 0.0, 0.0, 1.6209949142555745E9, 2021-05-14 14:21:54.255
41.0, -145.2483673095703, -73.85367584228516, -12.190203666687012, 106.8938217163086, 0.03200000151991844, -0.04800000041723251, 1.055999994277954, 0.0, 0.0, 0.0, 0.0, 0.0, 1.6209949142877004E9, 2021-05-14 14:21:54.287
41.0, -145.35682678222656, -69.37701416015625, -18.20770263671875, 108.95824432373047, 0.03200000151991844, -0.04800000041723251, 1.055999994277954, 0.0, 0.0, 0.0, 0.0, 0.0, 1.6209949142877004E9, 2021-05-14 14:21:54.287
42.0, -136.14918518066406, -55.20279312133789, -8.917791366577148, 135.29087829589844, 0.03200000151991844, -0.04800000041723251, 1.055999994277954, 0.0, 0.0, 0.0, 0.0, 0.0, 1.6209949142883844E9, 2021-05-14 14:21:54.288
42.0, -148.56565856933594, -65.26686096191406, -5.843593597412109, 126.87610626220703, 0.03200000151991844, -0.04800000041723251, 1.055999994277954, 0.0, 0.0, 0.0, 0.0, 0.0, 1.6209949142883844E9, 2021-05-14 14:21:54.288
43.0, -149.6913604736328, -73.3188705444336, -18.45453643798828, 105.07623291015625, 0.03200000151991844, -0.04800000041723251, 1.055999994277954, 0.0, 0.0, 0.0, 0.0, 0.0, 1.6209949142890682E9, 2021-05-14 14:21:54.289
43.0, -148.12808227539062, -74.21644592285156, -26.34198570251465, 100.8763198852539, 0.03200000151991844, -0.04800000041723251, 1.055999994277954, 0.0, 0.0, 0.0, 0.0, 0.0, 1.6209949142890682E9, 2021-05-14 14:21:54.289
44.0, -133.54995727539062, -53.213165283203125, -11.778815269470215, 114.53069305419922, 0.03200000151991844, -0.04800000041723251, 1.055999994277954, 0.0, 0.0, 0.0, 0.0, 0.0, 1.6209949142898254E9, 2021-05-14 14:21:54.289
44.0, -132.58880615234375, -58.73699951171875, -6.673851490020752, 98.56880187988281, 0.03200000151991844, -0.04800000041723251, 1.055999994277954, 0.0, 0.0, 0.0, 0.0, 0.0, 1.6209949142898254E9, 2021-05-14 14:21:54.289
45.0, -147.68678283691406, -66.43745422363281, -24.8011474609375, 69.4985580444336, 0.03200000151991844, -0.04800000041723251, 1.055999994277954, 0.0, 0.0, 0.0, 0.0, 0.0, 1.620994914300572E9, 2021-05-14 14:21:54.300
45.0, -140.30795288085938, -59.35408401489258, -20.212289810180664, 70.77386474609375, 0.03200000151991844, -0.04800000041723251, 1.055999994277954, 0.0, 0.0, 0.0, 0.0, 0.0, 1.620994914300572E9, 2021-05-14 14:21:54.300
46.0, -125.99909973144531, -39.05764389038086, 0.12902654707431793, 92.34934997558594, 0.03200000151991844, -0.04800000041723251, 1.055999994277954, 0.0, 0.0, 0.0, 0.0, 0.0, 1.6209949143155203E9, 2021-05-14 14:21:54.315
46.0, -134.11094665527344, -49.46578598022461, -0.8321277499198914, 83.76628112792969, 0.03200000151991844, -0.04800000041723251, 1.055999994277954, 0.0, 0.0, 0.0, 0.0, 0.0, 1.6209949143155203E9, 2021-05-14 14:21:54.315
47.0, -148.9733123779297, -60.625648498535156, -13.465509414672852, 63.54838180541992, 0.03200000151991844, -0.04800000041723251, 1.055999994277954, 0.0, 0.0, 0.0, 0.0, 0.0, 1.6209949143319373E9, 2021-05-14 14:21:54.331
47.0, -148.5843505859375, -56.05923080444336, -13.607625961303711, 79.83190155029297, 0.03200000151991844, -0.04800000041723251, 1.055999994277954, 0.0, 0.0, 0.0, 0.0, 0.0, 1.6209949143319373E9, 2021-05-14 14:21:54.331
48.0, -127.79425048828125, -39.96269989013672, 4.796421527862549, 113.90987396240234, 0.03200000151991844, -0.04800000041723251, 1.055999994277954, 0.0, 0.0, 0.0, 0.0, 0.0, 1.6209949143328428E9, 2021-05-14 14:21:54.332
48.0, -138.10890197753906, -60.472312927246094, -5.469603538513184, 107.90733337402344, 0.03200000151991844, -0.04800000041723251, 1.055999994277954, 0.0, 0.0, 0.0, 0.0, 0.0, 1.6209949143328428E9, 2021-05-14 14:21:54.332
49.0, -139.54501342773438, -65.08361053466797, -12.53801441192627, 95.10565948486328, 0.03200000151991844, -0.04800000041723251, 1.055999994277954, 0.0, 0.0, 0.0, 0.0, 0.0, 1.620994914345548E9, 2021-05-14 14:21:54.345
49.0, -146.48252868652344, -72.88504028320312, -21.251981735229492, 96.85967254638672, 0.03200000151991844, -0.04800000041723251, 1.055999994277954, 0.0, 0.0, 0.0, 0.0, 0.0, 1.620994914345548E9, 2021-05-14 14:21:54.345
50.0, -137.45816040039062, -58.68463897705078, -10.888718605041504, 126.76390838623047, 0.03200000151991844, -0.04800000041723251, 1.055999994277954, 0.0, 0.0, 0.0, 0.0, 0.0, 1.6209949143612113E9, 2021-05-14 14:21:54.361
50.0, -141.11952209472656, -64.99758911132812, -16.43498992919922, 115.99299621582031, 0.03200000151991844, -0.04800000041723251, 1.055999994277954, 0.0, 0.0, 0.0, 0.0, 0.0, 1.6209949143612113E9, 2021-05-14 14:21:54.361
51.0, -153.52102661132812, -74.5081558227539, -28.230634689331055, 96.9793472290039, 0.03200000151991844, -0.04800000041723251, 1.055999994277954, 0.0, 0.0, 0.0, 0.0, 0.0, 1.6209949143619068E9, 2021-05-14 14:21:54.361
51.0, -147.68304443359375, -65.94752502441406, -20.159931182861328, 106.75544738769531, 0.03200000151991844, -0.04800000041723251, 1.055999994277954, 0.0, 0.0, 0.0, 0.0, 0.0, 1.6209949143619068E9, 2021-05-14 14:21:54.361
52.0, -132.9066925048828, -54.72034454345703, -8.906571388244629, 126.37496185302734, 0.03200000151991844, -0.04800000041723251, 1.055999994277954, 0.0, 0.0, 0.0, 0.0, 0.0, 1.6209949143755386E9, 2021-05-14 14:21:54.375
52.0, -138.56517028808594, -59.369041442871094, -5.256429195404053, 120.98576354980469, 0.03200000151991844, -0.04800000041723251, 1.055999994277954, 0.0, 0.0, 0.0, 0.0, 0.0, 1.6209949143755386E9, 2021-05-14 14:21:54.375
53.0, -145.9178009033203, -74.05562591552734, -15.77676773071289, 91.04412078857422, 0.03200000151991844, -0.04800000041723251, 1.055999994277954, 0.0, 0.0, 0.0, 0.0, 0.0, 1.6209949143912044E9, 2021-05-14 14:21:54.391
53.0, -140.4463348388672, -66.86380004882812, -15.372859001159668, 94.0921401977539, 0.03200000151991844, -0.04800000041723251, 1.055999994277954, 0.0, 0.0, 0.0, 0.0, 0.0, 1.6209949143912044E9, 2021-05-14 14:21:54.391
54.0, -128.04483032226562, -52.506324768066406, -2.6048402786254883, 99.06620788574219, 0.03200000151991844, -0.04800000041723251, 1.055999994277954, 0.0, 0.0, 0.0, 0.0, 0.0, 1.62099491439195E9, 2021-05-14 14:21:54.391
54.0, -129.94094848632812, -54.61188888549805, -4.299015045166016, 80.87159729003906, 0.03200000151991844, -0.04800000041723251, 1.055999994277954, 0.0, 0.0, 0.0, 0.0, 0.0, 1.62099491439195E9, 2021-05-14 14:21:54.391
55.0, -144.25355529785156, -61.79623794555664, -18.035667419433594, 55.32059860229492, 0.03200000151991844, -0.04800000041723251, 1.055999994277954, 0.0, 0.0, 0.0, 0.0, 0.0, 1.620994914405676E9, 2021-05-14 14:21:54.405
55.0, -139.57867431640625, -57.667388916015625, -20.32074546813965, 59.48310852050781, 0.03200000151991844, -0.04800000041723251, 1.055999994277954, 0.0, 0.0, 0.0, 0.0, 0.0, 1.620994914405676E9, 2021-05-14 14:21:54.405
56.0, -135.13941955566406, -43.53804397583008, -11.315067291259766, 85.91297912597656, 0.03200000151991844, -0.04800000041723251, 1.055999994277954, 0.0, 0.0, 0.0, 0.0, 0.0, 1.6209949144212604E9, 2021-05-14 14:21:54.421
56.0, -133.69955444335938, -42.1954231262207, -6.988003253936768, 85.48289489746094, 0.03200000151991844, -0.04800000041723251, 1.055999994277954, 0.0, 0.0, 0.0, 0.0, 0.0, 1.6209949144212604E9, 2021-05-14 14:21:54.421
57.0, -148.214111328125, -53.00373077392578, -15.140984535217285, 79.15872192382812, 0.03200000151991844, -0.04800000041723251, 1.055999994277954, 0.0, 0.0, 0.0, 0.0, 0.0, 1.6209949144219513E9, 2021-05-14 14:21:54.421
57.0, -147.8176727294922, -57.07648468017578, -21.270681381225586, 83.96075439453125, 0.03200000151991844, -0.04800000041723251, 1.055999994277954, 0.0, 0.0, 0.0, 0.0, 0.0, 1.6209949144219513E9, 2021-05-14 14:21:54.421
58.0, -129.41737365722656, -43.89333724975586, -4.145678997039795, 111.48641967773438, 0.03200000151991844, -0.04800000041723251, 1.055999994277954, 0.0, 0.0, 0.0, 0.0, 0.0, 1.6209949144355328E9, 2021-05-14 14:21:54.435
58.0, -135.63308715820312, -58.92025375366211, -5.686517715454102, 108.67401123046875, 0.03200000151991844, -0.04800000041723251, 1.055999994277954, 0.0, 0.0, 0.0, 0.0, 0.0, 1.6209949144355328E9, 2021-05-14 14:21:54.435
59.0, -145.4129180908203, -66.97225952148438, -18.712589263916016, 92.34561157226562, 0.03200000151991844, -0.04800000041723251, 1.055999994277954, 0.0, 0.0, 0.0, 0.0, 0.0, 1.6209949144511936E9, 2021-05-14 14:21:54.451
59.0, -145.4129180908203, -67.50332641601562, -21.547433853149414, 102.0169906616211, 0.03200000151991844, -0.04800000041723251, 1.055999994277954, 0.0, 0.0, 0.0, 0.0, 0.0, 1.6209949144511936E9, 2021-05-14 14:21:54.451
60.0, -130.28875732421875, -48.310157775878906, -7.223616600036621, 128.9554901123047, 0.03200000151991844, -0.04800000041723251, 1.055999994277954, 0.0, 0.0, 0.0, 0.0, 0.0, 1.6209949144518907E9, 2021-05-14 14:21:54.451
60.0, -130.07933044433594, -57.858123779296875, -5.525701999664307, 124.10858154296875, 0.03200000151991844, -0.04800000041723251, 1.055999994277954, 0.0, 0.0, 0.0, 0.0, 0.0, 1.6209949144518907E9, 2021-05-14 14:21:54.451
61.0, -142.58181762695312, -70.18482971191406, -18.312419891357422, 102.338623046875, 0.03200000151991844, -0.04800000041723251, 1.055999994277954, 0.0, 0.0, 0.0, 0.0, 0.0, 1.6209949144655142E9, 2021-05-14 14:21:54.465
61.0, -140.83901977539062, -74.1266860961914, -18.66771125793457, 100.10590362548828, 0.03200000151991844, -0.04800000041723251, 1.055999994277954, 0.0, 0.0, 0.0, 0.0, 0.0, 1.6209949144655142E9, 2021-05-14 14:21:54.465
62.0, -121.23820495605469, -46.713218688964844, 2.4440245628356934, 127.20895385742188, 0.03200000151991844, -0.04800000041723251, 1.055999994277954, 0.0, 0.0, 0.0, 0.0, 0.0, 1.6209949144812138E9, 2021-05-14 14:21:54.481
62.0, -129.047119140625, -58.35552978515625, -2.05507493019104, 109.32475280761719, 0.03200000151991844, -0.04800000041723251, 1.055999994277954, 0.0, 0.0, 0.0, 0.0, 0.0, 1.6209949144812138E9, 2021-05-14 14:21:54.481
63.0, -138.30711364746094, -68.98806762695312, -18.308679580688477, 79.46539306640625, 0.03200000151991844, -0.04800000041723251, 1.055999994277954, 0.0, 0.0, 0.0, 0.0, 0.0, 1.6209949144819088E9, 2021-05-14 14:21:54.481
63.0, -137.58531188964844, -59.630836486816406, -20.87799072265625, 67.90162658691406, 0.03200000151991844, -0.04800000041723251, 1.055999994277954, 0.0, 0.0, 0.0, 0.0, 0.0, 1.6209949144819088E9, 2021-05-14 14:21:54.481
64.0, -123.25401306152344, -40.78173828125, -9.48625659942627, 74.80174255371094, 0.03200000151991844, -0.04800000041723251, 1.055999994277954, 0.0, 0.0, 0.0, 0.0, 0.0, 1.6209949144955347E9, 2021-05-14 14:21:54.495
64.0, -120.47900390625, -43.4819450378418, 2.8067948818206787, 75.4786605834961, 0.03200000151991844, -0.04800000041723251, 1.055999994277954, 0.0, 0.0, 0.0, 0.0, 0.0, 1.6209949144955347E9, 2021-05-14 14:21:54.495
65.0, -135.92478942871094, -60.16189956665039, -8.779415130615234, 69.6369400024414, 0.03200000151991844, -0.04800000041723251, 1.055999994277954, 0.0, 0.0, 0.0, 0.0, 0.0, 1.6209949145109642E9, 2021-05-14 14:21:54.510
65.0, -135.89862060546875, -57.1325798034668, -16.954835891723633, 78.19757080078125, 0.03200000151991844, -0.04800000041723251, 1.055999994277954, 0.0, 0.0, 0.0, 0.0, 0.0, 1.6209949145109642E9, 2021-05-14 14:21:54.510
66.0, -129.48094177246094, -42.629249572753906, 0.3197614550590515, 102.14041137695312, 0.03200000151991844, -0.04800000041723251, 1.055999994277954, 0.0, 0.0, 0.0, 0.0, 0.0, 1.620994914525922E9, 2021-05-14 14:21:54.525
66.0, -133.35548400878906, -45.77076721191406, -3.03118896484375, 105.0724868774414, 0.03200000151991844, -0.04800000041723251, 1.055999994277954, 0.0, 0.0, 0.0, 0.0, 0.0, 1.620994914525922E9, 2021-05-14 14:21:54.525
67.0, -150.7871551513672, -60.97345733642578, -24.262601852416992, 83.05195617675781, 0.03200000151991844, -0.04800000041723251, 1.055999994277954, 0.0, 0.0, 0.0, 0.0, 0.0, 1.6209949145417109E9, 2021-05-14 14:21:54.541
67.0, -142.4434356689453, -52.33055114746094, -18.772428512573242, 95.214111328125, 0.03200000151991844, -0.04800000041723251, 1.055999994277954, 0.0, 0.0, 0.0, 0.0, 0.0, 1.6209949145417109E9, 2021-05-14 14:21:54.541
68.0, -137.03929138183594, -45.28458023071289, -5.024555683135986, 116.00048065185547, 0.03200000151991844, -0.04800000041723251, 1.055999994277954, 0.0, 0.0, 0.0, 0.0, 0.0, 1.6209949145576622E9, 2021-05-14 14:21:54.557
68.0, -136.10430908203125, -46.78801727294922, -9.703170776367188, 118.5361328125, 0.03200000151991844, -0.04800000041723251, 1.055999994277954, 0.0, 0.0, 0.0, 0.0, 0.0, 1.6209949145576622E9, 2021-05-14 14:21:54.557
69.0, -141.8787078857422, -63.007965087890625, -15.324239730834961, 106.02242279052734, 0.03200000151991844, -0.04800000041723251, 1.055999994277954, 0.0, 0.0, 0.0, 0.0, 0.0, 1.6209949145583498E9, 2021-05-14 14:21:54.558
69.0, -139.15606689453125, -68.59537506103516, -18.626571655273438, 105.37915802001953, 0.03200000151991844, -0.04800000041723251, 1.055999994277954, 0.0, 0.0, 0.0, 0.0, 0.0, 1.6209949145583498E9, 2021-05-14 14:21:54.558
70.0, -128.31784057617188, -40.755558013916016, -8.483963012695312, 125.00615692138672, 0.03200000151991844, -0.04800000041723251, 1.055999994277954, 0.0, 0.0, 0.0, 0.0, 0.0, 1.6209949145590625E9, 2021-05-14 14:21:54.559
70.0, -132.32327270507812, -49.316192626953125, -8.397945404052734, 117.91156768798828, 0.03200000151991844, -0.04800000041723251, 1.055999994277954, 0.0, 0.0, 0.0, 0.0, 0.0, 1.6209949145590625E9, 2021-05-14 14:21:54.559
71.0, -144.29843139648438, -69.56401062011719, -17.751434326171875, 91.82950592041016, 0.03200000151991844, -0.04800000041723251, 1.055999994277954, 0.0, 0.0, 0.0, 0.0, 0.0, 1.6209949145598116E9, 2021-05-14 14:21:54.559
71.0, -145.4129180908203, -51.96030044555664, -23.940969467163086, 88.27659606933594, 0.03200000151991844, -0.04800000041723251, 1.055999994277954, 0.0, 0.0, 0.0, 0.0, 0.0, 1.6209949145598116E9, 2021-05-14 14:21:54.559
72.0, -137.74986267089844, -34.04991912841797, -10.458630561828613, 98.42668914794922, 0.03200000151991844, -0.04800000041723251, 1.055999994277954, 0.0, 0.0, 0.0, 0.0, 0.0, 1.6209949145705664E9, 2021-05-14 14:21:54.570
72.0, -129.85867309570312, -36.626708984375, -4.3775529861450195, 88.23545837402344, 0.03200000151991844, -0.04800000041723251, 1.055999994277954, 0.0, 0.0, 0.0, 0.0, 0.0, 1.6209949145705664E9, 2021-05-14 14:21:54.570
73.0, -140.80535888671875, -57.955360412597656, -11.315067291259766, 71.41712951660156, 0.03200000151991844, -0.04800000041723251, 1.055999994277954, 0.0, 0.0, 0.0, 0.0, 0.0, 1.620994914585498E9, 2021-05-14 14:21:54.585
73.0, -148.39735412597656, -49.09553527832031, -16.44247055053711, 70.71402740478516, 0.03200000151991844, -0.04800000041723251, 1.055999994277954, 0.0, 0.0, 0.0, 0.0, 0.0, 1.620994914585498E9, 2021-05-14 14:21:54.585
74.0, -130.68519592285156, -25.81839942932129, -10.589527130126953, 85.45671081542969, 0.03200000151991844, -0.04800000041723251, 1.055999994277954, 0.0, 0.0, 0.0, 0.0, 0.0, 1.6209949146012645E9, 2021-05-14 14:21:54.601
74.0, -139.54127502441406, -35.74409484863281, -8.267048835754395, 80.95013427734375, 0.03200000151991844, -0.04800000041723251, 1.055999994277954, 0.0, 0.0, 0.0, 0.0, 0.0, 1.6209949146012645E9, 2021-05-14 14:21:54.601
75.0, -148.49085998535156, -47.162010192871094, -23.821292877197266, 66.53656005859375, 0.03200000151991844, -0.04800000041723251, 1.055999994277954, 0.0, 0.0, 0.0, 0.0, 0.0, 1.6209949146020224E9, 2021-05-14 14:21:54.602
75.0, -145.27455139160156, -44.78717041015625, -15.84782600402832, 85.49785614013672, 0.03200000151991844, -0.04800000041723251, 1.055999994277954, 0.0, 0.0, 0.0, 0.0, 0.0, 1.6209949146020224E9, 2021-05-14 14:21:54.602
76.0, -131.10406494140625, -29.71163558959961, 2.6085801124572754, 110.28217315673828, 0.03200000151991844, -0.04800000041723251, 1.055999994277954, 0.0, 0.0, 0.0, 0.0, 0.0, 1.6209949146154876E9, 2021-05-14 14:21:54.615
76.0, -136.99440002441406, -44.959205627441406, 0.2823624610900879, 104.37313079833984, 0.03200000151991844, -0.04800000041723251, 1.055999994277954, 0.0, 0.0, 0.0, 0.0, 0.0, 1.6209949146154876E9, 2021-05-14 14:21:54.615
77.0, -140.52113342285156, -53.55723571777344, -11.232789993286133, 91.64624786376953, 0.03200000151991844, -0.04800000041723251, 1.055999994277954, 0.0, 0.0, 0.0, 0.0, 0.0, 1.6209949146316297E9, 2021-05-14 14:21:54.631
77.0, -133.5836181640625, -51.14874267578125, -6.864586353302002, 93.98368835449219, 0.03200000151991844, -0.04800000041723251, 1.055999994277954, 0.0, 0.0, 0.0, 0.0, 0.0, 1.6209949146316297E9, 2021-05-14 14:21:54.631
78.0, -126.7358627319336, -39.465293884277344, 7.302154541015625, 117.092529296875, 0.03200000151991844, -0.04800000041723251, 1.055999994277954, 0.0, 0.0, 0.0, 0.0, 0.0, 1.6209949146462128E9, 2021-05-14 14:21:54.646
78.0, -142.51075744628906, -45.31075668334961, 6.303601264953613, 109.38085174560547, 0.03200000151991844, -0.04800000041723251, 1.055999994277954, 0.0, 0.0, 0.0, 0.0, 0.0, 1.6209949146462128E9, 2021-05-14 14:21:54.646
79.0, -149.0106964111328, -66.77030181884766, -10.290334701538086, 88.18309783935547, 0.03200000151991844, -0.04800000041723251, 1.055999994277954, 0.0, 0.0, 0.0, 0.0, 0.0, 1.6209949146468868E9, 2021-05-14 14:21:54.646
79.0, -140.18453979492188, -60.56581115722656, -3.8838860988616943, 101.86739349365234, 0.03200000151991844, -0.04800000041723251, 1.055999994277954, 0.0, 0.0, 0.0, 0.0, 0.0, 1.6209949146468868E9, 2021-05-14 14:21:54.646
80.0, -132.48782348632812, -45.71466827392578, 7.507849216461182, 120.32379913330078, 0.03200000151991844, -0.04800000041723251, 1.055999994277954, 0.0, 0.0, 0.0, 0.0, 0.0, 1.6209949146612403E9, 2021-05-14 14:21:54.661
80.0, -138.27719116210938, -53.31040573120117, 0.48431703448295593, 116.23983001708984, 0.03200000151991844, -0.04800000041723251, 1.055999994277954, 0.0, 0.0, 0.0, 0.0, 0.0, 1.6209949146612403E9, 2021-05-14 14:21:54.661
81.0, -150.9217987060547, -61.68777847290039, -11.819953918457031, 87.27430725097656, 0.03200000151991844, -0.04800000041723251, 1.055999994277954, 0.0, 0.0, 0.0, 0.0, 0.0, 1.6209949146619241E9, 2021-05-14 14:21:54.661
81.0, -149.5604705810547, -54.20050048828125, -9.422677993774414, 87.27804565429688, 0.03200000151991844, -0.04800000041723251, 1.055999994277954, 0.0, 0.0, 0.0, 0.0, 0.0, 1.6209949146619241E9, 2021-05-14 14:21:54.661
82.0, -123.61678314208984, -37.88705825805664, 6.565394401550293, 101.657958984375, 0.03200000151991844, -0.04800000041723251, 1.055999994277954, 0.0, 0.0, 0.0, 0.0, 0.0, 1.6209949146756563E9, 2021-05-14 14:21:54.675
82.0, -131.30601501464844, -49.23765182495117, -0.7311504483222961, 81.54851531982422, 0.03200000151991844, -0.04800000041723251, 1.055999994277954, 0.0, 0.0, 0.0, 0.0, 0.0, 1.6209949146756563E9, 2021-05-14 14:21:54.675
83.0, -145.5699920654297, -65.50621795654297, -13.888118743896484, 60.683616638183594, 0.03200000151991844, -0.04800000041723251, 1.055999994277954, 0.0, 0.0, 0.0, 0.0, 0.0, 1.6209949146912467E9, 2021-05-14 14:21:54.691
83.0, -138.9690704345703, -54.989620208740234, -8.323147773742676, 68.33171081542969, 0.03200000151991844, -0.04800000041723251, 1.055999994277954, 0.0, 0.0, 0.0, 0.0, 0.0, 1.6209949146912467E9, 2021-05-14 14:21:54.691
84.0, -130.68519592285156, -44.727333068847656, -4.994636535644531, 94.03604125976562, 0.03200000151991844, -0.04800000041723251, 1.055999994277954, 0.0, 0.0, 0.0, 0.0, 0.0, 1.620994914692054E9, 2021-05-14 14:21:54.692
84.0, -131.98294067382812, -49.8659553527832, -2.0700347423553467, 90.20639038085938, 0.03200000151991844, -0.04800000041723251, 1.055999994277954, 0.0, 0.0, 0.0, 0.0, 0.0, 1.620994914692054E9, 2021-05-14 14:21:54.692
85.0, -143.4980926513672, -63.00422286987305, -14.415444374084473, 81.17079162597656, 0.03200000151991844, -0.04800000041723251, 1.055999994277954, 0.0, 0.0, 0.0, 0.0, 0.0, 1.6209949147056866E9, 2021-05-14 14:21:54.705
85.0, -141.74034118652344, -57.476654052734375, -18.07306671142578, 84.04676818847656, 0.03200000151991844, -0.04800000041723251, 1.055999994277954, 0.0, 0.0, 0.0, 0.0, 0.0, 1.6209949147056866E9, 2021-05-14 14:21:54.705
86.0, -135.7116241455078, -49.342369079589844, -11.187911033630371, 102.53683471679688, 0.03200000151991844, -0.04800000041723251, 1.055999994277954, 0.0, 0.0, 0.0, 0.0, 0.0, 1.620994914753366E9, 2021-05-14 14:21:54.753
86.0, -136.39976501464844, -49.67522048950195, -4.070880889892578, 96.82975006103516, 0.03200000151991844, -0.04800000041723251, 1.055999994277954, 0.0, 0.0, 0.0, 0.0, 0.0, 1.620994914753366E9, 2021-05-14 14:21:54.753
87.0, -145.79812622070312, -58.72203826904297, -12.362238883972168, 93.3254623413086, 0.03200000151991844, -0.04800000041723251, 1.055999994277954, 0.0, 0.0, 0.0, 0.0, 0.0, 1.6209949147539625E9, 2021-05-14 14:21:54.753
87.0, -154.68038940429688, -59.941246032714844, -12.160284996032715, 97.08406066894531, 0.03200000151991844, -0.04800000041723251, 1.055999994277954, 0.0, 0.0, 0.0, 0.0, 0.0, 1.6209949147539625E9, 2021-05-14 14:21:54.753
88.0, -138.65866088867188, -48.545772552490234, -1.5202692747116089, 122.855712890625, 0.03200000151991844, -0.04800000041723251, 1.055999994277954, 0.0, 0.0, 0.0, 0.0, 0.0, 1.6209949147547007E9, 2021-05-14 14:21:54.754
88.0, -141.19056701660156, -56.54167938232422, -6.658891677856445, 113.45360565185547, 0.03200000151991844, -0.04800000041723251, 1.055999994277954, 0.0, 0.0, 0.0, 0.0, 0.0, 1.6209949147547007E9, 2021-05-14 14:21:54.754
89.0, -143.3746795654297, -61.182891845703125, -15.552373886108398, 102.4620361328125, 0.03200000151991844, -0.04800000041723251, 1.055999994277954, 0.0, 0.0, 0.0, 0.0, 0.0, 1.620994914755449E9, 2021-05-14 14:21:54.755
89.0, -145.21844482421875, -66.2392349243164, -19.228694915771484, 101.88983154296875, 0.03200000151991844, -0.04800000041723251, 1.055999994277954, 0.0, 0.0, 0.0, 0.0, 0.0, 1.620994914755449E9, 2021-05-14 14:21:54.755
90.0, -125.20623779296875, -54.53709030151367, -5.705217361450195, 120.3275375366211, 0.03200000151991844, -0.04800000041723251, 1.055999994277954, 0.0, 0.0, 0.0, 0.0, 0.0, 1.6209949147662327E9, 2021-05-14 14:21:54.766
90.0, -122.42375183105469, -58.845455169677734, -4.575767517089844, 106.68812561035156, 0.03200000151991844, -0.04800000041723251, 1.055999994277954, 0.0, 0.0, 0.0, 0.0, 0.0, 1.6209949147662327E9, 2021-05-14 14:21:54.766
91.0, -134.2530517578125, -63.9578971862793, -13.398191452026367, 79.7197036743164, 0.03200000151991844, -0.04800000041723251, 1.055999994277954, 0.0, 0.0, 0.0, 0.0, 0.0, 1.6209949147669096E9, 2021-05-14 14:21:54.766
91.0, -136.8822021484375, -61.73639678955078, -14.722116470336914, 74.2145767211914, 0.03200000151991844, -0.04800000041723251, 1.055999994277954, 0.0, 0.0, 0.0, 0.0, 0.0, 1.6209949147669096E9, 2021-05-14 14:21:54.766
92.0, -126.3768310546875, -43.751220703125, -2.5524816513061523, 89.58556365966797, 0.03200000151991844, -0.04800000041723251, 1.055999994277954, 0.0, 0.0, 0.0, 0.0, 0.0, 1.6209949147816892E9, 2021-05-14 14:21:54.781
92.0, -133.80801391601562, -49.937015533447266, -7.735982894897461, 92.19227600097656, 0.03200000151991844, -0.04800000041723251, 1.055999994277954, 0.0, 0.0, 0.0, 0.0, 0.0, 1.6209949147816892E9, 2021-05-14 14:21:54.781
93.0, -149.45201110839844, -64.2084732055664, -23.525840759277344, 73.41797637939453, 0.03200000151991844, -0.04800000041723251, 1.055999994277954, 0.0, 0.0, 0.0, 0.0, 0.0, 1.620994914796206E9, 2021-05-14 14:21:54.796
93.0, -140.0237274169922, -56.61647415161133, -18.245101928710938, 85.60256958007812, 0.03200000151991844, -0.04800000041723251, 1.055999994277954, 0.0, 0.0, 0.0, 0.0, 0.0, 1.620994914796206E9, 2021-05-14 14:21:54.796
94.0, -126.5413818359375, -42.40859603881836, -3.9138052463531494, 108.09059143066406, 0.03200000151991844, -0.04800000041723251, 1.055999994277954, 0.0, 0.0, 0.0, 0.0, 0.0, 1.6209949147969365E9, 2021-05-14 14:21:54.796
94.0, -140.84649658203125, -54.49221420288086, -10.851319313049316, 98.79319763183594, 0.03200000151991844, -0.04800000041723251, 1.055999994277954, 0.0, 0.0, 0.0, 0.0, 0.0, 1.6209949147969365E9, 2021-05-14 14:21:54.796
95.0, -152.4364471435547, -64.21221160888672, -20.260908126831055, 84.42823791503906, 0.03200000151991844, -0.04800000041723251, 1.055999994277954, 0.0, 0.0, 0.0, 0.0, 0.0, 1.620994914828029E9, 2021-05-14 14:21:54.828
95.0, -155.56674194335938, -61.9084358215332, -26.06523323059082, 94.82142639160156, 0.03200000151991844, -0.04800000041723251, 1.055999994277954, 0.0, 0.0, 0.0, 0.0, 0.0, 1.620994914828029E9, 2021-05-14 14:21:54.828
96.0, -127.4614028930664, -50.43815994262695, -6.748649597167969, 128.4169464111328, 0.03200000151991844, -0.04800000041723251, 1.055999994277954, 0.0, 0.0, 0.0, 0.0, 0.0, 1.6209949148287504E9, 2021-05-14 14:21:54.828
96.0, -137.2187957763672, -57.76088333129883, -11.172950744628906, 127.06310272216797, 0.03200000151991844, -0.04800000041723251, 1.055999994277954, 0.0, 0.0, 0.0, 0.0, 0.0, 1.6209949148287504E9, 2021-05-14 14:21:54.828
97.0, -150.49169921875, -75.82086181640625, -26.323286056518555, 111.0077133178711, 0.03200000151991844, -0.04800000041723251, 1.055999994277954, 0.0, 0.0, 0.0, 0.0, 0.0, 1.6209949148295028E9, 2021-05-14 14:21:54.829
97.0, -148.6741180419922, -68.23260498046875, -25.900676727294922, 113.63311767578125, 0.03200000151991844, -0.04800000041723251, 1.055999994277954, 0.0, 0.0, 0.0, 0.0, 0.0, 1.6209949148295028E9, 2021-05-14 14:21:54.829
98.0, -130.52064514160156, -60.472312927246094, -13.947957038879395, 128.28604125976562, 0.03200000151991844, -0.04800000041723251, 1.055999994277954, 0.0, 0.0, 0.0, 0.0, 0.0, 1.6209949148412812E9, 2021-05-14 14:21:54.841
98.0, -135.4535675048828, -60.45735168457031, -10.335213661193848, 117.98636627197266, 0.03200000151991844, -0.04800000041723251, 1.055999994277954, 0.0, 0.0, 0.0, 0.0, 0.0, 1.6209949148412812E9, 2021-05-14 14:21:54.841
99.0, -146.91636657714844, -70.94403076171875, -23.256567001342773, 89.50702667236328, 0.03200000151991844, -0.04800000041723251, 1.055999994277954, 0.0, 0.0, 0.0, 0.0, 0.0, 1.620994914842046E9, 2021-05-14 14:21:54.842
99.0, -146.2282257080078, -66.21305847167969, -22.80030059814453, 83.95701599121094, 0.03200000151991844, -0.04800000041723251, 1.055999994277954, 0.0, 0.0, 0.0, 0.0, 0.0, 1.620994914842046E9, 2021-05-14 14:21:54.842
100.0, -125.96917724609375, -46.73939895629883, -3.364039897918701, 106.86016082763672, 0.03200000151991844, -0.04800000041723251, 1.055999994277954, 0.0, 0.0, 0.0, 0.0, 0.0, 1.620994914856877E9, 2021-05-14 14:21:54.856
100.0, -137.192626953125, -56.69501495361328, -6.419538497924805, 87.59593963623047, 0.03200000151991844, -0.04800000041723251, 1.055999994277954, 0.0, 0.0, 0.0, 0.0, 0.0, 1.620994914856877E9, 2021-05-14 14:21:54.856
0.0, -144.66119384765625, -61.0351676940918, -7.934197902679443, 73.91351318359375, 0.03200000151991844, -0.04800000041723251, 1.055999994277954, 0.0, 0.0, 0.0, 0.0, 0.0, 1.6209949148575613E9, 2021-05-14 14:21:54.857
1.0, -156.49798583984375, -59.72246170043945, -14.32194709777832, 74.4258804321289, 0.03200000151991844, -0.04800000041723251, 1.055999994277954, 0.0, 0.0, 0.0, 0.0, 0.0, 1.6209949148706908E9, 2021-05-14 14:21:54.870
1.0, -142.8361358642578, -42.7769775390625, 1.7708426713943481, 98.53701782226562, 0.03200000151991844, -0.04800000041723251, 1.055999994277954, 0.0, 0.0, 0.0, 0.0, 0.0, 1.6209949148706908E9, 2021-05-14 14:21:54.870
2.0, -144.56396484375, -47.38827133178711, -1.6137667894363403, 90.4476089477539, 0.03200000151991844, -0.04800000041723251, 1.055999994277954, 0.0, 0.0, 0.0, 0.0, 0.0, 1.6209949148862E9, 2021-05-14 14:21:54.886
2.0, -152.21205139160156, -59.079200744628906, -15.821646690368652, 78.83148193359375, 0.03200000151991844, -0.04800000041723251, 1.055999994277954, 0.0, 0.0, 0.0, 0.0, 0.0, 1.6209949148862E9, 2021-05-14 14:21:54.886
3.0, -149.7848663330078, -53.8807373046875, -15.473835945129395, 85.01353454589844, 0.03200000151991844, -0.04800000041723251, 1.055999994277954, 0.0, 0.0, 0.0, 0.0, 0.0, 1.6209949148869233E9, 2021-05-14 14:21:54.886
3.0, -138.00791931152344, -48.54389953613281, -2.874113082885742, 107.16496276855469, 0.03200000151991844, -0.04800000041723251, 1.055999994277954, 0.0, 0.0, 0.0, 0.0, 0.0, 1.6209949148869233E9, 2021-05-14 14:21:54.886
4.0, -131.41073608398438, -54.25846862792969, 1.7484031915664673, 118.1677474975586, 0.03200000151991844, -0.04800000041723251, 1.055999994277954, 0.0, 0.0, 0.0, 0.0, 0.0, 1.620994914900566E9, 2021-05-14 14:21:54.900
4.0, -142.3200225830078, -68.79545593261719, -20.309526443481445, 99.06060028076172, 0.03200000151991844, -0.04800000041723251, 1.055999994277954, 0.0, 0.0, 0.0, 0.0, 0.0, 1.620994914900566E9, 2021-05-14 14:21:54.900
5.0, -144.70608520507812, -70.93468475341797, -21.779308319091797, 104.44605255126953, 0.03200000151991844, -0.04800000041723251, 1.055999994277954, 0.0, 0.0, 0.0, 0.0, 0.0, 1.6209949149163103E9, 2021-05-14 14:21:54.916
5.0, -122.6257095336914, -48.68227767944336, -0.1140669509768486, 139.7731475830078, 0.03200000151991844, -0.04800000041723251, 1.055999994277954, 0.0, 0.0, 0.0, 0.0, 0.0, 1.6209949149163103E9, 2021-05-14 14:21:54.916
6.0, -129.70533752441406, -65.1378402709961, -8.26330852508545, 125.2548599243164, 0.03200000151991844, -0.04800000041723251, 1.055999994277954, 0.0, 0.0, 0.0, 0.0, 0.0, 1.6209949149169676E9, 2021-05-14 14:21:54.916
6.0, -142.32376098632812, -82.87618255615234, -25.762300491333008, 100.83331298828125, 0.03200000151991844, -0.04800000041723251, 1.055999994277954, 0.0, 0.0, 0.0, 0.0, 0.0, 1.6209949149169676E9, 2021-05-14 14:21:54.916
7.0, -136.28382873535156, -78.90441131591797, -22.127117156982422, 98.6342544555664, 0.03200000151991844, -0.04800000041723251, 1.055999994277954, 0.0, 0.0, 0.0, 0.0, 0.0, 1.6209949149305232E9, 2021-05-14 14:21:54.930
7.0, -130.6141357421875, -63.66057586669922, -10.997176170349121, 112.98798370361328, 0.03200000151991844, -0.04800000041723251, 1.055999994277954, 0.0, 0.0, 0.0, 0.0, 0.0, 1.6209949149305232E9, 2021-05-14 14:21:54.930
8.0, -138.28466796875, -60.70231628417969, -12.47443675994873, 89.4041748046875, 0.03200000151991844, -0.04800000041723251, 1.055999994277954, 0.0, 0.0, 0.0, 0.0, 0.0, 1.62099491494622E9, 2021-05-14 14:21:54.946
8.0, -139.4739532470703, -64.9209213256836, -16.03108024597168, 74.36229705810547, 0.03200000151991844, -0.04800000041723251, 1.055999994277954, 0.0, 0.0, 0.0, 0.0, 0.0, 1.62099491494622E9, 2021-05-14 14:21:54.946
9.0, -144.8668975830078, -58.24894332885742, -11.913451194763184, 76.28460693359375, 0.03200000151991844, -0.04800000041723251, 1.055999994277954, 0.0, 0.0, 0.0, 0.0, 0.0, 1.6209949149469848E9, 2021-05-14 14:21:54.946
9.0, -130.29251098632812, -40.978084564208984, 1.5053097009658813, 97.76659393310547, 0.03200000151991844, -0.04800000041723251, 1.055999994277954, 0.0, 0.0, 0.0, 0.0, 0.0, 1.6209949149469848E9, 2021-05-14 14:21:54.946
10.0, -133.74069213867188, -47.668766021728516, 1.1014004945755005, 89.47897338867188, 0.03200000151991844, -0.04800000041723251, 1.055999994277954, 0.0, 0.0, 0.0, 0.0, 0.0, 1.6209949149605486E9, 2021-05-14 14:21:54.960
10.0, -141.2167510986328, -55.37295913696289, -4.482270240783691, 76.67729949951172, 0.03200000151991844, -0.04800000041723251, 1.055999994277954, 0.0, 0.0, 0.0, 0.0, 0.0, 1.6209949149605486E9, 2021-05-14 14:21:54.960
11.0, -142.28636169433594, -62.2020149230957, -11.554420471191406, 85.64557647705078, 0.03200000151991844, -0.04800000041723251, 1.055999994277954, 0.0, 0.0, 0.0, 0.0, 0.0, 1.6209949149763055E9, 2021-05-14 14:21:54.976
11.0, -125.27729797363281, -48.88797378540039, -2.1971912384033203, 106.12152862548828, 0.03200000151991844, -0.04800000041723251, 1.055999994277954, 0.0, 0.0, 0.0, 0.0, 0.0, 1.6209949149763055E9, 2021-05-14 14:21:54.976
12.0, -129.92225646972656, -56.47248840332031, -1.194898009300232, 107.59130859375, 0.03200000151991844, -0.04800000041723251, 1.055999994277954, 0.0, 0.0, 0.0, 0.0, 0.0, 1.620994914976966E9, 2021-05-14 14:21:54.976
12.0, -145.2820281982422, -68.45886993408203, -13.151358604431152, 89.65475463867188, 0.03200000151991844, -0.04800000041723251, 1.055999994277954, 0.0, 0.0, 0.0, 0.0, 0.0, 1.620994914976966E9, 2021-05-14 14:21:54.976
13.0, -147.04351806640625, -63.19308853149414, -20.103832244873047, 94.77841186523438, 0.03200000151991844, -0.04800000041723251, 1.055999994277954, 0.0, 0.0, 0.0, 0.0, 0.0, 1.6209949149905307E9, 2021-05-14 14:21:54.990
13.0, -129.80258178710938, -49.385379791259766, -5.757575988769531, 128.1570281982422, 0.03200000151991844, -0.04800000041723251, 1.055999994277954, 0.0, 0.0, 0.0, 0.0, 0.0, 1.6209949149905307E9, 2021-05-14 14:21:54.990
14.0, -129.86988830566406, -60.18994903564453, -6.12782621383667, 116.50723266601562, 0.03200000151991844, -0.04800000041723251, 1.055999994277954, 0.0, 0.0, 0.0, 0.0, 0.0, 1.6209949150062273E9, 2021-05-14 14:21:55.006
14.0, -142.93710327148438, -72.37454223632812, -18.155344009399414, 95.75827026367188, 0.03200000151991844, -0.04800000041723251, 1.055999994277954, 0.0, 0.0, 0.0, 0.0, 0.0, 1.6209949150062273E9, 2021-05-14 14:21:55.006
15.0, -146.26560974121094, -67.47527313232422, -22.718021392822266, 98.14806365966797, 0.03200000151991844, -0.04800000041723251, 1.055999994277954, 0.0, 0.0, 0.0, 0.0, 0.0, 1.6209949150070643E9, 2021-05-14 14:21:55.007
15.0, -132.97401428222656, -49.18342590332031, -12.265002250671387, 123.99825286865234, 0.03200000151991844, -0.04800000041723251, 1.055999994277954, 0.0, 0.0, 0.0, 0.0, 0.0, 1.6209949150070643E9, 2021-05-14 14:21:55.007
16.0, -139.9451904296875, -51.195491790771484, -11.891012191772461, 105.99063110351562, 0.03200000151991844, -0.04800000041723251, 1.055999994277954, 0.0, 0.0, 0.0, 0.0, 0.0, 1.6209949150205631E9, 2021-05-14 14:21:55.020
16.0, -156.09780883789062, -65.70256042480469, -25.051719665527344, 82.42926788330078, 0.03200000151991844, -0.04800000041723251, 1.055999994277954, 0.0, 0.0, 0.0, 0.0, 0.0, 1.6209949150205631E9, 2021-05-14 14:21:55.020
17.0, -159.235595703125, -55.97882080078125, -22.62452507019043, 92.3512191772461, 0.03200000151991844, -0.04800000041723251, 1.055999994277954, 0.0, 0.0, 0.0, 0.0, 0.0, 1.62099491503627E9, 2021-05-14 14:21:55.036
17.0, -143.625244140625, -44.52350997924805, -6.602793216705322, 118.29864501953125, 0.03200000151991844, -0.04800000041723251, 1.055999994277954, 0.0, 0.0, 0.0, 0.0, 0.0, 1.62099491503627E9, 2021-05-14 14:21:55.036
18.0, -143.11288452148438, -52.100547790527344, -2.156052350997925, 108.30189514160156, 0.03200000151991844, -0.04800000041723251, 1.055999994277954, 0.0, 0.0, 0.0, 0.0, 0.0, 1.6209949150369315E9, 2021-05-14 14:21:55.036
18.0, -158.42776489257812, -64.16546630859375, -19.082839965820312, 74.30245971679688, 0.03200000151991844, -0.04800000041723251, 1.055999994277954, 0.0, 0.0, 0.0, 0.0, 0.0, 1.6209949150369315E9, 2021-05-14 14:21:55.036
19.0, -140.4874725341797, -45.5183219909668, -9.58349323272705, 84.47125244140625, 0.03200000151991844, -0.04800000041723251, 1.055999994277954, 0.0, 0.0, 0.0, 0.0, 0.0, 1.6209949150505507E9, 2021-05-14 14:21:55.050
19.0, -123.51580810546875, -37.12972640991211, 3.5285956859588623, 97.54594421386719, 0.03200000151991844, -0.04800000041723251, 1.055999994277954, 0.0, 0.0, 0.0, 0.0, 0.0, 1.6209949150505507E9, 2021-05-14 14:21:55.050
20.0, -130.68519592285156, -45.271488189697266, -3.1620852947235107, 79.53084564208984, 0.03200000151991844, -0.04800000041723251, 1.055999994277954, 0.0, 0.0, 0.0, 0.0, 0.0, 1.620994915066229E9, 2021-05-14 14:21:55.066
20.0, -138.65492248535156, -51.59566116333008, -13.278514862060547, 71.32550048828125, 0.03200000151991844, -0.04800000041723251, 1.055999994277954, 0.0, 0.0, 0.0, 0.0, 0.0, 1.620994915066229E9, 2021-05-14 14:21:55.066
21.0, -138.87557983398438, -55.488895416259766, -18.630311965942383, 70.19605255126953, 0.03200000151991844, -0.04800000041723251, 1.055999994277954, 0.0, 0.0, 0.0, 0.0, 0.0, 1.6209949150669048E9, 2021-05-14 14:21:55.066
21.0, -118.21263122558594, -37.8889274597168, 9.231943130493164, 112.29610443115234, 0.03200000151991844, -0.04800000041723251, 1.055999994277954, 0.0, 0.0, 0.0, 0.0, 0.0, 1.6209949150669048E9, 2021-05-14 14:21:55.066
22.0, -128.6282501220703, -53.480567932128906, 10.481069564819336, 101.66731262207031, 0.03200000151991844, -0.04800000041723251, 1.055999994277954, 0.0, 0.0, 0.0, 0.0, 0.0, 1.620994915080557E9, 2021-05-14 14:21:55.080
22.0, -131.4593505859375, -60.638736724853516, -8.368025779724121, 80.33118438720703, 0.03200000151991844, -0.04800000041723251, 1.055999994277954, 0.0, 0.0, 0.0, 0.0, 0.0, 1.620994915080557E9, 2021-05-14 14:21:55.080
23.0, -138.037841796875, -58.84732437133789, -14.867972373962402, 91.65185546875, 0.03200000151991844, -0.04800000041723251, 1.055999994277954, 0.0, 0.0, 0.0, 0.0, 0.0, 1.620994915096604E9, 2021-05-14 14:21:55.096
23.0, -128.05604553222656, -44.26545715332031, 3.6146132946014404, 121.58601379394531, 0.03200000151991844, -0.04800000041723251, 1.055999994277954, 0.0, 0.0, 0.0, 0.0, 0.0, 1.620994915096604E9, 2021-05-14 14:21:55.096
24.0, -135.22169494628906, -59.247493743896484, -6.95060396194458, 107.15373992919922, 0.03200000151991844, -0.04800000041723251, 1.055999994277954, 0.0, 0.0, 0.0, 0.0, 0.0, 1.6209949151116295E9, 2021-05-14 14:21:55.111
24.0, -141.81887817382812, -71.75372314453125, -16.68182373046875, 80.61540985107422, 0.03200000151991844, -0.04800000041723251, 1.055999994277954, 0.0, 0.0, 0.0, 0.0, 0.0, 1.6209949151116295E9, 2021-05-14 14:21:55.111
25.0, -143.06427001953125, -67.41169738769531, -18.735029220581055, 81.81217956542969, 0.03200000151991844, -0.04800000041723251, 1.055999994277954, 0.0, 0.0, 0.0, 0.0, 0.0, 1.62099491512689E9, 2021-05-14 14:21:55.126
25.0, -133.460205078125, -52.6951904296875, -3.113466739654541, 104.20296478271484, 0.03200000151991844, -0.04800000041723251, 1.055999994277954, 0.0, 0.0, 0.0, 0.0, 0.0, 1.62099491512689E9, 2021-05-14 14:21:55.126
26.0, -133.3704376220703, -61.05012512207031, -9.0112886428833, 94.66621398925781, 0.03200000151991844, -0.04800000041723251, 1.055999994277954, 0.0, 0.0, 0.0, 0.0, 0.0, 1.6209949151275983E9, 2021-05-14 14:21:55.127
26.0, -146.23570251464844, -70.69532775878906, -27.508834838867188, 73.18797302246094, 0.03200000151991844, -0.04800000041723251, 1.055999994277954, 0.0, 0.0, 0.0, 0.0, 0.0, 1.6209949151275983E9, 2021-05-14 14:21:55.127
27.0, -141.8899383544922, -64.77507019042969, -20.97148895263672, 67.89601135253906, 0.03200000151991844, -0.04800000041723251, 1.055999994277954, 0.0, 0.0, 0.0, 0.0, 0.0, 1.6209949151283307E9, 2021-05-14 14:21:55.128
27.0, -126.159912109375, -49.2731819152832, -9.310481071472168, 81.73738098144531, 0.03200000151991844, -0.04800000041723251, 1.055999994277954, 0.0, 0.0, 0.0, 0.0, 0.0, 1.6209949151283307E9, 2021-05-14 14:21:55.128
28.0, -125.98413848876953, -54.09391403198242, -5.095613479614258, 76.93534851074219, 0.03200000151991844, -0.04800000041723251, 1.055999994277954, 0.0, 0.0, 0.0, 0.0, 0.0, 1.620994915140612E9, 2021-05-14 14:21:55.140
28.0, -140.49868774414062, -70.9047622680664, -17.31012725830078, 60.73410415649414, 0.03200000151991844, -0.04800000041723251, 1.055999994277954, 0.0, 0.0, 0.0, 0.0, 0.0, 1.620994915140612E9, 2021-05-14 14:21:55.140
29.0, -130.748779296875, -63.458621978759766, -15.047487258911133, 77.92642211914062, 0.03200000151991844, -0.04800000041723251, 1.055999994277954, 0.0, 0.0, 0.0, 0.0, 0.0, 1.6209949151561854E9, 2021-05-14 14:21:55.156
29.0, -110.8786849975586, -54.55765914916992, 7.795821666717529, 114.23711395263672, 0.03200000151991844, -0.04800000041723251, 1.055999994277954, 0.0, 0.0, 0.0, 0.0, 0.0, 1.6209949151561854E9, 2021-05-14 14:21:55.156
30.0, -116.8587875366211, -58.08438491821289, 5.125533103942871, 105.17160034179688, 0.03200000151991844, -0.04800000041723251, 1.055999994277954, 0.0, 0.0, 0.0, 0.0, 0.0, 1.6209949151568992E9, 2021-05-14 14:21:55.156
30.0, -127.83164978027344, -67.0077896118164, -10.585786819458008, 87.86708068847656, 0.03200000151991844, -0.04800000041723251, 1.055999994277954, 0.0, 0.0, 0.0, 0.0, 0.0, 1.6209949151568992E9, 2021-05-14 14:21:55.156
31.0, -132.47286987304688, -67.232177734375, -12.373458862304688, 90.4251708984375, 0.03200000151991844, -0.04800000041723251, 1.055999994277954, 0.0, 0.0, 0.0, 0.0, 0.0, 1.620994915170667E9, 2021-05-14 14:21:55.170
31.0, -130.62535095214844, -56.84647750854492, -5.708957195281982, 115.45258331298828, 0.03200000151991844, -0.04800000041723251, 1.055999994277954, 0.0, 0.0, 0.0, 0.0, 0.0, 1.620994915170667E9, 2021-05-14 14:21:55.170
32.0, -132.86181640625, -60.283447265625, -0.5703347325325012, 103.10343170166016, 0.03200000151991844, -0.04800000041723251, 1.055999994277954, 0.0, 0.0, 0.0, 0.0, 0.0, 1.620994915186244E9, 2021-05-14 14:21:55.186
32.0, -141.15692138671875, -66.42062377929688, -13.891858100891113, 82.0926742553711, 0.03200000151991844, -0.04800000041723251, 1.055999994277954, 0.0, 0.0, 0.0, 0.0, 0.0, 1.620994915186244E9, 2021-05-14 14:21:55.186
33.0, -137.03179931640625, -68.38033294677734, -18.843486785888672, 84.33287048339844, 0.03200000151991844, -0.04800000041723251, 1.055999994277954, 0.0, 0.0, 0.0, 0.0, 0.0, 1.6209949151869152E9, 2021-05-14 14:21:55.186
33.0, -128.80027770996094, -57.2429084777832, -5.697737693786621, 105.78119659423828, 0.03200000151991844, -0.04800000041723251, 1.055999994277954, 0.0, 0.0, 0.0, 0.0, 0.0, 1.6209949151869152E9, 2021-05-14 14:21:55.186
34.0, -128.9685821533203, -71.89957427978516, -10.645625114440918, 101.66357421875, 0.03200000151991844, -0.04800000041723251, 1.055999994277954, 0.0, 0.0, 0.0, 0.0, 0.0, 1.620994915217085E9, 2021-05-14 14:21:55.217
34.0, -143.37094116210938, -86.68714141845703, -29.128210067749023, 75.74232482910156, 0.03200000151991844, -0.04800000041723251, 1.055999994277954, 0.0, 0.0, 0.0, 0.0, 0.0, 1.620994915217085E9, 2021-05-14 14:21:55.217
35.0, -139.0924835205078, -79.18489837646484, -34.513668060302734, 72.83641815185547, 0.03200000151991844, -0.04800000041723251, 1.055999994277954, 0.0, 0.0, 0.0, 0.0, 0.0, 1.6209949152177267E9, 2021-05-14 14:21:55.217
35.0, -124.85469055175781, -59.729942321777344, -23.50714111328125, 94.07905578613281, 0.03200000151991844, -0.04800000041723251, 1.055999994277954, 0.0, 0.0, 0.0, 0.0, 0.0, 1.6209949152177267E9, 2021-05-14 14:21:55.217
36.0, -126.16365814208984, -73.676025390625, -24.51691436767578, 83.84294891357422, 0.03200000151991844, -0.04800000041723251, 1.055999994277954, 0.0, 0.0, 0.0, 0.0, 0.0, 1.620994915218444E9, 2021-05-14 14:21:55.218
36.0, -144.40689086914062, -83.3698501586914, -36.477115631103516, 58.84919738769531, 0.03200000151991844, -0.04800000041723251, 1.055999994277954, 0.0, 0.0, 0.0, 0.0, 0.0, 1.620994915218444E9, 2021-05-14 14:21:55.218
37.0, -141.4748077392578, -69.50604248046875, -28.896337509155273, 64.49644470214844, 0.03200000151991844, -0.04800000041723251, 1.055999994277954, 0.0, 0.0, 0.0, 0.0, 0.0, 1.6209949152304976E9, 2021-05-14 14:21:55.230
37.0, -126.67227935791016, -50.002464294433594, -10.4287109375, 93.09172058105469, 0.03200000151991844, -0.04800000041723251, 1.055999994277954, 0.0, 0.0, 0.0, 0.0, 0.0, 1.6209949152304976E9, 2021-05-14 14:21:55.230
38.0, -126.02902221679688, -61.75322723388672, -3.2331435680389404, 86.06444549560547, 0.03200000151991844, -0.04800000041723251, 1.055999994277954, 0.0, 0.0, 0.0, 0.0, 0.0, 1.6209949152462692E9, 2021-05-14 14:21:55.246
38.0, -132.09140014648438, -72.35584259033203, -13.420631408691406, 77.34674072265625, 0.03200000151991844, -0.04800000041723251, 1.055999994277954, 0.0, 0.0, 0.0, 0.0, 0.0, 1.6209949152462692E9, 2021-05-14 14:21:55.246
39.0, -129.7128143310547, -65.69134521484375, -10.114559173583984, 82.93415069580078, 0.03200000151991844, -0.04800000041723251, 1.055999994277954, 0.0, 0.0, 0.0, 0.0, 0.0, 1.620994915246998E9, 2021-05-14 14:21:55.246
39.0, -120.4977035522461, -55.387916564941406, 0.2374836504459381, 109.3939437866211, 0.03200000151991844, -0.04800000041723251, 1.055999994277954, 0.0, 0.0, 0.0, 0.0, 0.0, 1.620994915246998E9, 2021-05-14 14:21:55.246
40.0, -125.83080291748047, -64.16546630859375, 2.918991804122925, 107.4267578125, 0.03200000151991844, -0.04800000041723251, 1.055999994277954, 0.0, 0.0, 0.0, 0.0, 0.0, 1.6209949152769737E9, 2021-05-14 14:21:55.276
40.0, -145.77195739746094, -78.25740814208984, -17.33256721496582, 84.8452377319336, 0.03200000151991844, -0.04800000041723251, 1.055999994277954, 0.0, 0.0, 0.0, 0.0, 0.0, 1.6209949152769737E9, 2021-05-14 14:21:55.276
41.0, -145.5812225341797, -75.377685546875, -19.51666831970215, 87.32479095458984, 0.03200000151991844, -0.04800000041723251, 1.055999994277954, 0.0, 0.0, 0.0, 0.0, 0.0, 1.6209949152777004E9, 2021-05-14 14:21:55.277
41.0, -131.69122314453125, -60.47418212890625, -6.696290969848633, 102.41155242919922, 0.03200000151991844, -0.04800000041723251, 1.055999994277954, 0.0, 0.0, 0.0, 0.0, 0.0, 1.6209949152777004E9, 2021-05-14 14:21:55.277
42.0, -141.8375701904297, -61.58493423461914, -6.25872278213501, 97.29536437988281, 0.03200000151991844, -0.04800000041723251, 1.055999994277954, 0.0, 0.0, 0.0, 0.0, 0.0, 1.620994915278392E9, 2021-05-14 14:21:55.278
42.0, -148.3824005126953, -70.2240982055664, -14.976428985595703, 87.42203521728516, 0.03200000151991844, -0.04800000041723251, 1.055999994277954, 0.0, 0.0, 0.0, 0.0, 0.0, 1.620994915278392E9, 2021-05-14 14:21:55.278
43.0, -140.11721801757812, -69.80522918701172, -19.483009338378906, 82.7359390258789, 0.03200000151991844, -0.04800000041723251, 1.055999994277954, 0.0, 0.0, 0.0, 0.0, 0.0, 1.6209949152905898E9, 2021-05-14 14:21:55.290
43.0, -130.7749481201172, -55.806785583496094, -12.21638298034668, 100.95672607421875, 0.03200000151991844, -0.04800000041723251, 1.055999994277954, 0.0, 0.0, 0.0, 0.0, 0.0, 1.6209949152905898E9, 2021-05-14 14:21:55.290
44.0, -132.62620544433594, -59.587825775146484, -11.96207046508789, 88.60383605957031, 0.03200000151991844, -0.04800000041723251, 1.055999994277954, 0.0, 0.0, 0.0, 0.0, 0.0, 1.6209949153062968E9, 2021-05-14 14:21:55.306
44.0, -146.3778076171875, -69.3340072631836, -25.249935150146484, 74.85222625732422, 0.03200000151991844, -0.04800000041723251, 1.055999994277954, 0.0, 0.0, 0.0, 0.0, 0.0, 1.6209949153062968E9, 2021-05-14 14:21:55.306
45.0, -143.01937866210938, -70.88232421875, -21.999961853027344, 86.07192993164062, 0.03200000151991844, -0.04800000041723251, 1.055999994277954, 0.0, 0.0, 0.0, 0.0, 0.0, 1.6209949153069592E9, 2021-05-14 14:21:55.306
45.0, -124.8285140991211, -61.97014236450195, -8.210949897766113, 93.94441986083984, 0.03200000151991844, -0.04800000041723251, 1.055999994277954, 0.0, 0.0, 0.0, 0.0, 0.0, 1.6209949153069592E9, 2021-05-14 14:21:55.306
46.0, -124.1515884399414, -59.1689567565918, -5.720177173614502, 95.4852523803711, 0.03200000151991844, -0.04800000041723251, 1.055999994277954, 0.0, 0.0, 0.0, 0.0, 0.0, 1.6209949153367596E9, 2021-05-14 14:21:55.336
46.0, -152.63841247558594, -79.58132934570312, -19.247394561767578, 69.69490814208984, 0.03200000151991844, -0.04800000041723251, 1.055999994277954, 0.0, 0.0, 0.0, 0.0, 0.0, 1.6209949153367596E9, 2021-05-14 14:21:55.336
47.0, -142.01708984375, -67.18730163574219, -14.460323333740234, 87.7548828125, 0.03200000151991844, -0.04800000041723251, 1.055999994277954, 0.0, 0.0, 0.0, 0.0, 0.0, 1.6209949153374395E9, 2021-05-14 14:21:55.337
47.0, -131.04421997070312, -56.58842468261719, -1.7371835708618164, 102.426513671875, 0.03200000151991844, -0.04800000041723251, 1.055999994277954, 0.0, 0.0, 0.0, 0.0, 0.0, 1.6209949153374395E9, 2021-05-14 14:21:55.337
48.0, -140.749267578125, -53.69374465942383, -6.430757999420166, 96.37908935546875, 0.03200000151991844, -0.04800000041723251, 1.055999994277954, 0.0, 0.0, 0.0, 0.0, 0.0, 1.6209949153512423E9, 2021-05-14 14:21:55.351
48.0, -148.72647094726562, -68.1521987915039, -16.30783462524414, 80.207763671875, 0.03200000151991844, -0.04800000041723251, 1.055999994277954, 0.0, 0.0, 0.0, 0.0, 0.0, 1.6209949153512423E9, 2021-05-14 14:21:55.351
49.0, -144.42184448242188, -64.3786392211914, -12.055567741394043, 89.85670471191406, 0.03200000151991844, -0.04800000041723251, 1.055999994277954, 0.0, 0.0, 0.0, 0.0, 0.0, 1.6209949153519094E9, 2021-05-14 14:21:55.351
49.0, -128.35150146484375, -48.54389953613281, 3.143385887145996, 119.59638977050781, 0.03200000151991844, -0.04800000041723251, 1.055999994277954, 0.0, 0.0, 0.0, 0.0, 0.0, 1.6209949153519094E9, 2021-05-14 14:21:55.351
50.0, -139.23460388183594, -55.30189895629883, 5.99692964553833, 109.85021209716797, 0.03200000151991844, -0.04800000041723251, 1.055999994277954, 0.0, 0.0, 0.0, 0.0, 0.0, 1.6209949153662224E9, 2021-05-14 14:21:55.366
50.0, -140.573486328125, -71.81729888916016, -11.543201446533203, 92.00341033935547, 0.03200000151991844, -0.04800000041723251, 1.055999994277954, 0.0, 0.0, 0.0, 0.0, 0.0, 1.6209949153662224E9, 2021-05-14 14:21:55.366
51.0, -136.22024536132812, -65.99801635742188, -14.479022979736328, 95.91534423828125, 0.03200000151991844, -0.06400000303983688, 1.055999994277954, 0.0, 0.0, 0.0, 0.0, 0.0, 1.6209949153669903E9, 2021-05-14 14:21:55.366
51.0, -135.96592712402344, -51.24784851074219, -2.6646788120269775, 113.56767272949219, 0.03200000151991844, -0.06400000303983688, 1.055999994277954, 0.0, 0.0, 0.0, 0.0, 0.0, 1.6209949153669903E9, 2021-05-14 14:21:55.366
52.0, -136.3735809326172, -59.9730339050293, -8.659738540649414, 101.59251403808594, 0.03200000151991844, -0.06400000303983688, 1.055999994277954, 0.0, 0.0, 0.0, 0.0, 0.0, 1.6209949153967097E9, 2021-05-14 14:21:55.396
52.0, -150.80960083007812, -77.67771911621094, -20.36188507080078, 77.71324920654297, 0.03200000151991844, -0.06400000303983688, 1.055999994277954, 0.0, 0.0, 0.0, 0.0, 0.0, 1.6209949153967097E9, 2021-05-14 14:21:55.396
53.0, -139.0924835205078, -68.17837524414062, -20.795713424682617, 86.19534301757812, 0.03200000151991844, -0.06400000303983688, 1.055999994277954, 0.0, 0.0, 0.0, 0.0, 0.0, 1.6209949153973694E9, 2021-05-14 14:21:55.397
53.0, -120.7183609008789, -52.02200698852539, -7.822000980377197, 103.45872497558594, 0.03200000151991844, -0.06400000303983688, 1.055999994277954, 0.0, 0.0, 0.0, 0.0, 0.0, 1.6209949153973694E9, 2021-05-14 14:21:55.397
54.0, -123.98329162597656, -63.3651237487793, -9.471296310424805, 89.52759552001953, 0.03200000151991844, -0.06400000303983688, 1.055999994277954, 0.0, 0.0, 0.0, 0.0, 0.0, 1.6209949154113755E9, 2021-05-14 14:21:55.411
54.0, -132.75709533691406, -72.38202667236328, -15.91888427734375, 71.4339599609375, 0.03200000151991844, -0.06400000303983688, 1.055999994277954, 0.0, 0.0, 0.0, 0.0, 0.0, 1.6209949154113755E9, 2021-05-14 14:21:55.411
55.0, -135.3189239501953, -67.4266586303711, -17.07077407836914, 72.96357727050781, 0.03200000151991844, -0.06400000303983688, 1.055999994277954, 0.0, 0.0, 0.0, 0.0, 0.0, 1.6209949154120412E9, 2021-05-14 14:21:55.412
55.0, -129.8960723876953, -51.625579833984375, -2.0401153564453125, 101.74211120605469, 0.03200000151991844, -0.06400000303983688, 1.055999994277954, 0.0, 0.0, 0.0, 0.0, 0.0, 1.6209949154120412E9, 2021-05-14 14:21:55.412
56.0, -134.20443725585938, -65.93817901611328, -9.067387580871582, 92.30259704589844, 0.03200000151991844, -0.06400000303983688, 1.055999994277954, 0.0, 0.0, 0.0, 0.0, 0.0, 1.620994915426395E9, 2021-05-14 14:21:55.426
56.0, -146.62464904785156, -75.30288696289062, -15.402777671813965, 80.00206756591797, 0.03200000151991844, -0.06400000303983688, 1.055999994277954, 0.0, 0.0, 0.0, 0.0, 0.0, 1.620994915426395E9, 2021-05-14 14:21:55.426
57.0, -145.24462890625, -70.88606262207031, -16.487348556518555, 86.49827575683594, 0.03200000151991844, -0.06400000303983688, 1.055999994277954, 0.0, 0.0, 0.0, 0.0, 0.0, 1.6209949154269676E9, 2021-05-14 14:21:55.426
57.0, -131.418212890625, -53.233734130859375, -2.9302115440368652, 117.12057495117188, 0.03200000151991844, -0.06400000303983688, 1.055999994277954, 0.0, 0.0, 0.0, 0.0, 0.0, 1.6209949154269676E9, 2021-05-14 14:21:55.426
58.0, -138.52777099609375, -62.91633605957031, -8.77193546295166, 106.8059310913086, 0.03200000151991844, -0.06400000303983688, 1.055999994277954, 0.0, 0.0, 0.0, 0.0, 0.0, 1.620994915440668E9, 2021-05-14 14:21:55.440
58.0, -143.37841796875, -68.82164001464844, -17.31012725830078, 88.13261413574219, 0.03200000151991844, -0.06400000303983688, 1.055999994277954, 0.0, 0.0, 0.0, 0.0, 0.0, 1.620994915440668E9, 2021-05-14 14:21:55.440
59.0, -137.24124145507812, -70.11190795898438, -10.817660331726074, 100.69493865966797, 0.03200000151991844, -0.06400000303983688, 1.055999994277954, 0.0, 0.0, 0.0, 0.0, 0.0, 1.6209949154563236E9, 2021-05-14 14:21:55.456
59.0, -125.83828735351562, -64.180419921875, 0.08040785044431686, 119.94794464111328, 0.03200000151991844, -0.06400000303983688, 1.055999994277954, 0.0, 0.0, 0.0, 0.0, 0.0, 1.6209949154563236E9, 2021-05-14 14:21:55.456
60.0, -133.01515197753906, -67.89788055419922, -7.964117050170898, 106.61893463134766, 0.03200000151991844, -0.06400000303983688, 1.055999994277954, 0.0, 0.0, 0.0, 0.0, 0.0, 1.620994915457011E9, 2021-05-14 14:21:55.457
60.0, -143.45321655273438, -80.8603744506836, -15.503755569458008, 95.96770477294922, 0.03200000151991844, -0.06400000303983688, 1.055999994277954, 0.0, 0.0, 0.0, 0.0, 0.0, 1.620994915457011E9, 2021-05-14 14:21:55.457
61.0, -140.73805236816406, -78.75481414794922, -16.711742401123047, 90.95997619628906, 0.03200000151991844, -0.06400000303983688, 1.055999994277954, 0.0, 0.0, 0.0, 0.0, 0.0, 1.6209949154706495E9, 2021-05-14 14:21:55.470
61.0, -122.33399963378906, -61.89534378051758, -8.472743034362793, 117.79376220703125, 0.03200000151991844, -0.06400000303983688, 1.055999994277954, 0.0, 0.0, 0.0, 0.0, 0.0, 1.6209949154706495E9, 2021-05-14 14:21:55.470
62.0, -126.99391174316406, -66.9853515625, -7.376952648162842, 116.20803833007812, 0.03200000151991844, -0.06400000303983688, 1.055999994277954, 0.0, 0.0, 0.0, 0.0, 0.0, 1.6209949154863467E9, 2021-05-14 14:21:55.486
62.0, -132.57009887695312, -77.40097045898438, -14.770734786987305, 102.14228057861328, 0.03200000151991844, -0.06400000303983688, 1.055999994277954, 0.0, 0.0, 0.0, 0.0, 0.0, 1.6209949154863467E9, 2021-05-14 14:21:55.486
63.0, -137.7236785888672, -83.007080078125, -19.67000389099121, 100.99038696289062, 0.03200000151991844, -0.06400000303983688, 1.055999994277954, 0.0, 0.0, 0.0, 0.0, 0.0, 1.6209949154870536E9, 2021-05-14 14:21:55.487
63.0, -123.39987182617188, -68.64960479736328, -11.490842819213867, 120.26209259033203, 0.03200000151991844, -0.06400000303983688, 1.055999994277954, 0.0, 0.0, 0.0, 0.0, 0.0, 1.6209949154870536E9, 2021-05-14 14:21:55.487
64.0, -139.23460388183594, -70.5831298828125, -15.410257339477539, 106.24868774414062, 0.03200000151991844, -0.06400000303983688, 1.055999994277954, 0.0, 0.0, 0.0, 0.0, 0.0, 1.620994915500589E9, 2021-05-14 14:21:55.500
64.0, -150.27105712890625, -77.69268035888672, -25.264894485473633, 85.8475341796875, 0.03200000151991844, -0.06400000303983688, 1.055999994277954, 0.0, 0.0, 0.0, 0.0, 0.0, 1.620994915500589E9, 2021-05-14 14:21:55.500
65.0, -149.0144500732422, -77.06063842773438, -28.129657745361328, 94.61386108398438, 0.03200000151991844, -0.06400000303983688, 1.055999994277954, 0.0, 0.0, 0.0, 0.0, 0.0, 1.6209949155162554E9, 2021-05-14 14:21:55.516
65.0, -125.14640045166016, -56.88387680053711, -13.413150787353516, 116.46609497070312, 0.03200000151991844, -0.06400000303983688, 1.055999994277954, 0.0, 0.0, 0.0, 0.0, 0.0, 1.6209949155162554E9, 2021-05-14 14:21:55.516
66.0, -135.43112182617188, -68.25691223144531, -17.987049102783203, 93.83222198486328, 0.03200000151991844, -0.06400000303983688, 1.055999994277954, 0.0, 0.0, 0.0, 0.0, 0.0, 1.6209949155169656E9, 2021-05-14 14:21:55.516
66.0, -152.10360717773438, -77.4308853149414, -28.94869613647461, 78.26301574707031, 0.03200000151991844, -0.06400000303983688, 1.055999994277954, 0.0, 0.0, 0.0, 0.0, 0.0, 1.6209949155169656E9, 2021-05-14 14:21:55.516
67.0, -143.9693145751953, -82.41617584228516, -27.030126571655273, 94.14636993408203, 0.03200000151991844, -0.06400000303983688, 1.055999994277954, 0.0, 0.0, 0.0, 0.0, 0.0, 1.620994915530584E9, 2021-05-14 14:21:55.530
67.0, -130.2289276123047, -66.81331634521484, -21.988740921020508, 115.9612045288086, 0.03200000151991844, -0.06400000303983688, 1.055999994277954, 0.0, 0.0, 0.0, 0.0, 0.0, 1.620994915530584E9, 2021-05-14 14:21:55.530
68.0, -132.06895446777344, -69.50604248046875, -23.739015579223633, 111.20405578613281, 0.03200000151991844, -0.06400000303983688, 1.055999994277954, 0.0, 0.0, 0.0, 0.0, 0.0, 1.6209949155463731E9, 2021-05-14 14:21:55.546
68.0, -148.60305786132812, -80.16101837158203, -37.99925231933594, 93.52555084228516, 0.03200000151991844, -0.06400000303983688, 1.055999994277954, 0.0, 0.0, 0.0, 0.0, 0.0, 1.6209949155463731E9, 2021-05-14 14:21:55.546
69.0, -144.17501831054688, -72.22494506835938, -28.795360565185547, 100.51541900634766, 0.03200000151991844, -0.06400000303983688, 1.055999994277954, 0.0, 0.0, 0.0, 0.0, 0.0, 1.6209949155469813E9, 2021-05-14 14:21:55.546
69.0, -133.26947021484375, -55.69084930419922, -10.301554679870605, 130.12420654296875, 0.03200000151991844, -0.06400000303983688, 1.055999994277954, 0.0, 0.0, 0.0, 0.0, 0.0, 1.6209949155469813E9, 2021-05-14 14:21:55.546
70.0, -142.88475036621094, -65.71378326416016, -17.94590950012207, 116.28658294677734, 0.03200000151991844, -0.06400000303983688, 1.055999994277954, 0.0, 0.0, 0.0, 0.0, 0.0, 1.620994915560603E9, 2021-05-14 14:21:55.560
70.0, -143.90574645996094, -76.6230697631836, -21.38661766052246, 103.17823028564453, 0.03200000151991844, -0.06400000303983688, 1.055999994277954, 0.0, 0.0, 0.0, 0.0, 0.0, 1.620994915560603E9, 2021-05-14 14:21:55.560
71.0, -143.0006866455078, -66.94795227050781, -16.46491050720215, 110.40371704101562, 0.03200000151991844, -0.06400000303983688, 1.055999994277954, 0.0, 0.0, 0.0, 0.0, 0.0, 1.6209949155762813E9, 2021-05-14 14:21:55.576
71.0, -126.83309936523438, -51.300209045410156, -3.2593228816986084, 126.08137512207031, 0.03200000151991844, -0.06400000303983688, 1.055999994277954, 0.0, 0.0, 0.0, 0.0, 0.0, 1.6209949155762813E9, 2021-05-14 14:21:55.576
72.0, -139.3916778564453, -60.597599029541016, -6.913205146789551, 104.3151626586914, 0.03200000151991844, -0.06400000303983688, 1.055999994277954, 0.0, 0.0, 0.0, 0.0, 0.0, 1.6209949155770621E9, 2021-05-14 14:21:55.577
72.0, -156.49798583984375, -70.25775909423828, -16.92117691040039, 83.16228485107422, 0.03200000151991844, -0.06400000303983688, 1.055999994277954, 0.0, 0.0, 0.0, 0.0, 0.0, 1.6209949155770621E9, 2021-05-14 14:21:55.577
73.0, -151.24716186523438, -64.86856842041016, -16.984756469726562, 88.9404296875, 0.03200000151991844, -0.06400000303983688, 1.055999994277954, 0.0, 0.0, 0.0, 0.0, 0.0, 1.620994915590572E9, 2021-05-14 14:21:55.590
73.0, -140.42015075683594, -54.1911506652832, -12.100446701049805, 110.4560775756836, 0.03200000151991844, -0.06400000303983688, 1.055999994277954, 0.0, 0.0, 0.0, 0.0, 0.0, 1.620994915590572E9, 2021-05-14 14:21:55.590
74.0, -149.0181884765625, -57.714134216308594, -10.122038841247559, 99.15409851074219, 0.03200000151991844, -0.06400000303983688, 1.055999994277954, 0.0, 0.0, 0.0, 0.0, 0.0, 1.620994915606395E9, 2021-05-14 14:21:55.606
74.0, -153.80899047851562, -62.830318450927734, -17.54199981689453, 83.9588851928711, 0.03200000151991844, -0.06400000303983688, 1.055999994277954, 0.0, 0.0, 0.0, 0.0, 0.0, 1.620994915606395E9, 2021-05-14 14:21:55.606
75.0, -148.6217498779297, -60.605079650878906, -12.590373039245605, 91.45364379882812, 0.03200000151991844, -0.06400000303983688, 1.055999994277954, 0.0, 0.0, 0.0, 0.0, 0.0, 1.6209949156070728E9, 2021-05-14 14:21:55.607
75.0, -140.40145874023438, -46.07182693481445, -3.876406192779541, 114.88411712646484, 0.03200000151991844, -0.06400000303983688, 1.055999994277954, 0.0, 0.0, 0.0, 0.0, 0.0, 1.6209949156070728E9, 2021-05-14 14:21:55.607
