Sample Index, EXG Channel 0, EXG Channel 1, EXG Channel 2, EXG Channel 3, Accel Channel 0, Accel Channel 1, Accel Channel 2, Other, Other, Other, Other, Other, Timestamp, Timestamp (Formatted)
0.0, -150.55528259277344, -25.715551376342773, -5.626679420471191, 94.84386444091797, 0.0, 0.0, 0.0, 0.0, 0.0, 0.0, 0.0, 0.0, 1.6209946416894484E9, 2021-05-14 14:17:21.689
1.0, -150.75723266601562, -26.616867065429688, -1.2809157371520996, 99.50003814697266, 0.0, -0.04800000041723251, 0.0, 0.0, 0.0, 0.0, 0.0, 0.0, 1.6209946417027931E9, 2021-05-14 14:17:21.702
1.0, -138.2397918701172, -33.36738586425781, -0.8209080696105957, 99.82540893554688, 0.0, -0.04800000041723251, 0.0, 0.0, 0.0, 0.0, 0.0, 0.0, 1.6209946417027931E9, 2021-05-14 14:17:21.702
2.0, -137.70872497558594, -31.97240447998047, -1.8680800199508667, 100.61827087402344, 0.03200000151991844, -0.04800000041723251, 0.0, 0.0, 0.0, 0.0, 0.0, 0.0, 1.6209946417199016E9, 2021-05-14 14:17:21.719
2.0, -136.74383544921875, -37.541114807128906, -9.557313919067383, 91.13014221191406, 0.03200000151991844, -0.04800000041723251, 0.0, 0.0, 0.0, 0.0, 0.0, 0.0, 1.6209946417199016E9, 2021-05-14 14:17:21.719
3.0, -132.8057098388672, -42.934051513671875, -14.875452041625977, 107.75399780273438, 0.03200000151991844, -0.04800000041723251, 0.0, 0.0, 0.0, 0.0, 0.0, 0.0, 1.6209946417336347E9, 2021-05-14 14:17:21.733
3.0, -133.89776611328125, -38.19559860229492, -13.985356330871582, 116.78585815429688, 0.03200000151991844, -0.04800000041723251, 0.0, 0.0, 0.0, 0.0, 0.0, 0.0, 1.6209946417336347E9, 2021-05-14 14:17:21.733
4.0, -140.47625732421875, -39.94961166381836, -14.254629135131836, 108.43466186523438, 0.03200000151991844, -0.04800000041723251, 0.0, 0.0, 0.0, 0.0, 0.0, 0.0, 1.6209946417489293E9, 2021-05-14 14:17:21.748
4.0, -135.43112182617188, -40.06180953979492, -17.732736587524414, 105.95136260986328, 0.03200000151991844, -0.04800000041723251, 0.0, 0.0, 0.0, 0.0, 0.0, 0.0, 1.6209946417489293E9, 2021-05-14 14:17:21.748
5.0, -141.1307373046875, -45.428565979003906, -16.913698196411133, 111.41535949707031, 0.03200000151991844, -0.04800000041723251, 0.0, 0.0, 0.0, 0.0, 0.0, 0.0, 1.620994641749702E9, 2021-05-14 14:17:21.749
5.0, -145.1099853515625, -37.99364471435547, -16.233036041259766, 122.22367095947266, 0.03200000151991844, -0.04800000041723251, 0.0, 0.0, 0.0, 0.0, 0.0, 0.0, 1.620994641749702E9, 2021-05-14 14:17:21.749
6.0, -144.48916625976562, -36.579959869384766, -8.31940746307373, 124.51622772216797, 0.03200000151991844, -0.04800000041723251, 0.0, 0.0, 0.0, 0.0, 0.0, 0.0, 1.62099464175043E9, 2021-05-14 14:17:21.750
6.0, -146.60594177246094, -43.65959167480469, -11.546940803527832, 114.59427642822266, 0.03200000151991844, -0.04800000041723251, 0.0, 0.0, 0.0, 0.0, 0.0, 0.0, 1.62099464175043E9, 2021-05-14 14:17:21.750
7.0, -151.49026489257812, -43.5810546875, -16.169458389282227, 112.79537963867188, 0.03200000151991844, -0.04800000041723251, 0.0, 0.0, 0.0, 0.0, 0.0, 0.0, 1.620994641762504E9, 2021-05-14 14:17:21.762
7.0, -148.72647094726562, -26.27653694152832, -15.208303451538086, 121.95813751220703, 0.03200000151991844, -0.04800000041723251, 0.0, 0.0, 0.0, 0.0, 0.0, 0.0, 1.620994641762504E9, 2021-05-14 14:17:21.762
8.0, -152.68702697753906, -23.34445571899414, -8.685917854309082, 112.82530212402344, 0.03200000151991844, -0.04800000041723251, 0.0, 0.0, 0.0, 0.0, 0.0, 0.0, 1.620994641778325E9, 2021-05-14 14:17:21.778
8.0, -152.08863830566406, -29.814481735229492, -11.307587623596191, 102.17032623291016, 0.03200000151991844, -0.04800000041723251, 0.0, 0.0, 0.0, 0.0, 0.0, 0.0, 1.620994641778325E9, 2021-05-14 14:17:21.778
9.0, -164.7033233642578, -34.018131256103516, -17.26898765563965, 96.37348175048828, 0.03200000151991844, -0.04800000041723251, 0.0, 0.0, 0.0, 0.0, 0.0, 0.0, 1.620994641778921E9, 2021-05-14 14:17:21.778
9.0, -146.3404083251953, -22.686233520507812, -2.6347594261169434, 102.12545013427734, 0.03200000151991844, -0.04800000041723251, 0.0, 0.0, 0.0, 0.0, 0.0, 0.0, 1.620994641778921E9, 2021-05-14 14:17:21.778
10.0, -155.59666442871094, -27.140453338623047, -7.317114353179932, 89.65662384033203, 0.03200000151991844, -0.04800000041723251, 1.055999994277954, 0.0, 0.0, 0.0, 0.0, 0.0, 1.6209946417924664E9, 2021-05-14 14:17:21.792
10.0, -150.1251983642578, -30.23335075378418, -9.325440406799316, 77.70016479492188, 0.03200000151991844, -0.04800000041723251, 1.055999994277954, 0.0, 0.0, 0.0, 0.0, 0.0, 1.6209946417924664E9, 2021-05-14 14:17:21.792
11.0, -150.76470947265625, -29.881799697875977, -17.76265525817871, 69.6556396484375, 0.03200000151991844, -0.04800000041723251, 1.055999994277954, 0.0, 0.0, 0.0, 0.0, 0.0, 1.6209946418081548E9, 2021-05-14 14:17:21.808
11.0, -137.38336181640625, -32.151920318603516, -15.974982261657715, 82.87618255615234, 0.03200000151991844, -0.04800000041723251, 1.055999994277954, 0.0, 0.0, 0.0, 0.0, 0.0, 1.6209946418081548E9, 2021-05-14 14:17:21.808
12.0, -128.706787109375, -28.84958839416504, -16.92865753173828, 93.14595031738281, 0.03200000151991844, -0.04800000041723251, 1.055999994277954, 0.0, 0.0, 0.0, 0.0, 0.0, 1.6209946418089633E9, 2021-05-14 14:17:21.808
12.0, -138.4978485107422, -46.68891143798828, -24.146663665771484, 87.35284423828125, 0.03200000151991844, -0.04800000041723251, 1.055999994277954, 0.0, 0.0, 0.0, 0.0, 0.0, 1.6209946418089633E9, 2021-05-14 14:17:21.808
13.0, -146.31797790527344, -40.66767120361328, -20.047733306884766, 104.36564636230469, 0.03200000151991844, -0.04800000041723251, 1.055999994277954, 0.0, 0.0, 0.0, 0.0, 0.0, 1.6209946418225532E9, 2021-05-14 14:17:21.822
13.0, -146.44886779785156, -42.975189208984375, -23.41364288330078, 119.81143188476562, 0.03200000151991844, -0.04800000041723251, 1.055999994277954, 0.0, 0.0, 0.0, 0.0, 0.0, 1.6209946418225532E9, 2021-05-14 14:17:21.822
14.0, -140.32666015625, -39.67285919189453, -19.31097412109375, 126.08699035644531, 0.03200000151991844, -0.04800000041723251, 1.055999994277954, 0.0, 0.0, 0.0, 0.0, 0.0, 1.6209946418552723E9, 2021-05-14 14:17:21.855
14.0, -138.5389862060547, -51.666717529296875, -20.945310592651367, 116.50910186767578, 0.03200000151991844, -0.04800000041723251, 1.055999994277954, 0.0, 0.0, 0.0, 0.0, 0.0, 1.6209946418552723E9, 2021-05-14 14:17:21.855
15.0, -137.91067504882812, -45.67539978027344, -18.26380157470703, 118.81288146972656, 0.03200000151991844, -0.04800000041723251, 1.055999994277954, 0.0, 0.0, 0.0, 0.0, 0.0, 1.6209946418560607E9, 2021-05-14 14:17:21.856
15.0, -144.75469970703125, -45.929710388183594, -10.660584449768066, 138.2491455078125, 0.03200000151991844, -0.04800000041723251, 1.055999994277954, 0.0, 0.0, 0.0, 0.0, 0.0, 1.6209946418560607E9, 2021-05-14 14:17:21.856
16.0, -135.64804077148438, -45.7988166809082, -9.669511795043945, 130.12234497070312, 0.03200000151991844, -0.04800000041723251, 1.055999994277954, 0.0, 0.0, 0.0, 0.0, 0.0, 1.6209946418567417E9, 2021-05-14 14:17:21.856
16.0, -146.76303100585938, -54.105133056640625, -15.219522476196289, 117.14488983154297, 0.03200000151991844, -0.04800000041723251, 1.055999994277954, 0.0, 0.0, 0.0, 0.0, 0.0, 1.6209946418567417E9, 2021-05-14 14:17:21.856
17.0, -145.84300231933594, -48.30454635620117, -9.134705543518066, 121.10917663574219, 0.03200000151991844, -0.04800000041723251, 1.055999994277954, 0.0, 0.0, 0.0, 0.0, 0.0, 1.6209946418575895E9, 2021-05-14 14:17:21.857
17.0, -148.7152557373047, -48.67853927612305, -6.56913423538208, 120.76510620117188, 0.03200000151991844, -0.04800000041723251, 1.055999994277954, 0.0, 0.0, 0.0, 0.0, 0.0, 1.6209946418575895E9, 2021-05-14 14:17:21.857
18.0, -150.2037353515625, -40.495635986328125, -5.469603538513184, 109.44817352294922, 0.03200000151991844, -0.04800000041723251, 1.055999994277954, 0.0, 0.0, 0.0, 0.0, 0.0, 1.620994641867555E9, 2021-05-14 14:17:21.867
18.0, -151.02276611328125, -38.85008239746094, -12.829727172851562, 94.27165985107422, 0.03200000151991844, -0.04800000041723251, 1.055999994277954, 0.0, 0.0, 0.0, 0.0, 0.0, 1.620994641867555E9, 2021-05-14 14:17:21.867
19.0, -146.38156127929688, -39.43350601196289, -15.522455215454102, 85.5763931274414, 0.03200000151991844, -0.04800000041723251, 1.055999994277954, 0.0, 0.0, 0.0, 0.0, 0.0, 1.620994641882518E9, 2021-05-14 14:17:21.882
19.0, -154.00721740722656, -32.709163665771484, -12.934444427490234, 88.50099182128906, 0.03200000151991844, -0.04800000041723251, 1.055999994277954, 0.0, 0.0, 0.0, 0.0, 0.0, 1.620994641882518E9, 2021-05-14 14:17:21.882
20.0, -157.4067840576172, -34.98302459716797, -8.338107109069824, 79.24848175048828, 0.03200000151991844, -0.04800000041723251, 1.040000081062317, 0.0, 0.0, 0.0, 0.0, 0.0, 1.620994641915304E9, 2021-05-14 14:17:21.915
20.0, -145.73829650878906, -31.71061134338379, -8.846733093261719, 76.95592498779297, 0.03200000151991844, -0.04800000041723251, 1.040000081062317, 0.0, 0.0, 0.0, 0.0, 0.0, 1.620994641915304E9, 2021-05-14 14:17:21.915
21.0, -141.23545837402344, -33.722679138183594, -5.607979774475098, 81.82901000976562, 0.03200000151991844, -0.04800000041723251, 1.040000081062317, 0.0, 0.0, 0.0, 0.0, 0.0, 1.6209946419160843E9, 2021-05-14 14:17:21.916
21.0, -133.5387420654297, -29.758384704589844, -3.1059868335723877, 91.77714538574219, 0.03200000151991844, -0.04800000041723251, 1.040000081062317, 0.0, 0.0, 0.0, 0.0, 0.0, 1.6209946419160843E9, 2021-05-14 14:17:21.916
22.0, -141.7552947998047, -31.725570678710938, -6.408318519592285, 93.13846588134766, 0.03200000151991844, -0.04800000041723251, 1.040000081062317, 0.0, 0.0, 0.0, 0.0, 0.0, 1.6209946419166715E9, 2021-05-14 14:17:21.916
22.0, -145.1997528076172, -31.082307815551758, -14.980169296264648, 91.88560485839844, 0.03200000151991844, -0.04800000041723251, 1.040000081062317, 0.0, 0.0, 0.0, 0.0, 0.0, 1.6209946419166715E9, 2021-05-14 14:17:21.916
23.0, -143.9693145751953, -36.673458099365234, -23.10323143005371, 100.12460327148438, 0.03200000151991844, -0.04800000041723251, 1.040000081062317, 0.0, 0.0, 0.0, 0.0, 0.0, 1.6209946419175093E9, 2021-05-14 14:17:21.917
23.0, -140.45755004882812, -39.69529724121094, -16.090919494628906, 117.04016876220703, 0.03200000151991844, -0.04800000041723251, 1.040000081062317, 0.0, 0.0, 0.0, 0.0, 0.0, 1.6209946419175093E9, 2021-05-14 14:17:21.917
24.0, -142.6603546142578, -48.143733978271484, -18.3572998046875, 111.69585418701172, 0.03200000151991844, -0.04800000041723251, 1.040000081062317, 0.0, 0.0, 0.0, 0.0, 0.0, 1.6209946419275637E9, 2021-05-14 14:17:21.927
24.0, -145.5699920654297, -55.89280319213867, -23.106971740722656, 105.16598510742188, 0.03200000151991844, -0.04800000041723251, 1.040000081062317, 0.0, 0.0, 0.0, 0.0, 0.0, 1.6209946419275637E9, 2021-05-14 14:17:21.927
25.0, -146.60220336914062, -55.22336196899414, -22.153297424316406, 109.64264678955078, 0.03200000151991844, -0.04800000041723251, 1.040000081062317, 0.0, 0.0, 0.0, 0.0, 0.0, 1.6209946419426425E9, 2021-05-14 14:17:21.942
25.0, -149.37721252441406, -51.2403678894043, -22.12337875366211, 111.34056091308594, 0.03200000151991844, -0.04800000041723251, 1.040000081062317, 0.0, 0.0, 0.0, 0.0, 0.0, 1.6209946419426425E9, 2021-05-14 14:17:21.942
26.0, -146.99490356445312, -49.7144889831543, -18.155344009399414, 106.96113586425781, 0.03200000151991844, -0.04800000041723251, 1.040000081062317, 0.0, 0.0, 0.0, 0.0, 0.0, 1.6209946419747417E9, 2021-05-14 14:17:21.974
26.0, -147.79150390625, -49.07870864868164, -14.82309341430664, 104.89297485351562, 0.03200000151991844, -0.04800000041723251, 1.040000081062317, 0.0, 0.0, 0.0, 0.0, 0.0, 1.6209946419747417E9, 2021-05-14 14:17:21.974
27.0, -146.06739807128906, -49.87156677246094, -16.853858947753906, 90.9132308959961, 0.03200000151991844, -0.04800000041723251, 1.040000081062317, 0.0, 0.0, 0.0, 0.0, 0.0, 1.620994641975332E9, 2021-05-14 14:17:21.975
27.0, -143.9805450439453, -30.88409423828125, -16.898738861083984, 97.925537109375, 0.03200000151991844, -0.04800000041723251, 1.040000081062317, 0.0, 0.0, 0.0, 0.0, 0.0, 1.620994641975332E9, 2021-05-14 14:17:21.975
28.0, -131.8445587158203, -31.104747772216797, -9.377799034118652, 96.44454193115234, 0.03200000151991844, -0.04800000041723251, 1.040000081062317, 0.0, 0.0, 0.0, 0.0, 0.0, 1.6209946419761417E9, 2021-05-14 14:17:21.976
28.0, -139.11119079589844, -43.91016387939453, -14.116251945495605, 86.36924743652344, 0.03200000151991844, -0.04800000041723251, 1.040000081062317, 0.0, 0.0, 0.0, 0.0, 0.0, 1.6209946419761417E9, 2021-05-14 14:17:21.976
29.0, -146.92384338378906, -33.573081970214844, -13.693643569946289, 79.92913818359375, 0.03200000151991844, -0.04800000041723251, 1.040000081062317, 0.0, 0.0, 0.0, 0.0, 0.0, 1.6209946419768703E9, 2021-05-14 14:17:21.976
29.0, -145.68966674804688, -21.179054260253906, -10.724163055419922, 88.91986083984375, 0.03200000151991844, -0.04800000041723251, 1.040000081062317, 0.0, 0.0, 0.0, 0.0, 0.0, 1.6209946419768703E9, 2021-05-14 14:17:21.976
30.0, -145.37551879882812, -23.284616470336914, -4.81886100769043, 88.0297622680664, 0.03200000151991844, -0.04800000041723251, 1.055999994277954, 0.0, 0.0, 0.0, 0.0, 0.0, 1.6209946419875283E9, 2021-05-14 14:17:21.987
30.0, -153.04605102539062, -25.349040985107422, -8.154851913452148, 87.54731750488281, 0.03200000151991844, -0.04800000041723251, 1.055999994277954, 0.0, 0.0, 0.0, 0.0, 0.0, 1.6209946419875283E9, 2021-05-14 14:17:21.987
31.0, -155.47325134277344, -29.990257263183594, -11.6404390335083, 96.39591979980469, 0.03200000151991844, -0.04800000041723251, 1.055999994277954, 0.0, 0.0, 0.0, 0.0, 0.0, 1.620994642002461E9, 2021-05-14 14:17:22.002
31.0, -152.59352111816406, -24.31308937072754, -7.440530776977539, 114.50825500488281, 0.03200000151991844, -0.04800000041723251, 1.055999994277954, 0.0, 0.0, 0.0, 0.0, 0.0, 1.620994642002461E9, 2021-05-14 14:17:22.002
32.0, -151.4752960205078, -30.584901809692383, -7.092720031738281, 116.61382293701172, 0.03200000151991844, -0.04800000041723251, 1.055999994277954, 0.0, 0.0, 0.0, 0.0, 0.0, 1.6209946420189643E9, 2021-05-14 14:17:22.018
32.0, -152.2906036376953, -34.949363708496094, -13.540307998657227, 109.69126892089844, 0.03200000151991844, -0.04800000041723251, 1.055999994277954, 0.0, 0.0, 0.0, 0.0, 0.0, 1.6209946420189643E9, 2021-05-14 14:17:22.018
33.0, -153.99224853515625, -38.51348876953125, -15.612212181091309, 114.69151306152344, 0.03200000151991844, -0.04800000041723251, 1.055999994277954, 0.0, 0.0, 0.0, 0.0, 0.0, 1.620994642019686E9, 2021-05-14 14:17:22.019
33.0, -155.51065063476562, -33.24396896362305, -18.619091033935547, 122.66497802734375, 0.03200000151991844, -0.04800000041723251, 1.055999994277954, 0.0, 0.0, 0.0, 0.0, 0.0, 1.620994642019686E9, 2021-05-14 14:17:22.019
34.0, -155.8397674560547, -33.995689392089844, -21.532474517822266, 107.0583724975586, 0.03200000151991844, -0.04800000041723251, 1.055999994277954, 0.0, 0.0, 0.0, 0.0, 0.0, 1.6209946420327463E9, 2021-05-14 14:17:22.032
34.0, -149.8596649169922, -48.757076263427734, -29.790172576904297, 92.19975280761719, 0.03200000151991844, -0.04800000041723251, 1.055999994277954, 0.0, 0.0, 0.0, 0.0, 0.0, 1.6209946420327463E9, 2021-05-14 14:17:22.032
35.0, -152.50750732421875, -45.81377410888672, -27.493873596191406, 102.23016357421875, 0.03200000151991844, -0.04800000041723251, 1.055999994277954, 0.0, 0.0, 0.0, 0.0, 0.0, 1.6209946420482578E9, 2021-05-14 14:17:22.048
35.0, -144.29095458984375, -37.36907958984375, -19.483009338378906, 104.54890441894531, 0.03200000151991844, -0.04800000041723251, 1.055999994277954, 0.0, 0.0, 0.0, 0.0, 0.0, 1.6209946420482578E9, 2021-05-14 14:17:22.048
36.0, -152.21954345703125, -31.88638687133789, -20.11505126953125, 98.34440612792969, 0.03200000151991844, -0.04800000041723251, 1.055999994277954, 0.0, 0.0, 0.0, 0.0, 0.0, 1.6209946420489984E9, 2021-05-14 14:17:22.048
36.0, -149.85218811035156, -36.56500244140625, -23.26030731201172, 89.97077178955078, 0.03200000151991844, -0.04800000041723251, 1.055999994277954, 0.0, 0.0, 0.0, 0.0, 0.0, 1.6209946420489984E9, 2021-05-14 14:17:22.048
37.0, -147.38385009765625, -39.71399688720703, -23.297706604003906, 92.45406341552734, 0.03200000151991844, -0.04800000041723251, 1.055999994277954, 0.0, 0.0, 0.0, 0.0, 0.0, 1.6209946420625908E9, 2021-05-14 14:17:22.062
37.0, -140.88763427734375, -35.38319396972656, -22.332813262939453, 94.8139419555664, 0.03200000151991844, -0.04800000041723251, 1.055999994277954, 0.0, 0.0, 0.0, 0.0, 0.0, 1.6209946420625908E9, 2021-05-14 14:17:22.062
38.0, -146.58724975585938, -26.47475242614746, -11.651658058166504, 90.2550048828125, 0.03200000151991844, -0.04800000041723251, 1.055999994277954, 0.0, 0.0, 0.0, 0.0, 0.0, 1.6209946420789433E9, 2021-05-14 14:17:22.078
38.0, -153.120849609375, -32.48851013183594, -19.247394561767578, 75.29166412353516, 0.03200000151991844, -0.04800000041723251, 1.055999994277954, 0.0, 0.0, 0.0, 0.0, 0.0, 1.6209946420789433E9, 2021-05-14 14:17:22.078
39.0, -148.6666259765625, -35.89556121826172, -18.73876953125, 72.96918487548828, 0.03200000151991844, -0.04800000041723251, 1.055999994277954, 0.0, 0.0, 0.0, 0.0, 0.0, 1.6209946420797915E9, 2021-05-14 14:17:22.079
39.0, -142.1517333984375, -26.104501724243164, -9.568533897399902, 85.99151611328125, 0.03200000151991844, -0.04800000041723251, 1.055999994277954, 0.0, 0.0, 0.0, 0.0, 0.0, 1.6209946420797915E9, 2021-05-14 14:17:22.079
40.0, -148.4197998046875, -26.788904190063477, -9.411458015441895, 87.70813751220703, 0.03200000151991844, -0.04800000041723251, 1.055999994277954, 0.0, 0.0, 0.0, 0.0, 0.0, 1.6209946420924845E9, 2021-05-14 14:17:22.092
40.0, -154.41111755371094, -32.095821380615234, -6.082947254180908, 86.0401382446289, 0.03200000151991844, -0.04800000041723251, 1.055999994277954, 0.0, 0.0, 0.0, 0.0, 0.0, 1.6209946420924845E9, 2021-05-14 14:17:22.092
41.0, -151.7670135498047, -20.74522590637207, -6.180184841156006, 99.7693099975586, 0.03200000151991844, -0.04800000041723251, 1.055999994277954, 0.0, 0.0, 0.0, 0.0, 0.0, 1.6209946421082275E9, 2021-05-14 14:17:22.108
41.0, -153.3377685546875, -22.660053253173828, -13.446810722351074, 101.85991668701172, 0.03200000151991844, -0.04800000041723251, 1.055999994277954, 0.0, 0.0, 0.0, 0.0, 0.0, 1.6209946421082275E9, 2021-05-14 14:17:22.108
42.0, -144.33956909179688, -30.35302734375, -12.048088073730469, 108.61043548583984, 0.03200000151991844, -0.04800000041723251, 1.055999994277954, 0.0, 0.0, 0.0, 0.0, 0.0, 1.620994642108963E9, 2021-05-14 14:17:22.108
42.0, -150.37950134277344, -44.59830856323242, -17.20541000366211, 105.0724868774414, 0.03200000151991844, -0.04800000041723251, 1.055999994277954, 0.0, 0.0, 0.0, 0.0, 0.0, 1.620994642108963E9, 2021-05-14 14:17:22.108
43.0, -143.70751953125, -40.77238845825195, -17.392404556274414, 109.09661865234375, 0.03200000151991844, -0.04800000041723251, 1.055999994277954, 0.0, 0.0, 0.0, 0.0, 0.0, 1.6209946421225646E9, 2021-05-14 14:17:22.122
43.0, -135.13194274902344, -44.46366882324219, -18.390958786010742, 114.02581024169922, 0.03200000151991844, -0.04800000041723251, 1.055999994277954, 0.0, 0.0, 0.0, 0.0, 0.0, 1.6209946421225646E9, 2021-05-14 14:17:22.122
44.0, -132.6935272216797, -51.251590728759766, -3.7716891765594482, 127.76994323730469, 0.03200000151991844, -0.04800000041723251, 1.055999994277954, 0.0, 0.0, 0.0, 0.0, 0.0, 1.620994642138858E9, 2021-05-14 14:17:22.138
44.0, -145.5774688720703, -48.854312896728516, -15.533674240112305, 111.1124267578125, 0.03200000151991844, -0.04800000041723251, 1.055999994277954, 0.0, 0.0, 0.0, 0.0, 0.0, 1.620994642138858E9, 2021-05-14 14:17:22.138
45.0, -149.20892333984375, -44.508548736572266, -19.819599151611328, 105.21086883544922, 0.03200000151991844, -0.04800000041723251, 1.055999994277954, 0.0, 0.0, 0.0, 0.0, 0.0, 1.6209946421395752E9, 2021-05-14 14:17:22.139
45.0, -138.10890197753906, -44.269195556640625, -16.85759925842285, 115.87332153320312, 0.03200000151991844, -0.04800000041723251, 1.055999994277954, 0.0, 0.0, 0.0, 0.0, 0.0, 1.6209946421395752E9, 2021-05-14 14:17:22.139
46.0, -149.1042022705078, -47.40323257446289, -16.345232009887695, 101.96836853027344, 0.03200000151991844, -0.04800000041723251, 1.055999994277954, 0.0, 0.0, 0.0, 0.0, 0.0, 1.6209946421526172E9, 2021-05-14 14:17:22.152
46.0, -146.9799346923828, -49.576114654541016, -20.444162368774414, 92.88789367675781, 0.03200000151991844, -0.04800000041723251, 1.055999994277954, 0.0, 0.0, 0.0, 0.0, 0.0, 1.6209946421526172E9, 2021-05-14 14:17:22.152
47.0, -143.23255920410156, -40.39091873168945, -20.227249145507812, 85.54647064208984, 0.03200000151991844, -0.04800000041723251, 1.055999994277954, 0.0, 0.0, 0.0, 0.0, 0.0, 1.6209946421683347E9, 2021-05-14 14:17:22.168
47.0, -136.66903686523438, -32.87746047973633, -20.111312866210938, 92.73081970214844, 0.03200000151991844, -0.04800000041723251, 1.055999994277954, 0.0, 0.0, 0.0, 0.0, 0.0, 1.6209946421683347E9, 2021-05-14 14:17:22.168
48.0, -136.44090270996094, -32.76152420043945, -12.380938529968262, 83.96823120117188, 0.03200000151991844, -0.04800000041723251, 1.055999994277954, 0.0, 0.0, 0.0, 0.0, 0.0, 1.6209946421689749E9, 2021-05-14 14:17:22.168
48.0, -135.89862060546875, -37.05118942260742, -5.450904369354248, 82.9061050415039, 0.03200000151991844, -0.04800000041723251, 1.055999994277954, 0.0, 0.0, 0.0, 0.0, 0.0, 1.6209946421689749E9, 2021-05-14 14:17:22.168
49.0, -138.707275390625, -36.879154205322266, -5.824893951416016, 76.91852569580078, 0.03200000151991844, -0.04800000041723251, 1.055999994277954, 0.0, 0.0, 0.0, 0.0, 0.0, 1.6209946421826491E9, 2021-05-14 14:17:22.182
49.0, -142.93336486816406, -34.4370002746582, -8.300707817077637, 86.12615966796875, 0.03200000151991844, -0.04800000041723251, 1.055999994277954, 0.0, 0.0, 0.0, 0.0, 0.0, 1.6209946421826491E9, 2021-05-14 14:17:22.182
50.0, -154.85617065429688, -33.341209411621094, -10.454890251159668, 89.43596649169922, 0.03200000151991844, -0.04800000041723251, 1.055999994277954, 0.0, 0.0, 0.0, 0.0, 0.0, 1.6209946421981988E9, 2021-05-14 14:17:22.198
50.0, -157.8780059814453, -40.94442367553711, -13.910557746887207, 92.99261474609375, 0.03200000151991844, -0.04800000041723251, 1.055999994277954, 0.0, 0.0, 0.0, 0.0, 0.0, 1.6209946421981988E9, 2021-05-14 14:17:22.198
51.0, -160.98587036132812, -37.485015869140625, -21.71198844909668, 99.90020751953125, 0.03200000151991844, -0.04800000041723251, 1.055999994277954, 0.0, 0.0, 0.0, 0.0, 0.0, 1.6209946421988997E9, 2021-05-14 14:17:22.198
51.0, -149.9905548095703, -34.717491149902344, -21.341739654541016, 120.3275375366211, 0.03200000151991844, -0.04800000041723251, 1.055999994277954, 0.0, 0.0, 0.0, 0.0, 0.0, 1.6209946421988997E9, 2021-05-14 14:17:22.198
52.0, -146.11602783203125, -40.00196838378906, -27.134843826293945, 109.9867172241211, 0.03200000151991844, -0.04800000041723251, 1.055999994277954, 0.0, 0.0, 0.0, 0.0, 0.0, 1.620994642212675E9, 2021-05-14 14:17:22.212
52.0, -141.06341552734375, -48.790733337402344, -20.582538604736328, 105.0313491821289, 0.03200000151991844, -0.04800000041723251, 1.055999994277954, 0.0, 0.0, 0.0, 0.0, 0.0, 1.620994642212675E9, 2021-05-14 14:17:22.212
53.0, -135.19924926757812, -42.376808166503906, -17.407363891601562, 107.7801742553711, 0.03200000151991844, -0.04800000041723251, 1.055999994277954, 0.0, 0.0, 0.0, 0.0, 0.0, 1.6209946422282672E9, 2021-05-14 14:17:22.228
53.0, -141.07089233398438, -37.32794189453125, -19.759761810302734, 106.72926330566406, 0.03200000151991844, -0.04800000041723251, 1.055999994277954, 0.0, 0.0, 0.0, 0.0, 0.0, 1.6209946422282672E9, 2021-05-14 14:17:22.228
54.0, -135.46852111816406, -35.783363342285156, -14.77447509765625, 105.22582244873047, 0.03200000151991844, -0.04800000041723251, 1.055999994277954, 0.0, 0.0, 0.0, 0.0, 0.0, 1.62099464222898E9, 2021-05-14 14:17:22.228
54.0, -136.60919189453125, -35.686126708984375, -12.7848482131958, 98.1424560546875, 0.03200000151991844, -0.04800000041723251, 1.055999994277954, 0.0, 0.0, 0.0, 0.0, 0.0, 1.62099464222898E9, 2021-05-14 14:17:22.228
55.0, -139.4290771484375, -42.52640151977539, -19.797161102294922, 93.75181579589844, 0.03200000151991844, -0.04800000041723251, 1.055999994277954, 0.0, 0.0, 0.0, 0.0, 0.0, 1.620994642258966E9, 2021-05-14 14:17:22.258
55.0, -145.48023986816406, -38.95479965209961, -20.548879623413086, 100.35647583007812, 0.03200000151991844, -0.04800000041723251, 1.055999994277954, 0.0, 0.0, 0.0, 0.0, 0.0, 1.620994642258966E9, 2021-05-14 14:17:22.258
56.0, -147.26417541503906, -41.13142013549805, -19.774721145629883, 93.2244873046875, 0.03200000151991844, -0.04800000041723251, 1.055999994277954, 0.0, 0.0, 0.0, 0.0, 0.0, 1.6209946422596965E9, 2021-05-14 14:17:22.259
56.0, -153.0759735107422, -49.64717102050781, -21.04254722595215, 80.800537109375, 0.03200000151991844, -0.04800000041723251, 1.055999994277954, 0.0, 0.0, 0.0, 0.0, 0.0, 1.6209946422596965E9, 2021-05-14 14:17:22.259
57.0, -152.21205139160156, -32.86997985839844, -24.068126678466797, 80.31060791015625, 0.03200000151991844, -0.04800000041723251, 1.055999994277954, 0.0, 0.0, 0.0, 0.0, 0.0, 1.6209946422604425E9, 2021-05-14 14:17:22.260
57.0, -146.05992126464844, -16.571496963500977, -8.715836524963379, 93.29554748535156, 0.03200000151991844, -0.04800000041723251, 1.055999994277954, 0.0, 0.0, 0.0, 0.0, 0.0, 1.6209946422604425E9, 2021-05-14 14:17:22.260
58.0, -150.83203125, -27.44338607788086, -9.908864974975586, 74.30432891845703, 0.03200000151991844, -0.04800000041723251, 1.055999994277954, 0.0, 0.0, 0.0, 0.0, 0.0, 1.6209946422726247E9, 2021-05-14 14:17:22.272
58.0, -153.977294921875, -22.35712242126465, -7.219876766204834, 69.33026885986328, 0.03200000151991844, -0.04800000041723251, 1.055999994277954, 0.0, 0.0, 0.0, 0.0, 0.0, 1.6209946422726247E9, 2021-05-14 14:17:22.272
59.0, -161.4683074951172, -22.873228073120117, -14.935290336608887, 74.80921936035156, 0.03200000151991844, -0.04800000041723251, 1.055999994277954, 0.0, 0.0, 0.0, 0.0, 0.0, 1.6209946422881632E9, 2021-05-14 14:17:22.288
59.0, -162.9941864013672, -21.18279266357422, -11.475883483886719, 86.04761505126953, 0.03200000151991844, -0.04800000041723251, 1.055999994277954, 0.0, 0.0, 0.0, 0.0, 0.0, 1.6209946422881632E9, 2021-05-14 14:17:22.288
60.0, -164.1909637451172, -17.390535354614258, -9.418937683105469, 96.91950988769531, 0.03200000151991844, -0.04800000041723251, 1.055999994277954, 0.0, 0.0, 0.0, 0.0, 0.0, 1.620994642288993E9, 2021-05-14 14:17:22.288
60.0, -164.32933044433594, -27.155412673950195, -23.525840759277344, 94.55963134765625, 0.03200000151991844, -0.04800000041723251, 1.055999994277954, 0.0, 0.0, 0.0, 0.0, 0.0, 1.620994642288993E9, 2021-05-14 14:17:22.288
61.0, -163.2933807373047, -32.245418548583984, -26.143770217895508, 98.99140930175781, 0.03200000151991844, -0.04800000041723251, 1.055999994277954, 0.0, 0.0, 0.0, 0.0, 0.0, 1.6209946423025017E9, 2021-05-14 14:17:22.302
61.0, -151.7670135498047, -21.650279998779297, -21.603532791137695, 116.36698913574219, 0.03200000151991844, -0.04800000041723251, 1.055999994277954, 0.0, 0.0, 0.0, 0.0, 0.0, 1.6209946423025017E9, 2021-05-14 14:17:22.302
62.0, -154.62429809570312, -32.38005447387695, -24.299999237060547, 113.66677856445312, 0.03200000151991844, -0.04800000041723251, 1.055999994277954, 0.0, 0.0, 0.0, 0.0, 0.0, 1.6209946423182201E9, 2021-05-14 14:17:22.318
62.0, -152.67581176757812, -37.1072883605957, -19.856998443603516, 109.93810272216797, 0.03200000151991844, -0.04800000041723251, 1.055999994277954, 0.0, 0.0, 0.0, 0.0, 0.0, 1.6209946423182201E9, 2021-05-14 14:17:22.318
63.0, -145.4091796875, -36.49394226074219, -12.9905424118042, 104.27214813232422, 0.03200000151991844, -0.04800000041723251, 1.055999994277954, 0.0, 0.0, 0.0, 0.0, 0.0, 1.6209946423190217E9, 2021-05-14 14:17:22.319
63.0, -149.646484375, -33.41600799560547, -7.436790943145752, 107.49968719482422, 0.03200000151991844, -0.04800000041723251, 1.055999994277954, 0.0, 0.0, 0.0, 0.0, 0.0, 1.6209946423190217E9, 2021-05-14 14:17:22.319
64.0, -150.07656860351562, -30.985071182250977, -10.114559173583984, 108.3785629272461, 0.03200000151991844, -0.04800000041723251, 1.055999994277954, 0.0, 0.0, 0.0, 0.0, 0.0, 1.6209946423326735E9, 2021-05-14 14:17:22.332
64.0, -164.8753662109375, -35.6524658203125, -16.741662979125977, 92.31195068359375, 0.03200000151991844, -0.04800000041723251, 1.055999994277954, 0.0, 0.0, 0.0, 0.0, 0.0, 1.6209946423326735E9, 2021-05-14 14:17:22.332
65.0, -157.68353271484375, -37.27184295654297, -13.069080352783203, 99.93013000488281, 0.03200000151991844, -0.04800000041723251, 1.055999994277954, 0.0, 0.0, 0.0, 0.0, 0.0, 1.6209946423489308E9, 2021-05-14 14:17:22.348
65.0, -147.017333984375, -25.352781295776367, -7.750942707061768, 104.3095474243164, 0.03200000151991844, -0.04800000041723251, 1.055999994277954, 0.0, 0.0, 0.0, 0.0, 0.0, 1.6209946423489308E9, 2021-05-14 14:17:22.348
66.0, -149.6502227783203, -33.73763656616211, -6.842146873474121, 96.3398208618164, 0.03200000151991844, -0.04800000041723251, 1.055999994277954, 0.0, 0.0, 0.0, 0.0, 0.0, 1.620994642349629E9, 2021-05-14 14:17:22.349
66.0, -156.86448669433594, -28.46063804626465, -12.354759216308594, 87.49121856689453, 0.03200000151991844, -0.04800000041723251, 1.055999994277954, 0.0, 0.0, 0.0, 0.0, 0.0, 1.620994642349629E9, 2021-05-14 14:17:22.349
67.0, -151.24716186523438, -29.029104232788086, -11.50206184387207, 88.19058227539062, 0.03200000151991844, -0.04800000041723251, 1.055999994277954, 0.0, 0.0, 0.0, 0.0, 0.0, 1.6209946423624732E9, 2021-05-14 14:17:22.362
67.0, -153.57711791992188, -17.5999698638916, -7.582647323608398, 94.52597045898438, 0.03200000151991844, -0.04800000041723251, 1.055999994277954, 0.0, 0.0, 0.0, 0.0, 0.0, 1.6209946423624732E9, 2021-05-14 14:17:22.362
68.0, -163.54769897460938, -28.670072555541992, -2.56744122505188, 85.68859100341797, 0.03200000151991844, -0.04800000041723251, 1.055999994277954, 0.0, 0.0, 0.0, 0.0, 0.0, 1.6209946423930323E9, 2021-05-14 14:17:22.393
68.0, -158.37167358398438, -29.06650161743164, -9.385278701782227, 81.29046630859375, 0.03200000151991844, -0.04800000041723251, 1.055999994277954, 0.0, 0.0, 0.0, 0.0, 0.0, 1.6209946423930323E9, 2021-05-14 14:17:22.393
69.0, -163.1774444580078, -25.595874786376953, -11.475883483886719, 85.22109985351562, 0.03200000151991844, -0.04800000041723251, 1.055999994277954, 0.0, 0.0, 0.0, 0.0, 0.0, 1.6209946424095967E9, 2021-05-14 14:17:22.409
69.0, -151.58375549316406, -26.422393798828125, -10.436190605163574, 100.3676986694336, 0.03200000151991844, -0.04800000041723251, 1.055999994277954, 0.0, 0.0, 0.0, 0.0, 0.0, 1.6209946424095967E9, 2021-05-14 14:17:22.409
70.0, -155.70138549804688, -36.7557373046875, -13.256075859069824, 100.62948608398438, 0.03200000151991844, -0.04800000041723251, 1.055999994277954, 0.0, 0.0, 0.0, 0.0, 0.0, 1.620994642410329E9, 2021-05-14 14:17:22.410
70.0, -158.77183532714844, -37.159645080566406, -22.699323654174805, 103.71490478515625, 0.03200000151991844, -0.04800000041723251, 1.055999994277954, 0.0, 0.0, 0.0, 0.0, 0.0, 1.620994642410329E9, 2021-05-14 14:17:22.410
71.0, -153.28915405273438, -34.01438903808594, -20.032773971557617, 108.98816680908203, 0.03200000151991844, -0.04800000041723251, 1.055999994277954, 0.0, 0.0, 0.0, 0.0, 0.0, 1.6209946424110277E9, 2021-05-14 14:17:22.411
71.0, -141.770263671875, -40.08798599243164, -18.66023063659668, 122.05911254882812, 0.03200000151991844, -0.04800000041723251, 1.055999994277954, 0.0, 0.0, 0.0, 0.0, 0.0, 1.6209946424110277E9, 2021-05-14 14:17:22.411
72.0, -150.3720245361328, -40.80978775024414, -13.143877983093262, 121.37845611572266, 0.03200000151991844, -0.04800000041723251, 1.055999994277954, 0.0, 0.0, 0.0, 0.0, 0.0, 1.6209946424117813E9, 2021-05-14 14:17:22.411
72.0, -154.00721740722656, -44.284156799316406, -15.39529800415039, 112.6981430053711, 0.03200000151991844, -0.04800000041723251, 1.055999994277954, 0.0, 0.0, 0.0, 0.0, 0.0, 1.6209946424117813E9, 2021-05-14 14:17:22.411
73.0, -149.15281677246094, -40.6414909362793, -24.599191665649414, 112.92253875732422, 0.03200000151991844, -0.04800000041723251, 1.055999994277954, 0.0, 0.0, 0.0, 0.0, 0.0, 1.6209946424225361E9, 2021-05-14 14:17:22.422
73.0, -152.17465209960938, -34.433258056640625, -19.93927574157715, 112.31293487548828, 0.03200000151991844, -0.04800000041723251, 1.055999994277954, 0.0, 0.0, 0.0, 0.0, 0.0, 1.6209946424225361E9, 2021-05-14 14:17:22.422
74.0, -154.4784393310547, -43.81666946411133, -15.103586196899414, 106.411376953125, 0.03200000151991844, -0.04800000041723251, 1.055999994277954, 0.0, 0.0, 0.0, 0.0, 0.0, 1.62099464243857E9, 2021-05-14 14:17:22.438
74.0, -161.36734008789062, -46.01572799682617, -21.498815536499023, 104.49280548095703, 0.03200000151991844, -0.04800000041723251, 1.055999994277954, 0.0, 0.0, 0.0, 0.0, 0.0, 1.62099464243857E9, 2021-05-14 14:17:22.438
75.0, -148.6217498779297, -41.14637756347656, -13.49916934967041, 106.1533203125, 0.03200000151991844, -0.04800000041723251, 1.055999994277954, 0.0, 0.0, 0.0, 0.0, 0.0, 1.6209946424531817E9, 2021-05-14 14:17:22.453
75.0, -147.92239379882812, -43.15096664428711, -14.022754669189453, 94.15198516845703, 0.03200000151991844, -0.04800000041723251, 1.055999994277954, 0.0, 0.0, 0.0, 0.0, 0.0, 1.6209946424531817E9, 2021-05-14 14:17:22.453
76.0, -151.74830627441406, -41.10898208618164, -16.06100082397461, 90.25874328613281, 0.03200000151991844, -0.04800000041723251, 1.055999994277954, 0.0, 0.0, 0.0, 0.0, 0.0, 1.6209946424539192E9, 2021-05-14 14:17:22.453
76.0, -152.28311157226562, -47.519168853759766, -22.703062057495117, 73.8742446899414, 0.03200000151991844, -0.04800000041723251, 1.055999994277954, 0.0, 0.0, 0.0, 0.0, 0.0, 1.6209946424539192E9, 2021-05-14 14:17:22.453
77.0, -153.40509033203125, -41.15385818481445, -23.9035701751709, 76.18923950195312, 0.03200000151991844, -0.04800000041723251, 1.055999994277954, 0.0, 0.0, 0.0, 0.0, 0.0, 1.620994642468315E9, 2021-05-14 14:17:22.468
77.0, -150.21868896484375, -33.322509765625, -14.13121223449707, 87.01998901367188, 0.03200000151991844, -0.04800000041723251, 1.055999994277954, 0.0, 0.0, 0.0, 0.0, 0.0, 1.620994642468315E9, 2021-05-14 14:17:22.468
78.0, -142.51449584960938, -38.06096267700195, -7.732243061065674, 92.68594360351562, 0.03200000151991844, -0.04800000041723251, 1.055999994277954, 0.0, 0.0, 0.0, 0.0, 0.0, 1.6209946424690883E9, 2021-05-14 14:17:22.469
78.0, -156.19505310058594, -51.51338195800781, -24.31869888305664, 84.06172943115234, 0.03200000151991844, -0.04800000041723251, 1.055999994277954, 0.0, 0.0, 0.0, 0.0, 0.0, 1.6209946424690883E9, 2021-05-14 14:17:22.469
79.0, -143.68882751464844, -39.96831130981445, -15.294321060180664, 94.52597045898438, 0.03200000151991844, -0.04800000041723251, 1.055999994277954, 0.0, 0.0, 0.0, 0.0, 0.0, 1.620994642482572E9, 2021-05-14 14:17:22.482
79.0, -140.25933837890625, -43.928863525390625, -17.16053009033203, 106.54226684570312, 0.03200000151991844, -0.04800000041723251, 1.055999994277954, 0.0, 0.0, 0.0, 0.0, 0.0, 1.620994642482572E9, 2021-05-14 14:17:22.482
80.0, -143.40834045410156, -49.243263244628906, -13.768442153930664, 106.52731323242188, 0.03200000151991844, -0.04800000041723251, 1.055999994277954, 0.0, 0.0, 0.0, 0.0, 0.0, 1.6209946424986677E9, 2021-05-14 14:17:22.498
80.0, -143.78981018066406, -57.672996520996094, -20.212289810180664, 100.30037689208984, 0.03200000151991844, -0.04800000041723251, 1.055999994277954, 0.0, 0.0, 0.0, 0.0, 0.0, 1.6209946424986677E9, 2021-05-14 14:17:22.498
81.0, -145.162353515625, -54.6324577331543, -25.560346603393555, 99.72069549560547, 0.03200000151991844, -0.04800000041723251, 1.055999994277954, 0.0, 0.0, 0.0, 0.0, 0.0, 1.6209946425133288E9, 2021-05-14 14:17:22.513
81.0, -142.29010009765625, -57.35884475708008, -16.56214714050293, 118.24815368652344, 0.03200000151991844, -0.04800000041723251, 1.055999994277954, 0.0, 0.0, 0.0, 0.0, 0.0, 1.6209946425133288E9, 2021-05-14 14:17:22.513
82.0, -140.17706298828125, -53.349674224853516, -11.973289489746094, 120.45469665527344, 0.03200000151991844, -0.04800000041723251, 1.055999994277954, 0.0, 0.0, 0.0, 0.0, 0.0, 1.6209946425140443E9, 2021-05-14 14:17:22.514
82.0, -147.8176727294922, -63.07341384887695, -25.55660629272461, 100.47615051269531, 0.03200000151991844, -0.04800000041723251, 1.055999994277954, 0.0, 0.0, 0.0, 0.0, 0.0, 1.6209946425140443E9, 2021-05-14 14:17:22.514
83.0, -151.1761016845703, -57.46730422973633, -21.349218368530273, 108.37482452392578, 0.03200000151991844, -0.04800000041723251, 1.055999994277954, 0.0, 0.0, 0.0, 0.0, 0.0, 1.6209946425282748E9, 2021-05-14 14:17:22.528
83.0, -143.44573974609375, -56.45378875732422, -13.55900764465332, 108.1616439819336, 0.03200000151991844, -0.04800000041723251, 1.055999994277954, 0.0, 0.0, 0.0, 0.0, 0.0, 1.6209946425282748E9, 2021-05-14 14:17:22.528
84.0, -155.8734130859375, -55.25328063964844, -17.65793800354004, 102.88090515136719, 0.03200000151991844, -0.04800000041723251, 1.055999994277954, 0.0, 0.0, 0.0, 0.0, 0.0, 1.620994642529006E9, 2021-05-14 14:17:22.529
84.0, -142.55189514160156, -59.80474090576172, -17.549480438232422, 90.80103302001953, 0.03200000151991844, -0.04800000041723251, 1.055999994277954, 0.0, 0.0, 0.0, 0.0, 0.0, 1.620994642529006E9, 2021-05-14 14:17:22.529
85.0, -143.68882751464844, -49.11984634399414, -15.687010765075684, 91.90430450439453, 0.03200000151991844, -0.04800000041723251, 1.055999994277954, 0.0, 0.0, 0.0, 0.0, 0.0, 1.6209946425424967E9, 2021-05-14 14:17:22.542
85.0, -147.16693115234375, -53.07666015625, -11.591819763183594, 97.5627670288086, 0.03200000151991844, -0.04800000041723251, 1.055999994277954, 0.0, 0.0, 0.0, 0.0, 0.0, 1.6209946425424967E9, 2021-05-14 14:17:22.542
86.0, -143.19142150878906, -52.93828201293945, -11.801254272460938, 93.2057876586914, 0.03200000151991844, -0.04800000041723251, 1.055999994277954, 0.0, 0.0, 0.0, 0.0, 0.0, 1.620994642558382E9, 2021-05-14 14:17:22.558
86.0, -141.48976135253906, -49.07122802734375, -11.25148868560791, 83.49700927734375, 0.03200000151991844, -0.04800000041723251, 1.055999994277954, 0.0, 0.0, 0.0, 0.0, 0.0, 1.620994642558382E9, 2021-05-14 14:17:22.558
87.0, -152.20457458496094, -52.45583724975586, -11.659137725830078, 91.50787353515625, 0.03200000151991844, -0.04800000041723251, 1.055999994277954, 0.0, 0.0, 0.0, 0.0, 0.0, 1.6209946425590527E9, 2021-05-14 14:17:22.559
87.0, -149.04061889648438, -52.75128936767578, -7.279715061187744, 96.7998275756836, 0.03200000151991844, -0.04800000041723251, 1.055999994277954, 0.0, 0.0, 0.0, 0.0, 0.0, 1.6209946425590527E9, 2021-05-14 14:17:22.559
88.0, -152.17465209960938, -44.317813873291016, -1.5015698671340942, 104.34320831298828, 0.03200000151991844, -0.04800000041723251, 1.055999994277954, 0.0, 0.0, 0.0, 0.0, 0.0, 1.6209946425725336E9, 2021-05-14 14:17:22.572
88.0, -150.7871551513672, -36.23588943481445, -3.629572868347168, 99.4289779663086, 0.03200000151991844, -0.04800000041723251, 1.055999994277954, 0.0, 0.0, 0.0, 0.0, 0.0, 1.6209946425725336E9, 2021-05-14 14:17:22.572
89.0, -149.223876953125, -35.379451751708984, -12.048088073730469, 105.08370971679688, 0.03200000151991844, -0.04800000041723251, 1.055999994277954, 0.0, 0.0, 0.0, 0.0, 0.0, 1.6209946425885053E9, 2021-05-14 14:17:22.588
89.0, -146.99490356445312, -37.75802993774414, -9.10478687286377, 114.46337890625, 0.03200000151991844, -0.04800000041723251, 1.055999994277954, 0.0, 0.0, 0.0, 0.0, 0.0, 1.6209946425885053E9, 2021-05-14 14:17:22.588
90.0, -146.0748748779297, -47.48925018310547, -12.2276029586792, 109.28361511230469, 0.03200000151991844, -0.04800000041723251, 1.055999994277954, 0.0, 0.0, 0.0, 0.0, 0.0, 1.6209946425890336E9, 2021-05-14 14:17:22.589
90.0, -168.07296752929688, -46.83102798461914, -24.51691436767578, 91.6799087524414, 0.03200000151991844, -0.04800000041723251, 1.055999994277954, 0.0, 0.0, 0.0, 0.0, 0.0, 1.6209946425890336E9, 2021-05-14 14:17:22.589
91.0, -159.3552703857422, -30.008956909179688, -22.310373306274414, 103.81587982177734, 0.03200000151991844, -0.04800000041723251, 1.055999994277954, 0.0, 0.0, 0.0, 0.0, 0.0, 1.620994642619296E9, 2021-05-14 14:17:22.619
91.0, -154.6616973876953, -32.72786331176758, -16.67434310913086, 118.00506591796875, 0.03200000151991844, -0.04800000041723251, 1.055999994277954, 0.0, 0.0, 0.0, 0.0, 0.0, 1.620994642619296E9, 2021-05-14 14:17:22.619
92.0, -153.42752075195312, -30.386686325073242, -13.570226669311523, 109.27613830566406, 0.03200000151991844, -0.04800000041723251, 1.055999994277954, 0.0, 0.0, 0.0, 0.0, 0.0, 1.620994642620041E9, 2021-05-14 14:17:22.620
92.0, -154.50086975097656, -38.81268310546875, -18.316160202026367, 94.50727081298828, 0.03200000151991844, -0.04800000041723251, 1.055999994277954, 0.0, 0.0, 0.0, 0.0, 0.0, 1.620994642620041E9, 2021-05-14 14:17:22.620
93.0, -162.17141723632812, -33.3337287902832, -22.396390914916992, 103.8458023071289, 0.03200000151991844, -0.04800000041723251, 1.055999994277954, 0.0, 0.0, 0.0, 0.0, 0.0, 1.6209946426333363E9, 2021-05-14 14:17:22.633
93.0, -150.3271484375, -35.50661087036133, -15.017568588256836, 105.74192810058594, 0.03200000151991844, -0.04800000041723251, 1.055999994277954, 0.0, 0.0, 0.0, 0.0, 0.0, 1.6209946426333363E9, 2021-05-14 14:17:22.633
94.0, -149.67640686035156, -34.78480911254883, -14.613658905029297, 102.6565170288086, 0.03200000151991844, -0.04800000041723251, 1.055999994277954, 0.0, 0.0, 0.0, 0.0, 0.0, 1.6209946426340885E9, 2021-05-14 14:17:22.634
94.0, -151.46034240722656, -36.32938766479492, -11.124332427978516, 96.35478210449219, 0.03200000151991844, -0.04800000041723251, 1.055999994277954, 0.0, 0.0, 0.0, 0.0, 0.0, 1.6209946426340885E9, 2021-05-14 14:17:22.634
95.0, -144.5602264404297, -36.65102005004883, -9.572274208068848, 90.12784576416016, 0.03200000151991844, -0.04800000041723251, 1.055999994277954, 0.0, 0.0, 0.0, 0.0, 0.0, 1.6209946426482337E9, 2021-05-14 14:17:22.648
95.0, -142.64913940429688, -31.78915023803711, -7.3657331466674805, 93.9051513671875, 0.03200000151991844, -0.04800000041723251, 1.055999994277954, 0.0, 0.0, 0.0, 0.0, 0.0, 1.6209946426482337E9, 2021-05-14 14:17:22.648
96.0, -155.98187255859375, -33.48332595825195, -6.370919704437256, 91.41063690185547, 0.03200000151991844, -0.04800000041723251, 1.055999994277954, 0.0, 0.0, 0.0, 0.0, 0.0, 1.620994642648962E9, 2021-05-14 14:17:22.648
96.0, -160.0359344482422, -28.20632553100586, -10.204317092895508, 95.4123306274414, 0.03200000151991844, -0.04800000041723251, 1.055999994277954, 0.0, 0.0, 0.0, 0.0, 0.0, 1.620994642648962E9, 2021-05-14 14:17:22.648
97.0, -155.77244567871094, -27.319969177246094, -11.689057350158691, 110.52526092529297, 0.03200000151991844, -0.04800000041723251, 1.055999994277954, 0.0, 0.0, 0.0, 0.0, 0.0, 1.62099464266248E9, 2021-05-14 14:17:22.662
97.0, -159.04859924316406, -31.725570678710938, -13.704863548278809, 117.51513671875, 0.03200000151991844, -0.04800000041723251, 1.055999994277954, 0.0, 0.0, 0.0, 0.0, 0.0, 1.62099464266248E9, 2021-05-14 14:17:22.662
98.0, -150.75723266601562, -28.797229766845703, -7.941677570343018, 109.62394714355469, 0.03200000151991844, -0.04800000041723251, 1.055999994277954, 0.0, 0.0, 0.0, 0.0, 0.0, 1.6209946426781821E9, 2021-05-14 14:17:22.678
98.0, -152.29808044433594, -38.01234436035156, -13.615105628967285, 104.7321548461914, 0.03200000151991844, -0.04800000041723251, 1.055999994277954, 0.0, 0.0, 0.0, 0.0, 0.0, 1.6209946426781821E9, 2021-05-14 14:17:22.678
99.0, -151.3369140625, -33.46088409423828, -9.957483291625977, 110.29338836669922, 0.03200000151991844, -0.04800000041723251, 1.055999994277954, 0.0, 0.0, 0.0, 0.0, 0.0, 1.6209946426788783E9, 2021-05-14 14:17:22.678
99.0, -149.9456787109375, -35.40937423706055, -12.283700942993164, 112.30171966552734, 0.03200000151991844, -0.04800000041723251, 1.055999994277954, 0.0, 0.0, 0.0, 0.0, 0.0, 1.6209946426788783E9, 2021-05-14 14:17:22.678
100.0, -149.93446350097656, -34.0555305480957, -5.813674449920654, 113.7191390991211, 0.03200000151991844, -0.04800000041723251, 1.055999994277954, 0.0, 0.0, 0.0, 0.0, 0.0, 1.6209946426932745E9, 2021-05-14 14:17:22.693
100.0, -153.40509033203125, -37.686973571777344, -8.08005428314209, 106.19819641113281, 0.03200000151991844, -0.04800000041723251, 1.055999994277954, 0.0, 0.0, 0.0, 0.0, 0.0, 1.6209946426932745E9, 2021-05-14 14:17:22.693
0.0, -162.15084838867188, -37.50558853149414, -11.210350036621094, 106.10469818115234, 0.03200000151991844, -0.04800000041723251, 1.055999994277954, 0.0, 0.0, 0.0, 0.0, 0.0, 1.6209946426939194E9, 2021-05-14 14:17:22.693
1.0, -148.8854217529297, -33.11494445800781, -10.997176170349121, 115.59656524658203, 0.03200000151991844, -0.04800000041723251, 1.055999994277954, 0.0, 0.0, 0.0, 0.0, 0.0, 1.620994642707464E9, 2021-05-14 14:17:22.707
1.0, -154.0689239501953, -34.846519470214844, -8.098752975463867, 108.28132629394531, 0.03200000151991844, -0.04800000041723251, 1.055999994277954, 0.0, 0.0, 0.0, 0.0, 0.0, 1.620994642707464E9, 2021-05-14 14:17:22.707
2.0, -151.62303161621094, -42.247779846191406, -15.971242904663086, 99.0699462890625, 0.03200000151991844, -0.04800000041723251, 1.055999994277954, 0.0, 0.0, 0.0, 0.0, 0.0, 1.620994642723878E9, 2021-05-14 14:17:22.723
2.0, -152.1466064453125, -34.618385314941406, -16.109619140625, 102.20772552490234, 0.03200000151991844, -0.04800000041723251, 1.055999994277954, 0.0, 0.0, 0.0, 0.0, 0.0, 1.620994642723878E9, 2021-05-14 14:17:22.723
3.0, -149.42022705078125, -29.715375900268555, -17.624279022216797, 108.53937530517578, 0.03200000151991844, -0.04800000041723251, 1.055999994277954, 0.0, 0.0, 0.0, 0.0, 0.0, 1.620994642724585E9, 2021-05-14 14:17:22.724
3.0, -155.31056213378906, -35.5122184753418, -16.797760009765625, 100.47615051269531, 0.03200000151991844, -0.04800000041723251, 1.055999994277954, 0.0, 0.0, 0.0, 0.0, 0.0, 1.620994642724585E9, 2021-05-14 14:17:22.724
4.0, -153.31346130371094, -33.1224250793457, -18.56673240661621, 92.12495422363281, 0.03200000151991844, -0.04800000041723251, 1.055999994277954, 0.0, 0.0, 0.0, 0.0, 0.0, 1.620994642737468E9, 2021-05-14 14:17:22.737
4.0, -159.50672912597656, -28.67942237854004, -17.530780792236328, 83.05569458007812, 0.03200000151991844, -0.04800000041723251, 1.055999994277954, 0.0, 0.0, 0.0, 0.0, 0.0, 1.620994642737468E9, 2021-05-14 14:17:22.737
5.0, -157.30018615722656, -24.442115783691406, -16.453689575195312, 91.81454467773438, 0.03200000151991844, -0.04800000041723251, 1.055999994277954, 0.0, 0.0, 0.0, 0.0, 0.0, 1.620994642753214E9, 2021-05-14 14:17:22.753
5.0, -153.45932006835938, -21.05002784729004, -9.216983795166016, 89.48458862304688, 0.03200000151991844, -0.04800000041723251, 1.055999994277954, 0.0, 0.0, 0.0, 0.0, 0.0, 1.620994642753214E9, 2021-05-14 14:17:22.753
6.0, -151.90725708007812, -33.62731170654297, -8.723316192626953, 87.05364990234375, 0.03200000151991844, -0.04800000041723251, 1.055999994277954, 0.0, 0.0, 0.0, 0.0, 0.0, 1.6209946427539425E9, 2021-05-14 14:17:22.753
6.0, -149.54737854003906, -27.819246292114258, -6.382139205932617, 97.69740295410156, 0.03200000151991844, -0.04800000041723251, 1.055999994277954, 0.0, 0.0, 0.0, 0.0, 0.0, 1.6209946427539425E9, 2021-05-14 14:17:22.753
7.0, -148.0364532470703, -16.15823745727539, -5.3835859298706055, 109.09661865234375, 0.03200000151991844, -0.04800000041723251, 1.055999994277954, 0.0, 0.0, 0.0, 0.0, 0.0, 1.6209946427674613E9, 2021-05-14 14:17:22.767
7.0, -151.57814025878906, -22.16451644897461, -8.543801307678223, 108.39726257324219, 0.03200000151991844, -0.04800000041723251, 1.055999994277954, 0.0, 0.0, 0.0, 0.0, 0.0, 1.6209946427674613E9, 2021-05-14 14:17:22.767
8.0, -148.32443237304688, -36.652889251708984, -16.386371612548828, 99.7693099975586, 0.03200000151991844, -0.04800000041723251, 1.055999994277954, 0.0, 0.0, 0.0, 0.0, 0.0, 1.6209946427832894E9, 2021-05-14 14:17:22.783
8.0, -148.7283477783203, -32.95412826538086, -12.930704116821289, 107.12195587158203, 0.03200000151991844, -0.04800000041723251, 1.055999994277954, 0.0, 0.0, 0.0, 0.0, 0.0, 1.6209946427832894E9, 2021-05-14 14:17:22.783
9.0, -158.45582580566406, -34.62586212158203, -14.351865768432617, 115.99673461914062, 0.03200000151991844, -0.04800000041723251, 1.055999994277954, 0.0, 0.0, 0.0, 0.0, 0.0, 1.6209946427840383E9, 2021-05-14 14:17:22.784
9.0, -161.9451446533203, -34.322933197021484, -11.812474250793457, 109.60150909423828, 0.03200000151991844, -0.04800000041723251, 1.055999994277954, 0.0, 0.0, 0.0, 0.0, 0.0, 1.6209946427840383E9, 2021-05-14 14:17:22.784
10.0, -154.62615966796875, -35.64311599731445, -10.387572288513184, 106.32161712646484, 0.03200000151991844, -0.04800000041723251, 1.055999994277954, 0.0, 0.0, 0.0, 0.0, 0.0, 1.6209946427975776E9, 2021-05-14 14:17:22.797
10.0, -149.03128051757812, -31.0804386138916, -6.086687088012695, 112.55976867675781, 0.03200000151991844, -0.04800000041723251, 1.055999994277954, 0.0, 0.0, 0.0, 0.0, 0.0, 1.6209946427975776E9, 2021-05-14 14:17:22.797
11.0, -142.75946044921875, -36.26768112182617, -5.076914310455322, 121.07926177978516, 0.03200000151991844, -0.04800000041723251, 1.055999994277954, 0.0, 0.0, 0.0, 0.0, 0.0, 1.6209946428131924E9, 2021-05-14 14:17:22.813
11.0, -146.9818115234375, -39.51017379760742, -10.481069564819336, 111.3891830444336, 0.03200000151991844, -0.04800000041723251, 1.055999994277954, 0.0, 0.0, 0.0, 0.0, 0.0, 1.6209946428131924E9, 2021-05-14 14:17:22.813
12.0, -141.5103302001953, -39.40545654296875, -6.988003253936768, 99.24946594238281, 0.03200000151991844, -0.04800000041723251, 1.055999994277954, 0.0, 0.0, 0.0, 0.0, 0.0, 1.6209946428139687E9, 2021-05-14 14:17:22.813
12.0, -149.0163116455078, -40.950035095214844, -10.002362251281738, 93.55359649658203, 0.03200000151991844, -0.04800000041723251, 1.055999994277954, 0.0, 0.0, 0.0, 0.0, 0.0, 1.6209946428139687E9, 2021-05-14 14:17:22.813
13.0, -146.28619384765625, -23.249088287353516, -12.051827430725098, 97.420654296875, 0.03200000151991844, -0.04800000041723251, 1.055999994277954, 0.0, 0.0, 0.0, 0.0, 0.0, 1.6209946428438413E9, 2021-05-14 14:17:22.843
13.0, -154.66729736328125, -29.390003204345703, -9.830327033996582, 86.29444885253906, 0.03200000151991844, -0.04800000041723251, 1.055999994277954, 0.0, 0.0, 0.0, 0.0, 0.0, 1.6209946428438413E9, 2021-05-14 14:17:22.843
14.0, -152.73004150390625, -24.917083740234375, -11.116852760314941, 72.97666931152344, 0.03200000151991844, -0.04800000041723251, 1.055999994277954, 0.0, 0.0, 0.0, 0.0, 0.0, 1.6209946428445685E9, 2021-05-14 14:17:22.844
14.0, -153.90435791015625, -19.438129425048828, -12.575413703918457, 80.3779296875, 0.03200000151991844, -0.04800000041723251, 1.055999994277954, 0.0, 0.0, 0.0, 0.0, 0.0, 1.6209946428445685E9, 2021-05-14 14:17:22.844
15.0, -154.31948852539062, -17.983308792114258, -6.774828910827637, 88.38505554199219, 0.03200000151991844, -0.04800000041723251, 1.055999994277954, 0.0, 0.0, 0.0, 0.0, 0.0, 1.620994642845334E9, 2021-05-14 14:17:22.845
15.0, -152.03814697265625, -23.4809627532959, -9.205763816833496, 88.84132385253906, 0.03200000151991844, -0.04800000041723251, 1.055999994277954, 0.0, 0.0, 0.0, 0.0, 0.0, 1.620994642845334E9, 2021-05-14 14:17:22.845
16.0, -157.2440948486328, -26.076452255249023, -7.971596717834473, 88.29904174804688, 0.03200000151991844, -0.04800000041723251, 1.055999994277954, 0.0, 0.0, 0.0, 0.0, 0.0, 1.6209946428729231E9, 2021-05-14 14:17:22.872
16.0, -156.58961486816406, -23.447301864624023, -14.037714958190918, 97.4393539428711, 0.03200000151991844, -0.04800000041723251, 1.055999994277954, 0.0, 0.0, 0.0, 0.0, 0.0, 1.6209946428729231E9, 2021-05-14 14:17:22.872
17.0, -152.04563903808594, -24.116744995117188, -13.143877983093262, 105.65217590332031, 0.03200000151991844, -0.04800000041723251, 1.055999994277954, 0.0, 0.0, 0.0, 0.0, 0.0, 1.620994642889646E9, 2021-05-14 14:17:22.889
17.0, -153.06661987304688, -32.97282791137695, -14.591219902038574, 107.5370864868164, 0.03200000151991844, -0.04800000041723251, 1.055999994277954, 0.0, 0.0, 0.0, 0.0, 0.0, 1.620994642889646E9, 2021-05-14 14:17:22.889
18.0, -160.01162719726562, -38.807071685791016, -19.7074031829834, 101.26152801513672, 0.03200000151991844, -0.04800000041723251, 1.055999994277954, 0.0, 0.0, 0.0, 0.0, 0.0, 1.6209946428903449E9, 2021-05-14 14:17:22.890
18.0, -151.15927124023438, -33.57869338989258, -16.3265323638916, 108.27010345458984, 0.03200000151991844, -0.04800000041723251, 1.055999994277954, 0.0, 0.0, 0.0, 0.0, 0.0, 1.6209946428903449E9, 2021-05-14 14:17:22.890
19.0, -152.9993133544922, -35.24668884277344, -14.808134078979492, 120.57063293457031, 0.03200000151991844, -0.04800000041723251, 1.055999994277954, 0.0, 0.0, 0.0, 0.0, 0.0, 1.62099464289109E9, 2021-05-14 14:17:22.891
19.0, -150.72171020507812, -37.01192092895508, -12.235082626342773, 113.27783203125, 0.03200000151991844, -0.04800000041723251, 1.055999994277954, 0.0, 0.0, 0.0, 0.0, 0.0, 1.62099464289109E9, 2021-05-14 14:17:22.891
20.0, -148.54135131835938, -37.662662506103516, -6.288641929626465, 112.73554229736328, 0.03200000151991844, -0.04800000041723251, 1.055999994277954, 0.0, 0.0, 0.0, 0.0, 0.0, 1.6209946428918128E9, 2021-05-14 14:17:22.891
20.0, -149.1846160888672, -33.38795852661133, -10.275375366210938, 112.58969116210938, 0.03200000151991844, -0.04800000041723251, 1.055999994277954, 0.0, 0.0, 0.0, 0.0, 0.0, 1.6209946428918128E9, 2021-05-14 14:17:22.891
21.0, -141.02040100097656, -36.18914031982422, -5.125533103942871, 116.80081176757812, 0.03200000151991844, -0.04800000041723251, 1.055999994277954, 0.0, 0.0, 0.0, 0.0, 0.0, 1.6209946429024727E9, 2021-05-14 14:17:22.902
21.0, -141.39439392089844, -33.133644104003906, -10.858799934387207, 100.71550750732422, 0.03200000151991844, -0.04800000041723251, 1.055999994277954, 0.0, 0.0, 0.0, 0.0, 0.0, 1.6209946429024727E9, 2021-05-14 14:17:22.902
22.0, -142.5687255859375, -35.93482971191406, -20.388065338134766, 84.98175048828125, 0.03200000151991844, -0.04800000041723251, 1.055999994277954, 0.0, 0.0, 0.0, 0.0, 0.0, 1.6209946429339275E9, 2021-05-14 14:17:22.933
22.0, -148.64981079101562, -27.931442260742188, -17.186710357666016, 80.42280578613281, 0.03200000151991844, -0.04800000041723251, 1.055999994277954, 0.0, 0.0, 0.0, 0.0, 0.0, 1.6209946429339275E9, 2021-05-14 14:17:22.933
23.0, -139.18411254882812, -23.06209373474121, -2.9376914501190186, 83.3287124633789, 0.03200000151991844, -0.04800000041723251, 1.055999994277954, 0.0, 0.0, 0.0, 0.0, 0.0, 1.6209946429346633E9, 2021-05-14 14:17:22.934
23.0, -144.4723358154297, -18.959423065185547, -5.600500106811523, 79.16246032714844, 0.03200000151991844, -0.04800000041723251, 1.055999994277954, 0.0, 0.0, 0.0, 0.0, 0.0, 1.6209946429346633E9, 2021-05-14 14:17:22.934
24.0, -154.88421630859375, -25.066679000854492, -8.813074111938477, 72.19503021240234, 0.03200000151991844, -0.04800000041723251, 1.055999994277954, 0.0, 0.0, 0.0, 0.0, 0.0, 1.6209946429353857E9, 2021-05-14 14:17:22.935
24.0, -161.4776611328125, -17.964609146118164, -11.113112449645996, 81.42510223388672, 0.03200000151991844, -0.04800000041723251, 1.055999994277954, 0.0, 0.0, 0.0, 0.0, 0.0, 1.6209946429353857E9, 2021-05-14 14:17:22.935
25.0, -158.48199462890625, -21.652151107788086, -12.586633682250977, 94.54467010498047, 0.03200000151991844, -0.04800000041723251, 1.055999994277954, 0.0, 0.0, 0.0, 0.0, 0.0, 1.620994642947447E9, 2021-05-14 14:17:22.947
25.0, -152.49815368652344, -19.99537467956543, -9.448857307434082, 106.14958190917969, 0.03200000151991844, -0.04800000041723251, 1.055999994277954, 0.0, 0.0, 0.0, 0.0, 0.0, 1.620994642947447E9, 2021-05-14 14:17:22.947
26.0, -159.83584594726562, -27.52753448486328, -16.939876556396484, 100.56217193603516, 0.03200000151991844, -0.04800000041723251, 1.055999994277954, 0.0, 0.0, 0.0, 0.0, 0.0, 1.6209946429636548E9, 2021-05-14 14:17:22.963
26.0, -157.99208068847656, -27.501354217529297, -18.989341735839844, 107.60066223144531, 0.03200000151991844, -0.04800000041723251, 1.055999994277954, 0.0, 0.0, 0.0, 0.0, 0.0, 1.6209946429636548E9, 2021-05-14 14:17:22.963
27.0, -149.53616333007812, -31.518007278442383, -23.724056243896484, 116.22486877441406, 0.03200000151991844, -0.04800000041723251, 1.055999994277954, 0.0, 0.0, 0.0, 0.0, 0.0, 1.620994642978199E9, 2021-05-14 14:17:22.978
27.0, -161.36172485351562, -29.9248104095459, -20.287086486816406, 112.95246124267578, 0.03200000151991844, -0.04800000041723251, 1.055999994277954, 0.0, 0.0, 0.0, 0.0, 0.0, 1.620994642978199E9, 2021-05-14 14:17:22.978
28.0, -157.77890014648438, -36.34621810913086, -15.765548706054688, 110.03907775878906, 0.03200000151991844, -0.04800000041723251, 1.055999994277954, 0.0, 0.0, 0.0, 0.0, 0.0, 1.620994642979022E9, 2021-05-14 14:17:22.979
28.0, -151.5145721435547, -41.69801330566406, -16.988494873046875, 118.02750396728516, 0.03200000151991844, -0.04800000041723251, 1.055999994277954, 0.0, 0.0, 0.0, 0.0, 0.0, 1.620994642979022E9, 2021-05-14 14:17:22.979
29.0, -146.0879669189453, -35.0484733581543, -16.154497146606445, 123.19230651855469, 0.03200000151991844, -0.04800000041723251, 1.055999994277954, 0.0, 0.0, 0.0, 0.0, 0.0, 1.6209946429931731E9, 2021-05-14 14:17:22.993
29.0, -144.47607421875, -29.614397048950195, -16.95109748840332, 113.360107421875, 0.03200000151991844, -0.04800000041723251, 1.055999994277954, 0.0, 0.0, 0.0, 0.0, 0.0, 1.6209946429931731E9, 2021-05-14 14:17:22.993
30.0, -157.38247680664062, -38.466739654541016, -25.062938690185547, 99.39532470703125, 0.03200000151991844, -0.04800000041723251, 1.055999994277954, 0.0, 0.0, 0.0, 0.0, 0.0, 1.620994642993921E9, 2021-05-14 14:17:22.993
30.0, -152.79360961914062, -35.66181564331055, -21.487594604492188, 98.72587585449219, 0.03200000151991844, -0.04800000041723251, 1.055999994277954, 0.0, 0.0, 0.0, 0.0, 0.0, 1.620994642993921E9, 2021-05-14 14:17:22.993
31.0, -143.35411071777344, -30.71392822265625, -13.532828330993652, 102.61163330078125, 0.03200000151991844, -0.04800000041723251, 1.055999994277954, 0.0, 0.0, 0.0, 0.0, 0.0, 1.620994643023844E9, 2021-05-14 14:17:23.023
31.0, -146.82847595214844, -31.888256072998047, -13.308433532714844, 91.33209991455078, 0.03200000151991844, -0.04800000041723251, 1.055999994277954, 0.0, 0.0, 0.0, 0.0, 0.0, 1.620994643023844E9, 2021-05-14 14:17:23.023
32.0, -141.92172241210938, -29.049673080444336, -12.79980754852295, 72.95423126220703, 0.03200000151991844, -0.04800000041723251, 1.055999994277954, 0.0, 0.0, 0.0, 0.0, 0.0, 1.6209946430245757E9, 2021-05-14 14:17:23.024
32.0, -146.49935913085938, -28.077299118041992, -14.688457489013672, 70.02588653564453, 0.03200000151991844, -0.04800000041723251, 1.055999994277954, 0.0, 0.0, 0.0, 0.0, 0.0, 1.6209946430245757E9, 2021-05-14 14:17:23.024
33.0, -144.6892547607422, -24.15040397644043, -18.050626754760742, 72.22494506835938, 0.03200000151991844, -0.04800000041723251, 1.055999994277954, 0.0, 0.0, 0.0, 0.0, 0.0, 1.6209946430253441E9, 2021-05-14 14:17:23.025
33.0, -143.69068908691406, -21.992481231689453, -7.68736457824707, 74.19587707519531, 0.03200000151991844, -0.04800000041723251, 1.055999994277954, 0.0, 0.0, 0.0, 0.0, 0.0, 1.6209946430253441E9, 2021-05-14 14:17:23.025
34.0, -146.6452178955078, -32.4006233215332, -8.158592224121094, 78.87822723388672, 0.03200000151991844, -0.04800000041723251, 1.055999994277954, 0.0, 0.0, 0.0, 0.0, 0.0, 1.6209946430375676E9, 2021-05-14 14:17:23.037
34.0, -149.7717742919922, -33.889102935791016, -7.085240364074707, 96.11917114257812, 0.03200000151991844, -0.04800000041723251, 1.055999994277954, 0.0, 0.0, 0.0, 0.0, 0.0, 1.6209946430375676E9, 2021-05-14 14:17:23.037
35.0, -143.4588165283203, -25.156436920166016, -7.4480109214782715, 112.79537963867188, 0.03200000151991844, -0.04800000041723251, 1.055999994277954, 0.0, 0.0, 0.0, 0.0, 0.0, 1.620994643053166E9, 2021-05-14 14:17:23.053
35.0, -148.15988159179688, -29.778953552246094, -7.605086326599121, 111.40788269042969, 0.03200000151991844, -0.04800000041723251, 1.055999994277954, 0.0, 0.0, 0.0, 0.0, 0.0, 1.620994643053166E9, 2021-05-14 14:17:23.053
36.0, -153.27606201171875, -41.36142349243164, -14.172350883483887, 113.02351379394531, 0.03200000151991844, -0.04800000041723251, 1.055999994277954, 0.0, 0.0, 0.0, 0.0, 0.0, 1.62099464305391E9, 2021-05-14 14:17:23.053
36.0, -151.23033142089844, -36.38735580444336, -11.917191505432129, 116.4343032836914, 0.03200000151991844, -0.04800000041723251, 1.055999994277954, 0.0, 0.0, 0.0, 0.0, 0.0, 1.62099464305391E9, 2021-05-14 14:17:23.053
37.0, -150.57958984375, -38.01421356201172, -15.683270454406738, 121.12039947509766, 0.03200000151991844, -0.04800000041723251, 1.055999994277954, 0.0, 0.0, 0.0, 0.0, 0.0, 1.62099464308398E9, 2021-05-14 14:17:23.083
37.0, -145.97576904296875, -39.26333999633789, -16.29287338256836, 113.27409362792969, 0.03200000151991844, -0.04800000041723251, 1.055999994277954, 0.0, 0.0, 0.0, 0.0, 0.0, 1.62099464308398E9, 2021-05-14 14:17:23.083
38.0, -148.5039520263672, -46.52622604370117, -23.02843475341797, 114.77378845214844, 0.03200000151991844, -0.04800000041723251, 1.055999994277954, 0.0, 0.0, 0.0, 0.0, 0.0, 1.6209946430847182E9, 2021-05-14 14:17:23.084
38.0, -155.01885986328125, -44.07659149169922, -24.868465423583984, 105.99998474121094, 0.03200000151991844, -0.04800000041723251, 1.055999994277954, 0.0, 0.0, 0.0, 0.0, 0.0, 1.6209946430847182E9, 2021-05-14 14:17:23.084
39.0, -155.6172332763672, -39.887901306152344, -18.450796127319336, 115.78356170654297, 0.03200000151991844, -0.04800000041723251, 1.055999994277954, 0.0, 0.0, 0.0, 0.0, 0.0, 1.6209946430854008E9, 2021-05-14 14:17:23.085
39.0, -157.38995361328125, -37.96185302734375, -22.41135025024414, 106.00746154785156, 0.03200000151991844, -0.04800000041723251, 1.055999994277954, 0.0, 0.0, 0.0, 0.0, 0.0, 1.6209946430854008E9, 2021-05-14 14:17:23.085
40.0, -163.81509399414062, -44.12894821166992, -34.95497512817383, 84.22254943847656, 0.03200000151991844, -0.04800000041723251, 1.055999994277954, 0.0, 0.0, 0.0, 0.0, 0.0, 1.62099464309758E9, 2021-05-14 14:17:23.097
40.0, -163.11573791503906, -35.95726776123047, -27.325578689575195, 83.64659881591797, 0.03200000151991844, -0.04800000041723251, 1.055999994277954, 0.0, 0.0, 0.0, 0.0, 0.0, 1.62099464309758E9, 2021-05-14 14:17:23.097
41.0, -146.15155029296875, -28.563486099243164, -15.279361724853516, 92.89537811279297, 0.03200000151991844, -0.04800000041723251, 1.055999994277954, 0.0, 0.0, 0.0, 0.0, 0.0, 1.6209946431133776E9, 2021-05-14 14:17:23.113
41.0, -153.31719970703125, -33.73202896118164, -17.583139419555664, 73.78448486328125, 0.03200000151991844, -0.04800000041723251, 1.055999994277954, 0.0, 0.0, 0.0, 0.0, 0.0, 1.6209946431133776E9, 2021-05-14 14:17:23.113
42.0, -146.32733154296875, -33.30567932128906, -12.34354019165039, 63.3464241027832, 0.03200000151991844, -0.04800000041723251, 1.055999994277954, 0.0, 0.0, 0.0, 0.0, 0.0, 1.6209946431140463E9, 2021-05-14 14:17:23.114
42.0, -139.5955047607422, -36.88102340698242, -19.09779930114746, 69.01985168457031, 0.03200000151991844, -0.04800000041723251, 1.055999994277954, 0.0, 0.0, 0.0, 0.0, 0.0, 1.6209946431140463E9, 2021-05-14 14:17:23.114
43.0, -131.23309326171875, -30.26888084411621, -2.6908581256866455, 86.5412826538086, 0.03200000151991844, -0.04800000041723251, 1.055999994277954, 0.0, 0.0, 0.0, 0.0, 0.0, 1.6209946431275544E9, 2021-05-14 14:17:23.127
43.0, -129.02655029296875, -37.38591003417969, -3.5360753536224365, 88.84506225585938, 0.03200000151991844, -0.04800000041723251, 1.055999994277954, 0.0, 0.0, 0.0, 0.0, 0.0, 1.6209946431275544E9, 2021-05-14 14:17:23.127
44.0, -141.13633728027344, -39.41667556762695, -7.059061050415039, 90.81224822998047, 0.03200000151991844, -0.04800000041723251, 1.055999994277954, 0.0, 0.0, 0.0, 0.0, 0.0, 1.6209946431432025E9, 2021-05-14 14:17:23.143
44.0, -144.94729614257812, -45.3481559753418, -15.507494926452637, 105.00517272949219, 0.03200000151991844, -0.04800000041723251, 1.055999994277954, 0.0, 0.0, 0.0, 0.0, 0.0, 1.6209946431432025E9, 2021-05-14 14:17:23.143
45.0, -141.40936279296875, -39.47651290893555, -10.55960750579834, 118.56230926513672, 0.03200000151991844, -0.04800000041723251, 1.055999994277954, 0.0, 0.0, 0.0, 0.0, 0.0, 1.6209946431439173E9, 2021-05-14 14:17:23.143
45.0, -146.589111328125, -44.07659149169922, -16.93613624572754, 118.3005142211914, 0.03200000151991844, -0.04800000041723251, 1.055999994277954, 0.0, 0.0, 0.0, 0.0, 0.0, 1.6209946431439173E9, 2021-05-14 14:17:23.143
46.0, -154.71592712402344, -54.499691009521484, -23.933488845825195, 107.35382843017578, 0.03200000151991844, -0.04800000041723251, 1.055999994277954, 0.0, 0.0, 0.0, 0.0, 0.0, 1.620994643157482E9, 2021-05-14 14:17:23.157
46.0, -143.6345977783203, -46.35792922973633, -20.8518123626709, 112.90010070800781, 0.03200000151991844, -0.04800000041723251, 1.055999994277954, 0.0, 0.0, 0.0, 0.0, 0.0, 1.620994643157482E9, 2021-05-14 14:17:23.157
47.0, -143.94500732421875, -42.70404815673828, -23.750234603881836, 117.00650787353516, 0.03200000151991844, -0.04800000041723251, 1.055999994277954, 0.0, 0.0, 0.0, 0.0, 0.0, 1.6209946431732807E9, 2021-05-14 14:17:23.173
47.0, -150.9984588623047, -50.91312789916992, -17.75517463684082, 116.96537017822266, 0.03200000151991844, -0.04800000041723251, 1.055999994277954, 0.0, 0.0, 0.0, 0.0, 0.0, 1.6209946431732807E9, 2021-05-14 14:17:23.173
48.0, -145.4447021484375, -51.58631134033203, -17.654197692871094, 111.98382568359375, 0.03200000151991844, -0.04800000041723251, 1.055999994277954, 0.0, 0.0, 0.0, 0.0, 0.0, 1.620994643173906E9, 2021-05-14 14:17:23.173
48.0, -148.6872100830078, -54.21171951293945, -20.649858474731445, 108.99938201904297, 0.03200000151991844, -0.04800000041723251, 1.055999994277954, 0.0, 0.0, 0.0, 0.0, 0.0, 1.620994643173906E9, 2021-05-14 14:17:23.173
49.0, -145.04454040527344, -46.013858795166016, -15.40651798248291, 113.92483520507812, 0.03200000151991844, -0.04800000041723251, 1.055999994277954, 0.0, 0.0, 0.0, 0.0, 0.0, 1.620994643203718E9, 2021-05-14 14:17:23.203
49.0, -137.80035400390625, -40.68450164794922, -12.53801441192627, 101.2129135131836, 0.03200000151991844, -0.04800000041723251, 1.055999994277954, 0.0, 0.0, 0.0, 0.0, 0.0, 1.620994643203718E9, 2021-05-14 14:17:23.203
50.0, -142.13490295410156, -46.60476303100586, -10.454890251159668, 86.14111328125, 0.03200000151991844, -0.04800000041723251, 1.055999994277954, 0.0, 0.0, 0.0, 0.0, 0.0, 1.6209946432043936E9, 2021-05-14 14:17:23.204
50.0, -140.0368194580078, -38.45926284790039, -8.382986068725586, 88.3252182006836, 0.03200000151991844, -0.04800000041723251, 1.055999994277954, 0.0, 0.0, 0.0, 0.0, 0.0, 1.6209946432043936E9, 2021-05-14 14:17:23.204
51.0, -143.3765411376953, -34.120975494384766, -2.081254243850708, 85.74468994140625, 0.03200000151991844, -0.04800000041723251, 1.055999994277954, 0.0, 0.0, 0.0, 0.0, 0.0, 1.6209946432183976E9, 2021-05-14 14:17:23.218
51.0, -136.07252502441406, -37.3185920715332, -7.717283725738525, 83.86351776123047, 0.03200000151991844, -0.04800000041723251, 1.055999994277954, 0.0, 0.0, 0.0, 0.0, 0.0, 1.6209946432183976E9, 2021-05-14 14:17:23.218
52.0, -140.04055786132812, -42.954620361328125, 2.8329741954803467, 83.35488891601562, 0.03200000151991844, -0.04800000041723251, 1.055999994277954, 0.0, 0.0, 0.0, 0.0, 0.0, 1.6209946432190723E9, 2021-05-14 14:17:23.219
52.0, -135.01412963867188, -35.0596923828125, -0.652612566947937, 93.74433135986328, 0.03200000151991844, -0.04800000041723251, 1.055999994277954, 0.0, 0.0, 0.0, 0.0, 0.0, 1.6209946432190723E9, 2021-05-14 14:17:23.219
53.0, -135.8219451904297, -28.817798614501953, -1.157499074935913, 102.06935119628906, 0.03200000151991844, -0.04800000041723251, 1.055999994277954, 0.0, 0.0, 0.0, 0.0, 0.0, 1.6209946432333655E9, 2021-05-14 14:17:23.233
53.0, -129.28086853027344, -28.836498260498047, 6.296121597290039, 109.63516998291016, 0.03200000151991844, -0.04800000041723251, 1.055999994277954, 0.0, 0.0, 0.0, 0.0, 0.0, 1.6209946432333655E9, 2021-05-14 14:17:23.233
54.0, -139.9844512939453, -47.31160354614258, -1.643686056137085, 100.27420043945312, 0.03200000151991844, -0.04800000041723251, 1.055999994277954, 0.0, 0.0, 0.0, 0.0, 0.0, 1.6209946432341132E9, 2021-05-14 14:17:23.234
54.0, -144.04225158691406, -44.52164077758789, -11.591819763183594, 105.24078369140625, 0.03200000151991844, -0.04800000041723251, 1.055999994277954, 0.0, 0.0, 0.0, 0.0, 0.0, 1.6209946432341132E9, 2021-05-14 14:17:23.234
55.0, -131.78285217285156, -40.72563934326172, -5.74635648727417, 115.69754791259766, 0.03200000151991844, -0.04800000041723251, 1.055999994277954, 0.0, 0.0, 0.0, 0.0, 0.0, 1.6209946432475364E9, 2021-05-14 14:17:23.247
55.0, -142.7332763671875, -51.272159576416016, -5.637899398803711, 114.1043472290039, 0.03200000151991844, -0.04800000041723251, 1.055999994277954, 0.0, 0.0, 0.0, 0.0, 0.0, 1.6209946432475364E9, 2021-05-14 14:17:23.247
56.0, -149.5997314453125, -52.027618408203125, -18.200223922729492, 102.4021987915039, 0.03200000151991844, -0.04800000041723251, 1.055999994277954, 0.0, 0.0, 0.0, 0.0, 0.0, 1.6209946432632883E9, 2021-05-14 14:17:23.263
56.0, -149.135986328125, -49.75749969482422, -21.730688095092773, 102.26382446289062, 0.03200000151991844, -0.04800000041723251, 1.055999994277954, 0.0, 0.0, 0.0, 0.0, 0.0, 1.6209946432632883E9, 2021-05-14 14:17:23.263
57.0, -149.26315307617188, -43.41462707519531, -23.615598678588867, 105.80924987792969, 0.03200000151991844, -0.04800000041723251, 1.055999994277954, 0.0, 0.0, 0.0, 0.0, 0.0, 1.6209946432640104E9, 2021-05-14 14:17:23.264
57.0, -149.54737854003906, -45.767024993896484, -18.989341735839844, 108.19530487060547, 0.03200000151991844, -0.04800000041723251, 1.055999994277954, 0.0, 0.0, 0.0, 0.0, 0.0, 1.6209946432640104E9, 2021-05-14 14:17:23.264
58.0, -153.11151123046875, -50.011810302734375, -24.41219711303711, 94.5521469116211, 0.03200000151991844, -0.04800000041723251, 1.055999994277954, 0.0, 0.0, 0.0, 0.0, 0.0, 1.6209946432775495E9, 2021-05-14 14:17:23.277
58.0, -154.72340393066406, -49.398468017578125, -25.407011032104492, 86.51884460449219, 0.03200000151991844, -0.04800000041723251, 1.055999994277954, 0.0, 0.0, 0.0, 0.0, 0.0, 1.6209946432775495E9, 2021-05-14 14:17:23.277
59.0, -149.86900329589844, -33.76194763183594, -16.109619140625, 100.03858184814453, 0.03200000151991844, -0.04800000041723251, 1.055999994277954, 0.0, 0.0, 0.0, 0.0, 0.0, 1.6209946432932854E9, 2021-05-14 14:17:23.293
59.0, -150.7030029296875, -40.69572067260742, -9.456336975097656, 91.35079956054688, 0.03200000151991844, -0.04800000041723251, 1.055999994277954, 0.0, 0.0, 0.0, 0.0, 0.0, 1.6209946432932854E9, 2021-05-14 14:17:23.293
60.0, -145.5382080078125, -40.50872802734375, -7.65370512008667, 89.91093444824219, 0.03200000151991844, -0.04800000041723251, 1.055999994277954, 0.0, 0.0, 0.0, 0.0, 0.0, 1.6209946432940247E9, 2021-05-14 14:17:23.294
60.0, -139.8535614013672, -39.139923095703125, -8.061354637145996, 96.78861236572266, 0.03200000151991844, -0.04800000041723251, 1.055999994277954, 0.0, 0.0, 0.0, 0.0, 0.0, 1.6209946432940247E9, 2021-05-14 14:17:23.294
61.0, -131.90626525878906, -36.49955368041992, -0.8770065307617188, 103.62140655517578, 0.03200000151991844, -0.04800000041723251, 1.055999994277954, 0.0, 0.0, 0.0, 0.0, 0.0, 1.6209946433076024E9, 2021-05-14 14:17:23.307
61.0, -135.76585388183594, -40.20579528808594, 5.252689361572266, 103.6064453125, 0.03200000151991844, -0.04800000041723251, 1.055999994277954, 0.0, 0.0, 0.0, 0.0, 0.0, 1.6209946433076024E9, 2021-05-14 14:17:23.307
62.0, -131.90626525878906, -42.53575134277344, 2.133612871170044, 100.28167724609375, 0.03200000151991844, -0.04800000041723251, 1.055999994277954, 0.0, 0.0, 0.0, 0.0, 0.0, 1.6209946433232024E9, 2021-05-14 14:17:23.323
62.0, -127.47823333740234, -37.71501922607422, 4.762762546539307, 107.77269744873047, 0.03200000151991844, -0.04800000041723251, 1.055999994277954, 0.0, 0.0, 0.0, 0.0, 0.0, 1.6209946433232024E9, 2021-05-14 14:17:23.323
63.0, -132.0147247314453, -43.923255920410156, 7.227356433868408, 111.58739471435547, 0.03200000151991844, -0.04800000041723251, 1.055999994277954, 0.0, 0.0, 0.0, 0.0, 0.0, 1.620994643323951E9, 2021-05-14 14:17:23.323
63.0, -134.5541229248047, -44.35708236694336, 6.11660623550415, 111.53129577636719, 0.03200000151991844, -0.04800000041723251, 1.055999994277954, 0.0, 0.0, 0.0, 0.0, 0.0, 1.620994643323951E9, 2021-05-14 14:17:23.323
64.0, -139.23648071289062, -54.035945892333984, -5.551881313323975, 101.41860961914062, 0.03200000151991844, -0.04800000041723251, 1.055999994277954, 0.0, 0.0, 0.0, 0.0, 0.0, 1.6209946433376772E9, 2021-05-14 14:17:23.337
64.0, -145.3773956298828, -47.31160354614258, -10.563347816467285, 99.84784698486328, 0.03200000151991844, -0.04800000041723251, 1.055999994277954, 0.0, 0.0, 0.0, 0.0, 0.0, 1.6209946433376772E9, 2021-05-14 14:17:23.337
65.0, -143.2942657470703, -48.47471237182617, -15.694490432739258, 110.4130630493164, 0.03200000151991844, -0.04800000041723251, 1.055999994277954, 0.0, 0.0, 0.0, 0.0, 0.0, 1.6209946433532155E9, 2021-05-14 14:17:23.353
65.0, -146.45074462890625, -46.80671691894531, -18.619091033935547, 103.14643859863281, 0.03200000151991844, -0.04800000041723251, 1.055999994277954, 0.0, 0.0, 0.0, 0.0, 0.0, 1.6209946433532155E9, 2021-05-14 14:17:23.353
66.0, -151.63424682617188, -52.988773345947266, -23.13315200805664, 98.6697769165039, 0.03200000151991844, -0.04800000041723251, 1.055999994277954, 0.0, 0.0, 0.0, 0.0, 0.0, 1.6209946433539596E9, 2021-05-14 14:17:23.353
66.0, -158.71762084960938, -52.09493637084961, -22.60956573486328, 99.31678009033203, 0.03200000151991844, -0.04800000041723251, 1.055999994277954, 0.0, 0.0, 0.0, 0.0, 0.0, 1.6209946433539596E9, 2021-05-14 14:17:23.353
67.0, -145.50828552246094, -51.18614196777344, -17.58687973022461, 102.55553436279297, 0.03200000151991844, -0.04800000041723251, 1.055999994277954, 0.0, 0.0, 0.0, 0.0, 0.0, 1.62099464336751E9, 2021-05-14 14:17:23.367
67.0, -144.10955810546875, -47.43876266479492, -17.923471450805664, 97.66748809814453, 0.03200000151991844, -0.04800000041723251, 1.055999994277954, 0.0, 0.0, 0.0, 0.0, 0.0, 1.62099464336751E9, 2021-05-14 14:17:23.367
68.0, -153.5902099609375, -51.14500045776367, -22.45623016357422, 91.60884857177734, 0.03200000151991844, -0.04800000041723251, 1.055999994277954, 0.0, 0.0, 0.0, 0.0, 0.0, 1.6209946433832707E9, 2021-05-14 14:17:23.383
68.0, -152.07928466796875, -51.96403884887695, -20.459123611450195, 93.56108093261719, 0.03200000151991844, -0.04800000041723251, 1.055999994277954, 0.0, 0.0, 0.0, 0.0, 0.0, 1.6209946433832707E9, 2021-05-14 14:17:23.383
69.0, -141.74594116210938, -54.09578323364258, -8.543801307678223, 114.69525146484375, 0.03200000151991844, -0.04800000041723251, 1.055999994277954, 0.0, 0.0, 0.0, 0.0, 0.0, 1.6209946433841271E9, 2021-05-14 14:17:23.384
69.0, -139.79745483398438, -61.68404006958008, -7.713543891906738, 111.78560638427734, 0.03200000151991844, -0.04800000041723251, 1.055999994277954, 0.0, 0.0, 0.0, 0.0, 0.0, 1.6209946433841271E9, 2021-05-14 14:17:23.384
70.0, -146.6826171875, -51.447933197021484, -17.87485122680664, 92.843017578125, 0.03200000151991844, -0.04800000041723251, 1.055999994277954, 0.0, 0.0, 0.0, 0.0, 0.0, 1.6209946433975613E9, 2021-05-14 14:17:23.397
70.0, -146.9818115234375, -35.52717971801758, -8.304448127746582, 102.52935791015625, 0.03200000151991844, -0.04800000041723251, 1.055999994277954, 0.0, 0.0, 0.0, 0.0, 0.0, 1.6209946433975613E9, 2021-05-14 14:17:23.397
71.0, -143.01751708984375, -28.077299118041992, -7.575167179107666, 112.36903381347656, 0.03200000151991844, -0.04800000041723251, 1.055999994277954, 0.0, 0.0, 0.0, 0.0, 0.0, 1.6209946434280403E9, 2021-05-14 14:17:23.428
71.0, -145.77755737304688, -33.81056594848633, -2.537522077560425, 110.31582641601562, 0.03200000151991844, -0.04800000041723251, 1.055999994277954, 0.0, 0.0, 0.0, 0.0, 0.0, 1.6209946434280403E9, 2021-05-14 14:17:23.428
72.0, -150.2392578125, -33.48893356323242, -5.376106262207031, 100.54721069335938, 0.03200000151991844, -0.04800000041723251, 1.055999994277954, 0.0, 0.0, 0.0, 0.0, 0.0, 1.620994643445223E9, 2021-05-14 14:17:23.445
72.0, -147.41189575195312, -34.786678314208984, -2.4814236164093018, 107.87367248535156, 0.03200000151991844, -0.04800000041723251, 1.055999994277954, 0.0, 0.0, 0.0, 0.0, 0.0, 1.620994643445223E9, 2021-05-14 14:17:23.445
73.0, -137.4076690673828, -33.53007125854492, 1.2360368967056274, 123.99638366699219, 0.03200000151991844, -0.04800000041723251, 1.055999994277954, 0.0, 0.0, 0.0, 0.0, 0.0, 1.620994643445937E9, 2021-05-14 14:17:23.445
73.0, -138.30149841308594, -38.391944885253906, -2.9900500774383545, 118.6408462524414, 0.03200000151991844, -0.04800000041723251, 1.055999994277954, 0.0, 0.0, 0.0, 0.0, 0.0, 1.620994643445937E9, 2021-05-14 14:17:23.445
74.0, -148.1112518310547, -48.51211166381836, -14.209750175476074, 104.7321548461914, 0.03200000151991844, -0.04800000041723251, 1.055999994277954, 0.0, 0.0, 0.0, 0.0, 0.0, 1.6209946434466891E9, 2021-05-14 14:17:23.446
74.0, -152.4832000732422, -47.633235931396484, -16.868818283081055, 108.30750274658203, 0.03200000151991844, -0.04800000041723251, 1.055999994277954, 0.0, 0.0, 0.0, 0.0, 0.0, 1.6209946434466891E9, 2021-05-14 14:17:23.446
75.0, -152.69264221191406, -44.256107330322266, -11.20287036895752, 110.91795349121094, 0.03200000151991844, -0.04800000041723251, 1.055999994277954, 0.0, 0.0, 0.0, 0.0, 0.0, 1.620994643447441E9, 2021-05-14 14:17:23.447
75.0, -151.32009887695312, -42.920963287353516, -12.661431312561035, 110.65242004394531, 0.03200000151991844, -0.04800000041723251, 1.055999994277954, 0.0, 0.0, 0.0, 0.0, 0.0, 1.620994643447441E9, 2021-05-14 14:17:23.447
76.0, -155.77430725097656, -43.93821334838867, -15.40651798248291, 102.23390197753906, 0.03200000151991844, -0.04800000041723251, 1.055999994277954, 0.0, 0.0, 0.0, 0.0, 0.0, 1.620994643457494E9, 2021-05-14 14:17:23.457
76.0, -159.53665161132812, -45.12750244140625, -19.49422836303711, 105.61103820800781, 0.03200000151991844, -0.04800000041723251, 1.055999994277954, 0.0, 0.0, 0.0, 0.0, 0.0, 1.620994643457494E9, 2021-05-14 14:17:23.457
77.0, -155.40406799316406, -50.202545166015625, -13.802101135253906, 108.73011016845703, 0.03200000151991844, -0.04800000041723251, 1.055999994277954, 0.0, 0.0, 0.0, 0.0, 0.0, 1.620994643473254E9, 2021-05-14 14:17:23.473
77.0, -148.6273651123047, -38.75471496582031, -11.797513961791992, 114.09312438964844, 0.03200000151991844, -0.04800000041723251, 1.055999994277954, 0.0, 0.0, 0.0, 0.0, 0.0, 1.620994643473254E9, 2021-05-14 14:17:23.473
78.0, -151.86611938476562, -51.631187438964844, -21.9962215423584, 98.03025817871094, 0.03200000151991844, -0.04800000041723251, 1.055999994277954, 0.0, 0.0, 0.0, 0.0, 0.0, 1.6209946434739509E9, 2021-05-14 14:17:23.473
78.0, -146.9032745361328, -48.459754943847656, -15.234482765197754, 104.82191467285156, 0.03200000151991844, -0.04800000041723251, 1.055999994277954, 0.0, 0.0, 0.0, 0.0, 0.0, 1.6209946434739509E9, 2021-05-14 14:17:23.473
79.0, -144.06842041015625, -39.30821990966797, -11.32254695892334, 109.55663299560547, 0.03200000151991844, -0.04800000041723251, 1.055999994277954, 0.0, 0.0, 0.0, 0.0, 0.0, 1.6209946434875996E9, 2021-05-14 14:17:23.487
79.0, -141.10269165039062, -49.14789581298828, -8.794374465942383, 102.67521667480469, 0.03200000151991844, -0.04800000041723251, 1.055999994277954, 0.0, 0.0, 0.0, 0.0, 0.0, 1.6209946434875996E9, 2021-05-14 14:17:23.487
80.0, -143.372802734375, -39.82058334350586, -3.816567897796631, 103.77848052978516, 0.03200000151991844, -0.04800000041723251, 1.055999994277954, 0.0, 0.0, 0.0, 0.0, 0.0, 1.6209946435033095E9, 2021-05-14 14:17:23.503
80.0, -142.68092346191406, -37.02313995361328, -7.900538444519043, 99.74687194824219, 0.03200000151991844, -0.04800000041723251, 1.055999994277954, 0.0, 0.0, 0.0, 0.0, 0.0, 1.6209946435033095E9, 2021-05-14 14:17:23.503
81.0, -147.97662353515625, -31.67508316040039, -6.363439559936523, 105.60355377197266, 0.03200000151991844, -0.04800000041723251, 1.055999994277954, 0.0, 0.0, 0.0, 0.0, 0.0, 1.620994643504128E9, 2021-05-14 14:17:23.504
81.0, -137.3964385986328, -31.581584930419922, 8.39046573638916, 106.74048614501953, 0.03200000151991844, -0.04800000041723251, 1.055999994277954, 0.0, 0.0, 0.0, 0.0, 0.0, 1.620994643504128E9, 2021-05-14 14:17:23.504
82.0, -146.07675170898438, -34.337890625, 1.755882978439331, 99.71321105957031, 0.03200000151991844, -0.04800000041723251, 1.055999994277954, 0.0, 0.0, 0.0, 0.0, 0.0, 1.6209946435175865E9, 2021-05-14 14:17:23.517
82.0, -151.6379852294922, -40.908897399902344, -7.6649250984191895, 97.09154510498047, 0.03200000151991844, -0.04800000041723251, 1.055999994277954, 0.0, 0.0, 0.0, 0.0, 0.0, 1.6209946435175865E9, 2021-05-14 14:17:23.517
83.0, -146.48814392089844, -30.26140022277832, -1.5988072156906128, 107.84749603271484, 0.03200000151991844, -0.04800000041723251, 1.055999994277954, 0.0, 0.0, 0.0, 0.0, 0.0, 1.620994643564508E9, 2021-05-14 14:17:23.564
83.0, -153.07785034179688, -29.70415496826172, -3.0760676860809326, 104.83687591552734, 0.03200000151991844, -0.04800000041723251, 1.055999994277954, 0.0, 0.0, 0.0, 0.0, 0.0, 1.620994643564508E9, 2021-05-14 14:17:23.564
84.0, -158.3885040283203, -43.87837600708008, -13.084039688110352, 97.85448455810547, 0.03200000151991844, -0.04800000041723251, 1.055999994277954, 0.0, 0.0, 0.0, 0.0, 0.0, 1.6209946435652533E9, 2021-05-14 14:17:23.565
84.0, -158.5904541015625, -40.53490447998047, -7.620046138763428, 107.02471923828125, 0.03200000151991844, -0.04800000041723251, 1.055999994277954, 0.0, 0.0, 0.0, 0.0, 0.0, 1.6209946435652533E9, 2021-05-14 14:17:23.565
85.0, -150.20559692382812, -33.54129409790039, -0.7722893357276917, 122.4518051147461, 0.03200000151991844, -0.04800000041723251, 1.055999994277954, 0.0, 0.0, 0.0, 0.0, 0.0, 1.6209946435659983E9, 2021-05-14 14:17:23.565
85.0, -150.16819763183594, -40.433929443359375, -11.812474250793457, 106.71804809570312, 0.03200000151991844, -0.04800000041723251, 1.055999994277954, 0.0, 0.0, 0.0, 0.0, 0.0, 1.6209946435659983E9, 2021-05-14 14:17:23.565
86.0, -146.23382568359375, -49.18155288696289, -14.419184684753418, 101.18672943115234, 0.03200000151991844, -0.04800000041723251, 1.055999994277954, 0.0, 0.0, 0.0, 0.0, 0.0, 1.6209946435795813E9, 2021-05-14 14:17:23.579
86.0, -148.56752014160156, -45.38181686401367, -14.606179237365723, 104.17864990234375, 0.03200000151991844, -0.04800000041723251, 1.055999994277954, 0.0, 0.0, 0.0, 0.0, 0.0, 1.6209946435795813E9, 2021-05-14 14:17:23.579
87.0, -150.22430419921875, -39.173583984375, -10.641885757446289, 112.6383056640625, 0.03200000151991844, -0.04800000041723251, 1.055999994277954, 0.0, 0.0, 0.0, 0.0, 0.0, 1.6209946435803096E9, 2021-05-14 14:17:23.580
87.0, -146.084228515625, -39.78318405151367, -8.065093994140625, 108.81613159179688, 0.03200000151991844, -0.04800000041723251, 1.055999994277954, 0.0, 0.0, 0.0, 0.0, 0.0, 1.6209946435803096E9, 2021-05-14 14:17:23.580
88.0, -155.22080993652344, -52.28193283081055, -13.73852252960205, 91.4405517578125, 0.03200000151991844, -0.04800000041723251, 1.055999994277954, 0.0, 0.0, 0.0, 0.0, 0.0, 1.620994643581031E9, 2021-05-14 14:17:23.581
88.0, -149.2294921875, -44.25236511230469, -15.081146240234375, 99.74313354492188, 0.03200000151991844, -0.04800000041723251, 1.055999994277954, 0.0, 0.0, 0.0, 0.0, 0.0, 1.620994643581031E9, 2021-05-14 14:17:23.581
89.0, -140.2350311279297, -43.4221076965332, -6.905725479125977, 104.88923645019531, 0.03200000151991844, -0.04800000041723251, 1.055999994277954, 0.0, 0.0, 0.0, 0.0, 0.0, 1.620994643581808E9, 2021-05-14 14:17:23.581
89.0, -145.6653594970703, -43.21267318725586, -5.948310852050781, 101.3363265991211, 0.03200000151991844, -0.04800000041723251, 1.055999994277954, 0.0, 0.0, 0.0, 0.0, 0.0, 1.620994643581808E9, 2021-05-14 14:17:23.581
90.0, -151.91473388671875, -44.398223876953125, -14.01153564453125, 93.0262680053711, 0.03200000151991844, -0.04800000041723251, 1.055999994277954, 0.0, 0.0, 0.0, 0.0, 0.0, 1.620994643592585E9, 2021-05-14 14:17:23.592
90.0, -153.2872772216797, -34.51740646362305, -9.98740291595459, 99.68329620361328, 0.03200000151991844, -0.04800000041723251, 1.055999994277954, 0.0, 0.0, 0.0, 0.0, 0.0, 1.620994643592585E9, 2021-05-14 14:17:23.592
91.0, -146.18521118164062, -36.67532730102539, -6.56913423538208, 110.31208801269531, 0.03200000151991844, -0.04800000041723251, 1.055999994277954, 0.0, 0.0, 0.0, 0.0, 0.0, 1.620994643607551E9, 2021-05-14 14:17:23.607
91.0, -146.5218048095703, -39.386756896972656, -9.0112886428833, 108.5057144165039, 0.03200000151991844, -0.04800000041723251, 1.055999994277954, 0.0, 0.0, 0.0, 0.0, 0.0, 1.620994643607551E9, 2021-05-14 14:17:23.607
92.0, -142.55751037597656, -36.60053253173828, -10.410011291503906, 97.98538208007812, 0.03200000151991844, -0.04800000041723251, 1.055999994277954, 0.0, 0.0, 0.0, 0.0, 0.0, 1.6209946436396337E9, 2021-05-14 14:17:23.639
92.0, -144.03102111816406, -39.72334671020508, -10.611966133117676, 101.5345458984375, 0.03200000151991844, -0.04800000041723251, 1.055999994277954, 0.0, 0.0, 0.0, 0.0, 0.0, 1.6209946436396337E9, 2021-05-14 14:17:23.639
93.0, -139.08688354492188, -36.851104736328125, -6.77108907699585, 108.97320556640625, 0.03200000151991844, -0.04800000041723251, 1.055999994277954, 0.0, 0.0, 0.0, 0.0, 0.0, 1.6209946436403365E9, 2021-05-14 14:17:23.640
93.0, -144.6481170654297, -34.00878143310547, -6.434497833251953, 108.0606689453125, 0.03200000151991844, -0.04800000041723251, 1.055999994277954, 0.0, 0.0, 0.0, 0.0, 0.0, 1.6209946436403365E9, 2021-05-14 14:17:23.640
94.0, -152.69638061523438, -44.30846405029297, -9.269342422485352, 97.52911376953125, 0.03200000151991844, -0.04800000041723251, 1.055999994277954, 0.0, 0.0, 0.0, 0.0, 0.0, 1.6209946436410336E9, 2021-05-14 14:17:23.641
94.0, -152.80857849121094, -48.676666259765625, -15.099845886230469, 101.51958465576172, 0.03200000151991844, -0.04800000041723251, 1.055999994277954, 0.0, 0.0, 0.0, 0.0, 0.0, 1.6209946436410336E9, 2021-05-14 14:17:23.641
95.0, -152.38221740722656, -43.15657424926758, -14.77447509765625, 112.174560546875, 0.03200000151991844, -0.04800000041723251, 1.055999994277954, 0.0, 0.0, 0.0, 0.0, 0.0, 1.620994643641765E9, 2021-05-14 14:17:23.641
95.0, -143.30921936035156, -35.74409484863281, -8.109972953796387, 111.86040496826172, 0.03200000151991844, -0.04800000041723251, 1.055999994277954, 0.0, 0.0, 0.0, 0.0, 0.0, 1.620994643641765E9, 2021-05-14 14:17:23.641
96.0, -142.59490966796875, -43.61284255981445, -17.123132705688477, 103.1613998413086, 0.03200000151991844, -0.04800000041723251, 1.055999994277954, 0.0, 0.0, 0.0, 0.0, 0.0, 1.6209946436697707E9, 2021-05-14 14:17:23.669
96.0, -145.68032836914062, -37.58786392211914, -13.315914154052734, 107.69042205810547, 0.03200000151991844, -0.04800000041723251, 1.055999994277954, 0.0, 0.0, 0.0, 0.0, 0.0, 1.6209946436697707E9, 2021-05-14 14:17:23.669
97.0, -136.7270050048828, -39.424156188964844, -2.6384994983673096, 116.18373107910156, 0.03200000151991844, -0.04800000041723251, 1.055999994277954, 0.0, 0.0, 0.0, 0.0, 0.0, 1.6209946436704538E9, 2021-05-14 14:17:23.670
97.0, -143.43638610839844, -46.20085525512695, -14.587479591369629, 105.61477661132812, 0.03200000151991844, -0.04800000041723251, 1.055999994277954, 0.0, 0.0, 0.0, 0.0, 0.0, 1.6209946436704538E9, 2021-05-14 14:17:23.670
98.0, -146.70880126953125, -47.26298522949219, -18.27876091003418, 100.99225616455078, 0.03200000151991844, -0.04800000041723251, 1.055999994277954, 0.0, 0.0, 0.0, 0.0, 0.0, 1.6209946436712067E9, 2021-05-14 14:17:23.671
98.0, -145.063232421875, -46.054996490478516, -7.601346492767334, 108.18782806396484, 0.03200000151991844, -0.04800000041723251, 1.055999994277954, 0.0, 0.0, 0.0, 0.0, 0.0, 1.6209946436712067E9, 2021-05-14 14:17:23.671
99.0, -136.69708251953125, -42.861122131347656, -8.857953071594238, 109.82215881347656, 0.03200000151991844, -0.04800000041723251, 1.055999994277954, 0.0, 0.0, 0.0, 0.0, 0.0, 1.6209946436825385E9, 2021-05-14 14:17:23.682
99.0, -146.74246215820312, -43.0406379699707, -8.240869522094727, 107.98960876464844, 0.03200000151991844, -0.04800000041723251, 1.055999994277954, 0.0, 0.0, 0.0, 0.0, 0.0, 1.6209946436825385E9, 2021-05-14 14:17:23.682
100.0, -144.42745971679688, -43.98309326171875, -10.395051956176758, 102.49195861816406, 0.03200000151991844, -0.04800000041723251, 1.055999994277954, 0.0, 0.0, 0.0, 0.0, 0.0, 1.6209946436982975E9, 2021-05-14 14:17:23.698
100.0, -143.1222381591797, -42.55819320678711, -8.364286422729492, 101.317626953125, 0.03200000151991844, -0.04800000041723251, 1.055999994277954, 0.0, 0.0, 0.0, 0.0, 0.0, 1.6209946436982975E9, 2021-05-14 14:17:23.698
0.0, -142.9913330078125, -38.14698028564453, -11.128072738647461, 111.91463470458984, 0.03200000151991844, -0.04800000041723251, 1.055999994277954, 0.0, 0.0, 0.0, 0.0, 0.0, 1.620994643698986E9, 2021-05-14 14:17:23.698
1.0, -140.1003875732422, -38.51723098754883, -1.4454712867736816, 107.1275634765625, 0.03200000151991844, -0.04800000041723251, 1.055999994277954, 0.0, 0.0, 0.0, 0.0, 0.0, 1.6209946437125893E9, 2021-05-14 14:17:23.712
1.0, -143.4176788330078, -40.1478271484375, -9.635851860046387, 96.25941467285156, 0.03200000151991844, -0.04800000041723251, 1.055999994277954, 0.0, 0.0, 0.0, 0.0, 0.0, 1.6209946437125893E9, 2021-05-14 14:17:23.712
2.0, -149.71192932128906, -36.78939437866211, -5.963270664215088, 101.95154571533203, 0.03200000151991844, -0.04800000041723251, 1.055999994277954, 0.0, 0.0, 0.0, 0.0, 0.0, 1.620994643728047E9, 2021-05-14 14:17:23.728
2.0, -147.621337890625, -36.70711898803711, -3.143385887145996, 109.2518310546875, 0.03200000151991844, -0.04800000041723251, 1.055999994277954, 0.0, 0.0, 0.0, 0.0, 0.0, 1.620994643728047E9, 2021-05-14 14:17:23.728
3.0, -145.82992553710938, -44.20187759399414, 0.1776452511548996, 103.6943359375, 0.03200000151991844, -0.04800000041723251, 1.055999994277954, 0.0, 0.0, 0.0, 0.0, 0.0, 1.6209946437430532E9, 2021-05-14 14:17:23.743
3.0, -154.71592712402344, -43.72317123413086, -0.6413928270339966, 103.17823028564453, 0.03200000151991844, -0.04800000041723251, 1.055999994277954, 0.0, 0.0, 0.0, 0.0, 0.0, 1.6209946437430532E9, 2021-05-14 14:17:23.743
4.0, -149.96624755859375, -48.27836990356445, -9.53487491607666, 101.37185668945312, 0.03200000151991844, -0.04800000041723251, 1.055999994277954, 0.0, 0.0, 0.0, 0.0, 0.0, 1.6209946437589939E9, 2021-05-14 14:17:23.758
4.0, -137.3066864013672, -35.80954360961914, 2.107433557510376, 120.06388092041016, 0.03200000151991844, -0.04800000041723251, 1.055999994277954, 0.0, 0.0, 0.0, 0.0, 0.0, 1.6209946437589939E9, 2021-05-14 14:17:23.758
5.0, -140.67633056640625, -49.35546112060547, -4.49722957611084, 107.68855285644531, 0.03200000151991844, -0.04800000041723251, 1.055999994277954, 0.0, 0.0, 0.0, 0.0, 0.0, 1.620994643759687E9, 2021-05-14 14:17:23.759
5.0, -143.47752380371094, -49.744407653808594, -7.597606658935547, 104.82752227783203, 0.03200000151991844, -0.04800000041723251, 1.055999994277954, 0.0, 0.0, 0.0, 0.0, 0.0, 1.620994643759687E9, 2021-05-14 14:17:23.759
6.0, -147.9130401611328, -49.624732971191406, -14.123732566833496, 100.79217529296875, 0.03200000151991844, -0.04800000041723251, 1.055999994277954, 0.0, 0.0, 0.0, 0.0, 0.0, 1.6209946437604125E9, 2021-05-14 14:17:23.760
6.0, -139.1392364501953, -44.893760681152344, -8.225910186767578, 109.19198608398438, 0.03200000151991844, -0.04800000041723251, 1.055999994277954, 0.0, 0.0, 0.0, 0.0, 0.0, 1.6209946437604125E9, 2021-05-14 14:17:23.760
7.0, -142.34432983398438, -48.1998291015625, -2.4141054153442383, 108.26449584960938, 0.03200000151991844, -0.04800000041723251, 1.055999994277954, 0.0, 0.0, 0.0, 0.0, 0.0, 1.6209946437725143E9, 2021-05-14 14:17:23.772
7.0, -142.7445068359375, -47.82583999633789, -8.472743034362793, 98.39863586425781, 0.03200000151991844, -0.04800000041723251, 1.055999994277954, 0.0, 0.0, 0.0, 0.0, 0.0, 1.6209946437725143E9, 2021-05-14 14:17:23.772
8.0, -139.8946990966797, -52.482017517089844, -12.766148567199707, 104.25531768798828, 0.03200000151991844, -0.04800000041723251, 1.055999994277954, 0.0, 0.0, 0.0, 0.0, 0.0, 1.6209946437882683E9, 2021-05-14 14:17:23.788
8.0, -137.50863647460938, -42.34314727783203, -2.3617467880249023, 106.92186737060547, 0.03200000151991844, -0.04800000041723251, 1.055999994277954, 0.0, 0.0, 0.0, 0.0, 0.0, 1.6209946437882683E9, 2021-05-14 14:17:23.788
9.0, -141.31959533691406, -50.148319244384766, -1.4604309797286987, 100.4032211303711, 0.03200000151991844, -0.04800000041723251, 1.055999994277954, 0.0, 0.0, 0.0, 0.0, 0.0, 1.6209946437889483E9, 2021-05-14 14:17:23.788
9.0, -148.4515838623047, -52.97568130493164, -7.309634685516357, 101.09884643554688, 0.03200000151991844, -0.04800000041723251, 1.055999994277954, 0.0, 0.0, 0.0, 0.0, 0.0, 1.6209946437889483E9, 2021-05-14 14:17:23.788
10.0, -135.81446838378906, -42.750797271728516, -0.7648095488548279, 107.50155639648438, 0.03200000151991844, -0.04800000041723251, 1.055999994277954, 0.0, 0.0, 0.0, 0.0, 0.0, 1.6209946438025117E9, 2021-05-14 14:17:23.802
10.0, -135.4890899658203, -44.63196563720703, -6.019369125366211, 106.11405181884766, 0.03200000151991844, -0.04800000041723251, 1.055999994277954, 0.0, 0.0, 0.0, 0.0, 0.0, 1.6209946438025117E9, 2021-05-14 14:17:23.802
11.0, -139.38232421875, -42.38054656982422, -2.156052350997925, 102.36293029785156, 0.03200000151991844, -0.04800000041723251, 1.055999994277954, 0.0, 0.0, 0.0, 0.0, 0.0, 1.620994643818222E9, 2021-05-14 14:17:23.818
11.0, -140.5342254638672, -46.53557586669922, -3.416398525238037, 92.63919067382812, 0.03200000151991844, -0.04800000041723251, 1.055999994277954, 0.0, 0.0, 0.0, 0.0, 0.0, 1.620994643818222E9, 2021-05-14 14:17:23.818
12.0, -142.86044311523438, -45.69409942626953, 0.23000384867191315, 94.27352905273438, 0.03200000151991844, -0.04800000041723251, 1.055999994277954, 0.0, 0.0, 0.0, 0.0, 0.0, 1.6209946438189046E9, 2021-05-14 14:17:23.818
12.0, -135.4479522705078, -43.139747619628906, 0.7760292291641235, 102.6135025024414, 0.03200000151991844, -0.04800000041723251, 1.055999994277954, 0.0, 0.0, 0.0, 0.0, 0.0, 1.6209946438189046E9, 2021-05-14 14:17:23.818
13.0, -139.2215118408203, -42.949012756347656, -3.326641082763672, 103.52230072021484, 0.03200000151991844, -0.04800000041723251, 1.055999994277954, 0.0, 0.0, 0.0, 0.0, 0.0, 1.6209946438324895E9, 2021-05-14 14:17:23.832
13.0, -141.18496704101562, -46.68891143798828, -3.0947673320770264, 91.13948822021484, 0.03200000151991844, -0.04800000041723251, 1.055999994277954, 0.0, 0.0, 0.0, 0.0, 0.0, 1.6209946438324895E9, 2021-05-14 14:17:23.832
14.0, -134.24371337890625, -42.129974365234375, -1.4454712867736816, 101.67478942871094, 0.03200000151991844, -0.04800000041723251, 1.055999994277954, 0.0, 0.0, 0.0, 0.0, 0.0, 1.6209946438482609E9, 2021-05-14 14:17:23.848
14.0, -133.92955017089844, -38.109580993652344, -1.1350595951080322, 107.68480682373047, 0.03200000151991844, -0.04800000041723251, 1.055999994277954, 0.0, 0.0, 0.0, 0.0, 0.0, 1.6209946438482609E9, 2021-05-14 14:17:23.848
15.0, -139.88348388671875, -45.645477294921875, -3.633312702178955, 108.1709976196289, 0.03200000151991844, -0.04800000041723251, 1.055999994277954, 0.0, 0.0, 0.0, 0.0, 0.0, 1.6209946438490052E9, 2021-05-14 14:17:23.849
15.0, -139.78997802734375, -46.801109313964844, -8.745756149291992, 106.16266632080078, 0.03200000151991844, -0.04800000041723251, 1.055999994277954, 0.0, 0.0, 0.0, 0.0, 0.0, 1.6209946438490052E9, 2021-05-14 14:17:23.849
16.0, -147.19871520996094, -45.30514907836914, -16.760360717773438, 98.12936401367188, 0.03200000151991844, -0.04800000041723251, 1.055999994277954, 0.0, 0.0, 0.0, 0.0, 0.0, 1.6209946438626385E9, 2021-05-14 14:17:23.862
16.0, -133.78370666503906, -37.840309143066406, -7.616306304931641, 113.46295166015625, 0.03200000151991844, -0.04800000041723251, 1.055999994277954, 0.0, 0.0, 0.0, 0.0, 0.0, 1.6209946438626385E9, 2021-05-14 14:17:23.862
17.0, -139.9021759033203, -46.658992767333984, -7.59386682510376, 102.55740356445312, 0.03200000151991844, -0.04800000041723251, 1.055999994277954, 0.0, 0.0, 0.0, 0.0, 0.0, 1.6209946438782735E9, 2021-05-14 14:17:23.878
17.0, -143.44386291503906, -49.553672790527344, -10.855059623718262, 89.89784240722656, 0.03200000151991844, -0.04800000041723251, 1.055999994277954, 0.0, 0.0, 0.0, 0.0, 0.0, 1.6209946438782735E9, 2021-05-14 14:17:23.878
18.0, -148.7582550048828, -46.232643127441406, -10.899938583374023, 94.99159240722656, 0.03200000151991844, -0.04800000041723251, 1.055999994277954, 0.0, 0.0, 0.0, 0.0, 0.0, 1.6209946438789957E9, 2021-05-14 14:17:23.878
18.0, -142.011474609375, -45.86613464355469, -5.9258713722229, 106.20755004882812, 0.03200000151991844, -0.04800000041723251, 1.055999994277954, 0.0, 0.0, 0.0, 0.0, 0.0, 1.6209946438789957E9, 2021-05-14 14:17:23.878
19.0, -136.94766235351562, -46.658992767333984, -7.859399795532227, 105.14915466308594, 0.03200000151991844, -0.04800000041723251, 1.055999994277954, 0.0, 0.0, 0.0, 0.0, 0.0, 1.6209946438925984E9, 2021-05-14 14:17:23.892
19.0, -143.4924774169922, -50.93743896484375, -5.6042399406433105, 92.38114166259766, 0.03200000151991844, -0.04800000041723251, 1.055999994277954, 0.0, 0.0, 0.0, 0.0, 0.0, 1.6209946438925984E9, 2021-05-14 14:17:23.892
20.0, -130.41778564453125, -62.76674270629883, -0.33472105860710144, 96.4052734375, 0.03200000151991844, -0.04800000041723251, 1.055999994277954, 0.0, 0.0, 0.0, 0.0, 0.0, 1.6209946439086342E9, 2021-05-14 14:17:23.908
20.0, -139.96949768066406, -31.467517852783203, -2.346787214279175, 104.5208511352539, 0.03200000151991844, -0.04800000041723251, 1.055999994277954, 0.0, 0.0, 0.0, 0.0, 0.0, 1.6209946439086342E9, 2021-05-14 14:17:23.908
21.0, -148.1523895263672, -38.66682434082031, -8.087533950805664, 92.29512023925781, 0.03200000151991844, -0.04800000041723251, 1.055999994277954, 0.0, 0.0, 0.0, 0.0, 0.0, 1.6209946439233577E9, 2021-05-14 14:17:23.923
21.0, -154.19981384277344, -41.352073669433594, -12.941924095153809, 83.98506164550781, 0.03200000151991844, -0.04800000041723251, 1.055999994277954, 0.0, 0.0, 0.0, 0.0, 0.0, 1.6209946439233577E9, 2021-05-14 14:17:23.923
22.0, -154.36062622070312, -43.34170150756836, -15.593512535095215, 93.97433471679688, 0.03200000151991844, -0.04800000041723251, 1.055999994277954, 0.0, 0.0, 0.0, 0.0, 0.0, 1.6209946439241273E9, 2021-05-14 14:17:23.924
22.0, -139.816162109375, -36.61362075805664, -7.376952648162842, 106.4281997680664, 0.03200000151991844, -0.04800000041723251, 1.055999994277954, 0.0, 0.0, 0.0, 0.0, 0.0, 1.6209946439241273E9, 2021-05-14 14:17:23.924
23.0, -147.81581115722656, -43.49503707885742, -10.305294036865234, 99.034423828125, 0.03200000151991844, -0.04800000041723251, 1.055999994277954, 0.0, 0.0, 0.0, 0.0, 0.0, 1.6209946439382727E9, 2021-05-14 14:17:23.938
23.0, -147.0640869140625, -46.12418746948242, -15.279361724853516, 92.02958679199219, 0.03200000151991844, -0.04800000041723251, 1.055999994277954, 0.0, 0.0, 0.0, 0.0, 0.0, 1.6209946439382727E9, 2021-05-14 14:17:23.938
24.0, -146.45822143554688, -48.73837661743164, -12.205163955688477, 89.96516418457031, 0.03200000151991844, -0.04800000041723251, 1.055999994277954, 0.0, 0.0, 0.0, 0.0, 0.0, 1.6209946439390683E9, 2021-05-14 14:17:23.939
24.0, -127.93449401855469, -39.54570388793945, -9.78544807434082, 103.46246337890625, 0.03200000151991844, -0.04800000041723251, 1.055999994277954, 0.0, 0.0, 0.0, 0.0, 0.0, 1.6209946439390683E9, 2021-05-14 14:17:23.939
25.0, -143.28305053710938, -40.41709899902344, -1.8306810855865479, 103.01741790771484, 0.03200000151991844, -0.04800000041723251, 1.055999994277954, 0.0, 0.0, 0.0, 0.0, 0.0, 1.6209946439524872E9, 2021-05-14 14:17:23.952
25.0, -136.82049560546875, -51.25906753540039, -2.7544362545013428, 98.25652313232422, 0.03200000151991844, -0.04800000041723251, 1.055999994277954, 0.0, 0.0, 0.0, 0.0, 0.0, 1.6209946439524872E9, 2021-05-14 14:17:23.952
26.0, -139.6777801513672, -45.1480712890625, -6.703770637512207, 96.78300476074219, 0.03200000151991844, -0.04800000041723251, 1.055999994277954, 0.0, 0.0, 0.0, 0.0, 0.0, 1.6209946439682868E9, 2021-05-14 14:17:23.968
26.0, -141.69732666015625, -41.10150146484375, -6.722470283508301, 109.48744201660156, 0.03200000151991844, -0.04800000041723251, 1.055999994277954, 0.0, 0.0, 0.0, 0.0, 0.0, 1.6209946439682868E9, 2021-05-14 14:17:23.968
27.0, -140.0667266845703, -38.47235107421875, -6.786048412322998, 109.56224060058594, 0.03200000151991844, -0.04800000041723251, 1.055999994277954, 0.0, 0.0, 0.0, 0.0, 0.0, 1.6209946439690144E9, 2021-05-14 14:17:23.969
27.0, -142.59117126464844, -45.39116668701172, -11.307587623596191, 96.8465805053711, 0.03200000151991844, -0.04800000041723251, 1.055999994277954, 0.0, 0.0, 0.0, 0.0, 0.0, 1.6209946439690144E9, 2021-05-14 14:17:23.969
28.0, -147.09774780273438, -45.75767517089844, -18.52559471130371, 94.71109771728516, 0.03200000151991844, -0.04800000041723251, 1.055999994277954, 0.0, 0.0, 0.0, 0.0, 0.0, 1.6209946439824767E9, 2021-05-14 14:17:23.982
28.0, -146.3385467529297, -41.2623176574707, -14.037714958190918, 94.74475860595703, 0.03200000151991844, -0.04800000041723251, 1.055999994277954, 0.0, 0.0, 0.0, 0.0, 0.0, 1.6209946439824767E9, 2021-05-14 14:17:23.982
29.0, -142.27700805664062, -40.488155364990234, -14.235929489135742, 94.5166244506836, 0.03200000151991844, -0.04800000041723251, 1.055999994277954, 0.0, 0.0, 0.0, 0.0, 0.0, 1.6209946439983313E9, 2021-05-14 14:17:23.998
29.0, -138.40248107910156, -39.48960494995117, -10.28659439086914, 86.33746337890625, 0.03200000151991844, -0.04800000041723251, 1.055999994277954, 0.0, 0.0, 0.0, 0.0, 0.0, 1.6209946439983313E9, 2021-05-14 14:17:23.998
30.0, -150.2766571044922, -47.67998504638672, -16.375152587890625, 91.8912124633789, 0.03200000151991844, -0.04800000041723251, 1.055999994277954, 0.0, 0.0, 0.0, 0.0, 0.0, 1.6209946439990456E9, 2021-05-14 14:17:23.999
30.0, -147.3184051513672, -40.09546661376953, -14.415444374084473, 96.49502563476562, 0.03200000151991844, -0.04800000041723251, 1.055999994277954, 0.0, 0.0, 0.0, 0.0, 0.0, 1.6209946439990456E9, 2021-05-14 14:17:23.999
31.0, -140.1976318359375, -43.70072937011719, -21.023847579956055, 99.539306640625, 0.03200000151991844, -0.04800000041723251, 1.055999994277954, 0.0, 0.0, 0.0, 0.0, 0.0, 1.6209946440124784E9, 2021-05-14 14:17:24.012
31.0, -145.7812957763672, -41.217437744140625, -21.9663028717041, 90.27183532714844, 0.03200000151991844, -0.04800000041723251, 1.055999994277954, 0.0, 0.0, 0.0, 0.0, 0.0, 1.6209946440124784E9, 2021-05-14 14:17:24.012
32.0, -142.89784240722656, -38.580806732177734, -13.659984588623047, 97.48609924316406, 0.03200000151991844, -0.04800000041723251, 1.055999994277954, 0.0, 0.0, 0.0, 0.0, 0.0, 1.6209946440286524E9, 2021-05-14 14:17:24.028
32.0, -139.37110900878906, -33.25893020629883, -19.13519859313965, 110.99462127685547, 0.03200000151991844, -0.04800000041723251, 1.055999994277954, 0.0, 0.0, 0.0, 0.0, 0.0, 1.6209946440286524E9, 2021-05-14 14:17:24.028
33.0, -147.7410125732422, -31.022470474243164, -12.265002250671387, 104.56573486328125, 0.03200000151991844, -0.04800000041723251, 1.055999994277954, 0.0, 0.0, 0.0, 0.0, 0.0, 1.6209946440596075E9, 2021-05-14 14:17:24.059
33.0, -146.92196655273438, -42.885433197021484, -16.06100082397461, 95.34687805175781, 0.03200000151991844, -0.04800000041723251, 1.055999994277954, 0.0, 0.0, 0.0, 0.0, 0.0, 1.6209946440596075E9, 2021-05-14 14:17:24.059
34.0, -152.16531372070312, -43.31178283691406, -20.12253189086914, 94.57646179199219, 0.03200000151991844, -0.04800000041723251, 1.055999994277954, 0.0, 0.0, 0.0, 0.0, 0.0, 1.6209946440603483E9, 2021-05-14 14:17:24.060
34.0, -147.15383911132812, -44.127079010009766, -13.095259666442871, 99.70760345458984, 0.03200000151991844, -0.04800000041723251, 1.055999994277954, 0.0, 0.0, 0.0, 0.0, 0.0, 1.6209946440603483E9, 2021-05-14 14:17:24.060
35.0, -137.51986694335938, -39.89351272583008, -9.374059677124023, 105.6839599609375, 0.03200000151991844, -0.04800000041723251, 1.055999994277954, 0.0, 0.0, 0.0, 0.0, 0.0, 1.6209946440609913E9, 2021-05-14 14:17:24.060
35.0, -145.0370635986328, -51.46476364135742, -13.659984588623047, 92.77008819580078, 0.03200000151991844, -0.04800000041723251, 1.055999994277954, 0.0, 0.0, 0.0, 0.0, 0.0, 1.6209946440609913E9, 2021-05-14 14:17:24.060
36.0, -136.4203338623047, -40.020668029785156, -15.14472484588623, 94.1762924194336, 0.03200000151991844, -0.04800000041723251, 1.055999994277954, 0.0, 0.0, 0.0, 0.0, 0.0, 1.620994644061773E9, 2021-05-14 14:17:24.061
36.0, -135.05526733398438, -32.03224182128906, -9.175844192504883, 102.13479614257812, 0.03200000151991844, -0.04800000041723251, 1.055999994277954, 0.0, 0.0, 0.0, 0.0, 0.0, 1.620994644061773E9, 2021-05-14 14:17:24.061
37.0, -140.17518615722656, -50.67564392089844, -9.194543838500977, 93.59286499023438, 0.03200000151991844, -0.04800000041723251, 1.055999994277954, 0.0, 0.0, 0.0, 0.0, 0.0, 1.6209946440726311E9, 2021-05-14 14:17:24.072
37.0, -149.07241821289062, -52.564292907714844, -18.211442947387695, 87.6950454711914, 0.03200000151991844, -0.04800000041723251, 1.055999994277954, 0.0, 0.0, 0.0, 0.0, 0.0, 1.6209946440726311E9, 2021-05-14 14:17:24.072
38.0, -146.1814727783203, -50.324092864990234, -17.441022872924805, 94.20620727539062, 0.03200000151991844, -0.04800000041723251, 1.055999994277954, 0.0, 0.0, 0.0, 0.0, 0.0, 1.6209946440881677E9, 2021-05-14 14:17:24.088
38.0, -139.50575256347656, -42.28704833984375, -17.426063537597656, 99.99557495117188, 0.03200000151991844, -0.04800000041723251, 1.055999994277954, 0.0, 0.0, 0.0, 0.0, 0.0, 1.6209946440881677E9, 2021-05-14 14:17:24.088
39.0, -136.5624542236328, -42.87421417236328, -13.469249725341797, 97.47114562988281, 0.03200000151991844, -0.04800000041723251, 1.055999994277954, 0.0, 0.0, 0.0, 0.0, 0.0, 1.6209946440888903E9, 2021-05-14 14:17:24.088
39.0, -143.1558837890625, -44.35147476196289, -11.44970417022705, 90.8664779663086, 0.03200000151991844, -0.04800000041723251, 1.055999994277954, 0.0, 0.0, 0.0, 0.0, 0.0, 1.6209946440888903E9, 2021-05-14 14:17:24.088
40.0, -142.22091674804688, -40.79108810424805, -8.278268814086914, 93.4170913696289, 0.03200000151991844, -0.04800000041723251, 1.055999994277954, 0.0, 0.0, 0.0, 0.0, 0.0, 1.6209946441025524E9, 2021-05-14 14:17:24.102
40.0, -138.67922973632812, -37.51119613647461, -3.988603353500366, 103.7953109741211, 0.03200000151991844, -0.04800000041723251, 1.055999994277954, 0.0, 0.0, 0.0, 0.0, 0.0, 1.6209946441025524E9, 2021-05-14 14:17:24.102
41.0, -152.46075439453125, -45.10693359375, -9.448857307434082, 98.85490417480469, 0.03200000151991844, -0.04800000041723251, 1.055999994277954, 0.0, 0.0, 0.0, 0.0, 0.0, 1.6209946441348176E9, 2021-05-14 14:17:24.134
41.0, -156.92620849609375, -45.851173400878906, -13.248595237731934, 93.52928924560547, 0.03200000151991844, -0.04800000041723251, 1.055999994277954, 0.0, 0.0, 0.0, 0.0, 0.0, 1.6209946441348176E9, 2021-05-14 14:17:24.134
42.0, -137.71807861328125, -41.367034912109375, -12.265002250671387, 100.39948272705078, 0.03200000151991844, -0.04800000041723251, 1.055999994277954, 0.0, 0.0, 0.0, 0.0, 0.0, 1.620994644135383E9, 2021-05-14 14:17:24.135
42.0, -139.311279296875, -38.89870071411133, -6.561654567718506, 109.42760467529297, 0.03200000151991844, -0.04800000041723251, 1.055999994277954, 0.0, 0.0, 0.0, 0.0, 0.0, 1.620994644135383E9, 2021-05-14 14:17:24.135
43.0, -143.29800415039062, -38.928619384765625, -1.5165294408798218, 100.63883972167969, 0.03200000151991844, -0.04800000041723251, 1.055999994277954, 0.0, 0.0, 0.0, 0.0, 0.0, 1.620994644136129E9, 2021-05-14 14:17:24.136
43.0, -143.4289093017578, -43.48755645751953, -1.2248172760009766, 99.42710876464844, 0.03200000151991844, -0.04800000041723251, 1.055999994277954, 0.0, 0.0, 0.0, 0.0, 0.0, 1.620994644136129E9, 2021-05-14 14:17:24.136
44.0, -141.96286010742188, -47.66502380371094, -3.876406192779541, 100.98291015625, 0.03200000151991844, -0.04800000041723251, 1.055999994277954, 0.0, 0.0, 0.0, 0.0, 0.0, 1.6209946441367836E9, 2021-05-14 14:17:24.136
44.0, -144.71542358398438, -41.12767791748047, -8.584939956665039, 99.92451477050781, 0.03200000151991844, -0.04800000041723251, 1.055999994277954, 0.0, 0.0, 0.0, 0.0, 0.0, 1.6209946441367836E9, 2021-05-14 14:17:24.136
45.0, -142.77816772460938, -41.273536682128906, -2.3692266941070557, 100.99412536621094, 0.03200000151991844, -0.04800000041723251, 1.055999994277954, 0.0, 0.0, 0.0, 0.0, 0.0, 1.6209946441474545E9, 2021-05-14 14:17:24.147
45.0, -136.92147827148438, -40.47319793701172, -6.845886707305908, 91.70047760009766, 0.03200000151991844, -0.04800000041723251, 1.055999994277954, 0.0, 0.0, 0.0, 0.0, 0.0, 1.6209946441474545E9, 2021-05-14 14:17:24.147
46.0, -145.90472412109375, -43.17714309692383, -10.163178443908691, 99.4158935546875, 0.03200000151991844, -0.04800000041723251, 1.055999994277954, 0.0, 0.0, 0.0, 0.0, 0.0, 1.6209946441625545E9, 2021-05-14 14:17:24.162
46.0, -141.92919921875, -42.94527053833008, -6.685070991516113, 98.8362045288086, 0.03200000151991844, -0.04800000041723251, 1.055999994277954, 0.0, 0.0, 0.0, 0.0, 0.0, 1.6209946441625545E9, 2021-05-14 14:17:24.162
47.0, -147.12393188476562, -46.57671356201172, -6.632712364196777, 100.69493865966797, 0.03200000151991844, -0.04800000041723251, 1.055999994277954, 0.0, 0.0, 0.0, 0.0, 0.0, 1.620994644194574E9, 2021-05-14 14:17:24.194
47.0, -142.26953125, -42.171112060546875, -6.165225028991699, 94.38572692871094, 0.03200000151991844, -0.04800000041723251, 1.055999994277954, 0.0, 0.0, 0.0, 0.0, 0.0, 1.620994644194574E9, 2021-05-14 14:17:24.194
48.0, -147.42684936523438, -39.90099334716797, -11.920930862426758, 98.86612701416016, 0.03200000151991844, -0.04800000041723251, 1.055999994277954, 0.0, 0.0, 0.0, 0.0, 0.0, 1.6209946441952963E9, 2021-05-14 14:17:24.195
48.0, -144.83509826660156, -45.14433288574219, -11.636698722839355, 113.03286743164062, 0.03200000151991844, -0.04800000041723251, 1.055999994277954, 0.0, 0.0, 0.0, 0.0, 0.0, 1.6209946441952963E9, 2021-05-14 14:17:24.195
49.0, -146.7274932861328, -43.2108039855957, -8.435344696044922, 106.83959197998047, 0.03200000151991844, -0.04800000041723251, 1.055999994277954, 0.0, 0.0, 0.0, 0.0, 0.0, 1.6209946441960046E9, 2021-05-14 14:17:24.196
49.0, -148.77322387695312, -47.17136001586914, -15.002608299255371, 94.10523223876953, 0.03200000151991844, -0.04800000041723251, 1.055999994277954, 0.0, 0.0, 0.0, 0.0, 0.0, 1.6209946441960046E9, 2021-05-14 14:17:24.196
50.0, -153.52662658691406, -41.995338439941406, -19.5428466796875, 95.52639770507812, 0.03200000151991844, -0.04800000041723251, 1.055999994277954, 0.0, 0.0, 0.0, 0.0, 0.0, 1.6209946441967597E9, 2021-05-14 14:17:24.196
50.0, -135.88926696777344, -30.43156623840332, -9.377799034118652, 109.26678466796875, 0.03200000151991844, -0.04800000041723251, 1.055999994277954, 0.0, 0.0, 0.0, 0.0, 0.0, 1.6209946441967597E9, 2021-05-14 14:17:24.196
51.0, -144.38632202148438, -41.53158950805664, -8.40168571472168, 106.91065216064453, 0.03200000151991844, -0.04800000041723251, 1.055999994277954, 0.0, 0.0, 0.0, 0.0, 0.0, 1.6209946442076733E9, 2021-05-14 14:17:24.207
51.0, -146.62277221679688, -46.88712692260742, -12.47817611694336, 95.4067153930664, 0.03200000151991844, -0.04800000041723251, 1.055999994277954, 0.0, 0.0, 0.0, 0.0, 0.0, 1.6209946442076733E9, 2021-05-14 14:17:24.207
52.0, -134.06045532226562, -46.62907409667969, -10.806441307067871, 96.10234069824219, 0.03200000151991844, -0.04800000041723251, 1.055999994277954, 0.0, 0.0, 0.0, 0.0, 0.0, 1.6209946442225473E9, 2021-05-14 14:17:24.222
52.0, -131.7940673828125, -39.13431167602539, -3.195744514465332, 102.53870391845703, 0.03200000151991844, -0.04800000041723251, 1.055999994277954, 0.0, 0.0, 0.0, 0.0, 0.0, 1.6209946442225473E9, 2021-05-14 14:17:24.222
53.0, -134.4232177734375, -47.945518493652344, -9.422677993774414, 96.55860900878906, 0.03200000151991844, -0.04800000041723251, 1.055999994277954, 0.0, 0.0, 0.0, 0.0, 0.0, 1.6209946442382183E9, 2021-05-14 14:17:24.238
53.0, -135.67608642578125, -44.022361755371094, -11.318807601928711, 93.86962127685547, 0.03200000151991844, -0.04800000041723251, 1.055999994277954, 0.0, 0.0, 0.0, 0.0, 0.0, 1.6209946442382183E9, 2021-05-14 14:17:24.238
54.0, -143.79541015625, -47.38079071044922, -18.869665145874023, 93.82473754882812, 0.03200000151991844, -0.04800000041723251, 1.055999994277954, 0.0, 0.0, 0.0, 0.0, 0.0, 1.6209946442390456E9, 2021-05-14 14:17:24.239
54.0, -131.11715698242188, -43.72317123413086, -15.503755569458008, 99.55426788330078, 0.03200000151991844, -0.04800000041723251, 1.055999994277954, 0.0, 0.0, 0.0, 0.0, 0.0, 1.6209946442390456E9, 2021-05-14 14:17:24.239
55.0, -136.65968322753906, -49.11610794067383, -13.379491806030273, 93.48815155029297, 0.03200000151991844, -0.04800000041723251, 1.055999994277954, 0.0, 0.0, 0.0, 0.0, 0.0, 1.620994644252518E9, 2021-05-14 14:17:24.252
55.0, -141.49911499023438, -42.313228607177734, -12.65769100189209, 90.59346771240234, 0.03200000151991844, -0.04800000041723251, 1.055999994277954, 0.0, 0.0, 0.0, 0.0, 0.0, 1.620994644252518E9, 2021-05-14 14:17:24.252
56.0, -136.61480712890625, -39.95709228515625, -16.479869842529297, 99.32613372802734, 0.03200000151991844, -0.04800000041723251, 1.055999994277954, 0.0, 0.0, 0.0, 0.0, 0.0, 1.620994644268312E9, 2021-05-14 14:17:24.268
56.0, -137.04115295410156, -41.09775924682617, -14.658537864685059, 109.52110290527344, 0.03200000151991844, -0.04800000041723251, 1.055999994277954, 0.0, 0.0, 0.0, 0.0, 0.0, 1.620994644268312E9, 2021-05-14 14:17:24.268
57.0, -145.24649047851562, -40.66393280029297, -17.75517463684082, 107.07894897460938, 0.03200000151991844, -0.04800000041723251, 1.055999994277954, 0.0, 0.0, 0.0, 0.0, 0.0, 1.6209946442690742E9, 2021-05-14 14:17:24.269
57.0, -153.87818908691406, -50.31287384033203, -21.78304672241211, 103.78035736083984, 0.03200000151991844, -0.04800000041723251, 1.055999994277954, 0.0, 0.0, 0.0, 0.0, 0.0, 1.6209946442690742E9, 2021-05-14 14:17:24.269
58.0, -150.64317321777344, -49.88278579711914, -23.398683547973633, 106.99292755126953, 0.03200000151991844, -0.04800000041723251, 1.055999994277954, 0.0, 0.0, 0.0, 0.0, 0.0, 1.6209946442826989E9, 2021-05-14 14:17:24.282
58.0, -148.78070068359375, -40.52555465698242, -13.992835998535156, 118.58287811279297, 0.03200000151991844, -0.04800000041723251, 1.055999994277954, 0.0, 0.0, 0.0, 0.0, 0.0, 1.6209946442826989E9, 2021-05-14 14:17:24.282
59.0, -148.73208618164062, -41.24735641479492, -17.26898765563965, 114.24459075927734, 0.03200000151991844, -0.04800000041723251, 1.055999994277954, 0.0, 0.0, 0.0, 0.0, 0.0, 1.6209946442983296E9, 2021-05-14 14:17:24.298
59.0, -154.1848602294922, -52.19404220581055, -28.526086807250977, 98.0545654296875, 0.03200000151991844, -0.04800000041723251, 1.055999994277954, 0.0, 0.0, 0.0, 0.0, 0.0, 1.6209946442983296E9, 2021-05-14 14:17:24.298
60.0, -144.89120483398438, -55.54499435424805, -25.205055236816406, 105.08184051513672, 0.03200000151991844, -0.04800000041723251, 1.055999994277954, 0.0, 0.0, 0.0, 0.0, 0.0, 1.6209946442989528E9, 2021-05-14 14:17:24.298
60.0, -134.36712646484375, -43.165924072265625, -16.408811569213867, 116.33519744873047, 0.03200000151991844, -0.04800000041723251, 1.055999994277954, 0.0, 0.0, 0.0, 0.0, 0.0, 1.6209946442989528E9, 2021-05-14 14:17:24.298
61.0, -139.86477661132812, -47.87445831298828, -15.054966926574707, 91.81267547607422, 0.03200000151991844, -0.04800000041723251, 1.055999994277954, 0.0, 0.0, 0.0, 0.0, 0.0, 1.6209946443125584E9, 2021-05-14 14:17:24.312
61.0, -140.71372985839844, -52.564292907714844, -16.199377059936523, 87.0517807006836, 0.03200000151991844, -0.04800000041723251, 1.055999994277954, 0.0, 0.0, 0.0, 0.0, 0.0, 1.6209946443125584E9, 2021-05-14 14:17:24.312
62.0, -132.8300323486328, -42.29079055786133, -11.5731201171875, 98.78759002685547, 0.03200000151991844, -0.04800000041723251, 1.055999994277954, 0.0, 0.0, 0.0, 0.0, 0.0, 1.620994644328228E9, 2021-05-14 14:17:24.328
62.0, -131.341552734375, -48.5102424621582, -8.880392074584961, 102.56488800048828, 0.03200000151991844, -0.04800000041723251, 1.055999994277954, 0.0, 0.0, 0.0, 0.0, 0.0, 1.620994644328228E9, 2021-05-14 14:17:24.328
63.0, -139.5543670654297, -51.9846076965332, -11.543201446533203, 92.22406005859375, 0.03200000151991844, -0.04800000041723251, 1.055999994277954, 0.0, 0.0, 0.0, 0.0, 0.0, 1.6209946443290224E9, 2021-05-14 14:17:24.329
63.0, -134.3521728515625, -48.29706954956055, -14.83431339263916, 80.34613800048828, 0.03200000151991844, -0.04800000041723251, 1.055999994277954, 0.0, 0.0, 0.0, 0.0, 0.0, 1.6209946443290224E9, 2021-05-14 14:17:24.329
64.0, -137.93124389648438, -54.243507385253906, -18.297460556030273, 89.61735534667969, 0.03200000151991844, -0.04800000041723251, 1.055999994277954, 0.0, 0.0, 0.0, 0.0, 0.0, 1.6209946443426008E9, 2021-05-14 14:17:24.342
64.0, -142.1498565673828, -53.731143951416016, -17.68411636352539, 94.89434814453125, 0.03200000151991844, -0.04800000041723251, 1.055999994277954, 0.0, 0.0, 0.0, 0.0, 0.0, 1.6209946443426008E9, 2021-05-14 14:17:24.342
65.0, -138.60069274902344, -55.65345001220703, -14.030234336853027, 96.22575378417969, 0.03200000151991844, -0.04800000041723251, 1.055999994277954, 0.0, 0.0, 0.0, 0.0, 0.0, 1.620994644358601E9, 2021-05-14 14:17:24.358
65.0, -146.6452178955078, -57.01103591918945, -17.369964599609375, 91.48356628417969, 0.03200000151991844, -0.04800000041723251, 1.055999994277954, 0.0, 0.0, 0.0, 0.0, 0.0, 1.620994644358601E9, 2021-05-14 14:17:24.358
66.0, -141.07650756835938, -49.48261642456055, -21.842885971069336, 97.9947280883789, 0.03200000151991844, -0.04800000041723251, 1.055999994277954, 0.0, 0.0, 0.0, 0.0, 0.0, 1.620994644373263E9, 2021-05-14 14:17:24.373
66.0, -142.8641815185547, -52.98690414428711, -21.35295867919922, 105.06687927246094, 0.03200000151991844, -0.04800000041723251, 1.055999994277954, 0.0, 0.0, 0.0, 0.0, 0.0, 1.620994644373263E9, 2021-05-14 14:17:24.373
67.0, -136.7082977294922, -56.8390007019043, -21.64093017578125, 105.70640563964844, 0.03200000151991844, -0.04800000041723251, 1.055999994277954, 0.0, 0.0, 0.0, 0.0, 0.0, 1.6209946443740652E9, 2021-05-14 14:17:24.374
67.0, -145.60926818847656, -60.91923141479492, -21.48011589050293, 99.5617446899414, 0.03200000151991844, -0.04800000041723251, 1.055999994277954, 0.0, 0.0, 0.0, 0.0, 0.0, 1.6209946443740652E9, 2021-05-14 14:17:24.374
68.0, -138.73907470703125, -47.48925018310547, -19.920578002929688, 104.30393981933594, 0.03200000151991844, -0.04800000041723251, 1.055999994277954, 0.0, 0.0, 0.0, 0.0, 0.0, 1.6209946443881855E9, 2021-05-14 14:17:24.388
68.0, -142.37051391601562, -56.105979919433594, -20.380584716796875, 108.58612823486328, 0.03200000151991844, -0.04800000041723251, 1.055999994277954, 0.0, 0.0, 0.0, 0.0, 0.0, 1.6209946443881855E9, 2021-05-14 14:17:24.388
69.0, -138.66427612304688, -57.654296875, -13.49168872833252, 100.97542572021484, 0.03200000151991844, -0.04800000041723251, 1.055999994277954, 0.0, 0.0, 0.0, 0.0, 0.0, 1.6209946443889549E9, 2021-05-14 14:17:24.388
69.0, -144.218017578125, -57.90113067626953, -22.26549530029297, 91.2479476928711, 0.03200000151991844, -0.04800000041723251, 1.055999994277954, 0.0, 0.0, 0.0, 0.0, 0.0, 1.6209946443889549E9, 2021-05-14 14:17:24.388
70.0, -145.6578826904297, -54.32578659057617, -23.002254486083984, 93.68636322021484, 0.03200000151991844, -0.04800000041723251, 1.055999994277954, 0.0, 0.0, 0.0, 0.0, 0.0, 1.6209946444026806E9, 2021-05-14 14:17:24.402
70.0, -139.50575256347656, -48.69723892211914, -19.640085220336914, 103.08847045898438, 0.03200000151991844, -0.04800000041723251, 1.055999994277954, 0.0, 0.0, 0.0, 0.0, 0.0, 1.6209946444026806E9, 2021-05-14 14:17:24.402
71.0, -134.9767303466797, -49.87530517578125, -16.790281295776367, 101.25592041015625, 0.03200000151991844, -0.04800000041723251, 1.055999994277954, 0.0, 0.0, 0.0, 0.0, 0.0, 1.620994644418214E9, 2021-05-14 14:17:24.418
71.0, -136.86163330078125, -54.35570526123047, -10.077160835266113, 100.08159637451172, 0.03200000151991844, -0.04800000041723251, 1.055999994277954, 0.0, 0.0, 0.0, 0.0, 0.0, 1.620994644418214E9, 2021-05-14 14:17:24.418
72.0, -139.79371643066406, -63.35016632080078, -16.079700469970703, 98.06578826904297, 0.03200000151991844, -0.04800000041723251, 1.055999994277954, 0.0, 0.0, 0.0, 0.0, 0.0, 1.6209946444188964E9, 2021-05-14 14:17:24.418
72.0, -130.3055877685547, -52.49323654174805, -12.34354019165039, 102.90147399902344, 0.03200000151991844, -0.04800000041723251, 1.055999994277954, 0.0, 0.0, 0.0, 0.0, 0.0, 1.6209946444188964E9, 2021-05-14 14:17:24.418
73.0, -131.7267608642578, -49.527496337890625, -11.950850486755371, 93.98181915283203, 0.03200000151991844, -0.04800000041723251, 1.055999994277954, 0.0, 0.0, 0.0, 0.0, 0.0, 1.620994644449038E9, 2021-05-14 14:17:24.449
