Sample Index, EXG Channel 0, EXG Channel 1, EXG Channel 2, EXG Channel 3, Accel Channel 0, Accel Channel 1, Accel Channel 2, Other, Other, Other, Other, Other, Timestamp, Timestamp (Formatted)
0.0, -133.7575225830078, -50.911258697509766, 49.70513916015625, 177.54052734375, 0.0, 0.0, 0.0, 0.0, 0.0, 0.0, 0.0, 0.0, 1.6209906182290869E9, 2021-05-14 13:10:18.229
1.0, -108.1616439819336, -17.169879913330078, 67.25275421142578, 210.28335571289062, 0.0, -0.04800000041723251, 0.0, 0.0, 0.0, 0.0, 0.0, 0.0, 1.6209906182426298E9, 2021-05-14 13:10:18.242
1.0, -115.45445251464844, -15.88709545135498, 77.39910125732422, 215.58279418945312, 0.0, -0.04800000041723251, 0.0, 0.0, 0.0, 0.0, 0.0, 0.0, 1.6209906182426298E9, 2021-05-14 13:10:18.242
2.0, -130.5636444091797, -66.86566925048828, 54.07334518432617, 178.57273864746094, 0.03200000151991844, -0.04800000041723251, 0.0, 0.0, 0.0, 0.0, 0.0, 0.0, 1.620990618259369E9, 2021-05-14 13:10:18.259
2.0, -111.81926727294922, -56.65948486328125, 61.657859802246094, 186.7855682373047, 0.03200000151991844, -0.04800000041723251, 0.0, 0.0, 0.0, 0.0, 0.0, 0.0, 1.620990618259369E9, 2021-05-14 13:10:18.259
3.0, -115.2038803100586, -19.241785049438477, 72.62698364257812, 230.65084838867188, 0.03200000151991844, -0.04800000041723251, 0.0, 0.0, 0.0, 0.0, 0.0, 0.0, 1.6209906182601044E9, 2021-05-14 13:10:18.260
3.0, -114.5680923461914, -31.332881927490234, 67.08071899414062, 220.2352294921875, 0.03200000151991844, -0.04800000041723251, 0.0, 0.0, 0.0, 0.0, 0.0, 0.0, 1.6209906182601044E9, 2021-05-14 13:10:18.260
4.0, -136.79058837890625, -55.806785583496094, 55.5655632019043, 175.8463592529297, 0.03200000151991844, -0.04800000041723251, 0.0, 0.0, 0.0, 0.0, 0.0, 0.0, 1.6209906182725022E9, 2021-05-14 13:10:18.272
4.0, -127.95319366455078, -43.902687072753906, 56.6688346862793, 184.23121643066406, 0.03200000151991844, -0.04800000041723251, 0.0, 0.0, 0.0, 0.0, 0.0, 0.0, 1.6209906182725022E9, 2021-05-14 13:10:18.272
5.0, -105.98876190185547, -23.149980545043945, 73.4647216796875, 217.1049346923828, 0.03200000151991844, -0.04800000041723251, 0.0, 0.0, 0.0, 0.0, 0.0, 0.0, 1.6209906182881587E9, 2021-05-14 13:10:18.288
5.0, -116.54650115966797, -22.315982818603516, 76.06021881103516, 219.10577392578125, 0.03200000151991844, -0.04800000041723251, 0.0, 0.0, 0.0, 0.0, 0.0, 0.0, 1.6209906182881587E9, 2021-05-14 13:10:18.288
6.0, -138.08084106445312, -47.10029983520508, 52.8541374206543, 183.2738037109375, 0.03200000151991844, -0.04800000041723251, 0.0, 0.0, 0.0, 0.0, 0.0, 0.0, 1.620990618288931E9, 2021-05-14 13:10:18.288
6.0, -122.03667449951172, -54.69977569580078, 64.04391479492188, 187.74298095703125, 0.03200000151991844, -0.04800000041723251, 0.0, 0.0, 0.0, 0.0, 0.0, 0.0, 1.620990618288931E9, 2021-05-14 13:10:18.288
7.0, -112.24935913085938, -22.065410614013672, 80.61915588378906, 223.59365844726562, 0.03200000151991844, -0.04800000041723251, 0.0, 0.0, 0.0, 0.0, 0.0, 0.0, 1.6209906183024397E9, 2021-05-14 13:10:18.302
7.0, -118.95125579833984, -27.263870239257812, 82.62374114990234, 218.8290252685547, 0.03200000151991844, -0.04800000041723251, 0.0, 0.0, 0.0, 0.0, 0.0, 0.0, 1.6209906183024397E9, 2021-05-14 13:10:18.302
8.0, -131.82398986816406, -60.24979019165039, 68.42333984375, 179.94528198242188, 0.03200000151991844, -0.04800000041723251, 0.0, 0.0, 0.0, 0.0, 0.0, 0.0, 1.6209906183182745E9, 2021-05-14 13:10:18.318
8.0, -133.63037109375, -40.37969970703125, 63.50537109375, 177.6190643310547, 0.03200000151991844, -0.04800000041723251, 0.0, 0.0, 0.0, 0.0, 0.0, 0.0, 1.6209906183182745E9, 2021-05-14 13:10:18.318
9.0, -108.53563690185547, -25.094728469848633, 79.8262939453125, 216.43548583984375, 0.03200000151991844, -0.04800000041723251, 0.0, 0.0, 0.0, 0.0, 0.0, 0.0, 1.6209906183190897E9, 2021-05-14 13:10:18.319
9.0, -115.3497314453125, -16.219945907592773, 79.02595520019531, 213.2079620361328, 0.03200000151991844, -0.04800000041723251, 0.0, 0.0, 0.0, 0.0, 0.0, 0.0, 1.6209906183190897E9, 2021-05-14 13:10:18.319
10.0, -135.30958557128906, -52.635353088378906, 64.26457214355469, 177.82102966308594, 0.03200000151991844, -0.04800000041723251, 1.055999994277954, 0.0, 0.0, 0.0, 0.0, 0.0, 1.620990618332414E9, 2021-05-14 13:10:18.332
10.0, -131.90252685546875, -47.3246955871582, 67.60803985595703, 185.5513916015625, 0.03200000151991844, -0.04800000041723251, 1.055999994277954, 0.0, 0.0, 0.0, 0.0, 0.0, 1.620990618332414E9, 2021-05-14 13:10:18.332
11.0, -108.27384185791016, -21.646541595458984, 78.26675415039062, 216.87306213378906, 0.03200000151991844, -0.04800000041723251, 1.055999994277954, 0.0, 0.0, 0.0, 0.0, 0.0, 1.6209906183480947E9, 2021-05-14 13:10:18.348
11.0, -113.53961944580078, -29.664886474609375, 78.82025909423828, 216.52151489257812, 0.03200000151991844, -0.04800000041723251, 1.055999994277954, 0.0, 0.0, 0.0, 0.0, 0.0, 1.6209906183480947E9, 2021-05-14 13:10:18.348
12.0, -127.61286926269531, -43.027549743652344, 66.47111511230469, 182.56695556640625, 0.03200000151991844, -0.04800000041723251, 1.055999994277954, 0.0, 0.0, 0.0, 0.0, 0.0, 1.6209906183632302E9, 2021-05-14 13:10:18.363
12.0, -135.7882843017578, -45.01717758178711, 59.63831329345703, 186.05628967285156, 0.03200000151991844, -0.04800000041723251, 1.055999994277954, 0.0, 0.0, 0.0, 0.0, 0.0, 1.6209906183632302E9, 2021-05-14 13:10:18.363
13.0, -106.83024597167969, -18.41900634765625, 75.71988677978516, 223.7058563232422, 0.03200000151991844, -0.04800000041723251, 1.055999994277954, 0.0, 0.0, 0.0, 0.0, 0.0, 1.620990618363973E9, 2021-05-14 13:10:18.363
13.0, -108.92084503173828, -25.453758239746094, 82.13007354736328, 212.32533264160156, 0.03200000151991844, -0.04800000041723251, 1.055999994277954, 0.0, 0.0, 0.0, 0.0, 0.0, 1.620990618363973E9, 2021-05-14 13:10:18.363
14.0, -143.34661865234375, -30.151073455810547, 59.47749710083008, 178.37078857421875, 0.03200000151991844, -0.04800000041723251, 1.055999994277954, 0.0, 0.0, 0.0, 0.0, 0.0, 1.6209906183781185E9, 2021-05-14 13:10:18.378
14.0, -138.0696258544922, -57.14567184448242, 62.35722351074219, 194.55706787109375, 0.03200000151991844, -0.04800000041723251, 1.055999994277954, 0.0, 0.0, 0.0, 0.0, 0.0, 1.6209906183781185E9, 2021-05-14 13:10:18.378
15.0, -111.90155029296875, -24.477645874023438, 74.10050964355469, 216.1175994873047, 0.03200000151991844, -0.04800000041723251, 1.055999994277954, 0.0, 0.0, 0.0, 0.0, 0.0, 1.6209906183788955E9, 2021-05-14 13:10:18.378
15.0, -107.49968719482422, -24.185932159423828, 81.75982666015625, 218.59341430664062, 0.03200000151991844, -0.04800000041723251, 1.055999994277954, 0.0, 0.0, 0.0, 0.0, 0.0, 1.6209906183788955E9, 2021-05-14 13:10:18.378
16.0, -138.1593780517578, -57.497222900390625, 56.01809310913086, 169.42868041992188, 0.03200000151991844, -0.04800000041723251, 1.055999994277954, 0.0, 0.0, 0.0, 0.0, 0.0, 1.6209906183925018E9, 2021-05-14 13:10:18.392
16.0, -130.485107421875, -51.1805305480957, 59.83279037475586, 178.79339599609375, 0.03200000151991844, -0.04800000041723251, 1.055999994277954, 0.0, 0.0, 0.0, 0.0, 0.0, 1.6209906183925018E9, 2021-05-14 13:10:18.392
17.0, -103.32969665527344, -21.766218185424805, 72.62698364257812, 217.2283477783203, 0.03200000151991844, -0.04800000041723251, 1.055999994277954, 0.0, 0.0, 0.0, 0.0, 0.0, 1.620990618408167E9, 2021-05-14 13:10:18.408
17.0, -111.86415100097656, -27.114274978637695, 80.21524047851562, 219.06463623046875, 0.03200000151991844, -0.04800000041723251, 1.055999994277954, 0.0, 0.0, 0.0, 0.0, 0.0, 1.620990618408167E9, 2021-05-14 13:10:18.408
18.0, -134.95428466796875, -56.0872802734375, 56.84086990356445, 188.32266235351562, 0.03200000151991844, -0.04800000041723251, 1.055999994277954, 0.0, 0.0, 0.0, 0.0, 0.0, 1.6209906184088695E9, 2021-05-14 13:10:18.408
18.0, -141.083984375, -34.35472106933594, 54.222938537597656, 188.83128356933594, 0.03200000151991844, -0.04800000041723251, 1.055999994277954, 0.0, 0.0, 0.0, 0.0, 0.0, 1.6209906184088695E9, 2021-05-14 13:10:18.408
19.0, -114.84111022949219, -28.292343139648438, 72.02860260009766, 229.3044891357422, 0.03200000151991844, -0.04800000041723251, 1.055999994277954, 0.0, 0.0, 0.0, 0.0, 0.0, 1.6209906184224465E9, 2021-05-14 13:10:18.422
19.0, -115.05428314208984, -31.796628952026367, 77.02136993408203, 225.21302795410156, 0.03200000151991844, -0.04800000041723251, 1.055999994277954, 0.0, 0.0, 0.0, 0.0, 0.0, 1.6209906184224465E9, 2021-05-14 13:10:18.422
20.0, -139.36737060546875, -53.16267776489258, 53.6993522644043, 179.82186889648438, 0.03200000151991844, -0.04800000041723251, 1.055999994277954, 0.0, 0.0, 0.0, 0.0, 0.0, 1.6209906184381945E9, 2021-05-14 13:10:18.438
20.0, -135.39186096191406, -52.22396469116211, 57.94414138793945, 187.7953338623047, 0.03200000151991844, -0.04800000041723251, 1.055999994277954, 0.0, 0.0, 0.0, 0.0, 0.0, 1.6209906184381945E9, 2021-05-14 13:10:18.438
21.0, -112.9599380493164, -23.785762786865234, 70.67849731445312, 216.1587371826172, 0.03200000151991844, -0.04800000041723251, 1.055999994277954, 0.0, 0.0, 0.0, 0.0, 0.0, 1.6209906184388795E9, 2021-05-14 13:10:18.438
21.0, -105.72322845458984, -14.619269371032715, 75.98167419433594, 219.18057250976562, 0.03200000151991844, -0.04800000041723251, 1.055999994277954, 0.0, 0.0, 0.0, 0.0, 0.0, 1.6209906184388795E9, 2021-05-14 13:10:18.438
22.0, -140.0704803466797, -40.596614837646484, 54.8250617980957, 177.47695922851562, 0.03200000151991844, -0.04800000041723251, 1.055999994277954, 0.0, 0.0, 0.0, 0.0, 0.0, 1.6209906184524643E9, 2021-05-14 13:10:18.452
22.0, -129.4342041015625, -56.56598663330078, 57.8543815612793, 187.48866271972656, 0.03200000151991844, -0.04800000041723251, 1.055999994277954, 0.0, 0.0, 0.0, 0.0, 0.0, 1.6209906184524643E9, 2021-05-14 13:10:18.452
23.0, -109.6501235961914, -18.78177833557129, 74.5866928100586, 224.72311401367188, 0.03200000151991844, -0.04800000041723251, 1.055999994277954, 0.0, 0.0, 0.0, 0.0, 0.0, 1.620990618468132E9, 2021-05-14 13:10:18.468
23.0, -105.35298156738281, -21.672719955444336, 78.15081787109375, 220.00709533691406, 0.03200000151991844, -0.04800000041723251, 1.055999994277954, 0.0, 0.0, 0.0, 0.0, 0.0, 1.620990618468132E9, 2021-05-14 13:10:18.468
24.0, -141.06155395507812, -49.037567138671875, 59.61961364746094, 176.40359497070312, 0.03200000151991844, -0.04800000041723251, 1.055999994277954, 0.0, 0.0, 0.0, 0.0, 0.0, 1.6209906184688265E9, 2021-05-14 13:10:18.468
24.0, -131.5435028076172, -33.18413162231445, 68.96188354492188, 198.1959991455078, 0.03200000151991844, -0.04800000041723251, 1.055999994277954, 0.0, 0.0, 0.0, 0.0, 0.0, 1.6209906184688265E9, 2021-05-14 13:10:18.468
25.0, -111.9389419555664, -18.97251319885254, 76.35940551757812, 224.36033630371094, 0.03200000151991844, -0.04800000041723251, 1.055999994277954, 0.0, 0.0, 0.0, 0.0, 0.0, 1.6209906184826052E9, 2021-05-14 13:10:18.482
25.0, -104.9677734375, -19.892528533935547, 80.04320526123047, 224.8988800048828, 0.03200000151991844, -0.04800000041723251, 1.055999994277954, 0.0, 0.0, 0.0, 0.0, 0.0, 1.6209906184826052E9, 2021-05-14 13:10:18.482
26.0, -136.71578979492188, -59.827178955078125, 56.126548767089844, 179.63861083984375, 0.03200000151991844, -0.04800000041723251, 1.055999994277954, 0.0, 0.0, 0.0, 0.0, 0.0, 1.6209906184978688E9, 2021-05-14 13:10:18.497
26.0, -127.8372573852539, -56.39768981933594, 64.23838806152344, 191.7521514892578, 0.03200000151991844, -0.04800000041723251, 1.055999994277954, 0.0, 0.0, 0.0, 0.0, 0.0, 1.6209906184978688E9, 2021-05-14 13:10:18.497
27.0, -106.80780029296875, -23.729665756225586, 78.78660583496094, 227.2699737548828, 0.03200000151991844, -0.04800000041723251, 1.055999994277954, 0.0, 0.0, 0.0, 0.0, 0.0, 1.620990618513513E9, 2021-05-14 13:10:18.513
27.0, -113.46856689453125, -31.691911697387695, 78.90254211425781, 222.87933349609375, 0.03200000151991844, -0.04800000041723251, 1.055999994277954, 0.0, 0.0, 0.0, 0.0, 0.0, 1.620990618513513E9, 2021-05-14 13:10:18.513
28.0, -135.54519653320312, -52.586734771728516, 64.48522186279297, 180.3865966796875, 0.03200000151991844, -0.04800000041723251, 1.055999994277954, 0.0, 0.0, 0.0, 0.0, 0.0, 1.6209906185287936E9, 2021-05-14 13:10:18.528
28.0, -122.68367767333984, -36.815574645996094, 62.966827392578125, 182.00970458984375, 0.03200000151991844, -0.04800000041723251, 1.055999994277954, 0.0, 0.0, 0.0, 0.0, 0.0, 1.6209906185287936E9, 2021-05-14 13:10:18.528
29.0, -111.02641296386719, -27.44338607788086, 73.31138610839844, 223.01771545410156, 0.03200000151991844, -0.04800000041723251, 1.055999994277954, 0.0, 0.0, 0.0, 0.0, 0.0, 1.6209906185295525E9, 2021-05-14 13:10:18.529
29.0, -113.19554901123047, -30.416606903076172, 81.90941619873047, 223.0326690673828, 0.03200000151991844, -0.04800000041723251, 1.055999994277954, 0.0, 0.0, 0.0, 0.0, 0.0, 1.6209906185295525E9, 2021-05-14 13:10:18.529
30.0, -141.2223663330078, -53.46186828613281, 65.14718627929688, 177.02069091796875, 0.03200000151991844, -0.04800000041723251, 1.055999994277954, 0.0, 0.0, 0.0, 0.0, 0.0, 1.620990618530296E9, 2021-05-14 13:10:18.530
30.0, -129.9016876220703, -44.12334060668945, 63.68488693237305, 182.91476440429688, 0.03200000151991844, -0.04800000041723251, 1.055999994277954, 0.0, 0.0, 0.0, 0.0, 0.0, 1.620990618530296E9, 2021-05-14 13:10:18.530
31.0, -105.3716812133789, -23.808202743530273, 74.77368927001953, 217.13485717773438, 0.03200000151991844, -0.04800000041723251, 1.055999994277954, 0.0, 0.0, 0.0, 0.0, 0.0, 1.6209906185424623E9, 2021-05-14 13:10:18.542
31.0, -106.5983657836914, -13.96104621887207, 82.5564193725586, 211.3380126953125, 0.03200000151991844, -0.04800000041723251, 1.055999994277954, 0.0, 0.0, 0.0, 0.0, 0.0, 1.6209906185424623E9, 2021-05-14 13:10:18.542
32.0, -130.32803344726562, -55.821746826171875, 63.015445709228516, 173.97640991210938, 0.03200000151991844, -0.04800000041723251, 1.055999994277954, 0.0, 0.0, 0.0, 0.0, 0.0, 1.6209906185579855E9, 2021-05-14 13:10:18.557
32.0, -113.20677185058594, -40.37596130371094, 67.95584869384766, 185.9365997314453, 0.03200000151991844, -0.04800000041723251, 1.055999994277954, 0.0, 0.0, 0.0, 0.0, 0.0, 1.6209906185579855E9, 2021-05-14 13:10:18.557
33.0, -90.90200805664062, -18.598522186279297, 81.7934799194336, 220.88223266601562, 0.03200000151991844, -0.04800000041723251, 1.055999994277954, 0.0, 0.0, 0.0, 0.0, 0.0, 1.6209906185730977E9, 2021-05-14 13:10:18.573
33.0, -107.00601959228516, -31.246864318847656, 76.92413330078125, 214.1279754638672, 0.03200000151991844, -0.04800000041723251, 1.055999994277954, 0.0, 0.0, 0.0, 0.0, 0.0, 1.6209906185730977E9, 2021-05-14 13:10:18.573
34.0, -124.20955657958984, -58.151702880859375, 62.02437210083008, 176.80377197265625, 0.03200000151991844, -0.04800000041723251, 1.055999994277954, 0.0, 0.0, 0.0, 0.0, 0.0, 1.6209906185738187E9, 2021-05-14 13:10:18.573
34.0, -117.51513671875, -59.03805923461914, 59.39522171020508, 180.74562072753906, 0.03200000151991844, -0.04800000041723251, 1.055999994277954, 0.0, 0.0, 0.0, 0.0, 0.0, 1.6209906185738187E9, 2021-05-14 13:10:18.573
35.0, -84.5965347290039, -25.779130935668945, 80.66777038574219, 229.6036834716797, 0.03200000151991844, -0.04800000041723251, 1.055999994277954, 0.0, 0.0, 0.0, 0.0, 0.0, 1.6209906185882268E9, 2021-05-14 13:10:18.588
35.0, -100.47988891601562, -30.973852157592773, 78.19195556640625, 216.06524658203125, 0.03200000151991844, -0.04800000041723251, 1.055999994277954, 0.0, 0.0, 0.0, 0.0, 0.0, 1.6209906185882268E9, 2021-05-14 13:10:18.588
36.0, -113.46482849121094, -61.43533706665039, 64.54132080078125, 181.58335876464844, 0.03200000151991844, -0.04800000041723251, 1.055999994277954, 0.0, 0.0, 0.0, 0.0, 0.0, 1.6209906185889063E9, 2021-05-14 13:10:18.588
36.0, -111.84170532226562, -62.38153076171875, 68.65521240234375, 190.4656219482422, 0.03200000151991844, -0.04800000041723251, 1.055999994277954, 0.0, 0.0, 0.0, 0.0, 0.0, 1.6209906185889063E9, 2021-05-14 13:10:18.588
37.0, -92.16983795166016, -42.8480339050293, 80.94078826904297, 223.68714904785156, 0.03200000151991844, -0.04800000041723251, 1.055999994277954, 0.0, 0.0, 0.0, 0.0, 0.0, 1.6209906186025178E9, 2021-05-14 13:10:18.602
37.0, -99.27564239501953, -43.72690963745117, 80.79866790771484, 222.6885986328125, 0.03200000151991844, -0.04800000041723251, 1.055999994277954, 0.0, 0.0, 0.0, 0.0, 0.0, 1.6209906186025178E9, 2021-05-14 13:10:18.602
38.0, -126.96586608886719, -78.29480743408203, 64.7918930053711, 184.4630889892578, 0.03200000151991844, -0.04800000041723251, 1.055999994277954, 0.0, 0.0, 0.0, 0.0, 0.0, 1.6209906186186109E9, 2021-05-14 13:10:18.618
38.0, -117.98636627197266, -71.37225341796875, 65.71939086914062, 194.47105407714844, 0.03200000151991844, -0.04800000041723251, 1.055999994277954, 0.0, 0.0, 0.0, 0.0, 0.0, 1.6209906186186109E9, 2021-05-14 13:10:18.618
39.0, -88.48977661132812, -42.784454345703125, 84.56100463867188, 228.93797302246094, 0.03200000151991844, -0.04800000041723251, 1.055999994277954, 0.0, 0.0, 0.0, 0.0, 0.0, 1.620990618633196E9, 2021-05-14 13:10:18.633
39.0, -89.3910903930664, -37.817867279052734, 83.79806518554688, 231.8999786376953, 0.03200000151991844, -0.04800000041723251, 1.055999994277954, 0.0, 0.0, 0.0, 0.0, 0.0, 1.620990618633196E9, 2021-05-14 13:10:18.633
40.0, -132.8973388671875, -75.96485137939453, 57.49535369873047, 175.6780548095703, 0.03200000151991844, -0.04800000041723251, 1.055999994277954, 0.0, 0.0, 0.0, 0.0, 0.0, 1.620990618633829E9, 2021-05-14 13:10:18.633
40.0, -119.11581420898438, -73.36935424804688, 67.10689544677734, 188.5246124267578, 0.03200000151991844, -0.04800000041723251, 1.055999994277954, 0.0, 0.0, 0.0, 0.0, 0.0, 1.620990618633829E9, 2021-05-14 13:10:18.633
41.0, -91.99405670166016, -35.79458236694336, 80.39849853515625, 224.28927612304688, 0.03200000151991844, -0.04800000041723251, 1.055999994277954, 0.0, 0.0, 0.0, 0.0, 0.0, 1.6209906186481843E9, 2021-05-14 13:10:18.648
41.0, -98.73709869384766, -60.75467300415039, 78.84269714355469, 217.5238037109375, 0.03200000151991844, -0.04800000041723251, 1.055999994277954, 0.0, 0.0, 0.0, 0.0, 0.0, 1.6209906186481843E9, 2021-05-14 13:10:18.648
42.0, -123.52141571044922, -75.0186538696289, 56.35468292236328, 173.07135009765625, 0.03200000151991844, -0.04800000041723251, 1.055999994277954, 0.0, 0.0, 0.0, 0.0, 0.0, 1.620990618648889E9, 2021-05-14 13:10:18.648
42.0, -114.94208526611328, -62.86397933959961, 63.007965087890625, 187.9299774169922, 0.03200000151991844, -0.04800000041723251, 1.055999994277954, 0.0, 0.0, 0.0, 0.0, 0.0, 1.620990618648889E9, 2021-05-14 13:10:18.648
43.0, -93.37782287597656, -41.733543395996094, 80.73135375976562, 233.246337890625, 0.03200000151991844, -0.04800000041723251, 1.055999994277954, 0.0, 0.0, 0.0, 0.0, 0.0, 1.62099061866243E9, 2021-05-14 13:10:18.662
43.0, -105.95136260986328, -45.91849136352539, 80.1030502319336, 220.77377319335938, 0.03200000151991844, -0.04800000041723251, 1.055999994277954, 0.0, 0.0, 0.0, 0.0, 0.0, 1.62099061866243E9, 2021-05-14 13:10:18.662
44.0, -125.4624252319336, -61.749488830566406, 63.056583404541016, 179.8854522705078, 0.03200000151991844, -0.04800000041723251, 1.055999994277954, 0.0, 0.0, 0.0, 0.0, 0.0, 1.6209906186785417E9, 2021-05-14 13:10:18.678
44.0, -120.74266815185547, -72.74853515625, 67.7651138305664, 198.0613555908203, 0.03200000151991844, -0.04800000041723251, 1.055999994277954, 0.0, 0.0, 0.0, 0.0, 0.0, 1.6209906186785417E9, 2021-05-14 13:10:18.678
45.0, -99.63093566894531, -38.45738983154297, 80.6079330444336, 223.5413055419922, 0.03200000151991844, -0.04800000041723251, 1.055999994277954, 0.0, 0.0, 0.0, 0.0, 0.0, 1.6209906186931224E9, 2021-05-14 13:10:18.693
45.0, -86.44404602050781, -44.96107864379883, 87.87081909179688, 229.41668701171875, 0.03200000151991844, -0.04800000041723251, 1.055999994277954, 0.0, 0.0, 0.0, 0.0, 0.0, 1.6209906186931224E9, 2021-05-14 13:10:18.693
46.0, -130.3055877685547, -67.83056640625, 64.13741302490234, 186.92393493652344, 0.03200000151991844, -0.04800000041723251, 1.055999994277954, 0.0, 0.0, 0.0, 0.0, 0.0, 1.6209906186938105E9, 2021-05-14 13:10:18.693
46.0, -113.02351379394531, -63.783992767333984, 69.8445053100586, 193.9549560546875, 0.03200000151991844, -0.04800000041723251, 1.055999994277954, 0.0, 0.0, 0.0, 0.0, 0.0, 1.6209906186938105E9, 2021-05-14 13:10:18.693
47.0, -93.27684783935547, -32.1893196105957, 81.8346176147461, 225.04473876953125, 0.03200000151991844, -0.04800000041723251, 1.055999994277954, 0.0, 0.0, 0.0, 0.0, 0.0, 1.620990618708136E9, 2021-05-14 13:10:18.708
47.0, -100.63697052001953, -45.21913146972656, 87.62398529052734, 222.43429565429688, 0.03200000151991844, -0.04800000041723251, 1.055999994277954, 0.0, 0.0, 0.0, 0.0, 0.0, 1.620990618708136E9, 2021-05-14 13:10:18.708
48.0, -120.989501953125, -78.85205078125, 66.75160217285156, 179.13372802734375, 0.03200000151991844, -0.04800000041723251, 1.055999994277954, 0.0, 0.0, 0.0, 0.0, 0.0, 1.6209906187088184E9, 2021-05-14 13:10:18.708
48.0, -112.64579010009766, -69.0759506225586, 68.62529754638672, 185.5139923095703, 0.03200000151991844, -0.04800000041723251, 1.055999994277954, 0.0, 0.0, 0.0, 0.0, 0.0, 1.6209906187088184E9, 2021-05-14 13:10:18.708
49.0, -92.34187316894531, -42.8293342590332, 86.94706726074219, 220.40725708007812, 0.03200000151991844, -0.04800000041723251, 1.055999994277954, 0.0, 0.0, 0.0, 0.0, 0.0, 1.6209906187388113E9, 2021-05-14 13:10:18.738
49.0, -110.7533950805664, -36.355567932128906, 84.43385314941406, 208.1142120361328, 0.03200000151991844, -0.04800000041723251, 1.055999994277954, 0.0, 0.0, 0.0, 0.0, 0.0, 1.6209906187388113E9, 2021-05-14 13:10:18.738
50.0, -127.22017669677734, -77.09429931640625, 62.56291580200195, 168.02622985839844, 0.03200000151991844, -0.04800000041723251, 1.055999994277954, 0.0, 0.0, 0.0, 0.0, 0.0, 1.620990618739647E9, 2021-05-14 13:10:18.739
50.0, -116.94667053222656, -52.35860061645508, 64.01025390625, 174.15966796875, 0.03200000151991844, -0.04800000041723251, 1.055999994277954, 0.0, 0.0, 0.0, 0.0, 0.0, 1.620990618739647E9, 2021-05-14 13:10:18.739
51.0, -105.3268051147461, -56.12467956542969, 76.86055755615234, 208.17405700683594, 0.03200000151991844, -0.04800000041723251, 1.055999994277954, 0.0, 0.0, 0.0, 0.0, 0.0, 1.6209906187402756E9, 2021-05-14 13:10:18.740
51.0, -99.25694274902344, -46.15410614013672, 78.10594177246094, 220.194091796875, 0.03200000151991844, -0.04800000041723251, 1.055999994277954, 0.0, 0.0, 0.0, 0.0, 0.0, 1.6209906187402756E9, 2021-05-14 13:10:18.740
52.0, -129.0564727783203, -81.81779479980469, 54.97465896606445, 180.5062713623047, 0.03200000151991844, -0.04800000041723251, 1.055999994277954, 0.0, 0.0, 0.0, 0.0, 0.0, 1.620990618752594E9, 2021-05-14 13:10:18.752
52.0, -125.98226928710938, -73.0701675415039, 60.9061393737793, 186.6920623779297, 0.03200000151991844, -0.04800000041723251, 1.055999994277954, 0.0, 0.0, 0.0, 0.0, 0.0, 1.620990618752594E9, 2021-05-14 13:10:18.752
53.0, -98.01903533935547, -46.39719772338867, 73.71903991699219, 219.53961181640625, 0.03200000151991844, -0.04800000041723251, 1.055999994277954, 0.0, 0.0, 0.0, 0.0, 0.0, 1.6209906187681963E9, 2021-05-14 13:10:18.768
53.0, -85.58386993408203, -50.241817474365234, 76.7932357788086, 223.3692626953125, 0.03200000151991844, -0.04800000041723251, 1.055999994277954, 0.0, 0.0, 0.0, 0.0, 0.0, 1.6209906187681963E9, 2021-05-14 13:10:18.768
54.0, -134.6363983154297, -62.57600784301758, 59.410179138183594, 182.2789764404297, 0.03200000151991844, -0.04800000041723251, 1.055999994277954, 0.0, 0.0, 0.0, 0.0, 0.0, 1.620990618768886E9, 2021-05-14 13:10:18.768
54.0, -116.29966735839844, -82.6854476928711, 62.43949890136719, 187.1745147705078, 0.03200000151991844, -0.04800000041723251, 1.055999994277954, 0.0, 0.0, 0.0, 0.0, 0.0, 1.620990618768886E9, 2021-05-14 13:10:18.768
55.0, -111.95390319824219, -40.24132537841797, 75.42816925048828, 220.85604858398438, 0.03200000151991844, -0.04800000041723251, 1.055999994277954, 0.0, 0.0, 0.0, 0.0, 0.0, 1.620990618798772E9, 2021-05-14 13:10:18.798
55.0, -107.30895233154297, -28.359661102294922, 80.85476684570312, 223.65724182128906, 0.03200000151991844, -0.04800000041723251, 1.055999994277954, 0.0, 0.0, 0.0, 0.0, 0.0, 1.620990618798772E9, 2021-05-14 13:10:18.798
56.0, -124.4451675415039, -76.6043701171875, 62.039329528808594, 178.32217407226562, 0.03200000151991844, -0.04800000041723251, 1.055999994277954, 0.0, 0.0, 0.0, 0.0, 0.0, 1.620990618799483E9, 2021-05-14 13:10:18.799
56.0, -131.70057678222656, -65.23881530761719, 65.01628875732422, 183.38973999023438, 0.03200000151991844, -0.04800000041723251, 1.055999994277954, 0.0, 0.0, 0.0, 0.0, 0.0, 1.620990618799483E9, 2021-05-14 13:10:18.799
57.0, -102.2750473022461, -34.25374221801758, 82.22357177734375, 217.96510314941406, 0.03200000151991844, -0.04800000041723251, 1.055999994277954, 0.0, 0.0, 0.0, 0.0, 0.0, 1.620990618800234E9, 2021-05-14 13:10:18.800
57.0, -98.6697769165039, -28.097867965698242, 90.29801177978516, 221.82469177246094, 0.03200000151991844, -0.04800000041723251, 1.055999994277954, 0.0, 0.0, 0.0, 0.0, 0.0, 1.620990618800234E9, 2021-05-14 13:10:18.800
58.0, -135.062744140625, -75.30662536621094, 63.55773162841797, 173.18728637695312, 0.03200000151991844, -0.04800000041723251, 1.055999994277954, 0.0, 0.0, 0.0, 0.0, 0.0, 1.620990618812438E9, 2021-05-14 13:10:18.812
58.0, -120.64543151855469, -53.60772705078125, 69.9716567993164, 181.94613647460938, 0.03200000151991844, -0.04800000041723251, 1.055999994277954, 0.0, 0.0, 0.0, 0.0, 0.0, 1.620990618812438E9, 2021-05-14 13:10:18.812
59.0, -96.27250671386719, -45.82125473022461, 77.46267700195312, 217.45648193359375, 0.03200000151991844, -0.04800000041723251, 1.055999994277954, 0.0, 0.0, 0.0, 0.0, 0.0, 1.6209906188281112E9, 2021-05-14 13:10:18.828
59.0, -104.09637451171875, -46.48321533203125, 78.55098724365234, 211.0014190673828, 0.03200000151991844, -0.04800000041723251, 1.055999994277954, 0.0, 0.0, 0.0, 0.0, 0.0, 1.6209906188281112E9, 2021-05-14 13:10:18.828
60.0, -132.66172790527344, -71.71632385253906, 57.20737838745117, 168.15711975097656, 0.03200000151991844, -0.04800000041723251, 1.055999994277954, 0.0, 0.0, 0.0, 0.0, 0.0, 1.6209906188288517E9, 2021-05-14 13:10:18.828
60.0, -119.28784942626953, -64.96580505371094, 53.920005798339844, 177.94818115234375, 0.03200000151991844, -0.04800000041723251, 1.055999994277954, 0.0, 0.0, 0.0, 0.0, 0.0, 1.6209906188288517E9, 2021-05-14 13:10:18.828
61.0, -96.0181884765625, -36.770694732666016, 72.60828399658203, 218.30543518066406, 0.03200000151991844, -0.04800000041723251, 1.055999994277954, 0.0, 0.0, 0.0, 0.0, 0.0, 1.6209906188586018E9, 2021-05-14 13:10:18.858
61.0, -107.63432312011719, -50.006202697753906, 69.51912689208984, 206.77532958984375, 0.03200000151991844, -0.04800000041723251, 1.055999994277954, 0.0, 0.0, 0.0, 0.0, 0.0, 1.6209906188586018E9, 2021-05-14 13:10:18.858
62.0, -132.5644989013672, -73.83684539794922, 58.520084381103516, 168.6395721435547, 0.03200000151991844, -0.04800000041723251, 1.055999994277954, 0.0, 0.0, 0.0, 0.0, 0.0, 1.6209906188593447E9, 2021-05-14 13:10:18.859
62.0, -130.9525909423828, -58.76504898071289, 57.18120193481445, 168.5872039794922, 0.03200000151991844, -0.04800000041723251, 1.055999994277954, 0.0, 0.0, 0.0, 0.0, 0.0, 1.6209906188593447E9, 2021-05-14 13:10:18.859
63.0, -107.85871124267578, -35.824501037597656, 72.49234771728516, 210.2272491455078, 0.03200000151991844, -0.04800000041723251, 1.055999994277954, 0.0, 0.0, 0.0, 0.0, 0.0, 1.620990618873135E9, 2021-05-14 13:10:18.873
63.0, -112.37277221679688, -19.66439437866211, 73.25154876708984, 206.59580993652344, 0.03200000151991844, -0.04800000041723251, 1.055999994277954, 0.0, 0.0, 0.0, 0.0, 0.0, 1.620990618873135E9, 2021-05-14 13:10:18.873
64.0, -124.29557800292969, -79.09514617919922, 61.39980697631836, 170.26268005371094, 0.03200000151991844, -0.04800000041723251, 1.055999994277954, 0.0, 0.0, 0.0, 0.0, 0.0, 1.6209906188738577E9, 2021-05-14 13:10:18.873
64.0, -120.43973541259766, -63.2828483581543, 58.16105270385742, 175.94732666015625, 0.03200000151991844, -0.04800000041723251, 1.055999994277954, 0.0, 0.0, 0.0, 0.0, 0.0, 1.6209906188738577E9, 2021-05-14 13:10:18.873
65.0, -104.39556884765625, -35.42059326171875, 66.59078979492188, 212.74795532226562, 0.03200000151991844, -0.04800000041723251, 1.055999994277954, 0.0, 0.0, 0.0, 0.0, 0.0, 1.620990618888111E9, 2021-05-14 13:10:18.888
65.0, -126.53203582763672, -25.098468780517578, 66.5982666015625, 205.38783264160156, 0.03200000151991844, -0.04800000041723251, 1.055999994277954, 0.0, 0.0, 0.0, 0.0, 0.0, 1.620990618888111E9, 2021-05-14 13:10:18.888
66.0, -138.23043823242188, -32.873722076416016, 57.39811325073242, 169.94105529785156, 0.03200000151991844, -0.04800000041723251, 1.055999994277954, 0.0, 0.0, 0.0, 0.0, 0.0, 1.6209906188889024E9, 2021-05-14 13:10:18.888
66.0, -134.0380096435547, -60.33580780029297, 57.48039245605469, 177.56297302246094, 0.03200000151991844, -0.04800000041723251, 1.055999994277954, 0.0, 0.0, 0.0, 0.0, 0.0, 1.6209906188889024E9, 2021-05-14 13:10:18.888
67.0, -110.68608093261719, -14.338776588439941, 74.73255157470703, 212.68063354492188, 0.03200000151991844, -0.04800000041723251, 1.055999994277954, 0.0, 0.0, 0.0, 0.0, 0.0, 1.6209906189024377E9, 2021-05-14 13:10:18.902
67.0, -114.02581024169922, -25.401399612426758, 78.04236602783203, 211.72695922851562, 0.03200000151991844, -0.04800000041723251, 1.055999994277954, 0.0, 0.0, 0.0, 0.0, 0.0, 1.6209906189024377E9, 2021-05-14 13:10:18.902
68.0, -141.846923828125, -57.9534912109375, 51.58631134033203, 158.54931640625, 0.03200000151991844, -0.04800000041723251, 1.055999994277954, 0.0, 0.0, 0.0, 0.0, 0.0, 1.6209906189182005E9, 2021-05-14 13:10:18.918
68.0, -120.6678695678711, -46.905826568603516, 63.157562255859375, 179.1112823486328, 0.03200000151991844, -0.04800000041723251, 1.055999994277954, 0.0, 0.0, 0.0, 0.0, 0.0, 1.6209906189182005E9, 2021-05-14 13:10:18.918
69.0, -103.15392303466797, -21.773696899414062, 71.02631378173828, 204.65480041503906, 0.03200000151991844, -0.04800000041723251, 1.055999994277954, 0.0, 0.0, 0.0, 0.0, 0.0, 1.6209906189189095E9, 2021-05-14 13:10:18.918
69.0, -109.93810272216797, -36.8080940246582, 78.25180053710938, 207.36997985839844, 0.03200000151991844, -0.04800000041723251, 1.055999994277954, 0.0, 0.0, 0.0, 0.0, 0.0, 1.6209906189189095E9, 2021-05-14 13:10:18.918
70.0, -138.94476318359375, -60.71353530883789, 56.51923751831055, 165.8533477783203, 0.03200000151991844, -0.04800000041723251, 1.055999994277954, 0.0, 0.0, 0.0, 0.0, 0.0, 1.6209906189325855E9, 2021-05-14 13:10:18.932
70.0, -126.16178131103516, -50.65320587158203, 68.02690887451172, 175.2666778564453, 0.03200000151991844, -0.04800000041723251, 1.055999994277954, 0.0, 0.0, 0.0, 0.0, 0.0, 1.6209906189325855E9, 2021-05-14 13:10:18.932
71.0, -102.71261596679688, -26.781423568725586, 81.20631408691406, 206.801513671875, 0.03200000151991844, -0.04800000041723251, 1.055999994277954, 0.0, 0.0, 0.0, 0.0, 0.0, 1.6209906189480808E9, 2021-05-14 13:10:18.948
71.0, -100.00118255615234, -29.672367095947266, 84.32913208007812, 206.26670837402344, 0.03200000151991844, -0.04800000041723251, 1.055999994277954, 0.0, 0.0, 0.0, 0.0, 0.0, 1.6209906189480808E9, 2021-05-14 13:10:18.948
72.0, -139.40476989746094, -57.57575988769531, 63.13886260986328, 160.14625549316406, 0.03200000151991844, -0.04800000041723251, 1.055999994277954, 0.0, 0.0, 0.0, 0.0, 0.0, 1.6209906189488328E9, 2021-05-14 13:10:18.948
72.0, -128.63011169433594, -53.60398483276367, 66.94982147216797, 166.8967742919922, 0.03200000151991844, -0.04800000041723251, 1.055999994277954, 0.0, 0.0, 0.0, 0.0, 0.0, 1.6209906189488328E9, 2021-05-14 13:10:18.948
73.0, -100.94364166259766, -2.5767910480499268, 81.72242736816406, 213.13690185546875, 0.03200000151991844, -0.04800000041723251, 1.055999994277954, 0.0, 0.0, 0.0, 0.0, 0.0, 1.6209906189625068E9, 2021-05-14 13:10:18.962
73.0, -109.87078094482422, -37.84778594970703, 82.73967742919922, 206.39385986328125, 0.03200000151991844, -0.04800000041723251, 1.055999994277954, 0.0, 0.0, 0.0, 0.0, 0.0, 1.6209906189625068E9, 2021-05-14 13:10:18.962
74.0, -137.83401489257812, -60.96036911010742, 67.78755950927734, 172.94793701171875, 0.03200000151991844, -0.04800000041723251, 1.055999994277954, 0.0, 0.0, 0.0, 0.0, 0.0, 1.6209906189778388E9, 2021-05-14 13:10:18.977
74.0, -125.95983123779297, -54.72969436645508, 71.80420684814453, 182.24533081054688, 0.03200000151991844, -0.04800000041723251, 1.055999994277954, 0.0, 0.0, 0.0, 0.0, 0.0, 1.6209906189778388E9, 2021-05-14 13:10:18.977
75.0, -103.56156921386719, -29.676105499267578, 78.82400512695312, 220.26889038085938, 0.03200000151991844, -0.04800000041723251, 1.055999994277954, 0.0, 0.0, 0.0, 0.0, 0.0, 1.6209906189931347E9, 2021-05-14 13:10:18.993
75.0, -105.2894058227539, -18.467626571655273, 86.991943359375, 222.38192749023438, 0.03200000151991844, -0.04800000041723251, 1.055999994277954, 0.0, 0.0, 0.0, 0.0, 0.0, 1.6209906189931347E9, 2021-05-14 13:10:18.993
76.0, -136.166015625, -77.67024230957031, 57.83194351196289, 174.81414794921875, 0.03200000151991844, -0.04800000041723251, 1.055999994277954, 0.0, 0.0, 0.0, 0.0, 0.0, 1.6209906189938295E9, 2021-05-14 13:10:18.993
76.0, -118.8016586303711, -53.44316864013672, 57.615028381347656, 180.01634216308594, 0.03200000151991844, -0.04800000041723251, 1.055999994277954, 0.0, 0.0, 0.0, 0.0, 0.0, 1.6209906189938295E9, 2021-05-14 13:10:18.993
77.0, -119.96851348876953, -28.30356216430664, 68.73748779296875, 211.2594757080078, 0.03200000151991844, -0.04800000041723251, 1.055999994277954, 0.0, 0.0, 0.0, 0.0, 0.0, 1.620990619008788E9, 2021-05-14 13:10:19.008
77.0, -108.17286682128906, -28.76357078552246, 82.18243408203125, 223.03640747070312, 0.03200000151991844, -0.04800000041723251, 1.055999994277954, 0.0, 0.0, 0.0, 0.0, 0.0, 1.620990619008788E9, 2021-05-14 13:10:19.008
78.0, -139.79745483398438, -59.8309211730957, 57.184940338134766, 169.6942138671875, 0.03200000151991844, -0.04800000041723251, 1.055999994277954, 0.0, 0.0, 0.0, 0.0, 0.0, 1.62099061900951E9, 2021-05-14 13:10:19.009
78.0, -132.1343994140625, -51.75647735595703, 56.13776779174805, 167.63352966308594, 0.03200000151991844, -0.04800000041723251, 1.055999994277954, 0.0, 0.0, 0.0, 0.0, 0.0, 1.62099061900951E9, 2021-05-14 13:10:19.009
79.0, -106.94618225097656, -28.19136619567871, 71.05996704101562, 205.55612182617188, 0.03200000151991844, -0.04800000041723251, 1.055999994277954, 0.0, 0.0, 0.0, 0.0, 0.0, 1.6209906190224607E9, 2021-05-14 13:10:19.022
79.0, -110.02037811279297, -29.964078903198242, 76.7333984375, 202.1715087890625, 0.03200000151991844, -0.04800000041723251, 1.055999994277954, 0.0, 0.0, 0.0, 0.0, 0.0, 1.6209906190224607E9, 2021-05-14 13:10:19.022
80.0, -132.351318359375, -56.69688415527344, 50.41946029663086, 165.86456298828125, 0.03200000151991844, -0.04800000041723251, 1.055999994277954, 0.0, 0.0, 0.0, 0.0, 0.0, 1.6209906190383916E9, 2021-05-14 13:10:19.038
80.0, -136.94017028808594, -48.383087158203125, 48.23910140991211, 170.7713165283203, 0.03200000151991844, -0.04800000041723251, 1.055999994277954, 0.0, 0.0, 0.0, 0.0, 0.0, 1.6209906190383916E9, 2021-05-14 13:10:19.038
81.0, -99.36540222167969, -24.851634979248047, 70.03897857666016, 216.86183166503906, 0.03200000151991844, -0.04800000041723251, 1.055999994277954, 0.0, 0.0, 0.0, 0.0, 0.0, 1.620990619039029E9, 2021-05-14 13:10:19.039
81.0, -110.7945327758789, -29.313335418701172, 72.20437622070312, 201.73020935058594, 0.03200000151991844, -0.04800000041723251, 1.055999994277954, 0.0, 0.0, 0.0, 0.0, 0.0, 1.620990619039029E9, 2021-05-14 13:10:19.039
82.0, -128.76475524902344, -51.89485168457031, 61.54940414428711, 161.6160430908203, 0.03200000151991844, -0.04800000041723251, 1.055999994277954, 0.0, 0.0, 0.0, 0.0, 0.0, 1.6209906190524693E9, 2021-05-14 13:10:19.052
82.0, -120.55567169189453, -53.57780838012695, 57.60380935668945, 168.127197265625, 0.03200000151991844, -0.04800000041723251, 1.055999994277954, 0.0, 0.0, 0.0, 0.0, 0.0, 1.6209906190524693E9, 2021-05-14 13:10:19.052
83.0, -98.44912719726562, -19.956106185913086, 80.93704223632812, 206.56964111328125, 0.03200000151991844, -0.04800000041723251, 1.055999994277954, 0.0, 0.0, 0.0, 0.0, 0.0, 1.620990619068296E9, 2021-05-14 13:10:19.068
83.0, -105.0911865234375, -28.75609016418457, 81.23249816894531, 211.48760986328125, 0.03200000151991844, -0.04800000041723251, 1.055999994277954, 0.0, 0.0, 0.0, 0.0, 0.0, 1.620990619068296E9, 2021-05-14 13:10:19.068
84.0, -138.7577667236328, -63.28658676147461, 52.218353271484375, 166.3021240234375, 0.03200000151991844, -0.04800000041723251, 1.055999994277954, 0.0, 0.0, 0.0, 0.0, 0.0, 1.620990619069049E9, 2021-05-14 13:10:19.069
84.0, -123.77947235107422, -56.26679611206055, 61.474605560302734, 180.78302001953125, 0.03200000151991844, -0.04800000041723251, 1.055999994277954, 0.0, 0.0, 0.0, 0.0, 0.0, 1.620990619069049E9, 2021-05-14 13:10:19.069
85.0, -98.2471694946289, -29.272197723388672, 75.21873474121094, 211.48760986328125, 0.03200000151991844, -0.04800000041723251, 1.055999994277954, 0.0, 0.0, 0.0, 0.0, 0.0, 1.6209906190824819E9, 2021-05-14 13:10:19.082
85.0, -112.88513946533203, -29.92293930053711, 74.83726501464844, 211.4988250732422, 0.03200000151991844, -0.04800000041723251, 1.055999994277954, 0.0, 0.0, 0.0, 0.0, 0.0, 1.6209906190824819E9, 2021-05-14 13:10:19.082
86.0, -140.62771606445312, -62.71064376831055, 55.15791320800781, 166.83694458007812, 0.03200000151991844, -0.04800000041723251, 1.055999994277954, 0.0, 0.0, 0.0, 0.0, 0.0, 1.620990619098353E9, 2021-05-14 13:10:19.098
86.0, -126.23284149169922, -53.54414749145508, 68.60659790039062, 184.61642456054688, 0.03200000151991844, -0.04800000041723251, 1.055999994277954, 0.0, 0.0, 0.0, 0.0, 0.0, 1.620990619098353E9, 2021-05-14 13:10:19.098
87.0, -109.8633041381836, -22.14394760131836, 73.00471496582031, 213.94845581054688, 0.03200000151991844, -0.04800000041723251, 1.055999994277954, 0.0, 0.0, 0.0, 0.0, 0.0, 1.6209906190990949E9, 2021-05-14 13:10:19.099
87.0, -106.235595703125, -21.616621017456055, 88.55522155761719, 216.82818603515625, 0.03200000151991844, -0.04800000041723251, 1.055999994277954, 0.0, 0.0, 0.0, 0.0, 0.0, 1.6209906190990949E9, 2021-05-14 13:10:19.099
88.0, -138.55581665039062, -54.883033752441406, 60.666786193847656, 171.59408569335938, 0.03200000151991844, -0.04800000041723251, 1.055999994277954, 0.0, 0.0, 0.0, 0.0, 0.0, 1.6209906191124215E9, 2021-05-14 13:10:19.112
88.0, -127.47823333740234, -48.92911148071289, 64.2047348022461, 176.94589233398438, 0.03200000151991844, -0.04800000041723251, 1.055999994277954, 0.0, 0.0, 0.0, 0.0, 0.0, 1.6209906191124215E9, 2021-05-14 13:10:19.112
89.0, -117.68717193603516, -5.411635398864746, 79.3027114868164, 208.2077178955078, 0.03200000151991844, -0.04800000041723251, 1.055999994277954, 0.0, 0.0, 0.0, 0.0, 0.0, 1.6209906191282864E9, 2021-05-14 13:10:19.128
89.0, -113.93978881835938, -24.604801177978516, 75.18133544921875, 203.8694305419922, 0.03200000151991844, -0.04800000041723251, 1.055999994277954, 0.0, 0.0, 0.0, 0.0, 0.0, 1.6209906191282864E9, 2021-05-14 13:10:19.128
90.0, -136.9813232421875, -63.03975296020508, 58.082515716552734, 162.35279846191406, 0.03200000151991844, -0.04800000041723251, 1.055999994277954, 0.0, 0.0, 0.0, 0.0, 0.0, 1.6209906191290128E9, 2021-05-14 13:10:19.129
90.0, -129.1724090576172, -52.88218688964844, 53.646995544433594, 167.5849151611328, 0.03200000151991844, -0.04800000041723251, 1.055999994277954, 0.0, 0.0, 0.0, 0.0, 0.0, 1.6209906191290128E9, 2021-05-14 13:10:19.129
91.0, -103.22872161865234, -26.534589767456055, 71.90144348144531, 201.21035766601562, 0.03200000151991844, -0.04800000041723251, 1.055999994277954, 0.0, 0.0, 0.0, 0.0, 0.0, 1.6209906191425323E9, 2021-05-14 13:10:19.142
91.0, -108.3411636352539, -28.980484008789062, 74.37351989746094, 204.3331756591797, 0.03200000151991844, -0.04800000041723251, 1.055999994277954, 0.0, 0.0, 0.0, 0.0, 0.0, 1.6209906191425323E9, 2021-05-14 13:10:19.142
92.0, -128.97793579101562, -56.21443557739258, 56.407039642333984, 161.91897583007812, 0.03200000151991844, -0.04800000041723251, 1.055999994277954, 0.0, 0.0, 0.0, 0.0, 0.0, 1.6209906191582007E9, 2021-05-14 13:10:19.158
92.0, -119.30654907226562, -47.818359375, 55.2252311706543, 160.99520874023438, 0.03200000151991844, -0.04800000041723251, 1.055999994277954, 0.0, 0.0, 0.0, 0.0, 0.0, 1.6209906191582007E9, 2021-05-14 13:10:19.158
93.0, -117.40293884277344, -29.930419921875, 75.21125793457031, 206.09092712402344, 0.03200000151991844, -0.04800000041723251, 1.055999994277954, 0.0, 0.0, 0.0, 0.0, 0.0, 1.6209906191588964E9, 2021-05-14 13:10:19.158
93.0, -105.31558227539062, -24.271949768066406, 80.09930419921875, 206.64817810058594, 0.03200000151991844, -0.04800000041723251, 1.055999994277954, 0.0, 0.0, 0.0, 0.0, 0.0, 1.6209906191588964E9, 2021-05-14 13:10:19.158
94.0, -132.3101806640625, -66.31964874267578, 66.06346130371094, 178.23240661621094, 0.03200000151991844, -0.04800000041723251, 1.055999994277954, 0.0, 0.0, 0.0, 0.0, 0.0, 1.6209906191724396E9, 2021-05-14 13:10:19.172
94.0, -142.05262756347656, -64.95458221435547, 62.12908935546875, 178.91307067871094, 0.03200000151991844, -0.04800000041723251, 1.055999994277954, 0.0, 0.0, 0.0, 0.0, 0.0, 1.6209906191724396E9, 2021-05-14 13:10:19.172
95.0, -114.97574615478516, -31.37775993347168, 70.6897201538086, 213.71658325195312, 0.03200000151991844, -0.04800000041723251, 1.055999994277954, 0.0, 0.0, 0.0, 0.0, 0.0, 1.6209906192051864E9, 2021-05-14 13:10:19.205
95.0, -118.1359634399414, -20.176759719848633, 78.92498016357422, 207.9309539794922, 0.03200000151991844, -0.04800000041723251, 1.055999994277954, 0.0, 0.0, 0.0, 0.0, 0.0, 1.6209906192051864E9, 2021-05-14 13:10:19.205
96.0, -143.8328094482422, -53.93683624267578, 51.122562408447266, 170.8124542236328, 0.03200000151991844, -0.04800000041723251, 1.055999994277954, 0.0, 0.0, 0.0, 0.0, 0.0, 1.620990619205928E9, 2021-05-14 13:10:19.205
96.0, -127.93449401855469, -59.692543029785156, 55.66279983520508, 173.22842407226562, 0.03200000151991844, -0.04800000041723251, 1.055999994277954, 0.0, 0.0, 0.0, 0.0, 0.0, 1.620990619205928E9, 2021-05-14 13:10:19.205
97.0, -103.97669982910156, -25.405139923095703, 71.71819305419922, 213.37625122070312, 0.03200000151991844, -0.04800000041723251, 1.055999994277954, 0.0, 0.0, 0.0, 0.0, 0.0, 1.6209906192066643E9, 2021-05-14 13:10:19.206
97.0, -109.62020874023438, -26.699146270751953, 69.2909927368164, 211.56614685058594, 0.03200000151991844, -0.04800000041723251, 1.055999994277954, 0.0, 0.0, 0.0, 0.0, 0.0, 1.6209906192066643E9, 2021-05-14 13:10:19.206
98.0, -131.3864288330078, -63.63813781738281, 53.38146209716797, 170.92091369628906, 0.03200000151991844, -0.04800000041723251, 1.055999994277954, 0.0, 0.0, 0.0, 0.0, 0.0, 1.620990619207383E9, 2021-05-14 13:10:19.207
98.0, -128.69369506835938, -53.89196014404297, 63.4530143737793, 176.0931854248047, 0.03200000151991844, -0.04800000041723251, 1.055999994277954, 0.0, 0.0, 0.0, 0.0, 0.0, 1.620990619207383E9, 2021-05-14 13:10:19.207
99.0, -102.63033294677734, -23.516490936279297, 76.14249420166016, 207.86363220214844, 0.03200000151991844, -0.04800000041723251, 1.055999994277954, 0.0, 0.0, 0.0, 0.0, 0.0, 1.6209906192174308E9, 2021-05-14 13:10:19.217
99.0, -115.80226135253906, -30.158554077148438, 75.94053649902344, 214.28878784179688, 0.03200000151991844, -0.04800000041723251, 1.055999994277954, 0.0, 0.0, 0.0, 0.0, 0.0, 1.6209906192174308E9, 2021-05-14 13:10:19.217
100.0, -133.39849853515625, -58.3349609375, 59.20822525024414, 169.5670623779297, 0.03200000151991844, -0.04800000041723251, 1.055999994277954, 0.0, 0.0, 0.0, 0.0, 0.0, 1.6209906192331064E9, 2021-05-14 13:10:19.233
100.0, -128.55157470703125, -45.67913818359375, 54.24911880493164, 170.8348846435547, 0.03200000151991844, -0.04800000041723251, 1.055999994277954, 0.0, 0.0, 0.0, 0.0, 0.0, 1.6209906192331064E9, 2021-05-14 13:10:19.233
0.0, -115.54608154296875, -27.25826072692871, 67.49771118164062, 200.15570068359375, 0.03200000151991844, -0.04800000041723251, 1.055999994277954, 0.0, 0.0, 0.0, 0.0, 0.0, 1.6209906192337973E9, 2021-05-14 13:10:19.233
1.0, -105.19403839111328, -31.562885284423828, 77.76374053955078, 210.38433837890625, 0.03200000151991844, -0.04800000041723251, 1.055999994277954, 0.0, 0.0, 0.0, 0.0, 0.0, 1.6209906192475607E9, 2021-05-14 13:10:19.247
1.0, -139.2495574951172, -51.04402542114258, 59.37465286254883, 163.40370178222656, 0.03200000151991844, -0.04800000041723251, 1.055999994277954, 0.0, 0.0, 0.0, 0.0, 0.0, 1.6209906192475607E9, 2021-05-14 13:10:19.247
2.0, -130.1055145263672, -58.6285400390625, 57.695438385009766, 167.4540252685547, 0.03200000151991844, -0.04800000041723251, 1.055999994277954, 0.0, 0.0, 0.0, 0.0, 0.0, 1.6209906192631893E9, 2021-05-14 13:10:19.263
2.0, -108.37669372558594, -14.77447509765625, 72.33714294433594, 203.74600219726562, 0.03200000151991844, -0.04800000041723251, 1.055999994277954, 0.0, 0.0, 0.0, 0.0, 0.0, 1.6209906192631893E9, 2021-05-14 13:10:19.263
3.0, -114.68964385986328, -35.63937759399414, 72.31844329833984, 211.9214324951172, 0.03200000151991844, -0.04800000041723251, 1.055999994277954, 0.0, 0.0, 0.0, 0.0, 0.0, 1.6209906192638104E9, 2021-05-14 13:10:19.263
3.0, -140.5286102294922, -66.86006164550781, 55.27946090698242, 168.33663940429688, 0.03200000151991844, -0.04800000041723251, 1.055999994277954, 0.0, 0.0, 0.0, 0.0, 0.0, 1.6209906192638104E9, 2021-05-14 13:10:19.263
4.0, -137.6414031982422, -47.30412292480469, 55.79182815551758, 171.1527862548828, 0.03200000151991844, -0.04800000041723251, 1.055999994277954, 0.0, 0.0, 0.0, 0.0, 0.0, 1.6209906192774277E9, 2021-05-14 13:10:19.277
4.0, -111.86602020263672, -23.940969467163086, 73.05146789550781, 204.62489318847656, 0.03200000151991844, -0.04800000041723251, 1.055999994277954, 0.0, 0.0, 0.0, 0.0, 0.0, 1.6209906192774277E9, 2021-05-14 13:10:19.277
5.0, -113.94166564941406, -31.585325241088867, 77.19527435302734, 206.7865447998047, 0.03200000151991844, -0.04800000041723251, 1.055999994277954, 0.0, 0.0, 0.0, 0.0, 0.0, 1.620990619293115E9, 2021-05-14 13:10:19.293
5.0, -125.58396911621094, -56.79225158691406, 53.200077056884766, 163.07833862304688, 0.03200000151991844, -0.04800000041723251, 1.055999994277954, 0.0, 0.0, 0.0, 0.0, 0.0, 1.620990619293115E9, 2021-05-14 13:10:19.293
6.0, -132.89547729492188, -42.56193161010742, 60.070274353027344, 165.91317749023438, 0.03200000151991844, -0.04800000041723251, 1.055999994277954, 0.0, 0.0, 0.0, 0.0, 0.0, 1.62099061929386E9, 2021-05-14 13:10:19.293
6.0, -106.46186065673828, -34.786678314208984, 67.8904037475586, 200.4848175048828, 0.03200000151991844, -0.04800000041723251, 1.055999994277954, 0.0, 0.0, 0.0, 0.0, 0.0, 1.62099061929386E9, 2021-05-14 13:10:19.293
7.0, -108.95263671875, -35.0185546875, 72.03421020507812, 203.1925048828125, 0.03200000151991844, -0.04800000041723251, 1.055999994277954, 0.0, 0.0, 0.0, 0.0, 0.0, 1.6209906193245056E9, 2021-05-14 13:10:19.324
7.0, -133.21336364746094, -59.350341796875, 52.48949432373047, 158.85972595214844, 0.03200000151991844, -0.04800000041723251, 1.055999994277954, 0.0, 0.0, 0.0, 0.0, 0.0, 1.6209906193245056E9, 2021-05-14 13:10:19.324
8.0, -126.70220184326172, -53.83024978637695, 55.017669677734375, 169.47731018066406, 0.03200000151991844, -0.04800000041723251, 1.055999994277954, 0.0, 0.0, 0.0, 0.0, 0.0, 1.620990619325204E9, 2021-05-14 13:10:19.325
8.0, -103.94864654541016, -28.843978881835938, 68.9151382446289, 204.2022705078125, 0.03200000151991844, -0.04800000041723251, 1.055999994277954, 0.0, 0.0, 0.0, 0.0, 0.0, 1.620990619325204E9, 2021-05-14 13:10:19.325
9.0, -104.70784759521484, -32.520301818847656, 79.4915771484375, 205.53741455078125, 0.03200000151991844, -0.04800000041723251, 1.055999994277954, 0.0, 0.0, 0.0, 0.0, 0.0, 1.6209906193259408E9, 2021-05-14 13:10:19.325
9.0, -136.4595947265625, -49.159114837646484, 58.824886322021484, 164.6939697265625, 0.03200000151991844, -0.04800000041723251, 1.055999994277954, 0.0, 0.0, 0.0, 0.0, 0.0, 1.6209906193259408E9, 2021-05-14 13:10:19.325
10.0, -132.4803466796875, -61.80371856689453, 56.66696548461914, 173.47152709960938, 0.03200000151991844, -0.04800000041723251, 1.055999994277954, 0.0, 0.0, 0.0, 0.0, 0.0, 1.6209906193374026E9, 2021-05-14 13:10:19.337
10.0, -112.38212585449219, -24.902124404907227, 69.92864990234375, 201.3636932373047, 0.03200000151991844, -0.04800000041723251, 1.055999994277954, 0.0, 0.0, 0.0, 0.0, 0.0, 1.6209906193374026E9, 2021-05-14 13:10:19.337
11.0, -106.52169799804688, -40.475067138671875, 74.19587707519531, 203.1476287841797, 0.03200000151991844, -0.04800000041723251, 1.055999994277954, 0.0, 0.0, 0.0, 0.0, 0.0, 1.6209906193531213E9, 2021-05-14 13:10:19.353
11.0, -130.25137329101562, -69.33213806152344, 58.75008773803711, 167.6185760498047, 0.03200000151991844, -0.04800000041723251, 1.055999994277954, 0.0, 0.0, 0.0, 0.0, 0.0, 1.6209906193531213E9, 2021-05-14 13:10:19.353
12.0, -126.34317016601562, -63.827003479003906, 55.79930877685547, 173.20973205566406, 0.03200000151991844, -0.04800000041723251, 1.055999994277954, 0.0, 0.0, 0.0, 0.0, 0.0, 1.6209906193538897E9, 2021-05-14 13:10:19.353
12.0, -105.80738067626953, -34.10227584838867, 69.09465026855469, 205.7655487060547, 0.03200000151991844, -0.04800000041723251, 1.055999994277954, 0.0, 0.0, 0.0, 0.0, 0.0, 1.6209906193538897E9, 2021-05-14 13:10:19.353
13.0, -111.03949737548828, -36.70524978637695, 73.36561584472656, 207.91973876953125, 0.03200000151991844, -0.04800000041723251, 1.055999994277954, 0.0, 0.0, 0.0, 0.0, 0.0, 1.6209906193674479E9, 2021-05-14 13:10:19.367
13.0, -141.64309692382812, -61.048255920410156, 49.86408615112305, 163.28402709960938, 0.03200000151991844, -0.04800000041723251, 1.055999994277954, 0.0, 0.0, 0.0, 0.0, 0.0, 1.6209906193674479E9, 2021-05-14 13:10:19.367
14.0, -131.65382385253906, -58.14235305786133, 53.431949615478516, 173.7707061767578, 0.03200000151991844, -0.04800000041723251, 1.055999994277954, 0.0, 0.0, 0.0, 0.0, 0.0, 1.620990619383124E9, 2021-05-14 13:10:19.383
14.0, -96.33421325683594, -35.29904556274414, 74.10611724853516, 209.77099609375, 0.03200000151991844, -0.04800000041723251, 1.055999994277954, 0.0, 0.0, 0.0, 0.0, 0.0, 1.620990619383124E9, 2021-05-14 13:10:19.383
15.0, -113.80328369140625, -25.73238182067871, 71.31615447998047, 210.57131958007812, 0.03200000151991844, -0.04800000041723251, 1.055999994277954, 0.0, 0.0, 0.0, 0.0, 0.0, 1.6209906193838408E9, 2021-05-14 13:10:19.383
15.0, -133.8379364013672, -65.89142608642578, 55.242061614990234, 165.64390563964844, 0.03200000151991844, -0.04800000041723251, 1.055999994277954, 0.0, 0.0, 0.0, 0.0, 0.0, 1.6209906193838408E9, 2021-05-14 13:10:19.383
16.0, -131.44813537597656, -57.334537506103516, 56.734283447265625, 166.03285217285156, 0.03200000151991844, -0.04800000041723251, 1.055999994277954, 0.0, 0.0, 0.0, 0.0, 0.0, 1.6209906193974447E9, 2021-05-14 13:10:19.397
16.0, -110.57201385498047, -27.101184844970703, 73.42919921875, 203.51039123535156, 0.03200000151991844, -0.04800000041723251, 1.055999994277954, 0.0, 0.0, 0.0, 0.0, 0.0, 1.6209906193974447E9, 2021-05-14 13:10:19.397
17.0, -105.27257537841797, -22.430049896240234, 82.58073425292969, 211.85784912109375, 0.03200000151991844, -0.04800000041723251, 1.055999994277954, 0.0, 0.0, 0.0, 0.0, 0.0, 1.6209906194131255E9, 2021-05-14 13:10:19.413
17.0, -133.59109497070312, -55.30377197265625, 62.41893005371094, 161.3916473388672, 0.03200000151991844, -0.04800000041723251, 1.055999994277954, 0.0, 0.0, 0.0, 0.0, 0.0, 1.6209906194131255E9, 2021-05-14 13:10:19.413
18.0, -130.6103973388672, -62.17396545410156, 65.36222839355469, 166.46669006347656, 0.03200000151991844, -0.04800000041723251, 1.055999994277954, 0.0, 0.0, 0.0, 0.0, 0.0, 1.6209906194138424E9, 2021-05-14 13:10:19.413
18.0, -105.2389144897461, -22.19817543029785, 79.54766845703125, 207.45599365234375, 0.03200000151991844, -0.04800000041723251, 1.055999994277954, 0.0, 0.0, 0.0, 0.0, 0.0, 1.6209906194138424E9, 2021-05-14 13:10:19.413
19.0, -111.51072692871094, -28.17079734802246, 74.40904998779297, 201.75637817382812, 0.03200000151991844, -0.04800000041723251, 1.055999994277954, 0.0, 0.0, 0.0, 0.0, 0.0, 1.6209906194274075E9, 2021-05-14 13:10:19.427
19.0, -129.03590393066406, -60.670528411865234, 66.30842590332031, 164.6154327392578, 0.03200000151991844, -0.04800000041723251, 1.055999994277954, 0.0, 0.0, 0.0, 0.0, 0.0, 1.6209906194274075E9, 2021-05-14 13:10:19.427
20.0, -121.60845947265625, -58.02641677856445, 61.977622985839844, 168.23191833496094, 0.03200000151991844, -0.04800000041723251, 1.055999994277954, 0.0, 0.0, 0.0, 0.0, 0.0, 1.620990619443179E9, 2021-05-14 13:10:19.443
20.0, -111.5406494140625, -33.833003997802734, 72.29974365234375, 206.34898376464844, 0.03200000151991844, -0.04800000041723251, 1.055999994277954, 0.0, 0.0, 0.0, 0.0, 0.0, 1.620990619443179E9, 2021-05-14 13:10:19.443
21.0, -106.7049560546875, -37.59534454345703, 78.20130920410156, 209.512939453125, 0.03200000151991844, -0.04800000041723251, 1.055999994277954, 0.0, 0.0, 0.0, 0.0, 0.0, 1.6209906194440024E9, 2021-05-14 13:10:19.444
21.0, -133.5387420654297, -48.770164489746094, 65.60906219482422, 173.71835327148438, 0.03200000151991844, -0.04800000041723251, 1.055999994277954, 0.0, 0.0, 0.0, 0.0, 0.0, 1.6209906194440024E9, 2021-05-14 13:10:19.444
22.0, -132.06895446777344, -68.58041381835938, 60.257266998291016, 171.3098602294922, 0.03200000151991844, -0.04800000041723251, 1.055999994277954, 0.0, 0.0, 0.0, 0.0, 0.0, 1.620990619457462E9, 2021-05-14 13:10:19.457
22.0, -111.87723541259766, -34.28927230834961, 76.10696411132812, 197.27598571777344, 0.03200000151991844, -0.04800000041723251, 1.055999994277954, 0.0, 0.0, 0.0, 0.0, 0.0, 1.620990619457462E9, 2021-05-14 13:10:19.457
23.0, -113.96410369873047, -32.696075439453125, 81.13339233398438, 208.17405700683594, 0.03200000151991844, -0.04800000041723251, 1.055999994277954, 0.0, 0.0, 0.0, 0.0, 0.0, 1.6209906194731636E9, 2021-05-14 13:10:19.473
23.0, -139.1822509765625, -61.10435485839844, 57.21672821044922, 161.58612060546875, 0.03200000151991844, -0.04800000041723251, 1.055999994277954, 0.0, 0.0, 0.0, 0.0, 0.0, 1.6209906194731636E9, 2021-05-14 13:10:19.473
24.0, -140.573486328125, -57.843162536621094, 54.40806579589844, 159.92933654785156, 0.03200000151991844, -0.04800000041723251, 1.055999994277954, 0.0, 0.0, 0.0, 0.0, 0.0, 1.6209906194739172E9, 2021-05-14 13:10:19.473
24.0, -108.7132797241211, -31.4506893157959, 73.79570770263672, 207.04833984375, 0.03200000151991844, -0.04800000041723251, 1.055999994277954, 0.0, 0.0, 0.0, 0.0, 0.0, 1.6209906194739172E9, 2021-05-14 13:10:19.473
25.0, -101.39429473876953, -33.212181091308594, 80.48638916015625, 201.73768615722656, 0.03200000151991844, -0.04800000041723251, 1.055999994277954, 0.0, 0.0, 0.0, 0.0, 0.0, 1.6209906194874537E9, 2021-05-14 13:10:19.487
25.0, -141.35887145996094, -58.00771713256836, 58.357398986816406, 159.5142059326172, 0.03200000151991844, -0.04800000041723251, 1.055999994277954, 0.0, 0.0, 0.0, 0.0, 0.0, 1.6209906194874537E9, 2021-05-14 13:10:19.487
26.0, -132.08392333984375, -44.01301193237305, 56.46500778198242, 155.78553771972656, 0.03200000151991844, -0.04800000041723251, 1.055999994277954, 0.0, 0.0, 0.0, 0.0, 0.0, 1.6209906195031865E9, 2021-05-14 13:10:19.503
26.0, -107.84562683105469, -32.131351470947266, 71.27875518798828, 196.65516662597656, 0.03200000151991844, -0.04800000041723251, 1.055999994277954, 0.0, 0.0, 0.0, 0.0, 0.0, 1.6209906195031865E9, 2021-05-14 13:10:19.503
27.0, -106.40576171875, -31.267433166503906, 81.52607727050781, 203.03916931152344, 0.03200000151991844, -0.04800000041723251, 1.055999994277954, 0.0, 0.0, 0.0, 0.0, 0.0, 1.6209906195038788E9, 2021-05-14 13:10:19.503
27.0, -139.11119079589844, -53.40016174316406, 52.12672424316406, 155.920166015625, 0.03200000151991844, -0.04800000041723251, 1.055999994277954, 0.0, 0.0, 0.0, 0.0, 0.0, 1.6209906195038788E9, 2021-05-14 13:10:19.503
28.0, -132.0128631591797, -63.969120025634766, 57.46730422973633, 163.2503662109375, 0.03200000151991844, -0.04800000041723251, 1.055999994277954, 0.0, 0.0, 0.0, 0.0, 0.0, 1.620990619517457E9, 2021-05-14 13:10:19.517
28.0, -114.20345306396484, -21.629711151123047, 71.72006225585938, 199.7181396484375, 0.03200000151991844, -0.04800000041723251, 1.055999994277954, 0.0, 0.0, 0.0, 0.0, 0.0, 1.620990619517457E9, 2021-05-14 13:10:19.517
29.0, -111.70893859863281, -39.76448440551758, 79.00912475585938, 209.16139221191406, 0.03200000151991844, -0.04800000041723251, 1.055999994277954, 0.0, 0.0, 0.0, 0.0, 0.0, 1.6209906195331612E9, 2021-05-14 13:10:19.533
29.0, -140.9661865234375, -68.35601806640625, 57.81137466430664, 164.4434051513672, 0.03200000151991844, -0.04800000041723251, 1.055999994277954, 0.0, 0.0, 0.0, 0.0, 0.0, 1.6209906195331612E9, 2021-05-14 13:10:19.533
30.0, -132.86929321289062, -59.193267822265625, 63.02479553222656, 172.6749267578125, 0.03200000151991844, -0.04800000041723251, 1.055999994277954, 0.0, 0.0, 0.0, 0.0, 0.0, 1.6209906195338676E9, 2021-05-14 13:10:19.533
30.0, -110.34014129638672, -29.042192459106445, 73.16366577148438, 208.9108123779297, 0.03200000151991844, -0.04800000041723251, 1.055999994277954, 0.0, 0.0, 0.0, 0.0, 0.0, 1.6209906195338676E9, 2021-05-14 13:10:19.533
31.0, -103.09220886230469, -28.739261627197266, 82.7490234375, 211.00889587402344, 0.03200000151991844, -0.04800000041723251, 1.055999994277954, 0.0, 0.0, 0.0, 0.0, 0.0, 1.6209906195475693E9, 2021-05-14 13:10:19.547
31.0, -144.2198944091797, -68.37846374511719, 56.67070388793945, 165.1240692138672, 0.03200000151991844, -0.04800000041723251, 1.055999994277954, 0.0, 0.0, 0.0, 0.0, 0.0, 1.6209906195475693E9, 2021-05-14 13:10:19.547
32.0, -132.16619873046875, -64.98637390136719, 62.14591598510742, 172.89556884765625, 0.03200000151991844, -0.04800000041723251, 1.055999994277954, 0.0, 0.0, 0.0, 0.0, 0.0, 1.6209906195632305E9, 2021-05-14 13:10:19.563
32.0, -112.15025329589844, -43.294952392578125, 78.10407257080078, 208.72755432128906, 0.03200000151991844, -0.04800000041723251, 1.055999994277954, 0.0, 0.0, 0.0, 0.0, 0.0, 1.6209906195632305E9, 2021-05-14 13:10:19.563
33.0, -110.74031066894531, -30.710187911987305, 82.89862060546875, 203.99658203125, 0.03200000151991844, -0.04800000041723251, 1.055999994277954, 0.0, 0.0, 0.0, 0.0, 0.0, 1.6209906195639818E9, 2021-05-14 13:10:19.563
33.0, -132.59254455566406, -64.06635284423828, 65.57166290283203, 166.32456970214844, 0.03200000151991844, -0.04800000041723251, 1.055999994277954, 0.0, 0.0, 0.0, 0.0, 0.0, 1.6209906195639818E9, 2021-05-14 13:10:19.563
34.0, -131.35838317871094, -61.571842193603516, 59.771080017089844, 164.85104370117188, 0.03200000151991844, -0.04800000041723251, 1.055999994277954, 0.0, 0.0, 0.0, 0.0, 0.0, 1.6209906195775263E9, 2021-05-14 13:10:19.577
34.0, -108.01392364501953, -16.412551879882812, 77.41967010498047, 202.39590454101562, 0.03200000151991844, -0.04800000041723251, 1.055999994277954, 0.0, 0.0, 0.0, 0.0, 0.0, 1.6209906195775263E9, 2021-05-14 13:10:19.577
35.0, -113.21986389160156, -42.947139739990234, 75.8601303100586, 202.41461181640625, 0.03200000151991844, -0.04800000041723251, 1.055999994277954, 0.0, 0.0, 0.0, 0.0, 0.0, 1.6209906195931945E9, 2021-05-14 13:10:19.593
35.0, -129.07330322265625, -59.3615608215332, 66.99282836914062, 168.127197265625, 0.03200000151991844, -0.04800000041723251, 1.055999994277954, 0.0, 0.0, 0.0, 0.0, 0.0, 1.6209906195931945E9, 2021-05-14 13:10:19.593
36.0, -132.51400756835938, -62.93690490722656, 60.507843017578125, 167.24832153320312, 0.03200000151991844, -0.04800000041723251, 1.055999994277954, 0.0, 0.0, 0.0, 0.0, 0.0, 1.6209906195939145E9, 2021-05-14 13:10:19.593
36.0, -112.53919982910156, -34.82033920288086, 78.31724548339844, 207.33631896972656, 0.03200000151991844, -0.04800000041723251, 1.055999994277954, 0.0, 0.0, 0.0, 0.0, 0.0, 1.6209906195939145E9, 2021-05-14 13:10:19.593
37.0, -104.56947326660156, -31.69004249572754, 87.4426040649414, 216.3345184326172, 0.03200000151991844, -0.04800000041723251, 1.055999994277954, 0.0, 0.0, 0.0, 0.0, 0.0, 1.6209906196075408E9, 2021-05-14 13:10:19.607
37.0, -129.43980407714844, -65.74557495117188, 63.19683074951172, 171.9119873046875, 0.03200000151991844, -0.04800000041723251, 1.055999994277954, 0.0, 0.0, 0.0, 0.0, 0.0, 1.6209906196075408E9, 2021-05-14 13:10:19.607
38.0, -129.82875061035156, -55.78247833251953, 67.0451889038086, 175.32650756835938, 0.03200000151991844, -0.04800000041723251, 1.055999994277954, 0.0, 0.0, 0.0, 0.0, 0.0, 1.6209906196395588E9, 2021-05-14 13:10:19.639
38.0, -110.53087615966797, -37.11663818359375, 78.67253875732422, 203.56275939941406, 0.03200000151991844, -0.04800000041723251, 1.055999994277954, 0.0, 0.0, 0.0, 0.0, 0.0, 1.6209906196395588E9, 2021-05-14 13:10:19.639
39.0, -107.39683532714844, -35.58327865600586, 82.00852966308594, 210.10757446289062, 0.03200000151991844, -0.04800000041723251, 1.055999994277954, 0.0, 0.0, 0.0, 0.0, 0.0, 1.6209906196402612E9, 2021-05-14 13:10:19.640
39.0, -135.76397705078125, -60.29279708862305, 64.3786392211914, 166.54148864746094, 0.03200000151991844, -0.04800000041723251, 1.055999994277954, 0.0, 0.0, 0.0, 0.0, 0.0, 1.6209906196402612E9, 2021-05-14 13:10:19.640
40.0, -125.38949584960938, -46.967533111572266, 66.59639739990234, 166.03285217285156, 0.03200000151991844, -0.04800000041723251, 1.055999994277954, 0.0, 0.0, 0.0, 0.0, 0.0, 1.6209906196409693E9, 2021-05-14 13:10:19.640
40.0, -106.31974792480469, -17.235328674316406, 83.21277618408203, 198.4428253173828, 0.03200000151991844, -0.04800000041723251, 1.055999994277954, 0.0, 0.0, 0.0, 0.0, 0.0, 1.6209906196409693E9, 2021-05-14 13:10:19.640
41.0, -106.11405181884766, -49.922054290771484, 85.82322692871094, 199.5573272705078, 0.03200000151991844, -0.06400000303983688, 1.055999994277954, 0.0, 0.0, 0.0, 0.0, 0.0, 1.6209906196417491E9, 2021-05-14 13:10:19.641
41.0, -125.49795532226562, -64.75823974609375, 59.37091064453125, 157.8798828125, 0.03200000151991844, -0.06400000303983688, 1.055999994277954, 0.0, 0.0, 0.0, 0.0, 0.0, 1.6209906196417491E9, 2021-05-14 13:10:19.641
42.0, -127.180908203125, -64.3318862915039, 67.14616394042969, 170.5469207763672, 0.03200000151991844, -0.06400000303983688, 1.055999994277954, 0.0, 0.0, 0.0, 0.0, 0.0, 1.6209906196526356E9, 2021-05-14 13:10:19.652
42.0, -105.01078033447266, -5.970750331878662, 79.32701873779297, 203.65625, 0.03200000151991844, -0.06400000303983688, 1.055999994277954, 0.0, 0.0, 0.0, 0.0, 0.0, 1.6209906196526356E9, 2021-05-14 13:10:19.652
43.0, -110.2017593383789, -43.94195556640625, 82.2217025756836, 206.04605102539062, 0.03200000151991844, -0.06400000303983688, 1.055999994277954, 0.0, 0.0, 0.0, 0.0, 0.0, 1.6209906196838462E9, 2021-05-14 13:10:19.683
43.0, -137.67506408691406, -57.312095642089844, 63.92985153198242, 171.8222198486328, 0.03200000151991844, -0.06400000303983688, 1.055999994277954, 0.0, 0.0, 0.0, 0.0, 0.0, 1.6209906196838462E9, 2021-05-14 13:10:19.683
44.0, -127.39408111572266, -59.78042984008789, 62.47502899169922, 175.86878967285156, 0.03200000151991844, -0.06400000303983688, 1.055999994277954, 0.0, 0.0, 0.0, 0.0, 0.0, 1.6209906196845672E9, 2021-05-14 13:10:19.684
44.0, -108.8890609741211, -29.457321166992188, 80.60232543945312, 206.38638305664062, 0.03200000151991844, -0.06400000303983688, 1.055999994277954, 0.0, 0.0, 0.0, 0.0, 0.0, 1.6209906196845672E9, 2021-05-14 13:10:19.684
45.0, -109.67817687988281, -36.477115631103516, 78.17887115478516, 212.15704345703125, 0.03200000151991844, -0.06400000303983688, 1.055999994277954, 0.0, 0.0, 0.0, 0.0, 0.0, 1.6209906196852703E9, 2021-05-14 13:10:19.685
45.0, -139.5263214111328, -61.863555908203125, 60.492881774902344, 166.75091552734375, 0.03200000151991844, -0.06400000303983688, 1.055999994277954, 0.0, 0.0, 0.0, 0.0, 0.0, 1.6209906196852703E9, 2021-05-14 13:10:19.685
46.0, -122.60700988769531, -53.886348724365234, 64.84986877441406, 171.1826934814453, 0.03200000151991844, -0.06400000303983688, 1.055999994277954, 0.0, 0.0, 0.0, 0.0, 0.0, 1.6209906196974275E9, 2021-05-14 13:10:19.697
46.0, -104.4348373413086, -27.695829391479492, 77.75626373291016, 206.18817138671875, 0.03200000151991844, -0.06400000303983688, 1.055999994277954, 0.0, 0.0, 0.0, 0.0, 0.0, 1.6209906196974275E9, 2021-05-14 13:10:19.697
47.0, -113.31710052490234, -24.84976577758789, 76.48843383789062, 199.6321258544922, 0.03200000151991844, -0.06400000303983688, 1.055999994277954, 0.0, 0.0, 0.0, 0.0, 0.0, 1.6209906197131298E9, 2021-05-14 13:10:19.713
47.0, -132.697265625, -67.32380676269531, 63.028533935546875, 168.23939514160156, 0.03200000151991844, -0.06400000303983688, 1.055999994277954, 0.0, 0.0, 0.0, 0.0, 0.0, 1.6209906197131298E9, 2021-05-14 13:10:19.713
48.0, -123.66914367675781, -52.457706451416016, 69.13578796386719, 175.23301696777344, 0.03200000151991844, -0.06400000303983688, 1.055999994277954, 0.0, 0.0, 0.0, 0.0, 0.0, 1.6209906197138553E9, 2021-05-14 13:10:19.713
48.0, -106.18885040283203, -15.357898712158203, 75.42256164550781, 209.5166778564453, 0.03200000151991844, -0.06400000303983688, 1.055999994277954, 0.0, 0.0, 0.0, 0.0, 0.0, 1.6209906197138553E9, 2021-05-14 13:10:19.713
49.0, -106.96675109863281, -33.72454833984375, 83.26512908935547, 208.6116180419922, 0.03200000151991844, -0.06400000303983688, 1.055999994277954, 0.0, 0.0, 0.0, 0.0, 0.0, 1.6209906197274857E9, 2021-05-14 13:10:19.727
49.0, -127.15098571777344, -60.4124755859375, 67.47527313232422, 170.0495147705078, 0.03200000151991844, -0.06400000303983688, 1.055999994277954, 0.0, 0.0, 0.0, 0.0, 0.0, 1.6209906197274857E9, 2021-05-14 13:10:19.727
50.0, -131.8931884765625, -45.7408447265625, 62.695682525634766, 172.55899047851562, 0.03200000151991844, -0.06400000303983688, 1.055999994277954, 0.0, 0.0, 0.0, 0.0, 0.0, 1.6209906197431147E9, 2021-05-14 13:10:19.743
50.0, -116.66805267333984, -45.258399963378906, 78.35464477539062, 198.32315063476562, 0.03200000151991844, -0.06400000303983688, 1.055999994277954, 0.0, 0.0, 0.0, 0.0, 0.0, 1.6209906197431147E9, 2021-05-14 13:10:19.743
51.0, -104.24784088134766, -35.09334945678711, 84.15896606445312, 202.41085815429688, 0.03200000151991844, -0.04800000041723251, 1.055999994277954, 0.0, 0.0, 0.0, 0.0, 0.0, 1.6209906197438595E9, 2021-05-14 13:10:19.743
51.0, -137.58905029296875, -49.03943634033203, 70.5831298828125, 165.22877502441406, 0.03200000151991844, -0.04800000041723251, 1.055999994277954, 0.0, 0.0, 0.0, 0.0, 0.0, 1.6209906197438595E9, 2021-05-14 13:10:19.743
52.0, -128.9162139892578, -52.884056091308594, 64.50579071044922, 169.148193359375, 0.03200000151991844, -0.04800000041723251, 1.055999994277954, 0.0, 0.0, 0.0, 0.0, 0.0, 1.6209906197576559E9, 2021-05-14 13:10:19.757
52.0, -107.1051254272461, -29.10951042175293, 75.97606658935547, 204.01153564453125, 0.03200000151991844, -0.04800000041723251, 1.055999994277954, 0.0, 0.0, 0.0, 0.0, 0.0, 1.6209906197576559E9, 2021-05-14 13:10:19.757
53.0, -102.9089584350586, -24.70764923095703, 84.02059173583984, 213.2827606201172, 0.03200000151991844, -0.04800000041723251, 1.055999994277954, 0.0, 0.0, 0.0, 0.0, 0.0, 1.6209906197738016E9, 2021-05-14 13:10:19.773
53.0, -135.13941955566406, -59.88140869140625, 59.02684020996094, 159.9517822265625, 0.03200000151991844, -0.04800000041723251, 1.055999994277954, 0.0, 0.0, 0.0, 0.0, 0.0, 1.6209906197738016E9, 2021-05-14 13:10:19.773
54.0, -128.71426391601562, -59.75425338745117, 58.94830322265625, 160.81195068359375, 0.03200000151991844, -0.04800000041723251, 1.055999994277954, 0.0, 0.0, 0.0, 0.0, 0.0, 1.6209906197745123E9, 2021-05-14 13:10:19.774
54.0, -106.76105499267578, -26.44670295715332, 78.1900863647461, 206.55093383789062, 0.03200000151991844, -0.04800000041723251, 1.055999994277954, 0.0, 0.0, 0.0, 0.0, 0.0, 1.6209906197745123E9, 2021-05-14 13:10:19.774
55.0, -112.81969451904297, -29.289026260375977, 83.23895263671875, 205.58230590820312, 0.03200000151991844, -0.04800000041723251, 1.055999994277954, 0.0, 0.0, 0.0, 0.0, 0.0, 1.620990619787455E9, 2021-05-14 13:10:19.787
55.0, -131.32846069335938, -56.20134735107422, 70.07076263427734, 172.30093383789062, 0.03200000151991844, -0.04800000041723251, 1.055999994277954, 0.0, 0.0, 0.0, 0.0, 0.0, 1.620990619787455E9, 2021-05-14 13:10:19.787
56.0, -130.93202209472656, -38.48918151855469, 66.41688537597656, 172.3719940185547, 0.03200000151991844, -0.04800000041723251, 1.055999994277954, 0.0, 0.0, 0.0, 0.0, 0.0, 1.6209906198031256E9, 2021-05-14 13:10:19.803
56.0, -112.14276885986328, -39.83928298950195, 71.39469146728516, 202.48941040039062, 0.03200000151991844, -0.04800000041723251, 1.055999994277954, 0.0, 0.0, 0.0, 0.0, 0.0, 1.6209906198031256E9, 2021-05-14 13:10:19.803
57.0, -101.08014678955078, -41.89249038696289, 83.11927795410156, 209.09780883789062, 0.03200000151991844, -0.04800000041723251, 1.055999994277954, 0.0, 0.0, 0.0, 0.0, 0.0, 1.6209906198038397E9, 2021-05-14 13:10:19.803
57.0, -137.44692993164062, -63.21365737915039, 62.44511032104492, 170.4683837890625, 0.03200000151991844, -0.04800000041723251, 1.055999994277954, 0.0, 0.0, 0.0, 0.0, 0.0, 1.6209906198038397E9, 2021-05-14 13:10:19.803
58.0, -125.2137222290039, -62.46194076538086, 65.41085052490234, 169.5670623779297, 0.03200000151991844, -0.04800000041723251, 1.055999994277954, 0.0, 0.0, 0.0, 0.0, 0.0, 1.62099061981748E9, 2021-05-14 13:10:19.817
58.0, -103.60457611083984, -35.43742370605469, 80.74443817138672, 203.62258911132812, 0.03200000151991844, -0.04800000041723251, 1.055999994277954, 0.0, 0.0, 0.0, 0.0, 0.0, 1.62099061981748E9, 2021-05-14 13:10:19.817
59.0, -103.28668975830078, -34.90635681152344, 84.70125579833984, 206.9211883544922, 0.03200000151991844, -0.04800000041723251, 1.055999994277954, 0.0, 0.0, 0.0, 0.0, 0.0, 1.6209906198331747E9, 2021-05-14 13:10:19.833
59.0, -130.84226989746094, -58.852935791015625, 65.95313262939453, 169.488525390625, 0.03200000151991844, -0.04800000041723251, 1.055999994277954, 0.0, 0.0, 0.0, 0.0, 0.0, 1.6209906198331747E9, 2021-05-14 13:10:19.833
60.0, -121.71317291259766, -54.81758499145508, 69.18814849853516, 168.9312744140625, 0.03200000151991844, -0.04800000041723251, 1.055999994277954, 0.0, 0.0, 0.0, 0.0, 0.0, 1.620990619833891E9, 2021-05-14 13:10:19.833
60.0, -102.64342498779297, -32.561439514160156, 81.95616912841797, 199.83033752441406, 0.03200000151991844, -0.04800000041723251, 1.055999994277954, 0.0, 0.0, 0.0, 0.0, 0.0, 1.620990619833891E9, 2021-05-14 13:10:19.833
61.0, -99.16157531738281, -31.45442771911621, 87.40145874023438, 206.85760498046875, 0.03200000151991844, -0.04800000041723251, 1.055999994277954, 0.0, 0.0, 0.0, 0.0, 0.0, 1.6209906198474493E9, 2021-05-14 13:10:19.847
61.0, -131.32846069335938, -71.34420013427734, 69.46490478515625, 162.98109436035156, 0.03200000151991844, -0.04800000041723251, 1.055999994277954, 0.0, 0.0, 0.0, 0.0, 0.0, 1.6209906198474493E9, 2021-05-14 13:10:19.847
62.0, -126.5413818359375, -63.69236755371094, 61.65972900390625, 162.4088897705078, 0.03200000151991844, -0.04800000041723251, 1.055999994277954, 0.0, 0.0, 0.0, 0.0, 0.0, 1.6209906198631797E9, 2021-05-14 13:10:19.863
62.0, -104.38996124267578, -24.546833038330078, 75.55719757080078, 201.4983367919922, 0.03200000151991844, -0.04800000041723251, 1.055999994277954, 0.0, 0.0, 0.0, 0.0, 0.0, 1.6209906198631797E9, 2021-05-14 13:10:19.863
63.0, -106.35714721679688, -31.607765197753906, 80.45272827148438, 203.93299865722656, 0.03200000151991844, -0.04800000041723251, 1.055999994277954, 0.0, 0.0, 0.0, 0.0, 0.0, 1.6209906198638957E9, 2021-05-14 13:10:19.863
63.0, -139.70582580566406, -63.22488021850586, 62.321693420410156, 165.31105041503906, 0.03200000151991844, -0.04800000041723251, 1.055999994277954, 0.0, 0.0, 0.0, 0.0, 0.0, 1.6209906198638957E9, 2021-05-14 13:10:19.863
64.0, -127.05374908447266, -55.33369064331055, 64.24774169921875, 172.8768768310547, 0.03200000151991844, -0.04800000041723251, 1.055999994277954, 0.0, 0.0, 0.0, 0.0, 0.0, 1.6209906198775177E9, 2021-05-14 13:10:19.877
64.0, -102.24699401855469, -32.33330535888672, 77.29251098632812, 210.533935546875, 0.03200000151991844, -0.04800000041723251, 1.055999994277954, 0.0, 0.0, 0.0, 0.0, 0.0, 1.6209906198775177E9, 2021-05-14 13:10:19.877
65.0, -106.12527465820312, -29.56203842163086, 86.05136108398438, 214.18032836914062, 0.03200000151991844, -0.04800000041723251, 1.055999994277954, 0.0, 0.0, 0.0, 0.0, 0.0, 1.6209906198932672E9, 2021-05-14 13:10:19.893
65.0, -144.4405517578125, -61.339969635009766, 66.53282165527344, 166.24229431152344, 0.03200000151991844, -0.04800000041723251, 1.055999994277954, 0.0, 0.0, 0.0, 0.0, 0.0, 1.6209906198932672E9, 2021-05-14 13:10:19.893
66.0, -136.61666870117188, -50.408241271972656, 69.27042388916016, 175.24049377441406, 0.03200000151991844, -0.04800000041723251, 1.055999994277954, 0.0, 0.0, 0.0, 0.0, 0.0, 1.6209906198938653E9, 2021-05-14 13:10:19.893
66.0, -107.55390930175781, -25.567825317382812, 79.38685607910156, 204.5538330078125, 0.03200000151991844, -0.04800000041723251, 1.055999994277954, 0.0, 0.0, 0.0, 0.0, 0.0, 1.6209906198938653E9, 2021-05-14 13:10:19.893
67.0, -112.0642318725586, -35.35140609741211, 84.00189208984375, 210.04400634765625, 0.03200000151991844, -0.04800000041723251, 1.055999994277954, 0.0, 0.0, 0.0, 0.0, 0.0, 1.62099061990754E9, 2021-05-14 13:10:19.907
67.0, -140.94747924804688, -69.76970672607422, 62.67698287963867, 176.3138427734375, 0.03200000151991844, -0.04800000041723251, 1.055999994277954, 0.0, 0.0, 0.0, 0.0, 0.0, 1.62099061990754E9, 2021-05-14 13:10:19.907
68.0, -133.965087890625, -60.203041076660156, 63.52220153808594, 174.49998474121094, 0.03200000151991844, -0.04800000041723251, 1.055999994277954, 0.0, 0.0, 0.0, 0.0, 0.0, 1.6209906199231694E9, 2021-05-14 13:10:19.923
68.0, -102.0674819946289, -34.73432159423828, 75.50483703613281, 203.58892822265625, 0.03200000151991844, -0.04800000041723251, 1.055999994277954, 0.0, 0.0, 0.0, 0.0, 0.0, 1.6209906199231694E9, 2021-05-14 13:10:19.923
69.0, -105.2613525390625, -30.250181198120117, 87.37528228759766, 212.4263153076172, 0.03200000151991844, -0.04800000041723251, 1.055999994277954, 0.0, 0.0, 0.0, 0.0, 0.0, 1.6209906199238343E9, 2021-05-14 13:10:19.923
69.0, -140.3715362548828, -53.28422546386719, 62.00380325317383, 164.58926391601562, 0.03200000151991844, -0.04800000041723251, 1.055999994277954, 0.0, 0.0, 0.0, 0.0, 0.0, 1.6209906199238343E9, 2021-05-14 13:10:19.923
70.0, -135.81259155273438, -45.03774642944336, 58.46959686279297, 171.2761993408203, 0.03200000151991844, -0.04800000041723251, 1.055999994277954, 0.0, 0.0, 0.0, 0.0, 0.0, 1.6209906199374456E9, 2021-05-14 13:10:19.937
70.0, -108.8890609741211, -37.217613220214844, 70.0595474243164, 203.4954376220703, 0.03200000151991844, -0.04800000041723251, 1.055999994277954, 0.0, 0.0, 0.0, 0.0, 0.0, 1.6209906199374456E9, 2021-05-14 13:10:19.937
71.0, -104.42361450195312, -30.45213508605957, 79.08392333984375, 207.15306091308594, 0.03200000151991844, -0.04800000041723251, 1.055999994277954, 0.0, 0.0, 0.0, 0.0, 0.0, 1.6209906199532883E9, 2021-05-14 13:10:19.953
71.0, -140.76048278808594, -61.811195373535156, 57.07087326049805, 166.54522705078125, 0.03200000151991844, -0.04800000041723251, 1.055999994277954, 0.0, 0.0, 0.0, 0.0, 0.0, 1.6209906199532883E9, 2021-05-14 13:10:19.953
72.0, -140.93252563476562, -51.821922302246094, 57.2840461730957, 171.00318908691406, 0.03200000151991844, -0.04800000041723251, 1.055999994277954, 0.0, 0.0, 0.0, 0.0, 0.0, 1.6209906199538968E9, 2021-05-14 13:10:19.953
72.0, -113.69857025146484, -15.84782600402832, 68.25691223144531, 207.1829833984375, 0.03200000151991844, -0.04800000041723251, 1.055999994277954, 0.0, 0.0, 0.0, 0.0, 0.0, 1.6209906199538968E9, 2021-05-14 13:10:19.953
73.0, -111.88471984863281, -35.889949798583984, 78.52294158935547, 209.34837341308594, 0.03200000151991844, -0.04800000041723251, 1.055999994277954, 0.0, 0.0, 0.0, 0.0, 0.0, 1.6209906199675074E9, 2021-05-14 13:10:19.967
73.0, -133.8341827392578, -68.505615234375, 62.9013786315918, 175.9286346435547, 0.03200000151991844, -0.04800000041723251, 1.055999994277954, 0.0, 0.0, 0.0, 0.0, 0.0, 1.6209906199675074E9, 2021-05-14 13:10:19.967
74.0, -133.33677673339844, -53.74049377441406, 56.046142578125, 173.58370971679688, 0.03200000151991844, -0.04800000041723251, 1.055999994277954, 0.0, 0.0, 0.0, 0.0, 0.0, 1.620990619983103E9, 2021-05-14 13:10:19.983
74.0, -111.74259948730469, -27.44899559020996, 64.18790435791016, 203.51788330078125, 0.03200000151991844, -0.04800000041723251, 1.055999994277954, 0.0, 0.0, 0.0, 0.0, 0.0, 1.620990619983103E9, 2021-05-14 13:10:19.983
75.0, -107.80448913574219, -19.224956512451172, 74.8391342163086, 214.2177276611328, 0.03200000151991844, -0.04800000041723251, 1.055999994277954, 0.0, 0.0, 0.0, 0.0, 0.0, 1.6209906199838414E9, 2021-05-14 13:10:19.983
75.0, -136.8148956298828, -55.617923736572266, 50.46247100830078, 160.99520874023438, 0.03200000151991844, -0.04800000041723251, 1.055999994277954, 0.0, 0.0, 0.0, 0.0, 0.0, 1.6209906199838414E9, 2021-05-14 13:10:19.983
76.0, -135.3712921142578, -44.06163024902344, 59.46440887451172, 171.9568634033203, 0.03200000151991844, -0.04800000041723251, 1.055999994277954, 0.0, 0.0, 0.0, 0.0, 0.0, 1.6209906199975753E9, 2021-05-14 13:10:19.997
76.0, -107.65489196777344, -27.247041702270508, 73.92285919189453, 202.0032196044922, 0.03200000151991844, -0.04800000041723251, 1.055999994277954, 0.0, 0.0, 0.0, 0.0, 0.0, 1.6209906199975753E9, 2021-05-14 13:10:19.997
77.0, -105.39598846435547, -29.341384887695312, 80.77062225341797, 205.6832733154297, 0.03200000151991844, -0.04800000041723251, 1.055999994277954, 0.0, 0.0, 0.0, 0.0, 0.0, 1.62099062001312E9, 2021-05-14 13:10:20.013
77.0, -136.70269775390625, -55.120513916015625, 61.34931945800781, 166.941650390625, 0.03200000151991844, -0.04800000041723251, 1.055999994277954, 0.0, 0.0, 0.0, 0.0, 0.0, 1.62099062001312E9, 2021-05-14 13:10:20.013
78.0, -143.7860565185547, -45.9989013671875, 56.592166900634766, 164.7874755859375, 0.03200000151991844, -0.04800000041723251, 1.055999994277954, 0.0, 0.0, 0.0, 0.0, 0.0, 1.6209906200138495E9, 2021-05-14 13:10:20.013
78.0, -114.81305694580078, -27.239561080932617, 74.6371841430664, 199.93505859375, 0.03200000151991844, -0.04800000041723251, 1.055999994277954, 0.0, 0.0, 0.0, 0.0, 0.0, 1.6209906200138495E9, 2021-05-14 13:10:20.013
79.0, -111.15169525146484, -19.29601287841797, 82.87618255615234, 209.06414794921875, 0.03200000151991844, -0.04800000041723251, 1.055999994277954, 0.0, 0.0, 0.0, 0.0, 0.0, 1.6209906200274537E9, 2021-05-14 13:10:20.027
79.0, -139.71331787109375, -53.14958953857422, 62.29177474975586, 161.3953857421875, 0.03200000151991844, -0.04800000041723251, 1.055999994277954, 0.0, 0.0, 0.0, 0.0, 0.0, 1.6209906200274537E9, 2021-05-14 13:10:20.027
80.0, -134.05484008789062, -44.099029541015625, 67.8530044555664, 169.12950134277344, 0.03200000151991844, -0.04800000041723251, 1.055999994277954, 0.0, 0.0, 0.0, 0.0, 0.0, 1.6209906200432854E9, 2021-05-14 13:10:20.043
80.0, -108.24579620361328, -30.100584030151367, 77.64031982421875, 204.77073669433594, 0.03200000151991844, -0.04800000041723251, 1.055999994277954, 0.0, 0.0, 0.0, 0.0, 0.0, 1.6209906200432854E9, 2021-05-14 13:10:20.043
81.0, -107.4043197631836, -30.123023986816406, 80.6995620727539, 207.0857391357422, 0.03200000151991844, -0.04800000041723251, 1.055999994277954, 0.0, 0.0, 0.0, 0.0, 0.0, 1.620990620044016E9, 2021-05-14 13:10:20.044
81.0, -136.23146057128906, -64.84425354003906, 61.345577239990234, 165.5878143310547, 0.03200000151991844, -0.04800000041723251, 1.055999994277954, 0.0, 0.0, 0.0, 0.0, 0.0, 1.620990620044016E9, 2021-05-14 13:10:20.044
82.0, -129.7689208984375, -52.71950149536133, 58.31251907348633, 167.91029357910156, 0.03200000151991844, -0.04800000041723251, 1.055999994277954, 0.0, 0.0, 0.0, 0.0, 0.0, 1.6209906200576372E9, 2021-05-14 13:10:20.057
82.0, -108.04010009765625, -28.4512882232666, 75.94989013671875, 205.80294799804688, 0.03200000151991844, -0.04800000041723251, 1.055999994277954, 0.0, 0.0, 0.0, 0.0, 0.0, 1.6209906200576372E9, 2021-05-14 13:10:20.057
83.0, -111.15543365478516, -28.53730583190918, 76.9447021484375, 204.61366271972656, 0.03200000151991844, -0.04800000041723251, 1.055999994277954, 0.0, 0.0, 0.0, 0.0, 0.0, 1.6209906200732496E9, 2021-05-14 13:10:20.073
83.0, -141.1157684326172, -59.084808349609375, 61.13988494873047, 163.39622497558594, 0.03200000151991844, -0.04800000041723251, 1.055999994277954, 0.0, 0.0, 0.0, 0.0, 0.0, 1.6209906200732496E9, 2021-05-14 13:10:20.073
84.0, -129.56321716308594, -51.09264373779297, 63.806434631347656, 169.3090057373047, 0.03200000151991844, -0.04800000041723251, 1.055999994277954, 0.0, 0.0, 0.0, 0.0, 0.0, 1.6209906200739236E9, 2021-05-14 13:10:20.073
84.0, -114.12865447998047, -31.40580940246582, 68.47008514404297, 193.1359100341797, 0.03200000151991844, -0.04800000041723251, 1.055999994277954, 0.0, 0.0, 0.0, 0.0, 0.0, 1.6209906200739236E9, 2021-05-14 13:10:20.073
85.0, -102.60602569580078, -34.06861877441406, 78.4930191040039, 209.86074829101562, 0.03200000151991844, -0.04800000041723251, 1.055999994277954, 0.0, 0.0, 0.0, 0.0, 0.0, 1.6209906200874858E9, 2021-05-14 13:10:20.087
85.0, -147.92239379882812, -51.354434967041016, 55.55621337890625, 157.47596740722656, 0.03200000151991844, -0.04800000041723251, 1.055999994277954, 0.0, 0.0, 0.0, 0.0, 0.0, 1.6209906200874858E9, 2021-05-14 13:10:20.087
86.0, -133.0637664794922, -48.39243698120117, 56.442569732666016, 160.40805053710938, 0.03200000151991844, -0.04800000041723251, 1.055999994277954, 0.0, 0.0, 0.0, 0.0, 0.0, 1.6209906201030936E9, 2021-05-14 13:10:20.103
86.0, -109.50614166259766, -23.926010131835938, 74.3342514038086, 199.50869750976562, 0.03200000151991844, -0.04800000041723251, 1.055999994277954, 0.0, 0.0, 0.0, 0.0, 0.0, 1.6209906201030936E9, 2021-05-14 13:10:20.103
87.0, -118.35848236083984, -4.2129974365234375, 77.91707611083984, 194.19430541992188, 0.03200000151991844, -0.04800000041723251, 1.055999994277954, 0.0, 0.0, 0.0, 0.0, 0.0, 1.6209906201037931E9, 2021-05-14 13:10:20.103
87.0, -140.52487182617188, -74.66149139404297, 51.85371398925781, 151.8848114013672, 0.03200000151991844, -0.04800000041723251, 1.055999994277954, 0.0, 0.0, 0.0, 0.0, 0.0, 1.6209906201037931E9, 2021-05-14 13:10:20.103
88.0, -134.27549743652344, -52.03883743286133, 54.59880065917969, 159.71243286132812, 0.03200000151991844, -0.04800000041723251, 1.055999994277954, 0.0, 0.0, 0.0, 0.0, 0.0, 1.6209906201174295E9, 2021-05-14 13:10:20.117
88.0, -112.61773681640625, -29.05341339111328, 67.30323791503906, 198.29322814941406, 0.03200000151991844, -0.04800000041723251, 1.055999994277954, 0.0, 0.0, 0.0, 0.0, 0.0, 1.6209906201174295E9, 2021-05-14 13:10:20.117
89.0, -111.18535614013672, -27.66217041015625, 77.91707611083984, 204.68472290039062, 0.03200000151991844, -0.04800000041723251, 1.055999994277954, 0.0, 0.0, 0.0, 0.0, 0.0, 1.6209906201335652E9, 2021-05-14 13:10:20.133
89.0, -138.95037841796875, -48.156822204589844, 58.36113739013672, 165.33349609375, 0.03200000151991844, -0.04800000041723251, 1.055999994277954, 0.0, 0.0, 0.0, 0.0, 0.0, 1.6209906201335652E9, 2021-05-14 13:10:20.133
90.0, -135.4872283935547, -59.41392135620117, 52.94950485229492, 168.63209533691406, 0.03200000151991844, -0.04800000041723251, 1.055999994277954, 0.0, 0.0, 0.0, 0.0, 0.0, 1.6209906201481051E9, 2021-05-14 13:10:20.148
90.0, -110.8412857055664, -17.11191177368164, 69.24424743652344, 199.22447204589844, 0.03200000151991844, -0.04800000041723251, 1.055999994277954, 0.0, 0.0, 0.0, 0.0, 0.0, 1.6209906201481051E9, 2021-05-14 13:10:20.148
91.0, -120.4977035522461, -28.765439987182617, 71.83599853515625, 200.16693115234375, 0.03200000151991844, -0.04800000041723251, 1.055999994277954, 0.0, 0.0, 0.0, 0.0, 0.0, 1.6209906201488185E9, 2021-05-14 13:10:20.148
91.0, -140.7081298828125, -59.69441223144531, 52.27632141113281, 157.4984130859375, 0.03200000151991844, -0.04800000041723251, 1.055999994277954, 0.0, 0.0, 0.0, 0.0, 0.0, 1.6209906201488185E9, 2021-05-14 13:10:20.148
92.0, -137.3160400390625, -49.75001907348633, 54.47538375854492, 158.2463836669922, 0.03200000151991844, -0.04800000041723251, 1.055999994277954, 0.0, 0.0, 0.0, 0.0, 0.0, 1.620990620163118E9, 2021-05-14 13:10:20.163
92.0, -110.93478393554688, -23.98210906982422, 65.27995300292969, 204.6361083984375, 0.03200000151991844, -0.04800000041723251, 1.055999994277954, 0.0, 0.0, 0.0, 0.0, 0.0, 1.620990620163118E9, 2021-05-14 13:10:20.163
93.0, -104.70784759521484, -20.17115020751953, 79.03530883789062, 215.66506958007812, 0.03200000151991844, -0.04800000041723251, 1.055999994277954, 0.0, 0.0, 0.0, 0.0, 0.0, 1.6209906201638305E9, 2021-05-14 13:10:20.163
93.0, -143.56541442871094, -57.083961486816406, 54.710994720458984, 163.24288940429688, 0.03200000151991844, -0.04800000041723251, 1.055999994277954, 0.0, 0.0, 0.0, 0.0, 0.0, 1.6209906201638305E9, 2021-05-14 13:10:20.163
94.0, -136.74757385253906, -43.964393615722656, 55.93020248413086, 168.32916259765625, 0.03200000151991844, -0.04800000041723251, 1.055999994277954, 0.0, 0.0, 0.0, 0.0, 0.0, 1.6209906201776087E9, 2021-05-14 13:10:20.177
94.0, -118.94564819335938, -24.225202560424805, 70.42231750488281, 198.76446533203125, 0.03200000151991844, -0.04800000041723251, 1.055999994277954, 0.0, 0.0, 0.0, 0.0, 0.0, 1.6209906201776087E9, 2021-05-14 13:10:20.177
95.0, -109.90257263183594, -22.38517189025879, 89.2115707397461, 216.1998748779297, 0.03200000151991844, -0.04800000041723251, 1.055999994277954, 0.0, 0.0, 0.0, 0.0, 0.0, 1.6209906201937568E9, 2021-05-14 13:10:20.193
95.0, -145.6223602294922, -48.66544723510742, 61.72330856323242, 164.6266632080078, 0.03200000151991844, -0.04800000041723251, 1.055999994277954, 0.0, 0.0, 0.0, 0.0, 0.0, 1.6209906201937568E9, 2021-05-14 13:10:20.193
96.0, -138.7596435546875, -43.21267318725586, 61.487693786621094, 166.41058349609375, 0.03200000151991844, -0.04800000041723251, 1.055999994277954, 0.0, 0.0, 0.0, 0.0, 0.0, 1.62099062020818E9, 2021-05-14 13:10:20.208
96.0, -116.46983337402344, -34.165855407714844, 80.15353393554688, 205.42897033691406, 0.03200000151991844, -0.04800000041723251, 1.055999994277954, 0.0, 0.0, 0.0, 0.0, 0.0, 1.62099062020818E9, 2021-05-14 13:10:20.208
97.0, -101.26714324951172, -24.359838485717773, 88.6655502319336, 216.26719665527344, 0.03200000151991844, -0.04800000041723251, 1.055999994277954, 0.0, 0.0, 0.0, 0.0, 0.0, 1.6209906202089279E9, 2021-05-14 13:10:20.208
97.0, -147.9560546875, -58.09373474121094, 65.53052520751953, 163.5981903076172, 0.03200000151991844, -0.04800000041723251, 1.055999994277954, 0.0, 0.0, 0.0, 0.0, 0.0, 1.6209906202089279E9, 2021-05-14 13:10:20.208
98.0, -134.11468505859375, -48.70658874511719, 62.557308197021484, 173.31443786621094, 0.03200000151991844, -0.04800000041723251, 1.055999994277954, 0.0, 0.0, 0.0, 0.0, 0.0, 1.6209906202232165E9, 2021-05-14 13:10:20.223
98.0, -108.94889831542969, -28.436328887939453, 80.30313110351562, 205.7842559814453, 0.03200000151991844, -0.04800000041723251, 1.055999994277954, 0.0, 0.0, 0.0, 0.0, 0.0, 1.6209906202232165E9, 2021-05-14 13:10:20.223
99.0, -105.01078033447266, -29.78269386291504, 82.1843032836914, 215.9006805419922, 0.03200000151991844, -0.04800000041723251, 1.055999994277954, 0.0, 0.0, 0.0, 0.0, 0.0, 1.6209906202239554E9, 2021-05-14 13:10:20.223
99.0, -137.5591278076172, -57.274696350097656, 65.08174133300781, 167.37548828125, 0.03200000151991844, -0.04800000041723251, 1.055999994277954, 0.0, 0.0, 0.0, 0.0, 0.0, 1.6209906202239554E9, 2021-05-14 13:10:20.223
100.0, -130.8347930908203, -49.779937744140625, 68.75806427001953, 178.5577850341797, 0.03200000151991844, -0.04800000041723251, 1.055999994277954, 0.0, 0.0, 0.0, 0.0, 0.0, 1.620990620255204E9, 2021-05-14 13:10:20.255
100.0, -113.75093078613281, -32.92047119140625, 80.90899658203125, 203.6936492919922, 0.03200000151991844, -0.04800000041723251, 1.055999994277954, 0.0, 0.0, 0.0, 0.0, 0.0, 1.620990620255204E9, 2021-05-14 13:10:20.255
0.0, -105.26509094238281, -22.14955711364746, 92.07447052001953, 218.13153076171875, 0.03200000151991844, -0.04800000041723251, 1.055999994277954, 0.0, 0.0, 0.0, 0.0, 0.0, 1.6209906202559302E9, 2021-05-14 13:10:20.255
1.0, -146.6919708251953, -63.868141174316406, 54.61562728881836, 156.5914764404297, 0.03200000151991844, -0.04800000041723251, 1.055999994277954, 0.0, 0.0, 0.0, 0.0, 0.0, 1.6209906202568457E9, 2021-05-14 13:10:20.256
1.0, -137.2337646484375, -37.789817810058594, 64.2271728515625, 170.2122039794922, 0.03200000151991844, -0.04800000041723251, 1.055999994277954, 0.0, 0.0, 0.0, 0.0, 0.0, 1.6209906202568457E9, 2021-05-14 13:10:20.256
2.0, -114.6971206665039, -36.68655014038086, 74.4034423828125, 199.11788940429688, 0.03200000151991844, -0.04800000041723251, 1.055999994277954, 0.0, 0.0, 0.0, 0.0, 0.0, 1.6209906202574308E9, 2021-05-14 13:10:20.257
2.0, -106.81341552734375, -24.12796401977539, 84.36279296875, 214.6796112060547, 0.03200000151991844, -0.04800000041723251, 1.055999994277954, 0.0, 0.0, 0.0, 0.0, 0.0, 1.6209906202574308E9, 2021-05-14 13:10:20.257
3.0, -151.62115478515625, -60.21051788330078, 52.90275573730469, 160.2603302001953, 0.03200000151991844, -0.04800000041723251, 1.055999994277954, 0.0, 0.0, 0.0, 0.0, 0.0, 1.6209906202675009E9, 2021-05-14 13:10:20.267
3.0, -132.9403533935547, -34.364070892333984, 60.48727035522461, 168.46566772460938, 0.03200000151991844, -0.04800000041723251, 1.055999994277954, 0.0, 0.0, 0.0, 0.0, 0.0, 1.6209906202675009E9, 2021-05-14 13:10:20.267
4.0, -111.75756072998047, -39.21846008300781, 65.59223175048828, 203.51226806640625, 0.03200000151991844, -0.04800000041723251, 1.055999994277954, 0.0, 0.0, 0.0, 0.0, 0.0, 1.6209906202825143E9, 2021-05-14 13:10:20.282
4.0, -113.71353149414062, -29.797653198242188, 72.49983215332031, 213.96902465820312, 0.03200000151991844, -0.04800000041723251, 1.055999994277954, 0.0, 0.0, 0.0, 0.0, 0.0, 1.6209906202825143E9, 2021-05-14 13:10:20.282
5.0, -142.67904663085938, -53.62081527709961, 52.68584060668945, 164.89031982421875, 0.03200000151991844, -0.04800000041723251, 1.055999994277954, 0.0, 0.0, 0.0, 0.0, 0.0, 1.6209906202981691E9, 2021-05-14 13:10:20.298
5.0, -144.11143493652344, -55.2252311706543, 46.5037841796875, 165.95619201660156, 0.03200000151991844, -0.04800000041723251, 1.055999994277954, 0.0, 0.0, 0.0, 0.0, 0.0, 1.6209906202981691E9, 2021-05-14 13:10:20.298
6.0, -106.20381164550781, -22.747941970825195, 71.31053924560547, 206.05540466308594, 0.03200000151991844, -0.04800000041723251, 1.055999994277954, 0.0, 0.0, 0.0, 0.0, 0.0, 1.6209906202989151E9, 2021-05-14 13:10:20.298
6.0, -116.39877319335938, -30.76254653930664, 66.38883209228516, 205.91702270507812, 0.03200000151991844, -0.04800000041723251, 1.055999994277954, 0.0, 0.0, 0.0, 0.0, 0.0, 1.6209906202989151E9, 2021-05-14 13:10:20.298
7.0, -142.02830505371094, -52.311851501464844, 51.679805755615234, 160.83627319335938, 0.03200000151991844, -0.04800000041723251, 1.055999994277954, 0.0, 0.0, 0.0, 0.0, 0.0, 1.620990620312431E9, 2021-05-14 13:10:20.312
7.0, -126.17113494873047, -46.26443099975586, 56.2574462890625, 170.4665069580078, 0.03200000151991844, -0.04800000041723251, 1.055999994277954, 0.0, 0.0, 0.0, 0.0, 0.0, 1.620990620312431E9, 2021-05-14 13:10:20.312
8.0, -116.99342346191406, -26.241008758544922, 64.52262115478516, 190.65823364257812, 0.03200000151991844, -0.04800000041723251, 1.055999994277954, 0.0, 0.0, 0.0, 0.0, 0.0, 1.6209906203445115E9, 2021-05-14 13:10:20.344
8.0, -105.43338775634766, -21.865325927734375, 78.79034423828125, 209.92245483398438, 0.03200000151991844, -0.04800000041723251, 1.055999994277954, 0.0, 0.0, 0.0, 0.0, 0.0, 1.6209906203445115E9, 2021-05-14 13:10:20.344
9.0, -133.27694702148438, -53.47121810913086, 55.66279983520508, 157.22726440429688, 0.03200000151991844, -0.04800000041723251, 1.055999994277954, 0.0, 0.0, 0.0, 0.0, 0.0, 1.6209906203452313E9, 2021-05-14 13:10:20.345
9.0, -130.5168914794922, -47.02363204956055, 61.02207946777344, 172.94979858398438, 0.03200000151991844, -0.04800000041723251, 1.055999994277954, 0.0, 0.0, 0.0, 0.0, 0.0, 1.6209906203452313E9, 2021-05-14 13:10:20.345
10.0, -109.65947723388672, -23.757715225219727, 70.72338104248047, 199.51805114746094, 0.03200000151991844, -0.04800000041723251, 1.055999994277954, 0.0, 0.0, 0.0, 0.0, 0.0, 1.6209906203460553E9, 2021-05-14 13:10:20.346
10.0, -111.88471984863281, -30.73636817932129, 74.19400787353516, 205.66644287109375, 0.03200000151991844, -0.04800000041723251, 1.055999994277954, 0.0, 0.0, 0.0, 0.0, 0.0, 1.6209906203460553E9, 2021-05-14 13:10:20.346
11.0, -134.43630981445312, -55.43466567993164, 56.979244232177734, 163.43923950195312, 0.03200000151991844, -0.04800000041723251, 1.055999994277954, 0.0, 0.0, 0.0, 0.0, 0.0, 1.6209906203466783E9, 2021-05-14 13:10:20.346
11.0, -127.75685119628906, -44.33464431762695, 60.10954284667969, 164.72576904296875, 0.03200000151991844, -0.04800000041723251, 1.055999994277954, 0.0, 0.0, 0.0, 0.0, 0.0, 1.6209906203466783E9, 2021-05-14 13:10:20.346
12.0, -116.25292205810547, -21.26694107055664, 66.9610366821289, 186.12921142578125, 0.03200000151991844, -0.04800000041723251, 1.055999994277954, 0.0, 0.0, 0.0, 0.0, 0.0, 1.62099062037318E9, 2021-05-14 13:10:20.373
12.0, -101.52519226074219, -25.298553466796875, 83.5400161743164, 208.50503540039062, 0.03200000151991844, -0.04800000041723251, 1.055999994277954, 0.0, 0.0, 0.0, 0.0, 0.0, 1.62099062037318E9, 2021-05-14 13:10:20.373
13.0, -128.5721435546875, -53.934967041015625, 61.97575378417969, 161.8273468017578, 0.03200000151991844, -0.04800000041723251, 1.055999994277954, 0.0, 0.0, 0.0, 0.0, 0.0, 1.6209906203738768E9, 2021-05-14 13:10:20.373
13.0, -129.23037719726562, -54.62685012817383, 62.59283447265625, 162.00311279296875, 0.03200000151991844, -0.04800000041723251, 1.055999994277954, 0.0, 0.0, 0.0, 0.0, 0.0, 1.6209906203738768E9, 2021-05-14 13:10:20.373
14.0, -103.88133239746094, -25.515466690063477, 78.37895202636719, 199.82846069335938, 0.03200000151991844, -0.04800000041723251, 1.055999994277954, 0.0, 0.0, 0.0, 0.0, 0.0, 1.620990620388182E9, 2021-05-14 13:10:20.388
14.0, -101.54389190673828, -23.884870529174805, 82.35072326660156, 202.93258666992188, 0.03200000151991844, -0.04800000041723251, 1.055999994277954, 0.0, 0.0, 0.0, 0.0, 0.0, 1.620990620388182E9, 2021-05-14 13:10:20.388
15.0, -134.50363159179688, -49.151634216308594, 64.02521514892578, 154.9421844482422, 0.03200000151991844, -0.04800000041723251, 1.055999994277954, 0.0, 0.0, 0.0, 0.0, 0.0, 1.6209906203888545E9, 2021-05-14 13:10:20.388
15.0, -127.17716979980469, -48.2989387512207, 67.20413208007812, 158.214599609375, 0.03200000151991844, -0.04800000041723251, 1.055999994277954, 0.0, 0.0, 0.0, 0.0, 0.0, 1.6209906203888545E9, 2021-05-14 13:10:20.388
16.0, -109.30418395996094, -23.813812255859375, 74.87466430664062, 192.10931396484375, 0.03200000151991844, -0.04800000041723251, 1.055999994277954, 0.0, 0.0, 0.0, 0.0, 0.0, 1.620990620402422E9, 2021-05-14 13:10:20.402
16.0, -107.93912506103516, -20.870512008666992, 85.23045349121094, 207.44664001464844, 0.03200000151991844, -0.04800000041723251, 1.055999994277954, 0.0, 0.0, 0.0, 0.0, 0.0, 1.620990620402422E9, 2021-05-14 13:10:20.402
17.0, -139.9339599609375, -43.852195739746094, 68.08674621582031, 156.41197204589844, 0.03200000151991844, -0.04800000041723251, 1.055999994277954, 0.0, 0.0, 0.0, 0.0, 0.0, 1.6209906204181595E9, 2021-05-14 13:10:20.418
17.0, -133.68833923339844, -58.224632263183594, 67.12185668945312, 162.92312622070312, 0.03200000151991844, -0.04800000041723251, 1.055999994277954, 0.0, 0.0, 0.0, 0.0, 0.0, 1.6209906204181595E9, 2021-05-14 13:10:20.418
18.0, -107.81196594238281, -20.6461181640625, 78.59212493896484, 195.6435089111328, 0.03200000151991844, -0.04800000041723251, 1.055999994277954, 0.0, 0.0, 0.0, 0.0, 0.0, 1.6209906204188452E9, 2021-05-14 13:10:20.418
18.0, -104.67044830322266, -25.496767044067383, 83.83172607421875, 203.7852783203125, 0.03200000151991844, -0.04800000041723251, 1.055999994277954, 0.0, 0.0, 0.0, 0.0, 0.0, 1.6209906204188452E9, 2021-05-14 13:10:20.418
19.0, -137.71620178222656, -47.771610260009766, 59.02123260498047, 150.85447692871094, 0.03200000151991844, -0.04800000041723251, 1.055999994277954, 0.0, 0.0, 0.0, 0.0, 0.0, 1.6209906204324071E9, 2021-05-14 13:10:20.432
19.0, -130.46827697753906, -54.48847198486328, 61.82241439819336, 158.0836944580078, 0.03200000151991844, -0.04800000041723251, 1.055999994277954, 0.0, 0.0, 0.0, 0.0, 0.0, 1.6209906204324071E9, 2021-05-14 13:10:20.432
20.0, -103.9748306274414, -25.11155891418457, 78.87261962890625, 192.7637939453125, 0.03200000151991844, -0.04800000041723251, 1.055999994277954, 0.0, 0.0, 0.0, 0.0, 0.0, 1.6209906204481544E9, 2021-05-14 13:10:20.448
20.0, -103.1707534790039, -13.790881156921387, 83.67091369628906, 199.1216278076172, 0.03200000151991844, -0.04800000041723251, 1.055999994277954, 0.0, 0.0, 0.0, 0.0, 0.0, 1.6209906204481544E9, 2021-05-14 13:10:20.448
21.0, -131.5565948486328, -47.547218322753906, 64.45156860351562, 145.52137756347656, 0.03200000151991844, -0.04800000041723251, 1.055999994277954, 0.0, 0.0, 0.0, 0.0, 0.0, 1.6209906204488525E9, 2021-05-14 13:10:20.448
21.0, -130.56178283691406, -41.34646224975586, 58.53878402709961, 149.51185607910156, 0.03200000151991844, -0.04800000041723251, 1.055999994277954, 0.0, 0.0, 0.0, 0.0, 0.0, 1.6209906204488525E9, 2021-05-14 13:10:20.448
22.0, -99.45703125, -25.601484298706055, 74.44831848144531, 194.60008239746094, 0.03200000151991844, -0.04800000041723251, 1.055999994277954, 0.0, 0.0, 0.0, 0.0, 0.0, 1.6209906204624004E9, 2021-05-14 13:10:20.462
22.0, -116.1407241821289, -20.459123611450195, 79.5083999633789, 204.3686981201172, 0.03200000151991844, -0.04800000041723251, 1.055999994277954, 0.0, 0.0, 0.0, 0.0, 0.0, 1.6209906204624004E9, 2021-05-14 13:10:20.462
23.0, -145.30445861816406, -43.65024185180664, 59.241886138916016, 153.7229766845703, 0.03200000151991844, -0.04800000041723251, 1.055999994277954, 0.0, 0.0, 0.0, 0.0, 0.0, 1.620990620477893E9, 2021-05-14 13:10:20.477
23.0, -135.3675537109375, -44.828311920166016, 60.752803802490234, 157.533935546875, 0.03200000151991844, -0.04800000041723251, 1.055999994277954, 0.0, 0.0, 0.0, 0.0, 0.0, 1.620990620477893E9, 2021-05-14 13:10:20.477
24.0, -112.72993469238281, -16.782800674438477, 68.88334655761719, 190.40391540527344, 0.03200000151991844, -0.04800000041723251, 1.055999994277954, 0.0, 0.0, 0.0, 0.0, 0.0, 1.6209906204932017E9, 2021-05-14 13:10:20.493
24.0, -113.13384246826172, -17.168010711669922, 71.00012969970703, 190.45626831054688, 0.03200000151991844, -0.04800000041723251, 1.055999994277954, 0.0, 0.0, 0.0, 0.0, 0.0, 1.6209906204932017E9, 2021-05-14 13:10:20.493
25.0, -136.09683227539062, -49.89961624145508, 53.75545120239258, 156.15391540527344, 0.03200000151991844, -0.04800000041723251, 1.055999994277954, 0.0, 0.0, 0.0, 0.0, 0.0, 1.6209906204939063E9, 2021-05-14 13:10:20.493
25.0, -129.53704833984375, -43.197715759277344, 56.19386672973633, 164.89779663085938, 0.03200000151991844, -0.04800000041723251, 1.055999994277954, 0.0, 0.0, 0.0, 0.0, 0.0, 1.6209906204939063E9, 2021-05-14 13:10:20.493
26.0, -104.16182708740234, -24.599191665649414, 72.8775634765625, 196.84776306152344, 0.03200000151991844, -0.04800000041723251, 1.055999994277954, 0.0, 0.0, 0.0, 0.0, 0.0, 1.6209906205081131E9, 2021-05-14 13:10:20.508
26.0, -103.93743133544922, -17.84867286682129, 83.42781829833984, 204.95960998535156, 0.03200000151991844, -0.04800000041723251, 1.055999994277954, 0.0, 0.0, 0.0, 0.0, 0.0, 1.6209906205081131E9, 2021-05-14 13:10:20.508
27.0, -134.5634765625, -56.852088928222656, 64.36180877685547, 153.34898376464844, 0.03200000151991844, -0.04800000041723251, 1.055999994277954, 0.0, 0.0, 0.0, 0.0, 0.0, 1.6209906205088267E9, 2021-05-14 13:10:20.508
27.0, -128.43003845214844, -39.11748504638672, 60.67800521850586, 164.6135711669922, 0.03200000151991844, -0.04800000041723251, 1.055999994277954, 0.0, 0.0, 0.0, 0.0, 0.0, 1.6209906205088267E9, 2021-05-14 13:10:20.508
28.0, -114.88785552978516, -24.10178565979004, 67.17420959472656, 190.48245239257812, 0.03200000151991844, -0.04800000041723251, 1.055999994277954, 0.0, 0.0, 0.0, 0.0, 0.0, 1.620990620522653E9, 2021-05-14 13:10:20.522
28.0, -99.29995727539062, -19.587726593017578, 84.26555633544922, 208.89024353027344, 0.03200000151991844, -0.04800000041723251, 1.055999994277954, 0.0, 0.0, 0.0, 0.0, 0.0, 1.620990620522653E9, 2021-05-14 13:10:20.522
29.0, -140.41641235351562, -43.21641540527344, 65.05742645263672, 166.21424865722656, 0.03200000151991844, -0.04800000041723251, 1.055999994277954, 0.0, 0.0, 0.0, 0.0, 0.0, 1.6209906205381415E9, 2021-05-14 13:10:20.538
29.0, -134.75794982910156, -46.30183029174805, 61.36988830566406, 164.74819946289062, 0.03200000151991844, -0.04800000041723251, 1.055999994277954, 0.0, 0.0, 0.0, 0.0, 0.0, 1.6209906205381415E9, 2021-05-14 13:10:20.538
30.0, -110.10452270507812, -16.790281295776367, 76.88299560546875, 195.55001831054688, 0.03200000151991844, -0.04800000041723251, 1.055999994277954, 0.0, 0.0, 0.0, 0.0, 0.0, 1.620990620538846E9, 2021-05-14 13:10:20.538
30.0, -117.1056137084961, -16.296613693237305, 74.0818099975586, 196.701904296875, 0.03200000151991844, -0.04800000041723251, 1.055999994277954, 0.0, 0.0, 0.0, 0.0, 0.0, 1.620990620538846E9, 2021-05-14 13:10:20.538
31.0, -137.75733947753906, -42.48713302612305, 65.02377319335938, 159.28794860839844, 0.03200000151991844, -0.04800000041723251, 1.055999994277954, 0.0, 0.0, 0.0, 0.0, 0.0, 1.620990620552436E9, 2021-05-14 13:10:20.552
31.0, -133.51629638671875, -49.52936553955078, 64.12993621826172, 158.038818359375, 0.03200000151991844, -0.04800000041723251, 1.055999994277954, 0.0, 0.0, 0.0, 0.0, 0.0, 1.620990620552436E9, 2021-05-14 13:10:20.552
32.0, -111.10308074951172, -27.269479751586914, 67.15177154541016, 187.94680786132812, 0.03200000151991844, -0.04800000041723251, 1.055999994277954, 0.0, 0.0, 0.0, 0.0, 0.0, 1.620990620568267E9, 2021-05-14 13:10:20.568
32.0, -106.0018539428711, -22.669403076171875, 76.6698226928711, 196.0773468017578, 0.03200000151991844, -0.04800000041723251, 1.055999994277954, 0.0, 0.0, 0.0, 0.0, 0.0, 1.620990620568267E9, 2021-05-14 13:10:20.568
33.0, -131.8819580078125, -48.03340530395508, 62.30486297607422, 152.5710906982422, 0.03200000151991844, -0.04800000041723251, 1.055999994277954, 0.0, 0.0, 0.0, 0.0, 0.0, 1.6209906205689971E9, 2021-05-14 13:10:20.568
33.0, -134.0511016845703, -43.21267318725586, 56.713714599609375, 159.32908630371094, 0.03200000151991844, -0.04800000041723251, 1.055999994277954, 0.0, 0.0, 0.0, 0.0, 0.0, 1.6209906205689971E9, 2021-05-14 13:10:20.568
34.0, -119.85818481445312, -21.678329467773438, 67.19290924072266, 193.08168029785156, 0.03200000151991844, -0.04800000041723251, 1.055999994277954, 0.0, 0.0, 0.0, 0.0, 0.0, 1.620990620582435E9, 2021-05-14 13:10:20.582
34.0, -105.55307006835938, -21.809226989746094, 74.82978820800781, 205.19522094726562, 0.03200000151991844, -0.04800000041723251, 1.055999994277954, 0.0, 0.0, 0.0, 0.0, 0.0, 1.620990620582435E9, 2021-05-14 13:10:20.582
35.0, -137.51425170898438, -49.77619934082031, 64.5450668334961, 153.89501953125, 0.03200000151991844, -0.04800000041723251, 1.055999994277954, 0.0, 0.0, 0.0, 0.0, 0.0, 1.6209906205979755E9, 2021-05-14 13:10:20.597
35.0, -131.253662109375, -48.927242279052734, 58.24333190917969, 159.97235107421875, 0.03200000151991844, -0.04800000041723251, 1.055999994277954, 0.0, 0.0, 0.0, 0.0, 0.0, 1.6209906205979755E9, 2021-05-14 13:10:20.597
36.0, -107.30708312988281, -22.097198486328125, 68.98432159423828, 189.6708984375, 0.03200000151991844, -0.04800000041723251, 1.055999994277954, 0.0, 0.0, 0.0, 0.0, 0.0, 1.6209906206131403E9, 2021-05-14 13:10:20.613
36.0, -107.24723815917969, -23.858692169189453, 80.75005340576172, 194.77960205078125, 0.03200000151991844, -0.04800000041723251, 1.055999994277954, 0.0, 0.0, 0.0, 0.0, 0.0, 1.6209906206131403E9, 2021-05-14 13:10:20.613
37.0, -137.09164428710938, -43.31365203857422, 55.38978958129883, 148.554443359375, 0.03200000151991844, -0.04800000041723251, 1.055999994277954, 0.0, 0.0, 0.0, 0.0, 0.0, 1.620990620613891E9, 2021-05-14 13:10:20.613
37.0, -127.97002410888672, -41.06597137451172, 60.91361999511719, 152.62718200683594, 0.03200000151991844, -0.04800000041723251, 1.055999994277954, 0.0, 0.0, 0.0, 0.0, 0.0, 1.620990620613891E9, 2021-05-14 13:10:20.613
38.0, -108.5487289428711, -27.729488372802734, 72.31283569335938, 186.21148681640625, 0.03200000151991844, -0.04800000041723251, 1.055999994277954, 0.0, 0.0, 0.0, 0.0, 0.0, 1.6209906206282368E9, 2021-05-14 13:10:20.628
38.0, -109.02369689941406, -29.30772590637207, 74.24262237548828, 195.5986328125, 0.03200000151991844, -0.04800000041723251, 1.055999994277954, 0.0, 0.0, 0.0, 0.0, 0.0, 1.6209906206282368E9, 2021-05-14 13:10:20.628
39.0, -134.96363830566406, -45.50523376464844, 54.260337829589844, 160.4585418701172, 0.03200000151991844, -0.04800000041723251, 1.055999994277954, 0.0, 0.0, 0.0, 0.0, 0.0, 1.620990620628904E9, 2021-05-14 13:10:20.628
39.0, -127.74563598632812, -44.79091262817383, 59.75425338745117, 162.81468200683594, 0.03200000151991844, -0.04800000041723251, 1.055999994277954, 0.0, 0.0, 0.0, 0.0, 0.0, 1.620990620628904E9, 2021-05-14 13:10:20.628
40.0, -117.7900161743164, -19.404470443725586, 69.41815185546875, 195.9427032470703, 0.03200000151991844, -0.04800000041723251, 1.055999994277954, 0.0, 0.0, 0.0, 0.0, 0.0, 1.6209906206425352E9, 2021-05-14 13:10:20.642
40.0, -110.16436004638672, -21.779308319091797, 78.62952423095703, 197.887451171875, 0.03200000151991844, -0.04800000041723251, 1.055999994277954, 0.0, 0.0, 0.0, 0.0, 0.0, 1.6209906206425352E9, 2021-05-14 13:10:20.642
41.0, -137.12156677246094, -55.760040283203125, 58.83049774169922, 157.27587890625, 0.03200000151991844, -0.04800000041723251, 1.055999994277954, 0.0, 0.0, 0.0, 0.0, 0.0, 1.6209906206582305E9, 2021-05-14 13:10:20.658
41.0, -128.69557189941406, -39.9365234375, 58.65846252441406, 162.56410217285156, 0.03200000151991844, -0.04800000041723251, 1.055999994277954, 0.0, 0.0, 0.0, 0.0, 0.0, 1.6209906206582305E9, 2021-05-14 13:10:20.658
42.0, -103.70181274414062, -17.736474990844727, 77.48137664794922, 196.63084411621094, 0.03200000151991844, -0.04800000041723251, 1.055999994277954, 0.0, 0.0, 0.0, 0.0, 0.0, 1.6209906206589448E9, 2021-05-14 13:10:20.658
42.0, -112.45692443847656, -30.399776458740234, 77.23080444335938, 202.03126525878906, 0.03200000151991844, -0.04800000041723251, 1.055999994277954, 0.0, 0.0, 0.0, 0.0, 0.0, 1.6209906206589448E9, 2021-05-14 13:10:20.658
43.0, -134.2530517578125, -56.556636810302734, 62.428279876708984, 158.70826721191406, 0.03200000151991844, -0.04800000041723251, 1.055999994277954, 0.0, 0.0, 0.0, 0.0, 0.0, 1.6209906206724708E9, 2021-05-14 13:10:20.672
43.0, -131.22373962402344, -46.01759719848633, 58.377967834472656, 160.68667602539062, 0.03200000151991844, -0.04800000041723251, 1.055999994277954, 0.0, 0.0, 0.0, 0.0, 0.0, 1.6209906206724708E9, 2021-05-14 13:10:20.672
44.0, -111.88845825195312, -26.656137466430664, 76.310791015625, 194.1176300048828, 0.03200000151991844, -0.04800000041723251, 1.055999994277954, 0.0, 0.0, 0.0, 0.0, 0.0, 1.6209906206882217E9, 2021-05-14 13:10:20.688
44.0, -106.6862564086914, -22.67314338684082, 83.8392105102539, 205.59164428710938, 0.03200000151991844, -0.04800000041723251, 1.055999994277954, 0.0, 0.0, 0.0, 0.0, 0.0, 1.6209906206882217E9, 2021-05-14 13:10:20.688
45.0, -137.54043579101562, -53.48244094848633, 60.173118591308594, 160.44357299804688, 0.03200000151991844, -0.04800000041723251, 1.055999994277954, 0.0, 0.0, 0.0, 0.0, 0.0, 1.6209906206888711E9, 2021-05-14 13:10:20.688
45.0, -135.59194946289062, -47.988525390625, 56.81843185424805, 158.719482421875, 0.03200000151991844, -0.04800000041723251, 1.055999994277954, 0.0, 0.0, 0.0, 0.0, 0.0, 1.6209906206888711E9, 2021-05-14 13:10:20.688
46.0, -112.24374389648438, -22.22061538696289, 70.67475891113281, 194.69732666015625, 0.03200000151991844, -0.04800000041723251, 1.055999994277954, 0.0, 0.0, 0.0, 0.0, 0.0, 1.6209906207194846E9, 2021-05-14 13:10:20.719
46.0, -106.64885711669922, -17.773874282836914, 84.70686340332031, 198.81869506835938, 0.03200000151991844, -0.04800000041723251, 1.055999994277954, 0.0, 0.0, 0.0, 0.0, 0.0, 1.6209906207194846E9, 2021-05-14 13:10:20.719
47.0, -142.2377471923828, -45.43791580200195, 57.3906364440918, 151.98391723632812, 0.03200000151991844, -0.04800000041723251, 1.055999994277954, 0.0, 0.0, 0.0, 0.0, 0.0, 1.620990620720234E9, 2021-05-14 13:10:20.720
47.0, -134.92623901367188, -35.037254333496094, 60.012306213378906, 160.81008911132812, 0.03200000151991844, -0.04800000041723251, 1.055999994277954, 0.0, 0.0, 0.0, 0.0, 0.0, 1.620990620720234E9, 2021-05-14 13:10:20.720
48.0, -115.1571273803711, -28.182016372680664, 69.27977752685547, 192.7189178466797, 0.03200000151991844, -0.04800000041723251, 1.055999994277954, 0.0, 0.0, 0.0, 0.0, 0.0, 1.6209906207209659E9, 2021-05-14 13:10:20.720
48.0, -113.36571502685547, -26.600038528442383, 72.96731567382812, 196.94126892089844, 0.03200000151991844, -0.04800000041723251, 1.055999994277954, 0.0, 0.0, 0.0, 0.0, 0.0, 1.6209906207209659E9, 2021-05-14 13:10:20.720
49.0, -135.98837280273438, -50.6064567565918, 58.677162170410156, 165.69813537597656, 0.03200000151991844, -0.04800000041723251, 1.055999994277954, 0.0, 0.0, 0.0, 0.0, 0.0, 1.6209906207325292E9, 2021-05-14 13:10:20.732
49.0, -117.25521087646484, -44.98912811279297, 63.50537109375, 172.45986938476562, 0.03200000151991844, -0.04800000041723251, 1.055999994277954, 0.0, 0.0, 0.0, 0.0, 0.0, 1.6209906207325292E9, 2021-05-14 13:10:20.732
50.0, -116.75406646728516, -23.81755256652832, 66.34395599365234, 195.2545623779297, 0.03200000151991844, -0.04800000041723251, 1.055999994277954, 0.0, 0.0, 0.0, 0.0, 0.0, 1.6209906207481256E9, 2021-05-14 13:10:20.748
50.0, -108.14481353759766, -25.97173500061035, 72.81398010253906, 197.8425750732422, 0.03200000151991844, -0.04800000041723251, 1.055999994277954, 0.0, 0.0, 0.0, 0.0, 0.0, 1.6209906207481256E9, 2021-05-14 13:10:20.748
51.0, -134.06980895996094, -49.1030158996582, 57.3906364440918, 160.1593475341797, 0.03200000151991844, -0.04800000041723251, 1.055999994277954, 0.0, 0.0, 0.0, 0.0, 0.0, 1.6209906207488496E9, 2021-05-14 13:10:20.748
51.0, -132.1026153564453, -42.65168762207031, 57.43925476074219, 162.1527099609375, 0.03200000151991844, -0.04800000041723251, 1.055999994277954, 0.0, 0.0, 0.0, 0.0, 0.0, 1.6209906207488496E9, 2021-05-14 13:10:20.748
52.0, -108.5936050415039, -34.850257873535156, 72.07347869873047, 191.55953979492188, 0.03200000151991844, -0.04800000041723251, 1.055999994277954, 0.0, 0.0, 0.0, 0.0, 0.0, 1.620990620762548E9, 2021-05-14 13:10:20.762
52.0, -105.47078704833984, -24.79366683959961, 77.67584991455078, 205.70384216308594, 0.03200000151991844, -0.04800000041723251, 1.055999994277954, 0.0, 0.0, 0.0, 0.0, 0.0, 1.620990620762548E9, 2021-05-14 13:10:20.762
53.0, -135.43112182617188, -54.94847869873047, 55.86849594116211, 161.3037567138672, 0.03200000151991844, -0.04800000041723251, 1.055999994277954, 0.0, 0.0, 0.0, 0.0, 0.0, 1.6209906207782097E9, 2021-05-14 13:10:20.778
53.0, -134.0922393798828, -51.18239974975586, 56.048011779785156, 160.59317016601562, 0.03200000151991844, -0.04800000041723251, 1.055999994277954, 0.0, 0.0, 0.0, 0.0, 0.0, 1.6209906207782097E9, 2021-05-14 13:10:20.778
54.0, -115.29176330566406, -24.356098175048828, 62.05802917480469, 196.29051208496094, 0.03200000151991844, -0.04800000041723251, 1.055999994277954, 0.0, 0.0, 0.0, 0.0, 0.0, 1.6209906207788815E9, 2021-05-14 13:10:20.778
54.0, -113.51531219482422, -27.714529037475586, 74.5866928100586, 201.77320861816406, 0.03200000151991844, -0.04800000041723251, 1.055999994277954, 0.0, 0.0, 0.0, 0.0, 0.0, 1.6209906207788815E9, 2021-05-14 13:10:20.778
55.0, -142.1779022216797, -54.46977233886719, 54.09952163696289, 151.265869140625, 0.03200000151991844, -0.04800000041723251, 1.055999994277954, 0.0, 0.0, 0.0, 0.0, 0.0, 1.6209906207926164E9, 2021-05-14 13:10:20.792
55.0, -130.58795166015625, -46.4925651550293, 53.47496032714844, 163.8805389404297, 0.03200000151991844, -0.04800000041723251, 1.055999994277954, 0.0, 0.0, 0.0, 0.0, 0.0, 1.6209906207926164E9, 2021-05-14 13:10:20.792
56.0, -110.5794906616211, -22.718021392822266, 68.46073913574219, 195.75570678710938, 0.03200000151991844, -0.04800000041723251, 1.055999994277954, 0.0, 0.0, 0.0, 0.0, 0.0, 1.6209906208081768E9, 2021-05-14 13:10:20.808
56.0, -99.50190734863281, -32.85689163208008, 79.44108581542969, 209.39886474609375, 0.03200000151991844, -0.04800000041723251, 1.055999994277954, 0.0, 0.0, 0.0, 0.0, 0.0, 1.6209906208081768E9, 2021-05-14 13:10:20.808
57.0, -129.54078674316406, -60.345157623291016, 59.526119232177734, 157.9976806640625, 0.03200000151991844, -0.04800000041723251, 1.055999994277954, 0.0, 0.0, 0.0, 0.0, 0.0, 1.6209906208089223E9, 2021-05-14 13:10:20.808
57.0, -137.75360107421875, -67.06575775146484, 47.1844482421875, 152.67581176757812, 0.03200000151991844, -0.04800000041723251, 1.055999994277954, 0.0, 0.0, 0.0, 0.0, 0.0, 1.6209906208089223E9, 2021-05-14 13:10:20.808
58.0, -103.11465454101562, -28.081039428710938, 65.8951644897461, 197.8089141845703, 0.03200000151991844, -0.04800000041723251, 1.055999994277954, 0.0, 0.0, 0.0, 0.0, 0.0, 1.6209906208395507E9, 2021-05-14 13:10:20.839
58.0, -101.49527740478516, -27.97258186340332, 76.22476959228516, 204.9296875, 0.03200000151991844, -0.04800000041723251, 1.055999994277954, 0.0, 0.0, 0.0, 0.0, 0.0, 1.6209906208395507E9, 2021-05-14 13:10:20.839
59.0, -133.00767517089844, -53.13462829589844, 59.69815444946289, 164.89031982421875, 0.03200000151991844, -0.04800000041723251, 1.055999994277954, 0.0, 0.0, 0.0, 0.0, 0.0, 1.6209906208403206E9, 2021-05-14 13:10:20.840
59.0, -130.90585327148438, -58.63976287841797, 54.4024543762207, 163.05029296875, 0.03200000151991844, -0.04800000041723251, 1.055999994277954, 0.0, 0.0, 0.0, 0.0, 0.0, 1.6209906208403206E9, 2021-05-14 13:10:20.840
60.0, -105.95697784423828, -24.89090347290039, 73.4048843383789, 187.86077880859375, 0.03200000151991844, -0.04800000041723251, 1.055999994277954, 0.0, 0.0, 0.0, 0.0, 0.0, 1.6209906208410957E9, 2021-05-14 13:10:20.841
60.0, -102.9949722290039, -34.206993103027344, 74.45579528808594, 200.33709716796875, 0.03200000151991844, -0.04800000041723251, 1.055999994277954, 0.0, 0.0, 0.0, 0.0, 0.0, 1.6209906208410957E9, 2021-05-14 13:10:20.841
61.0, -125.3558349609375, -67.28266906738281, 57.0503044128418, 158.2108612060547, 0.03200000151991844, -0.04800000041723251, 1.055999994277954, 0.0, 0.0, 0.0, 0.0, 0.0, 1.6209906208524551E9, 2021-05-14 13:10:20.852
61.0, -139.9825897216797, -58.25081253051758, 56.53793716430664, 160.10324096679688, 0.03200000151991844, -0.04800000041723251, 1.055999994277954, 0.0, 0.0, 0.0, 0.0, 0.0, 1.6209906208524551E9, 2021-05-14 13:10:20.852
62.0, -110.98714447021484, -30.45213508605957, 71.72566986083984, 196.21946716308594, 0.03200000151991844, -0.04800000041723251, 1.055999994277954, 0.0, 0.0, 0.0, 0.0, 0.0, 1.62099062086821E9, 2021-05-14 13:10:20.868
62.0, -111.32746887207031, -30.246440887451172, 77.94886779785156, 205.60287475585938, 0.03200000151991844, -0.04800000041723251, 1.055999994277954, 0.0, 0.0, 0.0, 0.0, 0.0, 1.62099062086821E9, 2021-05-14 13:10:20.868
63.0, -138.2996368408203, -53.48617935180664, 64.64604187011719, 157.7358856201172, 0.03200000151991844, -0.04800000041723251, 1.055999994277954, 0.0, 0.0, 0.0, 0.0, 0.0, 1.6209906208688424E9, 2021-05-14 13:10:20.868
63.0, -131.52293395996094, -39.196022033691406, 61.96453094482422, 159.3440399169922, 0.03200000151991844, -0.04800000041723251, 1.055999994277954, 0.0, 0.0, 0.0, 0.0, 0.0, 1.6209906208688424E9, 2021-05-14 13:10:20.868
64.0, -113.74718475341797, -34.91757583618164, 73.04959869384766, 190.06358337402344, 0.03200000151991844, -0.04800000041723251, 1.055999994277954, 0.0, 0.0, 0.0, 0.0, 0.0, 1.6209906208826413E9, 2021-05-14 13:10:20.882
64.0, -102.38162994384766, -30.612951278686523, 87.54918670654297, 206.04791259765625, 0.03200000151991844, -0.04800000041723251, 1.055999994277954, 0.0, 0.0, 0.0, 0.0, 0.0, 1.6209906208826413E9, 2021-05-14 13:10:20.882
65.0, -136.7213897705078, -57.21860122680664, 62.660152435302734, 158.5137939453125, 0.03200000151991844, -0.04800000041723251, 1.055999994277954, 0.0, 0.0, 0.0, 0.0, 0.0, 1.62099062089819E9, 2021-05-14 13:10:20.898
65.0, -125.995361328125, -51.638668060302734, 66.65062713623047, 166.5209197998047, 0.03200000151991844, -0.04800000041723251, 1.055999994277954, 0.0, 0.0, 0.0, 0.0, 0.0, 1.62099062089819E9, 2021-05-14 13:10:20.898
66.0, -109.23686981201172, -34.34537124633789, 73.51708221435547, 196.1110076904297, 0.03200000151991844, -0.04800000041723251, 1.055999994277954, 0.0, 0.0, 0.0, 0.0, 0.0, 1.6209906208988788E9, 2021-05-14 13:10:20.898
66.0, -95.67973327636719, -31.417030334472656, 81.42323303222656, 199.74618530273438, 0.03200000151991844, -0.04800000041723251, 1.055999994277954, 0.0, 0.0, 0.0, 0.0, 0.0, 1.6209906208988788E9, 2021-05-14 13:10:20.898
67.0, -128.25425720214844, -68.9469223022461, 61.755096435546875, 158.26695251464844, 0.03200000151991844, -0.04800000041723251, 1.055999994277954, 0.0, 0.0, 0.0, 0.0, 0.0, 1.6209906209124436E9, 2021-05-14 13:10:20.912
67.0, -130.22145080566406, -61.30257034301758, 58.5350456237793, 158.296875, 0.03200000151991844, -0.04800000041723251, 1.055999994277954, 0.0, 0.0, 0.0, 0.0, 0.0, 1.6209906209124436E9, 2021-05-14 13:10:20.912
68.0, -110.24664306640625, -31.731182098388672, 69.65750885009766, 189.22958374023438, 0.03200000151991844, -0.04800000041723251, 1.055999994277954, 0.0, 0.0, 0.0, 0.0, 0.0, 1.6209906209445083E9, 2021-05-14 13:10:20.944
68.0, -104.6966323852539, -28.810319900512695, 79.87117004394531, 197.5209503173828, 0.03200000151991844, -0.04800000041723251, 1.055999994277954, 0.0, 0.0, 0.0, 0.0, 0.0, 1.6209906209445083E9, 2021-05-14 13:10:20.944
69.0, -130.72259521484375, -60.16938018798828, 61.47834396362305, 159.26925659179688, 0.03200000151991844, -0.04800000041723251, 1.055999994277954, 0.0, 0.0, 0.0, 0.0, 0.0, 1.620990620945222E9, 2021-05-14 13:10:20.945
69.0, -128.51231384277344, -35.99840545654297, 57.850643157958984, 160.7053680419922, 0.03200000151991844, -0.04800000041723251, 1.055999994277954, 0.0, 0.0, 0.0, 0.0, 0.0, 1.620990620945222E9, 2021-05-14 13:10:20.945
70.0, -107.03780364990234, -49.08431625366211, 63.961639404296875, 190.83773803710938, 0.03200000151991844, -0.04800000041723251, 1.055999994277954, 0.0, 0.0, 0.0, 0.0, 0.0, 1.6209906209460185E9, 2021-05-14 13:10:20.946
70.0, -107.22106170654297, -36.02084732055664, 68.4009017944336, 196.22320556640625, 0.03200000151991844, -0.04800000041723251, 1.055999994277954, 0.0, 0.0, 0.0, 0.0, 0.0, 1.6209906209460185E9, 2021-05-14 13:10:20.946
71.0, -138.43800354003906, -63.50163269042969, 56.97176742553711, 159.97982788085938, 0.03200000151991844, -0.04800000041723251, 1.055999994277954, 0.0, 0.0, 0.0, 0.0, 0.0, 1.6209906209466522E9, 2021-05-14 13:10:20.946
71.0, -137.82839965820312, -54.96717834472656, 52.95137405395508, 163.0390625, 0.03200000151991844, -0.04800000041723251, 1.055999994277954, 0.0, 0.0, 0.0, 0.0, 0.0, 1.6209906209466522E9, 2021-05-14 13:10:20.946
72.0, -116.72040557861328, -29.648056030273438, 59.61961364746094, 188.88177490234375, 0.03200000151991844, -0.04800000041723251, 1.055999994277954, 0.0, 0.0, 0.0, 0.0, 0.0, 1.62099062095748E9, 2021-05-14 13:10:20.957
72.0, -105.59794616699219, -30.863523483276367, 73.35253143310547, 208.01136779785156, 0.03200000151991844, -0.04800000041723251, 1.055999994277954, 0.0, 0.0, 0.0, 0.0, 0.0, 1.62099062095748E9, 2021-05-14 13:10:20.957
73.0, -144.36949157714844, -52.62600326538086, 50.269866943359375, 160.43983459472656, 0.03200000151991844, -0.04800000041723251, 1.055999994277954, 0.0, 0.0, 0.0, 0.0, 0.0, 1.6209906209888268E9, 2021-05-14 13:10:20.988
73.0, -131.82586669921875, -60.053443908691406, 50.63263702392578, 158.69705200195312, 0.03200000151991844, -0.04800000041723251, 1.055999994277954, 0.0, 0.0, 0.0, 0.0, 0.0, 1.6209906209888268E9, 2021-05-14 13:10:20.988
74.0, -114.37548828125, -43.070556640625, 61.53444290161133, 192.43093872070312, 0.03200000151991844, -0.04800000041723251, 1.055999994277954, 0.0, 0.0, 0.0, 0.0, 0.0, 1.6209906209895396E9, 2021-05-14 13:10:20.989
74.0, -108.51880645751953, -31.779800415039062, 72.64942932128906, 201.9751739501953, 0.03200000151991844, -0.04800000041723251, 1.055999994277954, 0.0, 0.0, 0.0, 0.0, 0.0, 1.6209906209895396E9, 2021-05-14 13:10:20.989
