Sample Index, EXG Channel 0, EXG Channel 1, EXG Channel 2, EXG Channel 3, Accel Channel 0, Accel Channel 1, Accel Channel 2, Other, Other, Other, Other, Other, Timestamp, Timestamp (Formatted)
0.0, -145.73641967773438, -7.507849216461182, -8.775674819946289, 112.39708709716797, 0.0, 0.0, 0.0, 0.0, 0.0, 0.0, 0.0, 0.0, 1.62099382743995E9, 2021-05-14 14:03:47.439
1.0, -155.13479614257812, -6.973043441772461, -9.669511795043945, 102.58732604980469, 0.0, -0.06400000303983688, 0.0, 0.0, 0.0, 0.0, 0.0, 0.0, 1.620993827453437E9, 2021-05-14 14:03:47.453
1.0, -153.05166625976562, -8.865432739257812, -3.278022289276123, 103.34278869628906, 0.0, -0.06400000303983688, 0.0, 0.0, 0.0, 0.0, 0.0, 0.0, 1.620993827453437E9, 2021-05-14 14:03:47.453
2.0, -152.2251434326172, -13.162577629089355, -10.73912239074707, 109.86143493652344, 0.03200000151991844, -0.06400000303983688, 0.0, 0.0, 0.0, 0.0, 0.0, 0.0, 1.6209938274699552E9, 2021-05-14 14:03:47.469
2.0, -150.83016967773438, -10.252935409545898, -3.9175453186035156, 118.83345031738281, 0.03200000151991844, -0.06400000303983688, 0.0, 0.0, 0.0, 0.0, 0.0, 0.0, 1.6209938274699552E9, 2021-05-14 14:03:47.469
3.0, -149.1322479248047, -15.612212181091309, -5.4920430183410645, 114.47272491455078, 0.03200000151991844, -0.06400000303983688, 0.0, 0.0, 0.0, 0.0, 0.0, 0.0, 1.6209938274706914E9, 2021-05-14 14:03:47.470
3.0, -155.04876708984375, -13.057860374450684, -14.594959259033203, 108.36173248291016, 0.03200000151991844, -0.06400000303983688, 0.0, 0.0, 0.0, 0.0, 0.0, 0.0, 1.6209938274706914E9, 2021-05-14 14:03:47.470
4.0, -147.7410125732422, -17.313867568969727, -10.585786819458008, 121.6009750366211, 0.03200000151991844, -0.06400000303983688, 0.0, 0.0, 0.0, 0.0, 0.0, 0.0, 1.620993827483072E9, 2021-05-14 14:03:47.483
4.0, -152.7001190185547, -11.891012191772461, -11.82369327545166, 118.46320343017578, 0.03200000151991844, -0.06400000303983688, 0.0, 0.0, 0.0, 0.0, 0.0, 0.0, 1.620993827483072E9, 2021-05-14 14:03:47.483
5.0, -169.07339477539062, -8.805594444274902, -9.235682487487793, 112.20260620117188, 0.03200000151991844, -0.06400000303983688, 0.0, 0.0, 0.0, 0.0, 0.0, 0.0, 1.620993827498856E9, 2021-05-14 14:03:47.498
5.0, -166.18994140625, -7.743463039398193, -6.352220058441162, 99.26255798339844, 0.03200000151991844, -0.06400000303983688, 0.0, 0.0, 0.0, 0.0, 0.0, 0.0, 1.620993827498856E9, 2021-05-14 14:03:47.498
6.0, -171.78482055664062, -0.7535898685455322, -7.287195205688477, 108.53750610351562, 0.03200000151991844, -0.06400000303983688, 0.0, 0.0, 0.0, 0.0, 0.0, 0.0, 1.6209938274996161E9, 2021-05-14 14:03:47.499
6.0, -162.3266143798828, -6.251242637634277, -3.09102725982666, 116.45487213134766, 0.03200000151991844, -0.06400000303983688, 0.0, 0.0, 0.0, 0.0, 0.0, 0.0, 1.6209938274996161E9, 2021-05-14 14:03:47.499
7.0, -157.5021514892578, -3.113466739654541, 0.9405848383903503, 114.09500122070312, 0.03200000151991844, -0.06400000303983688, 0.0, 0.0, 0.0, 0.0, 0.0, 0.0, 1.6209938275132327E9, 2021-05-14 14:03:47.513
7.0, -155.19088745117188, -4.882439613342285, -5.443424224853516, 111.13673400878906, 0.03200000151991844, -0.06400000303983688, 0.0, 0.0, 0.0, 0.0, 0.0, 0.0, 1.6209938275132327E9, 2021-05-14 14:03:47.513
8.0, -152.37847900390625, -3.767949104309082, -3.225663661956787, 109.63703918457031, 0.03200000151991844, -0.06400000303983688, 0.0, 0.0, 0.0, 0.0, 0.0, 0.0, 1.6209938275284436E9, 2021-05-14 14:03:47.528
8.0, -152.93572998046875, -3.1508657932281494, -8.195990562438965, 113.40685272216797, 0.03200000151991844, -0.06400000303983688, 0.0, 0.0, 0.0, 0.0, 0.0, 0.0, 1.6209938275284436E9, 2021-05-14 14:03:47.528
9.0, -143.5897216796875, -6.696290969848633, -0.0729280486702919, 112.80473327636719, 0.03200000151991844, -0.06400000303983688, 0.0, 0.0, 0.0, 0.0, 0.0, 0.0, 1.6209938275442257E9, 2021-05-14 14:03:47.544
9.0, -149.49876403808594, -10.338953018188477, -8.626079559326172, 104.74524688720703, 0.03200000151991844, -0.06400000303983688, 0.0, 0.0, 0.0, 0.0, 0.0, 0.0, 1.6209938275442257E9, 2021-05-14 14:03:47.544
10.0, -155.38909912109375, -13.113959312438965, -8.465263366699219, 112.98050689697266, 0.03200000151991844, -0.06400000303983688, 1.055999994277954, 0.0, 0.0, 0.0, 0.0, 0.0, 1.6209938275594583E9, 2021-05-14 14:03:47.559
10.0, -145.4821014404297, -5.147972106933594, 2.8516736030578613, 123.52328491210938, 0.03200000151991844, -0.06400000303983688, 1.055999994277954, 0.0, 0.0, 0.0, 0.0, 0.0, 1.6209938275594583E9, 2021-05-14 14:03:47.559
11.0, -150.48983764648438, -7.46297025680542, -5.327487468719482, 113.79954528808594, 0.03200000151991844, -0.06400000303983688, 1.055999994277954, 0.0, 0.0, 0.0, 0.0, 0.0, 1.6209938275600972E9, 2021-05-14 14:03:47.560
11.0, -153.62013244628906, -15.058707237243652, -8.046394348144531, 110.80388641357422, 0.03200000151991844, -0.06400000303983688, 1.055999994277954, 0.0, 0.0, 0.0, 0.0, 0.0, 1.6209938275600972E9, 2021-05-14 14:03:47.560
12.0, -154.98146057128906, -13.095259666442871, -8.786894798278809, 112.59156036376953, 0.03200000151991844, -0.06400000303983688, 1.055999994277954, 0.0, 0.0, 0.0, 0.0, 0.0, 1.6209938275608373E9, 2021-05-14 14:03:47.560
12.0, -148.13743591308594, -2.5263023376464844, -12.79980754852295, 113.90800476074219, 0.03200000151991844, -0.06400000303983688, 1.055999994277954, 0.0, 0.0, 0.0, 0.0, 0.0, 1.6209938275608373E9, 2021-05-14 14:03:47.560
13.0, -151.74270629882812, -9.519915580749512, -8.584939956665039, 110.28404235839844, 0.03200000151991844, -0.06400000303983688, 1.055999994277954, 0.0, 0.0, 0.0, 0.0, 0.0, 1.6209938275732172E9, 2021-05-14 14:03:47.573
13.0, -159.70120239257812, -22.02988052368164, -11.075714111328125, 115.6769790649414, 0.03200000151991844, -0.06400000303983688, 1.055999994277954, 0.0, 0.0, 0.0, 0.0, 0.0, 1.6209938275732172E9, 2021-05-14 14:03:47.573
14.0, -159.7086944580078, -9.127225875854492, -11.718976974487305, 120.36681365966797, 0.03200000151991844, -0.06400000303983688, 1.055999994277954, 0.0, 0.0, 0.0, 0.0, 0.0, 1.6209938275887685E9, 2021-05-14 14:03:47.588
14.0, -153.9754180908203, -4.8413004875183105, -10.410011291503906, 114.83549499511719, 0.03200000151991844, -0.06400000303983688, 1.055999994277954, 0.0, 0.0, 0.0, 0.0, 0.0, 1.6209938275887685E9, 2021-05-14 14:03:47.588
15.0, -167.65597534179688, 3.468757152557373, -4.082100868225098, 120.16485595703125, 0.03200000151991844, -0.06400000303983688, 1.055999994277954, 0.0, 0.0, 0.0, 0.0, 0.0, 1.6209938275895257E9, 2021-05-14 14:03:47.589
15.0, -160.9615478515625, -5.839853763580322, 0.8096883296966553, 112.0230941772461, 0.03200000151991844, -0.06400000303983688, 1.055999994277954, 0.0, 0.0, 0.0, 0.0, 0.0, 1.6209938275895257E9, 2021-05-14 14:03:47.589
16.0, -152.4832000732422, 0.39829933643341064, -1.6773451566696167, 118.30612182617188, 0.03200000151991844, -0.06400000303983688, 1.055999994277954, 0.0, 0.0, 0.0, 0.0, 0.0, 1.6209938276032808E9, 2021-05-14 14:03:47.603
16.0, -155.10113525390625, -1.509049654006958, -1.29213547706604, 112.849609375, 0.03200000151991844, -0.06400000303983688, 1.055999994277954, 0.0, 0.0, 0.0, 0.0, 0.0, 1.6209938276032808E9, 2021-05-14 14:03:47.603
17.0, -145.97203063964844, -3.3191611766815186, -1.1163601875305176, 109.95492553710938, 0.03200000151991844, -0.06400000303983688, 1.055999994277954, 0.0, 0.0, 0.0, 0.0, 0.0, 1.6209938276188545E9, 2021-05-14 14:03:47.618
17.0, -143.81411743164062, -13.293474197387695, -8.431604385375977, 104.95468139648438, 0.03200000151991844, -0.06400000303983688, 1.055999994277954, 0.0, 0.0, 0.0, 0.0, 0.0, 1.6209938276188545E9, 2021-05-14 14:03:47.618
18.0, -143.06613159179688, -10.813920974731445, -11.195390701293945, 108.2083969116211, 0.03200000151991844, -0.06400000303983688, 1.055999994277954, 0.0, 0.0, 0.0, 0.0, 0.0, 1.6209938276195724E9, 2021-05-14 14:03:47.619
18.0, -132.30270385742188, -4.414951801300049, -1.4492112398147583, 120.68470001220703, 0.03200000151991844, -0.06400000303983688, 1.055999994277954, 0.0, 0.0, 0.0, 0.0, 0.0, 1.6209938276195724E9, 2021-05-14 14:03:47.619
19.0, -129.26963806152344, -2.0700347423553467, 1.6062870025634766, 115.25811004638672, 0.03200000151991844, -0.06400000303983688, 1.055999994277954, 0.0, 0.0, 0.0, 0.0, 0.0, 1.6209938276331778E9, 2021-05-14 14:03:47.633
19.0, -134.50924682617188, -9.811627388000488, -9.718130111694336, 101.88048553466797, 0.03200000151991844, -0.06400000303983688, 1.055999994277954, 0.0, 0.0, 0.0, 0.0, 0.0, 1.6209938276331778E9, 2021-05-14 14:03:47.633
20.0, -142.6248321533203, -15.619691848754883, -11.752635955810547, 101.70096588134766, 0.03200000151991844, -0.06400000303983688, 1.055999994277954, 0.0, 0.0, 0.0, 0.0, 0.0, 1.6209938276486464E9, 2021-05-14 14:03:47.648
20.0, -130.88528442382812, -4.1045403480529785, -2.0962138175964355, 110.67298889160156, 0.03200000151991844, -0.06400000303983688, 1.055999994277954, 0.0, 0.0, 0.0, 0.0, 0.0, 1.6209938276486464E9, 2021-05-14 14:03:47.648
21.0, -132.76271057128906, -3.117206573486328, 6.135305881500244, 112.86457061767578, 0.03200000151991844, -0.06400000303983688, 1.055999994277954, 0.0, 0.0, 0.0, 0.0, 0.0, 1.6209938276637895E9, 2021-05-14 14:03:47.663
21.0, -138.34637451171875, -13.312173843383789, -3.678191661834717, 106.23746490478516, 0.03200000151991844, -0.06400000303983688, 1.055999994277954, 0.0, 0.0, 0.0, 0.0, 0.0, 1.6209938276637895E9, 2021-05-14 14:03:47.663
22.0, -134.58778381347656, -11.913451194763184, -8.487703323364258, 112.4045639038086, 0.03200000151991844, -0.06400000303983688, 1.055999994277954, 0.0, 0.0, 0.0, 0.0, 0.0, 1.620993827664564E9, 2021-05-14 14:03:47.664
22.0, -135.67608642578125, -10.144478797912598, -2.926471710205078, 114.37922668457031, 0.03200000151991844, -0.06400000303983688, 1.055999994277954, 0.0, 0.0, 0.0, 0.0, 0.0, 1.620993827664564E9, 2021-05-14 14:03:47.664
23.0, -130.4439697265625, -15.129765510559082, 4.11575984954834, 110.3775405883789, 0.03200000151991844, -0.06400000303983688, 1.055999994277954, 0.0, 0.0, 0.0, 0.0, 0.0, 1.6209938276787224E9, 2021-05-14 14:03:47.678
23.0, -141.001708984375, -24.62911033630371, 5.204070568084717, 103.87759399414062, 0.03200000151991844, -0.06400000303983688, 1.055999994277954, 0.0, 0.0, 0.0, 0.0, 0.0, 1.6209938276787224E9, 2021-05-14 14:03:47.678
24.0, -139.78623962402344, -16.663124084472656, 1.0677413940429688, 100.56777954101562, 0.03200000151991844, -0.06400000303983688, 1.055999994277954, 0.0, 0.0, 0.0, 0.0, 0.0, 1.6209938276793742E9, 2021-05-14 14:03:47.679
24.0, -132.3064422607422, -6.142785549163818, 3.064847946166992, 109.88761138916016, 0.03200000151991844, -0.06400000303983688, 1.055999994277954, 0.0, 0.0, 0.0, 0.0, 0.0, 1.6209938276793742E9, 2021-05-14 14:03:47.679
25.0, -136.3791961669922, -19.580245971679688, 3.461277484893799, 102.4489517211914, 0.03200000151991844, -0.06400000303983688, 1.055999994277954, 0.0, 0.0, 0.0, 0.0, 0.0, 1.6209938276930299E9, 2021-05-14 14:03:47.693
25.0, -135.88926696777344, -22.056060791015625, -0.1365063488483429, 104.46849822998047, 0.03200000151991844, -0.06400000303983688, 1.055999994277954, 0.0, 0.0, 0.0, 0.0, 0.0, 1.6209938276930299E9, 2021-05-14 14:03:47.693
26.0, -141.06529235839844, -26.110111236572266, -7.294674873352051, 106.0018539428711, 0.03200000151991844, -0.06400000303983688, 1.055999994277954, 0.0, 0.0, 0.0, 0.0, 0.0, 1.6209938277084453E9, 2021-05-14 14:03:47.708
26.0, -133.7575225830078, -5.922131538391113, 3.898845672607422, 118.61280059814453, 0.03200000151991844, -0.06400000303983688, 1.055999994277954, 0.0, 0.0, 0.0, 0.0, 0.0, 1.6209938277084453E9, 2021-05-14 14:03:47.708
27.0, -131.76416015625, -2.402885675430298, -0.9892035126686096, 102.66212463378906, 0.03200000151991844, -0.06400000303983688, 1.055999994277954, 0.0, 0.0, 0.0, 0.0, 0.0, 1.6209938277237518E9, 2021-05-14 14:03:47.723
27.0, -143.1297149658203, -21.35295867919922, -11.853612899780273, 94.71483612060547, 0.03200000151991844, -0.06400000303983688, 1.055999994277954, 0.0, 0.0, 0.0, 0.0, 0.0, 1.6209938277237518E9, 2021-05-14 14:03:47.723
28.0, -142.2283935546875, -22.86387825012207, -15.724409103393555, 101.32698059082031, 0.03200000151991844, -0.06400000303983688, 1.055999994277954, 0.0, 0.0, 0.0, 0.0, 0.0, 1.6209938277244484E9, 2021-05-14 14:03:47.724
28.0, -139.58055114746094, -17.871112823486328, -6.251242637634277, 110.46729278564453, 0.03200000151991844, -0.06400000303983688, 1.055999994277954, 0.0, 0.0, 0.0, 0.0, 0.0, 1.6209938277244484E9, 2021-05-14 14:03:47.724
29.0, -139.84608459472656, -9.90512466430664, -9.643332481384277, 99.29995727539062, 0.03200000151991844, -0.06400000303983688, 1.055999994277954, 0.0, 0.0, 0.0, 0.0, 0.0, 1.6209938277387137E9, 2021-05-14 14:03:47.738
29.0, -146.35723876953125, -15.567333221435547, -15.054966926574707, 97.37016296386719, 0.03200000151991844, -0.06400000303983688, 1.055999994277954, 0.0, 0.0, 0.0, 0.0, 0.0, 1.6209938277387137E9, 2021-05-14 14:03:47.738
30.0, -143.6682586669922, -5.061954498291016, -9.112266540527344, 111.91837310791016, 0.03200000151991844, -0.06400000303983688, 1.055999994277954, 0.0, 0.0, 0.0, 0.0, 0.0, 1.6209938277394416E9, 2021-05-14 14:03:47.739
30.0, -150.73292541503906, -21.95882225036621, -10.312773704528809, 112.4045639038086, 0.03200000151991844, -0.06400000303983688, 1.055999994277954, 0.0, 0.0, 0.0, 0.0, 0.0, 1.6209938277394416E9, 2021-05-14 14:03:47.739
31.0, -152.05311584472656, -19.688703536987305, -11.543201446533203, 104.89110565185547, 0.03200000151991844, -0.06400000303983688, 1.055999994277954, 0.0, 0.0, 0.0, 0.0, 0.0, 1.6209938277530775E9, 2021-05-14 14:03:47.753
31.0, -150.2130889892578, -14.52390193939209, -13.48794937133789, 97.83765411376953, 0.03200000151991844, -0.06400000303983688, 1.055999994277954, 0.0, 0.0, 0.0, 0.0, 0.0, 1.6209938277530775E9, 2021-05-14 14:03:47.753
32.0, -150.7516326904297, -16.51352882385254, -16.924917221069336, 102.01512145996094, 0.03200000151991844, -0.06400000303983688, 1.055999994277954, 0.0, 0.0, 0.0, 0.0, 0.0, 1.6209938277685711E9, 2021-05-14 14:03:47.768
32.0, -148.64231872558594, -3.7754290103912354, -11.401084899902344, 109.3116683959961, 0.03200000151991844, -0.06400000303983688, 1.055999994277954, 0.0, 0.0, 0.0, 0.0, 0.0, 1.6209938277685711E9, 2021-05-14 14:03:47.768
33.0, -138.12197875976562, -11.030835151672363, -4.826340675354004, 99.70760345458984, 0.03200000151991844, -0.06400000303983688, 1.055999994277954, 0.0, 0.0, 0.0, 0.0, 0.0, 1.6209938277838075E9, 2021-05-14 14:03:47.783
33.0, -141.57391357421875, -11.707756996154785, -0.028049249202013016, 105.43338775634766, 0.03200000151991844, -0.06400000303983688, 1.055999994277954, 0.0, 0.0, 0.0, 0.0, 0.0, 1.6209938277838075E9, 2021-05-14 14:03:47.783
34.0, -149.42770385742188, -8.124932289123535, -6.565394401550293, 101.85804748535156, 0.03200000151991844, -0.06400000303983688, 1.055999994277954, 0.0, 0.0, 0.0, 0.0, 0.0, 1.6209938277845168E9, 2021-05-14 14:03:47.784
34.0, -142.75572204589844, -11.07197380065918, -8.558760643005371, 105.77745819091797, 0.03200000151991844, -0.06400000303983688, 1.055999994277954, 0.0, 0.0, 0.0, 0.0, 0.0, 1.6209938277845168E9, 2021-05-14 14:03:47.784
35.0, -147.4866943359375, -12.399638175964355, -5.4135050773620605, 100.06289672851562, 0.03200000151991844, -0.06400000303983688, 1.055999994277954, 0.0, 0.0, 0.0, 0.0, 0.0, 1.6209938277988052E9, 2021-05-14 14:03:47.798
35.0, -155.42649841308594, -17.65793800354004, -10.555867195129395, 94.10897064208984, 0.03200000151991844, -0.06400000303983688, 1.055999994277954, 0.0, 0.0, 0.0, 0.0, 0.0, 1.6209938277988052E9, 2021-05-14 14:03:47.798
36.0, -148.09255981445312, -7.399392127990723, -6.692551136016846, 104.71907043457031, 0.03200000151991844, -0.06400000303983688, 1.055999994277954, 0.0, 0.0, 0.0, 0.0, 0.0, 1.6209938277995343E9, 2021-05-14 14:03:47.799
36.0, -141.2036590576172, -13.125179290771484, -5.406025409698486, 107.83814239501953, 0.03200000151991844, -0.06400000303983688, 1.055999994277954, 0.0, 0.0, 0.0, 0.0, 0.0, 1.6209938277995343E9, 2021-05-14 14:03:47.799
37.0, -147.23611450195312, -18.854705810546875, -7.9379377365112305, 100.26858520507812, 0.03200000151991844, -0.06400000303983688, 1.055999994277954, 0.0, 0.0, 0.0, 0.0, 0.0, 1.6209938278130343E9, 2021-05-14 14:03:47.813
37.0, -153.6724853515625, -19.14641761779785, -14.273327827453613, 97.75537872314453, 0.03200000151991844, -0.06400000303983688, 1.055999994277954, 0.0, 0.0, 0.0, 0.0, 0.0, 1.6209938278130343E9, 2021-05-14 14:03:47.813
38.0, -160.49032592773438, -8.910311698913574, -20.825632095336914, 98.49213409423828, 0.03200000151991844, -0.06400000303983688, 1.055999994277954, 0.0, 0.0, 0.0, 0.0, 0.0, 1.6209938278291085E9, 2021-05-14 14:03:47.829
38.0, -149.26315307617188, 3.898845672607422, -16.73044204711914, 101.43169403076172, 0.03200000151991844, -0.06400000303983688, 1.055999994277954, 0.0, 0.0, 0.0, 0.0, 0.0, 1.6209938278291085E9, 2021-05-14 14:03:47.829
39.0, -157.1505889892578, -6.1465253829956055, -16.835159301757812, 99.61036682128906, 0.03200000151991844, -0.06400000303983688, 1.055999994277954, 0.0, 0.0, 0.0, 0.0, 0.0, 1.62099382784424E9, 2021-05-14 14:03:47.844
39.0, -167.47645568847656, -14.886672019958496, -24.576751708984375, 93.940673828125, 0.03200000151991844, -0.06400000303983688, 1.055999994277954, 0.0, 0.0, 0.0, 0.0, 0.0, 1.62099382784424E9, 2021-05-14 14:03:47.844
40.0, -157.54702758789062, -4.392512321472168, -13.057860374450684, 105.2837905883789, 0.03200000151991844, -0.06400000303983688, 1.055999994277954, 0.0, 0.0, 0.0, 0.0, 0.0, 1.6209938278593855E9, 2021-05-14 14:03:47.859
40.0, -157.4984130859375, -2.275729179382324, -9.258122444152832, 104.56947326660156, 0.03200000151991844, -0.06400000303983688, 1.055999994277954, 0.0, 0.0, 0.0, 0.0, 0.0, 1.6209938278593855E9, 2021-05-14 14:03:47.859
41.0, -160.00413513183594, -8.491442680358887, -13.734782218933105, 102.79302215576172, 0.03200000151991844, -0.06400000303983688, 1.055999994277954, 0.0, 0.0, 0.0, 0.0, 0.0, 1.6209938278600595E9, 2021-05-14 14:03:47.860
41.0, -152.05311584472656, 0.20756444334983826, -5.798715114593506, 105.3211898803711, 0.03200000151991844, -0.06400000303983688, 1.055999994277954, 0.0, 0.0, 0.0, 0.0, 0.0, 1.6209938278600595E9, 2021-05-14 14:03:47.860
42.0, -149.4912872314453, -0.8396075367927551, -10.36887264251709, 100.6837158203125, 0.03200000151991844, -0.06400000303983688, 1.055999994277954, 0.0, 0.0, 0.0, 0.0, 0.0, 1.620993827860813E9, 2021-05-14 14:03:47.860
42.0, -148.44036865234375, 3.824047803878784, -12.59785270690918, 97.29536437988281, 0.03200000151991844, -0.06400000303983688, 1.055999994277954, 0.0, 0.0, 0.0, 0.0, 0.0, 1.620993827860813E9, 2021-05-14 14:03:47.860
43.0, -150.97976684570312, 4.254136085510254, -10.383831977844238, 101.24095916748047, 0.03200000151991844, -0.06400000303983688, 1.055999994277954, 0.0, 0.0, 0.0, 0.0, 0.0, 1.620993827873131E9, 2021-05-14 14:03:47.873
43.0, -148.36557006835938, -8.880392074584961, -7.489149570465088, 96.7269058227539, 0.03200000151991844, -0.06400000303983688, 1.055999994277954, 0.0, 0.0, 0.0, 0.0, 0.0, 1.620993827873131E9, 2021-05-14 14:03:47.873
44.0, -152.27001953125, -13.626325607299805, -10.529687881469727, 106.05795288085938, 0.03200000151991844, -0.06400000303983688, 1.055999994277954, 0.0, 0.0, 0.0, 0.0, 0.0, 1.6209938278886962E9, 2021-05-14 14:03:47.888
44.0, -143.1110076904297, 2.3916659355163574, -5.454644203186035, 111.14421844482422, 0.03200000151991844, -0.06400000303983688, 1.055999994277954, 0.0, 0.0, 0.0, 0.0, 0.0, 1.6209938278886962E9, 2021-05-14 14:03:47.888
45.0, -157.9584197998047, -9.849026679992676, -17.23906898498535, 93.38343048095703, 0.03200000151991844, -0.06400000303983688, 1.055999994277954, 0.0, 0.0, 0.0, 0.0, 0.0, 1.6209938278894548E9, 2021-05-14 14:03:47.889
45.0, -157.72654724121094, -12.291181564331055, -8.555021286010742, 100.41070556640625, 0.03200000151991844, -0.06400000303983688, 1.055999994277954, 0.0, 0.0, 0.0, 0.0, 0.0, 1.6209938278894548E9, 2021-05-14 14:03:47.889
46.0, -153.78094482421875, -10.410011291503906, -18.5629940032959, 108.02887725830078, 0.03200000151991844, -0.06400000303983688, 1.055999994277954, 0.0, 0.0, 0.0, 0.0, 0.0, 1.6209938279031444E9, 2021-05-14 14:03:47.903
46.0, -154.50648498535156, -20.410503387451172, -18.506895065307617, 112.48310089111328, 0.03200000151991844, -0.06400000303983688, 1.055999994277954, 0.0, 0.0, 0.0, 0.0, 0.0, 1.6209938279031444E9, 2021-05-14 14:03:47.903
47.0, -156.66815185546875, -5.918391704559326, -24.33365821838379, 103.35774230957031, 0.03200000151991844, -0.06400000303983688, 1.055999994277954, 0.0, 0.0, 0.0, 0.0, 0.0, 1.6209938279188037E9, 2021-05-14 14:03:47.918
47.0, -163.9272918701172, -9.310481071472168, -19.569026947021484, 107.8306655883789, 0.03200000151991844, -0.06400000303983688, 1.055999994277954, 0.0, 0.0, 0.0, 0.0, 0.0, 1.6209938279188037E9, 2021-05-14 14:03:47.918
48.0, -158.8111114501953, -12.515575408935547, -11.707756996154785, 128.90499877929688, 0.03200000151991844, -0.06400000303983688, 1.055999994277954, 0.0, 0.0, 0.0, 0.0, 0.0, 1.6209938279195442E9, 2021-05-14 14:03:47.919
48.0, -160.42300415039062, -8.689657211303711, -11.52450180053711, 122.86132049560547, 0.03200000151991844, -0.06400000303983688, 1.055999994277954, 0.0, 0.0, 0.0, 0.0, 0.0, 1.6209938279195442E9, 2021-05-14 14:03:47.919
49.0, -164.04696655273438, -8.558760643005371, -12.885825157165527, 101.40177917480469, 0.03200000151991844, -0.06400000303983688, 1.055999994277954, 0.0, 0.0, 0.0, 0.0, 0.0, 1.6209938279495876E9, 2021-05-14 14:03:47.949
49.0, -162.78662109375, -6.9319047927856445, -15.997422218322754, 91.6107177734375, 0.03200000151991844, -0.06400000303983688, 1.055999994277954, 0.0, 0.0, 0.0, 0.0, 0.0, 1.6209938279495876E9, 2021-05-14 14:03:47.949
50.0, -148.2122344970703, 0.8807464241981506, -5.507002830505371, 108.08123779296875, 0.03200000151991844, -0.06400000303983688, 1.055999994277954, 0.0, 0.0, 0.0, 0.0, 0.0, 1.6209938279503183E9, 2021-05-14 14:03:47.950
50.0, -146.9444122314453, 4.231696605682373, -7.7210235595703125, 103.41010284423828, 0.03200000151991844, -0.06400000303983688, 1.055999994277954, 0.0, 0.0, 0.0, 0.0, 0.0, 1.6209938279503183E9, 2021-05-14 14:03:47.950
51.0, -151.4210662841797, -2.1971912384033203, -10.28659439086914, 96.71942138671875, 0.03200000151991844, -0.06400000303983688, 1.055999994277954, 0.0, 0.0, 0.0, 0.0, 0.0, 1.6209938279510803E9, 2021-05-14 14:03:47.951
51.0, -154.28208923339844, -1.5427087545394897, -15.410257339477539, 91.50226593017578, 0.03200000151991844, -0.06400000303983688, 1.055999994277954, 0.0, 0.0, 0.0, 0.0, 0.0, 1.6209938279510803E9, 2021-05-14 14:03:47.951
52.0, -159.89193725585938, -0.7947287559509277, -27.276960372924805, 90.89640045166016, 0.03200000151991844, -0.06400000303983688, 1.055999994277954, 0.0, 0.0, 0.0, 0.0, 0.0, 1.620993827962984E9, 2021-05-14 14:03:47.962
52.0, -160.0751953125, -7.118899345397949, -19.610164642333984, 97.71049499511719, 0.03200000151991844, -0.06400000303983688, 1.055999994277954, 0.0, 0.0, 0.0, 0.0, 0.0, 1.620993827962984E9, 2021-05-14 14:03:47.962
53.0, -153.98289489746094, -6.240023136138916, -24.52439308166504, 105.02574157714844, 0.03200000151991844, -0.06400000303983688, 1.055999994277954, 0.0, 0.0, 0.0, 0.0, 0.0, 1.6209938279788413E9, 2021-05-14 14:03:47.978
53.0, -149.02378845214844, -6.752389430999756, -23.376245498657227, 109.28174591064453, 0.03200000151991844, -0.06400000303983688, 1.055999994277954, 0.0, 0.0, 0.0, 0.0, 0.0, 1.6209938279788413E9, 2021-05-14 14:03:47.978
54.0, -161.76937866210938, -3.304201602935791, -24.32617950439453, 110.8786849975586, 0.03200000151991844, -0.06400000303983688, 1.055999994277954, 0.0, 0.0, 0.0, 0.0, 0.0, 1.6209938279796543E9, 2021-05-14 14:03:47.979
54.0, -155.22454833984375, -1.1014004945755005, -14.067633628845215, 114.82801818847656, 0.03200000151991844, -0.06400000303983688, 1.055999994277954, 0.0, 0.0, 0.0, 0.0, 0.0, 1.6209938279796543E9, 2021-05-14 14:03:47.979
55.0, -161.03260803222656, -6.31856107711792, -20.713436126708984, 102.31805419921875, 0.03200000151991844, -0.06400000303983688, 1.055999994277954, 0.0, 0.0, 0.0, 0.0, 0.0, 1.6209938280094218E9, 2021-05-14 14:03:48.009
55.0, -154.37559509277344, -9.41519832611084, -20.238468170166016, 109.55101776123047, 0.03200000151991844, -0.06400000303983688, 1.055999994277954, 0.0, 0.0, 0.0, 0.0, 0.0, 1.6209938280094218E9, 2021-05-14 14:03:48.009
56.0, -157.0196990966797, -4.074621200561523, -19.206256866455078, 106.663818359375, 0.03200000151991844, -0.06400000303983688, 1.055999994277954, 0.0, 0.0, 0.0, 0.0, 0.0, 1.6209938280101247E9, 2021-05-14 14:03:48.010
56.0, -157.47222900390625, -4.426171779632568, -23.017213821411133, 110.29151916503906, 0.03200000151991844, -0.06400000303983688, 1.055999994277954, 0.0, 0.0, 0.0, 0.0, 0.0, 1.6209938280101247E9, 2021-05-14 14:03:48.010
57.0, -161.76564025878906, -3.6482725143432617, -14.075113296508789, 110.52713012695312, 0.03200000151991844, -0.06400000303983688, 1.055999994277954, 0.0, 0.0, 0.0, 0.0, 0.0, 1.6209938280109768E9, 2021-05-14 14:03:48.010
57.0, -162.1134490966797, -10.204317092895508, -19.213735580444336, 105.10801696777344, 0.03200000151991844, -0.06400000303983688, 1.055999994277954, 0.0, 0.0, 0.0, 0.0, 0.0, 1.6209938280109768E9, 2021-05-14 14:03:48.010
58.0, -160.24349975585938, -6.954343795776367, -19.037960052490234, 107.17618560791016, 0.03200000151991844, -0.06400000303983688, 1.055999994277954, 0.0, 0.0, 0.0, 0.0, 0.0, 1.6209938280231357E9, 2021-05-14 14:03:48.023
58.0, -148.90785217285156, -9.321701049804688, -14.729596138000488, 109.2742691040039, 0.03200000151991844, -0.06400000303983688, 1.055999994277954, 0.0, 0.0, 0.0, 0.0, 0.0, 1.6209938280231357E9, 2021-05-14 14:03:48.023
59.0, -148.87045288085938, -1.1500192880630493, -12.844686508178711, 102.19463348388672, 0.03200000151991844, -0.06400000303983688, 1.055999994277954, 0.0, 0.0, 0.0, 0.0, 0.0, 1.6209938280388296E9, 2021-05-14 14:03:48.038
59.0, -156.16326904296875, -16.13205909729004, -16.603286743164062, 95.29826354980469, 0.03200000151991844, -0.06400000303983688, 1.055999994277954, 0.0, 0.0, 0.0, 0.0, 0.0, 1.6209938280388296E9, 2021-05-14 14:03:48.038
60.0, -154.5177001953125, -15.410257339477539, -19.02674102783203, 105.1977767944336, 0.03200000151991844, -0.06400000303983688, 1.055999994277954, 0.0, 0.0, 0.0, 0.0, 0.0, 1.6209938280395825E9, 2021-05-14 14:03:48.039
60.0, -167.85418701171875, -3.8016083240509033, -18.663970947265625, 105.36981201171875, 0.03200000151991844, -0.06400000303983688, 1.055999994277954, 0.0, 0.0, 0.0, 0.0, 0.0, 1.6209938280395825E9, 2021-05-14 14:03:48.039
61.0, -161.34677124023438, -3.738029956817627, -21.59231185913086, 103.17449188232422, 0.03200000151991844, -0.04800000041723251, 1.055999994277954, 0.0, 0.0, 0.0, 0.0, 0.0, 1.620993828069246E9, 2021-05-14 14:03:48.069
61.0, -147.93922424316406, -2.2570295333862305, -16.027341842651367, 112.23626708984375, 0.03200000151991844, -0.04800000041723251, 1.055999994277954, 0.0, 0.0, 0.0, 0.0, 0.0, 1.620993828069246E9, 2021-05-14 14:03:48.069
62.0, -150.0186004638672, -7.500369548797607, -11.401084899902344, 120.81185913085938, 0.03200000151991844, -0.04800000041723251, 1.055999994277954, 0.0, 0.0, 0.0, 0.0, 0.0, 1.6209938280699804E9, 2021-05-14 14:03:48.069
62.0, -156.20814514160156, -15.182124137878418, -11.187911033630371, 113.43303680419922, 0.03200000151991844, -0.04800000041723251, 1.055999994277954, 0.0, 0.0, 0.0, 0.0, 0.0, 1.6209938280699804E9, 2021-05-14 14:03:48.069
63.0, -154.5177001953125, -8.300707817077637, -10.410011291503906, 106.97796630859375, 0.03200000151991844, -0.04800000041723251, 1.055999994277954, 0.0, 0.0, 0.0, 0.0, 0.0, 1.620993828083862E9, 2021-05-14 14:03:48.083
63.0, -152.5729522705078, -15.735629081726074, -11.008395195007324, 105.39598846435547, 0.03200000151991844, -0.04800000041723251, 1.055999994277954, 0.0, 0.0, 0.0, 0.0, 0.0, 1.620993828083862E9, 2021-05-14 14:03:48.083
64.0, -158.50070190429688, -12.949403762817383, -18.3572998046875, 111.07315826416016, 0.03200000151991844, -0.04800000041723251, 1.055999994277954, 0.0, 0.0, 0.0, 0.0, 0.0, 1.620993828084608E9, 2021-05-14 14:03:48.084
64.0, -157.64425659179688, -3.442577838897705, -12.294920921325684, 120.93901824951172, 0.03200000151991844, -0.04800000041723251, 1.055999994277954, 0.0, 0.0, 0.0, 0.0, 0.0, 1.620993828084608E9, 2021-05-14 14:03:48.084
65.0, -166.6162872314453, -15.14472484588623, -24.875944137573242, 101.56632995605469, 0.03200000151991844, -0.04800000041723251, 1.055999994277954, 0.0, 0.0, 0.0, 0.0, 0.0, 1.6209938280987043E9, 2021-05-14 14:03:48.098
65.0, -165.01187133789062, -8.446563720703125, -17.489641189575195, 100.1975326538086, 0.03200000151991844, -0.04800000041723251, 1.055999994277954, 0.0, 0.0, 0.0, 0.0, 0.0, 1.6209938280987043E9, 2021-05-14 14:03:48.098
66.0, -165.3896026611328, -14.51268196105957, -18.1815242767334, 108.79181671142578, 0.03200000151991844, -0.04800000041723251, 1.055999994277954, 0.0, 0.0, 0.0, 0.0, 0.0, 1.6209938280995457E9, 2021-05-14 14:03:48.099
66.0, -162.4163818359375, -0.9555444121360779, -13.394452095031738, 107.55765533447266, 0.03200000151991844, -0.04800000041723251, 1.055999994277954, 0.0, 0.0, 0.0, 0.0, 0.0, 1.6209938280995457E9, 2021-05-14 14:03:48.099
67.0, -166.48538208007812, -10.582046508789062, -19.198776245117188, 100.29476928710938, 0.03200000151991844, -0.04800000041723251, 1.055999994277954, 0.0, 0.0, 0.0, 0.0, 0.0, 1.6209938281130888E9, 2021-05-14 14:03:48.113
67.0, -155.85284423828125, -8.824294090270996, -20.604978561401367, 98.12562561035156, 0.03200000151991844, -0.04800000041723251, 1.055999994277954, 0.0, 0.0, 0.0, 0.0, 0.0, 1.6209938281130888E9, 2021-05-14 14:03:48.113
68.0, -158.02947998046875, -14.710896492004395, -26.00165367126465, 103.49986267089844, 0.03200000151991844, -0.04800000041723251, 1.055999994277954, 0.0, 0.0, 0.0, 0.0, 0.0, 1.6209938281287456E9, 2021-05-14 14:03:48.128
68.0, -149.85031127929688, -10.148218154907227, -15.496275901794434, 111.15169525146484, 0.03200000151991844, -0.04800000041723251, 1.055999994277954, 0.0, 0.0, 0.0, 0.0, 0.0, 1.6209938281287456E9, 2021-05-14 14:03:48.128
69.0, -153.73980712890625, -18.08802604675293, -24.501955032348633, 101.28958129882812, 0.03200000151991844, -0.04800000041723251, 1.055999994277954, 0.0, 0.0, 0.0, 0.0, 0.0, 1.62099382812947E9, 2021-05-14 14:03:48.129
69.0, -150.01486206054688, -9.27308177947998, -20.3057861328125, 106.7273941040039, 0.03200000151991844, -0.04800000041723251, 1.055999994277954, 0.0, 0.0, 0.0, 0.0, 0.0, 1.62099382812947E9, 2021-05-14 14:03:48.129
70.0, -166.75465393066406, -16.580846786499023, -27.729488372802734, 99.99183654785156, 0.03200000151991844, -0.04800000041723251, 1.055999994277954, 0.0, 0.0, 0.0, 0.0, 0.0, 1.62099382814313E9, 2021-05-14 14:03:48.143
70.0, -151.92221069335938, -10.813920974731445, -18.473236083984375, 112.58782196044922, 0.03200000151991844, -0.04800000041723251, 1.055999994277954, 0.0, 0.0, 0.0, 0.0, 0.0, 1.62099382814313E9, 2021-05-14 14:03:48.143
71.0, -154.9066619873047, -0.45813775062561035, -14.830573081970215, 106.98918914794922, 0.03200000151991844, -0.04800000041723251, 1.055999994277954, 0.0, 0.0, 0.0, 0.0, 0.0, 1.6209938281586957E9, 2021-05-14 14:03:48.158
71.0, -159.57778930664062, -9.770488739013672, -17.399885177612305, 106.77975463867188, 0.03200000151991844, -0.04800000041723251, 1.055999994277954, 0.0, 0.0, 0.0, 0.0, 0.0, 1.6209938281586957E9, 2021-05-14 14:03:48.158
72.0, -164.83609008789062, -5.488303184509277, -24.038206100463867, 109.90257263183594, 0.03200000151991844, -0.04800000041723251, 1.055999994277954, 0.0, 0.0, 0.0, 0.0, 0.0, 1.6209938281593938E9, 2021-05-14 14:03:48.159
72.0, -163.10826110839844, -2.545001983642578, -14.972689628601074, 115.98365020751953, 0.03200000151991844, -0.04800000041723251, 1.055999994277954, 0.0, 0.0, 0.0, 0.0, 0.0, 1.6209938281593938E9, 2021-05-14 14:03:48.159
73.0, -160.12380981445312, -10.772781372070312, -9.979923248291016, 111.27511596679688, 0.03200000151991844, -0.04800000041723251, 1.055999994277954, 0.0, 0.0, 0.0, 0.0, 0.0, 1.6209938281731615E9, 2021-05-14 14:03:48.173
73.0, -165.8832550048828, -8.78315544128418, -22.69558334350586, 99.80110168457031, 0.03200000151991844, -0.04800000041723251, 1.055999994277954, 0.0, 0.0, 0.0, 0.0, 0.0, 1.6209938281731615E9, 2021-05-14 14:03:48.173
74.0, -166.436767578125, -4.3999924659729, -21.094905853271484, 103.82149505615234, 0.03200000151991844, -0.04800000041723251, 1.055999994277954, 0.0, 0.0, 0.0, 0.0, 0.0, 1.6209938281888049E9, 2021-05-14 14:03:48.188
74.0, -172.82077026367188, -5.125533103942871, -18.41339683532715, 101.97024536132812, 0.03200000151991844, -0.04800000041723251, 1.055999994277954, 0.0, 0.0, 0.0, 0.0, 0.0, 1.6209938281888049E9, 2021-05-14 14:03:48.188
75.0, -167.00149536132812, 2.2046709060668945, -11.483363151550293, 106.52544403076172, 0.03200000151991844, -0.04800000041723251, 1.055999994277954, 0.0, 0.0, 0.0, 0.0, 0.0, 1.6209938281895854E9, 2021-05-14 14:03:48.189
75.0, -171.03684997558594, -6.976783275604248, -18.925764083862305, 100.03671264648438, 0.03200000151991844, -0.04800000041723251, 1.055999994277954, 0.0, 0.0, 0.0, 0.0, 0.0, 1.6209938281895854E9, 2021-05-14 14:03:48.189
76.0, -170.13552856445312, -11.505802154541016, -22.07476043701172, 104.797607421875, 0.03200000151991844, -0.04800000041723251, 1.055999994277954, 0.0, 0.0, 0.0, 0.0, 0.0, 1.620993828203205E9, 2021-05-14 14:03:48.203
76.0, -158.83729553222656, -22.819000244140625, -17.336305618286133, 114.45402526855469, 0.03200000151991844, -0.04800000041723251, 1.055999994277954, 0.0, 0.0, 0.0, 0.0, 0.0, 1.620993828203205E9, 2021-05-14 14:03:48.203
77.0, -162.10595703125, -28.15583610534668, -15.399038314819336, 113.45547485351562, 0.03200000151991844, -0.04800000041723251, 1.055999994277954, 0.0, 0.0, 0.0, 0.0, 0.0, 1.6209938282188036E9, 2021-05-14 14:03:48.218
77.0, -163.70663452148438, -22.64696502685547, -24.988142013549805, 105.302490234375, 0.03200000151991844, -0.04800000041723251, 1.055999994277954, 0.0, 0.0, 0.0, 0.0, 0.0, 1.6209938282188036E9, 2021-05-14 14:03:48.218
78.0, -158.7699737548828, -13.573966979980469, -25.332212448120117, 113.21986389160156, 0.03200000151991844, -0.04800000041723251, 1.055999994277954, 0.0, 0.0, 0.0, 0.0, 0.0, 1.620993828219558E9, 2021-05-14 14:03:48.219
78.0, -163.7664794921875, -9.759268760681152, -31.81719970703125, 105.983154296875, 0.03200000151991844, -0.04800000041723251, 1.055999994277954, 0.0, 0.0, 0.0, 0.0, 0.0, 1.620993828219558E9, 2021-05-14 14:03:48.219
79.0, -168.9387664794922, -10.888718605041504, -31.64516258239746, 97.80773162841797, 0.03200000151991844, -0.04800000041723251, 1.055999994277954, 0.0, 0.0, 0.0, 0.0, 0.0, 1.620993828233007E9, 2021-05-14 14:03:48.233
79.0, -163.56826782226562, -1.060261607170105, -27.86786460876465, 99.00823974609375, 0.03200000151991844, -0.04800000041723251, 1.055999994277954, 0.0, 0.0, 0.0, 0.0, 0.0, 1.620993828233007E9, 2021-05-14 14:03:48.233
80.0, -171.2350616455078, 6.049288272857666, -25.881977081298828, 102.2731704711914, 0.03200000151991844, -0.04800000041723251, 1.055999994277954, 0.0, 0.0, 0.0, 0.0, 0.0, 1.620993828248834E9, 2021-05-14 14:03:48.248
80.0, -169.63064575195312, -1.5988072156906128, -24.70016860961914, 100.16387176513672, 0.03200000151991844, -0.04800000041723251, 1.055999994277954, 0.0, 0.0, 0.0, 0.0, 0.0, 1.620993828248834E9, 2021-05-14 14:03:48.248
81.0, -165.83090209960938, 4.265356063842773, -18.13664436340332, 101.28584289550781, 0.03200000151991844, -0.06400000303983688, 1.055999994277954, 0.0, 0.0, 0.0, 0.0, 0.0, 1.6209938282495737E9, 2021-05-14 14:03:48.249
81.0, -164.1068115234375, 4.9198384284973145, -20.260908126831055, 102.9500961303711, 0.03200000151991844, -0.06400000303983688, 1.055999994277954, 0.0, 0.0, 0.0, 0.0, 0.0, 1.6209938282495737E9, 2021-05-14 14:03:48.249
82.0, -159.8545379638672, 0.07666794955730438, -19.55032730102539, 109.92127227783203, 0.03200000151991844, -0.06400000303983688, 1.055999994277954, 0.0, 0.0, 0.0, 0.0, 0.0, 1.6209938282630281E9, 2021-05-14 14:03:48.263
82.0, -165.0717010498047, -1.2285571098327637, -16.472389221191406, 108.2495346069336, 0.03200000151991844, -0.06400000303983688, 1.055999994277954, 0.0, 0.0, 0.0, 0.0, 0.0, 1.6209938282630281E9, 2021-05-14 14:03:48.263
83.0, -167.92898559570312, -1.5875874757766724, -14.864232063293457, 106.81341552734375, 0.03200000151991844, -0.06400000303983688, 1.055999994277954, 0.0, 0.0, 0.0, 0.0, 0.0, 1.620993828278742E9, 2021-05-14 14:03:48.278
83.0, -176.4896240234375, -2.866633415222168, -21.349218368530273, 102.06373596191406, 0.03200000151991844, -0.06400000303983688, 1.055999994277954, 0.0, 0.0, 0.0, 0.0, 0.0, 1.620993828278742E9, 2021-05-14 14:03:48.278
84.0, -178.1800537109375, -2.9601309299468994, -21.685810089111328, 111.59674835205078, 0.03200000151991844, -0.06400000303983688, 1.055999994277954, 0.0, 0.0, 0.0, 0.0, 0.0, 1.6209938282796252E9, 2021-05-14 14:03:48.279
84.0, -167.13612365722656, 0.08414775133132935, -13.285994529724121, 117.96953582763672, 0.03200000151991844, -0.06400000303983688, 1.055999994277954, 0.0, 0.0, 0.0, 0.0, 0.0, 1.6209938282796252E9, 2021-05-14 14:03:48.279
85.0, -173.5238800048828, -6.041808605194092, -13.719822883605957, 113.59758758544922, 0.03200000151991844, -0.06400000303983688, 1.055999994277954, 0.0, 0.0, 0.0, 0.0, 0.0, 1.6209938282930036E9, 2021-05-14 14:03:48.293
85.0, -167.21092224121094, -1.8381608724594116, -17.669157028198242, 103.84019470214844, 0.03200000151991844, -0.06400000303983688, 1.055999994277954, 0.0, 0.0, 0.0, 0.0, 0.0, 1.6209938282930036E9, 2021-05-14 14:03:48.293
86.0, -160.3706512451172, -3.330380916595459, -16.73044204711914, 120.08631896972656, 0.03200000151991844, -0.06400000303983688, 1.055999994277954, 0.0, 0.0, 0.0, 0.0, 0.0, 1.6209938283088188E9, 2021-05-14 14:03:48.308
86.0, -150.77780151367188, -4.534628868103027, -13.24111557006836, 125.14640045166016, 0.03200000151991844, -0.06400000303983688, 1.055999994277954, 0.0, 0.0, 0.0, 0.0, 0.0, 1.6209938283088188E9, 2021-05-14 14:03:48.308
87.0, -156.95985412597656, -8.420384407043457, -20.029033660888672, 109.88761138916016, 0.03200000151991844, -0.06400000303983688, 1.055999994277954, 0.0, 0.0, 0.0, 0.0, 0.0, 1.6209938283095589E9, 2021-05-14 14:03:48.309
87.0, -158.2538604736328, -7.242316246032715, -22.033620834350586, 109.19573211669922, 0.03200000151991844, -0.06400000303983688, 1.055999994277954, 0.0, 0.0, 0.0, 0.0, 0.0, 1.6209938283095589E9, 2021-05-14 14:03:48.309
88.0, -159.58152770996094, -3.73429012298584, -14.680976867675781, 111.6827621459961, 0.03200000151991844, -0.06400000303983688, 1.055999994277954, 0.0, 0.0, 0.0, 0.0, 0.0, 1.620993828322956E9, 2021-05-14 14:03:48.322
88.0, -147.19497680664062, -3.5809543132781982, -12.149065017700195, 116.1182861328125, 0.03200000151991844, -0.06400000303983688, 1.055999994277954, 0.0, 0.0, 0.0, 0.0, 0.0, 1.620993828322956E9, 2021-05-14 14:03:48.322
89.0, -150.7142333984375, -5.0320353507995605, -11.199130058288574, 107.28838348388672, 0.03200000151991844, -0.06400000303983688, 1.055999994277954, 0.0, 0.0, 0.0, 0.0, 0.0, 1.6209938283387356E9, 2021-05-14 14:03:48.338
89.0, -166.8556365966797, -13.674943923950195, -21.76808738708496, 97.6132583618164, 0.03200000151991844, -0.06400000303983688, 1.055999994277954, 0.0, 0.0, 0.0, 0.0, 0.0, 1.6209938283387356E9, 2021-05-14 14:03:48.338
90.0, -167.0613250732422, -9.325440406799316, -24.47577476501465, 107.08642578125, 0.03200000151991844, -0.06400000303983688, 1.055999994277954, 0.0, 0.0, 0.0, 0.0, 0.0, 1.620993828339576E9, 2021-05-14 14:03:48.339
90.0, -168.37777709960938, -8.816814422607422, -17.366226196289062, 109.15833282470703, 0.03200000151991844, -0.06400000303983688, 1.055999994277954, 0.0, 0.0, 0.0, 0.0, 0.0, 1.620993828339576E9, 2021-05-14 14:03:48.339
91.0, -160.04153442382812, -1.1612389087677002, -10.73912239074707, 105.77371978759766, 0.03200000151991844, -0.04800000041723251, 1.055999994277954, 0.0, 0.0, 0.0, 0.0, 0.0, 1.6209938283530765E9, 2021-05-14 14:03:48.353
91.0, -168.2618408203125, -5.723917007446289, -13.353312492370605, 92.96456146240234, 0.03200000151991844, -0.04800000041723251, 1.055999994277954, 0.0, 0.0, 0.0, 0.0, 0.0, 1.6209938283530765E9, 2021-05-14 14:03:48.353
92.0, -170.68154907226562, -4.04470157623291, -22.175737380981445, 96.51372528076172, 0.03200000151991844, -0.04800000041723251, 1.055999994277954, 0.0, 0.0, 0.0, 0.0, 0.0, 1.6209938283688087E9, 2021-05-14 14:03:48.368
92.0, -161.3579864501953, 1.7671027183532715, -17.695337295532227, 114.0164566040039, 0.03200000151991844, -0.04800000041723251, 1.055999994277954, 0.0, 0.0, 0.0, 0.0, 0.0, 1.6209938283688087E9, 2021-05-14 14:03:48.368
93.0, -163.43362426757812, -9.246902465820312, -23.035913467407227, 107.8718032836914, 0.03200000151991844, -0.04800000041723251, 1.055999994277954, 0.0, 0.0, 0.0, 0.0, 0.0, 1.6209938283695817E9, 2021-05-14 14:03:48.369
93.0, -163.67672729492188, -6.703770637512207, -20.70221710205078, 106.27486419677734, 0.03200000151991844, -0.04800000041723251, 1.055999994277954, 0.0, 0.0, 0.0, 0.0, 0.0, 1.6209938283695817E9, 2021-05-14 14:03:48.369
94.0, -153.7211151123047, -2.2869489192962646, -18.218923568725586, 114.94395446777344, 0.03200000151991844, -0.04800000041723251, 1.055999994277954, 0.0, 0.0, 0.0, 0.0, 0.0, 1.6209938283830636E9, 2021-05-14 14:03:48.383
94.0, -154.7308807373047, -12.081747055053711, -15.500015258789062, 111.91837310791016, 0.03200000151991844, -0.04800000041723251, 1.055999994277954, 0.0, 0.0, 0.0, 0.0, 0.0, 1.6209938283830636E9, 2021-05-14 14:03:48.383
95.0, -154.053955078125, -4.198037624359131, -15.309280395507812, 111.5593490600586, 0.03200000151991844, -0.04800000041723251, 1.055999994277954, 0.0, 0.0, 0.0, 0.0, 0.0, 1.6209938284157183E9, 2021-05-14 14:03:48.415
95.0, -156.6045684814453, -11.255228996276855, -25.253673553466797, 109.56597900390625, 0.03200000151991844, -0.04800000041723251, 1.055999994277954, 0.0, 0.0, 0.0, 0.0, 0.0, 1.6209938284157183E9, 2021-05-14 14:03:48.415
96.0, -160.80821228027344, -3.9624240398406982, -24.457075119018555, 113.10392761230469, 0.03200000151991844, -0.04800000041723251, 1.055999994277954, 0.0, 0.0, 0.0, 0.0, 0.0, 1.620993828416471E9, 2021-05-14 14:03:48.416
96.0, -163.3812713623047, -11.068233489990234, -26.132551193237305, 114.798095703125, 0.03200000151991844, -0.04800000041723251, 1.055999994277954, 0.0, 0.0, 0.0, 0.0, 0.0, 1.620993828416471E9, 2021-05-14 14:03:48.416
97.0, -160.70724487304688, -6.535475254058838, -23.035913467407227, 106.52918243408203, 0.03200000151991844, -0.04800000041723251, 1.055999994277954, 0.0, 0.0, 0.0, 0.0, 0.0, 1.6209938284172173E9, 2021-05-14 14:03:48.417
97.0, -158.0032958984375, -7.294674873352051, -20.092613220214844, 103.35774230957031, 0.03200000151991844, -0.04800000041723251, 1.055999994277954, 0.0, 0.0, 0.0, 0.0, 0.0, 1.6209938284172173E9, 2021-05-14 14:03:48.417
98.0, -166.00294494628906, -9.78544807434082, -25.967994689941406, 98.02465057373047, 0.03200000151991844, -0.04800000041723251, 1.055999994277954, 0.0, 0.0, 0.0, 0.0, 0.0, 1.6209938284179676E9, 2021-05-14 14:03:48.417
98.0, -168.96119689941406, -0.7573297619819641, -19.224956512451172, 107.1462631225586, 0.03200000151991844, -0.04800000041723251, 1.055999994277954, 0.0, 0.0, 0.0, 0.0, 0.0, 1.6209938284179676E9, 2021-05-14 14:03:48.417
99.0, -166.12261962890625, -4.500969409942627, -24.917083740234375, 98.17424011230469, 0.03200000151991844, -0.04800000041723251, 1.055999994277954, 0.0, 0.0, 0.0, 0.0, 0.0, 1.6209938284280035E9, 2021-05-14 14:03:48.428
99.0, -174.0699005126953, -2.8890726566314697, -19.834558486938477, 96.64836120605469, 0.03200000151991844, -0.04800000041723251, 1.055999994277954, 0.0, 0.0, 0.0, 0.0, 0.0, 1.6209938284280035E9, 2021-05-14 14:03:48.428
100.0, -169.03225708007812, -4.112020015716553, -25.362131118774414, 98.53701782226562, 0.03200000151991844, -0.04800000041723251, 1.055999994277954, 0.0, 0.0, 0.0, 0.0, 0.0, 1.6209938284437244E9, 2021-05-14 14:03:48.443
100.0, -169.75405883789062, -6.172704696655273, -25.403270721435547, 94.88687133789062, 0.03200000151991844, -0.04800000041723251, 1.055999994277954, 0.0, 0.0, 0.0, 0.0, 0.0, 1.6209938284437244E9, 2021-05-14 14:03:48.443
0.0, -160.68106079101562, -2.041985273361206, -12.753058433532715, 99.16157531738281, 0.03200000151991844, -0.04800000041723251, 1.055999994277954, 0.0, 0.0, 0.0, 0.0, 0.0, 1.620993828444442E9, 2021-05-14 14:03:48.444
1.0, -171.29115295410156, -0.44504809379577637, -23.77454376220703, 101.55885314941406, 0.03200000151991844, -0.04800000041723251, 1.055999994277954, 0.0, 0.0, 0.0, 0.0, 0.0, 1.620993828458E9, 2021-05-14 14:03:48.458
1.0, -166.42181396484375, -3.863316535949707, -23.609989166259766, 109.034912109375, 0.03200000151991844, -0.04800000041723251, 1.055999994277954, 0.0, 0.0, 0.0, 0.0, 0.0, 1.620993828458E9, 2021-05-14 14:03:48.458
2.0, -156.71302795410156, -8.209080696105957, -20.87238121032715, 116.01730346679688, 0.03200000151991844, -0.04800000041723251, 1.055999994277954, 0.0, 0.0, 0.0, 0.0, 0.0, 1.620993828473716E9, 2021-05-14 14:03:48.473
2.0, -155.38162231445312, -7.704194068908691, -16.092788696289062, 101.22600555419922, 0.03200000151991844, -0.04800000041723251, 1.055999994277954, 0.0, 0.0, 0.0, 0.0, 0.0, 1.620993828473716E9, 2021-05-14 14:03:48.473
3.0, -149.68576049804688, -6.578484058380127, -11.713366508483887, 106.39454650878906, 0.03200000151991844, -0.04800000041723251, 1.055999994277954, 0.0, 0.0, 0.0, 0.0, 0.0, 1.6209938284744325E9, 2021-05-14 14:03:48.474
3.0, -153.32467651367188, -6.18205451965332, -15.445786476135254, 107.17618560791016, 0.03200000151991844, -0.04800000041723251, 1.055999994277954, 0.0, 0.0, 0.0, 0.0, 0.0, 1.6209938284744325E9, 2021-05-14 14:03:48.474
4.0, -151.69033813476562, -9.263731956481934, -18.332988739013672, 113.12262725830078, 0.03200000151991844, -0.04800000041723251, 1.055999994277954, 0.0, 0.0, 0.0, 0.0, 0.0, 1.6209938284879794E9, 2021-05-14 14:03:48.487
4.0, -159.49925231933594, -11.60116958618164, -11.653528213500977, 111.65283966064453, 0.03200000151991844, -0.04800000041723251, 1.055999994277954, 0.0, 0.0, 0.0, 0.0, 0.0, 1.6209938284879794E9, 2021-05-14 14:03:48.487
5.0, -158.61289978027344, -8.792505264282227, -15.606602668762207, 114.07630157470703, 0.03200000151991844, -0.04800000041723251, 1.055999994277954, 0.0, 0.0, 0.0, 0.0, 0.0, 1.6209938285037007E9, 2021-05-14 14:03:48.503
5.0, -154.53640747070312, -12.81663703918457, -17.72712516784668, 111.56682586669922, 0.03200000151991844, -0.04800000041723251, 1.055999994277954, 0.0, 0.0, 0.0, 0.0, 0.0, 1.6209938285037007E9, 2021-05-14 14:03:48.503
6.0, -150.3589324951172, -8.665348052978516, -7.969727039337158, 116.72789001464844, 0.03200000151991844, -0.04800000041723251, 1.055999994277954, 0.0, 0.0, 0.0, 0.0, 0.0, 1.6209938285044444E9, 2021-05-14 14:03:48.504
6.0, -155.35169982910156, -0.6806617975234985, -9.263731956481934, 118.21263122558594, 0.03200000151991844, -0.04800000041723251, 1.055999994277954, 0.0, 0.0, 0.0, 0.0, 0.0, 1.6209938285044444E9, 2021-05-14 14:03:48.504
7.0, -166.6424560546875, -10.419361114501953, -15.587903022766113, 108.49263000488281, 0.03200000151991844, -0.04800000041723251, 1.055999994277954, 0.0, 0.0, 0.0, 0.0, 0.0, 1.6209938285179644E9, 2021-05-14 14:03:48.517
7.0, -165.5354461669922, -14.60430908203125, -11.10002326965332, 112.58033752441406, 0.03200000151991844, -0.04800000041723251, 1.055999994277954, 0.0, 0.0, 0.0, 0.0, 0.0, 1.6209938285179644E9, 2021-05-14 14:03:48.517
8.0, -165.98049926757812, -8.74388599395752, -5.078783988952637, 116.9859390258789, 0.03200000151991844, -0.04800000041723251, 1.055999994277954, 0.0, 0.0, 0.0, 0.0, 0.0, 1.6209938285336833E9, 2021-05-14 14:03:48.533
8.0, -156.81027221679688, -2.0045864582061768, -4.629996299743652, 114.87289428710938, 0.03200000151991844, -0.04800000041723251, 1.055999994277954, 0.0, 0.0, 0.0, 0.0, 0.0, 1.6209938285336833E9, 2021-05-14 14:03:48.533
9.0, -167.18849182128906, -12.820377349853516, -20.161800384521484, 97.9087142944336, 0.03200000151991844, -0.04800000041723251, 1.055999994277954, 0.0, 0.0, 0.0, 0.0, 0.0, 1.620993828534397E9, 2021-05-14 14:03:48.534
9.0, -160.1986083984375, -10.879368782043457, -18.598522186279297, 105.86347961425781, 0.03200000151991844, -0.04800000041723251, 1.055999994277954, 0.0, 0.0, 0.0, 0.0, 0.0, 1.620993828534397E9, 2021-05-14 14:03:48.534
10.0, -159.147705078125, -9.963093757629395, -21.545562744140625, 112.35968780517578, 0.03200000151991844, -0.04800000041723251, 1.055999994277954, 0.0, 0.0, 0.0, 0.0, 0.0, 1.620993828547979E9, 2021-05-14 14:03:48.547
10.0, -153.4256591796875, -6.608403205871582, -16.025470733642578, 105.70640563964844, 0.03200000151991844, -0.04800000041723251, 1.055999994277954, 0.0, 0.0, 0.0, 0.0, 0.0, 1.620993828547979E9, 2021-05-14 14:03:48.547
11.0, -160.2958526611328, -9.461946487426758, -21.276290893554688, 100.6014404296875, 0.03200000151991844, -0.04800000041723251, 1.055999994277954, 0.0, 0.0, 0.0, 0.0, 0.0, 1.620993828580016E9, 2021-05-14 14:03:48.580
11.0, -156.1333465576172, -10.064070701599121, -18.478845596313477, 117.38984680175781, 0.03200000151991844, -0.04800000041723251, 1.055999994277954, 0.0, 0.0, 0.0, 0.0, 0.0, 1.620993828580016E9, 2021-05-14 14:03:48.580
12.0, -160.43423461914062, -13.665594100952148, -19.47365951538086, 116.20803833007812, 0.03200000151991844, -0.04800000041723251, 1.055999994277954, 0.0, 0.0, 0.0, 0.0, 0.0, 1.6209938285807707E9, 2021-05-14 14:03:48.580
12.0, -154.0165557861328, -9.31609058380127, -19.447479248046875, 110.65055084228516, 0.03200000151991844, -0.04800000041723251, 1.055999994277954, 0.0, 0.0, 0.0, 0.0, 0.0, 1.6209938285807707E9, 2021-05-14 14:03:48.580
13.0, -163.3064727783203, -12.644601821899414, -20.820022583007812, 108.36547088623047, 0.03200000151991844, -0.04800000041723251, 1.055999994277954, 0.0, 0.0, 0.0, 0.0, 0.0, 1.6209938285814767E9, 2021-05-14 14:03:48.581
13.0, -152.528076171875, -6.716860294342041, -18.17217445373535, 113.93791961669922, 0.03200000151991844, -0.04800000041723251, 1.055999994277954, 0.0, 0.0, 0.0, 0.0, 0.0, 1.6209938285814767E9, 2021-05-14 14:03:48.581
14.0, -152.55426025390625, -7.7902116775512695, -11.720846176147461, 126.93407440185547, 0.03200000151991844, -0.04800000041723251, 1.055999994277954, 0.0, 0.0, 0.0, 0.0, 0.0, 1.6209938285822337E9, 2021-05-14 14:03:48.582
14.0, -161.3953857421875, -8.276398658752441, -11.574990272521973, 114.31938934326172, 0.03200000151991844, -0.04800000041723251, 1.055999994277954, 0.0, 0.0, 0.0, 0.0, 0.0, 1.6209938285822337E9, 2021-05-14 14:03:48.582
15.0, -160.70724487304688, -7.292804718017578, -17.90290069580078, 112.26244354248047, 0.03200000151991844, -0.04800000041723251, 1.055999994277954, 0.0, 0.0, 0.0, 0.0, 0.0, 1.6209938285930555E9, 2021-05-14 14:03:48.593
15.0, -160.2547149658203, -2.501993179321289, -13.942346572875977, 116.70170593261719, 0.03200000151991844, -0.04800000041723251, 1.055999994277954, 0.0, 0.0, 0.0, 0.0, 0.0, 1.6209938285930555E9, 2021-05-14 14:03:48.593
16.0, -166.96783447265625, -8.04078483581543, -12.027518272399902, 115.05989074707031, 0.03200000151991844, -0.04800000041723251, 1.055999994277954, 0.0, 0.0, 0.0, 0.0, 0.0, 1.6209938286080475E9, 2021-05-14 14:03:48.608
16.0, -169.7877197265625, -0.9013158679008484, -10.471719741821289, 116.77276611328125, 0.03200000151991844, -0.04800000041723251, 1.055999994277954, 0.0, 0.0, 0.0, 0.0, 0.0, 1.6209938286080475E9, 2021-05-14 14:03:48.608
17.0, -169.72039794921875, -0.9985532760620117, -8.99445915222168, 107.54643249511719, 0.03200000151991844, -0.04800000041723251, 1.055999994277954, 0.0, 0.0, 0.0, 0.0, 0.0, 1.6209938286236732E9, 2021-05-14 14:03:48.623
17.0, -160.2098388671875, -4.708534240722656, -12.913874626159668, 108.99751281738281, 0.03200000151991844, -0.04800000041723251, 1.055999994277954, 0.0, 0.0, 0.0, 0.0, 0.0, 1.6209938286236732E9, 2021-05-14 14:03:48.623
18.0, -159.62640380859375, -8.455913543701172, -14.780084609985352, 108.84043884277344, 0.03200000151991844, -0.04800000041723251, 1.055999994277954, 0.0, 0.0, 0.0, 0.0, 0.0, 1.6209938286244867E9, 2021-05-14 14:03:48.624
18.0, -155.9613037109375, -0.8489573001861572, -12.775498390197754, 113.5078353881836, 0.03200000151991844, -0.04800000041723251, 1.055999994277954, 0.0, 0.0, 0.0, 0.0, 0.0, 1.6209938286244867E9, 2021-05-14 14:03:48.624
19.0, -157.4497833251953, -2.5693113803863525, -14.787564277648926, 109.51361846923828, 0.03200000151991844, -0.04800000041723251, 1.055999994277954, 0.0, 0.0, 0.0, 0.0, 0.0, 1.6209938286381898E9, 2021-05-14 14:03:48.638
19.0, -155.26568603515625, -6.006279468536377, -19.223085403442383, 116.76902770996094, 0.03200000151991844, -0.04800000041723251, 1.055999994277954, 0.0, 0.0, 0.0, 0.0, 0.0, 1.6209938286381898E9, 2021-05-14 14:03:48.638
20.0, -146.57415771484375, -0.9798538088798523, -10.77839183807373, 130.41592407226562, 0.03200000151991844, -0.04800000041723251, 1.055999994277954, 0.0, 0.0, 0.0, 0.0, 0.0, 1.6209938286542077E9, 2021-05-14 14:03:48.654
20.0, -152.38970947265625, -8.758845329284668, -18.463886260986328, 118.36222076416016, 0.03200000151991844, -0.04800000041723251, 1.055999994277954, 0.0, 0.0, 0.0, 0.0, 0.0, 1.6209938286542077E9, 2021-05-14 14:03:48.654
21.0, -152.8310089111328, -12.106056213378906, -21.582962036132812, 108.93767547607422, 0.03200000151991844, -0.06400000303983688, 1.055999994277954, 0.0, 0.0, 0.0, 0.0, 0.0, 1.6209938286687174E9, 2021-05-14 14:03:48.668
21.0, -157.04962158203125, -5.823024272918701, -26.216699600219727, 109.42760467529297, 0.03200000151991844, -0.06400000303983688, 1.055999994277954, 0.0, 0.0, 0.0, 0.0, 0.0, 1.6209938286687174E9, 2021-05-14 14:03:48.668
22.0, -158.90835571289062, 4.674874782562256, -24.447725296020508, 108.15229797363281, 0.03200000151991844, -0.06400000303983688, 1.055999994277954, 0.0, 0.0, 0.0, 0.0, 0.0, 1.6209938286695004E9, 2021-05-14 14:03:48.669
22.0, -155.415283203125, 14.263978004455566, -16.51913833618164, 112.21756744384766, 0.03200000151991844, -0.06400000303983688, 1.055999994277954, 0.0, 0.0, 0.0, 0.0, 0.0, 1.6209938286695004E9, 2021-05-14 14:03:48.669
23.0, -163.0484161376953, 5.856683254241943, -22.31972312927246, 101.3456802368164, 0.03200000151991844, -0.06400000303983688, 1.055999994277954, 0.0, 0.0, 0.0, 0.0, 0.0, 1.6209938286837168E9, 2021-05-14 14:03:48.683
23.0, -157.5245819091797, 4.794551849365234, -24.01015853881836, 106.02055358886719, 0.03200000151991844, -0.06400000303983688, 1.055999994277954, 0.0, 0.0, 0.0, 0.0, 0.0, 1.6209938286837168E9, 2021-05-14 14:03:48.683
24.0, -151.28269958496094, 1.017252802848816, -18.628440856933594, 108.29815673828125, 0.03200000151991844, -0.06400000303983688, 1.055999994277954, 0.0, 0.0, 0.0, 0.0, 0.0, 1.6209938286844375E9, 2021-05-14 14:03:48.684
24.0, -152.2662811279297, -0.32537129521369934, -13.560876846313477, 107.54269409179688, 0.03200000151991844, -0.06400000303983688, 1.055999994277954, 0.0, 0.0, 0.0, 0.0, 0.0, 1.6209938286844375E9, 2021-05-14 14:03:48.684
25.0, -157.26654052734375, 5.722046852111816, -14.810004234313965, 103.49237823486328, 0.03200000151991844, -0.06400000303983688, 1.055999994277954, 0.0, 0.0, 0.0, 0.0, 0.0, 1.620993828698037E9, 2021-05-14 14:03:48.698
25.0, -162.8314971923828, 3.7698192596435547, -12.162154197692871, 105.31371307373047, 0.03200000151991844, -0.06400000303983688, 1.055999994277954, 0.0, 0.0, 0.0, 0.0, 0.0, 1.620993828698037E9, 2021-05-14 14:03:48.698
26.0, -160.62496948242188, 1.4660407304763794, -11.747025489807129, 112.84213256835938, 0.03200000151991844, -0.06400000303983688, 1.055999994277954, 0.0, 0.0, 0.0, 0.0, 0.0, 1.620993828713756E9, 2021-05-14 14:03:48.713
26.0, -150.34397888183594, 5.445294380187988, -11.825563430786133, 99.88337707519531, 0.03200000151991844, -0.06400000303983688, 1.055999994277954, 0.0, 0.0, 0.0, 0.0, 0.0, 1.620993828713756E9, 2021-05-14 14:03:48.713
27.0, -155.10113525390625, 4.678614616394043, -17.405494689941406, 94.75971221923828, 0.03200000151991844, -0.06400000303983688, 1.055999994277954, 0.0, 0.0, 0.0, 0.0, 0.0, 1.6209938287145429E9, 2021-05-14 14:03:48.714
27.0, -153.82582092285156, 3.0854175090789795, -17.958999633789062, 106.85455322265625, 0.03200000151991844, -0.06400000303983688, 1.055999994277954, 0.0, 0.0, 0.0, 0.0, 0.0, 1.6209938287145429E9, 2021-05-14 14:03:48.714
28.0, -147.3109130859375, -6.799138069152832, -20.154321670532227, 110.79266357421875, 0.03200000151991844, -0.06400000303983688, 1.055999994277954, 0.0, 0.0, 0.0, 0.0, 0.0, 1.6209938287279856E9, 2021-05-14 14:03:48.727
28.0, -148.3319091796875, 1.2229472398757935, -14.406094551086426, 103.9336929321289, 0.03200000151991844, -0.06400000303983688, 1.055999994277954, 0.0, 0.0, 0.0, 0.0, 0.0, 1.6209938287279856E9, 2021-05-14 14:03:48.727
29.0, -154.71966552734375, -1.552058458328247, -15.584162712097168, 107.56513214111328, 0.03200000151991844, -0.06400000303983688, 1.055999994277954, 0.0, 0.0, 0.0, 0.0, 0.0, 1.6209938287437253E9, 2021-05-14 14:03:48.743
29.0, -148.0439453125, 3.7398998737335205, -14.076983451843262, 112.68505859375, 0.03200000151991844, -0.06400000303983688, 1.055999994277954, 0.0, 0.0, 0.0, 0.0, 0.0, 1.6209938287437253E9, 2021-05-14 14:03:48.743
30.0, -139.9358367919922, -7.5171990394592285, -15.157814979553223, 110.05964660644531, 0.03200000151991844, -0.06400000303983688, 1.055999994277954, 0.0, 0.0, 0.0, 0.0, 0.0, 1.6209938287446291E9, 2021-05-14 14:03:48.744
30.0, -147.07530212402344, 2.041985273361206, -24.339269638061523, 102.62472534179688, 0.03200000151991844, -0.06400000303983688, 1.055999994277954, 0.0, 0.0, 0.0, 0.0, 0.0, 1.6209938287446291E9, 2021-05-14 14:03:48.744
31.0, -151.4285430908203, 4.024132251739502, -15.49814510345459, 102.54244995117188, 0.03200000151991844, -0.06400000303983688, 1.055999994277954, 0.0, 0.0, 0.0, 0.0, 0.0, 1.6209938287580705E9, 2021-05-14 14:03:48.758
31.0, -151.5968475341797, -7.113289833068848, -22.660053253173828, 103.20440673828125, 0.03200000151991844, -0.06400000303983688, 1.055999994277954, 0.0, 0.0, 0.0, 0.0, 0.0, 1.6209938287580705E9, 2021-05-14 14:03:48.758
32.0, -160.9279022216797, 1.361323595046997, -15.169034004211426, 114.50638580322266, 0.03200000151991844, -0.06400000303983688, 1.055999994277954, 0.0, 0.0, 0.0, 0.0, 0.0, 1.6209938287737792E9, 2021-05-14 14:03:48.773
32.0, -144.3975372314453, -5.763185977935791, -13.976006507873535, 109.7791519165039, 0.03200000151991844, -0.06400000303983688, 1.055999994277954, 0.0, 0.0, 0.0, 0.0, 0.0, 1.6209938287737792E9, 2021-05-14 14:03:48.773
33.0, -164.76876831054688, -10.153828620910645, -25.012451171875, 101.03152465820312, 0.03200000151991844, -0.06400000303983688, 1.055999994277954, 0.0, 0.0, 0.0, 0.0, 0.0, 1.6209938287746055E9, 2021-05-14 14:03:48.774
33.0, -168.53111267089844, -13.014851570129395, -23.247217178344727, 104.40865325927734, 0.03200000151991844, -0.06400000303983688, 1.055999994277954, 0.0, 0.0, 0.0, 0.0, 0.0, 1.6209938287746055E9, 2021-05-14 14:03:48.774
34.0, -156.8177490234375, -7.367602825164795, -15.195213317871094, 110.01102447509766, 0.03200000151991844, -0.06400000303983688, 1.055999994277954, 0.0, 0.0, 0.0, 0.0, 0.0, 1.6209938287880645E9, 2021-05-14 14:03:48.788
34.0, -155.16470336914062, -3.665102005004883, -17.01280403137207, 101.83560943603516, 0.03200000151991844, -0.06400000303983688, 1.055999994277954, 0.0, 0.0, 0.0, 0.0, 0.0, 1.6209938287880645E9, 2021-05-14 14:03:48.788
35.0, -153.5453338623047, -3.1377761363983154, -20.416114807128906, 104.46849822998047, 0.03200000151991844, -0.06400000303983688, 1.055999994277954, 0.0, 0.0, 0.0, 0.0, 0.0, 1.6209938288038175E9, 2021-05-14 14:03:48.803
35.0, -153.73980712890625, -10.684894561767578, -18.366649627685547, 106.55535888671875, 0.03200000151991844, -0.06400000303983688, 1.055999994277954, 0.0, 0.0, 0.0, 0.0, 0.0, 1.6209938288038175E9, 2021-05-14 14:03:48.803
36.0, -154.50274658203125, -12.880215644836426, -22.069149017333984, 105.33615112304688, 0.03200000151991844, -0.06400000303983688, 1.055999994277954, 0.0, 0.0, 0.0, 0.0, 0.0, 1.6209938288045454E9, 2021-05-14 14:03:48.804
36.0, -154.98146057128906, -7.52841854095459, -23.022823333740234, 100.91558837890625, 0.03200000151991844, -0.06400000303983688, 1.055999994277954, 0.0, 0.0, 0.0, 0.0, 0.0, 1.6209938288045454E9, 2021-05-14 14:03:48.804
37.0, -152.64027404785156, -5.018945693969727, -25.15456771850586, 100.52664184570312, 0.03200000151991844, -0.06400000303983688, 1.055999994277954, 0.0, 0.0, 0.0, 0.0, 0.0, 1.6209938288181455E9, 2021-05-14 14:03:48.818
37.0, -153.70614624023438, -7.363862991333008, -27.99315071105957, 104.0758056640625, 0.03200000151991844, -0.06400000303983688, 1.055999994277954, 0.0, 0.0, 0.0, 0.0, 0.0, 1.6209938288181455E9, 2021-05-14 14:03:48.818
38.0, -149.96250915527344, -5.176021575927734, -20.36375617980957, 109.94744873046875, 0.03200000151991844, -0.06400000303983688, 1.055999994277954, 0.0, 0.0, 0.0, 0.0, 0.0, 1.620993828833711E9, 2021-05-14 14:03:48.833
38.0, -155.2881317138672, 1.4847402572631836, -18.374128341674805, 105.39598846435547, 0.03200000151991844, -0.06400000303983688, 1.055999994277954, 0.0, 0.0, 0.0, 0.0, 0.0, 1.620993828833711E9, 2021-05-14 14:03:48.833
39.0, -158.9307861328125, 2.2439398765563965, -20.980838775634766, 96.23323822021484, 0.03200000151991844, -0.06400000303983688, 1.055999994277954, 0.0, 0.0, 0.0, 0.0, 0.0, 1.6209938288345048E9, 2021-05-14 14:03:48.834
39.0, -150.20559692382812, 9.727479934692383, -12.913874626159668, 108.09619903564453, 0.03200000151991844, -0.06400000303983688, 1.055999994277954, 0.0, 0.0, 0.0, 0.0, 0.0, 1.6209938288345048E9, 2021-05-14 14:03:48.834
40.0, -150.2355194091797, 0.23561370372772217, -11.7432861328125, 110.75526428222656, 0.03200000151991844, -0.06400000303983688, 1.055999994277954, 0.0, 0.0, 0.0, 0.0, 0.0, 1.620993828848172E9, 2021-05-14 14:03:48.848
40.0, -145.3250274658203, -4.476660251617432, -15.670181274414062, 102.13853454589844, 0.03200000151991844, -0.06400000303983688, 1.055999994277954, 0.0, 0.0, 0.0, 0.0, 0.0, 1.620993828848172E9, 2021-05-14 14:03:48.848
41.0, -155.35169982910156, -3.2798922061920166, -21.85971450805664, 94.37450408935547, 0.03200000151991844, -0.04800000041723251, 1.055999994277954, 0.0, 0.0, 0.0, 0.0, 0.0, 1.6209938288636713E9, 2021-05-14 14:03:48.863
41.0, -158.94200134277344, 3.8745362758636475, -18.37786865234375, 99.51313018798828, 0.03200000151991844, -0.04800000041723251, 1.055999994277954, 0.0, 0.0, 0.0, 0.0, 0.0, 1.6209938288636713E9, 2021-05-14 14:03:48.863
42.0, -153.29849243164062, 10.284725189208984, -10.295944213867188, 102.8079833984375, 0.03200000151991844, -0.04800000041723251, 1.055999994277954, 0.0, 0.0, 0.0, 0.0, 0.0, 1.6209938288644385E9, 2021-05-14 14:03:48.864
42.0, -162.868896484375, 0.1645555943250656, -15.427087783813477, 98.86986541748047, 0.03200000151991844, -0.04800000041723251, 1.055999994277954, 0.0, 0.0, 0.0, 0.0, 0.0, 1.6209938288644385E9, 2021-05-14 14:03:48.864
43.0, -161.66091918945312, -0.3552905023097992, -18.000139236450195, 96.03501892089844, 0.03200000151991844, -0.04800000041723251, 1.055999994277954, 0.0, 0.0, 0.0, 0.0, 0.0, 1.6209938288781357E9, 2021-05-14 14:03:48.878
43.0, -159.33470153808594, -0.7068411111831665, -14.8623628616333, 103.97856903076172, 0.03200000151991844, -0.04800000041723251, 1.055999994277954, 0.0, 0.0, 0.0, 0.0, 0.0, 1.6209938288781357E9, 2021-05-14 14:03:48.878
44.0, -149.03875732421875, -4.095190525054932, -11.919060707092285, 111.75008392333984, 0.03200000151991844, -0.04800000041723251, 1.055999994277954, 0.0, 0.0, 0.0, 0.0, 0.0, 1.6209938288937736E9, 2021-05-14 14:03:48.893
44.0, -147.25856018066406, -8.538191795349121, -12.80541706085205, 112.72993469238281, 0.03200000151991844, -0.04800000041723251, 1.055999994277954, 0.0, 0.0, 0.0, 0.0, 0.0, 1.6209938288937736E9, 2021-05-14 14:03:48.893
45.0, -150.5347137451172, -3.9044556617736816, -15.584162712097168, 111.64910125732422, 0.03200000151991844, -0.04800000041723251, 1.055999994277954, 0.0, 0.0, 0.0, 0.0, 0.0, 1.6209938288944285E9, 2021-05-14 14:03:48.894
45.0, -146.71627807617188, -5.232120037078857, -17.865501403808594, 114.67094421386719, 0.03200000151991844, -0.04800000041723251, 1.055999994277954, 0.0, 0.0, 0.0, 0.0, 0.0, 1.6209938288944285E9, 2021-05-14 14:03:48.894
46.0, -140.8334197998047, -3.915675163269043, -23.078922271728516, 116.33893585205078, 0.03200000151991844, -0.04800000041723251, 1.055999994277954, 0.0, 0.0, 0.0, 0.0, 0.0, 1.6209938289081328E9, 2021-05-14 14:03:48.908
46.0, -149.5623321533203, -2.7899653911590576, -17.899160385131836, 104.7751693725586, 0.03200000151991844, -0.04800000041723251, 1.055999994277954, 0.0, 0.0, 0.0, 0.0, 0.0, 1.6209938289081328E9, 2021-05-14 14:03:48.908
47.0, -143.90013122558594, -3.339730739593506, -18.396568298339844, 105.74380493164062, 0.03200000151991844, -0.04800000041723251, 1.055999994277954, 0.0, 0.0, 0.0, 0.0, 0.0, 1.620993828923885E9, 2021-05-14 14:03:48.923
47.0, -151.342529296875, -7.281585216522217, -22.529157638549805, 105.983154296875, 0.03200000151991844, -0.04800000041723251, 1.055999994277954, 0.0, 0.0, 0.0, 0.0, 0.0, 1.620993828923885E9, 2021-05-14 14:03:48.923
48.0, -152.29994201660156, -6.413928508758545, -17.47281265258789, 110.25785827636719, 0.03200000151991844, -0.04800000041723251, 1.055999994277954, 0.0, 0.0, 0.0, 0.0, 0.0, 1.620993828924616E9, 2021-05-14 14:03:48.924
48.0, -149.28932189941406, -5.512612342834473, -7.375082492828369, 102.94635772705078, 0.03200000151991844, -0.04800000041723251, 1.055999994277954, 0.0, 0.0, 0.0, 0.0, 0.0, 1.620993828924616E9, 2021-05-14 14:03:48.924
49.0, -156.5222930908203, -14.99699878692627, -11.930280685424805, 97.28041076660156, 0.03200000151991844, -0.04800000041723251, 1.055999994277954, 0.0, 0.0, 0.0, 0.0, 0.0, 1.6209938289380567E9, 2021-05-14 14:03:48.938
49.0, -152.1840057373047, 2.913382053375244, -8.41103458404541, 100.01427459716797, 0.03200000151991844, -0.04800000041723251, 1.055999994277954, 0.0, 0.0, 0.0, 0.0, 0.0, 1.6209938289380567E9, 2021-05-14 14:03:48.938
50.0, -157.13937377929688, 0.5385456085205078, -13.415020942687988, 92.38114166259766, 0.03200000151991844, -0.04800000041723251, 1.055999994277954, 0.0, 0.0, 0.0, 0.0, 0.0, 1.6209938289538376E9, 2021-05-14 14:03:48.953
50.0, -144.6368865966797, 8.399815559387207, -2.4832935333251953, 96.64088439941406, 0.03200000151991844, -0.04800000041723251, 1.055999994277954, 0.0, 0.0, 0.0, 0.0, 0.0, 1.6209938289538376E9, 2021-05-14 14:03:48.953
51.0, -154.8131561279297, -3.691281318664551, -8.283878326416016, 96.16217803955078, 0.03200000151991844, -0.04800000041723251, 1.055999994277954, 0.0, 0.0, 0.0, 0.0, 0.0, 1.620993828954604E9, 2021-05-14 14:03:48.954
51.0, -157.5844268798828, -0.2094343900680542, -11.833043098449707, 95.10752868652344, 0.03200000151991844, -0.04800000041723251, 1.055999994277954, 0.0, 0.0, 0.0, 0.0, 0.0, 1.620993828954604E9, 2021-05-14 14:03:48.954
52.0, -157.9135284423828, -0.7105810046195984, -10.78213119506836, 102.68082427978516, 0.03200000151991844, -0.04800000041723251, 1.055999994277954, 0.0, 0.0, 0.0, 0.0, 0.0, 1.620993828968058E9, 2021-05-14 14:03:48.968
52.0, -155.74813842773438, 5.856683254241943, -9.880815505981445, 106.87699127197266, 0.03200000151991844, -0.04800000041723251, 1.055999994277954, 0.0, 0.0, 0.0, 0.0, 0.0, 1.620993828968058E9, 2021-05-14 14:03:48.968
53.0, -166.91172790527344, -5.243339538574219, -17.899160385131836, 106.89195251464844, 0.03200000151991844, -0.04800000041723251, 1.055999994277954, 0.0, 0.0, 0.0, 0.0, 0.0, 1.6209938289844348E9, 2021-05-14 14:03:48.984
53.0, -160.8905029296875, -0.3964293897151947, -19.219345092773438, 120.62486267089844, 0.03200000151991844, -0.04800000041723251, 1.055999994277954, 0.0, 0.0, 0.0, 0.0, 0.0, 1.6209938289844348E9, 2021-05-14 14:03:48.984
54.0, -155.02259826660156, -3.85957670211792, -24.500083923339844, 127.31554412841797, 0.03200000151991844, -0.04800000041723251, 1.055999994277954, 0.0, 0.0, 0.0, 0.0, 0.0, 1.6209938289851947E9, 2021-05-14 14:03:48.985
54.0, -151.4734344482422, -1.4361215829849243, -20.838722229003906, 127.1397705078125, 0.03200000151991844, -0.04800000041723251, 1.055999994277954, 0.0, 0.0, 0.0, 0.0, 0.0, 1.6209938289851947E9, 2021-05-14 14:03:48.985
55.0, -150.1981201171875, -6.37278938293457, -20.03090476989746, 120.95397186279297, 0.03200000151991844, -0.04800000041723251, 1.055999994277954, 0.0, 0.0, 0.0, 0.0, 0.0, 1.6209938289979968E9, 2021-05-14 14:03:48.997
55.0, -153.2872772216797, -15.049357414245605, -19.59333610534668, 117.83489990234375, 0.03200000151991844, -0.04800000041723251, 1.055999994277954, 0.0, 0.0, 0.0, 0.0, 0.0, 1.6209938289979968E9, 2021-05-14 14:03:48.997
56.0, -153.22369384765625, -3.6015236377716064, -15.385948181152344, 117.62920379638672, 0.03200000151991844, -0.04800000041723251, 1.055999994277954, 0.0, 0.0, 0.0, 0.0, 0.0, 1.6209938290137837E9, 2021-05-14 14:03:49.013
56.0, -156.49237060546875, 5.7519659996032715, -20.494651794433594, 106.91812896728516, 0.03200000151991844, -0.04800000041723251, 1.055999994277954, 0.0, 0.0, 0.0, 0.0, 0.0, 1.6209938290137837E9, 2021-05-14 14:03:49.013
57.0, -160.40057373046875, 2.479553699493408, -26.216699600219727, 102.33301544189453, 0.03200000151991844, -0.04800000041723251, 1.055999994277954, 0.0, 0.0, 0.0, 0.0, 0.0, 1.6209938290144112E9, 2021-05-14 14:03:49.014
57.0, -150.95358276367188, -0.882616400718689, -18.288110733032227, 103.46246337890625, 0.03200000151991844, -0.04800000041723251, 1.055999994277954, 0.0, 0.0, 0.0, 0.0, 0.0, 1.6209938290144112E9, 2021-05-14 14:03:49.014
58.0, -142.81556701660156, -0.7853789925575256, -14.181700706481934, 112.11285400390625, 0.03200000151991844, -0.04800000041723251, 1.055999994277954, 0.0, 0.0, 0.0, 0.0, 0.0, 1.6209938290281515E9, 2021-05-14 14:03:49.028
58.0, -153.3807830810547, 0.12341669946908951, -13.740392684936523, 100.65753936767578, 0.03200000151991844, -0.04800000041723251, 1.055999994277954, 0.0, 0.0, 0.0, 0.0, 0.0, 1.6209938290281515E9, 2021-05-14 14:03:49.028
59.0, -156.21188354492188, -10.856929779052734, -9.289911270141602, 91.03477478027344, 0.03200000151991844, -0.04800000041723251, 1.055999994277954, 0.0, 0.0, 0.0, 0.0, 0.0, 1.6209938290437772E9, 2021-05-14 14:03:49.043
59.0, -146.6788787841797, 0.5048865079879761, -8.54193115234375, 99.29247283935547, 0.03200000151991844, -0.04800000041723251, 1.055999994277954, 0.0, 0.0, 0.0, 0.0, 0.0, 1.6209938290437772E9, 2021-05-14 14:03:49.043
60.0, -150.10089111328125, 10.729772567749023, -6.761739253997803, 100.82957458496094, 0.03200000151991844, -0.04800000041723251, 1.055999994277954, 0.0, 0.0, 0.0, 0.0, 0.0, 1.6209938290444784E9, 2021-05-14 14:03:49.044
60.0, -166.1749725341797, 2.718907356262207, -17.824363708496094, 81.90567779541016, 0.03200000151991844, -0.04800000041723251, 1.055999994277954, 0.0, 0.0, 0.0, 0.0, 0.0, 1.6209938290444784E9, 2021-05-14 14:03:49.044
61.0, -158.06686401367188, -9.858376502990723, -23.22477912902832, 86.66283416748047, 0.03200000151991844, -0.04800000041723251, 1.055999994277954, 0.0, 0.0, 0.0, 0.0, 0.0, 1.6209938290581834E9, 2021-05-14 14:03:49.058
61.0, -163.549560546875, -9.645201683044434, -21.433366775512695, 104.27401733398438, 0.03200000151991844, -0.04800000041723251, 1.055999994277954, 0.0, 0.0, 0.0, 0.0, 0.0, 1.6209938290581834E9, 2021-05-14 14:03:49.058
62.0, -158.1641082763672, -5.748226165771484, -20.625547409057617, 115.56478118896484, 0.03200000151991844, -0.04800000041723251, 1.055999994277954, 0.0, 0.0, 0.0, 0.0, 0.0, 1.620993829074182E9, 2021-05-14 14:03:49.074
62.0, -154.00534057617188, -4.514059066772461, -20.692867279052734, 116.27162170410156, 0.03200000151991844, -0.04800000041723251, 1.055999994277954, 0.0, 0.0, 0.0, 0.0, 0.0, 1.620993829074182E9, 2021-05-14 14:03:49.074
63.0, -152.9581756591797, -16.100269317626953, -26.504671096801758, 112.7486343383789, 0.03200000151991844, -0.04800000041723251, 1.055999994277954, 0.0, 0.0, 0.0, 0.0, 0.0, 1.6209938290887804E9, 2021-05-14 14:03:49.088
63.0, -156.08847045898438, -13.444940567016602, -23.28835678100586, 126.45162963867188, 0.03200000151991844, -0.04800000041723251, 1.055999994277954, 0.0, 0.0, 0.0, 0.0, 0.0, 1.6209938290887804E9, 2021-05-14 14:03:49.088
64.0, -149.10606384277344, -12.016298294067383, -21.590442657470703, 119.65996551513672, 0.03200000151991844, -0.04800000041723251, 1.055999994277954, 0.0, 0.0, 0.0, 0.0, 0.0, 1.6209938290895815E9, 2021-05-14 14:03:49.089
64.0, -156.8626251220703, -9.604063034057617, -26.590688705444336, 106.40576171875, 0.03200000151991844, -0.04800000041723251, 1.055999994277954, 0.0, 0.0, 0.0, 0.0, 0.0, 1.6209938290895815E9, 2021-05-14 14:03:49.089
65.0, -146.95936584472656, -15.352289199829102, -19.907487869262695, 106.21128845214844, 0.03200000151991844, -0.04800000041723251, 1.055999994277954, 0.0, 0.0, 0.0, 0.0, 0.0, 1.6209938291045592E9, 2021-05-14 14:03:49.104
65.0, -149.6782684326172, -20.472211837768555, -23.138761520385742, 102.2731704711914, 0.03200000151991844, -0.04800000041723251, 1.055999994277954, 0.0, 0.0, 0.0, 0.0, 0.0, 1.6209938291045592E9, 2021-05-14 14:03:49.104
66.0, -141.74594116210938, -8.04078483581543, -14.166741371154785, 111.78748321533203, 0.03200000151991844, -0.04800000041723251, 1.055999994277954, 0.0, 0.0, 0.0, 0.0, 0.0, 1.6209938291051629E9, 2021-05-14 14:03:49.105
66.0, -154.1437225341797, -7.547118186950684, -17.196060180664062, 97.44496154785156, 0.03200000151991844, -0.04800000041723251, 1.055999994277954, 0.0, 0.0, 0.0, 0.0, 0.0, 1.6209938291051629E9, 2021-05-14 14:03:49.105
67.0, -160.90171813964844, -3.339730739593506, -19.099668502807617, 86.77503204345703, 0.03200000151991844, -0.04800000041723251, 1.055999994277954, 0.0, 0.0, 0.0, 0.0, 0.0, 1.6209938291180027E9, 2021-05-14 14:03:49.118
67.0, -152.21018981933594, 1.8549903631210327, -11.249619483947754, 88.55522155761719, 0.03200000151991844, -0.04800000041723251, 1.055999994277954, 0.0, 0.0, 0.0, 0.0, 0.0, 1.6209938291180027E9, 2021-05-14 14:03:49.118
68.0, -150.38885498046875, -1.4996998310089111, -5.770665645599365, 91.92112731933594, 0.03200000151991844, -0.04800000041723251, 1.055999994277954, 0.0, 0.0, 0.0, 0.0, 0.0, 1.6209938291336842E9, 2021-05-14 14:03:49.133
68.0, -143.0287322998047, 5.789365291595459, 0.11593689769506454, 84.83776092529297, 0.03200000151991844, -0.04800000041723251, 1.055999994277954, 0.0, 0.0, 0.0, 0.0, 0.0, 1.6209938291336842E9, 2021-05-14 14:03:49.133
69.0, -153.18630981445312, -0.6806617975234985, -10.142608642578125, 77.1335678100586, 0.03200000151991844, -0.04800000041723251, 1.055999994277954, 0.0, 0.0, 0.0, 0.0, 0.0, 1.620993829134384E9, 2021-05-14 14:03:49.134
69.0, -146.40213012695312, -0.29919201135635376, -12.581023216247559, 96.47258758544922, 0.03200000151991844, -0.04800000041723251, 1.055999994277954, 0.0, 0.0, 0.0, 0.0, 0.0, 1.620993829134384E9, 2021-05-14 14:03:49.134
70.0, -154.82437133789062, 2.012066125869751, -12.51744556427002, 101.91788482666016, 0.03200000151991844, -0.04800000041723251, 1.055999994277954, 0.0, 0.0, 0.0, 0.0, 0.0, 1.620993829147997E9, 2021-05-14 14:03:49.147
70.0, -157.18798828125, -5.138622760772705, -13.818930625915527, 103.9748306274414, 0.03200000151991844, -0.04800000041723251, 1.055999994277954, 0.0, 0.0, 0.0, 0.0, 0.0, 1.620993829147997E9, 2021-05-14 14:03:49.147
71.0, -157.8312530517578, -10.389442443847656, -19.06974983215332, 110.9833984375, 0.03200000151991844, -0.04800000041723251, 1.055999994277954, 0.0, 0.0, 0.0, 0.0, 0.0, 1.6209938291637542E9, 2021-05-14 14:03:49.163
71.0, -153.22369384765625, -11.526371955871582, -23.46413230895996, 118.4669418334961, 0.03200000151991844, -0.04800000041723251, 1.055999994277954, 0.0, 0.0, 0.0, 0.0, 0.0, 1.6209938291637542E9, 2021-05-14 14:03:49.163
72.0, -155.2095947265625, -19.843908309936523, -23.60624885559082, 121.94879150390625, 0.03200000151991844, -0.04800000041723251, 1.055999994277954, 0.0, 0.0, 0.0, 0.0, 0.0, 1.6209938291643825E9, 2021-05-14 14:03:49.164
72.0, -152.7449951171875, -18.792997360229492, -24.840415954589844, 118.0854721069336, 0.03200000151991844, -0.04800000041723251, 1.055999994277954, 0.0, 0.0, 0.0, 0.0, 0.0, 1.6209938291643825E9, 2021-05-14 14:03:49.164
73.0, -159.03550720214844, -18.673320770263672, -22.734851837158203, 122.1395263671875, 0.03200000151991844, -0.04800000041723251, 1.055999994277954, 0.0, 0.0, 0.0, 0.0, 0.0, 1.6209938291780467E9, 2021-05-14 14:03:49.178
73.0, -156.3427734375, -14.619269371032715, -23.019084930419922, 114.18849182128906, 0.03200000151991844, -0.04800000041723251, 1.055999994277954, 0.0, 0.0, 0.0, 0.0, 0.0, 1.6209938291780467E9, 2021-05-14 14:03:49.178
74.0, -154.21852111816406, -11.189780235290527, -20.240339279174805, 118.26498413085938, 0.03200000151991844, -0.04800000041723251, 1.055999994277954, 0.0, 0.0, 0.0, 0.0, 0.0, 1.6209938291937609E9, 2021-05-14 14:03:49.193
74.0, -157.33758544921875, -11.765725135803223, -20.580669403076172, 112.77107238769531, 0.03200000151991844, -0.04800000041723251, 1.055999994277954, 0.0, 0.0, 0.0, 0.0, 0.0, 1.6209938291937609E9, 2021-05-14 14:03:49.193
75.0, -154.03900146484375, -7.670534610748291, -16.0740909576416, 109.02369689941406, 0.03200000151991844, -0.04800000041723251, 1.055999994277954, 0.0, 0.0, 0.0, 0.0, 0.0, 1.620993829194504E9, 2021-05-14 14:03:49.194
75.0, -160.28463745117188, -11.406694412231445, -19.30910301208496, 103.19692993164062, 0.03200000151991844, -0.04800000041723251, 1.055999994277954, 0.0, 0.0, 0.0, 0.0, 0.0, 1.620993829194504E9, 2021-05-14 14:03:49.194
76.0, -160.46788024902344, 0.8078184127807617, -13.729172706604004, 104.61061096191406, 0.03200000151991844, -0.04800000041723251, 1.055999994277954, 0.0, 0.0, 0.0, 0.0, 0.0, 1.6209938292080214E9, 2021-05-14 14:03:49.208
76.0, -163.74029541015625, 9.88455581665039, -8.818683624267578, 92.84488677978516, 0.03200000151991844, -0.04800000041723251, 1.055999994277954, 0.0, 0.0, 0.0, 0.0, 0.0, 1.6209938292080214E9, 2021-05-14 14:03:49.208
77.0, -156.5559539794922, 4.158768653869629, -8.770065307617188, 88.177490234375, 0.03200000151991844, -0.04800000041723251, 1.055999994277954, 0.0, 0.0, 0.0, 0.0, 0.0, 1.6209938292238164E9, 2021-05-14 14:03:49.223
77.0, -158.54183959960938, 3.7137205600738525, -11.623608589172363, 93.776123046875, 0.03200000151991844, -0.04800000041723251, 1.055999994277954, 0.0, 0.0, 0.0, 0.0, 0.0, 1.6209938292238164E9, 2021-05-14 14:03:49.223
78.0, -153.15264892578125, 2.561831474304199, -6.488726615905762, 94.97289276123047, 0.03200000151991844, -0.04800000041723251, 1.055999994277954, 0.0, 0.0, 0.0, 0.0, 0.0, 1.6209938292245758E9, 2021-05-14 14:03:49.224
78.0, -152.55052185058594, 3.4145286083221436, -7.26662540435791, 93.71253967285156, 0.03200000151991844, -0.04800000041723251, 1.055999994277954, 0.0, 0.0, 0.0, 0.0, 0.0, 1.6209938292245758E9, 2021-05-14 14:03:49.224
79.0, -155.42276000976562, 8.115582466125488, -11.859222412109375, 98.14432525634766, 0.03200000151991844, -0.04800000041723251, 1.055999994277954, 0.0, 0.0, 0.0, 0.0, 0.0, 1.6209938292379858E9, 2021-05-14 14:03:49.237
79.0, -161.18594360351562, 0.4151288866996765, -14.892281532287598, 105.75128173828125, 0.03200000151991844, -0.04800000041723251, 1.055999994277954, 0.0, 0.0, 0.0, 0.0, 0.0, 1.6209938292379858E9, 2021-05-14 14:03:49.237
80.0, -149.1733856201172, 2.887202739715576, -8.212820053100586, 118.45945739746094, 0.03200000151991844, -0.04800000041723251, 1.055999994277954, 0.0, 0.0, 0.0, 0.0, 0.0, 1.6209938292537477E9, 2021-05-14 14:03:49.253
80.0, -156.66815185546875, -12.5062255859375, -19.73919105529785, 106.18136596679688, 0.03200000151991844, -0.04800000041723251, 1.055999994277954, 0.0, 0.0, 0.0, 0.0, 0.0, 1.6209938292537477E9, 2021-05-14 14:03:49.253
81.0, -154.60372924804688, -3.8146979808807373, -21.702638626098633, 109.44256591796875, 0.03200000151991844, -0.04800000041723251, 1.055999994277954, 0.0, 0.0, 0.0, 0.0, 0.0, 1.6209938292544749E9, 2021-05-14 14:03:49.254
81.0, -159.6488494873047, -6.376529216766357, -22.274843215942383, 116.13323974609375, 0.03200000151991844, -0.04800000041723251, 1.055999994277954, 0.0, 0.0, 0.0, 0.0, 0.0, 1.6209938292544749E9, 2021-05-14 14:03:49.254
82.0, -158.19029235839844, -8.044525146484375, -21.81109619140625, 115.01875305175781, 0.03200000151991844, -0.04800000041723251, 1.055999994277954, 0.0, 0.0, 0.0, 0.0, 0.0, 1.620993829268006E9, 2021-05-14 14:03:49.268
82.0, -157.64051818847656, 5.430334568023682, -17.555089950561523, 119.19995880126953, 0.03200000151991844, -0.04800000041723251, 1.055999994277954, 0.0, 0.0, 0.0, 0.0, 0.0, 1.620993829268006E9, 2021-05-14 14:03:49.268
83.0, -162.2854766845703, -5.9427008628845215, -25.248064041137695, 106.09161376953125, 0.03200000151991844, -0.04800000041723251, 1.055999994277954, 0.0, 0.0, 0.0, 0.0, 0.0, 1.620993829283708E9, 2021-05-14 14:03:49.283
83.0, -163.73655700683594, -7.902408599853516, -25.86888885498047, 107.0228500366211, 0.03200000151991844, -0.04800000041723251, 1.055999994277954, 0.0, 0.0, 0.0, 0.0, 0.0, 1.620993829283708E9, 2021-05-14 14:03:49.283
84.0, -165.33349609375, -1.3089649677276611, -21.665241241455078, 111.20779418945312, 0.03200000151991844, -0.04800000041723251, 1.055999994277954, 0.0, 0.0, 0.0, 0.0, 0.0, 1.6209938292845695E9, 2021-05-14 14:03:49.284
84.0, -171.82595825195312, 0.17577530443668365, -26.916059494018555, 94.74101257324219, 0.03200000151991844, -0.04800000041723251, 1.055999994277954, 0.0, 0.0, 0.0, 0.0, 0.0, 1.6209938292845695E9, 2021-05-14 14:03:49.284
85.0, -162.28921508789062, 5.321877479553223, -22.45435905456543, 93.28619384765625, 0.03200000151991844, -0.04800000041723251, 1.055999994277954, 0.0, 0.0, 0.0, 0.0, 0.0, 1.620993829297966E9, 2021-05-14 14:03:49.297
85.0, -167.798095703125, 7.775251865386963, -23.50153160095215, 91.07591247558594, 0.03200000151991844, -0.04800000041723251, 1.055999994277954, 0.0, 0.0, 0.0, 0.0, 0.0, 1.620993829297966E9, 2021-05-14 14:03:49.297
86.0, -168.3067169189453, -0.9013158679008484, -32.26785659790039, 86.83486938476562, 0.03200000151991844, -0.04800000041723251, 1.055999994277954, 0.0, 0.0, 0.0, 0.0, 0.0, 1.6209938293138309E9, 2021-05-14 14:03:49.313
86.0, -161.16725158691406, 8.605509757995605, -23.179899215698242, 88.8768539428711, 0.03200000151991844, -0.04800000041723251, 1.055999994277954, 0.0, 0.0, 0.0, 0.0, 0.0, 1.6209938293138309E9, 2021-05-14 14:03:49.313
87.0, -160.2472381591797, 11.668487548828125, -24.776836395263672, 88.39066314697266, 0.03200000151991844, -0.04800000041723251, 1.055999994277954, 0.0, 0.0, 0.0, 0.0, 0.0, 1.6209938293145745E9, 2021-05-14 14:03:49.314
87.0, -156.9822998046875, 15.572943687438965, -24.975051879882812, 95.1037826538086, 0.03200000151991844, -0.04800000041723251, 1.055999994277954, 0.0, 0.0, 0.0, 0.0, 0.0, 1.6209938293145745E9, 2021-05-14 14:03:49.314
88.0, -154.45413208007812, 4.850650310516357, -25.483678817749023, 102.84537506103516, 0.03200000151991844, -0.04800000041723251, 1.055999994277954, 0.0, 0.0, 0.0, 0.0, 0.0, 1.62099382932807E9, 2021-05-14 14:03:49.328
88.0, -155.31430053710938, 7.913628101348877, -19.365201950073242, 101.86552429199219, 0.03200000151991844, -0.04800000041723251, 1.055999994277954, 0.0, 0.0, 0.0, 0.0, 0.0, 1.62099382932807E9, 2021-05-14 14:03:49.328
89.0, -151.9259490966797, 2.905902147293091, -18.437705993652344, 110.10826110839844, 0.03200000151991844, -0.04800000041723251, 1.055999994277954, 0.0, 0.0, 0.0, 0.0, 0.0, 1.6209938293442917E9, 2021-05-14 14:03:49.344
89.0, -160.36317443847656, -3.3808696269989014, -22.106548309326172, 108.3318099975586, 0.03200000151991844, -0.04800000041723251, 1.055999994277954, 0.0, 0.0, 0.0, 0.0, 0.0, 1.6209938293442917E9, 2021-05-14 14:03:49.344
90.0, -155.5386962890625, 5.172281742095947, -14.761384963989258, 116.87000274658203, 0.03200000151991844, -0.04800000041723251, 1.055999994277954, 0.0, 0.0, 0.0, 0.0, 0.0, 1.6209938293591306E9, 2021-05-14 14:03:49.359
90.0, -167.6597137451172, -6.481246471405029, -27.391027450561523, 100.82957458496094, 0.03200000151991844, -0.04800000041723251, 1.055999994277954, 0.0, 0.0, 0.0, 0.0, 0.0, 1.6209938293591306E9, 2021-05-14 14:03:49.359
91.0, -163.6318359375, -1.7091342210769653, -27.56306266784668, 102.41529083251953, 0.03200000151991844, -0.04800000041723251, 1.055999994277954, 0.0, 0.0, 0.0, 0.0, 0.0, 1.6209938293745286E9, 2021-05-14 14:03:49.374
91.0, -158.23890686035156, -2.692728042602539, -26.448572158813477, 106.42072296142578, 0.03200000151991844, -0.04800000041723251, 1.055999994277954, 0.0, 0.0, 0.0, 0.0, 0.0, 1.6209938293745286E9, 2021-05-14 14:03:49.374
92.0, -161.99002075195312, -0.6096037030220032, -23.523971557617188, 108.41034698486328, 0.03200000151991844, -0.04800000041723251, 1.055999994277954, 0.0, 0.0, 0.0, 0.0, 0.0, 1.6209938293752575E9, 2021-05-14 14:03:49.375
92.0, -162.13961791992188, 2.1878414154052734, -17.618669509887695, 102.49756622314453, 0.03200000151991844, -0.04800000041723251, 1.055999994277954, 0.0, 0.0, 0.0, 0.0, 0.0, 1.6209938293752575E9, 2021-05-14 14:03:49.375
93.0, -170.6890411376953, -4.8244709968566895, -23.497791290283203, 92.52699279785156, 0.03200000151991844, -0.04800000041723251, 1.055999994277954, 0.0, 0.0, 0.0, 0.0, 0.0, 1.6209938293759327E9, 2021-05-14 14:03:49.375
93.0, -167.81678771972656, 6.8253173828125, -21.250110626220703, 99.37849426269531, 0.03200000151991844, -0.04800000041723251, 1.055999994277954, 0.0, 0.0, 0.0, 0.0, 0.0, 1.6209938293759327E9, 2021-05-14 14:03:49.375
94.0, -172.18125915527344, -3.7885186672210693, -26.111982345581055, 98.271484375, 0.03200000151991844, -0.04800000041723251, 1.055999994277954, 0.0, 0.0, 0.0, 0.0, 0.0, 1.6209938293880749E9, 2021-05-14 14:03:49.388
94.0, -155.2357635498047, 10.194967269897461, -10.34082317352295, 106.3870620727539, 0.03200000151991844, -0.04800000041723251, 1.055999994277954, 0.0, 0.0, 0.0, 0.0, 0.0, 1.6209938293880749E9, 2021-05-14 14:03:49.388
95.0, -158.60916137695312, 4.46544075012207, -23.546409606933594, 89.31068420410156, 0.03200000151991844, -0.04800000041723251, 1.055999994277954, 0.0, 0.0, 0.0, 0.0, 0.0, 1.62099382940353E9, 2021-05-14 14:03:49.403
95.0, -163.40745544433594, 14.290157318115234, -27.144193649291992, 90.4027328491211, 0.03200000151991844, -0.04800000041723251, 1.055999994277954, 0.0, 0.0, 0.0, 0.0, 0.0, 1.62099382940353E9, 2021-05-14 14:03:49.403
96.0, -167.05384826660156, 10.071550369262695, -27.024517059326172, 96.45762634277344, 0.03200000151991844, -0.04800000041723251, 1.055999994277954, 0.0, 0.0, 0.0, 0.0, 0.0, 1.6209938294187248E9, 2021-05-14 14:03:49.418
96.0, -161.4813995361328, 5.613589763641357, -20.120662689208984, 99.2176742553711, 0.03200000151991844, -0.04800000041723251, 1.055999994277954, 0.0, 0.0, 0.0, 0.0, 0.0, 1.6209938294187248E9, 2021-05-14 14:03:49.418
97.0, -154.6972198486328, 2.3785762786865234, -17.891681671142578, 104.86492156982422, 0.03200000151991844, -0.04800000041723251, 1.055999994277954, 0.0, 0.0, 0.0, 0.0, 0.0, 1.6209938294195611E9, 2021-05-14 14:03:49.419
97.0, -155.92764282226562, 10.086509704589844, -18.25819206237793, 112.61399841308594, 0.03200000151991844, -0.04800000041723251, 1.055999994277954, 0.0, 0.0, 0.0, 0.0, 0.0, 1.6209938294195611E9, 2021-05-14 14:03:49.419
98.0, -157.19921875, 5.239599704742432, -15.060577392578125, 113.0852279663086, 0.03200000151991844, -0.04800000041723251, 1.055999994277954, 0.0, 0.0, 0.0, 0.0, 0.0, 1.620993829433694E9, 2021-05-14 14:03:49.433
98.0, -151.11065673828125, 13.631935119628906, -6.541085243225098, 116.03600311279297, 0.03200000151991844, -0.04800000041723251, 1.055999994277954, 0.0, 0.0, 0.0, 0.0, 0.0, 1.620993829433694E9, 2021-05-14 14:03:49.433
99.0, -157.2029571533203, 7.487279891967773, -6.731820106506348, 110.4972152709961, 0.03200000151991844, -0.04800000041723251, 1.055999994277954, 0.0, 0.0, 0.0, 0.0, 0.0, 1.6209938294345045E9, 2021-05-14 14:03:49.434
99.0, -161.8553924560547, -5.090003967285156, -15.677660942077637, 104.70037078857422, 0.03200000151991844, -0.04800000041723251, 1.055999994277954, 0.0, 0.0, 0.0, 0.0, 0.0, 1.6209938294345045E9, 2021-05-14 14:03:49.434
100.0, -158.4707794189453, -1.8288110494613647, -6.268072128295898, 109.98484802246094, 0.03200000151991844, -0.04800000041723251, 1.055999994277954, 0.0, 0.0, 0.0, 0.0, 0.0, 1.6209938294651027E9, 2021-05-14 14:03:49.465
100.0, -160.73341369628906, -6.57474422454834, -11.455313682556152, 101.61869049072266, 0.03200000151991844, -0.04800000041723251, 1.055999994277954, 0.0, 0.0, 0.0, 0.0, 0.0, 1.6209938294651027E9, 2021-05-14 14:03:49.465
0.0, -173.57437133789062, -1.4641708135604858, -21.231412887573242, 96.87088775634766, 0.03200000151991844, -0.04800000041723251, 1.055999994277954, 0.0, 0.0, 0.0, 0.0, 0.0, 1.6209938294658237E9, 2021-05-14 14:03:49.465
1.0, -161.69644165039062, 1.5875874757766724, -21.231412887573242, 99.93386840820312, 0.03200000151991844, -0.04800000041723251, 1.055999994277954, 0.0, 0.0, 0.0, 0.0, 0.0, 1.6209938294666777E9, 2021-05-14 14:03:49.466
1.0, -167.8373565673828, 4.216737270355225, -26.575729370117188, 97.51789093017578, 0.03200000151991844, -0.04800000041723251, 1.055999994277954, 0.0, 0.0, 0.0, 0.0, 0.0, 1.6209938294666777E9, 2021-05-14 14:03:49.466
2.0, -167.50076293945312, 7.115159511566162, -24.99001121520996, 86.904052734375, 0.03200000151991844, -0.04800000041723251, 1.055999994277954, 0.0, 0.0, 0.0, 0.0, 0.0, 1.6209938294673116E9, 2021-05-14 14:03:49.467
2.0, -166.7041778564453, -0.5291958451271057, -27.544363021850586, 89.73889923095703, 0.03200000151991844, -0.04800000041723251, 1.055999994277954, 0.0, 0.0, 0.0, 0.0, 0.0, 1.6209938294673116E9, 2021-05-14 14:03:49.467
3.0, -166.41993713378906, 4.325194358825684, -33.41226577758789, 91.75096893310547, 0.03200000151991844, -0.04800000041723251, 1.055999994277954, 0.0, 0.0, 0.0, 0.0, 0.0, 1.6209938294780676E9, 2021-05-14 14:03:49.478
3.0, -154.6916046142578, -2.2046709060668945, -30.199691772460938, 98.2022933959961, 0.03200000151991844, -0.04800000041723251, 1.055999994277954, 0.0, 0.0, 0.0, 0.0, 0.0, 1.6209938294780676E9, 2021-05-14 14:03:49.478
4.0, -157.47409057617188, 2.6048402786254883, -26.616867065429688, 100.36395263671875, 0.03200000151991844, -0.04800000041723251, 1.055999994277954, 0.0, 0.0, 0.0, 0.0, 0.0, 1.6209938294930787E9, 2021-05-14 14:03:49.493
4.0, -154.59437561035156, 3.711850643157959, -26.426132202148438, 101.05957794189453, 0.03200000151991844, -0.04800000041723251, 1.055999994277954, 0.0, 0.0, 0.0, 0.0, 0.0, 1.6209938294930787E9, 2021-05-14 14:03:49.493
5.0, -155.00576782226562, -0.652612566947937, -26.336376190185547, 107.87741088867188, 0.03200000151991844, -0.04800000041723251, 1.055999994277954, 0.0, 0.0, 0.0, 0.0, 0.0, 1.6209938295088208E9, 2021-05-14 14:03:49.508
5.0, -157.9116668701172, -5.499522686004639, -28.81218910217285, 108.7413330078125, 0.03200000151991844, -0.04800000041723251, 1.055999994277954, 0.0, 0.0, 0.0, 0.0, 0.0, 1.6209938295088208E9, 2021-05-14 14:03:49.508
6.0, -153.2592315673828, 3.3976991176605225, -20.4759521484375, 112.99359893798828, 0.03200000151991844, -0.04800000041723251, 1.055999994277954, 0.0, 0.0, 0.0, 0.0, 0.0, 1.6209938295096316E9, 2021-05-14 14:03:49.509
6.0, -155.01698303222656, -1.0714813470840454, -16.818330764770508, 111.86415100097656, 0.03200000151991844, -0.04800000041723251, 1.055999994277954, 0.0, 0.0, 0.0, 0.0, 0.0, 1.6209938295096316E9, 2021-05-14 14:03:49.509
7.0, -155.05812072753906, -3.517375946044922, -18.35542869567871, 114.16792297363281, 0.03200000151991844, -0.04800000041723251, 1.055999994277954, 0.0, 0.0, 0.0, 0.0, 0.0, 1.620993829523098E9, 2021-05-14 14:03:49.523
7.0, -154.59063720703125, 3.6220932006835938, -14.753905296325684, 113.26287078857422, 0.03200000151991844, -0.04800000041723251, 1.055999994277954, 0.0, 0.0, 0.0, 0.0, 0.0, 1.620993829523098E9, 2021-05-14 14:03:49.523
8.0, -163.36817932128906, -1.3706732988357544, -12.618422508239746, 104.95655059814453, 0.03200000151991844, -0.04800000041723251, 1.055999994277954, 0.0, 0.0, 0.0, 0.0, 0.0, 1.620993829538709E9, 2021-05-14 14:03:49.538
8.0, -161.46083068847656, 6.355959892272949, -20.04586410522461, 97.24114227294922, 0.03200000151991844, -0.04800000041723251, 1.055999994277954, 0.0, 0.0, 0.0, 0.0, 0.0, 1.620993829538709E9, 2021-05-14 14:03:49.538
9.0, -164.1573028564453, 6.901985168457031, -25.842708587646484, 101.14933776855469, 0.03200000151991844, -0.04800000041723251, 1.055999994277954, 0.0, 0.0, 0.0, 0.0, 0.0, 1.6209938295394704E9, 2021-05-14 14:03:49.539
9.0, -160.02096557617188, -1.5314890146255493, -27.75379753112793, 94.53719329833984, 0.03200000151991844, -0.04800000041723251, 1.055999994277954, 0.0, 0.0, 0.0, 0.0, 0.0, 1.6209938295394704E9, 2021-05-14 14:03:49.539
10.0, -156.3932647705078, 4.112020015716553, -18.725679397583008, 100.7940444946289, 0.03200000151991844, -0.04800000041723251, 1.055999994277954, 0.0, 0.0, 0.0, 0.0, 0.0, 1.620993829553074E9, 2021-05-14 14:03:49.553
10.0, -159.83023071289062, -0.6226933598518372, -27.963232040405273, 97.76846313476562, 0.03200000151991844, -0.04800000041723251, 1.055999994277954, 0.0, 0.0, 0.0, 0.0, 0.0, 1.620993829553074E9, 2021-05-14 14:03:49.553
11.0, -160.89236450195312, -8.547541618347168, -31.912567138671875, 106.76292419433594, 0.03200000151991844, -0.04800000041723251, 1.055999994277954, 0.0, 0.0, 0.0, 0.0, 0.0, 1.620993829569374E9, 2021-05-14 14:03:49.569
11.0, -150.31967163085938, -3.7455098628997803, -25.285463333129883, 111.66967010498047, 0.03200000151991844, -0.04800000041723251, 1.055999994277954, 0.0, 0.0, 0.0, 0.0, 0.0, 1.620993829569374E9, 2021-05-14 14:03:49.569
12.0, -162.451904296875, -12.481916427612305, -30.891572952270508, 103.9280776977539, 0.03200000151991844, -0.04800000041723251, 1.055999994277954, 0.0, 0.0, 0.0, 0.0, 0.0, 1.6209938295701413E9, 2021-05-14 14:03:49.570
12.0, -163.6935577392578, -6.9319047927856445, -35.630027770996094, 100.01988220214844, 0.03200000151991844, -0.04800000041723251, 1.055999994277954, 0.0, 0.0, 0.0, 0.0, 0.0, 1.6209938295701413E9, 2021-05-14 14:03:49.570
13.0, -155.8696746826172, -0.37959983944892883, -27.24517059326172, 111.61731719970703, 0.03200000151991844, -0.04800000041723251, 1.055999994277954, 0.0, 0.0, 0.0, 0.0, 0.0, 1.6209938295994003E9, 2021-05-14 14:03:49.599
13.0, -163.65615844726562, -5.443424224853516, -22.712411880493164, 115.05802154541016, 0.03200000151991844, -0.04800000041723251, 1.055999994277954, 0.0, 0.0, 0.0, 0.0, 0.0, 1.6209938295994003E9, 2021-05-14 14:03:49.599
14.0, -160.98587036132812, -1.0527818202972412, -23.531450271606445, 106.8152847290039, 0.03200000151991844, -0.04800000041723251, 1.055999994277954, 0.0, 0.0, 0.0, 0.0, 0.0, 1.6209938296000805E9, 2021-05-14 14:03:49.600
14.0, -159.47120666503906, -1.426771879196167, -21.870935440063477, 107.3613052368164, 0.03200000151991844, -0.04800000041723251, 1.055999994277954, 0.0, 0.0, 0.0, 0.0, 0.0, 1.6209938296000805E9, 2021-05-14 14:03:49.600
15.0, -158.81298828125, -3.491196632385254, -22.910627365112305, 112.87017822265625, 0.03200000151991844, -0.04800000041723251, 1.055999994277954, 0.0, 0.0, 0.0, 0.0, 0.0, 1.6209938296008534E9, 2021-05-14 14:03:49.600
15.0, -154.92723083496094, -5.320007801055908, -13.474859237670898, 111.93146514892578, 0.03200000151991844, -0.04800000041723251, 1.055999994277954, 0.0, 0.0, 0.0, 0.0, 0.0, 1.6209938296008534E9, 2021-05-14 14:03:49.600
16.0, -158.99249267578125, -9.329180717468262, -15.464486122131348, 112.63456726074219, 0.03200000151991844, -0.04800000041723251, 1.055999994277954, 0.0, 0.0, 0.0, 0.0, 0.0, 1.6209938296131685E9, 2021-05-14 14:03:49.613
16.0, -158.95135498046875, -6.838407039642334, -14.062024116516113, 108.23270416259766, 0.03200000151991844, -0.04800000041723251, 1.055999994277954, 0.0, 0.0, 0.0, 0.0, 0.0, 1.6209938296131685E9, 2021-05-14 14:03:49.613
17.0, -156.50546264648438, -3.954944133758545, -11.978899955749512, 101.75145721435547, 0.03200000151991844, -0.04800000041723251, 1.055999994277954, 0.0, 0.0, 0.0, 0.0, 0.0, 1.6209938296287851E9, 2021-05-14 14:03:49.628
17.0, -162.76231384277344, 4.396252632141113, -3.642662525177002, 106.9798355102539, 0.03200000151991844, -0.04800000041723251, 1.055999994277954, 0.0, 0.0, 0.0, 0.0, 0.0, 1.6209938296287851E9, 2021-05-14 14:03:49.628
18.0, -149.59413146972656, 7.0665411949157715, -2.879723072052002, 103.63262939453125, 0.03200000151991844, -0.04800000041723251, 1.055999994277954, 0.0, 0.0, 0.0, 0.0, 0.0, 1.6209938296294808E9, 2021-05-14 14:03:49.629
18.0, -162.85955810546875, 0.8470873236656189, -16.268564224243164, 91.44803619384766, 0.03200000151991844, -0.04800000041723251, 1.055999994277954, 0.0, 0.0, 0.0, 0.0, 0.0, 1.6209938296294808E9, 2021-05-14 14:03:49.629
19.0, -159.93121337890625, -8.360546112060547, -24.795536041259766, 95.42728424072266, 0.03200000151991844, -0.04800000041723251, 1.055999994277954, 0.0, 0.0, 0.0, 0.0, 0.0, 1.6209938296431942E9, 2021-05-14 14:03:49.643
19.0, -154.50462341308594, -0.6900115609169006, -13.635675430297852, 100.8538818359375, 0.03200000151991844, -0.04800000041723251, 1.055999994277954, 0.0, 0.0, 0.0, 0.0, 0.0, 1.6209938296431942E9, 2021-05-14 14:03:49.643
20.0, -161.4832763671875, -3.0723278522491455, -18.721939086914062, 107.24536895751953, 0.03200000151991844, -0.04800000041723251, 1.055999994277954, 0.0, 0.0, 0.0, 0.0, 0.0, 1.6209938296587849E9, 2021-05-14 14:03:49.658
20.0, -157.11880493164062, -8.278268814086914, -25.233104705810547, 102.94074249267578, 0.03200000151991844, -0.04800000041723251, 1.055999994277954, 0.0, 0.0, 0.0, 0.0, 0.0, 1.6209938296587849E9, 2021-05-14 14:03:49.658
21.0, -153.40882873535156, -1.7072643041610718, -16.347103118896484, 108.34490203857422, 0.03200000151991844, -0.06400000303983688, 1.055999994277954, 0.0, 0.0, 0.0, 0.0, 0.0, 1.620993829659528E9, 2021-05-14 14:03:49.659
21.0, -155.4208984375, -6.43823766708374, -17.338176727294922, 106.50112915039062, 0.03200000151991844, -0.06400000303983688, 1.055999994277954, 0.0, 0.0, 0.0, 0.0, 0.0, 1.620993829659528E9, 2021-05-14 14:03:49.659
22.0, -147.9523162841797, -8.884132385253906, -23.643648147583008, 107.256591796875, 0.03200000151991844, -0.06400000303983688, 1.055999994277954, 0.0, 0.0, 0.0, 0.0, 0.0, 1.620993829673041E9, 2021-05-14 14:03:49.673
22.0, -159.55722045898438, -11.973289489746094, -24.167234420776367, 105.52127838134766, 0.03200000151991844, -0.06400000303983688, 1.055999994277954, 0.0, 0.0, 0.0, 0.0, 0.0, 1.620993829673041E9, 2021-05-14 14:03:49.673
23.0, -151.7146453857422, -1.48287034034729, -23.292097091674805, 112.96741485595703, 0.03200000151991844, -0.06400000303983688, 1.055999994277954, 0.0, 0.0, 0.0, 0.0, 0.0, 1.6209938296887956E9, 2021-05-14 14:03:49.688
23.0, -158.91769409179688, 0.5142362713813782, -25.10968780517578, 111.18348693847656, 0.03200000151991844, -0.06400000303983688, 1.055999994277954, 0.0, 0.0, 0.0, 0.0, 0.0, 1.6209938296887956E9, 2021-05-14 14:03:49.688
24.0, -160.55203247070312, -0.6114736199378967, -23.651126861572266, 111.29568481445312, 0.03200000151991844, -0.06400000303983688, 1.055999994277954, 0.0, 0.0, 0.0, 0.0, 0.0, 1.6209938296895688E9, 2021-05-14 14:03:49.689
24.0, -169.08274841308594, -9.650812149047852, -32.84379959106445, 101.2540512084961, 0.03200000151991844, -0.06400000303983688, 1.055999994277954, 0.0, 0.0, 0.0, 0.0, 0.0, 1.6209938296895688E9, 2021-05-14 14:03:49.689
25.0, -165.30918884277344, -0.42073875665664673, -26.138160705566406, 109.968017578125, 0.03200000151991844, -0.06400000303983688, 1.055999994277954, 0.0, 0.0, 0.0, 0.0, 0.0, 1.6209938297030442E9, 2021-05-14 14:03:49.703
25.0, -172.4149932861328, 7.294674873352051, -20.59562873840332, 105.55493927001953, 0.03200000151991844, -0.06400000303983688, 1.055999994277954, 0.0, 0.0, 0.0, 0.0, 0.0, 1.6209938297030442E9, 2021-05-14 14:03:49.703
26.0, -164.5350341796875, 12.410858154296875, -8.414774894714355, 103.94303894042969, 0.03200000151991844, -0.06400000303983688, 1.055999994277954, 0.0, 0.0, 0.0, 0.0, 0.0, 1.6209938297188065E9, 2021-05-14 14:03:49.718
26.0, -163.65615844726562, 5.271389007568359, -14.477152824401855, 95.03833770751953, 0.03200000151991844, -0.06400000303983688, 1.055999994277954, 0.0, 0.0, 0.0, 0.0, 0.0, 1.6209938297188065E9, 2021-05-14 14:03:49.718
27.0, -151.0040740966797, 0.31602153182029724, -14.944640159606934, 85.73346710205078, 0.03200000151991844, -0.06400000303983688, 1.055999994277954, 0.0, 0.0, 0.0, 0.0, 0.0, 1.6209938297195804E9, 2021-05-14 14:03:49.719
27.0, -150.67869567871094, 6.374659538269043, -13.680554389953613, 91.18250274658203, 0.03200000151991844, -0.06400000303983688, 1.055999994277954, 0.0, 0.0, 0.0, 0.0, 0.0, 1.6209938297195804E9, 2021-05-14 14:03:49.719
28.0, -148.2814178466797, 1.8381608724594116, -15.875875473022461, 86.51510620117188, 0.03200000151991844, -0.06400000303983688, 1.055999994277954, 0.0, 0.0, 0.0, 0.0, 0.0, 1.6209938297330408E9, 2021-05-14 14:03:49.733
28.0, -162.79971313476562, -7.9117584228515625, -26.830041885375977, 77.71511840820312, 0.03200000151991844, -0.06400000303983688, 1.055999994277954, 0.0, 0.0, 0.0, 0.0, 0.0, 1.6209938297330408E9, 2021-05-14 14:03:49.733
29.0, -157.15994262695312, -6.217583656311035, -25.40888023376465, 91.42559051513672, 0.03200000151991844, -0.06400000303983688, 1.055999994277954, 0.0, 0.0, 0.0, 0.0, 0.0, 1.620993829748498E9, 2021-05-14 14:03:49.748
29.0, -162.67630004882812, 6.397099018096924, -24.67959976196289, 100.67436981201172, 0.03200000151991844, -0.06400000303983688, 1.055999994277954, 0.0, 0.0, 0.0, 0.0, 0.0, 1.620993829748498E9, 2021-05-14 14:03:49.748
30.0, -157.45166015625, 1.7895420789718628, -23.307056427001953, 100.49858856201172, 0.03200000151991844, -0.06400000303983688, 1.055999994277954, 0.0, 0.0, 0.0, 0.0, 0.0, 1.620993829763696E9, 2021-05-14 14:03:49.763
30.0, -146.8079071044922, -2.320607900619507, -19.45870018005371, 109.2237777709961, 0.03200000151991844, -0.06400000303983688, 1.055999994277954, 0.0, 0.0, 0.0, 0.0, 0.0, 1.620993829763696E9, 2021-05-14 14:03:49.763
31.0, -158.48387145996094, -4.085840702056885, -25.13212776184082, 110.01289367675781, 0.03200000151991844, -0.04800000041723251, 1.055999994277954, 0.0, 0.0, 0.0, 0.0, 0.0, 1.6209938297645724E9, 2021-05-14 14:03:49.764
31.0, -159.37022399902344, -12.40711784362793, -23.83812141418457, 113.91735076904297, 0.03200000151991844, -0.04800000041723251, 1.055999994277954, 0.0, 0.0, 0.0, 0.0, 0.0, 1.6209938297645724E9, 2021-05-14 14:03:49.764
32.0, -150.7086181640625, -5.417244911193848, -23.123802185058594, 119.30281066894531, 0.03200000151991844, -0.04800000041723251, 1.055999994277954, 0.0, 0.0, 0.0, 0.0, 0.0, 1.6209938297788696E9, 2021-05-14 14:03:49.778
32.0, -151.5575714111328, -10.466110229492188, -22.734851837158203, 108.64035034179688, 0.03200000151991844, -0.04800000041723251, 1.055999994277954, 0.0, 0.0, 0.0, 0.0, 0.0, 1.6209938297788696E9, 2021-05-14 14:03:49.778
33.0, -157.3319854736328, -4.766502380371094, -26.02222442626953, 113.91361236572266, 0.03200000151991844, -0.04800000041723251, 1.055999994277954, 0.0, 0.0, 0.0, 0.0, 0.0, 1.6209938297795944E9, 2021-05-14 14:03:49.779
33.0, -155.85472106933594, -4.549588203430176, -15.75619888305664, 119.90867614746094, 0.03200000151991844, -0.04800000041723251, 1.055999994277954, 0.0, 0.0, 0.0, 0.0, 0.0, 1.6209938297795944E9, 2021-05-14 14:03:49.779
34.0, -158.1584930419922, -0.37959983944892883, -17.786964416503906, 114.54191589355469, 0.03200000151991844, -0.04800000041723251, 1.055999994277954, 0.0, 0.0, 0.0, 0.0, 0.0, 1.620993829793161E9, 2021-05-14 14:03:49.793
34.0, -158.9214324951172, -4.126979827880859, -18.867795944213867, 116.61382293701172, 0.03200000151991844, -0.04800000041723251, 1.055999994277954, 0.0, 0.0, 0.0, 0.0, 0.0, 1.620993829793161E9, 2021-05-14 14:03:49.793
35.0, -163.14752197265625, -1.0640015602111816, -18.074935913085938, 115.66388702392578, 0.03200000151991844, -0.04800000041723251, 1.055999994277954, 0.0, 0.0, 0.0, 0.0, 0.0, 1.6209938298085775E9, 2021-05-14 14:03:49.808
35.0, -162.6538543701172, -1.6324663162231445, -21.654020309448242, 107.9783935546875, 0.03200000151991844, -0.04800000041723251, 1.055999994277954, 0.0, 0.0, 0.0, 0.0, 0.0, 1.6209938298085775E9, 2021-05-14 14:03:49.808
36.0, -155.1179656982422, 5.518222332000732, -17.405494689941406, 98.3070068359375, 0.03200000151991844, -0.04800000041723251, 1.055999994277954, 0.0, 0.0, 0.0, 0.0, 0.0, 1.6209938298242471E9, 2021-05-14 14:03:49.824
36.0, -158.8017578125, -4.482270240783691, -26.77768325805664, 90.55046081542969, 0.03200000151991844, -0.04800000041723251, 1.055999994277954, 0.0, 0.0, 0.0, 0.0, 0.0, 1.6209938298242471E9, 2021-05-14 14:03:49.824
37.0, -151.27334594726562, -1.456691026687622, -20.64424705505371, 94.11458587646484, 0.03200000151991844, -0.04800000041723251, 1.055999994277954, 0.0, 0.0, 0.0, 0.0, 0.0, 1.620993829839403E9, 2021-05-14 14:03:49.839
37.0, -154.77015686035156, 0.2374836504459381, -25.71181297302246, 91.85194396972656, 0.03200000151991844, -0.04800000041723251, 1.055999994277954, 0.0, 0.0, 0.0, 0.0, 0.0, 1.620993829839403E9, 2021-05-14 14:03:49.839
38.0, -145.09503173828125, 9.538615226745605, -19.8775691986084, 90.44947814941406, 0.03200000151991844, -0.04800000041723251, 1.055999994277954, 0.0, 0.0, 0.0, 0.0, 0.0, 1.6209938298402352E9, 2021-05-14 14:03:49.840
38.0, -144.84445190429688, 9.441377639770508, -14.892281532287598, 96.44080352783203, 0.03200000151991844, -0.04800000041723251, 1.055999994277954, 0.0, 0.0, 0.0, 0.0, 0.0, 1.6209938298402352E9, 2021-05-14 14:03:49.840
39.0, -157.51148986816406, -5.3013081550598145, -24.316829681396484, 89.36116790771484, 0.03200000151991844, -0.04800000041723251, 1.055999994277954, 0.0, 0.0, 0.0, 0.0, 0.0, 1.6209938298408637E9, 2021-05-14 14:03:49.840
39.0, -148.36370849609375, 1.1462793350219727, -17.936559677124023, 94.4100341796875, 0.03200000151991844, -0.04800000041723251, 1.055999994277954, 0.0, 0.0, 0.0, 0.0, 0.0, 1.6209938298408637E9, 2021-05-14 14:03:49.840
40.0, -145.7869110107422, 0.7124509215354919, -18.75933837890625, 98.9240951538086, 0.03200000151991844, -0.04800000041723251, 1.055999994277954, 0.0, 0.0, 0.0, 0.0, 0.0, 1.6209938298530636E9, 2021-05-14 14:03:49.853
40.0, -145.26332092285156, -0.14398615062236786, -24.44024658203125, 100.00492858886719, 0.03200000151991844, -0.04800000041723251, 1.055999994277954, 0.0, 0.0, 0.0, 0.0, 0.0, 1.6209938298530636E9, 2021-05-14 14:03:49.853
41.0, -154.95713806152344, -5.6304192543029785, -28.26242446899414, 95.78631591796875, 0.03200000151991844, -0.04800000041723251, 1.055999994277954, 0.0, 0.0, 0.0, 0.0, 0.0, 1.620993829868664E9, 2021-05-14 14:03:49.868
41.0, -144.50411987304688, -4.452351093292236, -8.867302894592285, 120.0433120727539, 0.03200000151991844, -0.04800000041723251, 1.055999994277954, 0.0, 0.0, 0.0, 0.0, 0.0, 1.620993829868664E9, 2021-05-14 14:03:49.868
42.0, -142.67156982421875, -3.117206573486328, -6.19327449798584, 119.14947509765625, 0.03200000151991844, -0.04800000041723251, 1.055999994277954, 0.0, 0.0, 0.0, 0.0, 0.0, 1.620993829869394E9, 2021-05-14 14:03:49.869
42.0, -168.24874877929688, -7.515328884124756, -17.28955841064453, 103.30725860595703, 0.03200000151991844, -0.04800000041723251, 1.055999994277954, 0.0, 0.0, 0.0, 0.0, 0.0, 1.620993829869394E9, 2021-05-14 14:03:49.869
43.0, -159.33282470703125, -4.500969409942627, -24.829195022583008, 109.90070343017578, 0.03200000151991844, -0.04800000041723251, 1.055999994277954, 0.0, 0.0, 0.0, 0.0, 0.0, 1.620993829883067E9, 2021-05-14 14:03:49.883
43.0, -159.21688842773438, -4.2129974365234375, -16.474258422851562, 111.56121826171875, 0.03200000151991844, -0.04800000041723251, 1.055999994277954, 0.0, 0.0, 0.0, 0.0, 0.0, 1.620993829883067E9, 2021-05-14 14:03:49.883
44.0, -160.2864990234375, 3.3229010105133057, -15.883355140686035, 103.64384460449219, 0.03200000151991844, -0.04800000041723251, 1.055999994277954, 0.0, 0.0, 0.0, 0.0, 0.0, 1.620993829898689E9, 2021-05-14 14:03:49.898
44.0, -165.339111328125, -0.013089649379253387, -24.118614196777344, 99.63467407226562, 0.03200000151991844, -0.04800000041723251, 1.055999994277954, 0.0, 0.0, 0.0, 0.0, 0.0, 1.620993829898689E9, 2021-05-14 14:03:49.898
45.0, -167.8298797607422, -2.4739437103271484, -23.920400619506836, 98.57254028320312, 0.03200000151991844, -0.04800000041723251, 1.055999994277954, 0.0, 0.0, 0.0, 0.0, 0.0, 1.6209938298994932E9, 2021-05-14 14:03:49.899
45.0, -160.98960876464844, -4.235436916351318, -21.291250228881836, 94.70174407958984, 0.03200000151991844, -0.04800000041723251, 1.055999994277954, 0.0, 0.0, 0.0, 0.0, 0.0, 1.6209938298994932E9, 2021-05-14 14:03:49.899
46.0, -149.47071838378906, 1.2809157371520996, -17.371835708618164, 92.71585845947266, 0.03200000151991844, -0.04800000041723251, 1.055999994277954, 0.0, 0.0, 0.0, 0.0, 0.0, 1.6209938299450526E9, 2021-05-14 14:03:49.945
46.0, -162.36215209960938, -8.382986068725586, -25.685632705688477, 86.51136779785156, 0.03200000151991844, -0.04800000041723251, 1.055999994277954, 0.0, 0.0, 0.0, 0.0, 0.0, 1.6209938299450526E9, 2021-05-14 14:03:49.945
47.0, -151.06390380859375, 3.304201602935791, -13.646895408630371, 97.8656997680664, 0.03200000151991844, -0.04800000041723251, 1.055999994277954, 0.0, 0.0, 0.0, 0.0, 0.0, 1.620993829945566E9, 2021-05-14 14:03:49.945
47.0, -143.44947814941406, -0.8770065307617188, -16.410680770874023, 102.23016357421875, 0.03200000151991844, -0.04800000041723251, 1.055999994277954, 0.0, 0.0, 0.0, 0.0, 0.0, 1.620993829945566E9, 2021-05-14 14:03:49.945
48.0, -143.18020629882812, -4.9198384284973145, -16.171327590942383, 91.86690521240234, 0.03200000151991844, -0.04800000041723251, 1.055999994277954, 0.0, 0.0, 0.0, 0.0, 0.0, 1.6209938299464204E9, 2021-05-14 14:03:49.946
48.0, -142.06570434570312, 0.08788765221834183, -20.78636360168457, 98.34066772460938, 0.03200000151991844, -0.04800000041723251, 1.055999994277954, 0.0, 0.0, 0.0, 0.0, 0.0, 1.6209938299464204E9, 2021-05-14 14:03:49.946
49.0, -148.4646759033203, -4.2952752113342285, -27.28631019592285, 94.20807647705078, 0.03200000151991844, -0.04800000041723251, 1.055999994277954, 0.0, 0.0, 0.0, 0.0, 0.0, 1.6209938299595823E9, 2021-05-14 14:03:49.959
49.0, -146.9387969970703, -4.848780155181885, -19.11836814880371, 105.72322845458984, 0.03200000151991844, -0.04800000041723251, 1.055999994277954, 0.0, 0.0, 0.0, 0.0, 0.0, 1.6209938299595823E9, 2021-05-14 14:03:49.959
50.0, -148.70777893066406, -1.2883955240249634, -15.812296867370605, 111.53877258300781, 0.03200000151991844, -0.04800000041723251, 1.055999994277954, 0.0, 0.0, 0.0, 0.0, 0.0, 1.620993829960306E9, 2021-05-14 14:03:49.960
50.0, -155.25259399414062, -8.304448127746582, -17.17736053466797, 117.2757797241211, 0.03200000151991844, -0.04800000041723251, 1.055999994277954, 0.0, 0.0, 0.0, 0.0, 0.0, 1.620993829960306E9, 2021-05-14 14:03:49.960
51.0, -154.998291015625, -5.970750331878662, -19.80651092529297, 118.45758819580078, 0.03200000151991844, -0.04800000041723251, 1.055999994277954, 0.0, 0.0, 0.0, 0.0, 0.0, 1.6209938299609149E9, 2021-05-14 14:03:49.960
51.0, -162.2312469482422, -6.486856460571289, -21.48572540283203, 116.669921875, 0.03200000151991844, -0.04800000041723251, 1.055999994277954, 0.0, 0.0, 0.0, 0.0, 0.0, 1.6209938299609149E9, 2021-05-14 14:03:49.960
52.0, -155.4171600341797, -2.025155782699585, -17.435413360595703, 118.66328430175781, 0.03200000151991844, -0.04800000041723251, 1.055999994277954, 0.0, 0.0, 0.0, 0.0, 0.0, 1.620993829973219E9, 2021-05-14 14:03:49.973
52.0, -168.64892578125, -4.515929222106934, -20.113182067871094, 110.17371368408203, 0.03200000151991844, -0.04800000041723251, 1.055999994277954, 0.0, 0.0, 0.0, 0.0, 0.0, 1.620993829973219E9, 2021-05-14 14:03:49.973
53.0, -167.34742736816406, 4.736583232879639, -21.4034481048584, 107.39122772216797, 0.03200000151991844, -0.04800000041723251, 1.055999994277954, 0.0, 0.0, 0.0, 0.0, 0.0, 1.6209938299888773E9, 2021-05-14 14:03:49.988
53.0, -150.69740295410156, 10.649365425109863, -13.366402626037598, 121.44950866699219, 0.03200000151991844, -0.04800000041723251, 1.055999994277954, 0.0, 0.0, 0.0, 0.0, 0.0, 1.6209938299888773E9, 2021-05-14 14:03:49.988
54.0, -154.13436889648438, -8.334366798400879, -22.966726303100586, 104.99768829345703, 0.03200000151991844, -0.04800000041723251, 1.055999994277954, 0.0, 0.0, 0.0, 0.0, 0.0, 1.6209938299896457E9, 2021-05-14 14:03:49.989
54.0, -155.64527893066406, -13.884378433227539, -25.289203643798828, 94.97101593017578, 0.03200000151991844, -0.04800000041723251, 1.055999994277954, 0.0, 0.0, 0.0, 0.0, 0.0, 1.6209938299896457E9, 2021-05-14 14:03:49.989
55.0, -156.74481201171875, -3.786648750305176, -17.43915367126465, 95.82745361328125, 0.03200000151991844, -0.04800000041723251, 1.055999994277954, 0.0, 0.0, 0.0, 0.0, 0.0, 1.6209938300030525E9, 2021-05-14 14:03:50.003
55.0, -151.49400329589844, -10.784001350402832, -19.742931365966797, 99.21580505371094, 0.03200000151991844, -0.04800000041723251, 1.055999994277954, 0.0, 0.0, 0.0, 0.0, 0.0, 1.6209938300030525E9, 2021-05-14 14:03:50.003
56.0, -148.18045043945312, -4.613166809082031, -11.41043472290039, 103.69620513916016, 0.03200000151991844, -0.04800000041723251, 1.055999994277954, 0.0, 0.0, 0.0, 0.0, 0.0, 1.6209938300187647E9, 2021-05-14 14:03:50.018
56.0, -152.5374298095703, -7.103940010070801, -12.42394733428955, 104.40304565429688, 0.03200000151991844, -0.04800000041723251, 1.055999994277954, 0.0, 0.0, 0.0, 0.0, 0.0, 1.6209938300187647E9, 2021-05-14 14:03:50.018
57.0, -143.3223114013672, 0.5179761648178101, -14.690326690673828, 105.26322174072266, 0.03200000151991844, -0.04800000041723251, 1.055999994277954, 0.0, 0.0, 0.0, 0.0, 0.0, 1.6209938300195937E9, 2021-05-14 14:03:50.019
57.0, -145.94024658203125, -8.195990562438965, -10.763432502746582, 111.72950744628906, 0.03200000151991844, -0.04800000041723251, 1.055999994277954, 0.0, 0.0, 0.0, 0.0, 0.0, 1.6209938300195937E9, 2021-05-14 14:03:50.019
58.0, -150.5440673828125, -10.873759269714355, -12.180853843688965, 98.98393249511719, 0.03200000151991844, -0.04800000041723251, 1.055999994277954, 0.0, 0.0, 0.0, 0.0, 0.0, 1.6209938300494688E9, 2021-05-14 14:03:50.049
58.0, -149.80355834960938, -6.913205146789551, -9.746179580688477, 112.4961929321289, 0.03200000151991844, -0.04800000041723251, 1.055999994277954, 0.0, 0.0, 0.0, 0.0, 0.0, 1.6209938300494688E9, 2021-05-14 14:03:50.049
59.0, -150.13641357421875, -6.430757999420166, -9.802277565002441, 113.3376693725586, 0.03200000151991844, -0.04800000041723251, 1.055999994277954, 0.0, 0.0, 0.0, 0.0, 0.0, 1.620993830050209E9, 2021-05-14 14:03:50.050
59.0, -148.89476013183594, -11.389864921569824, -10.187487602233887, 115.43949127197266, 0.03200000151991844, -0.04800000041723251, 1.055999994277954, 0.0, 0.0, 0.0, 0.0, 0.0, 1.620993830050209E9, 2021-05-14 14:03:50.050
60.0, -148.84988403320312, -10.12951946258545, -15.670181274414062, 112.6158676147461, 0.03200000151991844, -0.04800000041723251, 1.055999994277954, 0.0, 0.0, 0.0, 0.0, 0.0, 1.6209938300509765E9, 2021-05-14 14:03:50.050
60.0, -145.98512268066406, -10.49976921081543, -15.771158218383789, 113.15067291259766, 0.03200000151991844, -0.04800000041723251, 1.055999994277954, 0.0, 0.0, 0.0, 0.0, 0.0, 1.6209938300509765E9, 2021-05-14 14:03:50.050
61.0, -151.14993286132812, -4.9198384284973145, -17.102561950683594, 110.29338836669922, 0.03200000151991844, -0.04800000041723251, 1.055999994277954, 0.0, 0.0, 0.0, 0.0, 0.0, 1.6209938300632064E9, 2021-05-14 14:03:50.063
61.0, -157.22726440429688, -14.146171569824219, -25.674413681030273, 108.07189178466797, 0.03200000151991844, -0.04800000041723251, 1.055999994277954, 0.0, 0.0, 0.0, 0.0, 0.0, 1.6209938300632064E9, 2021-05-14 14:03:50.063
62.0, -170.65350341796875, -11.700277328491211, -27.791196823120117, 102.08431243896484, 0.03200000151991844, -0.04800000041723251, 1.055999994277954, 0.0, 0.0, 0.0, 0.0, 0.0, 1.620993830078843E9, 2021-05-14 14:03:50.078
62.0, -154.2764892578125, -0.1552058458328247, -16.156368255615234, 112.5335922241211, 0.03200000151991844, -0.04800000041723251, 1.055999994277954, 0.0, 0.0, 0.0, 0.0, 0.0, 1.620993830078843E9, 2021-05-14 14:03:50.078
63.0, -162.9605255126953, -6.2549824714660645, -21.560523986816406, 108.42717742919922, 0.03200000151991844, -0.04800000041723251, 1.055999994277954, 0.0, 0.0, 0.0, 0.0, 0.0, 1.62099383007961E9, 2021-05-14 14:03:50.079
63.0, -152.76182556152344, -16.195636749267578, -17.323217391967773, 111.493896484375, 0.03200000151991844, -0.04800000041723251, 1.055999994277954, 0.0, 0.0, 0.0, 0.0, 0.0, 1.62099383007961E9, 2021-05-14 14:03:50.079
64.0, -153.977294921875, -7.997776031494141, -14.705286979675293, 105.0276107788086, 0.03200000151991844, -0.04800000041723251, 1.055999994277954, 0.0, 0.0, 0.0, 0.0, 0.0, 1.6209938300931354E9, 2021-05-14 14:03:50.093
64.0, -156.84579467773438, -10.982215881347656, -14.024624824523926, 108.98442840576172, 0.03200000151991844, -0.04800000041723251, 1.055999994277954, 0.0, 0.0, 0.0, 0.0, 0.0, 1.6209938300931354E9, 2021-05-14 14:03:50.093
65.0, -151.606201171875, -2.429064989089966, -12.569804191589355, 117.81806945800781, 0.03200000151991844, -0.04800000041723251, 1.055999994277954, 0.0, 0.0, 0.0, 0.0, 0.0, 1.6209938301087449E9, 2021-05-14 14:03:50.108
65.0, -149.6502227783203, -9.460077285766602, -6.769218921661377, 121.87586212158203, 0.03200000151991844, -0.04800000041723251, 1.055999994277954, 0.0, 0.0, 0.0, 0.0, 0.0, 1.6209938301087449E9, 2021-05-14 14:03:50.108
66.0, -143.2400360107422, -9.42641830444336, -9.63398265838623, 120.91470336914062, 0.03200000151991844, -0.04800000041723251, 1.055999994277954, 0.0, 0.0, 0.0, 0.0, 0.0, 1.6209938301095572E9, 2021-05-14 14:03:50.109
66.0, -145.09503173828125, -4.605686664581299, -6.567264556884766, 113.02725982666016, 0.03200000151991844, -0.04800000041723251, 1.055999994277954, 0.0, 0.0, 0.0, 0.0, 0.0, 1.6209938301095572E9, 2021-05-14 14:03:50.109
67.0, -148.97705078125, -9.871465682983398, -15.112936019897461, 107.86245727539062, 0.03200000151991844, -0.04800000041723251, 1.055999994277954, 0.0, 0.0, 0.0, 0.0, 0.0, 1.6209938301231308E9, 2021-05-14 14:03:50.123
67.0, -144.470458984375, -5.888472557067871, -7.8724894523620605, 114.37735748291016, 0.03200000151991844, -0.04800000041723251, 1.055999994277954, 0.0, 0.0, 0.0, 0.0, 0.0, 1.6209938301231308E9, 2021-05-14 14:03:50.123
68.0, -144.481689453125, -7.006702423095703, -12.285571098327637, 105.01264953613281, 0.03200000151991844, -0.04800000041723251, 1.055999994277954, 0.0, 0.0, 0.0, 0.0, 0.0, 1.6209938301387131E9, 2021-05-14 14:03:50.138
68.0, -154.75892639160156, -4.029742240905762, -14.922201156616211, 102.95944213867188, 0.03200000151991844, -0.04800000041723251, 1.055999994277954, 0.0, 0.0, 0.0, 0.0, 0.0, 1.6209938301387131E9, 2021-05-14 14:03:50.138
69.0, -158.2557373046875, -1.2098575830459595, -26.153120040893555, 96.56421661376953, 0.03200000151991844, -0.04800000041723251, 1.055999994277954, 0.0, 0.0, 0.0, 0.0, 0.0, 1.6209938301394513E9, 2021-05-14 14:03:50.139
69.0, -162.10035705566406, -4.198037624359131, -23.482831954956055, 103.91311645507812, 0.03200000151991844, -0.04800000041723251, 1.055999994277954, 0.0, 0.0, 0.0, 0.0, 0.0, 1.6209938301394513E9, 2021-05-14 14:03:50.139
70.0, -163.0390625, -4.452351093292236, -19.26048469543457, 106.91252136230469, 0.03200000151991844, -0.04800000041723251, 1.055999994277954, 0.0, 0.0, 0.0, 0.0, 0.0, 1.6209938301530457E9, 2021-05-14 14:03:50.153
70.0, -165.9412384033203, -11.068233489990234, -29.870580673217773, 99.75434875488281, 0.03200000151991844, -0.04800000041723251, 1.055999994277954, 0.0, 0.0, 0.0, 0.0, 0.0, 1.6209938301530457E9, 2021-05-14 14:03:50.153
71.0, -159.54226684570312, -6.999222755432129, -28.37462043762207, 103.23246002197266, 0.03200000151991844, -0.04800000041723251, 1.055999994277954, 0.0, 0.0, 0.0, 0.0, 0.0, 1.6209938301686647E9, 2021-05-14 14:03:50.168
71.0, -155.17031860351562, -11.352466583251953, -28.14274787902832, 109.27613830566406, 0.03200000151991844, -0.04800000041723251, 1.055999994277954, 0.0, 0.0, 0.0, 0.0, 0.0, 1.6209938301686647E9, 2021-05-14 14:03:50.168
72.0, -149.6053466796875, -14.490242004394531, -25.233104705810547, 103.75978088378906, 0.03200000151991844, -0.04800000041723251, 1.055999994277954, 0.0, 0.0, 0.0, 0.0, 0.0, 1.6209938301694767E9, 2021-05-14 14:03:50.169
72.0, -152.7954864501953, -14.946510314941406, -25.947425842285156, 102.94448852539062, 0.03200000151991844, -0.04800000041723251, 1.055999994277954, 0.0, 0.0, 0.0, 0.0, 0.0, 1.6209938301694767E9, 2021-05-14 14:03:50.169
