Sample Index, EXG Channel 0, EXG Channel 1, EXG Channel 2, EXG Channel 3, Accel Channel 0, Accel Channel 1, Accel Channel 2, Other, Other, Other, Other, Other, Timestamp, Timestamp (Formatted)
0.0, 42.232818603515625, -190.42636108398438, 67.46966552734375, 410.94769287109375, 0.0, 0.0, 0.0, 0.0, 0.0, 0.0, 0.0, 0.0, 1.6210016367163136E9, 2021-05-14 16:13:56.716
1.0, 46.22703170776367, -188.07022094726562, 62.82096862792969, 413.685302734375, 0.0, -0.04800000041723251, 0.0, 0.0, 0.0, 0.0, 0.0, 0.0, 1.6210016367309124E9, 2021-05-14 16:13:56.730
1.0, 55.27385330200195, -207.8542938232422, 67.76885986328125, 427.3658447265625, 0.0, -0.04800000041723251, 0.0, 0.0, 0.0, 0.0, 0.0, 0.0, 1.6210016367309124E9, 2021-05-14 16:13:56.730
2.0, 32.33704376220703, -199.764892578125, 64.52262115478516, 411.53485107421875, 0.03200000151991844, -0.04800000041723251, 0.0, 0.0, 0.0, 0.0, 0.0, 0.0, 1.6210016367315857E9, 2021-05-14 16:13:56.731
2.0, 21.913944244384766, -170.4590301513672, 62.97056579589844, 409.41058349609375, 0.03200000151991844, -0.04800000041723251, 0.0, 0.0, 0.0, 0.0, 0.0, 0.0, 1.6210016367315857E9, 2021-05-14 16:13:56.731
3.0, 40.47880554199219, -209.15203857421875, 72.34649658203125, 430.7803649902344, 0.03200000151991844, -0.04800000041723251, 0.0, 0.0, 0.0, 0.0, 0.0, 0.0, 1.6210016367321846E9, 2021-05-14 16:13:56.732
3.0, 42.872344970703125, -199.3460235595703, 76.21355438232422, 443.2304992675781, 0.03200000151991844, -0.04800000041723251, 0.0, 0.0, 0.0, 0.0, 0.0, 0.0, 1.6210016367321846E9, 2021-05-14 16:13:56.732
4.0, 22.501108169555664, -211.38848876953125, 63.913021087646484, 425.2191467285156, 0.03200000151991844, -0.04800000041723251, 0.0, 0.0, 0.0, 0.0, 0.0, 0.0, 1.6210016367452857E9, 2021-05-14 16:13:56.745
4.0, 43.21641540527344, -200.0902557373047, 75.58525085449219, 426.8572082519531, 0.03200000151991844, -0.04800000041723251, 0.0, 0.0, 0.0, 0.0, 0.0, 0.0, 1.6210016367452857E9, 2021-05-14 16:13:56.745
5.0, 52.89901351928711, -193.91567993164062, 78.82400512695312, 429.73321533203125, 0.03200000151991844, -0.04800000041723251, 0.0, 0.0, 0.0, 0.0, 0.0, 0.0, 1.6210016367604537E9, 2021-05-14 16:13:56.760
5.0, 68.63277435302734, -179.08323669433594, 81.7747802734375, 428.18487548828125, 0.03200000151991844, -0.04800000041723251, 0.0, 0.0, 0.0, 0.0, 0.0, 0.0, 1.6210016367604537E9, 2021-05-14 16:13:56.760
6.0, 40.15343475341797, -205.3971710205078, 68.39341735839844, 408.59527587890625, 0.03200000151991844, -0.04800000041723251, 0.0, 0.0, 0.0, 0.0, 0.0, 0.0, 1.6210016367612467E9, 2021-05-14 16:13:56.761
6.0, 60.610687255859375, -214.3056182861328, 72.97106170654297, 409.4591979980469, 0.03200000151991844, -0.04800000041723251, 0.0, 0.0, 0.0, 0.0, 0.0, 0.0, 1.6210016367612467E9, 2021-05-14 16:13:56.761
7.0, 77.67211151123047, -192.9283447265625, 76.0115966796875, 421.1463928222656, 0.03200000151991844, -0.04800000041723251, 0.0, 0.0, 0.0, 0.0, 0.0, 0.0, 1.6210016367742107E9, 2021-05-14 16:13:56.774
7.0, 74.51189422607422, -189.5399932861328, 75.1888198852539, 425.0770263671875, 0.03200000151991844, -0.04800000041723251, 0.0, 0.0, 0.0, 0.0, 0.0, 0.0, 1.6210016367742107E9, 2021-05-14 16:13:56.774
8.0, 50.367103576660156, -222.66055297851562, 59.79539108276367, 407.0207824707031, 0.03200000151991844, -0.04800000041723251, 0.0, 0.0, 0.0, 0.0, 0.0, 0.0, 1.6210016367898028E9, 2021-05-14 16:13:56.789
8.0, 49.80611801147461, -225.69735717773438, 60.876220703125, 418.81268310546875, 0.03200000151991844, -0.04800000041723251, 0.0, 0.0, 0.0, 0.0, 0.0, 0.0, 1.6210016367898028E9, 2021-05-14 16:13:56.789
9.0, 44.73855209350586, -218.16893005371094, 67.83243560791016, 429.5798645019531, 0.03200000151991844, -0.04800000041723251, 0.0, 0.0, 0.0, 0.0, 0.0, 0.0, 1.621001636790496E9, 2021-05-14 16:13:56.790
9.0, 52.42778778076172, -206.1601104736328, 75.1663818359375, 434.80450439453125, 0.03200000151991844, -0.04800000041723251, 0.0, 0.0, 0.0, 0.0, 0.0, 0.0, 1.621001636790496E9, 2021-05-14 16:13:56.790
10.0, 35.88621139526367, -216.7178497314453, 65.15840911865234, 413.8797607421875, 0.03200000151991844, -0.04800000041723251, 1.055999994277954, 0.0, 0.0, 0.0, 0.0, 0.0, 1.621001636804207E9, 2021-05-14 16:13:56.804
10.0, 31.488088607788086, -212.74234008789062, 58.033897399902344, 405.50238037109375, 0.03200000151991844, -0.04800000041723251, 1.055999994277954, 0.0, 0.0, 0.0, 0.0, 0.0, 1.621001636804207E9, 2021-05-14 16:13:56.804
11.0, 47.33778381347656, -197.0048370361328, 63.42683410644531, 422.17486572265625, 0.03200000151991844, -0.04800000041723251, 1.055999994277954, 0.0, 0.0, 0.0, 0.0, 0.0, 1.621001636820573E9, 2021-05-14 16:13:56.820
11.0, 36.604270935058594, -199.589111328125, 66.28411865234375, 426.3934631347656, 0.03200000151991844, -0.04800000041723251, 1.055999994277954, 0.0, 0.0, 0.0, 0.0, 0.0, 1.621001636820573E9, 2021-05-14 16:13:56.820
12.0, 48.08950424194336, -203.1981201171875, 72.07722473144531, 426.0157470703125, 0.03200000151991844, -0.04800000041723251, 1.055999994277954, 0.0, 0.0, 0.0, 0.0, 0.0, 1.6210016368211775E9, 2021-05-14 16:13:56.821
12.0, 31.719961166381836, -207.9814453125, 70.24092864990234, 414.7810974121094, 0.03200000151991844, -0.04800000041723251, 1.055999994277954, 0.0, 0.0, 0.0, 0.0, 0.0, 1.6210016368211775E9, 2021-05-14 16:13:56.821
13.0, 63.60634994506836, -191.3987274169922, 80.5069580078125, 428.34942626953125, 0.03200000151991844, -0.04800000041723251, 1.055999994277954, 0.0, 0.0, 0.0, 0.0, 0.0, 1.6210016368341196E9, 2021-05-14 16:13:56.834
13.0, 61.78501892089844, -188.90048217773438, 76.42672729492188, 431.3376159667969, 0.03200000151991844, -0.04800000041723251, 1.055999994277954, 0.0, 0.0, 0.0, 0.0, 0.0, 1.6210016368341196E9, 2021-05-14 16:13:56.834
14.0, 55.43092727661133, -206.01800537109375, 69.5864486694336, 420.48443603515625, 0.03200000151991844, -0.04800000041723251, 1.055999994277954, 0.0, 0.0, 0.0, 0.0, 0.0, 1.6210016368498695E9, 2021-05-14 16:13:56.849
14.0, 45.32197570800781, -200.5166015625, 60.29653549194336, 415.2523193359375, 0.03200000151991844, -0.04800000041723251, 1.055999994277954, 0.0, 0.0, 0.0, 0.0, 0.0, 1.6210016368498695E9, 2021-05-14 16:13:56.849
15.0, 69.70238494873047, -187.19882202148438, 79.63182067871094, 431.0458984375, 0.03200000151991844, -0.04800000041723251, 1.055999994277954, 0.0, 0.0, 0.0, 0.0, 0.0, 1.6210016368504736E9, 2021-05-14 16:13:56.850
15.0, 67.73146057128906, -210.24407958984375, 88.27098846435547, 445.23883056640625, 0.03200000151991844, -0.04800000041723251, 1.055999994277954, 0.0, 0.0, 0.0, 0.0, 0.0, 1.6210016368504736E9, 2021-05-14 16:13:56.850
16.0, 42.143062591552734, -217.15542602539062, 69.9080810546875, 418.9660339355469, 0.03200000151991844, -0.04800000041723251, 1.055999994277954, 0.0, 0.0, 0.0, 0.0, 0.0, 1.621001636864259E9, 2021-05-14 16:13:56.864
16.0, 53.220645904541016, -219.7621307373047, 59.92254638671875, 397.3419189453125, 0.03200000151991844, -0.04800000041723251, 1.055999994277954, 0.0, 0.0, 0.0, 0.0, 0.0, 1.621001636864259E9, 2021-05-14 16:13:56.864
17.0, 62.55169677734375, -212.57778930664062, 62.60779571533203, 415.5814208984375, 0.03200000151991844, -0.04800000041723251, 1.055999994277954, 0.0, 0.0, 0.0, 0.0, 0.0, 1.6210016368806207E9, 2021-05-14 16:13:56.880
17.0, 59.94498825073242, -215.1919708251953, 67.56316375732422, 413.91717529296875, 0.03200000151991844, -0.04800000041723251, 1.055999994277954, 0.0, 0.0, 0.0, 0.0, 0.0, 1.6210016368806207E9, 2021-05-14 16:13:56.880
18.0, 56.01809310913086, -212.3496551513672, 61.26143264770508, 412.12200927734375, 0.03200000151991844, -0.04800000041723251, 1.055999994277954, 0.0, 0.0, 0.0, 0.0, 0.0, 1.621001636881309E9, 2021-05-14 16:13:56.881
18.0, 43.582923889160156, -207.79818725585938, 60.4648323059082, 413.22528076171875, 0.03200000151991844, -0.04800000041723251, 1.055999994277954, 0.0, 0.0, 0.0, 0.0, 0.0, 1.621001636881309E9, 2021-05-14 16:13:56.881
19.0, 57.798282623291016, -213.17242431640625, 64.12245178222656, 422.3656005859375, 0.03200000151991844, -0.04800000041723251, 1.055999994277954, 0.0, 0.0, 0.0, 0.0, 0.0, 1.621001636894101E9, 2021-05-14 16:13:56.894
19.0, 54.795143127441406, -205.64027404785156, 66.6581039428711, 429.4863586425781, 0.03200000151991844, -0.04800000041723251, 1.055999994277954, 0.0, 0.0, 0.0, 0.0, 0.0, 1.621001636894101E9, 2021-05-14 16:13:56.894
20.0, 44.5852165222168, -208.08990478515625, 69.88189697265625, 418.9772644042969, 0.03200000151991844, -0.04800000041723251, 1.055999994277954, 0.0, 0.0, 0.0, 0.0, 0.0, 1.621001636909804E9, 2021-05-14 16:13:56.909
20.0, 35.8114128112793, -205.4832000732422, 69.72108459472656, 421.4081726074219, 0.03200000151991844, -0.04800000041723251, 1.055999994277954, 0.0, 0.0, 0.0, 0.0, 0.0, 1.621001636909804E9, 2021-05-14 16:13:56.909
21.0, 45.13498306274414, -195.75570678710938, 74.784912109375, 430.6270446777344, 0.03200000151991844, -0.04800000041723251, 1.055999994277954, 0.0, 0.0, 0.0, 0.0, 0.0, 1.6210016369104912E9, 2021-05-14 16:13:56.910
21.0, 49.00577926635742, -196.46629333496094, 68.75993347167969, 426.7337951660156, 0.03200000151991844, -0.04800000041723251, 1.055999994277954, 0.0, 0.0, 0.0, 0.0, 0.0, 1.6210016369104912E9, 2021-05-14 16:13:56.910
22.0, 38.64999771118164, -195.50514221191406, 65.92134857177734, 421.995361328125, 0.03200000151991844, -0.04800000041723251, 1.055999994277954, 0.0, 0.0, 0.0, 0.0, 0.0, 1.621001636924085E9, 2021-05-14 16:13:56.924
22.0, 40.3890495300293, -200.0565948486328, 65.91386413574219, 416.94647216796875, 0.03200000151991844, -0.04800000041723251, 1.055999994277954, 0.0, 0.0, 0.0, 0.0, 0.0, 1.621001636924085E9, 2021-05-14 16:13:56.924
23.0, 57.420555114746094, -195.0526123046875, 71.94258880615234, 422.84429931640625, 0.03200000151991844, -0.04800000041723251, 1.055999994277954, 0.0, 0.0, 0.0, 0.0, 0.0, 1.6210016369399145E9, 2021-05-14 16:13:56.939
23.0, 63.396915435791016, -193.2724151611328, 77.57113647460938, 427.418212890625, 0.03200000151991844, -0.04800000041723251, 1.055999994277954, 0.0, 0.0, 0.0, 0.0, 0.0, 1.6210016369399145E9, 2021-05-14 16:13:56.939
24.0, 69.33587646484375, -193.1415252685547, 76.00785827636719, 411.2580871582031, 0.03200000151991844, -0.04800000041723251, 1.055999994277954, 0.0, 0.0, 0.0, 0.0, 0.0, 1.6210016369405496E9, 2021-05-14 16:13:56.940
24.0, 54.94847869873047, -211.43711853027344, 67.93341064453125, 397.9291076660156, 0.03200000151991844, -0.04800000041723251, 1.055999994277954, 0.0, 0.0, 0.0, 0.0, 0.0, 1.6210016369405496E9, 2021-05-14 16:13:56.940
25.0, 70.31572723388672, -203.39259338378906, 71.80420684814453, 407.60797119140625, 0.03200000151991844, -0.04800000041723251, 1.055999994277954, 0.0, 0.0, 0.0, 0.0, 0.0, 1.6210016369542542E9, 2021-05-14 16:13:56.954
25.0, 59.140907287597656, -184.06478881835938, 66.06346130371094, 404.05877685546875, 0.03200000151991844, -0.04800000041723251, 1.055999994277954, 0.0, 0.0, 0.0, 0.0, 0.0, 1.6210016369542542E9, 2021-05-14 16:13:56.954
26.0, 48.022186279296875, -215.15830993652344, 59.25310516357422, 399.5783996582031, 0.03200000151991844, -0.04800000041723251, 1.055999994277954, 0.0, 0.0, 0.0, 0.0, 0.0, 1.621001636986218E9, 2021-05-14 16:13:56.986
26.0, 47.094688415527344, -204.64170837402344, 56.47809982299805, 400.1805114746094, 0.03200000151991844, -0.04800000041723251, 1.055999994277954, 0.0, 0.0, 0.0, 0.0, 0.0, 1.621001636986218E9, 2021-05-14 16:13:56.986
27.0, 53.751712799072266, -191.08084106445312, 67.3387680053711, 419.3175964355469, 0.03200000151991844, -0.04800000041723251, 1.055999994277954, 0.0, 0.0, 0.0, 0.0, 0.0, 1.621001636986957E9, 2021-05-14 16:13:56.986
27.0, 63.97285842895508, -202.36038208007812, 73.71530151367188, 429.9127197265625, 0.03200000151991844, -0.04800000041723251, 1.055999994277954, 0.0, 0.0, 0.0, 0.0, 0.0, 1.621001636986957E9, 2021-05-14 16:13:56.986
28.0, 46.98623275756836, -223.95455932617188, 58.25829315185547, 412.9747009277344, 0.03200000151991844, -0.04800000041723251, 1.055999994277954, 0.0, 0.0, 0.0, 0.0, 0.0, 1.621001636987704E9, 2021-05-14 16:13:56.987
28.0, 43.50064468383789, -202.31549072265625, 65.67825317382812, 418.75286865234375, 0.03200000151991844, -0.04800000041723251, 1.055999994277954, 0.0, 0.0, 0.0, 0.0, 0.0, 1.621001636987704E9, 2021-05-14 16:13:56.987
29.0, 29.78643226623535, -207.6972198486328, 66.94982147216797, 428.9366149902344, 0.03200000151991844, -0.04800000041723251, 1.055999994277954, 0.0, 0.0, 0.0, 0.0, 0.0, 1.6210016369884043E9, 2021-05-14 16:13:56.988
29.0, 37.16151428222656, -182.5089874267578, 79.81133270263672, 434.4454650878906, 0.03200000151991844, -0.04800000041723251, 1.055999994277954, 0.0, 0.0, 0.0, 0.0, 0.0, 1.6210016369884043E9, 2021-05-14 16:13:56.988
30.0, 22.160778045654297, -200.19871520996094, 65.23320770263672, 419.66912841796875, 0.03200000151991844, -0.04800000041723251, 1.055999994277954, 0.0, 0.0, 0.0, 0.0, 0.0, 1.6210016369992337E9, 2021-05-14 16:13:56.999
30.0, 31.536706924438477, -163.390625, 69.41441345214844, 423.8840026855469, 0.03200000151991844, -0.04800000041723251, 1.055999994277954, 0.0, 0.0, 0.0, 0.0, 0.0, 1.6210016369992337E9, 2021-05-14 16:13:56.999
31.0, 32.116390228271484, -191.97093200683594, 62.45819854736328, 417.63836669921875, 0.03200000151991844, -0.04800000041723251, 1.055999994277954, 0.0, 0.0, 0.0, 0.0, 0.0, 1.621001637014218E9, 2021-05-14 16:13:57.014
31.0, 45.11628341674805, -207.66355895996094, 65.42394256591797, 424.28790283203125, 0.03200000151991844, -0.04800000041723251, 1.055999994277954, 0.0, 0.0, 0.0, 0.0, 0.0, 1.621001637014218E9, 2021-05-14 16:13:57.014
32.0, 54.739044189453125, -192.47581481933594, 64.35433197021484, 415.891845703125, 0.03200000151991844, -0.04800000041723251, 1.055999994277954, 0.0, 0.0, 0.0, 0.0, 0.0, 1.6210016370298643E9, 2021-05-14 16:13:57.029
32.0, 42.573150634765625, -202.56607055664062, 51.7733039855957, 403.5987854003906, 0.03200000151991844, -0.04800000041723251, 1.055999994277954, 0.0, 0.0, 0.0, 0.0, 0.0, 1.6210016370298643E9, 2021-05-14 16:13:57.029
33.0, 63.920501708984375, -196.43263244628906, 68.22886657714844, 420.6864013671875, 0.03200000151991844, -0.04800000041723251, 1.055999994277954, 0.0, 0.0, 0.0, 0.0, 0.0, 1.6210016370306044E9, 2021-05-14 16:13:57.030
33.0, 47.04233169555664, -175.08154296875, 73.423583984375, 409.93792724609375, 0.03200000151991844, -0.04800000041723251, 1.055999994277954, 0.0, 0.0, 0.0, 0.0, 0.0, 1.6210016370306044E9, 2021-05-14 16:13:57.030
34.0, 49.506927490234375, -194.4130859375, 72.61203002929688, 399.7167663574219, 0.03200000151991844, -0.04800000041723251, 1.055999994277954, 0.0, 0.0, 0.0, 0.0, 0.0, 1.6210016370442424E9, 2021-05-14 16:13:57.044
34.0, 31.48434829711914, -195.24334716796875, 64.268310546875, 388.085693359375, 0.03200000151991844, -0.04800000041723251, 1.055999994277954, 0.0, 0.0, 0.0, 0.0, 0.0, 1.6210016370442424E9, 2021-05-14 16:13:57.044
35.0, 57.91421890258789, -186.38352966308594, 79.06709289550781, 411.58721923828125, 0.03200000151991844, -0.04800000041723251, 1.055999994277954, 0.0, 0.0, 0.0, 0.0, 0.0, 1.621001637059876E9, 2021-05-14 16:13:57.059
35.0, 50.883209228515625, -200.2323760986328, 56.56785583496094, 397.9590148925781, 0.03200000151991844, -0.04800000041723251, 1.055999994277954, 0.0, 0.0, 0.0, 0.0, 0.0, 1.621001637059876E9, 2021-05-14 16:13:57.059
36.0, 58.28446960449219, -208.73690795898438, 56.88200759887695, 400.3413391113281, 0.03200000151991844, -0.04800000041723251, 1.055999994277954, 0.0, 0.0, 0.0, 0.0, 0.0, 1.6210016370605493E9, 2021-05-14 16:13:57.060
36.0, 63.157562255859375, -209.50732421875, 44.282283782958984, 397.28582763671875, 0.03200000151991844, -0.04800000041723251, 1.055999994277954, 0.0, 0.0, 0.0, 0.0, 0.0, 1.6210016370605493E9, 2021-05-14 16:13:57.060
37.0, 59.62709426879883, -201.2870330810547, 52.08745574951172, 416.572509765625, 0.03200000151991844, -0.04800000041723251, 1.055999994277954, 0.0, 0.0, 0.0, 0.0, 0.0, 1.62100163707422E9, 2021-05-14 16:13:57.074
37.0, 53.370243072509766, -196.51490783691406, 60.18434143066406, 427.33966064453125, 0.03200000151991844, -0.04800000041723251, 1.055999994277954, 0.0, 0.0, 0.0, 0.0, 0.0, 1.62100163707422E9, 2021-05-14 16:13:57.074
38.0, 33.6048698425293, -203.6207275390625, 58.2059326171875, 424.62451171875, 0.03200000151991844, -0.04800000041723251, 1.055999994277954, 0.0, 0.0, 0.0, 0.0, 0.0, 1.621001637089848E9, 2021-05-14 16:13:57.089
38.0, 13.585186958312988, -212.6824951171875, 60.77898406982422, 417.8814697265625, 0.03200000151991844, -0.04800000041723251, 1.055999994277954, 0.0, 0.0, 0.0, 0.0, 0.0, 1.621001637089848E9, 2021-05-14 16:13:57.089
39.0, 25.029279708862305, -177.75930786132812, 74.23888397216797, 433.2038269042969, 0.03200000151991844, -0.04800000041723251, 1.055999994277954, 0.0, 0.0, 0.0, 0.0, 0.0, 1.62100163709051E9, 2021-05-14 16:13:57.090
39.0, 40.63962173461914, -163.1175994873047, 79.99085235595703, 434.0715026855469, 0.03200000151991844, -0.04800000041723251, 1.055999994277954, 0.0, 0.0, 0.0, 0.0, 0.0, 1.62100163709051E9, 2021-05-14 16:13:57.090
40.0, 21.50629425048828, -214.9825439453125, 57.79080581665039, 407.7014465332031, 0.03200000151991844, -0.04800000041723251, 1.055999994277954, 0.0, 0.0, 0.0, 0.0, 0.0, 1.6210016371040723E9, 2021-05-14 16:13:57.104
40.0, 24.090564727783203, -200.2286376953125, 52.9476318359375, 405.5360412597656, 0.03200000151991844, -0.04800000041723251, 1.055999994277954, 0.0, 0.0, 0.0, 0.0, 0.0, 1.6210016371040723E9, 2021-05-14 16:13:57.104
41.0, 49.48074722290039, -189.237060546875, 66.05224609375, 418.3938293457031, 0.03200000151991844, -0.04800000041723251, 1.055999994277954, 0.0, 0.0, 0.0, 0.0, 0.0, 1.6210016371198177E9, 2021-05-14 16:13:57.119
41.0, 53.56471633911133, -174.93568420410156, 70.08759307861328, 419.79254150390625, 0.03200000151991844, -0.04800000041723251, 1.055999994277954, 0.0, 0.0, 0.0, 0.0, 0.0, 1.6210016371198177E9, 2021-05-14 16:13:57.119
42.0, 51.590049743652344, -195.7295379638672, 65.40149688720703, 409.1413269042969, 0.03200000151991844, -0.04800000041723251, 1.055999994277954, 0.0, 0.0, 0.0, 0.0, 0.0, 1.6210016371349547E9, 2021-05-14 16:13:57.134
42.0, 42.31509780883789, -182.83810424804688, 69.52287292480469, 400.1767883300781, 0.03200000151991844, -0.04800000041723251, 1.055999994277954, 0.0, 0.0, 0.0, 0.0, 0.0, 1.6210016371349547E9, 2021-05-14 16:13:57.134
43.0, 47.37144088745117, -186.38352966308594, 66.46363067626953, 402.8994140625, 0.03200000151991844, -0.04800000041723251, 1.055999994277954, 0.0, 0.0, 0.0, 0.0, 0.0, 1.6210016371356308E9, 2021-05-14 16:13:57.135
43.0, 46.09613800048828, -187.01556396484375, 70.07637786865234, 407.17413330078125, 0.03200000151991844, -0.04800000041723251, 1.055999994277954, 0.0, 0.0, 0.0, 0.0, 0.0, 1.6210016371356308E9, 2021-05-14 16:13:57.135
44.0, 31.615243911743164, -183.3504638671875, 71.38159942626953, 401.7026672363281, 0.03200000151991844, -0.04800000041723251, 1.055999994277954, 0.0, 0.0, 0.0, 0.0, 0.0, 1.6210016371499608E9, 2021-05-14 16:13:57.149
44.0, 42.3076171875, -194.76089477539062, 72.1968994140625, 406.878662109375, 0.03200000151991844, -0.04800000041723251, 1.055999994277954, 0.0, 0.0, 0.0, 0.0, 0.0, 1.6210016371499608E9, 2021-05-14 16:13:57.149
45.0, 64.07009887695312, -187.96923828125, 70.93655395507812, 421.64007568359375, 0.03200000151991844, -0.04800000041723251, 1.055999994277954, 0.0, 0.0, 0.0, 0.0, 0.0, 1.621001637150597E9, 2021-05-14 16:13:57.150
45.0, 76.4940414428711, -194.17747497558594, 66.639404296875, 417.80291748046875, 0.03200000151991844, -0.04800000041723251, 1.055999994277954, 0.0, 0.0, 0.0, 0.0, 0.0, 1.621001637150597E9, 2021-05-14 16:13:57.150
46.0, 50.14645004272461, -204.4659423828125, 60.94728088378906, 407.4284362792969, 0.03200000151991844, -0.04800000041723251, 1.055999994277954, 0.0, 0.0, 0.0, 0.0, 0.0, 1.6210016371641347E9, 2021-05-14 16:13:57.164
46.0, 49.13667678833008, -163.52151489257812, 67.28640747070312, 412.4847717285156, 0.03200000151991844, -0.04800000041723251, 1.055999994277954, 0.0, 0.0, 0.0, 0.0, 0.0, 1.6210016371641347E9, 2021-05-14 16:13:57.164
47.0, 48.302677154541016, -228.42373657226562, 60.64808654785156, 420.89581298828125, 0.03200000151991844, -0.04800000041723251, 1.055999994277954, 0.0, 0.0, 0.0, 0.0, 0.0, 1.6210016371796877E9, 2021-05-14 16:13:57.179
47.0, 53.40764236450195, -195.5612335205078, 66.59452819824219, 436.0910339355469, 0.03200000151991844, -0.04800000041723251, 1.055999994277954, 0.0, 0.0, 0.0, 0.0, 0.0, 1.6210016371796877E9, 2021-05-14 16:13:57.179
48.0, 33.01396560668945, -204.11813354492188, 51.98273849487305, 411.65826416015625, 0.03200000151991844, -0.04800000041723251, 1.055999994277954, 0.0, 0.0, 0.0, 0.0, 0.0, 1.6210016371948016E9, 2021-05-14 16:13:57.194
48.0, 25.29481315612793, -181.67498779296875, 57.28217697143555, 415.891845703125, 0.03200000151991844, -0.04800000041723251, 1.055999994277954, 0.0, 0.0, 0.0, 0.0, 0.0, 1.6210016371948016E9, 2021-05-14 16:13:57.194
49.0, 37.16525650024414, -185.27651977539062, 56.10411071777344, 415.6936340332031, 0.03200000151991844, -0.04800000041723251, 1.055999994277954, 0.0, 0.0, 0.0, 0.0, 0.0, 1.6210016371955054E9, 2021-05-14 16:13:57.195
49.0, 41.395084381103516, -169.0977020263672, 59.137168884277344, 419.7364501953125, 0.03200000151991844, -0.04800000041723251, 1.055999994277954, 0.0, 0.0, 0.0, 0.0, 0.0, 1.6210016371955054E9, 2021-05-14 16:13:57.195
50.0, 19.714881896972656, -206.21995544433594, 52.4726676940918, 403.10137939453125, 0.03200000151991844, -0.04800000041723251, 1.055999994277954, 0.0, 0.0, 0.0, 0.0, 0.0, 1.6210016372099404E9, 2021-05-14 16:13:57.209
50.0, 28.16331672668457, -192.31126403808594, 58.478946685791016, 405.5360412597656, 0.03200000151991844, -0.04800000041723251, 1.055999994277954, 0.0, 0.0, 0.0, 0.0, 0.0, 1.6210016372099404E9, 2021-05-14 16:13:57.209
51.0, 41.40256118774414, -197.8911895751953, 66.68802642822266, 421.0080261230469, 0.03200000151991844, -0.04800000041723251, 1.055999994277954, 0.0, 0.0, 0.0, 0.0, 0.0, 1.6210016372107408E9, 2021-05-14 16:13:57.210
51.0, 61.16045379638672, -149.3173828125, 75.51792907714844, 413.78253173828125, 0.03200000151991844, -0.04800000041723251, 1.055999994277954, 0.0, 0.0, 0.0, 0.0, 0.0, 1.6210016372107408E9, 2021-05-14 16:13:57.210
52.0, 43.766178131103516, -217.11053466796875, 59.97490692138672, 392.1696472167969, 0.03200000151991844, -0.04800000041723251, 1.055999994277954, 0.0, 0.0, 0.0, 0.0, 0.0, 1.6210016372242928E9, 2021-05-14 16:13:57.224
52.0, 47.31160354614258, -184.6220245361328, 63.32211685180664, 390.87939453125, 0.03200000151991844, -0.04800000041723251, 1.055999994277954, 0.0, 0.0, 0.0, 0.0, 0.0, 1.6210016372242928E9, 2021-05-14 16:13:57.224
53.0, 62.99674606323242, -200.62506103515625, 64.9078369140625, 402.76104736328125, 0.03200000151991844, -0.04800000041723251, 1.055999994277954, 0.0, 0.0, 0.0, 0.0, 0.0, 1.6210016372399244E9, 2021-05-14 16:13:57.239
53.0, 57.45047378540039, -195.03765869140625, 72.62698364257812, 416.75201416015625, 0.03200000151991844, -0.04800000041723251, 1.055999994277954, 0.0, 0.0, 0.0, 0.0, 0.0, 1.6210016372399244E9, 2021-05-14 16:13:57.239
54.0, 58.72203826904297, -174.8608856201172, 81.99169921875, 425.12939453125, 0.03200000151991844, -0.04800000041723251, 1.055999994277954, 0.0, 0.0, 0.0, 0.0, 0.0, 1.621001637240698E9, 2021-05-14 16:13:57.240
54.0, 49.64904022216797, -216.43736267089844, 59.010009765625, 400.01220703125, 0.03200000151991844, -0.04800000041723251, 1.055999994277954, 0.0, 0.0, 0.0, 0.0, 0.0, 1.621001637240698E9, 2021-05-14 16:13:57.240
55.0, 63.21739959716797, -204.55943298339844, 74.87092590332031, 420.9444274902344, 0.03200000151991844, -0.04800000041723251, 1.055999994277954, 0.0, 0.0, 0.0, 0.0, 0.0, 1.6210016372541625E9, 2021-05-14 16:13:57.254
55.0, 54.85124206542969, -180.8073272705078, 66.08216094970703, 417.417724609375, 0.03200000151991844, -0.04800000041723251, 1.055999994277954, 0.0, 0.0, 0.0, 0.0, 0.0, 1.6210016372541625E9, 2021-05-14 16:13:57.254
56.0, 58.9389533996582, -201.98638916015625, 61.59054183959961, 409.3843994140625, 0.03200000151991844, -0.04800000041723251, 1.055999994277954, 0.0, 0.0, 0.0, 0.0, 0.0, 1.6210016372699697E9, 2021-05-14 16:13:57.269
56.0, 61.07443618774414, -190.3889617919922, 58.048858642578125, 407.82861328125, 0.03200000151991844, -0.04800000041723251, 1.055999994277954, 0.0, 0.0, 0.0, 0.0, 0.0, 1.6210016372699697E9, 2021-05-14 16:13:57.269
57.0, 55.617923736572266, -213.1537322998047, 60.64060592651367, 418.9510803222656, 0.03200000151991844, -0.04800000041723251, 1.055999994277954, 0.0, 0.0, 0.0, 0.0, 0.0, 1.6210016372706015E9, 2021-05-14 16:13:57.270
57.0, 59.59717559814453, -166.24790954589844, 65.55109405517578, 423.005126953125, 0.03200000151991844, -0.04800000041723251, 1.055999994277954, 0.0, 0.0, 0.0, 0.0, 0.0, 1.6210016372706015E9, 2021-05-14 16:13:57.270
58.0, 29.850011825561523, -207.62615966796875, 48.82252502441406, 407.2638854980469, 0.03200000151991844, -0.04800000041723251, 1.055999994277954, 0.0, 0.0, 0.0, 0.0, 0.0, 1.6210016373012393E9, 2021-05-14 16:13:57.301
58.0, 20.608718872070312, -199.2525177001953, 54.267818450927734, 418.5696105957031, 0.03200000151991844, -0.04800000041723251, 1.055999994277954, 0.0, 0.0, 0.0, 0.0, 0.0, 1.6210016373012393E9, 2021-05-14 16:13:57.301
59.0, 47.012413024902344, -174.060546875, 69.27230072021484, 425.9297180175781, 0.03200000151991844, -0.04800000041723251, 1.055999994277954, 0.0, 0.0, 0.0, 0.0, 0.0, 1.6210016373019283E9, 2021-05-14 16:13:57.301
59.0, 22.448749542236328, -196.57101440429688, 56.56037521362305, 405.3041687011719, 0.03200000151991844, -0.04800000041723251, 1.055999994277954, 0.0, 0.0, 0.0, 0.0, 0.0, 1.6210016373019283E9, 2021-05-14 16:13:57.301
60.0, 37.05679702758789, -186.70889282226562, 69.60888671875, 401.1229553222656, 0.03200000151991844, -0.04800000041723251, 1.055999994277954, 0.0, 0.0, 0.0, 0.0, 0.0, 1.6210016373026633E9, 2021-05-14 16:13:57.302
60.0, 37.988033294677734, -186.8622283935547, 69.56027221679688, 398.7892761230469, 0.03200000151991844, -0.04800000041723251, 1.055999994277954, 0.0, 0.0, 0.0, 0.0, 0.0, 1.6210016373026633E9, 2021-05-14 16:13:57.302
61.0, 76.57632446289062, -145.10250854492188, 88.28221130371094, 422.72088623046875, 0.03200000151991844, -0.04800000041723251, 1.055999994277954, 0.0, 0.0, 0.0, 0.0, 0.0, 1.6210016373142953E9, 2021-05-14 16:13:57.314
61.0, 79.4223861694336, -181.21124267578125, 87.26121520996094, 421.0379333496094, 0.03200000151991844, -0.04800000041723251, 1.055999994277954, 0.0, 0.0, 0.0, 0.0, 0.0, 1.6210016373142953E9, 2021-05-14 16:13:57.314
62.0, 66.28038024902344, -179.8723602294922, 69.10774230957031, 399.78033447265625, 0.03200000151991844, -0.04800000041723251, 1.055999994277954, 0.0, 0.0, 0.0, 0.0, 0.0, 1.6210016373302257E9, 2021-05-14 16:13:57.330
62.0, 54.67546844482422, -199.27496337890625, 52.274452209472656, 385.11993408203125, 0.03200000151991844, -0.04800000041723251, 1.055999994277954, 0.0, 0.0, 0.0, 0.0, 0.0, 1.6210016373302257E9, 2021-05-14 16:13:57.330
63.0, 76.3332290649414, -168.895751953125, 69.13391876220703, 400.7414855957031, 0.03200000151991844, -0.04800000041723251, 1.055999994277954, 0.0, 0.0, 0.0, 0.0, 0.0, 1.6210016373448603E9, 2021-05-14 16:13:57.344
63.0, 61.5868034362793, -184.22560119628906, 76.0751724243164, 420.4283447265625, 0.03200000151991844, -0.04800000041723251, 1.055999994277954, 0.0, 0.0, 0.0, 0.0, 0.0, 1.6210016373448603E9, 2021-05-14 16:13:57.344
64.0, 38.25730514526367, -205.0979766845703, 52.81673812866211, 402.3533935546875, 0.03200000151991844, -0.04800000041723251, 1.055999994277954, 0.0, 0.0, 0.0, 0.0, 0.0, 1.621001637345578E9, 2021-05-14 16:13:57.345
64.0, 46.51126480102539, -192.2850799560547, 72.1968994140625, 408.1876525878906, 0.03200000151991844, -0.04800000041723251, 1.055999994277954, 0.0, 0.0, 0.0, 0.0, 0.0, 1.621001637345578E9, 2021-05-14 16:13:57.345
65.0, 59.522377014160156, -174.7487030029297, 71.84534454345703, 416.34063720703125, 0.03200000151991844, -0.04800000041723251, 1.055999994277954, 0.0, 0.0, 0.0, 0.0, 0.0, 1.6210016373597908E9, 2021-05-14 16:13:57.359
65.0, 34.40895080566406, -226.15362548828125, 56.321022033691406, 408.91693115234375, 0.03200000151991844, -0.04800000041723251, 1.055999994277954, 0.0, 0.0, 0.0, 0.0, 0.0, 1.6210016373597908E9, 2021-05-14 16:13:57.359
66.0, 24.513174057006836, -216.01101684570312, 46.4327278137207, 401.60540771484375, 0.03200000151991844, -0.04800000041723251, 1.055999994277954, 0.0, 0.0, 0.0, 0.0, 0.0, 1.6210016373605208E9, 2021-05-14 16:13:57.360
66.0, 48.91228103637695, -175.7996063232422, 60.01978302001953, 413.8423767089844, 0.03200000151991844, -0.04800000041723251, 1.055999994277954, 0.0, 0.0, 0.0, 0.0, 0.0, 1.6210016373605208E9, 2021-05-14 16:13:57.360
67.0, 41.70549392700195, -188.11883544921875, 56.95680618286133, 418.94732666015625, 0.03200000151991844, -0.04800000041723251, 1.055999994277954, 0.0, 0.0, 0.0, 0.0, 0.0, 1.6210016373741903E9, 2021-05-14 16:13:57.374
67.0, 33.42909622192383, -200.23985290527344, 57.656166076660156, 425.8511962890625, 0.03200000151991844, -0.04800000041723251, 1.055999994277954, 0.0, 0.0, 0.0, 0.0, 0.0, 1.6210016373741903E9, 2021-05-14 16:13:57.374
68.0, 29.416183471679688, -233.21829223632812, 45.84930419921875, 403.4267578125, 0.03200000151991844, -0.04800000041723251, 1.055999994277954, 0.0, 0.0, 0.0, 0.0, 0.0, 1.6210016373899171E9, 2021-05-14 16:13:57.389
68.0, 12.324840545654297, -196.1110076904297, 52.315589904785156, 404.1859436035156, 0.03200000151991844, -0.04800000041723251, 1.055999994277954, 0.0, 0.0, 0.0, 0.0, 0.0, 1.6210016373899171E9, 2021-05-14 16:13:57.389
69.0, 45.105064392089844, -180.1790313720703, 77.85163116455078, 431.326416015625, 0.03200000151991844, -0.04800000041723251, 1.055999994277954, 0.0, 0.0, 0.0, 0.0, 0.0, 1.6210016373905032E9, 2021-05-14 16:13:57.390
69.0, 29.468542098999023, -171.24441528320312, 74.41091918945312, 422.1823425292969, 0.03200000151991844, -0.04800000041723251, 1.055999994277954, 0.0, 0.0, 0.0, 0.0, 0.0, 1.6210016373905032E9, 2021-05-14 16:13:57.390
70.0, 30.38855743408203, -187.73736572265625, 62.77983093261719, 388.7214660644531, 0.03200000151991844, -0.04800000041723251, 1.055999994277954, 0.0, 0.0, 0.0, 0.0, 0.0, 1.6210016374211771E9, 2021-05-14 16:13:57.421
70.0, 42.18046188354492, -172.71044921875, 68.18024444580078, 383.86334228515625, 0.03200000151991844, -0.04800000041723251, 1.055999994277954, 0.0, 0.0, 0.0, 0.0, 0.0, 1.6210016374211771E9, 2021-05-14 16:13:57.421
71.0, 65.8166275024414, -209.79904174804688, 77.72073364257812, 406.11572265625, 0.03200000151991844, -0.04800000041723251, 1.055999994277954, 0.0, 0.0, 0.0, 0.0, 0.0, 1.621001637421876E9, 2021-05-14 16:13:57.421
71.0, 77.52625274658203, -181.1551513671875, 74.63905334472656, 407.40972900390625, 0.03200000151991844, -0.04800000041723251, 1.055999994277954, 0.0, 0.0, 0.0, 0.0, 0.0, 1.621001637421876E9, 2021-05-14 16:13:57.421
72.0, 68.40837860107422, -195.61734008789062, 63.11642074584961, 386.7430419921875, 0.03200000151991844, -0.04800000041723251, 1.055999994277954, 0.0, 0.0, 0.0, 0.0, 0.0, 1.6210016374226031E9, 2021-05-14 16:13:57.422
72.0, 62.98552322387695, -182.69972229003906, 72.88504028320312, 410.2109375, 0.03200000151991844, -0.04800000041723251, 1.055999994277954, 0.0, 0.0, 0.0, 0.0, 0.0, 1.6210016374226031E9, 2021-05-14 16:13:57.422
73.0, 56.788509368896484, -186.34986877441406, 69.80335998535156, 418.921142578125, 0.03200000151991844, -0.04800000041723251, 1.055999994277954, 0.0, 0.0, 0.0, 0.0, 0.0, 1.621001637434156E9, 2021-05-14 16:13:57.434
73.0, 52.91397476196289, -211.86346435546875, 67.68657684326172, 425.73150634765625, 0.03200000151991844, -0.04800000041723251, 1.055999994277954, 0.0, 0.0, 0.0, 0.0, 0.0, 1.621001637434156E9, 2021-05-14 16:13:57.434
74.0, 40.06367874145508, -204.8100128173828, 62.18518829345703, 417.735595703125, 0.03200000151991844, -0.04800000041723251, 1.055999994277954, 0.0, 0.0, 0.0, 0.0, 0.0, 1.6210016374498987E9, 2021-05-14 16:13:57.449
74.0, 13.49916934967041, -194.95912170410156, 49.61164474487305, 408.14276123046875, 0.03200000151991844, -0.04800000041723251, 1.055999994277954, 0.0, 0.0, 0.0, 0.0, 0.0, 1.6210016374498987E9, 2021-05-14 16:13:57.449
75.0, 29.09455108642578, -191.92605590820312, 54.38749694824219, 425.3986511230469, 0.03200000151991844, -0.04800000041723251, 1.055999994277954, 0.0, 0.0, 0.0, 0.0, 0.0, 1.6210016374506035E9, 2021-05-14 16:13:57.450
75.0, 38.743492126464844, -192.33370971679688, 47.266727447509766, 419.2539978027344, 0.03200000151991844, -0.04800000041723251, 1.055999994277954, 0.0, 0.0, 0.0, 0.0, 0.0, 1.6210016374506035E9, 2021-05-14 16:13:57.450
76.0, 27.538753509521484, -217.87722778320312, 39.81684494018555, 415.7085876464844, 0.03200000151991844, -0.04800000041723251, 1.055999994277954, 0.0, 0.0, 0.0, 0.0, 0.0, 1.6210016374805603E9, 2021-05-14 16:13:57.480
76.0, 35.64685821533203, -202.0873565673828, 48.86366271972656, 415.2859802246094, 0.03200000151991844, -0.04800000041723251, 1.055999994277954, 0.0, 0.0, 0.0, 0.0, 0.0, 1.6210016374805603E9, 2021-05-14 16:13:57.480
77.0, 45.426692962646484, -187.65509033203125, 59.34286117553711, 423.9812316894531, 0.03200000151991844, -0.04800000041723251, 1.055999994277954, 0.0, 0.0, 0.0, 0.0, 0.0, 1.6210016374812489E9, 2021-05-14 16:13:57.481
77.0, 40.34416961669922, -201.94525146484375, 56.986724853515625, 410.6185607910156, 0.03200000151991844, -0.04800000041723251, 1.055999994277954, 0.0, 0.0, 0.0, 0.0, 0.0, 1.6210016374812489E9, 2021-05-14 16:13:57.481
78.0, 28.60836410522461, -192.4272003173828, 54.52960968017578, 400.63677978515625, 0.03200000151991844, -0.04800000041723251, 1.055999994277954, 0.0, 0.0, 0.0, 0.0, 0.0, 1.6210016374821024E9, 2021-05-14 16:13:57.482
78.0, 21.857845306396484, -190.86766052246094, 59.34286117553711, 398.5386962890625, 0.03200000151991844, -0.04800000041723251, 1.055999994277954, 0.0, 0.0, 0.0, 0.0, 0.0, 1.6210016374821024E9, 2021-05-14 16:13:57.482
79.0, 32.76339340209961, -174.99179077148438, 68.1241455078125, 409.0104064941406, 0.03200000151991844, -0.04800000041723251, 1.055999994277954, 0.0, 0.0, 0.0, 0.0, 0.0, 1.6210016374941452E9, 2021-05-14 16:13:57.494
79.0, 45.69596862792969, -163.96656799316406, 74.47824096679688, 406.2391662597656, 0.03200000151991844, -0.04800000041723251, 1.055999994277954, 0.0, 0.0, 0.0, 0.0, 0.0, 1.6210016374941452E9, 2021-05-14 16:13:57.494
80.0, 35.762794494628906, -194.083984375, 71.17964935302734, 395.1391296386719, 0.03200000151991844, -0.04800000041723251, 1.055999994277954, 0.0, 0.0, 0.0, 0.0, 0.0, 1.6210016375099E9, 2021-05-14 16:13:57.509
80.0, 47.476158142089844, -201.84800720214844, 63.77464294433594, 381.619384765625, 0.03200000151991844, -0.04800000041723251, 1.055999994277954, 0.0, 0.0, 0.0, 0.0, 0.0, 1.6210016375099E9, 2021-05-14 16:13:57.509
81.0, 68.4644775390625, -179.576904296875, 72.65316772460938, 396.8931579589844, 0.03200000151991844, -0.04800000041723251, 1.055999994277954, 0.0, 0.0, 0.0, 0.0, 0.0, 1.62100163751063E9, 2021-05-14 16:13:57.510
81.0, 72.02486419677734, -180.3548126220703, 74.29124450683594, 394.2116394042969, 0.03200000151991844, -0.04800000041723251, 1.055999994277954, 0.0, 0.0, 0.0, 0.0, 0.0, 1.62100163751063E9, 2021-05-14 16:13:57.510
82.0, 40.83035659790039, -192.4608612060547, 56.66509246826172, 372.980224609375, 0.03200000151991844, -0.04800000041723251, 1.055999994277954, 0.0, 0.0, 0.0, 0.0, 0.0, 1.621001637524198E9, 2021-05-14 16:13:57.524
82.0, 54.092044830322266, -197.61817932128906, 64.6273422241211, 393.08966064453125, 0.03200000151991844, -0.04800000041723251, 1.055999994277954, 0.0, 0.0, 0.0, 0.0, 0.0, 1.621001637524198E9, 2021-05-14 16:13:57.524
83.0, 55.760040283203125, -191.795166015625, 68.49440002441406, 412.7839660644531, 0.03200000151991844, -0.04800000041723251, 1.055999994277954, 0.0, 0.0, 0.0, 0.0, 0.0, 1.621001637539883E9, 2021-05-14 16:13:57.539
83.0, 40.19831466674805, -198.568115234375, 60.59198760986328, 423.3005676269531, 0.03200000151991844, -0.04800000041723251, 1.055999994277954, 0.0, 0.0, 0.0, 0.0, 0.0, 1.621001637539883E9, 2021-05-14 16:13:57.539
84.0, 23.918529510498047, -214.44400024414062, 53.23186492919922, 408.415771484375, 0.03200000151991844, -0.04800000041723251, 1.055999994277954, 0.0, 0.0, 0.0, 0.0, 0.0, 1.6210016375405867E9, 2021-05-14 16:13:57.540
84.0, 15.963763236999512, -206.6276092529297, 47.962345123291016, 407.5256652832031, 0.03200000151991844, -0.04800000041723251, 1.055999994277954, 0.0, 0.0, 0.0, 0.0, 0.0, 1.6210016375405867E9, 2021-05-14 16:13:57.540
85.0, 30.69148826599121, -195.36676025390625, 50.51295852661133, 425.4098815917969, 0.03200000151991844, -0.04800000041723251, 1.055999994277954, 0.0, 0.0, 0.0, 0.0, 0.0, 1.6210016375542347E9, 2021-05-14 16:13:57.554
85.0, 48.306419372558594, -209.43252563476562, 47.352745056152344, 409.8144836425781, 0.03200000151991844, -0.04800000041723251, 1.055999994277954, 0.0, 0.0, 0.0, 0.0, 0.0, 1.6210016375542347E9, 2021-05-14 16:13:57.554
86.0, 28.129657745361328, -207.36436462402344, 38.369503021240234, 409.0066833496094, 0.03200000151991844, -0.04800000041723251, 1.055999994277954, 0.0, 0.0, 0.0, 0.0, 0.0, 1.6210016375697691E9, 2021-05-14 16:13:57.569
86.0, 21.00514793395996, -206.16758728027344, 43.91203689575195, 409.1039123535156, 0.03200000151991844, -0.04800000041723251, 1.055999994277954, 0.0, 0.0, 0.0, 0.0, 0.0, 1.6210016375697691E9, 2021-05-14 16:13:57.569
87.0, 31.989234924316406, -196.16336059570312, 50.890689849853516, 413.0121154785156, 0.03200000151991844, -0.04800000041723251, 1.055999994277954, 0.0, 0.0, 0.0, 0.0, 0.0, 1.6210016375705853E9, 2021-05-14 16:13:57.570
87.0, 55.285072326660156, -173.21533203125, 71.90144348144531, 432.39227294921875, 0.03200000151991844, -0.04800000041723251, 1.055999994277954, 0.0, 0.0, 0.0, 0.0, 0.0, 1.6210016375705853E9, 2021-05-14 16:13:57.570
88.0, 22.19817543029785, -203.25421142578125, 54.365055084228516, 408.8196716308594, 0.03200000151991844, -0.04800000041723251, 1.055999994277954, 0.0, 0.0, 0.0, 0.0, 0.0, 1.6210016376006231E9, 2021-05-14 16:13:57.600
88.0, 18.847225189208984, -181.2823028564453, 63.55773162841797, 402.0616760253906, 0.03200000151991844, -0.04800000041723251, 1.055999994277954, 0.0, 0.0, 0.0, 0.0, 0.0, 1.6210016376006231E9, 2021-05-14 16:13:57.600
89.0, 36.50703430175781, -175.39944458007812, 76.18737030029297, 408.25494384765625, 0.03200000151991844, -0.04800000041723251, 1.055999994277954, 0.0, 0.0, 0.0, 0.0, 0.0, 1.6210016376013854E9, 2021-05-14 16:13:57.601
89.0, 41.55963897705078, -183.144775390625, 84.07108306884766, 400.610595703125, 0.03200000151991844, -0.04800000041723251, 1.055999994277954, 0.0, 0.0, 0.0, 0.0, 0.0, 1.6210016376013854E9, 2021-05-14 16:13:57.601
90.0, 49.1030158996582, -195.15359497070312, 71.21704864501953, 376.38726806640625, 0.03200000151991844, -0.04800000041723251, 1.055999994277954, 0.0, 0.0, 0.0, 0.0, 0.0, 1.6210016376020432E9, 2021-05-14 16:13:57.602
90.0, 52.43900680541992, -196.05116271972656, 68.57667541503906, 379.0313720703125, 0.03200000151991844, -0.04800000041723251, 1.055999994277954, 0.0, 0.0, 0.0, 0.0, 0.0, 1.6210016376020432E9, 2021-05-14 16:13:57.602
91.0, 64.9265365600586, -187.46435546875, 72.29039764404297, 395.2101745605469, 0.03200000151991844, -0.04800000041723251, 1.055999994277954, 0.0, 0.0, 0.0, 0.0, 0.0, 1.621001637614262E9, 2021-05-14 16:13:57.614
91.0, 59.12594985961914, -197.9435577392578, 68.47196197509766, 406.5158996582031, 0.03200000151991844, -0.04800000041723251, 1.055999994277954, 0.0, 0.0, 0.0, 0.0, 0.0, 1.621001637614262E9, 2021-05-14 16:13:57.614
92.0, 38.773414611816406, -205.61782836914062, 63.98033905029297, 414.2275695800781, 0.03200000151991844, -0.04800000041723251, 1.055999994277954, 0.0, 0.0, 0.0, 0.0, 0.0, 1.621001637629847E9, 2021-05-14 16:13:57.629
92.0, 33.90032196044922, -198.6129913330078, 55.25889205932617, 418.2218017578125, 0.03200000151991844, -0.04800000041723251, 1.055999994277954, 0.0, 0.0, 0.0, 0.0, 0.0, 1.621001637629847E9, 2021-05-14 16:13:57.629
93.0, 51.19361877441406, -192.6366424560547, 66.20932006835938, 434.66986083984375, 0.03200000151991844, -0.04800000041723251, 1.055999994277954, 0.0, 0.0, 0.0, 0.0, 0.0, 1.621001637630552E9, 2021-05-14 16:13:57.630
93.0, 30.485794067382812, -200.98410034179688, 60.25165939331055, 430.7803649902344, 0.03200000151991844, -0.04800000041723251, 1.055999994277954, 0.0, 0.0, 0.0, 0.0, 0.0, 1.621001637630552E9, 2021-05-14 16:13:57.630
94.0, 20.803194046020508, -222.24916076660156, 50.74483108520508, 419.3998718261719, 0.03200000151991844, -0.04800000041723251, 1.055999994277954, 0.0, 0.0, 0.0, 0.0, 0.0, 1.621001637644254E9, 2021-05-14 16:13:57.644
94.0, 32.04533386230469, -212.80966186523438, 56.04426956176758, 423.6820373535156, 0.03200000151991844, -0.04800000041723251, 1.055999994277954, 0.0, 0.0, 0.0, 0.0, 0.0, 1.621001637644254E9, 2021-05-14 16:13:57.644
95.0, 36.31629943847656, -205.4906768798828, 52.24453353881836, 423.94384765625, 0.03200000151991844, -0.04800000041723251, 1.055999994277954, 0.0, 0.0, 0.0, 0.0, 0.0, 1.6210016376598105E9, 2021-05-14 16:13:57.659
95.0, 38.384464263916016, -185.57569885253906, 51.91916275024414, 423.9924621582031, 0.03200000151991844, -0.04800000041723251, 1.055999994277954, 0.0, 0.0, 0.0, 0.0, 0.0, 1.6210016376598105E9, 2021-05-14 16:13:57.659
96.0, 38.709835052490234, -221.456298828125, 52.99251174926758, 420.9668884277344, 0.03200000151991844, -0.04800000041723251, 1.055999994277954, 0.0, 0.0, 0.0, 0.0, 0.0, 1.621001637660558E9, 2021-05-14 16:13:57.660
96.0, 38.051612854003906, -201.26084899902344, 59.82904815673828, 421.6363220214844, 0.03200000151991844, -0.04800000041723251, 1.055999994277954, 0.0, 0.0, 0.0, 0.0, 0.0, 1.621001637660558E9, 2021-05-14 16:13:57.660
97.0, 52.8952751159668, -190.6432647705078, 73.83871459960938, 432.28009033203125, 0.03200000151991844, -0.04800000041723251, 1.055999994277954, 0.0, 0.0, 0.0, 0.0, 0.0, 1.6210016376741433E9, 2021-05-14 16:13:57.674
97.0, 48.78886413574219, -183.9750213623047, 74.43709564208984, 429.7032775878906, 0.03200000151991844, -0.04800000041723251, 1.055999994277954, 0.0, 0.0, 0.0, 0.0, 0.0, 1.6210016376741433E9, 2021-05-14 16:13:57.674
98.0, 51.7733039855957, -174.38218688964844, 82.62000274658203, 430.9262390136719, 0.03200000151991844, -0.04800000041723251, 1.055999994277954, 0.0, 0.0, 0.0, 0.0, 0.0, 1.6210016376897984E9, 2021-05-14 16:13:57.689
98.0, 27.303138732910156, -200.7783966064453, 62.58909606933594, 411.10101318359375, 0.03200000151991844, -0.04800000041723251, 1.055999994277954, 0.0, 0.0, 0.0, 0.0, 0.0, 1.6210016376897984E9, 2021-05-14 16:13:57.689
99.0, 37.84965896606445, -180.87838745117188, 80.66403198242188, 415.6636962890625, 0.03200000151991844, -0.04800000041723251, 1.055999994277954, 0.0, 0.0, 0.0, 0.0, 0.0, 1.6210016376905599E9, 2021-05-14 16:13:57.690
99.0, 48.770164489746094, -182.82313537597656, 79.59815979003906, 404.5412292480469, 0.03200000151991844, -0.04800000041723251, 1.055999994277954, 0.0, 0.0, 0.0, 0.0, 0.0, 1.6210016376905599E9, 2021-05-14 16:13:57.690
100.0, 42.232818603515625, -189.65968322753906, 66.8376235961914, 387.8537902832031, 0.03200000151991844, -0.04800000041723251, 1.055999994277954, 0.0, 0.0, 0.0, 0.0, 0.0, 1.6210016377048287E9, 2021-05-14 16:13:57.704
100.0, 56.50053787231445, -203.49356079101562, 67.33129119873047, 393.5496826171875, 0.03200000151991844, -0.04800000041723251, 1.055999994277954, 0.0, 0.0, 0.0, 0.0, 0.0, 1.6210016377048287E9, 2021-05-14 16:13:57.704
0.0, 72.20437622070312, -195.6884002685547, 75.36085510253906, 404.52813720703125, 0.03200000151991844, -0.04800000041723251, 1.055999994277954, 0.0, 0.0, 0.0, 0.0, 0.0, 1.621001637705603E9, 2021-05-14 16:13:57.705
1.0, 61.50826644897461, -205.02317810058594, 64.9714126586914, 400.54888916015625, 0.03200000151991844, -0.04800000041723251, 1.055999994277954, 0.0, 0.0, 0.0, 0.0, 0.0, 1.6210016377190447E9, 2021-05-14 16:13:57.719
1.0, 44.39448165893555, -197.05345153808594, 64.7507553100586, 403.1443786621094, 0.03200000151991844, -0.04800000041723251, 1.055999994277954, 0.0, 0.0, 0.0, 0.0, 0.0, 1.6210016377190447E9, 2021-05-14 16:13:57.719
2.0, 46.55614471435547, -206.39572143554688, 63.78960418701172, 409.25164794921875, 0.03200000151991844, -0.04800000041723251, 1.055999994277954, 0.0, 0.0, 0.0, 0.0, 0.0, 1.621001637734786E9, 2021-05-14 16:13:57.734
2.0, 44.955467224121094, -189.13983154296875, 75.3533706665039, 434.0658874511719, 0.03200000151991844, -0.04800000041723251, 1.055999994277954, 0.0, 0.0, 0.0, 0.0, 0.0, 1.621001637734786E9, 2021-05-14 16:13:57.734
3.0, 39.944000244140625, -197.0946044921875, 69.33587646484375, 432.1622619628906, 0.03200000151991844, -0.04800000041723251, 1.055999994277954, 0.0, 0.0, 0.0, 0.0, 0.0, 1.6210016377355356E9, 2021-05-14 16:13:57.735
3.0, 18.9444637298584, -205.82351684570312, 57.30087661743164, 420.30303955078125, 0.03200000151991844, -0.04800000041723251, 1.055999994277954, 0.0, 0.0, 0.0, 0.0, 0.0, 1.6210016377355356E9, 2021-05-14 16:13:57.735
4.0, 38.560237884521484, -210.4049072265625, 58.96139144897461, 430.52044677734375, 0.03200000151991844, -0.04800000041723251, 1.055999994277954, 0.0, 0.0, 0.0, 0.0, 0.0, 1.6210016377491355E9, 2021-05-14 16:13:57.749
4.0, 37.789817810058594, -206.32467651367188, 58.422847747802734, 447.19293212890625, 0.03200000151991844, -0.04800000041723251, 1.055999994277954, 0.0, 0.0, 0.0, 0.0, 0.0, 1.6210016377491355E9, 2021-05-14 16:13:57.749
5.0, 58.26203155517578, -191.8288116455078, 66.69176483154297, 447.9745788574219, 0.03200000151991844, -0.04800000041723251, 1.055999994277954, 0.0, 0.0, 0.0, 0.0, 0.0, 1.621001637765201E9, 2021-05-14 16:13:57.765
5.0, 59.526119232177734, -225.91799926757812, 56.994205474853516, 427.999755859375, 0.03200000151991844, -0.04800000041723251, 1.055999994277954, 0.0, 0.0, 0.0, 0.0, 0.0, 1.621001637765201E9, 2021-05-14 16:13:57.765
6.0, 37.565425872802734, -213.89422607421875, 58.72578048706055, 432.8990173339844, 0.03200000151991844, -0.04800000041723251, 1.055999994277954, 0.0, 0.0, 0.0, 0.0, 0.0, 1.6210016377797887E9, 2021-05-14 16:13:57.779
6.0, 58.60236358642578, -190.46002197265625, 75.05792236328125, 440.3040466308594, 0.03200000151991844, -0.04800000041723251, 1.055999994277954, 0.0, 0.0, 0.0, 0.0, 0.0, 1.6210016377797887E9, 2021-05-14 16:13:57.779
7.0, 45.80816650390625, -185.59066772460938, 79.17555236816406, 436.661376953125, 0.03200000151991844, -0.04800000041723251, 1.055999994277954, 0.0, 0.0, 0.0, 0.0, 0.0, 1.6210016377805188E9, 2021-05-14 16:13:57.780
7.0, 35.44490051269531, -191.5221405029297, 71.09736633300781, 417.5579528808594, 0.03200000151991844, -0.04800000041723251, 1.055999994277954, 0.0, 0.0, 0.0, 0.0, 0.0, 1.6210016377805188E9, 2021-05-14 16:13:57.780
8.0, 27.707048416137695, -210.3076629638672, 62.910728454589844, 400.03277587890625, 0.03200000151991844, -0.04800000041723251, 1.055999994277954, 0.0, 0.0, 0.0, 0.0, 0.0, 1.6210016377947795E9, 2021-05-14 16:13:57.794
8.0, 33.40665817260742, -207.62242126464844, 62.68633270263672, 395.9974365234375, 0.03200000151991844, -0.04800000041723251, 1.055999994277954, 0.0, 0.0, 0.0, 0.0, 0.0, 1.6210016377947795E9, 2021-05-14 16:13:57.794
9.0, 63.93920135498047, -183.2233123779297, 80.40223693847656, 400.7022399902344, 0.03200000151991844, -0.04800000041723251, 1.055999994277954, 0.0, 0.0, 0.0, 0.0, 0.0, 1.6210016377954943E9, 2021-05-14 16:13:57.795
9.0, 62.764869689941406, -203.8825225830078, 71.47883605957031, 393.7011413574219, 0.03200000151991844, -0.04800000041723251, 1.055999994277954, 0.0, 0.0, 0.0, 0.0, 0.0, 1.6210016377954943E9, 2021-05-14 16:13:57.795
10.0, 67.82121276855469, -197.62191772460938, 70.72338104248047, 395.111083984375, 0.03200000151991844, -0.04800000041723251, 1.055999994277954, 0.0, 0.0, 0.0, 0.0, 0.0, 1.6210016378091035E9, 2021-05-14 16:13:57.809
10.0, 63.76716232299805, -209.6457061767578, 67.42478942871094, 405.4182434082031, 0.03200000151991844, -0.04800000041723251, 1.055999994277954, 0.0, 0.0, 0.0, 0.0, 0.0, 1.6210016378091035E9, 2021-05-14 16:13:57.809
11.0, 55.87223434448242, -207.45037841796875, 65.38654327392578, 422.7302551269531, 0.03200000151991844, -0.04800000041723251, 1.055999994277954, 0.0, 0.0, 0.0, 0.0, 0.0, 1.6210016378247757E9, 2021-05-14 16:13:57.824
11.0, 46.24199295043945, -218.26991271972656, 58.57992172241211, 417.7038269042969, 0.03200000151991844, -0.04800000041723251, 1.055999994277954, 0.0, 0.0, 0.0, 0.0, 0.0, 1.6210016378247757E9, 2021-05-14 16:13:57.824
12.0, 35.44864273071289, -217.6827392578125, 53.90504837036133, 417.57666015625, 0.03200000151991844, -0.04800000041723251, 1.055999994277954, 0.0, 0.0, 0.0, 0.0, 0.0, 1.621001637825562E9, 2021-05-14 16:13:57.825
12.0, 43.579185485839844, -210.00099182128906, 61.620460510253906, 435.2701110839844, 0.03200000151991844, -0.04800000041723251, 1.055999994277954, 0.0, 0.0, 0.0, 0.0, 0.0, 1.621001637825562E9, 2021-05-14 16:13:57.825
13.0, 42.6180305480957, -212.79095458984375, 63.70732498168945, 436.8072204589844, 0.03200000151991844, -0.04800000041723251, 1.055999994277954, 0.0, 0.0, 0.0, 0.0, 0.0, 1.6210016378391297E9, 2021-05-14 16:13:57.839
13.0, 19.913097381591797, -216.83004760742188, 53.744232177734375, 426.638427734375, 0.03200000151991844, -0.04800000041723251, 1.055999994277954, 0.0, 0.0, 0.0, 0.0, 0.0, 1.6210016378391297E9, 2021-05-14 16:13:57.839
14.0, 16.35645294189453, -219.0403289794922, 46.346710205078125, 424.431884765625, 0.03200000151991844, -0.04800000041723251, 1.055999994277954, 0.0, 0.0, 0.0, 0.0, 0.0, 1.6210016378875115E9, 2021-05-14 16:13:57.887
14.0, 52.05379867553711, -203.2766571044922, 64.0289535522461, 449.724853515625, 0.03200000151991844, -0.04800000041723251, 1.055999994277954, 0.0, 0.0, 0.0, 0.0, 0.0, 1.6210016378875115E9, 2021-05-14 16:13:57.887
15.0, 47.62201690673828, -202.0125732421875, 65.27434539794922, 439.35784912109375, 0.03200000151991844, -0.04800000041723251, 1.055999994277954, 0.0, 0.0, 0.0, 0.0, 0.0, 1.6210016378883123E9, 2021-05-14 16:13:57.888
15.0, 35.63189697265625, -215.9885711669922, 54.260337829589844, 424.00555419921875, 0.03200000151991844, -0.04800000041723251, 1.055999994277954, 0.0, 0.0, 0.0, 0.0, 0.0, 1.6210016378883123E9, 2021-05-14 16:13:57.888
16.0, 50.213768005371094, -214.45895385742188, 66.16069793701172, 421.54095458984375, 0.03200000151991844, -0.04800000041723251, 1.055999994277954, 0.0, 0.0, 0.0, 0.0, 0.0, 1.621001637889043E9, 2021-05-14 16:13:57.889
16.0, 54.62685012817383, -193.19761657714844, 72.3390121459961, 424.443115234375, 0.03200000151991844, -0.04800000041723251, 1.055999994277954, 0.0, 0.0, 0.0, 0.0, 0.0, 1.621001637889043E9, 2021-05-14 16:13:57.889
17.0, 49.645301818847656, -189.91024780273438, 77.1747055053711, 418.1937561035156, 0.03200000151991844, -0.04800000041723251, 1.055999994277954, 0.0, 0.0, 0.0, 0.0, 0.0, 1.6210016378897896E9, 2021-05-14 16:13:57.889
17.0, 31.648902893066406, -194.2447967529297, 70.74955749511719, 394.101318359375, 0.03200000151991844, -0.04800000041723251, 1.055999994277954, 0.0, 0.0, 0.0, 0.0, 0.0, 1.6210016378897896E9, 2021-05-14 16:13:57.889
18.0, 37.64396286010742, -193.11534118652344, 75.41321563720703, 387.822021484375, 0.03200000151991844, -0.04800000041723251, 1.055999994277954, 0.0, 0.0, 0.0, 0.0, 0.0, 1.6210016378998804E9, 2021-05-14 16:13:57.899
18.0, 51.03654479980469, -180.1790313720703, 79.5083999633789, 394.7632751464844, 0.03200000151991844, -0.04800000041723251, 1.055999994277954, 0.0, 0.0, 0.0, 0.0, 0.0, 1.6210016378998804E9, 2021-05-14 16:13:57.899
19.0, 57.932918548583984, -186.21148681640625, 76.7146987915039, 404.4496154785156, 0.03200000151991844, -0.04800000041723251, 1.055999994277954, 0.0, 0.0, 0.0, 0.0, 0.0, 1.621001637900579E9, 2021-05-14 16:13:57.900
19.0, 46.589805603027344, -199.9668426513672, 71.25818634033203, 403.5445556640625, 0.03200000151991844, -0.04800000041723251, 1.055999994277954, 0.0, 0.0, 0.0, 0.0, 0.0, 1.621001637900579E9, 2021-05-14 16:13:57.900
20.0, 46.0512580871582, -201.80313110351562, 66.88249969482422, 421.8775329589844, 0.03200000151991844, -0.04800000041723251, 1.055999994277954, 0.0, 0.0, 0.0, 0.0, 0.0, 1.621001637914889E9, 2021-05-14 16:13:57.914
20.0, 60.745323181152344, -197.26663208007812, 70.2297134399414, 437.91796875, 0.03200000151991844, -0.04800000041723251, 1.055999994277954, 0.0, 0.0, 0.0, 0.0, 0.0, 1.621001637914889E9, 2021-05-14 16:13:57.914
21.0, 61.64664077758789, -198.28762817382812, 70.89167022705078, 442.84716796875, 0.03200000151991844, -0.04800000041723251, 1.055999994277954, 0.0, 0.0, 0.0, 0.0, 0.0, 1.6210016379155898E9, 2021-05-14 16:13:57.915
21.0, 42.674129486083984, -211.3361358642578, 59.559776306152344, 431.0739440917969, 0.03200000151991844, -0.04800000041723251, 1.055999994277954, 0.0, 0.0, 0.0, 0.0, 0.0, 1.6210016379155898E9, 2021-05-14 16:13:57.915
22.0, 41.81394958496094, -210.91726684570312, 63.23609924316406, 438.3218994140625, 0.03200000151991844, -0.04800000041723251, 1.055999994277954, 0.0, 0.0, 0.0, 0.0, 0.0, 1.621001637929044E9, 2021-05-14 16:13:57.929
22.0, 47.9997444152832, -195.5724639892578, 69.68368530273438, 441.04827880859375, 0.03200000151991844, -0.04800000041723251, 1.055999994277954, 0.0, 0.0, 0.0, 0.0, 0.0, 1.621001637929044E9, 2021-05-14 16:13:57.929
23.0, 33.83674621582031, -202.31924438476562, 69.76596069335938, 437.91424560546875, 0.03200000151991844, -0.04800000041723251, 1.055999994277954, 0.0, 0.0, 0.0, 0.0, 0.0, 1.6210016379448464E9, 2021-05-14 16:13:57.944
23.0, 21.943862915039062, -205.8310089111328, 66.40753173828125, 429.1479187011719, 0.03200000151991844, -0.04800000041723251, 1.055999994277954, 0.0, 0.0, 0.0, 0.0, 0.0, 1.6210016379448464E9, 2021-05-14 16:13:57.944
24.0, 21.40157699584961, -206.85198974609375, 67.08819580078125, 430.22125244140625, 0.03200000151991844, -0.04800000041723251, 1.055999994277954, 0.0, 0.0, 0.0, 0.0, 0.0, 1.6210016379455814E9, 2021-05-14 16:13:57.945
24.0, 42.45721435546875, -192.5992431640625, 75.5889892578125, 439.79913330078125, 0.03200000151991844, -0.04800000041723251, 1.055999994277954, 0.0, 0.0, 0.0, 0.0, 0.0, 1.6210016379455814E9, 2021-05-14 16:13:57.945
25.0, 52.502586364746094, -187.17263793945312, 76.76331329345703, 439.9001159667969, 0.03200000151991844, -0.04800000041723251, 1.055999994277954, 0.0, 0.0, 0.0, 0.0, 0.0, 1.6210016379590569E9, 2021-05-14 16:13:57.959
25.0, 35.53466033935547, -201.38426208496094, 67.91844940185547, 424.60394287109375, 0.03200000151991844, -0.04800000041723251, 1.055999994277954, 0.0, 0.0, 0.0, 0.0, 0.0, 1.6210016379590569E9, 2021-05-14 16:13:57.959
26.0, 34.79042053222656, -197.8201446533203, 58.34804916381836, 410.44091796875, 0.03200000151991844, -0.04800000041723251, 1.055999994277954, 0.0, 0.0, 0.0, 0.0, 0.0, 1.621001637974849E9, 2021-05-14 16:13:57.974
26.0, 62.443241119384766, -186.9445037841797, 73.15057373046875, 425.452880859375, 0.03200000151991844, -0.04800000041723251, 1.055999994277954, 0.0, 0.0, 0.0, 0.0, 0.0, 1.621001637974849E9, 2021-05-14 16:13:57.974
27.0, 67.46966552734375, -182.6847686767578, 73.47594451904297, 415.8675231933594, 0.03200000151991844, -0.04800000041723251, 1.055999994277954, 0.0, 0.0, 0.0, 0.0, 0.0, 1.6210016379755366E9, 2021-05-14 16:13:57.975
27.0, 49.495704650878906, -192.01206970214844, 62.40958023071289, 389.5086975097656, 0.03200000151991844, -0.04800000041723251, 1.055999994277954, 0.0, 0.0, 0.0, 0.0, 0.0, 1.6210016379755366E9, 2021-05-14 16:13:57.975
28.0, 50.636375427246094, -193.33226013183594, 59.7018928527832, 388.0090026855469, 0.03200000151991844, -0.04800000041723251, 1.055999994277954, 0.0, 0.0, 0.0, 0.0, 0.0, 1.621001637989251E9, 2021-05-14 16:13:57.989
28.0, 61.182891845703125, -183.27566528320312, 69.94548034667969, 411.5778503417969, 0.03200000151991844, -0.04800000041723251, 1.055999994277954, 0.0, 0.0, 0.0, 0.0, 0.0, 1.621001637989251E9, 2021-05-14 16:13:57.989
29.0, 68.77114868164062, -186.9183349609375, 67.48836517333984, 419.2857971191406, 0.03200000151991844, -0.04800000041723251, 1.055999994277954, 0.0, 0.0, 0.0, 0.0, 0.0, 1.6210016380048587E9, 2021-05-14 16:13:58.004
29.0, 55.40848922729492, -196.701904296875, 57.42803192138672, 413.6759338378906, 0.03200000151991844, -0.04800000041723251, 1.055999994277954, 0.0, 0.0, 0.0, 0.0, 0.0, 1.6210016380048587E9, 2021-05-14 16:13:58.004
30.0, 42.049564361572266, -202.15093994140625, 51.399314880371094, 410.39605712890625, 0.03200000151991844, -0.04800000041723251, 1.055999994277954, 0.0, 0.0, 0.0, 0.0, 0.0, 1.621001638005665E9, 2021-05-14 16:13:58.005
30.0, 51.64988708496094, -193.33226013183594, 57.989017486572266, 426.2083435058594, 0.03200000151991844, -0.04800000041723251, 1.055999994277954, 0.0, 0.0, 0.0, 0.0, 0.0, 1.621001638005665E9, 2021-05-14 16:13:58.005
31.0, 47.24054718017578, -201.26084899902344, 55.9881706237793, 429.5780029296875, 0.03200000151991844, -0.04800000041723251, 1.055999994277954, 0.0, 0.0, 0.0, 0.0, 0.0, 1.6210016380190897E9, 2021-05-14 16:13:58.019
31.0, 35.90116882324219, -207.4354248046875, 41.42500305175781, 413.7843933105469, 0.03200000151991844, -0.04800000041723251, 1.055999994277954, 0.0, 0.0, 0.0, 0.0, 0.0, 1.6210016380190897E9, 2021-05-14 16:13:58.019
32.0, 33.87788391113281, -205.75621032714844, 46.122314453125, 412.98779296875, 0.03200000151991844, -0.04800000041723251, 1.055999994277954, 0.0, 0.0, 0.0, 0.0, 0.0, 1.621001638034924E9, 2021-05-14 16:13:58.034
32.0, 47.307865142822266, -187.5877685546875, 58.5574836730957, 424.6376037597656, 0.03200000151991844, -0.04800000041723251, 1.055999994277954, 0.0, 0.0, 0.0, 0.0, 0.0, 1.621001638034924E9, 2021-05-14 16:13:58.034
33.0, 53.022430419921875, -186.7051544189453, 64.2496109008789, 431.4217834472656, 0.03200000151991844, -0.04800000041723251, 1.055999994277954, 0.0, 0.0, 0.0, 0.0, 0.0, 1.6210016380357027E9, 2021-05-14 16:13:58.035
33.0, 23.918529510498047, -192.82737731933594, 55.85353469848633, 415.87127685546875, 0.03200000151991844, -0.04800000041723251, 1.055999994277954, 0.0, 0.0, 0.0, 0.0, 0.0, 1.6210016380357027E9, 2021-05-14 16:13:58.035
34.0, 32.88307189941406, -195.25082397460938, 65.66703033447266, 421.2641906738281, 0.03200000151991844, -0.04800000041723251, 1.055999994277954, 0.0, 0.0, 0.0, 0.0, 0.0, 1.6210016380491636E9, 2021-05-14 16:13:58.049
34.0, 47.435020446777344, -182.77078247070312, 77.56739807128906, 435.793701171875, 0.03200000151991844, -0.04800000041723251, 1.055999994277954, 0.0, 0.0, 0.0, 0.0, 0.0, 1.6210016380491636E9, 2021-05-14 16:13:58.049
35.0, 46.93761444091797, -175.7248077392578, 66.5159912109375, 423.4146423339844, 0.03200000151991844, -0.04800000041723251, 1.055999994277954, 0.0, 0.0, 0.0, 0.0, 0.0, 1.6210016380648189E9, 2021-05-14 16:13:58.064
35.0, 35.30278396606445, -192.70021057128906, 59.88140869140625, 405.26116943359375, 0.03200000151991844, -0.04800000041723251, 1.055999994277954, 0.0, 0.0, 0.0, 0.0, 0.0, 1.6210016380648189E9, 2021-05-14 16:13:58.064
36.0, 35.4523811340332, -187.5989990234375, 59.42140197753906, 398.8397521972656, 0.03200000151991844, -0.04800000041723251, 1.055999994277954, 0.0, 0.0, 0.0, 0.0, 0.0, 1.621001638065522E9, 2021-05-14 16:13:58.065
36.0, 57.90299987792969, -183.11485290527344, 63.58390808105469, 397.9384460449219, 0.03200000151991844, -0.04800000041723251, 1.055999994277954, 0.0, 0.0, 0.0, 0.0, 0.0, 1.621001638065522E9, 2021-05-14 16:13:58.065
37.0, 64.6722183227539, -173.49583435058594, 66.94233703613281, 402.82275390625, 0.03200000151991844, -0.04800000041723251, 1.055999994277954, 0.0, 0.0, 0.0, 0.0, 0.0, 1.6210016380954757E9, 2021-05-14 16:13:58.095
37.0, 44.65253448486328, -189.5923614501953, 61.79997634887695, 394.26959228515625, 0.03200000151991844, -0.04800000041723251, 1.055999994277954, 0.0, 0.0, 0.0, 0.0, 0.0, 1.6210016380954757E9, 2021-05-14 16:13:58.095
38.0, 44.9068489074707, -187.64761352539062, 60.64808654785156, 395.7431335449219, 0.03200000151991844, -0.04800000041723251, 1.055999994277954, 0.0, 0.0, 0.0, 0.0, 0.0, 1.6210016380961783E9, 2021-05-14 16:13:58.096
38.0, 55.81613540649414, -187.01182556152344, 66.17939758300781, 406.82818603515625, 0.03200000151991844, -0.04800000041723251, 1.055999994277954, 0.0, 0.0, 0.0, 0.0, 0.0, 1.6210016380961783E9, 2021-05-14 16:13:58.096
39.0, 62.682594299316406, -183.66461181640625, 60.70044708251953, 410.3100280761719, 0.03200000151991844, -0.04800000041723251, 1.055999994277954, 0.0, 0.0, 0.0, 0.0, 0.0, 1.6210016380969896E9, 2021-05-14 16:13:58.096
39.0, 42.69656753540039, -196.1932830810547, 52.97755432128906, 405.8296203613281, 0.03200000151991844, -0.04800000041723251, 1.055999994277954, 0.0, 0.0, 0.0, 0.0, 0.0, 1.6210016380969896E9, 2021-05-14 16:13:58.096
40.0, 34.06113815307617, -198.38111877441406, 53.265525817871094, 406.9478759765625, 0.03200000151991844, -0.04800000041723251, 1.055999994277954, 0.0, 0.0, 0.0, 0.0, 0.0, 1.6210016381091592E9, 2021-05-14 16:13:58.109
40.0, 43.193973541259766, -181.46182250976562, 62.192665100097656, 428.08203125, 0.03200000151991844, -0.04800000041723251, 1.055999994277954, 0.0, 0.0, 0.0, 0.0, 0.0, 1.6210016381091592E9, 2021-05-14 16:13:58.109
41.0, 37.049320220947266, -194.30462646484375, 58.05633544921875, 426.58233642578125, 0.03200000151991844, -0.04800000041723251, 1.055999994277954, 0.0, 0.0, 0.0, 0.0, 0.0, 1.6210016381248555E9, 2021-05-14 16:13:58.124
41.0, 30.209041595458984, -204.96334838867188, 55.90963363647461, 423.1453857421875, 0.03200000151991844, -0.04800000041723251, 1.055999994277954, 0.0, 0.0, 0.0, 0.0, 0.0, 1.6210016381248555E9, 2021-05-14 16:13:58.124
42.0, 35.00733184814453, -198.1604766845703, 56.470619201660156, 420.1833801269531, 0.03200000151991844, -0.04800000041723251, 1.055999994277954, 0.0, 0.0, 0.0, 0.0, 0.0, 1.6210016381255069E9, 2021-05-14 16:13:58.125
42.0, 47.117130279541016, -198.90097045898438, 68.47196197509766, 436.309814453125, 0.03200000151991844, -0.04800000041723251, 1.055999994277954, 0.0, 0.0, 0.0, 0.0, 0.0, 1.6210016381255069E9, 2021-05-14 16:13:58.125
43.0, 41.72419357299805, -191.72410583496094, 68.40837860107422, 439.27557373046875, 0.03200000151991844, -0.04800000041723251, 1.055999994277954, 0.0, 0.0, 0.0, 0.0, 0.0, 1.6210016381392221E9, 2021-05-14 16:13:58.139
43.0, 27.235820770263672, -200.0565948486328, 57.30087661743164, 417.5355224609375, 0.03200000151991844, -0.04800000041723251, 1.055999994277954, 0.0, 0.0, 0.0, 0.0, 0.0, 1.6210016381392221E9, 2021-05-14 16:13:58.139
44.0, 34.188297271728516, -192.70394897460938, 66.80770111083984, 417.1764831542969, 0.03200000151991844, -0.04800000041723251, 1.055999994277954, 0.0, 0.0, 0.0, 0.0, 0.0, 1.6210016381550572E9, 2021-05-14 16:13:58.155
44.0, 52.1547737121582, -177.66207885742188, 76.28460693359375, 428.95343017578125, 0.03200000151991844, -0.04800000041723251, 1.055999994277954, 0.0, 0.0, 0.0, 0.0, 0.0, 1.6210016381550572E9, 2021-05-14 16:13:58.155
45.0, 45.12002182006836, -179.31884765625, 67.30885314941406, 415.5795593261719, 0.03200000151991844, -0.04800000041723251, 1.055999994277954, 0.0, 0.0, 0.0, 0.0, 0.0, 1.6210016381555514E9, 2021-05-14 16:13:58.155
45.0, 41.570858001708984, -188.29087829589844, 68.02690887451172, 404.2476501464844, 0.03200000151991844, -0.04800000041723251, 1.055999994277954, 0.0, 0.0, 0.0, 0.0, 0.0, 1.6210016381555514E9, 2021-05-14 16:13:58.155
46.0, 45.6697883605957, -183.67958068847656, 66.92363739013672, 397.1642761230469, 0.03200000151991844, -0.04800000041723251, 1.055999994277954, 0.0, 0.0, 0.0, 0.0, 0.0, 1.6210016381693056E9, 2021-05-14 16:13:58.169
46.0, 62.532997131347656, -182.23971557617188, 66.16069793701172, 409.5470886230469, 0.03200000151991844, -0.04800000041723251, 1.055999994277954, 0.0, 0.0, 0.0, 0.0, 0.0, 1.6210016381693056E9, 2021-05-14 16:13:58.169
47.0, 56.02931213378906, -188.45169067382812, 69.21994018554688, 412.9242248535156, 0.03200000151991844, -0.04800000041723251, 1.055999994277954, 0.0, 0.0, 0.0, 0.0, 0.0, 1.621001638184935E9, 2021-05-14 16:13:58.184
47.0, 47.74917221069336, -200.1463623046875, 58.654720306396484, 400.8331298828125, 0.03200000151991844, -0.04800000041723251, 1.055999994277954, 0.0, 0.0, 0.0, 0.0, 0.0, 1.621001638184935E9, 2021-05-14 16:13:58.184
48.0, 34.809120178222656, -187.19882202148438, 65.44638061523438, 411.20013427734375, 0.03200000151991844, -0.04800000041723251, 1.055999994277954, 0.0, 0.0, 0.0, 0.0, 0.0, 1.621001638185701E9, 2021-05-14 16:13:58.185
48.0, 39.813106536865234, -180.82603454589844, 71.44143676757812, 424.38702392578125, 0.03200000151991844, -0.04800000041723251, 1.055999994277954, 0.0, 0.0, 0.0, 0.0, 0.0, 1.621001638185701E9, 2021-05-14 16:13:58.185
49.0, 38.133888244628906, -188.79949951171875, 71.11980438232422, 428.0483703613281, 0.03200000151991844, -0.04800000041723251, 1.055999994277954, 0.0, 0.0, 0.0, 0.0, 0.0, 1.6210016381990983E9, 2021-05-14 16:13:58.199
49.0, 40.47880554199219, -202.4613494873047, 59.88140869140625, 421.3464660644531, 0.03200000151991844, -0.04800000041723251, 1.055999994277954, 0.0, 0.0, 0.0, 0.0, 0.0, 1.6210016381990983E9, 2021-05-14 16:13:58.199
50.0, 41.24922561645508, -211.6278533935547, 49.14041519165039, 411.67510986328125, 0.03200000151991844, -0.04800000041723251, 1.055999994277954, 0.0, 0.0, 0.0, 0.0, 0.0, 1.6210016382149072E9, 2021-05-14 16:13:58.214
50.0, 49.55180358886719, -202.5174560546875, 55.68898010253906, 425.123779296875, 0.03200000151991844, -0.04800000041723251, 1.055999994277954, 0.0, 0.0, 0.0, 0.0, 0.0, 1.6210016382149072E9, 2021-05-14 16:13:58.214
51.0, 49.33115005493164, -197.042236328125, 58.65846252441406, 428.3213806152344, 0.03200000151991844, -0.04800000041723251, 1.055999994277954, 0.0, 0.0, 0.0, 0.0, 0.0, 1.621001638215637E9, 2021-05-14 16:13:58.215
51.0, 40.897674560546875, -202.28184509277344, 48.18674087524414, 412.2846984863281, 0.03200000151991844, -0.04800000041723251, 1.055999994277954, 0.0, 0.0, 0.0, 0.0, 0.0, 1.621001638215637E9, 2021-05-14 16:13:58.215
52.0, 38.72105407714844, -201.04019165039062, 53.05609130859375, 409.8350524902344, 0.03200000151991844, -0.04800000041723251, 1.055999994277954, 0.0, 0.0, 0.0, 0.0, 0.0, 1.6210016382291443E9, 2021-05-14 16:13:58.229
52.0, 46.17841339111328, -195.92401123046875, 55.602962493896484, 420.546142578125, 0.03200000151991844, -0.04800000041723251, 1.055999994277954, 0.0, 0.0, 0.0, 0.0, 0.0, 1.6210016382291443E9, 2021-05-14 16:13:58.229
53.0, 46.21581268310547, -193.25372314453125, 62.7723503112793, 426.3429870605469, 0.03200000151991844, -0.04800000041723251, 1.055999994277954, 0.0, 0.0, 0.0, 0.0, 0.0, 1.6210016382611897E9, 2021-05-14 16:13:58.261
53.0, 30.49701499938965, -199.99676513671875, 56.06671142578125, 416.4509582519531, 0.03200000151991844, -0.04800000041723251, 1.055999994277954, 0.0, 0.0, 0.0, 0.0, 0.0, 1.6210016382611897E9, 2021-05-14 16:13:58.261
54.0, 34.52862548828125, -197.82388305664062, 60.8463020324707, 423.16033935546875, 0.03200000151991844, -0.04800000041723251, 1.055999994277954, 0.0, 0.0, 0.0, 0.0, 0.0, 1.621001638261917E9, 2021-05-14 16:13:58.261
54.0, 48.261539459228516, -190.57969665527344, 63.38569259643555, 429.45458984375, 0.03200000151991844, -0.04800000041723251, 1.055999994277954, 0.0, 0.0, 0.0, 0.0, 0.0, 1.621001638261917E9, 2021-05-14 16:13:58.261
55.0, 52.4726676940918, -192.98818969726562, 56.63143539428711, 415.463623046875, 0.03200000151991844, -0.04800000041723251, 1.055999994277954, 0.0, 0.0, 0.0, 0.0, 0.0, 1.6210016382626507E9, 2021-05-14 16:13:58.262
55.0, 34.04243850708008, -202.0911102294922, 48.75146484375, 400.27215576171875, 0.03200000151991844, -0.04800000041723251, 1.055999994277954, 0.0, 0.0, 0.0, 0.0, 0.0, 1.6210016382626507E9, 2021-05-14 16:13:58.262
56.0, 43.32113265991211, -202.22947692871094, 52.66340255737305, 402.94244384765625, 0.03200000151991844, -0.04800000041723251, 1.055999994277954, 0.0, 0.0, 0.0, 0.0, 0.0, 1.6210016382633712E9, 2021-05-14 16:13:58.263
56.0, 52.66714096069336, -188.65737915039062, 58.63602066040039, 415.0709228515625, 0.03200000151991844, -0.04800000041723251, 1.055999994277954, 0.0, 0.0, 0.0, 0.0, 0.0, 1.6210016382633712E9, 2021-05-14 16:13:58.263
57.0, 53.833988189697266, -191.4585723876953, 62.619014739990234, 413.9040832519531, 0.03200000151991844, -0.04800000041723251, 1.055999994277954, 0.0, 0.0, 0.0, 0.0, 0.0, 1.6210016382741215E9, 2021-05-14 16:13:58.274
57.0, 42.89104080200195, -202.63339233398438, 54.48473358154297, 408.152099609375, 0.03200000151991844, -0.04800000041723251, 1.055999994277954, 0.0, 0.0, 0.0, 0.0, 0.0, 1.6210016382741215E9, 2021-05-14 16:13:58.274
58.0, 49.058135986328125, -205.4906768798828, 61.32126998901367, 409.3189697265625, 0.03200000151991844, -0.04800000041723251, 1.055999994277954, 0.0, 0.0, 0.0, 0.0, 0.0, 1.621001638289162E9, 2021-05-14 16:13:58.289
58.0, 56.00687026977539, -195.40415954589844, 67.20787048339844, 420.5012512207031, 0.03200000151991844, -0.04800000041723251, 1.055999994277954, 0.0, 0.0, 0.0, 0.0, 0.0, 1.621001638289162E9, 2021-05-14 16:13:58.289
59.0, 49.74253845214844, -190.774169921875, 70.28955078125, 426.144775390625, 0.03200000151991844, -0.04800000041723251, 1.055999994277954, 0.0, 0.0, 0.0, 0.0, 0.0, 1.6210016383197303E9, 2021-05-14 16:13:58.319
59.0, 36.9146842956543, -204.35374450683594, 57.54022979736328, 418.3769836425781, 0.03200000151991844, -0.04800000041723251, 1.055999994277954, 0.0, 0.0, 0.0, 0.0, 0.0, 1.6210016383197303E9, 2021-05-14 16:13:58.319
60.0, 46.440208435058594, -202.58477783203125, 58.32561111450195, 409.78271484375, 0.03200000151991844, -0.04800000041723251, 1.055999994277954, 0.0, 0.0, 0.0, 0.0, 0.0, 1.6210016383361764E9, 2021-05-14 16:13:58.336
60.0, 58.520084381103516, -195.7332763671875, 61.39980697631836, 423.2949523925781, 0.03200000151991844, -0.04800000041723251, 1.055999994277954, 0.0, 0.0, 0.0, 0.0, 0.0, 1.6210016383361764E9, 2021-05-14 16:13:58.336
61.0, 54.028465270996094, -198.2651824951172, 59.043670654296875, 418.8257751464844, 0.03200000151991844, -0.04800000041723251, 1.055999994277954, 0.0, 0.0, 0.0, 0.0, 0.0, 1.6210016383370595E9, 2021-05-14 16:13:58.337
61.0, 31.577844619750977, -199.3721923828125, 53.84894943237305, 408.8514709472656, 0.03200000151991844, -0.04800000041723251, 1.055999994277954, 0.0, 0.0, 0.0, 0.0, 0.0, 1.6210016383370595E9, 2021-05-14 16:13:58.337
62.0, 35.272865295410156, -190.89010620117188, 58.845455169677734, 411.8321838378906, 0.03200000151991844, -0.04800000041723251, 1.055999994277954, 0.0, 0.0, 0.0, 0.0, 0.0, 1.621001638337694E9, 2021-05-14 16:13:58.337
62.0, 34.319190979003906, -196.701904296875, 59.26432418823242, 422.8424377441406, 0.03200000151991844, -0.04800000041723251, 1.055999994277954, 0.0, 0.0, 0.0, 0.0, 0.0, 1.621001638337694E9, 2021-05-14 16:13:58.337
63.0, 44.001792907714844, -187.47557067871094, 69.62384796142578, 432.0276184082031, 0.03200000151991844, -0.04800000041723251, 1.055999994277954, 0.0, 0.0, 0.0, 0.0, 0.0, 1.6210016383384492E9, 2021-05-14 16:13:58.338
63.0, 32.56892013549805, -198.38111877441406, 62.30860137939453, 424.278564453125, 0.03200000151991844, -0.04800000041723251, 1.055999994277954, 0.0, 0.0, 0.0, 0.0, 0.0, 1.6210016383384492E9, 2021-05-14 16:13:58.338
64.0, 36.29759979248047, -195.78562927246094, 60.229217529296875, 417.53924560546875, 0.03200000151991844, -0.04800000041723251, 1.055999994277954, 0.0, 0.0, 0.0, 0.0, 0.0, 1.6210016383654656E9, 2021-05-14 16:13:58.365
64.0, 47.162010192871094, -192.2589111328125, 67.78755950927734, 428.4298400878906, 0.03200000151991844, -0.04800000041723251, 1.055999994277954, 0.0, 0.0, 0.0, 0.0, 0.0, 1.6210016383654656E9, 2021-05-14 16:13:58.365
65.0, 42.93592071533203, -194.5888671875, 63.64748764038086, 420.0337829589844, 0.03200000151991844, -0.04800000041723251, 1.055999994277954, 0.0, 0.0, 0.0, 0.0, 0.0, 1.6210016383662195E9, 2021-05-14 16:13:58.366
65.0, 44.764732360839844, -200.80084228515625, 56.92688751220703, 408.35406494140625, 0.03200000151991844, -0.04800000041723251, 1.055999994277954, 0.0, 0.0, 0.0, 0.0, 0.0, 1.6210016383662195E9, 2021-05-14 16:13:58.366
66.0, 50.18758773803711, -202.55859375, 53.57593536376953, 400.9079284667969, 0.03200000151991844, -0.04800000041723251, 1.055999994277954, 0.0, 0.0, 0.0, 0.0, 0.0, 1.6210016383669877E9, 2021-05-14 16:13:58.366
66.0, 58.131134033203125, -185.57945251464844, 67.34999084472656, 410.34368896484375, 0.03200000151991844, -0.04800000041723251, 1.055999994277954, 0.0, 0.0, 0.0, 0.0, 0.0, 1.6210016383669877E9, 2021-05-14 16:13:58.366
67.0, 65.80541229248047, -183.9750213623047, 69.02172088623047, 406.4429626464844, 0.03200000151991844, -0.04800000041723251, 1.055999994277954, 0.0, 0.0, 0.0, 0.0, 0.0, 1.6210016383792012E9, 2021-05-14 16:13:58.379
67.0, 51.264678955078125, -192.49452209472656, 67.55194091796875, 401.91021728515625, 0.03200000151991844, -0.04800000041723251, 1.055999994277954, 0.0, 0.0, 0.0, 0.0, 0.0, 1.6210016383792012E9, 2021-05-14 16:13:58.379
68.0, 45.400516510009766, -198.6242218017578, 66.0335464477539, 401.3417663574219, 0.03200000151991844, -0.04800000041723251, 1.055999994277954, 0.0, 0.0, 0.0, 0.0, 0.0, 1.621001638394879E9, 2021-05-14 16:13:58.394
68.0, 55.62914276123047, -190.17578125, 70.44288635253906, 408.8813781738281, 0.03200000151991844, -0.04800000041723251, 1.055999994277954, 0.0, 0.0, 0.0, 0.0, 0.0, 1.621001638394879E9, 2021-05-14 16:13:58.394
69.0, 59.982383728027344, -183.84786987304688, 63.64374923706055, 409.0683898925781, 0.03200000151991844, -0.04800000041723251, 1.055999994277954, 0.0, 0.0, 0.0, 0.0, 0.0, 1.621001638395596E9, 2021-05-14 16:13:58.395
69.0, 30.42595672607422, -206.21995544433594, 52.607303619384766, 393.55902099609375, 0.03200000151991844, -0.04800000041723251, 1.055999994277954, 0.0, 0.0, 0.0, 0.0, 0.0, 1.621001638395596E9, 2021-05-14 16:13:58.395
70.0, 38.07405090332031, -197.0048370361328, 57.270957946777344, 410.4334411621094, 0.03200000151991844, -0.04800000041723251, 1.055999994277954, 0.0, 0.0, 0.0, 0.0, 0.0, 1.6210016384091165E9, 2021-05-14 16:13:58.409
70.0, 45.88670349121094, -191.01351928710938, 61.960792541503906, 428.1717834472656, 0.03200000151991844, -0.04800000041723251, 1.055999994277954, 0.0, 0.0, 0.0, 0.0, 0.0, 1.6210016384091165E9, 2021-05-14 16:13:58.409
71.0, 50.77475357055664, -198.0669708251953, 66.46363067626953, 434.6006774902344, 0.03200000151991844, -0.04800000041723251, 1.055999994277954, 0.0, 0.0, 0.0, 0.0, 0.0, 1.621001638424902E9, 2021-05-14 16:13:58.424
71.0, 41.70923614501953, -206.3695526123047, 59.855228424072266, 420.041259765625, 0.03200000151991844, -0.04800000041723251, 1.055999994277954, 0.0, 0.0, 0.0, 0.0, 0.0, 1.621001638424902E9, 2021-05-14 16:13:58.424
72.0, 40.03376007080078, -199.8359375, 60.50971221923828, 417.75616455078125, 0.03200000151991844, -0.04800000041723251, 1.055999994277954, 0.0, 0.0, 0.0, 0.0, 0.0, 1.621001638425634E9, 2021-05-14 16:13:58.425
72.0, 49.17033386230469, -189.03884887695312, 67.02835845947266, 433.5086364746094, 0.03200000151991844, -0.04800000041723251, 1.055999994277954, 0.0, 0.0, 0.0, 0.0, 0.0, 1.621001638425634E9, 2021-05-14 16:13:58.425
73.0, 41.338985443115234, -190.06732177734375, 67.07697296142578, 429.4732666015625, 0.03200000151991844, -0.04800000041723251, 1.055999994277954, 0.0, 0.0, 0.0, 0.0, 0.0, 1.6210016384391716E9, 2021-05-14 16:13:58.439
73.0, 18.226402282714844, -201.73580932617188, 55.18783187866211, 409.24041748046875, 0.03200000151991844, -0.04800000041723251, 1.055999994277954, 0.0, 0.0, 0.0, 0.0, 0.0, 1.6210016384391716E9, 2021-05-14 16:13:58.439
74.0, 36.2340202331543, -201.6984100341797, 59.15212631225586, 412.4455261230469, 0.03200000151991844, -0.04800000041723251, 1.055999994277954, 0.0, 0.0, 0.0, 0.0, 0.0, 1.6210016384555995E9, 2021-05-14 16:13:58.455
74.0, 50.509220123291016, -192.62167358398438, 67.1966552734375, 422.01593017578125, 0.03200000151991844, -0.04800000041723251, 1.055999994277954, 0.0, 0.0, 0.0, 0.0, 0.0, 1.6210016384555995E9, 2021-05-14 16:13:58.455
75.0, 53.512359619140625, -199.29739379882812, 61.2277717590332, 419.525146484375, 0.03200000151991844, -0.04800000041723251, 1.055999994277954, 0.0, 0.0, 0.0, 0.0, 0.0, 1.6210016384564571E9, 2021-05-14 16:13:58.456
75.0, 51.01410675048828, -206.26856994628906, 64.24213409423828, 412.236083984375, 0.03200000151991844, -0.04800000041723251, 1.055999994277954, 0.0, 0.0, 0.0, 0.0, 0.0, 1.6210016384564571E9, 2021-05-14 16:13:58.456
76.0, 56.332244873046875, -206.1601104736328, 61.919654846191406, 404.38604736328125, 0.03200000151991844, -0.04800000041723251, 1.055999994277954, 0.0, 0.0, 0.0, 0.0, 0.0, 1.6210016384691103E9, 2021-05-14 16:13:58.469
76.0, 65.71565246582031, -194.36447143554688, 72.72422790527344, 415.35888671875, 0.03200000151991844, -0.04800000041723251, 1.055999994277954, 0.0, 0.0, 0.0, 0.0, 0.0, 1.6210016384691103E9, 2021-05-14 16:13:58.469
77.0, 63.961639404296875, -191.52589416503906, 75.24118041992188, 423.4445495605469, 0.03200000151991844, -0.04800000041723251, 1.055999994277954, 0.0, 0.0, 0.0, 0.0, 0.0, 1.6210016384848485E9, 2021-05-14 16:13:58.484
77.0, 44.08407211303711, -192.6852569580078, 69.97914123535156, 408.3353576660156, 0.03200000151991844, -0.04800000041723251, 1.055999994277954, 0.0, 0.0, 0.0, 0.0, 0.0, 1.6210016384848485E9, 2021-05-14 16:13:58.484
78.0, 43.063079833984375, -197.49102783203125, 66.45989227294922, 398.92950439453125, 0.03200000151991844, -0.04800000041723251, 1.055999994277954, 0.0, 0.0, 0.0, 0.0, 0.0, 1.6210016384856749E9, 2021-05-14 16:13:58.485
78.0, 50.449378967285156, -189.1173858642578, 66.29907989501953, 407.42657470703125, 0.03200000151991844, -0.04800000041723251, 1.055999994277954, 0.0, 0.0, 0.0, 0.0, 0.0, 1.6210016384856749E9, 2021-05-14 16:13:58.485
79.0, 48.46723175048828, -187.87948608398438, 65.85028839111328, 408.7953796386719, 0.03200000151991844, -0.04800000041723251, 1.055999994277954, 0.0, 0.0, 0.0, 0.0, 0.0, 1.6210016384991288E9, 2021-05-14 16:13:58.499
79.0, 35.175628662109375, -195.57994079589844, 54.29399871826172, 403.7689514160156, 0.03200000151991844, -0.04800000041723251, 1.055999994277954, 0.0, 0.0, 0.0, 0.0, 0.0, 1.6210016384991288E9, 2021-05-14 16:13:58.499
80.0, 24.939523696899414, -197.8575439453125, 52.60356140136719, 407.7220153808594, 0.03200000151991844, -0.04800000041723251, 1.055999994277954, 0.0, 0.0, 0.0, 0.0, 0.0, 1.6210016385149448E9, 2021-05-14 16:13:58.514
80.0, 50.33718490600586, -183.0886688232422, 64.7507553100586, 428.48968505859375, 0.03200000151991844, -0.04800000041723251, 1.055999994277954, 0.0, 0.0, 0.0, 0.0, 0.0, 1.6210016385149448E9, 2021-05-14 16:13:58.514
81.0, 49.85099792480469, -186.93702697753906, 65.41645812988281, 429.5443420410156, 0.03200000151991844, -0.04800000041723251, 1.055999994277954, 0.0, 0.0, 0.0, 0.0, 0.0, 1.6210016385156643E9, 2021-05-14 16:13:58.515
81.0, 36.701507568359375, -197.0384979248047, 51.53021240234375, 410.8672790527344, 0.03200000151991844, -0.04800000041723251, 1.055999994277954, 0.0, 0.0, 0.0, 0.0, 0.0, 1.6210016385156643E9, 2021-05-14 16:13:58.515
82.0, 34.36033248901367, -203.38885498046875, 53.224388122558594, 419.3082275390625, 0.03200000151991844, -0.04800000041723251, 1.055999994277954, 0.0, 0.0, 0.0, 0.0, 0.0, 1.6210016385291233E9, 2021-05-14 16:13:58.529
82.0, 44.47676086425781, -181.30099487304688, 66.69176483154297, 433.4151306152344, 0.03200000151991844, -0.04800000041723251, 1.055999994277954, 0.0, 0.0, 0.0, 0.0, 0.0, 1.6210016385291233E9, 2021-05-14 16:13:58.529
83.0, 48.205440521240234, -186.97816467285156, 65.34165954589844, 432.49139404296875, 0.03200000151991844, -0.04800000041723251, 1.055999994277954, 0.0, 0.0, 0.0, 0.0, 0.0, 1.62100163854483E9, 2021-05-14 16:13:58.544
83.0, 43.751220703125, -196.0773468017578, 65.02002716064453, 422.3113708496094, 0.03200000151991844, -0.04800000041723251, 1.055999994277954, 0.0, 0.0, 0.0, 0.0, 0.0, 1.62100163854483E9, 2021-05-14 16:13:58.544
84.0, 47.23306655883789, -192.95826721191406, 70.00157928466797, 423.0593566894531, 0.03200000151991844, -0.04800000041723251, 1.055999994277954, 0.0, 0.0, 0.0, 0.0, 0.0, 1.6210016385456567E9, 2021-05-14 16:13:58.545
84.0, 56.87826919555664, -181.3197021484375, 76.74461364746094, 431.4329833984375, 0.03200000151991844, -0.04800000041723251, 1.055999994277954, 0.0, 0.0, 0.0, 0.0, 0.0, 1.6210016385456567E9, 2021-05-14 16:13:58.545
85.0, 58.50138473510742, -186.12547302246094, 71.04875183105469, 421.7092590332031, 0.03200000151991844, -0.04800000041723251, 1.055999994277954, 0.0, 0.0, 0.0, 0.0, 0.0, 1.6210016385592673E9, 2021-05-14 16:13:58.559
85.0, 45.88670349121094, -199.5479736328125, 62.675113677978516, 409.78643798828125, 0.03200000151991844, -0.04800000041723251, 1.055999994277954, 0.0, 0.0, 0.0, 0.0, 0.0, 1.6210016385592673E9, 2021-05-14 16:13:58.559
86.0, 47.11338806152344, -194.30088806152344, 66.51225280761719, 398.5779724121094, 0.03200000151991844, -0.04800000041723251, 1.055999994277954, 0.0, 0.0, 0.0, 0.0, 0.0, 1.6210016385750067E9, 2021-05-14 16:13:58.575
86.0, 64.84799194335938, -194.8843231201172, 73.07203674316406, 406.6000671386719, 0.03200000151991844, -0.04800000041723251, 1.055999994277954, 0.0, 0.0, 0.0, 0.0, 0.0, 1.6210016385750067E9, 2021-05-14 16:13:58.575
87.0, 60.56581115722656, -191.08831787109375, 73.71155548095703, 410.4184875488281, 0.03200000151991844, -0.04800000041723251, 1.055999994277954, 0.0, 0.0, 0.0, 0.0, 0.0, 1.6210016385755892E9, 2021-05-14 16:13:58.575
87.0, 54.282779693603516, -195.97262573242188, 63.13138198852539, 398.1329345703125, 0.03200000151991844, -0.04800000041723251, 1.055999994277954, 0.0, 0.0, 0.0, 0.0, 0.0, 1.6210016385755892E9, 2021-05-14 16:13:58.575
88.0, 51.81444549560547, -192.13548278808594, 67.62300109863281, 395.83660888671875, 0.03200000151991844, -0.04800000041723251, 1.055999994277954, 0.0, 0.0, 0.0, 0.0, 0.0, 1.621001638589326E9, 2021-05-14 16:13:58.589
88.0, 51.56761169433594, -176.1810760498047, 65.82411193847656, 409.337646484375, 0.03200000151991844, -0.04800000041723251, 1.055999994277954, 0.0, 0.0, 0.0, 0.0, 0.0, 1.621001638589326E9, 2021-05-14 16:13:58.589
89.0, 52.8541374206543, -184.77162170410156, 66.01484680175781, 417.1951904296875, 0.03200000151991844, -0.04800000041723251, 1.055999994277954, 0.0, 0.0, 0.0, 0.0, 0.0, 1.6210016386213777E9, 2021-05-14 16:13:58.621
89.0, 34.21821594238281, -195.7781524658203, 57.947879791259766, 400.51898193359375, 0.03200000151991844, -0.04800000041723251, 1.055999994277954, 0.0, 0.0, 0.0, 0.0, 0.0, 1.6210016386213777E9, 2021-05-14 16:13:58.621
90.0, 26.585079193115234, -195.28074645996094, 53.54975891113281, 412.0827331542969, 0.03200000151991844, -0.04800000041723251, 1.055999994277954, 0.0, 0.0, 0.0, 0.0, 0.0, 1.6210016386220472E9, 2021-05-14 16:13:58.622
90.0, 40.67702102661133, -188.3619384765625, 65.6932144165039, 423.9718933105469, 0.03200000151991844, -0.04800000041723251, 1.055999994277954, 0.0, 0.0, 0.0, 0.0, 0.0, 1.6210016386220472E9, 2021-05-14 16:13:58.622
91.0, 42.3375358581543, -190.50115966796875, 71.22452545166016, 432.5287780761719, 0.03200000151991844, -0.04800000041723251, 1.055999994277954, 0.0, 0.0, 0.0, 0.0, 0.0, 1.6210016386227849E9, 2021-05-14 16:13:58.622
91.0, 29.70415496826172, -202.36412048339844, 59.15960693359375, 419.9963684082031, 0.03200000151991844, -0.04800000041723251, 1.055999994277954, 0.0, 0.0, 0.0, 0.0, 0.0, 1.6210016386227849E9, 2021-05-14 16:13:58.622
92.0, 38.44430160522461, -197.10581970214844, 62.7835693359375, 428.6018981933594, 0.04800000041723251, -0.04800000041723251, 1.055999994277954, 0.0, 0.0, 0.0, 0.0, 0.0, 1.621001638623561E9, 2021-05-14 16:13:58.623
92.0, 58.86415481567383, -197.1806182861328, 70.63362121582031, 442.26373291015625, 0.04800000041723251, -0.04800000041723251, 1.055999994277954, 0.0, 0.0, 0.0, 0.0, 0.0, 1.621001638623561E9, 2021-05-14 16:13:58.623
93.0, 65.30052185058594, -193.4481964111328, 75.55158996582031, 439.2007751464844, 0.04800000041723251, -0.04800000041723251, 1.055999994277954, 0.0, 0.0, 0.0, 0.0, 0.0, 1.621001638634097E9, 2021-05-14 16:13:58.634
93.0, 44.200008392333984, -202.67453002929688, 65.40898132324219, 419.0950622558594, 0.04800000041723251, -0.04800000041723251, 1.055999994277954, 0.0, 0.0, 0.0, 0.0, 0.0, 1.621001638634097E9, 2021-05-14 16:13:58.634
94.0, 43.99057388305664, -195.74449157714844, 67.79503631591797, 420.0823974609375, 0.04800000041723251, -0.04800000041723251, 1.055999994277954, 0.0, 0.0, 0.0, 0.0, 0.0, 1.6210016386492336E9, 2021-05-14 16:13:58.649
94.0, 60.25539779663086, -184.77162170410156, 77.27568054199219, 433.598388671875, 0.04800000041723251, -0.04800000041723251, 1.055999994277954, 0.0, 0.0, 0.0, 0.0, 0.0, 1.6210016386492336E9, 2021-05-14 16:13:58.649
95.0, 64.48896789550781, -188.11135864257812, 74.60539245605469, 434.03594970703125, 0.04800000041723251, -0.04800000041723251, 1.055999994277954, 0.0, 0.0, 0.0, 0.0, 0.0, 1.6210016386648805E9, 2021-05-14 16:13:58.664
95.0, 45.340675354003906, -201.17108154296875, 62.525516510009766, 407.6958312988281, 0.04800000041723251, -0.04800000041723251, 1.055999994277954, 0.0, 0.0, 0.0, 0.0, 0.0, 1.6210016386648805E9, 2021-05-14 16:13:58.664
96.0, 48.14186096191406, -203.0260772705078, 67.07323455810547, 407.09747314453125, 0.04800000041723251, -0.04800000041723251, 1.055999994277954, 0.0, 0.0, 0.0, 0.0, 0.0, 1.62100163866557E9, 2021-05-14 16:13:58.665
96.0, 65.15092468261719, -186.39474487304688, 82.49658203125, 415.60198974609375, 0.04800000041723251, -0.04800000041723251, 1.055999994277954, 0.0, 0.0, 0.0, 0.0, 0.0, 1.62100163866557E9, 2021-05-14 16:13:58.665
97.0, 66.13078308105469, -184.76414489746094, 77.9376449584961, 407.6397399902344, 0.04800000041723251, -0.04800000041723251, 1.055999994277954, 0.0, 0.0, 0.0, 0.0, 0.0, 1.6210016386792734E9, 2021-05-14 16:13:58.679
97.0, 44.200008392333984, -194.18495178222656, 60.4947509765625, 393.4991760253906, 0.04800000041723251, -0.04800000041723251, 1.055999994277954, 0.0, 0.0, 0.0, 0.0, 0.0, 1.6210016386792734E9, 2021-05-14 16:13:58.679
98.0, 55.5057258605957, -191.51840209960938, 54.39871597290039, 392.9269714355469, 0.04800000041723251, -0.04800000041723251, 1.055999994277954, 0.0, 0.0, 0.0, 0.0, 0.0, 1.6210016386953294E9, 2021-05-14 16:13:58.695
98.0, 48.055843353271484, -182.2621612548828, 62.06924819946289, 415.041015625, 0.04800000041723251, -0.04800000041723251, 1.055999994277954, 0.0, 0.0, 0.0, 0.0, 0.0, 1.6210016386953294E9, 2021-05-14 16:13:58.695
99.0, 33.49267578125, -184.1919403076172, 62.428279876708984, 424.701171875, 0.04800000041723251, -0.04800000041723251, 1.055999994277954, 0.0, 0.0, 0.0, 0.0, 0.0, 1.6210016387107491E9, 2021-05-14 16:13:58.710
99.0, 28.6158447265625, -185.26528930664062, 66.5758285522461, 420.5947570800781, 0.04800000041723251, -0.04800000041723251, 1.055999994277954, 0.0, 0.0, 0.0, 0.0, 0.0, 1.6210016387107491E9, 2021-05-14 16:13:58.710
100.0, 20.70221710205078, -187.48680114746094, 57.20363998413086, 415.6618347167969, 0.04800000041723251, -0.04800000041723251, 1.055999994277954, 0.0, 0.0, 0.0, 0.0, 0.0, 1.621001638711403E9, 2021-05-14 16:13:58.711
100.0, 39.77944564819336, -188.4703826904297, 63.4754524230957, 433.1570739746094, 0.04800000041723251, -0.04800000041723251, 1.055999994277954, 0.0, 0.0, 0.0, 0.0, 0.0, 1.621001638711403E9, 2021-05-14 16:13:58.711
0.0, 40.66954040527344, -194.14569091796875, 65.36971282958984, 432.9364318847656, 0.04800000041723251, -0.04800000041723251, 1.055999994277954, 0.0, 0.0, 0.0, 0.0, 0.0, 1.621001638712012E9, 2021-05-14 16:13:58.712
1.0, 41.61573791503906, -189.98318481445312, 65.5193099975586, 432.4427490234375, 0.04800000041723251, -0.04800000041723251, 1.055999994277954, 0.0, 0.0, 0.0, 0.0, 0.0, 1.6210016387242768E9, 2021-05-14 16:13:58.724
1.0, 43.661460876464844, -198.66348266601562, 60.6948356628418, 418.9566955566406, 0.04800000041723251, -0.04800000041723251, 1.055999994277954, 0.0, 0.0, 0.0, 0.0, 0.0, 1.6210016387242768E9, 2021-05-14 16:13:58.724
2.0, 64.15237426757812, -192.86289978027344, 69.23302459716797, 425.64361572265625, 0.03200000151991844, -0.04800000041723251, 1.055999994277954, 0.0, 0.0, 0.0, 0.0, 0.0, 1.6210016387399557E9, 2021-05-14 16:13:58.739
2.0, 59.417659759521484, -200.6044921875, 68.98993682861328, 424.1364440917969, 0.03200000151991844, -0.04800000041723251, 1.055999994277954, 0.0, 0.0, 0.0, 0.0, 0.0, 1.6210016387399557E9, 2021-05-14 16:13:58.739
3.0, 45.50897216796875, -205.6945037841797, 64.42725372314453, 413.5899353027344, 0.03200000151991844, -0.04800000041723251, 1.055999994277954, 0.0, 0.0, 0.0, 0.0, 0.0, 1.6210016387406073E9, 2021-05-14 16:13:58.740
3.0, 60.71540451049805, -196.6701202392578, 74.22953796386719, 421.3988342285156, 0.03200000151991844, -0.04800000041723251, 1.055999994277954, 0.0, 0.0, 0.0, 0.0, 0.0, 1.6210016387406073E9, 2021-05-14 16:13:58.740
4.0, 70.32321166992188, -187.49240112304688, 81.64575958251953, 431.4404602050781, 0.03200000151991844, -0.04800000041723251, 1.055999994277954, 0.0, 0.0, 0.0, 0.0, 0.0, 1.6210016387541056E9, 2021-05-14 16:13:58.754
4.0, 62.626495361328125, -193.5996551513672, 73.13374328613281, 424.7759704589844, 0.03200000151991844, -0.04800000041723251, 1.055999994277954, 0.0, 0.0, 0.0, 0.0, 0.0, 1.6210016387541056E9, 2021-05-14 16:13:58.754
5.0, 45.3070182800293, -206.56964111328125, 59.546688079833984, 400.64239501953125, 0.03200000151991844, -0.04800000041723251, 1.055999994277954, 0.0, 0.0, 0.0, 0.0, 0.0, 1.6210016387697573E9, 2021-05-14 16:13:58.769
5.0, 52.124855041503906, -201.99948120117188, 61.603633880615234, 398.73504638671875, 0.03200000151991844, -0.04800000041723251, 1.055999994277954, 0.0, 0.0, 0.0, 0.0, 0.0, 1.6210016387697573E9, 2021-05-14 16:13:58.769
6.0, 55.62914276123047, -190.33099365234375, 69.62197875976562, 406.3457336425781, 0.03200000151991844, -0.04800000041723251, 1.055999994277954, 0.0, 0.0, 0.0, 0.0, 0.0, 1.6210016387705147E9, 2021-05-14 16:13:58.770
6.0, 47.21810531616211, -190.8470916748047, 65.42581176757812, 403.092041015625, 0.03200000151991844, -0.04800000041723251, 1.055999994277954, 0.0, 0.0, 0.0, 0.0, 0.0, 1.6210016387705147E9, 2021-05-14 16:13:58.770
7.0, 41.611995697021484, -194.13446044921875, 62.1197395324707, 396.5247497558594, 0.03200000151991844, -0.04800000041723251, 1.055999994277954, 0.0, 0.0, 0.0, 0.0, 0.0, 1.621001638784164E9, 2021-05-14 16:13:58.784
7.0, 43.66520309448242, -197.35452270507812, 59.61400604248047, 406.40557861328125, 0.03200000151991844, -0.04800000041723251, 1.055999994277954, 0.0, 0.0, 0.0, 0.0, 0.0, 1.621001638784164E9, 2021-05-14 16:13:58.784
8.0, 45.99142074584961, -196.9506072998047, 61.693389892578125, 422.2290954589844, 0.03200000151991844, -0.04800000041723251, 1.055999994277954, 0.0, 0.0, 0.0, 0.0, 0.0, 1.6210016388311071E9, 2021-05-14 16:13:58.831
8.0, 49.794898986816406, -178.53160095214844, 72.03047180175781, 428.1942443847656, 0.03200000151991844, -0.04800000041723251, 1.055999994277954, 0.0, 0.0, 0.0, 0.0, 0.0, 1.6210016388311071E9, 2021-05-14 16:13:58.831
9.0, 29.606918334960938, -197.87062072753906, 52.79242706298828, 404.5468444824219, 0.03200000151991844, -0.04800000041723251, 1.055999994277954, 0.0, 0.0, 0.0, 0.0, 0.0, 1.6210016388316474E9, 2021-05-14 16:13:58.831
9.0, 35.463600158691406, -192.32061767578125, 60.534019470214844, 407.94268798828125, 0.03200000151991844, -0.04800000041723251, 1.055999994277954, 0.0, 0.0, 0.0, 0.0, 0.0, 1.6210016388316474E9, 2021-05-14 16:13:58.831
10.0, 48.31389617919922, -187.69436645507812, 65.32109069824219, 424.2561340332031, 0.03200000151991844, -0.04800000041723251, 1.055999994277954, 0.0, 0.0, 0.0, 0.0, 0.0, 1.6210016388323357E9, 2021-05-14 16:13:58.832
10.0, 50.49052047729492, -183.04566955566406, 71.36103057861328, 434.9971008300781, 0.03200000151991844, -0.04800000041723251, 1.055999994277954, 0.0, 0.0, 0.0, 0.0, 0.0, 1.6210016388323357E9, 2021-05-14 16:13:58.832
11.0, 38.20494842529297, -194.68423461914062, 65.2649917602539, 418.3470764160156, 0.03200000151991844, -0.04800000041723251, 1.055999994277954, 0.0, 0.0, 0.0, 0.0, 0.0, 1.6210016388462772E9, 2021-05-14 16:13:58.846
11.0, 44.70115280151367, -193.03868103027344, 67.94276428222656, 423.6614685058594, 0.03200000151991844, -0.04800000041723251, 1.055999994277954, 0.0, 0.0, 0.0, 0.0, 0.0, 1.6210016388462772E9, 2021-05-14 16:13:58.846
12.0, 61.51948547363281, -193.70811462402344, 73.28334045410156, 426.32427978515625, 0.03200000151991844, -0.04800000041723251, 1.055999994277954, 0.0, 0.0, 0.0, 0.0, 0.0, 1.6210016388469393E9, 2021-05-14 16:13:58.846
12.0, 57.996498107910156, -188.70413208007812, 73.72838592529297, 427.9473876953125, 0.03200000151991844, -0.04800000041723251, 1.055999994277954, 0.0, 0.0, 0.0, 0.0, 0.0, 1.6210016388469393E9, 2021-05-14 16:13:58.846
13.0, 50.04547119140625, -197.9903106689453, 68.73936462402344, 414.5286560058594, 0.03200000151991844, -0.04800000041723251, 1.055999994277954, 0.0, 0.0, 0.0, 0.0, 0.0, 1.6210016388477142E9, 2021-05-14 16:13:58.847
13.0, 55.180355072021484, -202.05931091308594, 70.77760314941406, 416.3499755859375, 0.03200000151991844, -0.04800000041723251, 1.055999994277954, 0.0, 0.0, 0.0, 0.0, 0.0, 1.6210016388477142E9, 2021-05-14 16:13:58.847
14.0, 69.47425079345703, -187.129638671875, 80.72573852539062, 431.88177490234375, 0.03200000151991844, -0.04800000041723251, 1.055999994277954, 0.0, 0.0, 0.0, 0.0, 0.0, 1.6210016388484788E9, 2021-05-14 16:13:58.848
14.0, 60.917362213134766, -189.6690216064453, 76.12940216064453, 416.21160888671875, 0.03200000151991844, -0.04800000041723251, 1.055999994277954, 0.0, 0.0, 0.0, 0.0, 0.0, 1.6210016388484788E9, 2021-05-14 16:13:58.848
15.0, 53.220645904541016, -194.6692657470703, 70.76638793945312, 400.39556884765625, 0.03200000151991844, -0.04800000041723251, 1.055999994277954, 0.0, 0.0, 0.0, 0.0, 0.0, 1.6210016388591073E9, 2021-05-14 16:13:58.859
15.0, 50.76353073120117, -186.8304443359375, 71.59290313720703, 399.8570251464844, 0.03200000151991844, -0.04800000041723251, 1.055999994277954, 0.0, 0.0, 0.0, 0.0, 0.0, 1.6210016388591073E9, 2021-05-14 16:13:58.859
16.0, 59.664493560791016, -182.08824157714844, 74.92889404296875, 417.39715576171875, 0.03200000151991844, -0.04800000041723251, 1.055999994277954, 0.0, 0.0, 0.0, 0.0, 0.0, 1.6210016388906388E9, 2021-05-14 16:13:58.890
16.0, 51.28337860107422, -184.1040496826172, 73.70968627929688, 414.9886474609375, 0.03200000151991844, -0.04800000041723251, 1.055999994277954, 0.0, 0.0, 0.0, 0.0, 0.0, 1.6210016388906388E9, 2021-05-14 16:13:58.890
17.0, 41.518497467041016, -195.19659423828125, 65.11539459228516, 395.80670166015625, 0.03200000151991844, -0.04800000041723251, 1.055999994277954, 0.0, 0.0, 0.0, 0.0, 0.0, 1.6210016388913236E9, 2021-05-14 16:13:58.891
17.0, 44.73855209350586, -187.11093139648438, 66.77591705322266, 404.7413330078125, 0.03200000151991844, -0.04800000041723251, 1.055999994277954, 0.0, 0.0, 0.0, 0.0, 0.0, 1.6210016388913236E9, 2021-05-14 16:13:58.891
18.0, 53.00747299194336, -181.76661682128906, 71.93323516845703, 416.73516845703125, 0.03200000151991844, -0.04800000041723251, 1.055999994277954, 0.0, 0.0, 0.0, 0.0, 0.0, 1.6210016388920245E9, 2021-05-14 16:13:58.892
18.0, 41.45492172241211, -190.40579223632812, 62.557308197021484, 408.4326171875, 0.03200000151991844, -0.04800000041723251, 1.055999994277954, 0.0, 0.0, 0.0, 0.0, 0.0, 1.6210016388920245E9, 2021-05-14 16:13:58.892
19.0, 32.830711364746094, -196.31483459472656, 56.5398063659668, 399.8308410644531, 0.03200000151991844, -0.04800000041723251, 1.055999994277954, 0.0, 0.0, 0.0, 0.0, 0.0, 1.6210016389040897E9, 2021-05-14 16:13:58.904
19.0, 40.53864669799805, -181.355224609375, 69.4162826538086, 416.2901306152344, 0.03200000151991844, -0.04800000041723251, 1.055999994277954, 0.0, 0.0, 0.0, 0.0, 0.0, 1.6210016389040897E9, 2021-05-14 16:13:58.904
20.0, 47.019893646240234, -190.77976989746094, 64.0570068359375, 419.6111755371094, 0.03200000151991844, -0.04800000041723251, 1.055999994277954, 0.0, 0.0, 0.0, 0.0, 0.0, 1.6210016389205508E9, 2021-05-14 16:13:58.920
20.0, 58.314388275146484, -192.5076141357422, 68.91887664794922, 428.62432861328125, 0.03200000151991844, -0.04800000041723251, 1.055999994277954, 0.0, 0.0, 0.0, 0.0, 0.0, 1.6210016389205508E9, 2021-05-14 16:13:58.920
21.0, 51.14874267578125, -204.14617919921875, 66.21492767333984, 419.1361999511719, 0.03200000151991844, -0.04800000041723251, 1.055999994277954, 0.0, 0.0, 0.0, 0.0, 0.0, 1.621001638921299E9, 2021-05-14 16:13:58.921
21.0, 46.290611267089844, -199.83033752441406, 68.75057983398438, 423.410888671875, 0.03200000151991844, -0.04800000041723251, 1.055999994277954, 0.0, 0.0, 0.0, 0.0, 0.0, 1.621001638921299E9, 2021-05-14 16:13:58.921
22.0, 66.08216094970703, -188.90234375, 79.9777603149414, 438.505126953125, 0.03200000151991844, -0.04800000041723251, 1.055999994277954, 0.0, 0.0, 0.0, 0.0, 0.0, 1.6210016389341211E9, 2021-05-14 16:13:58.934
22.0, 62.667633056640625, -189.47454833984375, 77.01201629638672, 434.6156311035156, 0.03200000151991844, -0.04800000041723251, 1.055999994277954, 0.0, 0.0, 0.0, 0.0, 0.0, 1.6210016389341211E9, 2021-05-14 16:13:58.934
23.0, 46.47012710571289, -201.98825073242188, 68.50374603271484, 414.6819763183594, 0.03200000151991844, -0.04800000041723251, 1.055999994277954, 0.0, 0.0, 0.0, 0.0, 0.0, 1.6210016389498937E9, 2021-05-14 16:13:58.949
23.0, 46.817935943603516, -200.06594848632812, 65.03311920166016, 409.2179870605469, 0.03200000151991844, -0.04800000041723251, 1.055999994277954, 0.0, 0.0, 0.0, 0.0, 0.0, 1.6210016389498937E9, 2021-05-14 16:13:58.949
24.0, 64.9265365600586, -180.69700622558594, 70.67288970947266, 415.10833740234375, 0.03200000151991844, -0.04800000041723251, 1.055999994277954, 0.0, 0.0, 0.0, 0.0, 0.0, 1.6210016389506083E9, 2021-05-14 16:13:58.950
24.0, 60.894920349121094, -186.05628967285156, 64.56563568115234, 402.5721740722656, 0.03200000151991844, -0.04800000041723251, 1.055999994277954, 0.0, 0.0, 0.0, 0.0, 0.0, 1.6210016389506083E9, 2021-05-14 16:13:58.950
25.0, 43.668941497802734, -202.2612762451172, 63.03227233886719, 396.0572814941406, 0.03200000151991844, -0.04800000041723251, 1.055999994277954, 0.0, 0.0, 0.0, 0.0, 0.0, 1.6210016389640656E9, 2021-05-14 16:13:58.964
25.0, 40.26563262939453, -193.8988494873047, 59.76734161376953, 398.4807434082031, 0.03200000151991844, -0.04800000041723251, 1.055999994277954, 0.0, 0.0, 0.0, 0.0, 0.0, 1.6210016389640656E9, 2021-05-14 16:13:58.964
26.0, 55.9283332824707, -181.13082885742188, 72.61389923095703, 421.6045227050781, 0.03200000151991844, -0.04800000041723251, 1.055999994277954, 0.0, 0.0, 0.0, 0.0, 0.0, 1.621001638979889E9, 2021-05-14 16:13:58.979
26.0, 51.23476028442383, -184.1152801513672, 72.92804718017578, 423.0219421386719, 0.03200000151991844, -0.04800000041723251, 1.055999994277954, 0.0, 0.0, 0.0, 0.0, 0.0, 1.621001638979889E9, 2021-05-14 16:13:58.979
27.0, 35.8749885559082, -189.64285278320312, 64.66287231445312, 417.4532470703125, 0.03200000151991844, -0.04800000041723251, 1.055999994277954, 0.0, 0.0, 0.0, 0.0, 0.0, 1.621001638980631E9, 2021-05-14 16:13:58.980
27.0, 34.132198333740234, -195.23773193359375, 64.76384735107422, 414.89141845703125, 0.03200000151991844, -0.04800000041723251, 1.055999994277954, 0.0, 0.0, 0.0, 0.0, 0.0, 1.621001638980631E9, 2021-05-14 16:13:58.980
28.0, 52.128597259521484, -192.7207794189453, 70.3998794555664, 426.638427734375, 0.03200000151991844, -0.04800000041723251, 1.055999994277954, 0.0, 0.0, 0.0, 0.0, 0.0, 1.6210016389941616E9, 2021-05-14 16:13:58.994
28.0, 49.5256233215332, -187.5372772216797, 70.43353271484375, 431.3955993652344, 0.03200000151991844, -0.04800000041723251, 1.055999994277954, 0.0, 0.0, 0.0, 0.0, 0.0, 1.6210016389941616E9, 2021-05-14 16:13:58.994
29.0, 37.39712905883789, -193.33787536621094, 65.31735229492188, 421.24176025390625, 0.03200000151991844, -0.04800000041723251, 1.055999994277954, 0.0, 0.0, 0.0, 0.0, 0.0, 1.6210016390098455E9, 2021-05-14 16:13:59.009
29.0, 42.389896392822266, -198.32688903808594, 71.39469146728516, 420.2656555175781, 0.03200000151991844, -0.04800000041723251, 1.055999994277954, 0.0, 0.0, 0.0, 0.0, 0.0, 1.6210016390098455E9, 2021-05-14 16:13:59.009
30.0, 62.955604553222656, -193.6931610107422, 79.04652404785156, 430.3484191894531, 0.03200000151991844, -0.04800000041723251, 1.055999994277954, 0.0, 0.0, 0.0, 0.0, 0.0, 1.62100163901054E9, 2021-05-14 16:13:59.010
30.0, 62.660152435302734, -193.12095642089844, 78.62391662597656, 431.9977111816406, 0.03200000151991844, -0.04800000041723251, 1.055999994277954, 0.0, 0.0, 0.0, 0.0, 0.0, 1.62100163901054E9, 2021-05-14 16:13:59.010
31.0, 44.95172882080078, -197.39939880371094, 66.05785369873047, 419.40545654296875, 0.03200000151991844, -0.04800000041723251, 1.055999994277954, 0.0, 0.0, 0.0, 0.0, 0.0, 1.6210016390241497E9, 2021-05-14 16:13:59.024
31.0, 51.69850540161133, -199.48626708984375, 69.36018371582031, 420.72564697265625, 0.03200000151991844, -0.04800000041723251, 1.055999994277954, 0.0, 0.0, 0.0, 0.0, 0.0, 1.6210016390241497E9, 2021-05-14 16:13:59.024
32.0, 64.79563903808594, -196.79727172851562, 72.68121337890625, 419.9253234863281, 0.03200000151991844, -0.04800000041723251, 1.055999994277954, 0.0, 0.0, 0.0, 0.0, 0.0, 1.6210016390397973E9, 2021-05-14 16:13:59.039
32.0, 57.00542449951172, -189.6241455078125, 71.82103729248047, 413.2533264160156, 0.03200000151991844, -0.04800000041723251, 1.055999994277954, 0.0, 0.0, 0.0, 0.0, 0.0, 1.6210016390397973E9, 2021-05-14 16:13:59.039
33.0, 50.87947082519531, -197.07777404785156, 64.1579818725586, 397.94219970703125, 0.03200000151991844, -0.04800000041723251, 1.055999994277954, 0.0, 0.0, 0.0, 0.0, 0.0, 1.6210016390405235E9, 2021-05-14 16:13:59.040
33.0, 51.07020568847656, -198.62234497070312, 59.9131965637207, 393.9591979980469, 0.03200000151991844, -0.04800000041723251, 1.055999994277954, 0.0, 0.0, 0.0, 0.0, 0.0, 1.6210016390405235E9, 2021-05-14 16:13:59.040
34.0, 64.47774505615234, -182.035888671875, 67.1274642944336, 404.7188720703125, 0.03200000151991844, -0.04800000041723251, 1.055999994277954, 0.0, 0.0, 0.0, 0.0, 0.0, 1.6210016390541658E9, 2021-05-14 16:13:59.054
34.0, 45.531410217285156, -182.0321502685547, 62.265594482421875, 398.6976318359375, 0.03200000151991844, -0.04800000041723251, 1.055999994277954, 0.0, 0.0, 0.0, 0.0, 0.0, 1.6210016390541658E9, 2021-05-14 16:13:59.054
35.0, 41.82143020629883, -186.37791442871094, 58.76504898071289, 394.56878662109375, 0.03200000151991844, -0.04800000041723251, 1.055999994277954, 0.0, 0.0, 0.0, 0.0, 0.0, 1.6210016390698392E9, 2021-05-14 16:13:59.069
35.0, 34.06113815307617, -190.61148071289062, 62.33665084838867, 407.17974853515625, 0.03200000151991844, -0.04800000041723251, 1.055999994277954, 0.0, 0.0, 0.0, 0.0, 0.0, 1.6210016390698392E9, 2021-05-14 16:13:59.069
36.0, 50.76727294921875, -173.20973205566406, 67.58373260498047, 422.9247131347656, 0.03200000151991844, -0.04800000041723251, 1.055999994277954, 0.0, 0.0, 0.0, 0.0, 0.0, 1.6210016390705562E9, 2021-05-14 16:13:59.070
36.0, 41.62321472167969, -181.3103485107422, 73.17861938476562, 431.44793701171875, 0.03200000151991844, -0.04800000041723251, 1.055999994277954, 0.0, 0.0, 0.0, 0.0, 0.0, 1.6210016390705562E9, 2021-05-14 16:13:59.070
37.0, 34.509925842285156, -195.14797973632812, 66.8694076538086, 417.49810791015625, 0.03200000151991844, -0.04800000041723251, 1.055999994277954, 0.0, 0.0, 0.0, 0.0, 0.0, 1.6210016390841963E9, 2021-05-14 16:13:59.084
37.0, 31.925655364990234, -193.65576171875, 66.222412109375, 421.7653503417969, 0.03200000151991844, -0.04800000041723251, 1.055999994277954, 0.0, 0.0, 0.0, 0.0, 0.0, 1.6210016390841963E9, 2021-05-14 16:13:59.084
38.0, 55.00457763671875, -181.8264617919922, 75.14955139160156, 436.45941162109375, 0.03200000151991844, -0.04800000041723251, 1.055999994277954, 0.0, 0.0, 0.0, 0.0, 0.0, 1.621001639099899E9, 2021-05-14 16:13:59.099
38.0, 56.93436813354492, -190.23374938964844, 72.1090087890625, 442.27496337890625, 0.03200000151991844, -0.04800000041723251, 1.055999994277954, 0.0, 0.0, 0.0, 0.0, 0.0, 1.621001639099899E9, 2021-05-14 16:13:59.099
39.0, 47.70803451538086, -200.69424438476562, 64.40107727050781, 428.07830810546875, 0.03200000151991844, -0.04800000041723251, 1.055999994277954, 0.0, 0.0, 0.0, 0.0, 0.0, 1.62100163910056E9, 2021-05-14 16:13:59.100
39.0, 49.937015533447266, -196.05303955078125, 70.06702423095703, 437.1999206542969, 0.03200000151991844, -0.04800000041723251, 1.055999994277954, 0.0, 0.0, 0.0, 0.0, 0.0, 1.62100163910056E9, 2021-05-14 16:13:59.100
40.0, 63.35577392578125, -194.1195068359375, 69.65189361572266, 437.76837158203125, 0.03200000151991844, -0.04800000041723251, 1.055999994277954, 0.0, 0.0, 0.0, 0.0, 0.0, 1.621001639114319E9, 2021-05-14 16:13:59.114
40.0, 69.5079116821289, -195.099365234375, 69.91742706298828, 436.76983642578125, 0.03200000151991844, -0.04800000041723251, 1.055999994277954, 0.0, 0.0, 0.0, 0.0, 0.0, 1.621001639114319E9, 2021-05-14 16:13:59.114
41.0, 52.51754379272461, -205.54490661621094, 59.02684020996094, 418.62384033203125, 0.03200000151991844, -0.04800000041723251, 1.055999994277954, 0.0, 0.0, 0.0, 0.0, 0.0, 1.6210016391298983E9, 2021-05-14 16:13:59.129
41.0, 54.88490295410156, -200.53343200683594, 62.647064208984375, 415.4037780761719, 0.03200000151991844, -0.04800000041723251, 1.055999994277954, 0.0, 0.0, 0.0, 0.0, 0.0, 1.6210016391298983E9, 2021-05-14 16:13:59.129
42.0, 68.85343170166016, -191.81199645996094, 69.59954071044922, 416.6977844238281, 0.03200000151991844, -0.04800000041723251, 1.055999994277954, 0.0, 0.0, 0.0, 0.0, 0.0, 1.6210016391306176E9, 2021-05-14 16:13:59.130
42.0, 58.572444915771484, -191.8680877685547, 66.29346466064453, 407.60235595703125, 0.03200000151991844, -0.04800000041723251, 1.055999994277954, 0.0, 0.0, 0.0, 0.0, 0.0, 1.6210016391306176E9, 2021-05-14 16:13:59.130
43.0, 46.7917594909668, -200.41375732421875, 58.65658950805664, 396.47613525390625, 0.03200000151991844, -0.04800000041723251, 1.055999994277954, 0.0, 0.0, 0.0, 0.0, 0.0, 1.621001639144147E9, 2021-05-14 16:13:59.144
43.0, 47.37144088745117, -194.2167510986328, 59.61026382446289, 391.4160461425781, 0.03200000151991844, -0.04800000041723251, 1.055999994277954, 0.0, 0.0, 0.0, 0.0, 0.0, 1.621001639144147E9, 2021-05-14 16:13:59.144
44.0, 59.48497772216797, -180.99246215820312, 70.21662139892578, 416.3424987792969, 0.03200000151991844, -0.04800000041723251, 1.055999994277954, 0.0, 0.0, 0.0, 0.0, 0.0, 1.62100163915965E9, 2021-05-14 16:13:59.159
44.0, 52.34177017211914, -181.97230529785156, 70.624267578125, 410.9645080566406, 0.03200000151991844, -0.04800000041723251, 1.055999994277954, 0.0, 0.0, 0.0, 0.0, 0.0, 1.62100163915965E9, 2021-05-14 16:13:59.159
45.0, 37.88705825805664, -188.6816864013672, 61.62607192993164, 406.3681945800781, 0.03200000151991844, -0.04800000041723251, 1.055999994277954, 0.0, 0.0, 0.0, 0.0, 0.0, 1.6210016391753025E9, 2021-05-14 16:13:59.175
45.0, 50.56157684326172, -183.4009552001953, 68.9974136352539, 415.1868591308594, 0.03200000151991844, -0.04800000041723251, 1.055999994277954, 0.0, 0.0, 0.0, 0.0, 0.0, 1.6210016391753025E9, 2021-05-14 16:13:59.175
46.0, 47.625755310058594, -174.93382263183594, 72.47552490234375, 429.2563781738281, 0.03200000151991844, -0.04800000041723251, 1.055999994277954, 0.0, 0.0, 0.0, 0.0, 0.0, 1.6210016391905508E9, 2021-05-14 16:13:59.190
46.0, 48.99081802368164, -177.74249267578125, 73.22724151611328, 432.53253173828125, 0.03200000151991844, -0.04800000041723251, 1.055999994277954, 0.0, 0.0, 0.0, 0.0, 0.0, 1.6210016391905508E9, 2021-05-14 16:13:59.190
47.0, 32.834449768066406, -191.55020141601562, 60.81825256347656, 418.82952880859375, 0.03200000151991844, -0.04800000041723251, 1.055999994277954, 0.0, 0.0, 0.0, 0.0, 0.0, 1.6210016391913064E9, 2021-05-14 16:13:59.191
47.0, 42.5768928527832, -198.47274780273438, 59.71124267578125, 417.8833312988281, 0.03200000151991844, -0.04800000041723251, 1.055999994277954, 0.0, 0.0, 0.0, 0.0, 0.0, 1.6210016391913064E9, 2021-05-14 16:13:59.191
48.0, 66.90493774414062, -183.9058380126953, 74.81669616699219, 438.6996154785156, 0.03200000151991844, -0.04800000041723251, 1.055999994277954, 0.0, 0.0, 0.0, 0.0, 0.0, 1.621001639192022E9, 2021-05-14 16:13:59.192
48.0, 60.857521057128906, -188.40867614746094, 72.31844329833984, 430.4830627441406, 0.03200000151991844, -0.04800000041723251, 1.055999994277954, 0.0, 0.0, 0.0, 0.0, 0.0, 1.621001639192022E9, 2021-05-14 16:13:59.192
49.0, 51.784523010253906, -205.3616485595703, 65.40711212158203, 417.329833984375, 0.03200000151991844, -0.04800000041723251, 1.055999994277954, 0.0, 0.0, 0.0, 0.0, 0.0, 1.6210016392041197E9, 2021-05-14 16:13:59.204
49.0, 58.40040588378906, -207.04086303710938, 66.97412872314453, 420.1646728515625, 0.03200000151991844, -0.04800000041723251, 1.055999994277954, 0.0, 0.0, 0.0, 0.0, 0.0, 1.6210016392041197E9, 2021-05-14 16:13:59.204
50.0, 68.1839828491211, -192.82550048828125, 77.24763488769531, 436.3172912597656, 0.03200000151991844, -0.04800000041723251, 1.055999994277954, 0.0, 0.0, 0.0, 0.0, 0.0, 1.6210016392198033E9, 2021-05-14 16:13:59.219
50.0, 68.39716339111328, -198.8729248046875, 73.45537567138672, 434.60443115234375, 0.03200000151991844, -0.04800000041723251, 1.055999994277954, 0.0, 0.0, 0.0, 0.0, 0.0, 1.6210016392198033E9, 2021-05-14 16:13:59.219
51.0, 45.81190490722656, -207.58688354492188, 63.2641487121582, 418.0591125488281, 0.03200000151991844, -0.04800000041723251, 1.055999994277954, 0.0, 0.0, 0.0, 0.0, 0.0, 1.6210016392205377E9, 2021-05-14 16:13:59.220
51.0, 37.87209701538086, -201.67784118652344, 60.309627532958984, 407.5425109863281, 0.03200000151991844, -0.04800000041723251, 1.055999994277954, 0.0, 0.0, 0.0, 0.0, 0.0, 1.6210016392205377E9, 2021-05-14 16:13:59.220
52.0, 57.49535369873047, -192.8965606689453, 71.09175872802734, 411.4095764160156, 0.03200000151991844, -0.04800000041723251, 1.055999994277954, 0.0, 0.0, 0.0, 0.0, 0.0, 1.6210016392341292E9, 2021-05-14 16:13:59.234
52.0, 62.12160873413086, -184.4481201171875, 77.66276550292969, 408.96368408203125, 0.03200000151991844, -0.04800000041723251, 1.055999994277954, 0.0, 0.0, 0.0, 0.0, 0.0, 1.6210016392341292E9, 2021-05-14 16:13:59.234
53.0, 54.75774383544922, -185.51025390625, 75.73297119140625, 400.9154052734375, 0.03200000151991844, -0.04800000041723251, 1.055999994277954, 0.0, 0.0, 0.0, 0.0, 0.0, 1.6210016392498724E9, 2021-05-14 16:13:59.249
53.0, 40.0075798034668, -186.18344116210938, 77.62910461425781, 404.2065124511719, 0.03200000151991844, -0.04800000041723251, 1.055999994277954, 0.0, 0.0, 0.0, 0.0, 0.0, 1.6210016392498724E9, 2021-05-14 16:13:59.249
54.0, 64.6722183227539, -175.74911499023438, 82.00852966308594, 431.8593444824219, 0.03200000151991844, -0.04800000041723251, 1.055999994277954, 0.0, 0.0, 0.0, 0.0, 0.0, 1.621001639250608E9, 2021-05-14 16:13:59.250
54.0, 54.791404724121094, -189.5381317138672, 77.0456771850586, 423.33612060546875, 0.03200000151991844, -0.04800000041723251, 1.055999994277954, 0.0, 0.0, 0.0, 0.0, 0.0, 1.621001639250608E9, 2021-05-14 16:13:59.250
55.0, 39.46155548095703, -203.00550842285156, 68.13349914550781, 415.2579345703125, 0.03200000151991844, -0.04800000041723251, 1.055999994277954, 0.0, 0.0, 0.0, 0.0, 0.0, 1.6210016392642412E9, 2021-05-14 16:13:59.264
55.0, 41.32028579711914, -196.5803680419922, 71.0244369506836, 424.3683166503906, 0.03200000151991844, -0.04800000041723251, 1.055999994277954, 0.0, 0.0, 0.0, 0.0, 0.0, 1.6210016392642412E9, 2021-05-14 16:13:59.264
56.0, 52.46144485473633, -178.97291564941406, 78.31350708007812, 439.8290710449219, 0.03200000151991844, -0.04800000041723251, 1.055999994277954, 0.0, 0.0, 0.0, 0.0, 0.0, 1.6210016392802136E9, 2021-05-14 16:13:59.280
56.0, 51.24224090576172, -188.984619140625, 81.83649444580078, 437.9815673828125, 0.03200000151991844, -0.04800000041723251, 1.055999994277954, 0.0, 0.0, 0.0, 0.0, 0.0, 1.6210016392802136E9, 2021-05-14 16:13:59.280
57.0, 29.25910758972168, -201.25149536132812, 69.44245910644531, 427.0647888183594, 0.03200000151991844, -0.04800000041723251, 1.055999994277954, 0.0, 0.0, 0.0, 0.0, 0.0, 1.6210016392948108E9, 2021-05-14 16:13:59.294
57.0, 42.02712631225586, -197.02166748046875, 73.58253479003906, 428.6392822265625, 0.03200000151991844, -0.04800000041723251, 1.055999994277954, 0.0, 0.0, 0.0, 0.0, 0.0, 1.6210016392948108E9, 2021-05-14 16:13:59.294
58.0, 62.147789001464844, -189.55308532714844, 79.08766174316406, 444.2720642089844, 0.03200000151991844, -0.04800000041723251, 1.055999994277954, 0.0, 0.0, 0.0, 0.0, 0.0, 1.6210016392955115E9, 2021-05-14 16:13:59.295
58.0, 55.898414611816406, -197.05906677246094, 77.12047576904297, 442.00567626953125, 0.03200000151991844, -0.04800000041723251, 1.055999994277954, 0.0, 0.0, 0.0, 0.0, 0.0, 1.6210016392955115E9, 2021-05-14 16:13:59.295
59.0, 46.21955490112305, -207.79258728027344, 65.27247619628906, 429.07684326171875, 0.03200000151991844, -0.04800000041723251, 1.055999994277954, 0.0, 0.0, 0.0, 0.0, 0.0, 1.621001639309962E9, 2021-05-14 16:13:59.309
59.0, 39.54383087158203, -210.36563110351562, 63.68301773071289, 425.4977722167969, 0.03200000151991844, -0.04800000041723251, 1.055999994277954, 0.0, 0.0, 0.0, 0.0, 0.0, 1.621001639309962E9, 2021-05-14 16:13:59.309
60.0, 60.01978302001953, -197.27224731445312, 71.6265640258789, 437.99652099609375, 0.03200000151991844, -0.04800000041723251, 1.055999994277954, 0.0, 0.0, 0.0, 0.0, 0.0, 1.6210016393105912E9, 2021-05-14 16:13:59.310
60.0, 61.55314254760742, -192.11866760253906, 78.20878601074219, 436.07794189453125, 0.03200000151991844, -0.04800000041723251, 1.055999994277954, 0.0, 0.0, 0.0, 0.0, 0.0, 1.6210016393105912E9, 2021-05-14 16:13:59.310
61.0, 49.1441535949707, -197.3096466064453, 72.44560241699219, 415.123291015625, 0.03200000151991844, -0.04800000041723251, 1.055999994277954, 0.0, 0.0, 0.0, 0.0, 0.0, 1.6210016393242009E9, 2021-05-14 16:13:59.324
61.0, 49.357330322265625, -194.74781799316406, 74.44271087646484, 403.8736572265625, 0.03200000151991844, -0.04800000041723251, 1.055999994277954, 0.0, 0.0, 0.0, 0.0, 0.0, 1.6210016393242009E9, 2021-05-14 16:13:59.324
62.0, 64.12245178222656, -179.0215301513672, 88.74408721923828, 419.4241638183594, 0.03200000151991844, -0.04800000041723251, 1.055999994277954, 0.0, 0.0, 0.0, 0.0, 0.0, 1.621001639339552E9, 2021-05-14 16:13:59.339
62.0, 54.48099136352539, -188.7789306640625, 80.87159729003906, 417.9955139160156, 0.03200000151991844, -0.04800000041723251, 1.055999994277954, 0.0, 0.0, 0.0, 0.0, 0.0, 1.621001639339552E9, 2021-05-14 16:13:59.339
63.0, 40.31425094604492, -195.24896240234375, 78.73611450195312, 410.6354064941406, 0.03200000151991844, -0.04800000041723251, 1.055999994277954, 0.0, 0.0, 0.0, 0.0, 0.0, 1.6210016393548942E9, 2021-05-14 16:13:59.354
63.0, 35.897430419921875, -203.1102294921875, 66.0054931640625, 409.27783203125, 0.03200000151991844, -0.04800000041723251, 1.055999994277954, 0.0, 0.0, 0.0, 0.0, 0.0, 1.6210016393548942E9, 2021-05-14 16:13:59.354
64.0, 49.32741165161133, -188.24412536621094, 82.13194274902344, 428.3625183105469, 0.03200000151991844, -0.04800000041723251, 1.055999994277954, 0.0, 0.0, 0.0, 0.0, 0.0, 1.62100163935561E9, 2021-05-14 16:13:59.355
64.0, 44.529117584228516, -182.90728759765625, 74.22579193115234, 427.90252685546875, 0.03200000151991844, -0.04800000041723251, 1.055999994277954, 0.0, 0.0, 0.0, 0.0, 0.0, 1.62100163935561E9, 2021-05-14 16:13:59.355
65.0, 30.885963439941406, -195.1405029296875, 66.73103332519531, 410.3100280761719, 0.03200000151991844, -0.04800000041723251, 1.055999994277954, 0.0, 0.0, 0.0, 0.0, 0.0, 1.621001639369813E9, 2021-05-14 16:13:59.369
65.0, 33.29446029663086, -202.6502227783203, 65.75492095947266, 406.2335510253906, 0.03200000151991844, -0.04800000041723251, 1.055999994277954, 0.0, 0.0, 0.0, 0.0, 0.0, 1.621001639369813E9, 2021-05-14 16:13:59.369
66.0, 61.45964431762695, -189.14169311523438, 82.27780151367188, 425.5576171875, 0.03200000151991844, -0.04800000041723251, 1.055999994277954, 0.0, 0.0, 0.0, 0.0, 0.0, 1.6210016393704996E9, 2021-05-14 16:13:59.370
66.0, 59.58969497680664, -184.1638946533203, 83.38107299804688, 434.72784423828125, 0.03200000151991844, -0.04800000041723251, 1.055999994277954, 0.0, 0.0, 0.0, 0.0, 0.0, 1.6210016393704996E9, 2021-05-14 16:13:59.370
67.0, 33.833003997802734, -204.74456787109375, 71.98185729980469, 419.9253234863281, 0.03200000151991844, -0.04800000041723251, 1.055999994277954, 0.0, 0.0, 0.0, 0.0, 0.0, 1.621001639400647E9, 2021-05-14 16:13:59.400
67.0, 41.525978088378906, -205.9001922607422, 66.91802978515625, 430.64013671875, 0.03200000151991844, -0.04800000041723251, 1.055999994277954, 0.0, 0.0, 0.0, 0.0, 0.0, 1.621001639400647E9, 2021-05-14 16:13:59.400
68.0, 54.46977233886719, -191.1649932861328, 72.61389923095703, 442.424560546875, 0.03200000151991844, -0.04800000041723251, 1.055999994277954, 0.0, 0.0, 0.0, 0.0, 0.0, 1.6210016394013531E9, 2021-05-14 16:13:59.401
68.0, 56.48558044433594, -191.78207397460938, 76.64924621582031, 441.6840515136719, 0.03200000151991844, -0.04800000041723251, 1.055999994277954, 0.0, 0.0, 0.0, 0.0, 0.0, 1.6210016394013531E9, 2021-05-14 16:13:59.401
69.0, 42.73770523071289, -211.60354614257812, 67.232177734375, 422.1169128417969, 0.03200000151991844, -0.04800000041723251, 1.055999994277954, 0.0, 0.0, 0.0, 0.0, 0.0, 1.6210016394021308E9, 2021-05-14 16:13:59.402
69.0, 42.35623550415039, -202.74745178222656, 71.51062774658203, 414.0162658691406, 0.03200000151991844, -0.04800000041723251, 1.055999994277954, 0.0, 0.0, 0.0, 0.0, 0.0, 1.6210016394021308E9, 2021-05-14 16:13:59.402
70.0, 64.86669158935547, -193.2368927001953, 80.87907409667969, 429.4770202636719, 0.03200000151991844, -0.04800000041723251, 1.055999994277954, 0.0, 0.0, 0.0, 0.0, 0.0, 1.6210016394141877E9, 2021-05-14 16:13:59.414
70.0, 63.83074188232422, -186.3629608154297, 87.27804565429688, 428.7253112792969, 0.03200000151991844, -0.04800000041723251, 1.055999994277954, 0.0, 0.0, 0.0, 0.0, 0.0, 1.6210016394141877E9, 2021-05-14 16:13:59.414
71.0, 54.222938537597656, -193.80909729003906, 80.29191589355469, 408.9674072265625, 0.03200000151991844, -0.04800000041723251, 1.055999994277954, 0.0, 0.0, 0.0, 0.0, 0.0, 1.6210016394298415E9, 2021-05-14 16:13:59.429
71.0, 58.92399215698242, -182.01345825195312, 83.60920715332031, 408.234375, 0.03200000151991844, -0.04800000041723251, 1.055999994277954, 0.0, 0.0, 0.0, 0.0, 0.0, 1.6210016394298415E9, 2021-05-14 16:13:59.429
72.0, 68.0605697631836, -186.48263549804688, 87.38275909423828, 416.73516845703125, 0.03200000151991844, -0.04800000041723251, 1.055999994277954, 0.0, 0.0, 0.0, 0.0, 0.0, 1.6210016394305503E9, 2021-05-14 16:13:59.430
72.0, 61.384849548339844, -180.36415100097656, 76.25656127929688, 417.3672180175781, 0.03200000151991844, -0.04800000041723251, 1.055999994277954, 0.0, 0.0, 0.0, 0.0, 0.0, 1.6210016394305503E9, 2021-05-14 16:13:59.430
73.0, 45.07514572143555, -189.8822021484375, 74.82791900634766, 402.224365234375, 0.03200000151991844, -0.04800000041723251, 1.055999994277954, 0.0, 0.0, 0.0, 0.0, 0.0, 1.621001639444197E9, 2021-05-14 16:13:59.444
73.0, 43.11917495727539, -193.55477905273438, 74.6334457397461, 406.62249755859375, 0.03200000151991844, -0.04800000041723251, 1.055999994277954, 0.0, 0.0, 0.0, 0.0, 0.0, 1.621001639444197E9, 2021-05-14 16:13:59.444
74.0, 50.47182083129883, -175.21804809570312, 88.20179748535156, 433.1383972167969, 0.03200000151991844, -0.04800000041723251, 1.055999994277954, 0.0, 0.0, 0.0, 0.0, 0.0, 1.6210016394599187E9, 2021-05-14 16:13:59.459
74.0, 37.075496673583984, -189.60171508789062, 82.29275512695312, 434.7876892089844, 0.03200000151991844, -0.04800000041723251, 1.055999994277954, 0.0, 0.0, 0.0, 0.0, 0.0, 1.6210016394599187E9, 2021-05-14 16:13:59.459
75.0, 25.526687622070312, -193.70811462402344, 75.3589859008789, 426.11859130859375, 0.03200000151991844, -0.04800000041723251, 1.055999994277954, 0.0, 0.0, 0.0, 0.0, 0.0, 1.6210016394605453E9, 2021-05-14 16:13:59.460
75.0, 33.33933639526367, -200.76904296875, 76.54827117919922, 433.66571044921875, 0.03200000151991844, -0.04800000041723251, 1.055999994277954, 0.0, 0.0, 0.0, 0.0, 0.0, 1.6210016394605453E9, 2021-05-14 16:13:59.460
76.0, 47.442501068115234, -195.10684204101562, 77.4495849609375, 445.4314270019531, 0.03200000151991844, -0.04800000041723251, 1.055999994277954, 0.0, 0.0, 0.0, 0.0, 0.0, 1.62100163947408E9, 2021-05-14 16:13:59.474
76.0, 44.70115280151367, -192.7656707763672, 67.32567596435547, 431.3020935058594, 0.03200000151991844, -0.04800000041723251, 1.055999994277954, 0.0, 0.0, 0.0, 0.0, 0.0, 1.62100163947408E9, 2021-05-14 16:13:59.474
