Sample Index, EXG Channel 0, EXG Channel 1, EXG Channel 2, EXG Channel 3, Accel Channel 0, Accel Channel 1, Accel Channel 2, Other, Other, Other, Other, Other, Timestamp, Timestamp (Formatted)
0.0, 169.54649353027344, -73.98457336425781, 168.16085815429688, 558.7859497070312, 0.0, 0.0, 0.0, 0.0, 0.0, 0.0, 0.0, 0.0, 1.6210005738242047E9, 2021-05-14 15:56:13.824
1.0, 184.6743927001953, -61.425987243652344, 176.97579956054688, 558.2473754882812, 0.0, -0.04800000041723251, 0.0, 0.0, 0.0, 0.0, 0.0, 0.0, 1.621000573824882E9, 2021-05-14 15:56:13.824
1.0, 175.41065979003906, -73.44976806640625, 164.8697509765625, 537.094482421875, 0.0, -0.04800000041723251, 0.0, 0.0, 0.0, 0.0, 0.0, 0.0, 1.621000573824882E9, 2021-05-14 15:56:13.824
2.0, 183.76559448242188, -64.09627532958984, 168.1645965576172, 544.7500610351562, 0.03200000151991844, -0.04800000041723251, 0.0, 0.0, 0.0, 0.0, 0.0, 0.0, 1.621000573839647E9, 2021-05-14 15:56:13.839
2.0, 179.2328338623047, -66.16069793701172, 167.13238525390625, 549.9111328125, 0.03200000151991844, -0.04800000041723251, 0.0, 0.0, 0.0, 0.0, 0.0, 0.0, 1.621000573839647E9, 2021-05-14 15:56:13.839
3.0, 187.10157775878906, -75.37955474853516, 166.97531127929688, 554.7655639648438, 0.03200000151991844, -0.04800000041723251, 0.0, 0.0, 0.0, 0.0, 0.0, 0.0, 1.6210005738409338E9, 2021-05-14 15:56:13.840
3.0, 184.0273895263672, -74.39221954345703, 161.2158660888672, 542.034912109375, 0.03200000151991844, -0.04800000041723251, 0.0, 0.0, 0.0, 0.0, 0.0, 0.0, 1.6210005738409338E9, 2021-05-14 15:56:13.840
4.0, 176.184814453125, -75.33467102050781, 165.1652069091797, 536.2156372070312, 0.03200000151991844, -0.04800000041723251, 0.0, 0.0, 0.0, 0.0, 0.0, 0.0, 1.6210005738695445E9, 2021-05-14 15:56:13.869
4.0, 175.66497802734375, -65.22198486328125, 166.84815979003906, 547.3081665039062, 0.03200000151991844, -0.04800000041723251, 0.0, 0.0, 0.0, 0.0, 0.0, 0.0, 1.6210005738695445E9, 2021-05-14 15:56:13.869
5.0, 185.14935302734375, -72.96731567382812, 169.11827087402344, 550.5132446289062, 0.03200000151991844, -0.04800000041723251, 0.0, 0.0, 0.0, 0.0, 0.0, 0.0, 1.6210005738848743E9, 2021-05-14 15:56:13.884
5.0, 171.64083862304688, -70.90289306640625, 166.41807556152344, 543.5982055664062, 0.03200000151991844, -0.04800000041723251, 0.0, 0.0, 0.0, 0.0, 0.0, 0.0, 1.6210005738848743E9, 2021-05-14 15:56:13.884
6.0, 177.21702575683594, -74.26880645751953, 166.36570739746094, 543.8225708007812, 0.03200000151991844, -0.04800000041723251, 0.0, 0.0, 0.0, 0.0, 0.0, 0.0, 1.6210005738855116E9, 2021-05-14 15:56:13.885
6.0, 182.97647094726562, -64.07383728027344, 171.870849609375, 558.90185546875, 0.03200000151991844, -0.04800000041723251, 0.0, 0.0, 0.0, 0.0, 0.0, 0.0, 1.6210005738855116E9, 2021-05-14 15:56:13.885
7.0, 184.8913116455078, -65.95126342773438, 174.47007751464844, 556.788818359375, 0.03200000151991844, -0.04800000041723251, 0.0, 0.0, 0.0, 0.0, 0.0, 0.0, 1.6210005738862567E9, 2021-05-14 15:56:13.886
7.0, 173.24151611328125, -66.50476837158203, 177.4208526611328, 555.7640991210938, 0.03200000151991844, -0.04800000041723251, 0.0, 0.0, 0.0, 0.0, 0.0, 0.0, 1.6210005738862567E9, 2021-05-14 15:56:13.886
8.0, 167.30628967285156, -63.54277038574219, 171.8184814453125, 554.7056884765625, 0.03200000151991844, -0.04800000041723251, 0.0, 0.0, 0.0, 0.0, 0.0, 0.0, 1.6210005738990116E9, 2021-05-14 15:56:13.899
8.0, 178.0547637939453, -56.53793716430664, 170.69277954101562, 557.622802734375, 0.03200000151991844, -0.04800000041723251, 0.0, 0.0, 0.0, 0.0, 0.0, 0.0, 1.6210005738990116E9, 2021-05-14 15:56:13.899
9.0, 175.5004119873047, -62.03559112548828, 172.7609405517578, 552.0840454101562, 0.03200000151991844, -0.04800000041723251, 0.0, 0.0, 0.0, 0.0, 0.0, 0.0, 1.6210005738997328E9, 2021-05-14 15:56:13.899
9.0, 157.92662048339844, -75.66378784179688, 164.50323486328125, 549.5857543945312, 0.03200000151991844, -0.04800000041723251, 0.0, 0.0, 0.0, 0.0, 0.0, 0.0, 1.6210005738997328E9, 2021-05-14 15:56:13.899
10.0, 163.30459594726562, -64.44408416748047, 172.61508178710938, 559.017822265625, 0.03200000151991844, -0.04800000041723251, 1.055999994277954, 0.0, 0.0, 0.0, 0.0, 0.0, 1.6210005739304092E9, 2021-05-14 15:56:13.930
10.0, 174.3560028076172, -61.44094467163086, 174.07363891601562, 566.7332153320312, 0.03200000151991844, -0.04800000041723251, 1.055999994277954, 0.0, 0.0, 0.0, 0.0, 0.0, 1.6210005739304092E9, 2021-05-14 15:56:13.930
11.0, 174.46446228027344, -62.92194747924805, 174.582275390625, 553.0526733398438, 0.03200000151991844, -0.04800000041723251, 1.055999994277954, 0.0, 0.0, 0.0, 0.0, 0.0, 1.6210005739311533E9, 2021-05-14 15:56:13.931
11.0, 175.5191192626953, -63.87936019897461, 171.45571899414062, 541.5337524414062, 0.03200000151991844, -0.04800000041723251, 1.055999994277954, 0.0, 0.0, 0.0, 0.0, 0.0, 1.6210005739311533E9, 2021-05-14 15:56:13.931
12.0, 182.91664123535156, -60.431175231933594, 171.5753936767578, 540.0340576171875, 0.03200000151991844, -0.04800000041723251, 1.055999994277954, 0.0, 0.0, 0.0, 0.0, 0.0, 1.621000573931831E9, 2021-05-14 15:56:13.931
12.0, 188.3095703125, -64.0289535522461, 169.5296630859375, 530.871337890625, 0.03200000151991844, -0.04800000041723251, 1.055999994277954, 0.0, 0.0, 0.0, 0.0, 0.0, 1.621000573931831E9, 2021-05-14 15:56:13.931
13.0, 184.7117919921875, -68.7225341796875, 164.12924194335938, 532.79736328125, 0.03200000151991844, -0.04800000041723251, 1.055999994277954, 0.0, 0.0, 0.0, 0.0, 0.0, 1.6210005739434712E9, 2021-05-14 15:56:13.943
13.0, 185.7215576171875, -58.6285400390625, 163.49720764160156, 530.5459594726562, 0.03200000151991844, -0.04800000041723251, 1.055999994277954, 0.0, 0.0, 0.0, 0.0, 0.0, 1.6210005739434712E9, 2021-05-14 15:56:13.943
14.0, 179.44601440429688, -71.27313995361328, 158.36605834960938, 519.2701416015625, 0.03200000151991844, -0.04800000041723251, 1.055999994277954, 0.0, 0.0, 0.0, 0.0, 0.0, 1.6210005739590356E9, 2021-05-14 15:56:13.959
14.0, 193.08541870117188, -63.524070739746094, 164.3087615966797, 536.7915649414062, 0.03200000151991844, -0.04800000041723251, 1.055999994277954, 0.0, 0.0, 0.0, 0.0, 0.0, 1.6210005739590356E9, 2021-05-14 15:56:13.959
15.0, 181.2261962890625, -73.259033203125, 160.0714569091797, 538.1117553710938, 0.03200000151991844, -0.04800000041723251, 1.055999994277954, 0.0, 0.0, 0.0, 0.0, 0.0, 1.6210005739597137E9, 2021-05-14 15:56:13.959
15.0, 175.3769989013672, -73.43106842041016, 156.25302124023438, 534.81689453125, 0.03200000151991844, -0.04800000041723251, 1.055999994277954, 0.0, 0.0, 0.0, 0.0, 0.0, 1.6210005739597137E9, 2021-05-14 15:56:13.959
16.0, 182.3780975341797, -68.65895080566406, 159.58900451660156, 544.9669799804688, 0.03200000151991844, -0.04800000041723251, 1.055999994277954, 0.0, 0.0, 0.0, 0.0, 0.0, 1.6210005739904704E9, 2021-05-14 15:56:13.990
16.0, 183.46640014648438, -69.47051239013672, 164.45462036132812, 560.5287475585938, 0.03200000151991844, -0.04800000041723251, 1.055999994277954, 0.0, 0.0, 0.0, 0.0, 0.0, 1.6210005739904704E9, 2021-05-14 15:56:13.990
17.0, 183.5112762451172, -63.539031982421875, 169.68299865722656, 571.7970581054688, 0.03200000151991844, -0.04800000041723251, 1.055999994277954, 0.0, 0.0, 0.0, 0.0, 0.0, 1.6210005739913E9, 2021-05-14 15:56:13.991
17.0, 171.782958984375, -62.31234359741211, 159.5291748046875, 556.7551879882812, 0.03200000151991844, -0.04800000041723251, 1.055999994277954, 0.0, 0.0, 0.0, 0.0, 0.0, 1.6210005739913E9, 2021-05-14 15:56:13.991
18.0, 171.93255615234375, -66.60948944091797, 169.6119384765625, 557.3311157226562, 0.03200000151991844, -0.04800000041723251, 1.055999994277954, 0.0, 0.0, 0.0, 0.0, 0.0, 1.6210005739919996E9, 2021-05-14 15:56:13.991
18.0, 176.2259521484375, -65.40898132324219, 163.2615966796875, 549.3090209960938, 0.03200000151991844, -0.04800000041723251, 1.055999994277954, 0.0, 0.0, 0.0, 0.0, 0.0, 1.6210005739919996E9, 2021-05-14 15:56:13.991
19.0, 191.19677734375, -53.2356071472168, 172.60012817382812, 557.3610229492188, 0.03200000151991844, -0.04800000041723251, 1.055999994277954, 0.0, 0.0, 0.0, 0.0, 0.0, 1.621000574003517E9, 2021-05-14 15:56:14.003
19.0, 173.97079467773438, -62.05802917480469, 166.3395233154297, 534.7869873046875, 0.03200000151991844, -0.04800000041723251, 1.055999994277954, 0.0, 0.0, 0.0, 0.0, 0.0, 1.621000574003517E9, 2021-05-14 15:56:14.003
20.0, 181.4393768310547, -57.884300231933594, 164.55560302734375, 533.5154418945312, 0.03200000151991844, -0.04800000041723251, 1.055999994277954, 0.0, 0.0, 0.0, 0.0, 0.0, 1.6210005740190196E9, 2021-05-14 15:56:14.019
20.0, 181.51791381835938, -63.527809143066406, 164.46209716796875, 537.6517333984375, 0.03200000151991844, -0.04800000041723251, 1.055999994277954, 0.0, 0.0, 0.0, 0.0, 0.0, 1.6210005740190196E9, 2021-05-14 15:56:14.019
21.0, 185.19049072265625, -56.074188232421875, 169.1070556640625, 534.0614624023438, 0.03200000151991844, -0.04800000041723251, 1.055999994277954, 0.0, 0.0, 0.0, 0.0, 0.0, 1.62100057401974E9, 2021-05-14 15:56:14.019
21.0, 188.5713653564453, -57.11762237548828, 162.31539916992188, 527.314697265625, 0.03200000151991844, -0.04800000041723251, 1.055999994277954, 0.0, 0.0, 0.0, 0.0, 0.0, 1.62100057401974E9, 2021-05-14 15:56:14.019
22.0, 185.97213745117188, -64.5488052368164, 162.61459350585938, 526.67138671875, 0.03200000151991844, -0.04800000041723251, 1.055999994277954, 0.0, 0.0, 0.0, 0.0, 0.0, 1.6210005740497327E9, 2021-05-14 15:56:14.049
22.0, 187.09783935546875, -57.270957946777344, 172.63003540039062, 533.242431640625, 0.03200000151991844, -0.04800000041723251, 1.055999994277954, 0.0, 0.0, 0.0, 0.0, 0.0, 1.6210005740497327E9, 2021-05-14 15:56:14.049
23.0, 188.58258056640625, -53.05609130859375, 171.9381561279297, 533.3471069335938, 0.03200000151991844, -0.04800000041723251, 1.055999994277954, 0.0, 0.0, 0.0, 0.0, 0.0, 1.6210005740504708E9, 2021-05-14 15:56:14.050
23.0, 178.1744384765625, -57.04656219482422, 166.612548828125, 531.8960571289062, 0.03200000151991844, -0.04800000041723251, 1.055999994277954, 0.0, 0.0, 0.0, 0.0, 0.0, 1.6210005740504708E9, 2021-05-14 15:56:14.050
24.0, 174.20640563964844, -59.182044982910156, 161.81051635742188, 536.5148315429688, 0.03200000151991844, -0.04800000041723251, 1.055999994277954, 0.0, 0.0, 0.0, 0.0, 0.0, 1.621000574051185E9, 2021-05-14 15:56:14.051
24.0, 175.69114685058594, -55.73759841918945, 160.77081298828125, 551.3921508789062, 0.03200000151991844, -0.04800000041723251, 1.055999994277954, 0.0, 0.0, 0.0, 0.0, 0.0, 1.621000574051185E9, 2021-05-14 15:56:14.051
25.0, 175.79586791992188, -57.64494705200195, 165.0305633544922, 561.8975219726562, 0.03200000151991844, -0.04800000041723251, 1.055999994277954, 0.0, 0.0, 0.0, 0.0, 0.0, 1.6210005740632908E9, 2021-05-14 15:56:14.063
25.0, 174.13909912109375, -65.27808380126953, 163.7290802001953, 560.2295532226562, 0.03200000151991844, -0.04800000041723251, 1.055999994277954, 0.0, 0.0, 0.0, 0.0, 0.0, 1.6210005740632908E9, 2021-05-14 15:56:14.063
26.0, 174.90951538085938, -67.63422393798828, 171.75115966796875, 570.686279296875, 0.03200000151991844, -0.04800000041723251, 1.055999994277954, 0.0, 0.0, 0.0, 0.0, 0.0, 1.6210005740790226E9, 2021-05-14 15:56:14.079
26.0, 181.33091735839844, -70.21475219726562, 168.5198974609375, 578.0614013671875, 0.03200000151991844, -0.04800000041723251, 1.055999994277954, 0.0, 0.0, 0.0, 0.0, 0.0, 1.6210005740790226E9, 2021-05-14 15:56:14.079
27.0, 183.0475311279297, -74.1453857421875, 167.90655517578125, 571.78955078125, 0.03200000151991844, -0.04800000041723251, 1.055999994277954, 0.0, 0.0, 0.0, 0.0, 0.0, 1.621000574079802E9, 2021-05-14 15:56:14.079
27.0, 181.93678283691406, -77.82170867919922, 162.53231811523438, 552.7310180664062, 0.03200000151991844, -0.04800000041723251, 1.055999994277954, 0.0, 0.0, 0.0, 0.0, 0.0, 1.621000574079802E9, 2021-05-14 15:56:14.079
28.0, 176.47653198242188, -76.17615509033203, 164.18161010742188, 550.1392822265625, 0.03200000151991844, -0.04800000041723251, 1.055999994277954, 0.0, 0.0, 0.0, 0.0, 0.0, 1.621000574109814E9, 2021-05-14 15:56:14.109
28.0, 180.4370880126953, -64.6722183227539, 168.03744506835938, 546.5789184570312, 0.03200000151991844, -0.04800000041723251, 1.055999994277954, 0.0, 0.0, 0.0, 0.0, 0.0, 1.621000574109814E9, 2021-05-14 15:56:14.109
29.0, 175.87814331054688, -63.69984436035156, 165.53170776367188, 534.8655395507812, 0.03200000151991844, -0.04800000041723251, 1.055999994277954, 0.0, 0.0, 0.0, 0.0, 0.0, 1.6210005741104994E9, 2021-05-14 15:56:14.110
29.0, 179.76016235351562, -63.65870666503906, 171.64271545410156, 524.2928466796875, 0.03200000151991844, -0.04800000041723251, 1.055999994277954, 0.0, 0.0, 0.0, 0.0, 0.0, 1.6210005741104994E9, 2021-05-14 15:56:14.110
30.0, 188.50778198242188, -59.16334915161133, 175.15447998046875, 523.5223999023438, 0.03200000151991844, -0.04800000041723251, 1.055999994277954, 0.0, 0.0, 0.0, 0.0, 0.0, 1.6210005741113007E9, 2021-05-14 15:56:14.111
30.0, 202.55859375, -54.59318923950195, 187.1745147705078, 535.4302368164062, 0.03200000151991844, -0.04800000041723251, 1.055999994277954, 0.0, 0.0, 0.0, 0.0, 0.0, 1.6210005741113007E9, 2021-05-14 15:56:14.111
31.0, 197.61444091796875, -57.551448822021484, 180.61846923828125, 539.2598876953125, 0.03200000151991844, -0.04800000041723251, 1.055999994277954, 0.0, 0.0, 0.0, 0.0, 0.0, 1.62100057412339E9, 2021-05-14 15:56:14.123
31.0, 183.42152404785156, -67.6791000366211, 173.3593292236328, 532.8310546875, 0.03200000151991844, -0.04800000041723251, 1.055999994277954, 0.0, 0.0, 0.0, 0.0, 0.0, 1.62100057412339E9, 2021-05-14 15:56:14.123
32.0, 187.69622802734375, -61.36240768432617, 168.2468719482422, 538.1790771484375, 0.03200000151991844, -0.04800000041723251, 1.055999994277954, 0.0, 0.0, 0.0, 0.0, 0.0, 1.6210005741393993E9, 2021-05-14 15:56:14.139
32.0, 193.57534790039062, -70.85801696777344, 167.4427947998047, 549.8438110351562, 0.03200000151991844, -0.04800000041723251, 1.055999994277954, 0.0, 0.0, 0.0, 0.0, 0.0, 1.6210005741393993E9, 2021-05-14 15:56:14.139
33.0, 187.79347229003906, -72.75788116455078, 163.95347595214844, 559.1224975585938, 0.03200000151991844, -0.04800000041723251, 1.055999994277954, 0.0, 0.0, 0.0, 0.0, 0.0, 1.6210005741540709E9, 2021-05-14 15:56:14.154
33.0, 175.27227783203125, -76.78949737548828, 158.8933868408203, 560.779296875, 0.03200000151991844, -0.04800000041723251, 1.055999994277954, 0.0, 0.0, 0.0, 0.0, 0.0, 1.6210005741540709E9, 2021-05-14 15:56:14.154
34.0, 181.2635955810547, -79.16059112548828, 165.251220703125, 565.9815063476562, 0.03200000151991844, -0.04800000041723251, 1.055999994277954, 0.0, 0.0, 0.0, 0.0, 0.0, 1.621000574154792E9, 2021-05-14 15:56:14.154
34.0, 173.42477416992188, -80.61915588378906, 164.4321746826172, 565.3868408203125, 0.03200000151991844, -0.04800000041723251, 1.055999994277954, 0.0, 0.0, 0.0, 0.0, 0.0, 1.621000574154792E9, 2021-05-14 15:56:14.154
35.0, 181.59645080566406, -75.86573791503906, 163.19801330566406, 573.0872802734375, 0.03200000151991844, -0.04800000041723251, 1.055999994277954, 0.0, 0.0, 0.0, 0.0, 0.0, 1.6210005741689749E9, 2021-05-14 15:56:14.168
35.0, 173.88851928710938, -75.21499633789062, 160.59878540039062, 562.7315063476562, 0.03200000151991844, -0.04800000041723251, 1.055999994277954, 0.0, 0.0, 0.0, 0.0, 0.0, 1.6210005741689749E9, 2021-05-14 15:56:14.168
36.0, 168.18516540527344, -76.80071258544922, 166.97157287597656, 551.822265625, 0.03200000151991844, -0.04800000041723251, 1.055999994277954, 0.0, 0.0, 0.0, 0.0, 0.0, 1.621000574169748E9, 2021-05-14 15:56:14.169
36.0, 185.66920471191406, -66.01110076904297, 174.60096740722656, 557.7350463867188, 0.03200000151991844, -0.04800000041723251, 1.055999994277954, 0.0, 0.0, 0.0, 0.0, 0.0, 1.621000574169748E9, 2021-05-14 15:56:14.169
37.0, 182.4491424560547, -66.01858520507812, 170.2963409423828, 546.7322387695312, 0.03200000151991844, -0.04800000041723251, 1.055999994277954, 0.0, 0.0, 0.0, 0.0, 0.0, 1.6210005741834395E9, 2021-05-14 15:56:14.183
37.0, 183.53746032714844, -72.74292755126953, 171.00692749023438, 539.0504760742188, 0.03200000151991844, -0.04800000041723251, 1.055999994277954, 0.0, 0.0, 0.0, 0.0, 0.0, 1.6210005741834395E9, 2021-05-14 15:56:14.183
38.0, 189.70455932617188, -70.29328918457031, 172.6786651611328, 531.6529541015625, 0.03200000151991844, -0.04800000041723251, 1.055999994277954, 0.0, 0.0, 0.0, 0.0, 0.0, 1.6210005741990433E9, 2021-05-14 15:56:14.199
38.0, 191.39498901367188, -61.575584411621094, 176.9571075439453, 533.8744506835938, 0.03200000151991844, -0.04800000041723251, 1.055999994277954, 0.0, 0.0, 0.0, 0.0, 0.0, 1.6210005741990433E9, 2021-05-14 15:56:14.199
39.0, 185.88612365722656, -65.24816131591797, 181.19815063476562, 534.394287109375, 0.03200000151991844, -0.04800000041723251, 1.055999994277954, 0.0, 0.0, 0.0, 0.0, 0.0, 1.621000574199695E9, 2021-05-14 15:56:14.199
39.0, 177.73687744140625, -57.16624069213867, 177.11044311523438, 524.8724975585938, 0.03200000151991844, -0.04800000041723251, 1.055999994277954, 0.0, 0.0, 0.0, 0.0, 0.0, 1.621000574199695E9, 2021-05-14 15:56:14.199
40.0, 174.318603515625, -51.53021240234375, 175.3078155517578, 523.9300537109375, 0.03200000151991844, -0.04800000041723251, 1.055999994277954, 0.0, 0.0, 0.0, 0.0, 0.0, 1.6210005742294896E9, 2021-05-14 15:56:14.229
40.0, 178.02110290527344, -60.45735168457031, 166.87808227539062, 539.3048095703125, 0.03200000151991844, -0.04800000041723251, 1.055999994277954, 0.0, 0.0, 0.0, 0.0, 0.0, 1.6210005742294896E9, 2021-05-14 15:56:14.229
41.0, 193.13778686523438, -56.45940017700195, 173.71835327148438, 555.8388671875, 0.03200000151991844, -0.04800000041723251, 1.055999994277954, 0.0, 0.0, 0.0, 0.0, 0.0, 1.6210005742301524E9, 2021-05-14 15:56:14.230
41.0, 186.24888610839844, -69.80335998535156, 164.1068115234375, 550.8685913085938, 0.03200000151991844, -0.04800000041723251, 1.055999994277954, 0.0, 0.0, 0.0, 0.0, 0.0, 1.6210005742301524E9, 2021-05-14 15:56:14.230
42.0, 175.5415496826172, -57.20737838745117, 170.74513244628906, 558.0791015625, 0.03200000151991844, -0.04800000041723251, 1.055999994277954, 0.0, 0.0, 0.0, 0.0, 0.0, 1.6210005742605257E9, 2021-05-14 15:56:14.260
42.0, 170.32064819335938, -65.0910873413086, 170.40853881835938, 565.6224975585938, 0.03200000151991844, -0.04800000041723251, 1.055999994277954, 0.0, 0.0, 0.0, 0.0, 0.0, 1.6210005742605257E9, 2021-05-14 15:56:14.260
43.0, 169.94667053222656, -59.466278076171875, 173.99510192871094, 574.68798828125, 0.03200000151991844, -0.04800000041723251, 1.055999994277954, 0.0, 0.0, 0.0, 0.0, 0.0, 1.621000574261236E9, 2021-05-14 15:56:14.261
43.0, 161.1728515625, -72.61576843261719, 161.72824096679688, 568.0908203125, 0.03200000151991844, -0.04800000041723251, 1.055999994277954, 0.0, 0.0, 0.0, 0.0, 0.0, 1.621000574261236E9, 2021-05-14 15:56:14.261
44.0, 185.14561462402344, -63.89432144165039, 167.86915588378906, 573.9063720703125, 0.03200000151991844, -0.04800000041723251, 1.055999994277954, 0.0, 0.0, 0.0, 0.0, 0.0, 1.621000574261872E9, 2021-05-14 15:56:14.261
44.0, 179.08697509765625, -82.50780487060547, 160.4529266357422, 563.5580444335938, 0.03200000151991844, -0.04800000041723251, 1.055999994277954, 0.0, 0.0, 0.0, 0.0, 0.0, 1.621000574261872E9, 2021-05-14 15:56:14.261
45.0, 178.28289794921875, -69.95295715332031, 164.90341186523438, 562.563232421875, 0.03200000151991844, -0.04800000041723251, 1.055999994277954, 0.0, 0.0, 0.0, 0.0, 0.0, 1.6210005742626617E9, 2021-05-14 15:56:14.262
45.0, 175.10398864746094, -76.96153259277344, 160.23974609375, 548.58349609375, 0.03200000151991844, -0.04800000041723251, 1.055999994277954, 0.0, 0.0, 0.0, 0.0, 0.0, 1.6210005742626617E9, 2021-05-14 15:56:14.262
46.0, 188.47787475585938, -74.82231140136719, 165.02682495117188, 549.653076171875, 0.03200000151991844, -0.04800000041723251, 1.055999994277954, 0.0, 0.0, 0.0, 0.0, 0.0, 1.621000574273384E9, 2021-05-14 15:56:14.273
46.0, 183.1485137939453, -74.75498962402344, 163.31394958496094, 551.0181884765625, 0.03200000151991844, -0.04800000041723251, 1.055999994277954, 0.0, 0.0, 0.0, 0.0, 0.0, 1.621000574273384E9, 2021-05-14 15:56:14.273
47.0, 185.6542510986328, -82.578857421875, 163.74403381347656, 551.7586669921875, 0.03200000151991844, -0.04800000041723251, 1.055999994277954, 0.0, 0.0, 0.0, 0.0, 0.0, 1.6210005742892172E9, 2021-05-14 15:56:14.289
47.0, 183.27566528320312, -74.47075653076172, 168.78916931152344, 549.0247802734375, 0.03200000151991844, -0.04800000041723251, 1.055999994277954, 0.0, 0.0, 0.0, 0.0, 0.0, 1.6210005742892172E9, 2021-05-14 15:56:14.289
48.0, 184.38267517089844, -69.41815185546875, 166.32830810546875, 535.2544555664062, 0.03200000151991844, -0.04800000041723251, 1.055999994277954, 0.0, 0.0, 0.0, 0.0, 0.0, 1.621000574289862E9, 2021-05-14 15:56:14.289
48.0, 192.35614013671875, -59.57847595214844, 174.17835998535156, 534.5438842773438, 0.03200000151991844, -0.04800000041723251, 1.055999994277954, 0.0, 0.0, 0.0, 0.0, 0.0, 1.621000574289862E9, 2021-05-14 15:56:14.289
49.0, 177.8902130126953, -50.80841064453125, 172.82077026367188, 527.292236328125, 0.03200000151991844, -0.04800000041723251, 1.055999994277954, 0.0, 0.0, 0.0, 0.0, 0.0, 1.6210005743033695E9, 2021-05-14 15:56:14.303
49.0, 179.2777099609375, -55.748817443847656, 170.49830627441406, 522.516357421875, 0.03200000151991844, -0.04800000041723251, 1.055999994277954, 0.0, 0.0, 0.0, 0.0, 0.0, 1.6210005743033695E9, 2021-05-14 15:56:14.303
50.0, 175.99407958984375, -57.40559387207031, 167.8392333984375, 525.8785400390625, 0.03200000151991844, -0.04800000041723251, 1.055999994277954, 0.0, 0.0, 0.0, 0.0, 0.0, 1.6210005743190727E9, 2021-05-14 15:56:14.319
50.0, 184.9735870361328, -57.659908294677734, 168.1683349609375, 539.7274169921875, 0.03200000151991844, -0.04800000041723251, 1.055999994277954, 0.0, 0.0, 0.0, 0.0, 0.0, 1.6210005743190727E9, 2021-05-14 15:56:14.319
51.0, 181.7385711669922, -53.942447662353516, 161.87034606933594, 545.3858642578125, 0.03200000151991844, -0.04800000041723251, 1.055999994277954, 0.0, 0.0, 0.0, 0.0, 0.0, 1.6210005743197703E9, 2021-05-14 15:56:14.319
51.0, 175.73976135253906, -64.01025390625, 160.47911071777344, 542.5248413085938, 0.03200000151991844, -0.04800000041723251, 1.055999994277954, 0.0, 0.0, 0.0, 0.0, 0.0, 1.6210005743197703E9, 2021-05-14 15:56:14.319
52.0, 188.88551330566406, -66.31403350830078, 167.6597137451172, 545.0006713867188, 0.03200000151991844, -0.04800000041723251, 1.055999994277954, 0.0, 0.0, 0.0, 0.0, 0.0, 1.6210005743333023E9, 2021-05-14 15:56:14.333
52.0, 187.9842071533203, -66.52346801757812, 167.05010986328125, 545.0829467773438, 0.03200000151991844, -0.04800000041723251, 1.055999994277954, 0.0, 0.0, 0.0, 0.0, 0.0, 1.6210005743333023E9, 2021-05-14 15:56:14.333
53.0, 184.4986114501953, -70.50272369384766, 164.03575134277344, 549.5147094726562, 0.03200000151991844, -0.04800000041723251, 1.055999994277954, 0.0, 0.0, 0.0, 0.0, 0.0, 1.621000574349452E9, 2021-05-14 15:56:14.349
53.0, 177.69200134277344, -71.65460968017578, 158.17906188964844, 549.4960327148438, 0.03200000151991844, -0.04800000041723251, 1.055999994277954, 0.0, 0.0, 0.0, 0.0, 0.0, 1.621000574349452E9, 2021-05-14 15:56:14.349
54.0, 164.63226318359375, -74.88214874267578, 159.3159942626953, 553.3070068359375, 0.03200000151991844, -0.04800000041723251, 1.055999994277954, 0.0, 0.0, 0.0, 0.0, 0.0, 1.621000574364056E9, 2021-05-14 15:56:14.364
54.0, 177.25442504882812, -68.13162994384766, 159.72364807128906, 555.6818237304688, 0.03200000151991844, -0.04800000041723251, 1.055999994277954, 0.0, 0.0, 0.0, 0.0, 0.0, 1.621000574364056E9, 2021-05-14 15:56:14.364
55.0, 182.52394104003906, -75.00556182861328, 158.87843322753906, 551.43701171875, 0.03200000151991844, -0.04800000041723251, 1.055999994277954, 0.0, 0.0, 0.0, 0.0, 0.0, 1.6210005743647456E9, 2021-05-14 15:56:14.364
55.0, 178.38388061523438, -79.1231918334961, 157.5769500732422, 542.3004760742188, 0.03200000151991844, -0.04800000041723251, 1.055999994277954, 0.0, 0.0, 0.0, 0.0, 0.0, 1.6210005743647456E9, 2021-05-14 15:56:14.364
56.0, 180.40342712402344, -76.00785827636719, 166.63497924804688, 539.0018310546875, 0.03200000151991844, -0.04800000041723251, 1.055999994277954, 0.0, 0.0, 0.0, 0.0, 0.0, 1.621000574379799E9, 2021-05-14 15:56:14.379
56.0, 188.50778198242188, -67.32754516601562, 167.5811767578125, 534.8056640625, 0.03200000151991844, -0.04800000041723251, 1.055999994277954, 0.0, 0.0, 0.0, 0.0, 0.0, 1.621000574379799E9, 2021-05-14 15:56:14.379
57.0, 192.1654052734375, -62.675113677978516, 172.80581665039062, 536.17822265625, 0.03200000151991844, -0.04800000041723251, 1.055999994277954, 0.0, 0.0, 0.0, 0.0, 0.0, 1.6210005743804924E9, 2021-05-14 15:56:14.380
57.0, 190.05984497070312, -61.88973617553711, 175.98098754882812, 528.36181640625, 0.03200000151991844, -0.04800000041723251, 1.055999994277954, 0.0, 0.0, 0.0, 0.0, 0.0, 1.6210005743804924E9, 2021-05-14 15:56:14.380
58.0, 181.04669189453125, -53.703094482421875, 175.1245574951172, 532.5206298828125, 0.03200000151991844, -0.04800000041723251, 1.055999994277954, 0.0, 0.0, 0.0, 0.0, 0.0, 1.621000574393325E9, 2021-05-14 15:56:14.393
58.0, 191.48849487304688, -53.12714767456055, 185.02032470703125, 542.4762573242188, 0.03200000151991844, -0.04800000041723251, 1.055999994277954, 0.0, 0.0, 0.0, 0.0, 0.0, 1.621000574393325E9, 2021-05-14 15:56:14.393
59.0, 182.14622497558594, -56.22004699707031, 172.4019012451172, 534.0839233398438, 0.03200000151991844, -0.04800000041723251, 1.055999994277954, 0.0, 0.0, 0.0, 0.0, 0.0, 1.6210005744089684E9, 2021-05-14 15:56:14.408
59.0, 182.79696655273438, -53.3291015625, 176.5157928466797, 541.6571655273438, 0.03200000151991844, -0.04800000041723251, 1.055999994277954, 0.0, 0.0, 0.0, 0.0, 0.0, 1.6210005744089684E9, 2021-05-14 15:56:14.408
60.0, 177.78549194335938, -63.0715446472168, 171.40708923339844, 536.3615112304688, 0.03200000151991844, -0.04800000041723251, 1.055999994277954, 0.0, 0.0, 0.0, 0.0, 0.0, 1.6210005744097607E9, 2021-05-14 15:56:14.409
60.0, 181.2411651611328, -63.565208435058594, 167.64102172851562, 545.8271484375, 0.03200000151991844, -0.04800000041723251, 1.055999994277954, 0.0, 0.0, 0.0, 0.0, 0.0, 1.6210005744097607E9, 2021-05-14 15:56:14.409
61.0, 175.74725341796875, -66.60948944091797, 162.16954040527344, 551.0555419921875, 0.03200000151991844, -0.04800000041723251, 1.055999994277954, 0.0, 0.0, 0.0, 0.0, 0.0, 1.6210005744233465E9, 2021-05-14 15:56:14.423
61.0, 159.92747497558594, -70.84305572509766, 157.04962158203125, 542.99609375, 0.03200000151991844, -0.04800000041723251, 1.055999994277954, 0.0, 0.0, 0.0, 0.0, 0.0, 1.6210005744233465E9, 2021-05-14 15:56:14.423
62.0, 170.75074768066406, -59.821571350097656, 158.95697021484375, 540.8942260742188, 0.03200000151991844, -0.04800000041723251, 1.055999994277954, 0.0, 0.0, 0.0, 0.0, 0.0, 1.6210005744389548E9, 2021-05-14 15:56:14.438
62.0, 184.06105041503906, -57.73096466064453, 169.82138061523438, 544.780029296875, 0.03200000151991844, -0.04800000041723251, 1.055999994277954, 0.0, 0.0, 0.0, 0.0, 0.0, 1.6210005744389548E9, 2021-05-14 15:56:14.438
63.0, 179.06080627441406, -63.16878128051758, 161.002685546875, 543.8936767578125, 0.03200000151991844, -0.04800000041723251, 1.055999994277954, 0.0, 0.0, 0.0, 0.0, 0.0, 1.6210005744397104E9, 2021-05-14 15:56:14.439
63.0, 167.2838592529297, -71.69575500488281, 158.70265197753906, 539.0093383789062, 0.03200000151991844, -0.04800000041723251, 1.055999994277954, 0.0, 0.0, 0.0, 0.0, 0.0, 1.6210005744397104E9, 2021-05-14 15:56:14.439
64.0, 178.6120147705078, -79.47100067138672, 160.99147033691406, 541.6983032226562, 0.03200000151991844, -0.04800000041723251, 1.055999994277954, 0.0, 0.0, 0.0, 0.0, 0.0, 1.6210005744534376E9, 2021-05-14 15:56:14.453
64.0, 185.71408081054688, -75.74232482910156, 161.6571807861328, 551.4519653320312, 0.03200000151991844, -0.04800000041723251, 1.055999994277954, 0.0, 0.0, 0.0, 0.0, 0.0, 1.6210005744534376E9, 2021-05-14 15:56:14.453
65.0, 178.49234008789062, -79.21295166015625, 160.8007354736328, 552.0391235351562, 0.03200000151991844, -0.04800000041723251, 1.055999994277954, 0.0, 0.0, 0.0, 0.0, 0.0, 1.6210005744689612E9, 2021-05-14 15:56:14.468
65.0, 175.5565185546875, -81.55786895751953, 161.0587921142578, 551.0219116210938, 0.03200000151991844, -0.04800000041723251, 1.055999994277954, 0.0, 0.0, 0.0, 0.0, 0.0, 1.6210005744689612E9, 2021-05-14 15:56:14.468
66.0, 169.29217529296875, -72.57463073730469, 156.0099334716797, 550.1542358398438, 0.03200000151991844, -0.04800000041723251, 1.055999994277954, 0.0, 0.0, 0.0, 0.0, 0.0, 1.6210005744697056E9, 2021-05-14 15:56:14.469
66.0, 171.6109161376953, -71.63217163085938, 164.29380798339844, 544.746337890625, 0.03200000151991844, -0.04800000041723251, 1.055999994277954, 0.0, 0.0, 0.0, 0.0, 0.0, 1.6210005744697056E9, 2021-05-14 15:56:14.469
67.0, 172.9161376953125, -66.67306518554688, 162.72305297851562, 544.181640625, 0.03200000151991844, -0.04800000041723251, 1.055999994277954, 0.0, 0.0, 0.0, 0.0, 0.0, 1.621000574483334E9, 2021-05-14 15:56:14.483
67.0, 175.5939178466797, -70.28581237792969, 167.1623077392578, 547.8467407226562, 0.03200000151991844, -0.04800000041723251, 1.055999994277954, 0.0, 0.0, 0.0, 0.0, 0.0, 1.621000574483334E9, 2021-05-14 15:56:14.483
68.0, 172.0709228515625, -62.21510696411133, 173.82681274414062, 552.233642578125, 0.03200000151991844, -0.04800000041723251, 1.055999994277954, 0.0, 0.0, 0.0, 0.0, 0.0, 1.6210005744997034E9, 2021-05-14 15:56:14.499
68.0, 181.3234405517578, -56.55289840698242, 179.1150360107422, 555.89501953125, 0.03200000151991844, -0.04800000041723251, 1.055999994277954, 0.0, 0.0, 0.0, 0.0, 0.0, 1.6210005744997034E9, 2021-05-14 15:56:14.499
69.0, 183.63844299316406, -63.66244888305664, 180.66334533691406, 550.8274536132812, 0.03200000151991844, -0.04800000041723251, 1.055999994277954, 0.0, 0.0, 0.0, 0.0, 0.0, 1.621000574500412E9, 2021-05-14 15:56:14.500
69.0, 197.57330322265625, -57.92169952392578, 185.29708862304688, 551.2799682617188, 0.03200000151991844, -0.04800000041723251, 1.055999994277954, 0.0, 0.0, 0.0, 0.0, 0.0, 1.621000574500412E9, 2021-05-14 15:56:14.500
70.0, 187.35589599609375, -56.231266021728516, 178.3857421875, 545.7636108398438, 0.03200000151991844, -0.04800000041723251, 1.055999994277954, 0.0, 0.0, 0.0, 0.0, 0.0, 1.6210005745135064E9, 2021-05-14 15:56:14.513
70.0, 197.90989685058594, -59.3615608215332, 176.74392700195312, 549.1182861328125, 0.03200000151991844, -0.04800000041723251, 1.055999994277954, 0.0, 0.0, 0.0, 0.0, 0.0, 1.6210005745135064E9, 2021-05-14 15:56:14.513
71.0, 194.21487426757812, -54.91856002807617, 179.39178466796875, 543.4934692382812, 0.03200000151991844, -0.04800000041723251, 1.055999994277954, 0.0, 0.0, 0.0, 0.0, 0.0, 1.6210005745289912E9, 2021-05-14 15:56:14.528
71.0, 172.99093627929688, -64.21221160888672, 175.3377227783203, 538.1641235351562, 0.03200000151991844, -0.04800000041723251, 1.055999994277954, 0.0, 0.0, 0.0, 0.0, 0.0, 1.6210005745289912E9, 2021-05-14 15:56:14.528
72.0, 169.25103759765625, -61.25395202636719, 172.14385986328125, 536.9449462890625, 0.03200000151991844, -0.04800000041723251, 1.055999994277954, 0.0, 0.0, 0.0, 0.0, 0.0, 1.6210005745297804E9, 2021-05-14 15:56:14.529
72.0, 170.17105102539062, -67.2976303100586, 165.9692840576172, 546.3470458984375, 0.03200000151991844, -0.04800000041723251, 1.055999994277954, 0.0, 0.0, 0.0, 0.0, 0.0, 1.6210005745297804E9, 2021-05-14 15:56:14.529
73.0, 176.29327392578125, -66.53095245361328, 163.4224090576172, 544.7762451171875, 0.03200000151991844, -0.04800000041723251, 1.055999994277954, 0.0, 0.0, 0.0, 0.0, 0.0, 1.6210005745596788E9, 2021-05-14 15:56:14.559
73.0, 167.79995727539062, -73.6218032836914, 157.72654724121094, 540.1762084960938, 0.03200000151991844, -0.04800000041723251, 1.055999994277954, 0.0, 0.0, 0.0, 0.0, 0.0, 1.6210005745596788E9, 2021-05-14 15:56:14.559
74.0, 169.86813354492188, -67.97080993652344, 165.5466766357422, 551.26123046875, 0.03200000151991844, -0.04800000041723251, 1.055999994277954, 0.0, 0.0, 0.0, 0.0, 0.0, 1.6210005745604267E9, 2021-05-14 15:56:14.560
74.0, 172.51971435546875, -74.38848114013672, 157.7489776611328, 556.37744140625, 0.03200000151991844, -0.04800000041723251, 1.055999994277954, 0.0, 0.0, 0.0, 0.0, 0.0, 1.6210005745604267E9, 2021-05-14 15:56:14.560
75.0, 175.85195922851562, -75.47679138183594, 163.85997009277344, 565.3382568359375, 0.03200000151991844, -0.04800000041723251, 1.055999994277954, 0.0, 0.0, 0.0, 0.0, 0.0, 1.6210005745611677E9, 2021-05-14 15:56:14.561
75.0, 185.48594665527344, -66.70298767089844, 172.85816955566406, 569.5044555664062, 0.03200000151991844, -0.04800000041723251, 1.055999994277954, 0.0, 0.0, 0.0, 0.0, 0.0, 1.6210005745611677E9, 2021-05-14 15:56:14.561
76.0, 172.71044921875, -70.36061096191406, 169.0098114013672, 568.0458984375, 0.03200000151991844, -0.04800000041723251, 1.055999994277954, 0.0, 0.0, 0.0, 0.0, 0.0, 1.6210005745732627E9, 2021-05-14 15:56:14.573
76.0, 171.771728515625, -69.61262512207031, 169.90365600585938, 567.8178100585938, 0.03200000151991844, -0.04800000041723251, 1.055999994277954, 0.0, 0.0, 0.0, 0.0, 0.0, 1.6210005745732627E9, 2021-05-14 15:56:14.573
77.0, 180.68765258789062, -64.25334930419922, 172.88809204101562, 570.5516357421875, 0.03200000151991844, -0.04800000041723251, 1.055999994277954, 0.0, 0.0, 0.0, 0.0, 0.0, 1.6210005745890017E9, 2021-05-14 15:56:14.589
77.0, 171.3977508544922, -65.70817565917969, 171.04806518554688, 561.531005859375, 0.03200000151991844, -0.04800000041723251, 1.055999994277954, 0.0, 0.0, 0.0, 0.0, 0.0, 1.6210005745890017E9, 2021-05-14 15:56:14.589
78.0, 170.94895935058594, -73.21414947509766, 170.7152099609375, 552.562744140625, 0.03200000151991844, -0.04800000041723251, 1.055999994277954, 0.0, 0.0, 0.0, 0.0, 0.0, 1.6210005745897405E9, 2021-05-14 15:56:14.589
78.0, 180.69512939453125, -64.73580169677734, 175.41627502441406, 558.5764770507812, 0.03200000151991844, -0.04800000041723251, 1.055999994277954, 0.0, 0.0, 0.0, 0.0, 0.0, 1.6210005745897405E9, 2021-05-14 15:56:14.589
79.0, 179.34129333496094, -57.607547760009766, 169.16690063476562, 555.240478515625, 0.03200000151991844, -0.04800000041723251, 1.055999994277954, 0.0, 0.0, 0.0, 0.0, 0.0, 1.6210005746033387E9, 2021-05-14 15:56:14.603
79.0, 170.61610412597656, -58.03015899658203, 159.39453125, 546.5040893554688, 0.03200000151991844, -0.04800000041723251, 1.055999994277954, 0.0, 0.0, 0.0, 0.0, 0.0, 1.6210005746033387E9, 2021-05-14 15:56:14.603
80.0, 182.2845916748047, -57.28217697143555, 166.07774353027344, 542.7006225585938, 0.03200000151991844, -0.04800000041723251, 1.055999994277954, 0.0, 0.0, 0.0, 0.0, 0.0, 1.6210005746190567E9, 2021-05-14 15:56:14.619
80.0, 194.73098754882812, -54.63432693481445, 178.97291564941406, 553.6435546875, 0.03200000151991844, -0.04800000041723251, 1.055999994277954, 0.0, 0.0, 0.0, 0.0, 0.0, 1.6210005746190567E9, 2021-05-14 15:56:14.619
81.0, 189.80552673339844, -47.094688415527344, 177.89207458496094, 543.1868286132812, 0.03200000151991844, -0.04800000041723251, 1.055999994277954, 0.0, 0.0, 0.0, 0.0, 0.0, 1.6210005746197405E9, 2021-05-14 15:56:14.619
81.0, 177.1085662841797, -53.50114059448242, 177.2151641845703, 535.4526977539062, 0.03200000151991844, -0.04800000041723251, 1.055999994277954, 0.0, 0.0, 0.0, 0.0, 0.0, 1.6210005746197405E9, 2021-05-14 15:56:14.619
82.0, 171.4875030517578, -62.62275314331055, 170.10186767578125, 537.0234375, 0.03200000151991844, -0.04800000041723251, 1.055999994277954, 0.0, 0.0, 0.0, 0.0, 0.0, 1.6210005746334069E9, 2021-05-14 15:56:14.633
82.0, 175.6387939453125, -59.671974182128906, 171.92320251464844, 551.6203002929688, 0.03200000151991844, -0.04800000041723251, 1.055999994277954, 0.0, 0.0, 0.0, 0.0, 0.0, 1.6210005746334069E9, 2021-05-14 15:56:14.633
83.0, 176.0052947998047, -63.32211685180664, 166.6910858154297, 553.6622924804688, 0.03200000151991844, -0.04800000041723251, 1.055999994277954, 0.0, 0.0, 0.0, 0.0, 0.0, 1.6210005746648126E9, 2021-05-14 15:56:14.664
83.0, 176.75701904296875, -73.3001708984375, 158.9681854248047, 555.075927734375, 0.03200000151991844, -0.04800000041723251, 1.055999994277954, 0.0, 0.0, 0.0, 0.0, 0.0, 1.6210005746648126E9, 2021-05-14 15:56:14.664
84.0, 170.13365173339844, -77.4738998413086, 158.6054229736328, 557.7911376953125, 0.03200000151991844, -0.04800000041723251, 1.055999994277954, 0.0, 0.0, 0.0, 0.0, 0.0, 1.621000574665586E9, 2021-05-14 15:56:14.665
84.0, 175.77342224121094, -77.87032318115234, 165.8832550048828, 562.3612670898438, 0.03200000151991844, -0.04800000041723251, 1.055999994277954, 0.0, 0.0, 0.0, 0.0, 0.0, 1.621000574665586E9, 2021-05-14 15:56:14.665
85.0, 182.99517822265625, -76.36314392089844, 162.2779998779297, 569.171630859375, 0.03200000151991844, -0.04800000041723251, 1.055999994277954, 0.0, 0.0, 0.0, 0.0, 0.0, 1.621000574666174E9, 2021-05-14 15:56:14.666
85.0, 176.75328063964844, -75.7535400390625, 159.5703125, 556.5831298828125, 0.03200000151991844, -0.04800000041723251, 1.055999994277954, 0.0, 0.0, 0.0, 0.0, 0.0, 1.621000574666174E9, 2021-05-14 15:56:14.666
86.0, 174.4158477783203, -81.7560806274414, 160.3781280517578, 557.7013549804688, 0.03200000151991844, -0.04800000041723251, 1.055999994277954, 0.0, 0.0, 0.0, 0.0, 0.0, 1.621000574679642E9, 2021-05-14 15:56:14.679
86.0, 196.91134643554688, -66.12329864501953, 172.4168701171875, 564.0367431640625, 0.03200000151991844, -0.04800000041723251, 1.055999994277954, 0.0, 0.0, 0.0, 0.0, 0.0, 1.621000574679642E9, 2021-05-14 15:56:14.679
87.0, 190.57969665527344, -70.94776916503906, 174.17835998535156, 560.6259765625, 0.03200000151991844, -0.04800000041723251, 1.055999994277954, 0.0, 0.0, 0.0, 0.0, 0.0, 1.6210005746803467E9, 2021-05-14 15:56:14.680
87.0, 179.43104553222656, -68.00447082519531, 170.64788818359375, 550.3973388671875, 0.03200000151991844, -0.04800000041723251, 1.055999994277954, 0.0, 0.0, 0.0, 0.0, 0.0, 1.6210005746803467E9, 2021-05-14 15:56:14.680
88.0, 173.36866760253906, -67.91471099853516, 174.63836669921875, 541.5711669921875, 0.03200000151991844, -0.04800000041723251, 1.055999994277954, 0.0, 0.0, 0.0, 0.0, 0.0, 1.6210005746933084E9, 2021-05-14 15:56:14.693
88.0, 170.65724182128906, -66.50476837158203, 172.2859649658203, 545.2998657226562, 0.03200000151991844, -0.04800000041723251, 1.055999994277954, 0.0, 0.0, 0.0, 0.0, 0.0, 1.6210005746933084E9, 2021-05-14 15:56:14.693
89.0, 169.9204864501953, -62.039329528808594, 169.88870239257812, 552.12890625, 0.03200000151991844, -0.04800000041723251, 1.055999994277954, 0.0, 0.0, 0.0, 0.0, 0.0, 1.6210005747090764E9, 2021-05-14 15:56:14.709
89.0, 165.73553466796875, -62.716251373291016, 169.55584716796875, 541.29443359375, 0.03200000151991844, -0.04800000041723251, 1.055999994277954, 0.0, 0.0, 0.0, 0.0, 0.0, 1.6210005747090764E9, 2021-05-14 15:56:14.709
90.0, 165.60838317871094, -58.763179779052734, 168.69566345214844, 536.85888671875, 0.03200000151991844, -0.04800000041723251, 1.055999994277954, 0.0, 0.0, 0.0, 0.0, 0.0, 1.621000574709754E9, 2021-05-14 15:56:14.709
90.0, 178.75787353515625, -58.44902801513672, 170.70025634765625, 542.7791748046875, 0.03200000151991844, -0.04800000041723251, 1.055999994277954, 0.0, 0.0, 0.0, 0.0, 0.0, 1.621000574709754E9, 2021-05-14 15:56:14.709
91.0, 181.79466247558594, -54.65302658081055, 165.4195098876953, 543.4934692382812, 0.03200000151991844, -0.04800000041723251, 1.055999994277954, 0.0, 0.0, 0.0, 0.0, 0.0, 1.6210005747233105E9, 2021-05-14 15:56:14.723
91.0, 177.64337158203125, -62.12160873413086, 160.72967529296875, 532.2738037109375, 0.03200000151991844, -0.04800000041723251, 1.055999994277954, 0.0, 0.0, 0.0, 0.0, 0.0, 1.6210005747233105E9, 2021-05-14 15:56:14.723
92.0, 175.77342224121094, -67.43974304199219, 165.1165771484375, 530.3178100585938, 0.03200000151991844, -0.04800000041723251, 1.055999994277954, 0.0, 0.0, 0.0, 0.0, 0.0, 1.621000574739026E9, 2021-05-14 15:56:14.739
92.0, 189.00892639160156, -57.11388397216797, 176.51205444335938, 542.4724731445312, 0.03200000151991844, -0.04800000041723251, 1.055999994277954, 0.0, 0.0, 0.0, 0.0, 0.0, 1.621000574739026E9, 2021-05-14 15:56:14.739
93.0, 189.73822021484375, -63.39317321777344, 174.1110382080078, 545.0455322265625, 0.03200000151991844, -0.04800000041723251, 1.055999994277954, 0.0, 0.0, 0.0, 0.0, 0.0, 1.62100057473971E9, 2021-05-14 15:56:14.739
93.0, 181.72360229492188, -68.5280532836914, 176.24652099609375, 548.7255859375, 0.03200000151991844, -0.04800000041723251, 1.055999994277954, 0.0, 0.0, 0.0, 0.0, 0.0, 1.62100057473971E9, 2021-05-14 15:56:14.739
94.0, 172.89744567871094, -68.46821594238281, 169.9560089111328, 551.1228637695312, 0.03200000151991844, -0.04800000041723251, 1.055999994277954, 0.0, 0.0, 0.0, 0.0, 0.0, 1.6210005747697933E9, 2021-05-14 15:56:14.769
94.0, 181.43563842773438, -58.946434020996094, 162.53231811523438, 561.6095581054688, 0.03200000151991844, -0.04800000041723251, 1.055999994277954, 0.0, 0.0, 0.0, 0.0, 0.0, 1.6210005747697933E9, 2021-05-14 15:56:14.769
95.0, 175.69862365722656, -59.87392807006836, 163.05215454101562, 554.3878173828125, 0.03200000151991844, -0.04800000041723251, 1.055999994277954, 0.0, 0.0, 0.0, 0.0, 0.0, 1.6210005747704926E9, 2021-05-14 15:56:14.770
95.0, 172.01109313964844, -64.66474151611328, 167.63726806640625, 549.851318359375, 0.03200000151991844, -0.04800000041723251, 1.055999994277954, 0.0, 0.0, 0.0, 0.0, 0.0, 1.6210005747704926E9, 2021-05-14 15:56:14.770
96.0, 174.47567749023438, -68.9095230102539, 169.90365600585938, 548.1795654296875, 0.03200000151991844, -0.04800000041723251, 1.055999994277954, 0.0, 0.0, 0.0, 0.0, 0.0, 1.6210005747712317E9, 2021-05-14 15:56:14.771
96.0, 185.69912719726562, -61.422245025634766, 170.70399475097656, 555.9996948242188, 0.03200000151991844, -0.04800000041723251, 1.055999994277954, 0.0, 0.0, 0.0, 0.0, 0.0, 1.6210005747712317E9, 2021-05-14 15:56:14.771
97.0, 178.2679443359375, -55.1429557800293, 171.3584747314453, 565.0614624023438, 0.03200000151991844, -0.04800000041723251, 1.055999994277954, 0.0, 0.0, 0.0, 0.0, 0.0, 1.6210005747833753E9, 2021-05-14 15:56:14.783
97.0, 164.26950073242188, -62.20762634277344, 163.9048614501953, 546.1637573242188, 0.03200000151991844, -0.04800000041723251, 1.055999994277954, 0.0, 0.0, 0.0, 0.0, 0.0, 1.6210005747833753E9, 2021-05-14 15:56:14.783
98.0, 166.33766174316406, -51.51525115966797, 168.14590454101562, 555.0946655273438, 0.03200000151991844, -0.04800000041723251, 1.055999994277954, 0.0, 0.0, 0.0, 0.0, 0.0, 1.6210005747989912E9, 2021-05-14 15:56:14.798
98.0, 169.25103759765625, -55.34490966796875, 174.6084442138672, 556.6093139648438, 0.03200000151991844, -0.04800000041723251, 1.055999994277954, 0.0, 0.0, 0.0, 0.0, 0.0, 1.6210005747989912E9, 2021-05-14 15:56:14.798
99.0, 171.3117218017578, -47.9174690246582, 179.7508087158203, 555.3489379882812, 0.03200000151991844, -0.04800000041723251, 1.055999994277954, 0.0, 0.0, 0.0, 0.0, 0.0, 1.6210005747998013E9, 2021-05-14 15:56:14.799
99.0, 165.2979736328125, -57.34575653076172, 176.0931854248047, 544.8884887695312, 0.03200000151991844, -0.04800000041723251, 1.055999994277954, 0.0, 0.0, 0.0, 0.0, 0.0, 1.6210005747998013E9, 2021-05-14 15:56:14.799
100.0, 175.6761932373047, -46.402809143066406, 175.4686279296875, 541.1859741210938, 0.03200000151991844, -0.04800000041723251, 1.055999994277954, 0.0, 0.0, 0.0, 0.0, 0.0, 1.6210005748140657E9, 2021-05-14 15:56:14.814
100.0, 177.73313903808594, -44.76099395751953, 172.09523010253906, 536.3577270507812, 0.03200000151991844, -0.04800000041723251, 1.055999994277954, 0.0, 0.0, 0.0, 0.0, 0.0, 1.6210005748140657E9, 2021-05-14 15:56:14.814
0.0, 186.6154022216797, -54.522132873535156, 172.48419189453125, 533.9810180664062, 0.03200000151991844, -0.04800000041723251, 1.055999994277954, 0.0, 0.0, 0.0, 0.0, 0.0, 1.6210005748147564E9, 2021-05-14 15:56:14.814
1.0, 177.26190185546875, -60.69296646118164, 168.88265991210938, 522.3312377929688, 0.03200000151991844, -0.04800000041723251, 1.055999994277954, 0.0, 0.0, 0.0, 0.0, 0.0, 1.6210005748282807E9, 2021-05-14 15:56:14.828
1.0, 167.99069213867188, -64.55254364013672, 168.8489990234375, 528.7825927734375, 0.03200000151991844, -0.04800000041723251, 1.055999994277954, 0.0, 0.0, 0.0, 0.0, 0.0, 1.6210005748282807E9, 2021-05-14 15:56:14.828
2.0, 172.99842834472656, -63.72602462768555, 165.30357360839844, 542.5603637695312, 0.03200000151991844, -0.04800000041723251, 1.055999994277954, 0.0, 0.0, 0.0, 0.0, 0.0, 1.6210005748440924E9, 2021-05-14 15:56:14.844
2.0, 175.53781127929688, -65.90264892578125, 162.13214111328125, 543.55517578125, 0.03200000151991844, -0.04800000041723251, 1.055999994277954, 0.0, 0.0, 0.0, 0.0, 0.0, 1.6210005748440924E9, 2021-05-14 15:56:14.844
3.0, 168.03182983398438, -63.44179153442383, 162.89508056640625, 556.4541015625, 0.03200000151991844, -0.04800000041723251, 1.055999994277954, 0.0, 0.0, 0.0, 0.0, 0.0, 1.6210005748447552E9, 2021-05-14 15:56:14.844
3.0, 166.6854705810547, -68.07179260253906, 170.26641845703125, 560.7400512695312, 0.03200000151991844, -0.04800000041723251, 1.055999994277954, 0.0, 0.0, 0.0, 0.0, 0.0, 1.6210005748447552E9, 2021-05-14 15:56:14.844
4.0, 179.48715209960938, -63.613826751708984, 168.1645965576172, 568.0328369140625, 0.03200000151991844, -0.04800000041723251, 1.055999994277954, 0.0, 0.0, 0.0, 0.0, 0.0, 1.621000574858278E9, 2021-05-14 15:56:14.858
4.0, 174.73373413085938, -71.78550720214844, 164.68275451660156, 569.8280029296875, 0.03200000151991844, -0.04800000041723251, 1.055999994277954, 0.0, 0.0, 0.0, 0.0, 0.0, 1.621000574858278E9, 2021-05-14 15:56:14.858
5.0, 167.40353393554688, -75.00182342529297, 164.60421752929688, 560.8671875, 0.03200000151991844, -0.04800000041723251, 1.055999994277954, 0.0, 0.0, 0.0, 0.0, 0.0, 1.6210005748740592E9, 2021-05-14 15:56:14.874
5.0, 167.93460083007812, -72.64942932128906, 165.02308654785156, 559.1318969726562, 0.03200000151991844, -0.04800000041723251, 1.055999994277954, 0.0, 0.0, 0.0, 0.0, 0.0, 1.6210005748740592E9, 2021-05-14 15:56:14.874
6.0, 174.68138122558594, -67.08071899414062, 161.49635314941406, 559.1692504882812, 0.03200000151991844, -0.04800000041723251, 1.055999994277954, 0.0, 0.0, 0.0, 0.0, 0.0, 1.6210005748747797E9, 2021-05-14 15:56:14.874
6.0, 187.0866241455078, -60.45361328125, 167.446533203125, 558.8327026367188, 0.03200000151991844, -0.04800000041723251, 1.055999994277954, 0.0, 0.0, 0.0, 0.0, 0.0, 1.6210005748747797E9, 2021-05-14 15:56:14.874
7.0, 174.00819396972656, -66.52721405029297, 163.0072784423828, 550.4066772460938, 0.03200000151991844, -0.04800000041723251, 1.055999994277954, 0.0, 0.0, 0.0, 0.0, 0.0, 1.6210005748882933E9, 2021-05-14 15:56:14.888
7.0, 178.731689453125, -63.9578971862793, 167.0650634765625, 541.453369140625, 0.03200000151991844, -0.04800000041723251, 1.055999994277954, 0.0, 0.0, 0.0, 0.0, 0.0, 1.6210005748882933E9, 2021-05-14 15:56:14.888
8.0, 171.55856323242188, -64.51514434814453, 164.25267028808594, 542.6239624023438, 0.03200000151991844, -0.04800000041723251, 1.055999994277954, 0.0, 0.0, 0.0, 0.0, 0.0, 1.621000574903816E9, 2021-05-14 15:56:14.903
8.0, 180.96066284179688, -58.280731201171875, 171.42953491210938, 546.5321655273438, 0.03200000151991844, -0.04800000041723251, 1.055999994277954, 0.0, 0.0, 0.0, 0.0, 0.0, 1.621000574903816E9, 2021-05-14 15:56:14.903
9.0, 174.80479431152344, -53.73301315307617, 175.57334899902344, 544.8192749023438, 0.03200000151991844, -0.04800000041723251, 1.055999994277954, 0.0, 0.0, 0.0, 0.0, 0.0, 1.6210005749188375E9, 2021-05-14 15:56:14.918
9.0, 175.7996063232422, -56.40330123901367, 176.9384002685547, 548.566650390625, 0.03200000151991844, -0.04800000041723251, 1.055999994277954, 0.0, 0.0, 0.0, 0.0, 0.0, 1.6210005749188375E9, 2021-05-14 15:56:14.918
10.0, 185.71034240722656, -48.06706237792969, 180.345458984375, 551.5436401367188, 0.03200000151991844, -0.04800000041723251, 1.055999994277954, 0.0, 0.0, 0.0, 0.0, 0.0, 1.6210005749351175E9, 2021-05-14 15:56:14.935
10.0, 184.2405548095703, -57.558929443359375, 170.93960571289062, 537.8705444335938, 0.03200000151991844, -0.04800000041723251, 1.055999994277954, 0.0, 0.0, 0.0, 0.0, 0.0, 1.6210005749351175E9, 2021-05-14 15:56:14.935
11.0, 182.86053466796875, -51.679805755615234, 178.53533935546875, 539.2543334960938, 0.03200000151991844, -0.04800000041723251, 1.055999994277954, 0.0, 0.0, 0.0, 0.0, 0.0, 1.6210005749358947E9, 2021-05-14 15:56:14.935
11.0, 175.34707641601562, -59.941246032714844, 175.60325622558594, 544.1834716796875, 0.03200000151991844, -0.04800000041723251, 1.055999994277954, 0.0, 0.0, 0.0, 0.0, 0.0, 1.6210005749358947E9, 2021-05-14 15:56:14.935
12.0, 186.69020080566406, -58.68838119506836, 174.2681121826172, 557.370361328125, 0.03200000151991844, -0.04800000041723251, 1.055999994277954, 0.0, 0.0, 0.0, 0.0, 0.0, 1.621000574948997E9, 2021-05-14 15:56:14.948
12.0, 184.31161499023438, -65.6932144165039, 168.45631408691406, 564.5435180664062, 0.03200000151991844, -0.04800000041723251, 1.055999994277954, 0.0, 0.0, 0.0, 0.0, 0.0, 1.621000574948997E9, 2021-05-14 15:56:14.948
13.0, 173.58184814453125, -69.25360107421875, 167.84671020507812, 567.0267944335938, 0.03200000151991844, -0.04800000041723251, 1.055999994277954, 0.0, 0.0, 0.0, 0.0, 0.0, 1.6210005749497557E9, 2021-05-14 15:56:14.949
13.0, 174.1091766357422, -71.392822265625, 160.84934997558594, 567.0492553710938, 0.03200000151991844, -0.04800000041723251, 1.055999994277954, 0.0, 0.0, 0.0, 0.0, 0.0, 1.6210005749497557E9, 2021-05-14 15:56:14.949
14.0, 184.330322265625, -65.8540267944336, 164.3686065673828, 575.680908203125, 0.03200000151991844, -0.04800000041723251, 1.055999994277954, 0.0, 0.0, 0.0, 0.0, 0.0, 1.6210005749639795E9, 2021-05-14 15:56:14.963
14.0, 177.59475708007812, -72.2791748046875, 157.71531677246094, 568.1787109375, 0.03200000151991844, -0.04800000041723251, 1.055999994277954, 0.0, 0.0, 0.0, 0.0, 0.0, 1.6210005749639795E9, 2021-05-14 15:56:14.963
15.0, 172.38882446289062, -74.41091918945312, 159.7498321533203, 561.8433227539062, 0.03200000151991844, -0.04800000041723251, 1.055999994277954, 0.0, 0.0, 0.0, 0.0, 0.0, 1.6210005749647045E9, 2021-05-14 15:56:14.964
15.0, 178.06224060058594, -71.64713287353516, 160.28089904785156, 560.1117553710938, 0.03200000151991844, -0.04800000041723251, 1.055999994277954, 0.0, 0.0, 0.0, 0.0, 0.0, 1.6210005749647045E9, 2021-05-14 15:56:14.964
16.0, 188.7733154296875, -56.92688751220703, 166.28717041015625, 564.8389892578125, 0.03200000151991844, -0.04800000041723251, 1.055999994277954, 0.0, 0.0, 0.0, 0.0, 0.0, 1.621000574978546E9, 2021-05-14 15:56:14.978
16.0, 181.25238037109375, -65.52491760253906, 157.8723907470703, 540.2977294921875, 0.03200000151991844, -0.04800000041723251, 1.055999994277954, 0.0, 0.0, 0.0, 0.0, 0.0, 1.621000574978546E9, 2021-05-14 15:56:14.978
17.0, 169.3557586669922, -67.45844268798828, 160.44171142578125, 537.3843383789062, 0.03200000151991844, -0.04800000041723251, 1.055999994277954, 0.0, 0.0, 0.0, 0.0, 0.0, 1.6210005749939823E9, 2021-05-14 15:56:14.993
17.0, 179.02340698242188, -62.61527633666992, 161.75067138671875, 537.4778442382812, 0.03200000151991844, -0.04800000041723251, 1.055999994277954, 0.0, 0.0, 0.0, 0.0, 0.0, 1.6210005749939823E9, 2021-05-14 15:56:14.993
18.0, 191.454833984375, -59.7318115234375, 165.14276123046875, 543.73095703125, 0.03200000151991844, -0.04800000041723251, 1.055999994277954, 0.0, 0.0, 0.0, 0.0, 0.0, 1.6210005749947455E9, 2021-05-14 15:56:14.994
18.0, 198.45591735839844, -49.62660217285156, 172.19247436523438, 545.3839721679688, 0.03200000151991844, -0.04800000041723251, 1.055999994277954, 0.0, 0.0, 0.0, 0.0, 0.0, 1.6210005749947455E9, 2021-05-14 15:56:14.994
19.0, 179.12811279296875, -63.101463317871094, 167.18475341796875, 541.8572998046875, 0.03200000151991844, -0.04800000041723251, 1.055999994277954, 0.0, 0.0, 0.0, 0.0, 0.0, 1.6210005750083652E9, 2021-05-14 15:56:15.008
19.0, 172.97598266601562, -56.3397216796875, 173.74453735351562, 552.05224609375, 0.03200000151991844, -0.04800000041723251, 1.055999994277954, 0.0, 0.0, 0.0, 0.0, 0.0, 1.6210005750083652E9, 2021-05-14 15:56:15.008
20.0, 179.30763244628906, -51.28337860107422, 172.2448272705078, 554.6851196289062, 0.03200000151991844, -0.04800000041723251, 1.055999994277954, 0.0, 0.0, 0.0, 0.0, 0.0, 1.6210005750240066E9, 2021-05-14 15:56:15.024
20.0, 175.10772705078125, -52.8952751159668, 175.592041015625, 563.7730712890625, 0.03200000151991844, -0.04800000041723251, 1.055999994277954, 0.0, 0.0, 0.0, 0.0, 0.0, 1.6210005750240066E9, 2021-05-14 15:56:15.024
21.0, 165.3802490234375, -61.36240768432617, 158.0818328857422, 553.2714233398438, 0.03200000151991844, -0.04800000041723251, 1.055999994277954, 0.0, 0.0, 0.0, 0.0, 0.0, 1.6210005750247805E9, 2021-05-14 15:56:15.024
21.0, 162.77352905273438, -65.71565246582031, 161.96011352539062, 554.7262573242188, 0.03200000151991844, -0.04800000041723251, 1.055999994277954, 0.0, 0.0, 0.0, 0.0, 0.0, 1.6210005750247805E9, 2021-05-14 15:56:15.024
22.0, 177.64337158203125, -55.617923736572266, 168.95372009277344, 562.8493041992188, 0.03200000151991844, -0.04800000041723251, 1.055999994277954, 0.0, 0.0, 0.0, 0.0, 0.0, 1.621000575038536E9, 2021-05-14 15:56:15.038
22.0, 179.1916961669922, -58.561222076416016, 166.49285888671875, 559.0533447265625, 0.03200000151991844, -0.04800000041723251, 1.055999994277954, 0.0, 0.0, 0.0, 0.0, 0.0, 1.621000575038536E9, 2021-05-14 15:56:15.038
23.0, 168.5180206298828, -65.10231018066406, 158.49696350097656, 549.8905639648438, 0.03200000151991844, -0.04800000041723251, 1.055999994277954, 0.0, 0.0, 0.0, 0.0, 0.0, 1.621000575054135E9, 2021-05-14 15:56:15.054
23.0, 169.16876220703125, -67.12185668945312, 161.11863708496094, 552.4150390625, 0.03200000151991844, -0.04800000041723251, 1.055999994277954, 0.0, 0.0, 0.0, 0.0, 0.0, 1.621000575054135E9, 2021-05-14 15:56:15.054
24.0, 170.51138305664062, -61.55314254760742, 158.44085693359375, 557.7406005859375, 0.03200000151991844, -0.04800000041723251, 1.055999994277954, 0.0, 0.0, 0.0, 0.0, 0.0, 1.6210005750549116E9, 2021-05-14 15:56:15.054
24.0, 176.92532348632812, -64.7918930053711, 157.35629272460938, 549.3782348632812, 0.03200000151991844, -0.04800000041723251, 1.055999994277954, 0.0, 0.0, 0.0, 0.0, 0.0, 1.6210005750549116E9, 2021-05-14 15:56:15.054
25.0, 171.77548217773438, -68.77863311767578, 158.9307861328125, 552.9310913085938, 0.03200000151991844, -0.04800000041723251, 1.055999994277954, 0.0, 0.0, 0.0, 0.0, 0.0, 1.621000575068437E9, 2021-05-14 15:56:15.068
25.0, 179.21414184570312, -69.96044158935547, 158.6727294921875, 548.7686157226562, 0.03200000151991844, -0.04800000041723251, 1.055999994277954, 0.0, 0.0, 0.0, 0.0, 0.0, 1.621000575068437E9, 2021-05-14 15:56:15.068
26.0, 181.74978637695312, -72.62698364257812, 158.291259765625, 546.4722900390625, 0.03200000151991844, -0.04800000041723251, 1.055999994277954, 0.0, 0.0, 0.0, 0.0, 0.0, 1.6210005750841205E9, 2021-05-14 15:56:15.084
26.0, 186.1927947998047, -67.48836517333984, 153.35086059570312, 544.0189208984375, 0.03200000151991844, -0.04800000041723251, 1.055999994277954, 0.0, 0.0, 0.0, 0.0, 0.0, 1.6210005750841205E9, 2021-05-14 15:56:15.084
27.0, 182.25466918945312, -68.19894409179688, 156.14830017089844, 541.7413330078125, 0.03200000151991844, -0.04800000041723251, 1.055999994277954, 0.0, 0.0, 0.0, 0.0, 0.0, 1.621000575084868E9, 2021-05-14 15:56:15.084
27.0, 183.83665466308594, -67.85861206054688, 156.49610900878906, 538.708251953125, 0.03200000151991844, -0.04800000041723251, 1.055999994277954, 0.0, 0.0, 0.0, 0.0, 0.0, 1.621000575084868E9, 2021-05-14 15:56:15.084
28.0, 171.7792205810547, -55.90215301513672, 162.7193145751953, 545.9000854492188, 0.03200000151991844, -0.04800000041723251, 1.055999994277954, 0.0, 0.0, 0.0, 0.0, 0.0, 1.621000575098336E9, 2021-05-14 15:56:15.098
28.0, 157.58255004882812, -57.97406005859375, 159.71990966796875, 543.8431396484375, 0.03200000151991844, -0.04800000041723251, 1.055999994277954, 0.0, 0.0, 0.0, 0.0, 0.0, 1.621000575098336E9, 2021-05-14 15:56:15.098
29.0, 163.9403839111328, -55.30377197265625, 167.4053955078125, 550.7357788085938, 0.03200000151991844, -0.04800000041723251, 1.055999994277954, 0.0, 0.0, 0.0, 0.0, 0.0, 1.6210005751140656E9, 2021-05-14 15:56:15.114
29.0, 162.89321899414062, -57.60007095336914, 168.19825744628906, 548.600341796875, 0.03200000151991844, -0.04800000041723251, 1.055999994277954, 0.0, 0.0, 0.0, 0.0, 0.0, 1.6210005751140656E9, 2021-05-14 15:56:15.114
30.0, 160.98211669921875, -62.79104995727539, 162.42759704589844, 552.1494750976562, 0.03200000151991844, -0.04800000041723251, 1.055999994277954, 0.0, 0.0, 0.0, 0.0, 0.0, 1.6210005751147845E9, 2021-05-14 15:56:15.114
30.0, 164.658447265625, -63.101463317871094, 155.8416290283203, 550.0028076171875, 0.03200000151991844, -0.04800000041723251, 1.055999994277954, 0.0, 0.0, 0.0, 0.0, 0.0, 1.6210005751147845E9, 2021-05-14 15:56:15.114
31.0, 169.13136291503906, -55.93207550048828, 156.92245483398438, 550.51513671875, 0.03200000151991844, -0.04800000041723251, 1.055999994277954, 0.0, 0.0, 0.0, 0.0, 0.0, 1.6210005751283393E9, 2021-05-14 15:56:15.128
31.0, 168.95933532714844, -59.16334915161133, 151.78758239746094, 550.0626220703125, 0.03200000151991844, -0.04800000041723251, 1.055999994277954, 0.0, 0.0, 0.0, 0.0, 0.0, 1.6210005751283393E9, 2021-05-14 15:56:15.128
32.0, 176.6597900390625, -48.2989387512207, 161.53001403808594, 560.70263671875, 0.03200000151991844, -0.04800000041723251, 1.055999994277954, 0.0, 0.0, 0.0, 0.0, 0.0, 1.6210005751447568E9, 2021-05-14 15:56:15.144
32.0, 181.77223205566406, -56.84086990356445, 156.8962860107422, 553.06201171875, 0.03200000151991844, -0.04800000041723251, 1.055999994277954, 0.0, 0.0, 0.0, 0.0, 0.0, 1.6210005751447568E9, 2021-05-14 15:56:15.144
33.0, 176.81312561035156, -66.00736236572266, 159.2262420654297, 552.0634765625, 0.03200000151991844, -0.04800000041723251, 1.055999994277954, 0.0, 0.0, 0.0, 0.0, 0.0, 1.6210005751454177E9, 2021-05-14 15:56:15.145
33.0, 174.04933166503906, -70.7757339477539, 158.82981872558594, 551.8353271484375, 0.03200000151991844, -0.04800000041723251, 1.055999994277954, 0.0, 0.0, 0.0, 0.0, 0.0, 1.6210005751454177E9, 2021-05-14 15:56:15.145
34.0, 188.6461639404297, -61.433467864990234, 161.1822052001953, 558.0435791015625, 0.03200000151991844, -0.04800000041723251, 1.055999994277954, 0.0, 0.0, 0.0, 0.0, 0.0, 1.6210005751747441E9, 2021-05-14 15:56:15.174
34.0, 181.09156799316406, -68.2812271118164, 157.68539428710938, 551.2332153320312, 0.03200000151991844, -0.04800000041723251, 1.055999994277954, 0.0, 0.0, 0.0, 0.0, 0.0, 1.6210005751747441E9, 2021-05-14 15:56:15.174
35.0, 177.77801513671875, -70.70093536376953, 158.85972595214844, 545.8851318359375, 0.03200000151991844, -0.04800000041723251, 1.055999994277954, 0.0, 0.0, 0.0, 0.0, 0.0, 1.6210005751754985E9, 2021-05-14 15:56:15.175
35.0, 176.21099853515625, -73.8237533569336, 153.8332977294922, 541.617919921875, 0.03200000151991844, -0.04800000041723251, 1.055999994277954, 0.0, 0.0, 0.0, 0.0, 0.0, 1.6210005751754985E9, 2021-05-14 15:56:15.175
36.0, 181.3982391357422, -68.34854125976562, 160.2958526611328, 543.1176147460938, 0.03200000151991844, -0.04800000041723251, 1.055999994277954, 0.0, 0.0, 0.0, 0.0, 0.0, 1.621000575176198E9, 2021-05-14 15:56:15.176
36.0, 184.0348663330078, -72.9000015258789, 154.40550231933594, 543.2522583007812, 0.03200000151991844, -0.04800000041723251, 1.055999994277954, 0.0, 0.0, 0.0, 0.0, 0.0, 1.621000575176198E9, 2021-05-14 15:56:15.176
37.0, 177.0337677001953, -63.32585525512695, 157.21043395996094, 544.5724487304688, 0.03200000151991844, -0.04800000041723251, 1.055999994277954, 0.0, 0.0, 0.0, 0.0, 0.0, 1.6210005751883802E9, 2021-05-14 15:56:15.188
37.0, 162.17141723632812, -67.79877471923828, 154.4840545654297, 540.279052734375, 0.03200000151991844, -0.04800000041723251, 1.055999994277954, 0.0, 0.0, 0.0, 0.0, 0.0, 1.6210005751883802E9, 2021-05-14 15:56:15.188
38.0, 176.92906188964844, -57.88056182861328, 168.0598907470703, 558.5185546875, 0.03200000151991844, -0.04800000041723251, 1.055999994277954, 0.0, 0.0, 0.0, 0.0, 0.0, 1.6210005752040913E9, 2021-05-14 15:56:15.204
38.0, 174.47193908691406, -62.94812774658203, 168.5236358642578, 556.48779296875, 0.03200000151991844, -0.04800000041723251, 1.055999994277954, 0.0, 0.0, 0.0, 0.0, 0.0, 1.6210005752040913E9, 2021-05-14 15:56:15.204
39.0, 163.03158569335938, -69.9903564453125, 162.13214111328125, 555.7771606445312, 0.03200000151991844, -0.04800000041723251, 1.055999994277954, 0.0, 0.0, 0.0, 0.0, 0.0, 1.6210005752048433E9, 2021-05-14 15:56:15.204
39.0, 168.0542755126953, -57.850643157958984, 167.15109252929688, 557.4003295898438, 0.03200000151991844, -0.04800000041723251, 1.055999994277954, 0.0, 0.0, 0.0, 0.0, 0.0, 1.6210005752048433E9, 2021-05-14 15:56:15.204
40.0, 167.9645233154297, -66.58705139160156, 160.82318115234375, 557.0599975585938, 0.03200000151991844, -0.04800000041723251, 1.055999994277954, 0.0, 0.0, 0.0, 0.0, 0.0, 1.6210005752185585E9, 2021-05-14 15:56:15.218
40.0, 166.43115234375, -63.12016296386719, 162.09474182128906, 559.3226318359375, 0.03200000151991844, -0.04800000041723251, 1.055999994277954, 0.0, 0.0, 0.0, 0.0, 0.0, 1.6210005752185585E9, 2021-05-14 15:56:15.218
41.0, 159.68063354492188, -66.65436553955078, 161.53750610351562, 553.8436279296875, 0.03200000151991844, -0.04800000041723251, 1.055999994277954, 0.0, 0.0, 0.0, 0.0, 0.0, 1.6210005752340045E9, 2021-05-14 15:56:15.234
41.0, 166.4797821044922, -57.001686096191406, 166.13009643554688, 558.5820922851562, 0.03200000151991844, -0.04800000041723251, 1.055999994277954, 0.0, 0.0, 0.0, 0.0, 0.0, 1.6210005752340045E9, 2021-05-14 15:56:15.234
42.0, 181.29725646972656, -58.36301040649414, 173.220947265625, 570.7816772460938, 0.03200000151991844, -0.04800000041723251, 1.055999994277954, 0.0, 0.0, 0.0, 0.0, 0.0, 1.6210005752347405E9, 2021-05-14 15:56:15.234
42.0, 185.0782928466797, -58.73699951171875, 175.19561767578125, 567.0193481445312, 0.03200000151991844, -0.04800000041723251, 1.055999994277954, 0.0, 0.0, 0.0, 0.0, 0.0, 1.6210005752347405E9, 2021-05-14 15:56:15.234
43.0, 170.61236572265625, -62.716251373291016, 173.0152587890625, 560.7886352539062, 0.03200000151991844, -0.04800000041723251, 1.055999994277954, 0.0, 0.0, 0.0, 0.0, 0.0, 1.6210005752484064E9, 2021-05-14 15:56:15.248
43.0, 174.38966369628906, -57.659908294677734, 174.94503784179688, 552.3439331054688, 0.03200000151991844, -0.04800000041723251, 1.055999994277954, 0.0, 0.0, 0.0, 0.0, 0.0, 1.6210005752484064E9, 2021-05-14 15:56:15.248
44.0, 180.81106567382812, -60.60694885253906, 165.8009796142578, 546.8350830078125, 0.03200000151991844, -0.04800000041723251, 1.055999994277954, 0.0, 0.0, 0.0, 0.0, 0.0, 1.6210005752646885E9, 2021-05-14 15:56:15.264
44.0, 182.0377655029297, -63.74098587036133, 161.859130859375, 538.63720703125, 0.03200000151991844, -0.04800000041723251, 1.055999994277954, 0.0, 0.0, 0.0, 0.0, 0.0, 1.6210005752646885E9, 2021-05-14 15:56:15.264
45.0, 182.87924194335938, -63.995296478271484, 157.85743713378906, 542.6538696289062, 0.03200000151991844, -0.04800000041723251, 1.055999994277954, 0.0, 0.0, 0.0, 0.0, 0.0, 1.6210005752654116E9, 2021-05-14 15:56:15.265
45.0, 181.79092407226562, -64.86295318603516, 159.64137268066406, 542.7959594726562, 0.03200000151991844, -0.04800000041723251, 1.055999994277954, 0.0, 0.0, 0.0, 0.0, 0.0, 1.6210005752654116E9, 2021-05-14 15:56:15.265
46.0, 187.02304077148438, -68.38594055175781, 162.50987243652344, 547.3212890625, 0.03200000151991844, -0.04800000041723251, 1.055999994277954, 0.0, 0.0, 0.0, 0.0, 0.0, 1.6210005752784455E9, 2021-05-14 15:56:15.278
46.0, 182.36312866210938, -59.757991790771484, 165.27740478515625, 557.381591796875, 0.03200000151991844, -0.04800000041723251, 1.055999994277954, 0.0, 0.0, 0.0, 0.0, 0.0, 1.6210005752784455E9, 2021-05-14 15:56:15.278
47.0, 166.3040008544922, -63.10894012451172, 165.82716369628906, 554.6963500976562, 0.03200000151991844, -0.04800000041723251, 1.055999994277954, 0.0, 0.0, 0.0, 0.0, 0.0, 1.6210005752940347E9, 2021-05-14 15:56:15.294
47.0, 164.1797332763672, -69.38449096679688, 168.96493530273438, 558.30908203125, 0.03200000151991844, -0.04800000041723251, 1.055999994277954, 0.0, 0.0, 0.0, 0.0, 0.0, 1.6210005752940347E9, 2021-05-14 15:56:15.294
48.0, 164.7855987548828, -61.72517776489258, 164.76129150390625, 559.36376953125, 0.03200000151991844, -0.04800000041723251, 1.055999994277954, 0.0, 0.0, 0.0, 0.0, 0.0, 1.6210005752947085E9, 2021-05-14 15:56:15.294
48.0, 175.25732421875, -58.033897399902344, 168.49745178222656, 562.3145141601562, 0.03200000151991844, -0.04800000041723251, 1.055999994277954, 0.0, 0.0, 0.0, 0.0, 0.0, 1.6210005752947085E9, 2021-05-14 15:56:15.294
49.0, 169.8195037841797, -58.33308792114258, 163.31021118164062, 555.421875, 0.03200000151991844, -0.04800000041723251, 1.055999994277954, 0.0, 0.0, 0.0, 0.0, 0.0, 1.621000575308374E9, 2021-05-14 15:56:15.308
49.0, 172.44117736816406, -57.947879791259766, 166.78457641601562, 557.7780151367188, 0.03200000151991844, -0.04800000041723251, 1.055999994277954, 0.0, 0.0, 0.0, 0.0, 0.0, 1.621000575308374E9, 2021-05-14 15:56:15.308
50.0, 179.76390075683594, -56.470619201660156, 170.99195861816406, 567.1539306640625, 0.03200000151991844, -0.04800000041723251, 1.055999994277954, 0.0, 0.0, 0.0, 0.0, 0.0, 1.6210005753241556E9, 2021-05-14 15:56:15.324
50.0, 177.69200134277344, -68.61781311035156, 163.3401336669922, 560.8185424804688, 0.03200000151991844, -0.04800000041723251, 1.055999994277954, 0.0, 0.0, 0.0, 0.0, 0.0, 1.6210005753241556E9, 2021-05-14 15:56:15.324
51.0, 173.7688446044922, -64.45904541015625, 164.66030883789062, 554.4757080078125, 0.03200000151991844, -0.04800000041723251, 1.055999994277954, 0.0, 0.0, 0.0, 0.0, 0.0, 1.6210005753249211E9, 2021-05-14 15:56:15.324
51.0, 175.9641571044922, -61.02581787109375, 168.28427124023438, 554.0680541992188, 0.03200000151991844, -0.04800000041723251, 1.055999994277954, 0.0, 0.0, 0.0, 0.0, 0.0, 1.6210005753249211E9, 2021-05-14 15:56:15.324
52.0, 187.83460998535156, -63.54277038574219, 166.75091552734375, 559.8275146484375, 0.03200000151991844, -0.04800000041723251, 1.055999994277954, 0.0, 0.0, 0.0, 0.0, 0.0, 1.6210005753384376E9, 2021-05-14 15:56:15.338
52.0, 190.49742126464844, -59.989864349365234, 167.43905639648438, 566.6752319335938, 0.03200000151991844, -0.04800000041723251, 1.055999994277954, 0.0, 0.0, 0.0, 0.0, 0.0, 1.6210005753384376E9, 2021-05-14 15:56:15.338
53.0, 184.46121215820312, -62.34600067138672, 156.92245483398438, 555.5752563476562, 0.03200000151991844, -0.04800000041723251, 1.055999994277954, 0.0, 0.0, 0.0, 0.0, 0.0, 1.6210005753541381E9, 2021-05-14 15:56:15.354
53.0, 180.5567626953125, -66.44119262695312, 150.8413848876953, 548.0281372070312, 0.03200000151991844, -0.04800000041723251, 1.055999994277954, 0.0, 0.0, 0.0, 0.0, 0.0, 1.6210005753541381E9, 2021-05-14 15:56:15.354
54.0, 183.02883911132812, -63.961639404296875, 157.0271759033203, 554.318603515625, 0.03200000151991844, -0.04800000041723251, 1.055999994277954, 0.0, 0.0, 0.0, 0.0, 0.0, 1.6210005753548589E9, 2021-05-14 15:56:15.354
54.0, 182.9241180419922, -71.16842651367188, 148.5937042236328, 546.8126220703125, 0.03200000151991844, -0.04800000041723251, 1.055999994277954, 0.0, 0.0, 0.0, 0.0, 0.0, 1.6210005753548589E9, 2021-05-14 15:56:15.354
55.0, 178.16696166992188, -68.26626586914062, 149.21078491210938, 541.4982299804688, 0.03200000151991844, -0.04800000041723251, 1.055999994277954, 0.0, 0.0, 0.0, 0.0, 0.0, 1.621000575368406E9, 2021-05-14 15:56:15.368
55.0, 173.0096435546875, -75.7535400390625, 148.57501220703125, 548.29736328125, 0.03200000151991844, -0.04800000041723251, 1.055999994277954, 0.0, 0.0, 0.0, 0.0, 0.0, 1.621000575368406E9, 2021-05-14 15:56:15.368
56.0, 184.80154418945312, -63.41187286376953, 163.16061401367188, 560.0743408203125, 0.03200000151991844, -0.04800000041723251, 1.055999994277954, 0.0, 0.0, 0.0, 0.0, 0.0, 1.6210005753842E9, 2021-05-14 15:56:15.384
56.0, 178.39883422851562, -62.338523864746094, 156.08473205566406, 562.5277099609375, 0.03200000151991844, -0.04800000041723251, 1.055999994277954, 0.0, 0.0, 0.0, 0.0, 0.0, 1.6210005753842E9, 2021-05-14 15:56:15.384
57.0, 167.45962524414062, -60.393775939941406, 160.22853088378906, 558.2941284179688, 0.03200000151991844, -0.04800000041723251, 1.055999994277954, 0.0, 0.0, 0.0, 0.0, 0.0, 1.621000575384936E9, 2021-05-14 15:56:15.384
57.0, 165.95619201660156, -59.23066711425781, 162.3378448486328, 554.7000732421875, 0.03200000151991844, -0.04800000041723251, 1.055999994277954, 0.0, 0.0, 0.0, 0.0, 0.0, 1.621000575384936E9, 2021-05-14 15:56:15.384
58.0, 169.55397033691406, -53.95366668701172, 162.14710998535156, 560.6876831054688, 0.03200000151991844, -0.04800000041723251, 1.055999994277954, 0.0, 0.0, 0.0, 0.0, 0.0, 1.621000575398284E9, 2021-05-14 15:56:15.398
58.0, 177.34793090820312, -55.367347717285156, 166.02163696289062, 564.2854614257812, 0.03200000151991844, -0.04800000041723251, 1.055999994277954, 0.0, 0.0, 0.0, 0.0, 0.0, 1.621000575398284E9, 2021-05-14 15:56:15.398
59.0, 178.3539581298828, -57.11762237548828, 168.7218475341797, 557.0263061523438, 0.03200000151991844, -0.04800000041723251, 1.055999994277954, 0.0, 0.0, 0.0, 0.0, 0.0, 1.621000575414054E9, 2021-05-14 15:56:15.414
59.0, 172.81890869140625, -58.613582611083984, 166.75839233398438, 557.8565673828125, 0.03200000151991844, -0.04800000041723251, 1.055999994277954, 0.0, 0.0, 0.0, 0.0, 0.0, 1.621000575414054E9, 2021-05-14 15:56:15.414
60.0, 182.90541076660156, -58.19845199584961, 169.0621795654297, 553.6566772460938, 0.03200000151991844, -0.04800000041723251, 1.055999994277954, 0.0, 0.0, 0.0, 0.0, 0.0, 1.621000575414761E9, 2021-05-14 15:56:15.414
60.0, 176.7420654296875, -57.69730758666992, 164.6678009033203, 552.3402099609375, 0.03200000151991844, -0.04800000041723251, 1.055999994277954, 0.0, 0.0, 0.0, 0.0, 0.0, 1.621000575414761E9, 2021-05-14 15:56:15.414
61.0, 170.1598358154297, -63.68114471435547, 166.03285217285156, 543.0353393554688, 0.03200000151991844, -0.04800000041723251, 1.055999994277954, 0.0, 0.0, 0.0, 0.0, 0.0, 1.6210005754282885E9, 2021-05-14 15:56:15.428
61.0, 171.24441528320312, -57.3906364440918, 170.47959899902344, 547.381103515625, 0.03200000151991844, -0.04800000041723251, 1.055999994277954, 0.0, 0.0, 0.0, 0.0, 0.0, 1.6210005754282885E9, 2021-05-14 15:56:15.428
62.0, 179.55821228027344, -56.10784912109375, 172.2410888671875, 559.86865234375, 0.03200000151991844, -0.04800000041723251, 1.055999994277954, 0.0, 0.0, 0.0, 0.0, 0.0, 1.621000575444092E9, 2021-05-14 15:56:15.444
62.0, 185.58692932128906, -62.83966827392578, 167.16604614257812, 559.2664794921875, 0.03200000151991844, -0.04800000041723251, 1.055999994277954, 0.0, 0.0, 0.0, 0.0, 0.0, 1.621000575444092E9, 2021-05-14 15:56:15.444
63.0, 177.63589477539062, -61.69525909423828, 165.68878173828125, 555.724853515625, 0.03200000151991844, -0.04800000041723251, 1.055999994277954, 0.0, 0.0, 0.0, 0.0, 0.0, 1.621000575444798E9, 2021-05-14 15:56:15.444
63.0, 180.31365966796875, -58.796836853027344, 167.08377075195312, 563.765625, 0.03200000151991844, -0.04800000041723251, 1.055999994277954, 0.0, 0.0, 0.0, 0.0, 0.0, 1.621000575444798E9, 2021-05-14 15:56:15.444
64.0, 183.1298065185547, -62.8134880065918, 160.69601440429688, 565.6991577148438, 0.03200000151991844, -0.04800000041723251, 1.055999994277954, 0.0, 0.0, 0.0, 0.0, 0.0, 1.621000575458366E9, 2021-05-14 15:56:15.458
64.0, 181.39450073242188, -68.49440002441406, 163.7627410888672, 557.1272583007812, 0.03200000151991844, -0.04800000041723251, 1.055999994277954, 0.0, 0.0, 0.0, 0.0, 0.0, 1.621000575458366E9, 2021-05-14 15:56:15.458
65.0, 169.15380859375, -71.01882934570312, 158.03321838378906, 555.2236938476562, 0.03200000151991844, -0.04800000041723251, 1.055999994277954, 0.0, 0.0, 0.0, 0.0, 0.0, 1.6210005754741113E9, 2021-05-14 15:56:15.474
65.0, 174.70755004882812, -70.09507751464844, 156.6457061767578, 557.8901977539062, 0.03200000151991844, -0.04800000041723251, 1.055999994277954, 0.0, 0.0, 0.0, 0.0, 0.0, 1.6210005754741113E9, 2021-05-14 15:56:15.474
66.0, 177.17962646484375, -71.77055358886719, 159.66006469726562, 564.319091796875, 0.03200000151991844, -0.04800000041723251, 1.055999994277954, 0.0, 0.0, 0.0, 0.0, 0.0, 1.6210005754747372E9, 2021-05-14 15:56:15.474
66.0, 183.07371520996094, -75.98542022705078, 159.0616912841797, 554.483154296875, 0.03200000151991844, -0.04800000041723251, 1.055999994277954, 0.0, 0.0, 0.0, 0.0, 0.0, 1.6210005754747372E9, 2021-05-14 15:56:15.474
67.0, 174.84219360351562, -69.1227035522461, 162.3677520751953, 552.1083374023438, 0.03200000151991844, -0.04800000041723251, 1.055999994277954, 0.0, 0.0, 0.0, 0.0, 0.0, 1.621000575488376E9, 2021-05-14 15:56:15.488
67.0, 167.59426879882812, -67.66787719726562, 165.8795166015625, 553.5855712890625, 0.03200000151991844, -0.04800000041723251, 1.055999994277954, 0.0, 0.0, 0.0, 0.0, 0.0, 1.621000575488376E9, 2021-05-14 15:56:15.488
68.0, 176.42042541503906, -56.79225158691406, 169.89617919921875, 560.5006713867188, 0.03200000151991844, -0.04800000041723251, 1.055999994277954, 0.0, 0.0, 0.0, 0.0, 0.0, 1.6210005755045147E9, 2021-05-14 15:56:15.504
68.0, 177.89395141601562, -60.37507629394531, 169.91860961914062, 557.0599975585938, 0.03200000151991844, -0.04800000041723251, 1.055999994277954, 0.0, 0.0, 0.0, 0.0, 0.0, 1.6210005755045147E9, 2021-05-14 15:56:15.504
69.0, 163.0914306640625, -59.185787200927734, 167.39044189453125, 550.6011352539062, 0.03200000151991844, -0.04800000041723251, 1.055999994277954, 0.0, 0.0, 0.0, 0.0, 0.0, 1.6210005755353808E9, 2021-05-14 15:56:15.535
69.0, 168.2936248779297, -51.04776382446289, 171.6539306640625, 558.15576171875, 0.03200000151991844, -0.04800000041723251, 1.055999994277954, 0.0, 0.0, 0.0, 0.0, 0.0, 1.6210005755353808E9, 2021-05-14 15:56:15.535
70.0, 172.287841796875, -49.8958740234375, 173.2172088623047, 558.2193603515625, 0.03200000151991844, -0.04800000041723251, 1.055999994277954, 0.0, 0.0, 0.0, 0.0, 0.0, 1.6210005755361714E9, 2021-05-14 15:56:15.536
70.0, 185.68789672851562, -54.4435920715332, 166.777099609375, 550.2608032226562, 0.03200000151991844, -0.04800000041723251, 1.055999994277954, 0.0, 0.0, 0.0, 0.0, 0.0, 1.6210005755361714E9, 2021-05-14 15:56:15.536
71.0, 192.464599609375, -59.35782241821289, 172.7609405517578, 548.1964111328125, 0.03200000151991844, -0.04800000041723251, 1.055999994277954, 0.0, 0.0, 0.0, 0.0, 0.0, 1.6210005755369136E9, 2021-05-14 15:56:15.536
71.0, 193.84088134765625, -70.91411590576172, 166.59010314941406, 547.0819091796875, 0.03200000151991844, -0.04800000041723251, 1.055999994277954, 0.0, 0.0, 0.0, 0.0, 0.0, 1.6210005755369136E9, 2021-05-14 15:56:15.536
72.0, 184.42755126953125, -74.17904663085938, 162.3677520751953, 556.360595703125, 0.03200000151991844, -0.04800000041723251, 1.055999994277954, 0.0, 0.0, 0.0, 0.0, 0.0, 1.621000575537646E9, 2021-05-14 15:56:15.537
72.0, 186.0618896484375, -81.57656860351562, 164.57803344726562, 559.9546508789062, 0.03200000151991844, -0.04800000041723251, 1.055999994277954, 0.0, 0.0, 0.0, 0.0, 0.0, 1.621000575537646E9, 2021-05-14 15:56:15.537
73.0, 181.30099487304688, -75.1476821899414, 161.88531494140625, 551.2593994140625, 0.03200000151991844, -0.04800000041723251, 1.055999994277954, 0.0, 0.0, 0.0, 0.0, 0.0, 1.621000575564687E9, 2021-05-14 15:56:15.564
73.0, 182.85305786132812, -74.70637512207031, 169.08087158203125, 561.18505859375, 0.03200000151991844, -0.04800000041723251, 1.055999994277954, 0.0, 0.0, 0.0, 0.0, 0.0, 1.621000575564687E9, 2021-05-14 15:56:15.564
74.0, 175.82952880859375, -70.6485824584961, 166.9902801513672, 566.8959350585938, 0.03200000151991844, -0.04800000041723251, 1.055999994277954, 0.0, 0.0, 0.0, 0.0, 0.0, 1.6210005755654151E9, 2021-05-14 15:56:15.565
74.0, 174.52430725097656, -66.10834503173828, 168.53858947753906, 566.9407958984375, 0.03200000151991844, -0.04800000041723251, 1.055999994277954, 0.0, 0.0, 0.0, 0.0, 0.0, 1.6210005755654151E9, 2021-05-14 15:56:15.565
75.0, 161.430908203125, -76.1125717163086, 160.28463745117188, 557.0150756835938, 0.03200000151991844, -0.04800000041723251, 1.055999994277954, 0.0, 0.0, 0.0, 0.0, 0.0, 1.62100057556613E9, 2021-05-14 15:56:15.566
75.0, 170.2047119140625, -70.53638458251953, 166.16001892089844, 558.0248413085938, 0.03200000151991844, -0.04800000041723251, 1.055999994277954, 0.0, 0.0, 0.0, 0.0, 0.0, 1.62100057556613E9, 2021-05-14 15:56:15.566
76.0, 171.32669067382812, -64.69465637207031, 172.84695434570312, 566.5219116210938, 0.03200000151991844, -0.04800000041723251, 1.055999994277954, 0.0, 0.0, 0.0, 0.0, 0.0, 1.6210005755782835E9, 2021-05-14 15:56:15.578
76.0, 172.32150268554688, -73.02715301513672, 164.86227416992188, 559.3562622070312, 0.03200000151991844, -0.04800000041723251, 1.055999994277954, 0.0, 0.0, 0.0, 0.0, 0.0, 1.6210005755782835E9, 2021-05-14 15:56:15.578
77.0, 177.89768981933594, -75.24491882324219, 160.4604034423828, 550.8928833007812, 0.03200000151991844, -0.04800000041723251, 1.055999994277954, 0.0, 0.0, 0.0, 0.0, 0.0, 1.6210005755939963E9, 2021-05-14 15:56:15.593
77.0, 177.94630432128906, -65.3304443359375, 167.85044860839844, 549.763427734375, 0.03200000151991844, -0.04800000041723251, 1.055999994277954, 0.0, 0.0, 0.0, 0.0, 0.0, 1.6210005755939963E9, 2021-05-14 15:56:15.593
78.0, 185.69163513183594, -52.80925750732422, 172.4954071044922, 552.8899536132812, 0.03200000151991844, -0.04800000041723251, 1.055999994277954, 0.0, 0.0, 0.0, 0.0, 0.0, 1.621000575594733E9, 2021-05-14 15:56:15.594
78.0, 180.1790313720703, -63.479190826416016, 170.4534149169922, 553.320068359375, 0.03200000151991844, -0.04800000041723251, 1.055999994277954, 0.0, 0.0, 0.0, 0.0, 0.0, 1.621000575594733E9, 2021-05-14 15:56:15.594
79.0, 178.58583068847656, -61.433467864990234, 175.6369171142578, 546.2853393554688, 0.03200000151991844, -0.04800000041723251, 1.055999994277954, 0.0, 0.0, 0.0, 0.0, 0.0, 1.621000575640303E9, 2021-05-14 15:56:15.640
79.0, 180.2126922607422, -64.15611267089844, 178.643798828125, 545.5784912109375, 0.03200000151991844, -0.04800000041723251, 1.055999994277954, 0.0, 0.0, 0.0, 0.0, 0.0, 1.621000575640303E9, 2021-05-14 15:56:15.640
80.0, 195.03392028808594, -64.11497497558594, 174.3279571533203, 553.2714233398438, 0.03200000151991844, -0.04800000041723251, 1.055999994277954, 0.0, 0.0, 0.0, 0.0, 0.0, 1.6210005756408875E9, 2021-05-14 15:56:15.640
80.0, 191.22669982910156, -67.87357330322266, 173.09005737304688, 556.6485595703125, 0.03200000151991844, -0.04800000041723251, 1.055999994277954, 0.0, 0.0, 0.0, 0.0, 0.0, 1.6210005756408875E9, 2021-05-14 15:56:15.640
81.0, 176.74954223632812, -69.4256362915039, 165.36715698242188, 549.4791870117188, 0.03200000151991844, -0.04800000041723251, 1.055999994277954, 0.0, 0.0, 0.0, 0.0, 0.0, 1.6210005756416032E9, 2021-05-14 15:56:15.641
81.0, 179.85365295410156, -62.97056579589844, 164.49575805664062, 552.1307983398438, 0.03200000151991844, -0.04800000041723251, 1.055999994277954, 0.0, 0.0, 0.0, 0.0, 0.0, 1.6210005756416032E9, 2021-05-14 15:56:15.641
82.0, 184.50982666015625, -63.62504959106445, 158.07061767578125, 557.205810546875, 0.03200000151991844, -0.04800000041723251, 1.055999994277954, 0.0, 0.0, 0.0, 0.0, 0.0, 1.621000575654709E9, 2021-05-14 15:56:15.654
82.0, 165.327880859375, -63.79708480834961, 161.11863708496094, 561.2150268554688, 0.03200000151991844, -0.04800000041723251, 1.055999994277954, 0.0, 0.0, 0.0, 0.0, 0.0, 1.621000575654709E9, 2021-05-14 15:56:15.654
83.0, 167.39979553222656, -66.62818908691406, 161.00643920898438, 561.8507690429688, 0.03200000151991844, -0.04800000041723251, 1.055999994277954, 0.0, 0.0, 0.0, 0.0, 0.0, 1.6210005756553857E9, 2021-05-14 15:56:15.655
83.0, 162.1489715576172, -74.61287689208984, 152.38597106933594, 552.1382446289062, 0.03200000151991844, -0.04800000041723251, 1.055999994277954, 0.0, 0.0, 0.0, 0.0, 0.0, 1.6210005756553857E9, 2021-05-14 15:56:15.655
84.0, 174.46820068359375, -67.58560180664062, 159.7311248779297, 565.2989501953125, 0.03200000151991844, -0.04800000041723251, 1.055999994277954, 0.0, 0.0, 0.0, 0.0, 0.0, 1.621000575656204E9, 2021-05-14 15:56:15.656
84.0, 178.226806640625, -66.12704467773438, 162.86141967773438, 563.8104858398438, 0.03200000151991844, -0.04800000041723251, 1.055999994277954, 0.0, 0.0, 0.0, 0.0, 0.0, 1.621000575656204E9, 2021-05-14 15:56:15.656
85.0, 176.53636169433594, -65.71565246582031, 163.46728515625, 559.6030883789062, 0.03200000151991844, -0.04800000041723251, 1.055999994277954, 0.0, 0.0, 0.0, 0.0, 0.0, 1.6210005756682987E9, 2021-05-14 15:56:15.668
85.0, 167.59426879882812, -70.7345962524414, 168.2057342529297, 563.1635131835938, 0.03200000151991844, -0.04800000041723251, 1.055999994277954, 0.0, 0.0, 0.0, 0.0, 0.0, 1.6210005756682987E9, 2021-05-14 15:56:15.668
86.0, 174.52056884765625, -64.46278381347656, 167.95143127441406, 566.5405883789062, 0.03200000151991844, -0.04800000041723251, 1.055999994277954, 0.0, 0.0, 0.0, 0.0, 0.0, 1.621000575683992E9, 2021-05-14 15:56:15.683
86.0, 175.11520385742188, -67.90349578857422, 165.01560974121094, 563.0550537109375, 0.03200000151991844, -0.04800000041723251, 1.055999994277954, 0.0, 0.0, 0.0, 0.0, 0.0, 1.621000575683992E9, 2021-05-14 15:56:15.683
87.0, 170.48147583007812, -68.35227966308594, 166.81076049804688, 555.9828491210938, 0.03200000151991844, -0.04800000041723251, 1.055999994277954, 0.0, 0.0, 0.0, 0.0, 0.0, 1.6210005756847067E9, 2021-05-14 15:56:15.684
87.0, 172.45986938476562, -59.60465621948242, 170.40480041503906, 549.3034057617188, 0.03200000151991844, -0.04800000041723251, 1.055999994277954, 0.0, 0.0, 0.0, 0.0, 0.0, 1.6210005756847067E9, 2021-05-14 15:56:15.684
88.0, 192.6441192626953, -56.126548767089844, 176.2315673828125, 548.0243530273438, 0.03200000151991844, -0.04800000041723251, 1.055999994277954, 0.0, 0.0, 0.0, 0.0, 0.0, 1.6210005756983185E9, 2021-05-14 15:56:15.698
88.0, 183.2719268798828, -54.705387115478516, 176.68409729003906, 540.9634399414062, 0.03200000151991844, -0.04800000041723251, 1.055999994277954, 0.0, 0.0, 0.0, 0.0, 0.0, 1.6210005756983185E9, 2021-05-14 15:56:15.698
89.0, 174.98057556152344, -55.81239700317383, 184.93057250976562, 538.9102172851562, 0.03200000151991844, -0.04800000041723251, 1.055999994277954, 0.0, 0.0, 0.0, 0.0, 0.0, 1.6210005757140505E9, 2021-05-14 15:56:15.714
89.0, 176.95896911621094, -55.09059524536133, 177.5554962158203, 530.8170776367188, 0.03200000151991844, -0.04800000041723251, 1.055999994277954, 0.0, 0.0, 0.0, 0.0, 0.0, 1.6210005757140505E9, 2021-05-14 15:56:15.714
90.0, 192.6441192626953, -54.28651809692383, 177.05809020996094, 533.91748046875, 0.03200000151991844, -0.04800000041723251, 1.055999994277954, 0.0, 0.0, 0.0, 0.0, 0.0, 1.6210005757147644E9, 2021-05-14 15:56:15.714
90.0, 204.61180114746094, -55.76377868652344, 173.2583465576172, 536.3858032226562, 0.03200000151991844, -0.04800000041723251, 1.055999994277954, 0.0, 0.0, 0.0, 0.0, 0.0, 1.6210005757147644E9, 2021-05-14 15:56:15.714
91.0, 184.74545288085938, -69.76596069335938, 162.4874267578125, 530.1326904296875, 0.03200000151991844, -0.04800000041723251, 1.055999994277954, 0.0, 0.0, 0.0, 0.0, 0.0, 1.6210005757448075E9, 2021-05-14 15:56:15.744
91.0, 179.46096801757812, -63.677406311035156, 160.30332946777344, 539.3291015625, 0.03200000151991844, -0.04800000041723251, 1.055999994277954, 0.0, 0.0, 0.0, 0.0, 0.0, 1.6210005757448075E9, 2021-05-14 15:56:15.744
92.0, 178.79153442382812, -63.07902145385742, 163.901123046875, 559.8910522460938, 0.03200000151991844, -0.04800000041723251, 1.055999994277954, 0.0, 0.0, 0.0, 0.0, 0.0, 1.6210005757454867E9, 2021-05-14 15:56:15.745
92.0, 169.41934204101562, -72.37641143798828, 161.0550537109375, 559.8200073242188, 0.03200000151991844, -0.04800000041723251, 1.055999994277954, 0.0, 0.0, 0.0, 0.0, 0.0, 1.6210005757454867E9, 2021-05-14 15:56:15.745
93.0, 158.77183532714844, -78.5771713256836, 159.4431610107422, 567.0006103515625, 0.03200000151991844, -0.04800000041723251, 1.055999994277954, 0.0, 0.0, 0.0, 0.0, 0.0, 1.62100057574622E9, 2021-05-14 15:56:15.746
93.0, 173.50704956054688, -70.26336669921875, 162.09848022460938, 559.6143188476562, 0.03200000151991844, -0.04800000041723251, 1.055999994277954, 0.0, 0.0, 0.0, 0.0, 0.0, 1.62100057574622E9, 2021-05-14 15:56:15.746
94.0, 170.73204040527344, -63.06032180786133, 162.8277587890625, 575.0151977539062, 0.03200000151991844, -0.04800000041723251, 1.055999994277954, 0.0, 0.0, 0.0, 0.0, 0.0, 1.6210005757747371E9, 2021-05-14 15:56:15.774
94.0, 174.18023681640625, -69.01798248291016, 158.6764678955078, 571.0845947265625, 0.03200000151991844, -0.04800000041723251, 1.055999994277954, 0.0, 0.0, 0.0, 0.0, 0.0, 1.6210005757747371E9, 2021-05-14 15:56:15.774
95.0, 166.25164794921875, -68.22886657714844, 164.4508819580078, 566.3125, 0.03200000151991844, -0.04800000041723251, 1.055999994277954, 0.0, 0.0, 0.0, 0.0, 0.0, 1.6210005757755628E9, 2021-05-14 15:56:15.775
95.0, 162.01058959960938, -67.49958801269531, 166.33204650878906, 562.7109375, 0.03200000151991844, -0.04800000041723251, 1.055999994277954, 0.0, 0.0, 0.0, 0.0, 0.0, 1.6210005757755628E9, 2021-05-14 15:56:15.775
96.0, 180.4669952392578, -64.57872009277344, 170.0831756591797, 568.612548828125, 0.03200000151991844, -0.04800000041723251, 1.055999994277954, 0.0, 0.0, 0.0, 0.0, 0.0, 1.621000575776142E9, 2021-05-14 15:56:15.776
96.0, 178.3464813232422, -64.1261978149414, 169.46234130859375, 560.246337890625, 0.03200000151991844, -0.04800000041723251, 1.055999994277954, 0.0, 0.0, 0.0, 0.0, 0.0, 1.621000575776142E9, 2021-05-14 15:56:15.776
97.0, 165.91505432128906, -64.12993621826172, 166.66116333007812, 548.8658447265625, 0.03200000151991844, -0.04800000041723251, 1.055999994277954, 0.0, 0.0, 0.0, 0.0, 0.0, 1.6210005757884047E9, 2021-05-14 15:56:15.788
97.0, 163.48785400390625, -55.75629806518555, 165.61398315429688, 546.1469116210938, 0.03200000151991844, -0.04800000041723251, 1.055999994277954, 0.0, 0.0, 0.0, 0.0, 0.0, 1.6210005757884047E9, 2021-05-14 15:56:15.788
98.0, 177.77801513671875, -52.266971588134766, 173.99510192871094, 553.4210205078125, 0.03200000151991844, -0.04800000041723251, 1.055999994277954, 0.0, 0.0, 0.0, 0.0, 0.0, 1.6210005758040705E9, 2021-05-14 15:56:15.804
98.0, 187.63638305664062, -51.26094055175781, 180.96253967285156, 558.5260009765625, 0.03200000151991844, -0.04800000041723251, 1.055999994277954, 0.0, 0.0, 0.0, 0.0, 0.0, 1.6210005758040705E9, 2021-05-14 15:56:15.804
99.0, 185.7776641845703, -53.13462829589844, 179.1449432373047, 545.0175170898438, 0.03200000151991844, -0.04800000041723251, 1.055999994277954, 0.0, 0.0, 0.0, 0.0, 0.0, 1.6210005758047783E9, 2021-05-14 15:56:15.804
99.0, 195.41539001464844, -56.365901947021484, 177.32362365722656, 543.2522583007812, 0.03200000151991844, -0.04800000041723251, 1.055999994277954, 0.0, 0.0, 0.0, 0.0, 0.0, 1.6210005758047783E9, 2021-05-14 15:56:15.804
100.0, 196.7467803955078, -51.51525115966797, 175.74163818359375, 543.8917846679688, 0.03200000151991844, -0.04800000041723251, 1.055999994277954, 0.0, 0.0, 0.0, 0.0, 0.0, 1.621000575835579E9, 2021-05-14 15:56:15.835
100.0, 190.45252990722656, -63.845703125, 165.81968688964844, 531.8493041992188, 0.03200000151991844, -0.04800000041723251, 1.055999994277954, 0.0, 0.0, 0.0, 0.0, 0.0, 1.621000575835579E9, 2021-05-14 15:56:15.835
0.0, 177.6789093017578, -65.87833404541016, 166.96221923828125, 540.83251953125, 0.03200000151991844, -0.04800000041723251, 1.055999994277954, 0.0, 0.0, 0.0, 0.0, 0.0, 1.6210005758361652E9, 2021-05-14 15:56:15.836
1.0, 171.48562622070312, -64.91344451904297, 161.74131774902344, 546.4498901367188, 0.03200000151991844, -0.04800000041723251, 1.055999994277954, 0.0, 0.0, 0.0, 0.0, 0.0, 1.6210005758368924E9, 2021-05-14 15:56:15.836
1.0, 179.8256072998047, -65.69134521484375, 163.7646026611328, 565.1419067382812, 0.03200000151991844, -0.04800000041723251, 1.055999994277954, 0.0, 0.0, 0.0, 0.0, 0.0, 1.6210005758368924E9, 2021-05-14 15:56:15.836
2.0, 183.81982421875, -65.02190399169922, 162.76979064941406, 566.6340942382812, 0.03200000151991844, -0.04800000041723251, 1.055999994277954, 0.0, 0.0, 0.0, 0.0, 0.0, 1.621000575837584E9, 2021-05-14 15:56:15.837
2.0, 160.673583984375, -71.94819641113281, 164.2732391357422, 566.82861328125, 0.03200000151991844, -0.04800000041723251, 1.055999994277954, 0.0, 0.0, 0.0, 0.0, 0.0, 1.621000575837584E9, 2021-05-14 15:56:15.837
3.0, 157.67791748046875, -64.10936737060547, 172.22052001953125, 570.5198974609375, 0.03200000151991844, -0.04800000041723251, 1.055999994277954, 0.0, 0.0, 0.0, 0.0, 0.0, 1.6210005758483229E9, 2021-05-14 15:56:15.848
3.0, 168.90884399414062, -68.42894744873047, 172.27662658691406, 575.1798095703125, 0.03200000151991844, -0.04800000041723251, 1.055999994277954, 0.0, 0.0, 0.0, 0.0, 0.0, 1.6210005758483229E9, 2021-05-14 15:56:15.848
4.0, 178.7223358154297, -67.1274642944336, 169.62876892089844, 574.9105224609375, 0.03200000151991844, -0.04800000041723251, 1.055999994277954, 0.0, 0.0, 0.0, 0.0, 0.0, 1.6210005758633263E9, 2021-05-14 15:56:15.863
4.0, 163.9272918701172, -70.63549041748047, 159.89007568359375, 556.1586303710938, 0.03200000151991844, -0.04800000041723251, 1.055999994277954, 0.0, 0.0, 0.0, 0.0, 0.0, 1.6210005758633263E9, 2021-05-14 15:56:15.863
5.0, 165.06422424316406, -66.60013580322266, 159.32908630371094, 557.9126586914062, 0.03200000151991844, -0.04800000041723251, 1.055999994277954, 0.0, 0.0, 0.0, 0.0, 0.0, 1.6210005758790302E9, 2021-05-14 15:56:15.879
5.0, 179.90414428710938, -67.76324462890625, 164.69210815429688, 564.5136108398438, 0.03200000151991844, -0.04800000041723251, 1.055999994277954, 0.0, 0.0, 0.0, 0.0, 0.0, 1.6210005758790302E9, 2021-05-14 15:56:15.879
6.0, 183.67396545410156, -69.92491149902344, 171.771728515625, 571.0621337890625, 0.03200000151991844, -0.04800000041723251, 1.055999994277954, 0.0, 0.0, 0.0, 0.0, 0.0, 1.621000575879796E9, 2021-05-14 15:56:15.879
6.0, 182.39866638183594, -65.69508361816406, 173.473388671875, 565.1793212890625, 0.03200000151991844, -0.04800000041723251, 1.055999994277954, 0.0, 0.0, 0.0, 0.0, 0.0, 1.621000575879796E9, 2021-05-14 15:56:15.879
7.0, 189.48202514648438, -60.2310905456543, 174.3597412109375, 557.9276123046875, 0.03200000151991844, -0.04800000041723251, 1.055999994277954, 0.0, 0.0, 0.0, 0.0, 0.0, 1.6210005758933089E9, 2021-05-14 15:56:15.893
7.0, 183.40843200683594, -53.375850677490234, 172.0447540283203, 554.3859252929688, 0.03200000151991844, -0.04800000041723251, 1.055999994277954, 0.0, 0.0, 0.0, 0.0, 0.0, 1.6210005758933089E9, 2021-05-14 15:56:15.893
8.0, 188.03468322753906, -48.41300582885742, 178.82518005371094, 547.897216796875, 0.03200000151991844, -0.04800000041723251, 1.055999994277954, 0.0, 0.0, 0.0, 0.0, 0.0, 1.6210005759090822E9, 2021-05-14 15:56:15.909
8.0, 172.34580993652344, -55.2944221496582, 171.34164428710938, 532.8665771484375, 0.03200000151991844, -0.04800000041723251, 1.055999994277954, 0.0, 0.0, 0.0, 0.0, 0.0, 1.6210005759090822E9, 2021-05-14 15:56:15.909
9.0, 176.42977905273438, -51.674198150634766, 172.0036163330078, 529.85595703125, 0.03200000151991844, -0.04800000041723251, 1.055999994277954, 0.0, 0.0, 0.0, 0.0, 0.0, 1.6210005759099083E9, 2021-05-14 15:56:15.909
9.0, 175.93984985351562, -58.166664123535156, 168.4282684326172, 535.7575073242188, 0.03200000151991844, -0.04800000041723251, 1.055999994277954, 0.0, 0.0, 0.0, 0.0, 0.0, 1.6210005759099083E9, 2021-05-14 15:56:15.909
10.0, 182.85118103027344, -62.662025451660156, 166.96969604492188, 535.0993041992188, 0.03200000151991844, -0.04800000041723251, 1.055999994277954, 0.0, 0.0, 0.0, 0.0, 0.0, 1.6210005759233103E9, 2021-05-14 15:56:15.923
10.0, 168.63209533691406, -63.87749099731445, 160.0770721435547, 532.3504638671875, 0.03200000151991844, -0.04800000041723251, 1.055999994277954, 0.0, 0.0, 0.0, 0.0, 0.0, 1.6210005759233103E9, 2021-05-14 15:56:15.923
11.0, 167.14361572265625, -68.01007843017578, 157.64987182617188, 542.4818115234375, 0.03200000151991844, -0.04800000041723251, 1.055999994277954, 0.0, 0.0, 0.0, 0.0, 0.0, 1.621000575939184E9, 2021-05-14 15:56:15.939
11.0, 190.8545684814453, -64.64791107177734, 163.61126708984375, 569.7008056640625, 0.03200000151991844, -0.04800000041723251, 1.055999994277954, 0.0, 0.0, 0.0, 0.0, 0.0, 1.621000575939184E9, 2021-05-14 15:56:15.939
12.0, 191.1537628173828, -75.16451263427734, 157.68727111816406, 571.6156616210938, 0.03200000151991844, -0.04800000041723251, 1.055999994277954, 0.0, 0.0, 0.0, 0.0, 0.0, 1.6210005759398837E9, 2021-05-14 15:56:15.939
12.0, 176.777587890625, -75.80776977539062, 164.41534423828125, 579.2151489257812, 0.03200000151991844, -0.04800000041723251, 1.055999994277954, 0.0, 0.0, 0.0, 0.0, 0.0, 1.6210005759398837E9, 2021-05-14 15:56:15.939
13.0, 166.92669677734375, -82.27031707763672, 160.0247039794922, 574.2448120117188, 0.03200000151991844, -0.04800000041723251, 1.055999994277954, 0.0, 0.0, 0.0, 0.0, 0.0, 1.6210005759533625E9, 2021-05-14 15:56:15.953
13.0, 170.60301208496094, -81.39892578125, 161.2626190185547, 578.3175659179688, 0.03200000151991844, -0.04800000041723251, 1.055999994277954, 0.0, 0.0, 0.0, 0.0, 0.0, 1.6210005759533625E9, 2021-05-14 15:56:15.953
14.0, 171.49685668945312, -77.46454620361328, 164.4415283203125, 576.2606201171875, 0.03200000151991844, -0.04800000041723251, 1.055999994277954, 0.0, 0.0, 0.0, 0.0, 0.0, 1.6210005759687424E9, 2021-05-14 15:56:15.968
14.0, 166.03660583496094, -77.32991027832031, 160.31642150878906, 561.3309326171875, 0.03200000151991844, -0.04800000041723251, 1.055999994277954, 0.0, 0.0, 0.0, 0.0, 0.0, 1.6210005759687424E9, 2021-05-14 15:56:15.968
15.0, 166.48912048339844, -69.8014907836914, 161.19529724121094, 556.9814453125, 0.03200000151991844, -0.04800000041723251, 1.055999994277954, 0.0, 0.0, 0.0, 0.0, 0.0, 1.621000575984036E9, 2021-05-14 15:56:15.984
15.0, 175.99595642089844, -68.82911682128906, 158.91021728515625, 554.7935791015625, 0.03200000151991844, -0.04800000041723251, 1.055999994277954, 0.0, 0.0, 0.0, 0.0, 0.0, 1.621000575984036E9, 2021-05-14 15:56:15.984
16.0, 185.83937072753906, -64.520751953125, 159.01119995117188, 550.5899658203125, 0.03200000151991844, -0.04800000041723251, 1.055999994277954, 0.0, 0.0, 0.0, 0.0, 0.0, 1.621000575984731E9, 2021-05-14 15:56:15.984
16.0, 183.4832305908203, -61.86168670654297, 165.38772583007812, 552.7403564453125, 0.03200000151991844, -0.04800000041723251, 1.055999994277954, 0.0, 0.0, 0.0, 0.0, 0.0, 1.621000575984731E9, 2021-05-14 15:56:15.984
17.0, 183.81234741210938, -65.35101318359375, 169.54275512695312, 542.6800537109375, 0.03200000151991844, -0.04800000041723251, 1.055999994277954, 0.0, 0.0, 0.0, 0.0, 0.0, 1.6210005759990315E9, 2021-05-14 15:56:15.999
17.0, 180.2108154296875, -61.61485290527344, 165.7205810546875, 546.1806030273438, 0.03200000151991844, -0.04800000041723251, 1.055999994277954, 0.0, 0.0, 0.0, 0.0, 0.0, 1.6210005759990315E9, 2021-05-14 15:56:15.999
18.0, 187.86265563964844, -54.28464889526367, 169.3632354736328, 537.82568359375, 0.03200000151991844, -0.04800000041723251, 1.055999994277954, 0.0, 0.0, 0.0, 0.0, 0.0, 1.6210005759997244E9, 2021-05-14 15:56:15.999
18.0, 187.55224609375, -57.6019401550293, 175.9267578125, 530.8806762695312, 0.03200000151991844, -0.04800000041723251, 1.055999994277954, 0.0, 0.0, 0.0, 0.0, 0.0, 1.6210005759997244E9, 2021-05-14 15:56:15.999
19.0, 187.7953338623047, -57.497222900390625, 174.5729217529297, 529.6128540039062, 0.03200000151991844, -0.04800000041723251, 1.055999994277954, 0.0, 0.0, 0.0, 0.0, 0.0, 1.6210005760296926E9, 2021-05-14 15:56:16.029
19.0, 189.4072265625, -52.34737777709961, 181.1065216064453, 537.0028686523438, 0.03200000151991844, -0.04800000041723251, 1.055999994277954, 0.0, 0.0, 0.0, 0.0, 0.0, 1.6210005760296926E9, 2021-05-14 15:56:16.029
20.0, 181.70303344726562, -49.73318862915039, 174.01193237304688, 539.4562377929688, 0.03200000151991844, -0.04800000041723251, 1.055999994277954, 0.0, 0.0, 0.0, 0.0, 0.0, 1.6210005760303807E9, 2021-05-14 15:56:16.030
20.0, 170.838623046875, -56.36029052734375, 168.3459930419922, 529.927001953125, 0.03200000151991844, -0.04800000041723251, 1.055999994277954, 0.0, 0.0, 0.0, 0.0, 0.0, 1.6210005760303807E9, 2021-05-14 15:56:16.030
21.0, 171.20513916015625, -59.40082931518555, 168.62274169921875, 531.9428100585938, 0.03200000151991844, -0.04800000041723251, 1.055999994277954, 0.0, 0.0, 0.0, 0.0, 0.0, 1.621000576031136E9, 2021-05-14 15:56:16.031
21.0, 176.74392700195312, -52.945762634277344, 167.60922241210938, 549.598876953125, 0.03200000151991844, -0.04800000041723251, 1.055999994277954, 0.0, 0.0, 0.0, 0.0, 0.0, 1.621000576031136E9, 2021-05-14 15:56:16.031
22.0, 178.6587677001953, -57.388763427734375, 169.09022521972656, 554.658935546875, 0.03200000151991844, -0.04800000041723251, 1.055999994277954, 0.0, 0.0, 0.0, 0.0, 0.0, 1.621000576043504E9, 2021-05-14 15:56:16.043
22.0, 173.12744140625, -60.6125602722168, 162.60150146484375, 556.042724609375, 0.03200000151991844, -0.04800000041723251, 1.055999994277954, 0.0, 0.0, 0.0, 0.0, 0.0, 1.621000576043504E9, 2021-05-14 15:56:16.043
23.0, 173.20599365234375, -70.42605590820312, 159.05233764648438, 557.47509765625, 0.03200000151991844, -0.04800000041723251, 1.055999994277954, 0.0, 0.0, 0.0, 0.0, 0.0, 1.6210005760592248E9, 2021-05-14 15:56:16.059
23.0, 178.9467315673828, -70.64671325683594, 164.68463134765625, 560.7811889648438, 0.03200000151991844, -0.04800000041723251, 1.055999994277954, 0.0, 0.0, 0.0, 0.0, 0.0, 1.6210005760592248E9, 2021-05-14 15:56:16.059
24.0, 174.87771606445312, -70.45223236083984, 165.17080688476562, 562.9951782226562, 0.03200000151991844, -0.04800000041723251, 1.055999994277954, 0.0, 0.0, 0.0, 0.0, 0.0, 1.6210005760599093E9, 2021-05-14 15:56:16.059
24.0, 166.58262634277344, -73.84432220458984, 164.0226593017578, 562.2584228515625, 0.03200000151991844, -0.04800000041723251, 1.055999994277954, 0.0, 0.0, 0.0, 0.0, 0.0, 1.6210005760599093E9, 2021-05-14 15:56:16.059
25.0, 176.1530303955078, -65.36597442626953, 168.29736328125, 556.0838623046875, 0.03200000151991844, -0.04800000041723251, 1.055999994277954, 0.0, 0.0, 0.0, 0.0, 0.0, 1.6210005760733323E9, 2021-05-14 15:56:16.073
25.0, 172.68614196777344, -66.64127349853516, 166.41619873046875, 552.2354736328125, 0.03200000151991844, -0.04800000041723251, 1.055999994277954, 0.0, 0.0, 0.0, 0.0, 0.0, 1.6210005760733323E9, 2021-05-14 15:56:16.073
26.0, 173.6061553955078, -59.63270568847656, 159.72926330566406, 541.6815185546875, 0.03200000151991844, -0.04800000041723251, 1.055999994277954, 0.0, 0.0, 0.0, 0.0, 0.0, 1.6210005760893805E9, 2021-05-14 15:56:16.089
26.0, 172.40565490722656, -56.99981689453125, 161.37107849121094, 534.7926025390625, 0.03200000151991844, -0.04800000041723251, 1.055999994277954, 0.0, 0.0, 0.0, 0.0, 0.0, 1.6210005760893805E9, 2021-05-14 15:56:16.089
27.0, 168.0598907470703, -64.02334594726562, 154.7252655029297, 525.700927734375, 0.03200000151991844, -0.04800000041723251, 1.055999994277954, 0.0, 0.0, 0.0, 0.0, 0.0, 1.621000576120261E9, 2021-05-14 15:56:16.120
27.0, 190.4693603515625, -53.83211898803711, 173.76136779785156, 545.152099609375, 0.03200000151991844, -0.04800000041723251, 1.055999994277954, 0.0, 0.0, 0.0, 0.0, 0.0, 1.621000576120261E9, 2021-05-14 15:56:16.120
28.0, 187.01744079589844, -58.99318313598633, 169.576416015625, 539.7442016601562, 0.03200000151991844, -0.04800000041723251, 1.055999994277954, 0.0, 0.0, 0.0, 0.0, 0.0, 1.6210005761208982E9, 2021-05-14 15:56:16.120
28.0, 175.61074829101562, -52.373558044433594, 166.5209197998047, 531.0003662109375, 0.03200000151991844, -0.04800000041723251, 1.055999994277954, 0.0, 0.0, 0.0, 0.0, 0.0, 1.6210005761208982E9, 2021-05-14 15:56:16.120
29.0, 183.2588348388672, -58.484554290771484, 165.4251251220703, 528.5918579101562, 0.03200000151991844, -0.04800000041723251, 1.055999994277954, 0.0, 0.0, 0.0, 0.0, 0.0, 1.6210005761216717E9, 2021-05-14 15:56:16.121
29.0, 191.2696990966797, -50.52604675292969, 168.53672790527344, 539.729248046875, 0.03200000151991844, -0.04800000041723251, 1.055999994277954, 0.0, 0.0, 0.0, 0.0, 0.0, 1.6210005761216717E9, 2021-05-14 15:56:16.121
30.0, 177.74996948242188, -58.61919021606445, 164.9576416015625, 532.2457275390625, 0.03200000151991844, -0.04800000041723251, 1.055999994277954, 0.0, 0.0, 0.0, 0.0, 0.0, 1.6210005761339812E9, 2021-05-14 15:56:16.133
30.0, 178.55404663085938, -59.22879409790039, 162.72117614746094, 542.6912841796875, 0.03200000151991844, -0.04800000041723251, 1.055999994277954, 0.0, 0.0, 0.0, 0.0, 0.0, 1.6210005761339812E9, 2021-05-14 15:56:16.133
31.0, 163.9759063720703, -60.13759231567383, 162.3284912109375, 551.091064453125, 0.03200000151991844, -0.04800000041723251, 1.055999994277954, 0.0, 0.0, 0.0, 0.0, 0.0, 1.6210005761346693E9, 2021-05-14 15:56:16.134
31.0, 167.48768615722656, -63.38756561279297, 160.85122680664062, 569.35302734375, 0.03200000151991844, -0.04800000041723251, 1.055999994277954, 0.0, 0.0, 0.0, 0.0, 0.0, 1.6210005761346693E9, 2021-05-14 15:56:16.134
32.0, 161.20091247558594, -72.22120666503906, 159.5198211669922, 555.5902099609375, 0.03200000151991844, -0.04800000041723251, 1.055999994277954, 0.0, 0.0, 0.0, 0.0, 0.0, 1.6210005761491206E9, 2021-05-14 15:56:16.149
32.0, 159.28233337402344, -59.98799514770508, 162.616455078125, 559.7489624023438, 0.03200000151991844, -0.04800000041723251, 1.055999994277954, 0.0, 0.0, 0.0, 0.0, 0.0, 1.6210005761491206E9, 2021-05-14 15:56:16.149
33.0, 173.6024169921875, -59.71124267578125, 165.3839874267578, 562.7670288085938, 0.03200000151991844, -0.04800000041723251, 1.055999994277954, 0.0, 0.0, 0.0, 0.0, 0.0, 1.6210005761498327E9, 2021-05-14 15:56:16.149
33.0, 185.44668579101562, -63.09959030151367, 168.07672119140625, 568.765869140625, 0.03200000151991844, -0.04800000041723251, 1.055999994277954, 0.0, 0.0, 0.0, 0.0, 0.0, 1.6210005761498327E9, 2021-05-14 15:56:16.149
34.0, 175.36764526367188, -63.24544906616211, 166.4722900390625, 572.169189453125, 0.03200000151991844, -0.04800000041723251, 1.055999994277954, 0.0, 0.0, 0.0, 0.0, 0.0, 1.6210005761633472E9, 2021-05-14 15:56:16.163
34.0, 168.8602294921875, -66.16256713867188, 161.91709899902344, 564.78662109375, 0.03200000151991844, -0.04800000041723251, 1.055999994277954, 0.0, 0.0, 0.0, 0.0, 0.0, 1.6210005761633472E9, 2021-05-14 15:56:16.163
35.0, 177.36476135253906, -69.53595733642578, 163.64492797851562, 557.3367309570312, 0.03200000151991844, -0.04800000041723251, 1.055999994277954, 0.0, 0.0, 0.0, 0.0, 0.0, 1.6210005761791303E9, 2021-05-14 15:56:16.179
35.0, 185.9365997314453, -68.87773895263672, 166.6480712890625, 552.1307983398438, 0.03200000151991844, -0.04800000041723251, 1.055999994277954, 0.0, 0.0, 0.0, 0.0, 0.0, 1.6210005761791303E9, 2021-05-14 15:56:16.179
36.0, 175.99969482421875, -65.87459564208984, 168.9406280517578, 557.0936279296875, 0.03200000151991844, -0.04800000041723251, 1.055999994277954, 0.0, 0.0, 0.0, 0.0, 0.0, 1.6210005761798317E9, 2021-05-14 15:56:16.179
36.0, 171.33229064941406, -64.44221496582031, 161.442138671875, 540.5707397460938, 0.03200000151991844, -0.04800000041723251, 1.055999994277954, 0.0, 0.0, 0.0, 0.0, 0.0, 1.6210005761798317E9, 2021-05-14 15:56:16.179
37.0, 179.9901580810547, -60.24979019165039, 166.0122833251953, 537.2646484375, 0.03200000151991844, -0.04800000041723251, 1.055999994277954, 0.0, 0.0, 0.0, 0.0, 0.0, 1.621000576209718E9, 2021-05-14 15:56:16.209
37.0, 181.014892578125, -60.40312576293945, 166.00106811523438, 532.0924072265625, 0.03200000151991844, -0.04800000041723251, 1.055999994277954, 0.0, 0.0, 0.0, 0.0, 0.0, 1.621000576209718E9, 2021-05-14 15:56:16.209
38.0, 185.3419647216797, -58.08812713623047, 171.15464782714844, 536.4381713867188, 0.03200000151991844, -0.04800000041723251, 1.055999994277954, 0.0, 0.0, 0.0, 0.0, 0.0, 1.6210005762104762E9, 2021-05-14 15:56:16.210
38.0, 182.1705322265625, -55.83296585083008, 172.98719787597656, 528.8984985351562, 0.03200000151991844, -0.04800000041723251, 1.055999994277954, 0.0, 0.0, 0.0, 0.0, 0.0, 1.6210005762104762E9, 2021-05-14 15:56:16.210
39.0, 177.1216583251953, -55.56743240356445, 175.81082153320312, 529.6128540039062, 0.03200000151991844, -0.04800000041723251, 1.055999994277954, 0.0, 0.0, 0.0, 0.0, 0.0, 1.621000576211232E9, 2021-05-14 15:56:16.211
39.0, 183.80487060546875, -53.858299255371094, 180.40716552734375, 549.35205078125, 0.03200000151991844, -0.04800000041723251, 1.055999994277954, 0.0, 0.0, 0.0, 0.0, 0.0, 1.621000576211232E9, 2021-05-14 15:56:16.211
40.0, 178.37078857421875, -52.41469955444336, 179.82000732421875, 558.7130126953125, 0.03200000151991844, -0.04800000041723251, 1.055999994277954, 0.0, 0.0, 0.0, 0.0, 0.0, 1.6210005762233546E9, 2021-05-14 15:56:16.223
40.0, 160.1948699951172, -60.96784973144531, 170.6796875, 554.0269165039062, 0.03200000151991844, -0.04800000041723251, 1.055999994277954, 0.0, 0.0, 0.0, 0.0, 0.0, 1.6210005762233546E9, 2021-05-14 15:56:16.223
41.0, 160.74464416503906, -58.061946868896484, 166.89865112304688, 566.7500610351562, 0.03200000151991844, -0.04800000041723251, 1.055999994277954, 0.0, 0.0, 0.0, 0.0, 0.0, 1.6210005762390094E9, 2021-05-14 15:56:16.239
41.0, 164.94081115722656, -62.83406066894531, 165.327880859375, 567.5391845703125, 0.03200000151991844, -0.04800000041723251, 1.055999994277954, 0.0, 0.0, 0.0, 0.0, 0.0, 1.6210005762390094E9, 2021-05-14 15:56:16.239
42.0, 171.7324676513672, -68.13723754882812, 163.90672302246094, 571.54833984375, 0.03200000151991844, -0.04800000041723251, 1.055999994277954, 0.0, 0.0, 0.0, 0.0, 0.0, 1.621000576239816E9, 2021-05-14 15:56:16.239
42.0, 163.1306915283203, -77.44210815429688, 166.5209197998047, 569.02392578125, 0.03200000151991844, -0.04800000041723251, 1.055999994277954, 0.0, 0.0, 0.0, 0.0, 0.0, 1.621000576239816E9, 2021-05-14 15:56:16.239
43.0, 167.09498596191406, -69.098388671875, 170.18228149414062, 574.3121337890625, 0.03200000151991844, -0.04800000041723251, 1.055999994277954, 0.0, 0.0, 0.0, 0.0, 0.0, 1.6210005762534263E9, 2021-05-14 15:56:16.253
43.0, 170.6778106689453, -69.99971008300781, 165.15211486816406, 576.3428955078125, 0.03200000151991844, -0.04800000041723251, 1.055999994277954, 0.0, 0.0, 0.0, 0.0, 0.0, 1.6210005762534263E9, 2021-05-14 15:56:16.253
44.0, 184.94927978515625, -65.78858184814453, 169.8643798828125, 570.807861328125, 0.03200000151991844, -0.04800000041723251, 1.055999994277954, 0.0, 0.0, 0.0, 0.0, 0.0, 1.6210005762690504E9, 2021-05-14 15:56:16.269
44.0, 180.0088653564453, -71.51062774658203, 167.2464599609375, 561.7423095703125, 0.03200000151991844, -0.04800000041723251, 1.055999994277954, 0.0, 0.0, 0.0, 0.0, 0.0, 1.6210005762690504E9, 2021-05-14 15:56:16.269
45.0, 182.798828125, -67.3892593383789, 171.0873260498047, 563.23828125, 0.03200000151991844, -0.04800000041723251, 1.055999994277954, 0.0, 0.0, 0.0, 0.0, 0.0, 1.62100057626971E9, 2021-05-14 15:56:16.269
45.0, 176.45970153808594, -65.9456558227539, 172.95729064941406, 559.6517333984375, 0.03200000151991844, -0.04800000041723251, 1.055999994277954, 0.0, 0.0, 0.0, 0.0, 0.0, 1.62100057626971E9, 2021-05-14 15:56:16.269
46.0, 182.52207946777344, -63.04723358154297, 172.3327178955078, 551.3416748046875, 0.03200000151991844, -0.04800000041723251, 1.055999994277954, 0.0, 0.0, 0.0, 0.0, 0.0, 1.6210005762833605E9, 2021-05-14 15:56:16.283
46.0, 178.75599670410156, -62.5012092590332, 172.15695190429688, 546.0983276367188, 0.03200000151991844, -0.04800000041723251, 1.055999994277954, 0.0, 0.0, 0.0, 0.0, 0.0, 1.6210005762833605E9, 2021-05-14 15:56:16.283
47.0, 180.3828582763672, -58.402278900146484, 180.87091064453125, 542.3583984375, 0.03200000151991844, -0.04800000041723251, 1.055999994277954, 0.0, 0.0, 0.0, 0.0, 0.0, 1.6210005762990925E9, 2021-05-14 15:56:16.299
47.0, 180.31553649902344, -54.9540901184082, 173.89599609375, 544.0301513671875, 0.03200000151991844, -0.04800000041723251, 1.055999994277954, 0.0, 0.0, 0.0, 0.0, 0.0, 1.6210005762990925E9, 2021-05-14 15:56:16.299
48.0, 182.64923095703125, -53.45439147949219, 177.01881408691406, 541.3299560546875, 0.03200000151991844, -0.04800000041723251, 1.055999994277954, 0.0, 0.0, 0.0, 0.0, 0.0, 1.6210005762997332E9, 2021-05-14 15:56:16.299
48.0, 173.18728637695312, -62.29551315307617, 165.63455200195312, 532.3055419921875, 0.03200000151991844, -0.04800000041723251, 1.055999994277954, 0.0, 0.0, 0.0, 0.0, 0.0, 1.6210005762997332E9, 2021-05-14 15:56:16.299
49.0, 175.6780548095703, -59.460670471191406, 172.44117736816406, 545.6981811523438, 0.03200000151991844, -0.04800000041723251, 1.055999994277954, 0.0, 0.0, 0.0, 0.0, 0.0, 1.6210005763133385E9, 2021-05-14 15:56:16.313
49.0, 176.0183868408203, -62.14217758178711, 173.36866760253906, 549.4754638671875, 0.03200000151991844, -0.04800000041723251, 1.055999994277954, 0.0, 0.0, 0.0, 0.0, 0.0, 1.6210005763133385E9, 2021-05-14 15:56:16.313
50.0, 176.88604736328125, -63.122032165527344, 175.97164916992188, 556.7196655273438, 0.03200000151991844, -0.04800000041723251, 1.055999994277954, 0.0, 0.0, 0.0, 0.0, 0.0, 1.6210005763290825E9, 2021-05-14 15:56:16.329
50.0, 178.66250610351562, -58.458377838134766, 175.87814331054688, 553.0769653320312, 0.03200000151991844, -0.04800000041723251, 1.055999994277954, 0.0, 0.0, 0.0, 0.0, 0.0, 1.6210005763290825E9, 2021-05-14 15:56:16.329
51.0, 177.8958282470703, -60.76963424682617, 173.53697204589844, 561.39453125, 0.03200000151991844, -0.04800000041723251, 1.055999994277954, 0.0, 0.0, 0.0, 0.0, 0.0, 1.6210005763297749E9, 2021-05-14 15:56:16.329
51.0, 178.71859741210938, -59.15399932861328, 171.88018798828125, 568.7733154296875, 0.03200000151991844, -0.04800000041723251, 1.055999994277954, 0.0, 0.0, 0.0, 0.0, 0.0, 1.6210005763297749E9, 2021-05-14 15:56:16.329
52.0, 180.9700164794922, -57.59819793701172, 175.42935180664062, 565.4822387695312, 0.03200000151991844, -0.04800000041723251, 1.055999994277954, 0.0, 0.0, 0.0, 0.0, 0.0, 1.6210005763435512E9, 2021-05-14 15:56:16.343
52.0, 167.73451232910156, -63.069671630859375, 169.16128540039062, 554.8048095703125, 0.03200000151991844, -0.04800000041723251, 1.055999994277954, 0.0, 0.0, 0.0, 0.0, 0.0, 1.6210005763435512E9, 2021-05-14 15:56:16.343
53.0, 174.4102325439453, -60.44052505493164, 173.66038513183594, 563.0700073242188, 0.03200000151991844, -0.04800000041723251, 1.055999994277954, 0.0, 0.0, 0.0, 0.0, 0.0, 1.6210005763591115E9, 2021-05-14 15:56:16.359
53.0, 183.2999725341797, -59.99173355102539, 172.02978515625, 569.8055419921875, 0.03200000151991844, -0.04800000041723251, 1.055999994277954, 0.0, 0.0, 0.0, 0.0, 0.0, 1.6210005763591115E9, 2021-05-14 15:56:16.359
54.0, 188.54705810546875, -59.99547576904297, 178.39883422851562, 569.4091186523438, 0.03200000151991844, -0.04800000041723251, 1.055999994277954, 0.0, 0.0, 0.0, 0.0, 0.0, 1.6210005763598373E9, 2021-05-14 15:56:16.359
54.0, 180.62594604492188, -66.47672271728516, 172.23922729492188, 549.2659912109375, 0.03200000151991844, -0.04800000041723251, 1.055999994277954, 0.0, 0.0, 0.0, 0.0, 0.0, 1.6210005763598373E9, 2021-05-14 15:56:16.359
55.0, 185.18115234375, -65.00694274902344, 167.73638916015625, 549.8718872070312, 0.03200000151991844, -0.04800000041723251, 1.055999994277954, 0.0, 0.0, 0.0, 0.0, 0.0, 1.621000576373593E9, 2021-05-14 15:56:16.373
55.0, 189.41845703125, -67.67723083496094, 163.1363067626953, 556.11376953125, 0.03200000151991844, -0.04800000041723251, 1.055999994277954, 0.0, 0.0, 0.0, 0.0, 0.0, 1.621000576373593E9, 2021-05-14 15:56:16.373
56.0, 182.74647521972656, -59.116600036621094, 167.9271240234375, 556.2708740234375, 0.03200000151991844, -0.04800000041723251, 1.055999994277954, 0.0, 0.0, 0.0, 0.0, 0.0, 1.6210005763890283E9, 2021-05-14 15:56:16.389
56.0, 164.86227416992188, -70.22784423828125, 159.97235107421875, 544.3929443359375, 0.03200000151991844, -0.04800000041723251, 1.055999994277954, 0.0, 0.0, 0.0, 0.0, 0.0, 1.6210005763890283E9, 2021-05-14 15:56:16.389
57.0, 175.28536987304688, -57.70291519165039, 170.22341918945312, 544.2620239257812, 0.03200000151991844, -0.04800000041723251, 1.055999994277954, 0.0, 0.0, 0.0, 0.0, 0.0, 1.6210005763898065E9, 2021-05-14 15:56:16.389
57.0, 181.6918182373047, -56.97737503051758, 171.50245666503906, 551.1546630859375, 0.03200000151991844, -0.04800000041723251, 1.055999994277954, 0.0, 0.0, 0.0, 0.0, 0.0, 1.6210005763898065E9, 2021-05-14 15:56:16.389
58.0, 174.75430297851562, -65.86711883544922, 170.63107299804688, 549.7222900390625, 0.03200000151991844, -0.04800000041723251, 1.055999994277954, 0.0, 0.0, 0.0, 0.0, 0.0, 1.6210005764033754E9, 2021-05-14 15:56:16.403
58.0, 168.54232788085938, -65.16401672363281, 170.43284606933594, 547.4297485351562, 0.03200000151991844, -0.04800000041723251, 1.055999994277954, 0.0, 0.0, 0.0, 0.0, 0.0, 1.6210005764033754E9, 2021-05-14 15:56:16.403
59.0, 162.05734252929688, -64.87230682373047, 168.57037353515625, 546.042236328125, 0.03200000151991844, -0.04800000041723251, 1.055999994277954, 0.0, 0.0, 0.0, 0.0, 0.0, 1.621000576419026E9, 2021-05-14 15:56:16.419
59.0, 183.58795166015625, -58.63041305541992, 168.24874877929688, 558.5484619140625, 0.03200000151991844, -0.04800000041723251, 1.055999994277954, 0.0, 0.0, 0.0, 0.0, 0.0, 1.621000576419026E9, 2021-05-14 15:56:16.419
60.0, 177.01693725585938, -66.12891387939453, 162.90069580078125, 557.4564208984375, 0.03200000151991844, -0.04800000041723251, 1.055999994277954, 0.0, 0.0, 0.0, 0.0, 0.0, 1.6210005764198103E9, 2021-05-14 15:56:16.419
60.0, 168.5872039794922, -59.09415817260742, 164.89405822753906, 553.8175048828125, 0.03200000151991844, -0.04800000041723251, 1.055999994277954, 0.0, 0.0, 0.0, 0.0, 0.0, 1.6210005764198103E9, 2021-05-14 15:56:16.419
61.0, 170.72268676757812, -67.95772552490234, 166.12074279785156, 557.7630615234375, 0.03200000151991844, -0.04800000041723251, 1.055999994277954, 0.0, 0.0, 0.0, 0.0, 0.0, 1.6210005764501777E9, 2021-05-14 15:56:16.450
61.0, 182.00970458984375, -64.67034912109375, 173.75013732910156, 556.525146484375, 0.03200000151991844, -0.04800000041723251, 1.055999994277954, 0.0, 0.0, 0.0, 0.0, 0.0, 1.6210005764501777E9, 2021-05-14 15:56:16.450
62.0, 180.29684448242188, -66.92925262451172, 165.79537963867188, 552.2916259765625, 0.04800000041723251, -0.04800000041723251, 1.055999994277954, 0.0, 0.0, 0.0, 0.0, 0.0, 1.6210005764509392E9, 2021-05-14 15:56:16.450
62.0, 183.5243682861328, -61.603633880615234, 171.79043579101562, 553.1068725585938, 0.04800000041723251, -0.04800000041723251, 1.055999994277954, 0.0, 0.0, 0.0, 0.0, 0.0, 1.6210005764509392E9, 2021-05-14 15:56:16.450
63.0, 174.6533203125, -65.02190399169922, 165.37277221679688, 550.7881469726562, 0.04800000041723251, -0.04800000041723251, 1.055999994277954, 0.0, 0.0, 0.0, 0.0, 0.0, 1.6210005764803755E9, 2021-05-14 15:56:16.480
63.0, 182.42857360839844, -59.023101806640625, 169.4530029296875, 556.3045043945312, 0.04800000041723251, -0.04800000041723251, 1.055999994277954, 0.0, 0.0, 0.0, 0.0, 0.0, 1.6210005764803755E9, 2021-05-14 15:56:16.480
64.0, 181.25799560546875, -54.445465087890625, 169.3146209716797, 558.8700561523438, 0.04800000041723251, -0.04800000041723251, 1.055999994277954, 0.0, 0.0, 0.0, 0.0, 0.0, 1.621000576481148E9, 2021-05-14 15:56:16.481
64.0, 170.79000854492188, -54.15748977661133, 167.48580932617188, 549.7372436523438, 0.04800000041723251, -0.04800000041723251, 1.055999994277954, 0.0, 0.0, 0.0, 0.0, 0.0, 1.621000576481148E9, 2021-05-14 15:56:16.481
65.0, 177.60037231445312, -58.67903137207031, 172.6244354248047, 552.7628173828125, 0.04800000041723251, -0.04800000041723251, 1.055999994277954, 0.0, 0.0, 0.0, 0.0, 0.0, 1.621000576481836E9, 2021-05-14 15:56:16.481
65.0, 184.9679718017578, -55.75442886352539, 177.5050048828125, 557.3404541015625, 0.04800000041723251, -0.04800000041723251, 1.055999994277954, 0.0, 0.0, 0.0, 0.0, 0.0, 1.621000576481836E9, 2021-05-14 15:56:16.481
66.0, 182.881103515625, -61.94396209716797, 172.21678161621094, 556.0726318359375, 0.04800000041723251, -0.04800000041723251, 1.055999994277954, 0.0, 0.0, 0.0, 0.0, 0.0, 1.6210005764825888E9, 2021-05-14 15:56:16.482
66.0, 175.35643005371094, -62.46754837036133, 170.44033813476562, 556.3905029296875, 0.04800000041723251, -0.04800000041723251, 1.055999994277954, 0.0, 0.0, 0.0, 0.0, 0.0, 1.6210005764825888E9, 2021-05-14 15:56:16.482
67.0, 169.43991088867188, -66.57395935058594, 169.29966735839844, 560.6166381835938, 0.04800000041723251, -0.04800000041723251, 1.055999994277954, 0.0, 0.0, 0.0, 0.0, 0.0, 1.6210005764933405E9, 2021-05-14 15:56:16.493
67.0, 181.61328125, -69.22554779052734, 172.42996215820312, 562.580078125, 0.04800000041723251, -0.04800000041723251, 1.055999994277954, 0.0, 0.0, 0.0, 0.0, 0.0, 1.6210005764933405E9, 2021-05-14 15:56:16.493
68.0, 167.23336791992188, -68.42520904541016, 161.86474609375, 554.6290283203125, 0.04800000041723251, -0.04800000041723251, 1.055999994277954, 0.0, 0.0, 0.0, 0.0, 0.0, 1.621000576508996E9, 2021-05-14 15:56:16.508
68.0, 158.89712524414062, -66.77965545654297, 166.75653076171875, 558.2081298828125, 0.04800000041723251, -0.04800000041723251, 1.055999994277954, 0.0, 0.0, 0.0, 0.0, 0.0, 1.621000576508996E9, 2021-05-14 15:56:16.508
69.0, 165.6364288330078, -73.31700134277344, 165.27552795410156, 558.7578735351562, 0.04800000041723251, -0.04800000041723251, 1.055999994277954, 0.0, 0.0, 0.0, 0.0, 0.0, 1.6210005765097644E9, 2021-05-14 15:56:16.509
69.0, 175.7528533935547, -70.47093200683594, 167.0258026123047, 565.5346069335938, 0.04800000041723251, -0.04800000041723251, 1.055999994277954, 0.0, 0.0, 0.0, 0.0, 0.0, 1.6210005765097644E9, 2021-05-14 15:56:16.509
70.0, 178.62884521484375, -76.46973419189453, 161.63287353515625, 562.1425170898438, 0.04800000041723251, -0.04800000041723251, 1.055999994277954, 0.0, 0.0, 0.0, 0.0, 0.0, 1.621000576523487E9, 2021-05-14 15:56:16.523
70.0, 175.9884796142578, -71.98933410644531, 166.3862762451172, 559.8087768554688, 0.04800000041723251, -0.04800000041723251, 1.055999994277954, 0.0, 0.0, 0.0, 0.0, 0.0, 1.621000576523487E9, 2021-05-14 15:56:16.523
71.0, 177.6714324951172, -72.57276153564453, 167.42971801757812, 559.8611450195312, 0.04800000041723251, -0.04800000041723251, 1.055999994277954, 0.0, 0.0, 0.0, 0.0, 0.0, 1.621000576539003E9, 2021-05-14 15:56:16.539
71.0, 185.8094482421875, -59.984256744384766, 165.02870178222656, 559.36376953125, 0.04800000041723251, -0.04800000041723251, 1.055999994277954, 0.0, 0.0, 0.0, 0.0, 0.0, 1.621000576539003E9, 2021-05-14 15:56:16.539
72.0, 183.06809997558594, -59.539207458496094, 161.8572540283203, 554.7113037109375, 0.03200000151991844, -0.04800000041723251, 1.055999994277954, 0.0, 0.0, 0.0, 0.0, 0.0, 1.621000576539704E9, 2021-05-14 15:56:16.539
72.0, 170.36740112304688, -59.20261764526367, 160.56700134277344, 549.6063232421875, 0.03200000151991844, -0.04800000041723251, 1.055999994277954, 0.0, 0.0, 0.0, 0.0, 0.0, 1.621000576539704E9, 2021-05-14 15:56:16.539
73.0, 168.92005920410156, -61.412899017333984, 155.04690551757812, 542.4107666015625, 0.03200000151991844, -0.04800000041723251, 1.055999994277954, 0.0, 0.0, 0.0, 0.0, 0.0, 1.6210005765533895E9, 2021-05-14 15:56:16.553
73.0, 169.35763549804688, -57.98714828491211, 166.4386444091797, 559.412353515625, 0.03200000151991844, -0.04800000041723251, 1.055999994277954, 0.0, 0.0, 0.0, 0.0, 0.0, 1.6210005765533895E9, 2021-05-14 15:56:16.553
74.0, 179.5264129638672, -58.93708419799805, 170.6759490966797, 555.8519897460938, 0.03200000151991844, -0.04800000041723251, 1.055999994277954, 0.0, 0.0, 0.0, 0.0, 0.0, 1.6210005765854905E9, 2021-05-14 15:56:16.585
74.0, 180.83164978027344, -48.36438751220703, 171.7305908203125, 560.3062133789062, 0.03200000151991844, -0.04800000041723251, 1.055999994277954, 0.0, 0.0, 0.0, 0.0, 0.0, 1.6210005765854905E9, 2021-05-14 15:56:16.585
75.0, 186.1946563720703, -59.771080017089844, 174.93943786621094, 557.95751953125, 0.03200000151991844, -0.04800000041723251, 1.055999994277954, 0.0, 0.0, 0.0, 0.0, 0.0, 1.6210005765861547E9, 2021-05-14 15:56:16.586
75.0, 191.9503631591797, -58.17040252685547, 170.2421112060547, 563.825439453125, 0.03200000151991844, -0.04800000041723251, 1.055999994277954, 0.0, 0.0, 0.0, 0.0, 0.0, 1.6210005765861547E9, 2021-05-14 15:56:16.586
76.0, 176.62799072265625, -68.78050231933594, 161.77871704101562, 558.3016357421875, 0.03200000151991844, -0.04800000041723251, 1.055999994277954, 0.0, 0.0, 0.0, 0.0, 0.0, 1.6210005765869188E9, 2021-05-14 15:56:16.586
76.0, 171.2163543701172, -67.90536499023438, 161.63661193847656, 555.9305419921875, 0.03200000151991844, -0.04800000041723251, 1.055999994277954, 0.0, 0.0, 0.0, 0.0, 0.0, 1.6210005765869188E9, 2021-05-14 15:56:16.586
