Sample Index, EXG Channel 0, EXG Channel 1, EXG Channel 2, EXG Channel 3, Accel Channel 0, Accel Channel 1, Accel Channel 2, Other, Other, Other, Other, Other, Timestamp, Timestamp (Formatted)
0.0, 43.99057388305664, -191.49783325195312, 89.54068756103516, 451.2881164550781, 0.0, 0.0, 0.0, 0.0, 0.0, 0.0, 0.0, 0.0, 1.6210013804063544E9, 2021-05-14 16:09:40.406
1.0, 52.57738494873047, -184.21624755859375, 88.68051147460938, 455.8507995605469, 0.0, -0.04800000041723251, 0.0, 0.0, 0.0, 0.0, 0.0, 0.0, 1.6210013804529943E9, 2021-05-14 16:09:40.452
1.0, 42.95088195800781, -192.4739532470703, 84.37962341308594, 444.1636047363281, 0.0, -0.04800000041723251, 0.0, 0.0, 0.0, 0.0, 0.0, 0.0, 1.6210013804529943E9, 2021-05-14 16:09:40.452
2.0, 47.11338806152344, -194.39999389648438, 88.56831359863281, 446.81146240234375, 0.03200000151991844, -0.04800000041723251, 0.0, 0.0, 0.0, 0.0, 0.0, 0.0, 1.6210013804543643E9, 2021-05-14 16:09:40.454
2.0, 57.90299987792969, -188.479736328125, 95.09817504882812, 459.044677734375, 0.03200000151991844, -0.04800000041723251, 0.0, 0.0, 0.0, 0.0, 0.0, 0.0, 1.6210013804543643E9, 2021-05-14 16:09:40.454
3.0, 62.45819854736328, -186.0301055908203, 99.09986877441406, 459.5420837402344, 0.03200000151991844, -0.04800000041723251, 0.0, 0.0, 0.0, 0.0, 0.0, 0.0, 1.6210013804551136E9, 2021-05-14 16:09:40.455
3.0, 54.72408676147461, -191.531494140625, 93.99116516113281, 444.1374206542969, 0.03200000151991844, -0.04800000041723251, 0.0, 0.0, 0.0, 0.0, 0.0, 0.0, 1.6210013804551136E9, 2021-05-14 16:09:40.455
4.0, 55.55060577392578, -185.02406311035156, 97.86943817138672, 435.113037109375, 0.03200000151991844, -0.04800000041723251, 0.0, 0.0, 0.0, 0.0, 0.0, 0.0, 1.6210013804661264E9, 2021-05-14 16:09:40.466
4.0, 66.32151794433594, -182.3799591064453, 93.02252960205078, 433.3515625, 0.03200000151991844, -0.04800000041723251, 0.0, 0.0, 0.0, 0.0, 0.0, 0.0, 1.6210013804661264E9, 2021-05-14 16:09:40.466
5.0, 65.14718627929688, -176.85238647460938, 92.86919403076172, 427.8576354980469, 0.03200000151991844, -0.04800000041723251, 0.0, 0.0, 0.0, 0.0, 0.0, 0.0, 1.621001380466742E9, 2021-05-14 16:09:40.466
5.0, 57.858123779296875, -177.35353088378906, 96.70259094238281, 428.4709777832031, 0.03200000151991844, -0.04800000041723251, 0.0, 0.0, 0.0, 0.0, 0.0, 0.0, 1.621001380466742E9, 2021-05-14 16:09:40.466
6.0, 61.381107330322266, -177.2787322998047, 100.5546875, 434.70166015625, 0.03200000151991844, -0.04800000041723251, 0.0, 0.0, 0.0, 0.0, 0.0, 0.0, 1.6210013804675715E9, 2021-05-14 16:09:40.467
6.0, 62.54047775268555, -182.48841857910156, 101.93097686767578, 447.6304931640625, 0.03200000151991844, -0.04800000041723251, 0.0, 0.0, 0.0, 0.0, 0.0, 0.0, 1.6210013804675715E9, 2021-05-14 16:09:40.467
7.0, 62.577877044677734, -186.22457885742188, 101.7177963256836, 448.4981384277344, 0.03200000151991844, -0.04800000041723251, 0.0, 0.0, 0.0, 0.0, 0.0, 0.0, 1.6210013804960265E9, 2021-05-14 16:09:40.496
7.0, 56.57907485961914, -193.9586944580078, 97.45057678222656, 445.9213562011719, 0.03200000151991844, -0.04800000041723251, 0.0, 0.0, 0.0, 0.0, 0.0, 0.0, 1.6210013804960265E9, 2021-05-14 16:09:40.496
8.0, 56.53419876098633, -195.88473510742188, 86.63478088378906, 444.5899658203125, 0.03200000151991844, -0.04800000041723251, 0.0, 0.0, 0.0, 0.0, 0.0, 0.0, 1.621001380496733E9, 2021-05-14 16:09:40.496
8.0, 55.01205825805664, -197.40313720703125, 84.61897277832031, 445.7119140625, 0.03200000151991844, -0.04800000041723251, 0.0, 0.0, 0.0, 0.0, 0.0, 0.0, 1.621001380496733E9, 2021-05-14 16:09:40.496
9.0, 54.32017517089844, -191.9690704345703, 85.68484497070312, 448.4383239746094, 0.03200000151991844, -0.04800000041723251, 0.0, 0.0, 0.0, 0.0, 0.0, 0.0, 1.6210013804974544E9, 2021-05-14 16:09:40.497
9.0, 43.94569396972656, -192.8404541015625, 82.83130645751953, 438.7445068359375, 0.03200000151991844, -0.04800000041723251, 0.0, 0.0, 0.0, 0.0, 0.0, 0.0, 1.6210013804974544E9, 2021-05-14 16:09:40.497
10.0, 42.64794921875, -195.28262329101562, 90.13533020019531, 440.46484375, 0.03200000151991844, -0.04800000041723251, 1.055999994277954, 0.0, 0.0, 0.0, 0.0, 0.0, 1.621001380509523E9, 2021-05-14 16:09:40.509
10.0, 56.00313186645508, -184.90438842773438, 98.20977020263672, 449.39947509765625, 0.03200000151991844, -0.04800000041723251, 1.055999994277954, 0.0, 0.0, 0.0, 0.0, 0.0, 1.621001380509523E9, 2021-05-14 16:09:40.509
11.0, 49.888397216796875, -188.67420959472656, 93.94255065917969, 447.8287048339844, 0.03200000151991844, -0.04800000041723251, 1.055999994277954, 0.0, 0.0, 0.0, 0.0, 0.0, 1.6210013805252728E9, 2021-05-14 16:09:40.525
11.0, 49.61538314819336, -195.25643920898438, 92.0389404296875, 439.455078125, 0.03200000151991844, -0.04800000041723251, 1.055999994277954, 0.0, 0.0, 0.0, 0.0, 0.0, 1.6210013805252728E9, 2021-05-14 16:09:40.525
12.0, 55.34864807128906, -194.93106079101562, 88.45237731933594, 439.9786682128906, 0.03200000151991844, -0.04800000041723251, 1.055999994277954, 0.0, 0.0, 0.0, 0.0, 0.0, 1.6210013805259693E9, 2021-05-14 16:09:40.525
12.0, 62.2899055480957, -192.90403747558594, 92.87667846679688, 444.38427734375, 0.03200000151991844, -0.04800000041723251, 1.055999994277954, 0.0, 0.0, 0.0, 0.0, 0.0, 1.6210013805259693E9, 2021-05-14 16:09:40.525
13.0, 56.20508575439453, -187.42507934570312, 98.34066772460938, 441.392333984375, 0.03200000151991844, -0.04800000041723251, 1.055999994277954, 0.0, 0.0, 0.0, 0.0, 0.0, 1.6210013805559556E9, 2021-05-14 16:09:40.555
13.0, 46.103614807128906, -190.5591278076172, 96.34730529785156, 431.7770690917969, 0.03200000151991844, -0.04800000041723251, 1.055999994277954, 0.0, 0.0, 0.0, 0.0, 0.0, 1.6210013805559556E9, 2021-05-14 16:09:40.555
14.0, 44.1626091003418, -191.80076599121094, 98.44912719726562, 430.1763916015625, 0.03200000151991844, -0.04800000041723251, 1.055999994277954, 0.0, 0.0, 0.0, 0.0, 0.0, 1.621001380556641E9, 2021-05-14 16:09:40.556
14.0, 47.300384521484375, -176.16798400878906, 96.62779235839844, 435.9881896972656, 0.03200000151991844, -0.04800000041723251, 1.055999994277954, 0.0, 0.0, 0.0, 0.0, 0.0, 1.621001380556641E9, 2021-05-14 16:09:40.556
15.0, 53.456260681152344, -173.83802795410156, 91.89682006835938, 432.1136474609375, 0.03200000151991844, -0.04800000041723251, 1.055999994277954, 0.0, 0.0, 0.0, 0.0, 0.0, 1.6210013805574327E9, 2021-05-14 16:09:40.557
15.0, 49.90335464477539, -180.80172729492188, 86.14485931396484, 424.60394287109375, 0.03200000151991844, -0.04800000041723251, 1.055999994277954, 0.0, 0.0, 0.0, 0.0, 0.0, 1.6210013805574327E9, 2021-05-14 16:09:40.557
16.0, 52.13607406616211, -185.9478302001953, 85.10516357421875, 425.9390869140625, 0.03200000151991844, -0.04800000041723251, 1.055999994277954, 0.0, 0.0, 0.0, 0.0, 0.0, 1.6210013805696323E9, 2021-05-14 16:09:40.569
16.0, 61.194114685058594, -179.31698608398438, 91.81828308105469, 442.589111328125, 0.03200000151991844, -0.04800000041723251, 1.055999994277954, 0.0, 0.0, 0.0, 0.0, 0.0, 1.6210013805696323E9, 2021-05-14 16:09:40.569
17.0, 55.19157409667969, -181.29165649414062, 91.16006469726562, 441.1268005371094, 0.03200000151991844, -0.04800000041723251, 1.055999994277954, 0.0, 0.0, 0.0, 0.0, 0.0, 1.6210013805853417E9, 2021-05-14 16:09:40.585
17.0, 45.482791900634766, -186.89402770996094, 84.31604766845703, 433.1570739746094, 0.03200000151991844, -0.04800000041723251, 1.055999994277954, 0.0, 0.0, 0.0, 0.0, 0.0, 1.6210013805853417E9, 2021-05-14 16:09:40.585
18.0, 47.56591796875, -194.75155639648438, 88.57205200195312, 436.54168701171875, 0.03200000151991844, -0.04800000041723251, 1.055999994277954, 0.0, 0.0, 0.0, 0.0, 0.0, 1.621001380586053E9, 2021-05-14 16:09:40.586
18.0, 69.2498550415039, -185.46163940429688, 94.96353912353516, 451.7518615722656, 0.03200000151991844, -0.04800000041723251, 1.055999994277954, 0.0, 0.0, 0.0, 0.0, 0.0, 1.621001380586053E9, 2021-05-14 16:09:40.586
19.0, 68.57293701171875, -189.60545349121094, 89.21905517578125, 446.20184326171875, 0.03200000151991844, -0.04800000041723251, 1.055999994277954, 0.0, 0.0, 0.0, 0.0, 0.0, 1.6210013806157622E9, 2021-05-14 16:09:40.615
19.0, 47.07973098754883, -201.17295837402344, 83.4109878540039, 438.2096862792969, 0.03200000151991844, -0.04800000041723251, 1.055999994277954, 0.0, 0.0, 0.0, 0.0, 0.0, 1.6210013806157622E9, 2021-05-14 16:09:40.615
20.0, 55.086856842041016, -190.2075653076172, 88.29155731201172, 443.3296203613281, 0.03200000151991844, -0.04800000041723251, 1.055999994277954, 0.0, 0.0, 0.0, 0.0, 0.0, 1.6210013806164548E9, 2021-05-14 16:09:40.616
20.0, 54.881160736083984, -183.06809997558594, 88.15318298339844, 449.2984924316406, 0.03200000151991844, -0.04800000041723251, 1.055999994277954, 0.0, 0.0, 0.0, 0.0, 0.0, 1.6210013806164548E9, 2021-05-14 16:09:40.616
21.0, 60.63686752319336, -179.9527587890625, 99.29434204101562, 444.6610107421875, 0.03200000151991844, -0.04800000041723251, 1.055999994277954, 0.0, 0.0, 0.0, 0.0, 0.0, 1.6210013806302838E9, 2021-05-14 16:09:40.630
21.0, 55.079376220703125, -193.4351043701172, 93.3292007446289, 437.5552062988281, 0.03200000151991844, -0.04800000041723251, 1.055999994277954, 0.0, 0.0, 0.0, 0.0, 0.0, 1.6210013806302838E9, 2021-05-14 16:09:40.630
22.0, 50.748573303222656, -186.72198486328125, 94.67182922363281, 435.0008544921875, 0.03200000151991844, -0.04800000041723251, 1.055999994277954, 0.0, 0.0, 0.0, 0.0, 0.0, 1.6210013806309927E9, 2021-05-14 16:09:40.630
22.0, 52.20713424682617, -182.62306213378906, 100.46118927001953, 438.53131103515625, 0.03200000151991844, -0.04800000041723251, 1.055999994277954, 0.0, 0.0, 0.0, 0.0, 0.0, 1.6210013806309927E9, 2021-05-14 16:09:40.630
23.0, 59.17456817626953, -183.561767578125, 99.3504409790039, 438.176025390625, 0.03200000151991844, -0.04800000041723251, 1.055999994277954, 0.0, 0.0, 0.0, 0.0, 0.0, 1.6210013806452153E9, 2021-05-14 16:09:40.645
23.0, 62.723731994628906, -180.95880126953125, 92.23341369628906, 428.4261169433594, 0.03200000151991844, -0.04800000041723251, 1.055999994277954, 0.0, 0.0, 0.0, 0.0, 0.0, 1.6210013806452153E9, 2021-05-14 16:09:40.645
24.0, 52.65966033935547, -188.6106414794922, 88.96099853515625, 428.2353820800781, 0.03200000151991844, -0.04800000041723251, 1.055999994277954, 0.0, 0.0, 0.0, 0.0, 0.0, 1.6210013806459277E9, 2021-05-14 16:09:40.645
24.0, 60.21799850463867, -183.83851623535156, 91.62754821777344, 433.19073486328125, 0.03200000151991844, -0.04800000041723251, 1.055999994277954, 0.0, 0.0, 0.0, 0.0, 0.0, 1.6210013806459277E9, 2021-05-14 16:09:40.645
25.0, 53.77041244506836, -182.90354919433594, 94.84386444091797, 442.3609619140625, 0.03200000151991844, -0.04800000041723251, 1.055999994277954, 0.0, 0.0, 0.0, 0.0, 0.0, 1.6210013806595695E9, 2021-05-14 16:09:40.659
25.0, 42.87982177734375, -185.51773071289062, 89.23775482177734, 433.9162902832031, 0.03200000151991844, -0.04800000041723251, 1.055999994277954, 0.0, 0.0, 0.0, 0.0, 0.0, 1.6210013806595695E9, 2021-05-14 16:09:40.659
26.0, 48.78886413574219, -184.17510986328125, 93.34416198730469, 441.8299255371094, 0.03200000151991844, -0.04800000041723251, 1.055999994277954, 0.0, 0.0, 0.0, 0.0, 0.0, 1.6210013806752136E9, 2021-05-14 16:09:40.675
26.0, 61.02581787109375, -181.05978393554688, 96.75495147705078, 447.9670715332031, 0.03200000151991844, -0.04800000041723251, 1.055999994277954, 0.0, 0.0, 0.0, 0.0, 0.0, 1.6210013806752136E9, 2021-05-14 16:09:40.675
27.0, 58.24333190917969, -187.55224609375, 87.23316955566406, 448.40838623046875, 0.03200000151991844, -0.04800000041723251, 1.055999994277954, 0.0, 0.0, 0.0, 0.0, 0.0, 1.6210013806759288E9, 2021-05-14 16:09:40.675
27.0, 55.9881706237793, -189.4595947265625, 88.75904846191406, 449.30596923828125, 0.03200000151991844, -0.04800000041723251, 1.055999994277954, 0.0, 0.0, 0.0, 0.0, 0.0, 1.6210013806759288E9, 2021-05-14 16:09:40.675
28.0, 46.69451904296875, -188.15811157226562, 86.05136108398438, 435.58428955078125, 0.03200000151991844, -0.04800000041723251, 1.055999994277954, 0.0, 0.0, 0.0, 0.0, 0.0, 1.6210013806896324E9, 2021-05-14 16:09:40.689
28.0, 57.757144927978516, -185.7720489501953, 89.60800170898438, 447.30511474609375, 0.03200000151991844, -0.04800000041723251, 1.055999994277954, 0.0, 0.0, 0.0, 0.0, 0.0, 1.6210013806896324E9, 2021-05-14 16:09:40.689
29.0, 57.843162536621094, -181.8264617919922, 95.76761627197266, 445.0088195800781, 0.03200000151991844, -0.04800000041723251, 1.055999994277954, 0.0, 0.0, 0.0, 0.0, 0.0, 1.6210013807053592E9, 2021-05-14 16:09:40.705
29.0, 45.05644607543945, -184.71739196777344, 93.44513702392578, 431.55267333984375, 0.03200000151991844, -0.04800000041723251, 1.055999994277954, 0.0, 0.0, 0.0, 0.0, 0.0, 1.6210013807053592E9, 2021-05-14 16:09:40.705
30.0, 49.73505783081055, -187.54476928710938, 93.72189331054688, 434.3127136230469, 0.03200000151991844, -0.04800000041723251, 1.055999994277954, 0.0, 0.0, 0.0, 0.0, 0.0, 1.6210013807059417E9, 2021-05-14 16:09:40.705
30.0, 59.19700622558594, -177.77613830566406, 92.86919403076172, 435.34490966796875, 0.03200000151991844, -0.04800000041723251, 1.055999994277954, 0.0, 0.0, 0.0, 0.0, 0.0, 1.6210013807059417E9, 2021-05-14 16:09:40.705
31.0, 57.4317741394043, -178.93177795410156, 95.82371520996094, 433.84521484375, 0.03200000151991844, -0.04800000041723251, 1.055999994277954, 0.0, 0.0, 0.0, 0.0, 0.0, 1.6210013807195716E9, 2021-05-14 16:09:40.719
31.0, 56.272403717041016, -184.13771057128906, 92.93277740478516, 430.3185119628906, 0.03200000151991844, -0.04800000041723251, 1.055999994277954, 0.0, 0.0, 0.0, 0.0, 0.0, 1.6210013807195716E9, 2021-05-14 16:09:40.719
32.0, 59.3914794921875, -181.3963623046875, 93.90140533447266, 427.6369934082031, 0.03200000151991844, -0.04800000041723251, 1.055999994277954, 0.0, 0.0, 0.0, 0.0, 0.0, 1.6210013807351973E9, 2021-05-14 16:09:40.735
32.0, 66.58705139160156, -176.3998565673828, 103.49425506591797, 436.1826477050781, 0.03200000151991844, -0.04800000041723251, 1.055999994277954, 0.0, 0.0, 0.0, 0.0, 0.0, 1.6210013807351973E9, 2021-05-14 16:09:40.735
33.0, 58.77439880371094, -187.10345458984375, 97.63008880615234, 429.5331115722656, 0.03200000151991844, -0.04800000041723251, 1.055999994277954, 0.0, 0.0, 0.0, 0.0, 0.0, 1.6210013807359111E9, 2021-05-14 16:09:40.735
33.0, 60.19929885864258, -189.078125, 90.83094787597656, 420.8266296386719, 0.03200000151991844, -0.04800000041723251, 1.055999994277954, 0.0, 0.0, 0.0, 0.0, 0.0, 1.6210013807359111E9, 2021-05-14 16:09:40.735
34.0, 66.02606201171875, -174.22323608398438, 100.13956451416016, 432.51007080078125, 0.03200000151991844, -0.04800000041723251, 1.055999994277954, 0.0, 0.0, 0.0, 0.0, 0.0, 1.6210013807495558E9, 2021-05-14 16:09:40.749
34.0, 72.5372314453125, -174.05868530273438, 96.23884582519531, 440.40875244140625, 0.03200000151991844, -0.04800000041723251, 1.055999994277954, 0.0, 0.0, 0.0, 0.0, 0.0, 1.6210013807495558E9, 2021-05-14 16:09:40.749
35.0, 60.20677947998047, -179.29454040527344, 93.95376586914062, 433.3515625, 0.03200000151991844, -0.04800000041723251, 1.055999994277954, 0.0, 0.0, 0.0, 0.0, 0.0, 1.6210013807651772E9, 2021-05-14 16:09:40.765
35.0, 57.416812896728516, -178.10899353027344, 97.97789764404297, 436.74737548828125, 0.03200000151991844, -0.04800000041723251, 1.055999994277954, 0.0, 0.0, 0.0, 0.0, 0.0, 1.6210013807651772E9, 2021-05-14 16:09:40.765
36.0, 54.89986038208008, -179.324462890625, 91.63502502441406, 444.07757568359375, 0.03200000151991844, -0.04800000041723251, 1.055999994277954, 0.0, 0.0, 0.0, 0.0, 0.0, 1.6210013807659247E9, 2021-05-14 16:09:40.765
36.0, 51.07768249511719, -178.58021545410156, 91.39567565917969, 449.1788024902344, 0.03200000151991844, -0.04800000041723251, 1.055999994277954, 0.0, 0.0, 0.0, 0.0, 0.0, 1.6210013807659247E9, 2021-05-14 16:09:40.765
37.0, 57.14006042480469, -180.90269470214844, 89.79873657226562, 447.5706481933594, 0.03200000151991844, -0.04800000041723251, 1.055999994277954, 0.0, 0.0, 0.0, 0.0, 0.0, 1.6210013807795084E9, 2021-05-14 16:09:40.779
37.0, 52.584861755371094, -182.68289184570312, 86.9451904296875, 451.4564208984375, 0.03200000151991844, -0.04800000041723251, 1.055999994277954, 0.0, 0.0, 0.0, 0.0, 0.0, 1.6210013807795084E9, 2021-05-14 16:09:40.779
38.0, 45.37059783935547, -184.15267944335938, 88.45985412597656, 451.82293701171875, 0.03200000151991844, -0.04800000041723251, 1.055999994277954, 0.0, 0.0, 0.0, 0.0, 0.0, 1.6210013807952397E9, 2021-05-14 16:09:40.795
38.0, 54.55205154418945, -176.79629516601562, 92.86919403076172, 453.2740173339844, 0.03200000151991844, -0.04800000041723251, 1.055999994277954, 0.0, 0.0, 0.0, 0.0, 0.0, 1.6210013807952397E9, 2021-05-14 16:09:40.795
39.0, 58.80805587768555, -180.2556915283203, 94.98971557617188, 459.7477722167969, 0.03200000151991844, -0.04800000041723251, 1.055999994277954, 0.0, 0.0, 0.0, 0.0, 0.0, 1.6210013807959309E9, 2021-05-14 16:09:40.795
39.0, 53.273006439208984, -180.86904907226562, 98.82685852050781, 448.40838623046875, 0.03200000151991844, -0.04800000041723251, 1.055999994277954, 0.0, 0.0, 0.0, 0.0, 0.0, 1.6210013807959309E9, 2021-05-14 16:09:40.795
40.0, 46.522483825683594, -190.33473205566406, 94.74288177490234, 435.3748474121094, 0.03200000151991844, -0.04800000041723251, 1.055999994277954, 0.0, 0.0, 0.0, 0.0, 0.0, 1.6210013808095317E9, 2021-05-14 16:09:40.809
40.0, 56.87078857421875, -185.4840850830078, 93.36286163330078, 438.4303283691406, 0.03200000151991844, -0.04800000041723251, 1.055999994277954, 0.0, 0.0, 0.0, 0.0, 0.0, 1.6210013808095317E9, 2021-05-14 16:09:40.809
41.0, 72.2193374633789, -176.2689666748047, 102.54805755615234, 448.77117919921875, 0.03200000151991844, -0.04800000041723251, 1.055999994277954, 0.0, 0.0, 0.0, 0.0, 0.0, 1.6210013808251653E9, 2021-05-14 16:09:40.825
41.0, 57.3906364440918, -181.62075805664062, 93.6246566772461, 435.83111572265625, 0.03200000151991844, -0.04800000041723251, 1.055999994277954, 0.0, 0.0, 0.0, 0.0, 0.0, 1.6210013808251653E9, 2021-05-14 16:09:40.825
42.0, 55.692718505859375, -186.9089813232422, 97.72732543945312, 429.9071044921875, 0.03200000151991844, -0.04800000041723251, 1.055999994277954, 0.0, 0.0, 0.0, 0.0, 0.0, 1.6210013808259544E9, 2021-05-14 16:09:40.825
42.0, 58.26203155517578, -174.90016174316406, 104.33198547363281, 439.5971984863281, 0.03200000151991844, -0.04800000041723251, 1.055999994277954, 0.0, 0.0, 0.0, 0.0, 0.0, 1.6210013808259544E9, 2021-05-14 16:09:40.825
43.0, 51.53769302368164, -175.52845764160156, 103.79344177246094, 434.2154846191406, 0.03200000151991844, -0.04800000041723251, 1.055999994277954, 0.0, 0.0, 0.0, 0.0, 0.0, 1.621001380839604E9, 2021-05-14 16:09:40.839
43.0, 52.10615539550781, -172.7085723876953, 106.84893798828125, 434.3201904296875, 0.03200000151991844, -0.04800000041723251, 1.055999994277954, 0.0, 0.0, 0.0, 0.0, 0.0, 1.621001380839604E9, 2021-05-14 16:09:40.839
44.0, 48.24283981323242, -175.49481201171875, 102.58919525146484, 422.94342041015625, 0.03200000151991844, -0.04800000041723251, 1.055999994277954, 0.0, 0.0, 0.0, 0.0, 0.0, 1.6210013808552012E9, 2021-05-14 16:09:40.855
44.0, 69.86319732666016, -167.37548828125, 100.49858856201172, 423.9980773925781, 0.03200000151991844, -0.04800000041723251, 1.055999994277954, 0.0, 0.0, 0.0, 0.0, 0.0, 1.6210013808552012E9, 2021-05-14 16:09:40.855
45.0, 57.0727424621582, -169.8251190185547, 101.18299102783203, 416.0993957519531, 0.03200000151991844, -0.04800000041723251, 1.055999994277954, 0.0, 0.0, 0.0, 0.0, 0.0, 1.6210013808560255E9, 2021-05-14 16:09:40.856
45.0, 57.136322021484375, -171.1378173828125, 99.11856842041016, 413.9788818359375, 0.03200000151991844, -0.04800000041723251, 1.055999994277954, 0.0, 0.0, 0.0, 0.0, 0.0, 1.6210013808560255E9, 2021-05-14 16:09:40.856
46.0, 55.49076461791992, -172.01669311523438, 92.1847915649414, 420.4451599121094, 0.03200000151991844, -0.04800000041723251, 1.055999994277954, 0.0, 0.0, 0.0, 0.0, 0.0, 1.6210013808695016E9, 2021-05-14 16:09:40.869
46.0, 61.98323059082031, -170.53195190429688, 98.3070068359375, 436.4818420410156, 0.03200000151991844, -0.04800000041723251, 1.055999994277954, 0.0, 0.0, 0.0, 0.0, 0.0, 1.6210013808695016E9, 2021-05-14 16:09:40.869
47.0, 56.20134735107422, -167.47271728515625, 96.07428741455078, 444.79937744140625, 0.03200000151991844, -0.04800000041723251, 1.055999994277954, 0.0, 0.0, 0.0, 0.0, 0.0, 1.6210013808852804E9, 2021-05-14 16:09:40.885
47.0, 39.74204635620117, -180.10235595703125, 92.12495422363281, 437.5963439941406, 0.03200000151991844, -0.04800000041723251, 1.055999994277954, 0.0, 0.0, 0.0, 0.0, 0.0, 1.6210013808852804E9, 2021-05-14 16:09:40.885
48.0, 41.92988967895508, -190.21131896972656, 88.63562774658203, 439.38775634765625, 0.03200000151991844, -0.04800000041723251, 1.055999994277954, 0.0, 0.0, 0.0, 0.0, 0.0, 1.6210013808859775E9, 2021-05-14 16:09:40.885
48.0, 56.39956283569336, -179.55633544921875, 97.75350189208984, 450.3868103027344, 0.03200000151991844, -0.04800000041723251, 1.055999994277954, 0.0, 0.0, 0.0, 0.0, 0.0, 1.6210013808859775E9, 2021-05-14 16:09:40.885
49.0, 59.54481887817383, -179.29454040527344, 94.08092498779297, 447.0358581542969, 0.03200000151991844, -0.04800000041723251, 1.055999994277954, 0.0, 0.0, 0.0, 0.0, 0.0, 1.6210013808995748E9, 2021-05-14 16:09:40.899
49.0, 59.25684356689453, -191.9503631591797, 86.81055450439453, 434.79888916015625, 0.03200000151991844, -0.04800000041723251, 1.055999994277954, 0.0, 0.0, 0.0, 0.0, 0.0, 1.6210013808995748E9, 2021-05-14 16:09:40.899
50.0, 61.75883865356445, -183.397216796875, 90.02313232421875, 435.1953430175781, 0.03200000151991844, -0.04800000041723251, 1.055999994277954, 0.0, 0.0, 0.0, 0.0, 0.0, 1.6210013809151964E9, 2021-05-14 16:09:40.915
50.0, 62.338523864746094, -185.9029541015625, 88.27659606933594, 436.9455871582031, 0.03200000151991844, -0.04800000041723251, 1.055999994277954, 0.0, 0.0, 0.0, 0.0, 0.0, 1.6210013809151964E9, 2021-05-14 16:09:40.915
51.0, 56.44443893432617, -189.64659118652344, 89.15921783447266, 433.3216247558594, 0.03200000151991844, -0.04800000041723251, 1.055999994277954, 0.0, 0.0, 0.0, 0.0, 0.0, 1.6210013809160173E9, 2021-05-14 16:09:40.916
51.0, 50.32222366333008, -193.8352813720703, 89.26766967773438, 431.78826904296875, 0.03200000151991844, -0.04800000041723251, 1.055999994277954, 0.0, 0.0, 0.0, 0.0, 0.0, 1.6210013809160173E9, 2021-05-14 16:09:40.916
52.0, 54.85124206542969, -194.759033203125, 86.64974212646484, 436.321044921875, 0.03200000151991844, -0.04800000041723251, 1.055999994277954, 0.0, 0.0, 0.0, 0.0, 0.0, 1.6210013809295788E9, 2021-05-14 16:09:40.929
52.0, 57.54022979736328, -183.18777465820312, 94.32402038574219, 442.49560546875, 0.03200000151991844, -0.04800000041723251, 1.055999994277954, 0.0, 0.0, 0.0, 0.0, 0.0, 1.6210013809295788E9, 2021-05-14 16:09:40.929
53.0, 61.54566192626953, -184.9081268310547, 98.45660400390625, 440.9996643066406, 0.03200000151991844, -0.04800000041723251, 1.055999994277954, 0.0, 0.0, 0.0, 0.0, 0.0, 1.6210013809451659E9, 2021-05-14 16:09:40.945
53.0, 44.28602600097656, -193.1097412109375, 94.48483276367188, 426.3841247558594, 0.03200000151991844, -0.04800000041723251, 1.055999994277954, 0.0, 0.0, 0.0, 0.0, 0.0, 1.6210013809451659E9, 2021-05-14 16:09:40.945
54.0, 57.57762908935547, -182.200439453125, 97.925537109375, 430.9355773925781, 0.03200000151991844, -0.04800000041723251, 1.055999994277954, 0.0, 0.0, 0.0, 0.0, 0.0, 1.6210013809458935E9, 2021-05-14 16:09:40.945
54.0, 54.92230224609375, -178.479248046875, 104.06645965576172, 438.0713195800781, 0.03200000151991844, -0.04800000041723251, 1.055999994277954, 0.0, 0.0, 0.0, 0.0, 0.0, 1.6210013809458935E9, 2021-05-14 16:09:40.945
55.0, 56.182647705078125, -181.46742248535156, 100.14704132080078, 431.44793701171875, 0.03200000151991844, -0.04800000041723251, 1.055999994277954, 0.0, 0.0, 0.0, 0.0, 0.0, 1.6210013809595127E9, 2021-05-14 16:09:40.959
55.0, 54.798885345458984, -177.8958282470703, 108.26262664794922, 424.03546142578125, 0.03200000151991844, -0.04800000041723251, 1.055999994277954, 0.0, 0.0, 0.0, 0.0, 0.0, 1.6210013809595127E9, 2021-05-14 16:09:40.959
56.0, 48.500892639160156, -178.95046997070312, 105.6895751953125, 417.5990905761719, 0.03200000151991844, -0.04800000041723251, 1.055999994277954, 0.0, 0.0, 0.0, 0.0, 0.0, 1.6210013809753296E9, 2021-05-14 16:09:40.975
56.0, 55.71516036987305, -176.87109375, 106.44877624511719, 423.3996887207031, 0.03200000151991844, -0.04800000041723251, 1.055999994277954, 0.0, 0.0, 0.0, 0.0, 0.0, 1.6210013809753296E9, 2021-05-14 16:09:40.975
57.0, 42.763885498046875, -173.45281982421875, 105.85787200927734, 421.06597900390625, 0.03200000151991844, -0.04800000041723251, 1.055999994277954, 0.0, 0.0, 0.0, 0.0, 0.0, 1.6210013809759717E9, 2021-05-14 16:09:40.975
57.0, 39.82058334350586, -177.30491638183594, 107.97090911865234, 414.53985595703125, 0.03200000151991844, -0.04800000041723251, 1.055999994277954, 0.0, 0.0, 0.0, 0.0, 0.0, 1.6210013809759717E9, 2021-05-14 16:09:40.975
58.0, 51.926639556884766, -175.68179321289062, 104.43670654296875, 422.5133361816406, 0.03200000151991844, -0.04800000041723251, 1.055999994277954, 0.0, 0.0, 0.0, 0.0, 0.0, 1.621001380989524E9, 2021-05-14 16:09:40.989
58.0, 49.0805778503418, -181.51229858398438, 93.63213348388672, 433.8227844238281, 0.03200000151991844, -0.04800000041723251, 1.055999994277954, 0.0, 0.0, 0.0, 0.0, 0.0, 1.621001380989524E9, 2021-05-14 16:09:40.989
59.0, 49.540584564208984, -186.53125, 100.17696380615234, 442.1029357910156, 0.03200000151991844, -0.04800000041723251, 1.055999994277954, 0.0, 0.0, 0.0, 0.0, 0.0, 1.6210013810210092E9, 2021-05-14 16:09:41.021
59.0, 36.29011917114258, -197.19371032714844, 87.05364990234375, 434.6567687988281, 0.03200000151991844, -0.04800000041723251, 1.055999994277954, 0.0, 0.0, 0.0, 0.0, 0.0, 1.6210013810210092E9, 2021-05-14 16:09:41.021
60.0, 49.91083526611328, -189.7587890625, 90.48313903808594, 444.1897888183594, 0.03200000151991844, -0.04800000041723251, 1.055999994277954, 0.0, 0.0, 0.0, 0.0, 0.0, 1.6210013810531037E9, 2021-05-14 16:09:41.053
60.0, 58.45276641845703, -193.10598754882812, 93.08236694335938, 442.8135070800781, 0.03200000151991844, -0.04800000041723251, 1.055999994277954, 0.0, 0.0, 0.0, 0.0, 0.0, 1.6210013810531037E9, 2021-05-14 16:09:41.053
61.0, 67.99699401855469, -192.34304809570312, 100.40509033203125, 444.3655700683594, 0.03200000151991844, -0.04800000041723251, 1.055999994277954, 0.0, 0.0, 0.0, 0.0, 0.0, 1.6210013810538416E9, 2021-05-14 16:09:41.053
61.0, 52.8765754699707, -196.75613403320312, 93.19082641601562, 430.1689147949219, 0.03200000151991844, -0.04800000041723251, 1.055999994277954, 0.0, 0.0, 0.0, 0.0, 0.0, 1.6210013810538416E9, 2021-05-14 16:09:41.053
62.0, 53.744232177734375, -192.4215850830078, 93.67701721191406, 427.2181091308594, 0.03200000151991844, -0.04800000041723251, 1.055999994277954, 0.0, 0.0, 0.0, 0.0, 0.0, 1.6210013810544736E9, 2021-05-14 16:09:41.054
62.0, 73.19544982910156, -187.66818237304688, 106.88259887695312, 445.8353576660156, 0.03200000151991844, -0.04800000041723251, 1.055999994277954, 0.0, 0.0, 0.0, 0.0, 0.0, 1.6210013810544736E9, 2021-05-14 16:09:41.054
63.0, 60.79020309448242, -189.500732421875, 95.98827362060547, 438.75946044921875, 0.03200000151991844, -0.04800000041723251, 1.055999994277954, 0.0, 0.0, 0.0, 0.0, 0.0, 1.621001381055239E9, 2021-05-14 16:09:41.055
63.0, 47.13956832885742, -194.4224395751953, 92.13617706298828, 432.27447509765625, 0.03200000151991844, -0.04800000041723251, 1.055999994277954, 0.0, 0.0, 0.0, 0.0, 0.0, 1.621001381055239E9, 2021-05-14 16:09:41.055
64.0, 48.00348663330078, -186.75564575195312, 93.3254623413086, 434.09954833984375, 0.03200000151991844, -0.04800000041723251, 1.055999994277954, 0.0, 0.0, 0.0, 0.0, 0.0, 1.6210013810823088E9, 2021-05-14 16:09:41.082
64.0, 55.91337585449219, -186.3629608154297, 96.22762298583984, 435.793701171875, 0.03200000151991844, -0.04800000041723251, 1.055999994277954, 0.0, 0.0, 0.0, 0.0, 0.0, 1.6210013810823088E9, 2021-05-14 16:09:41.082
65.0, 50.86450958251953, -176.54571533203125, 100.1919174194336, 438.7818908691406, 0.03200000151991844, -0.04800000041723251, 1.055999994277954, 0.0, 0.0, 0.0, 0.0, 0.0, 1.6210013810830128E9, 2021-05-14 16:09:41.083
65.0, 46.04751968383789, -181.34027099609375, 98.03025817871094, 432.4652099609375, 0.03200000151991844, -0.04800000041723251, 1.055999994277954, 0.0, 0.0, 0.0, 0.0, 0.0, 1.6210013810830128E9, 2021-05-14 16:09:41.083
66.0, 45.84556198120117, -180.65213012695312, 99.3878402709961, 430.6588439941406, 0.03200000151991844, -0.04800000041723251, 1.055999994277954, 0.0, 0.0, 0.0, 0.0, 0.0, 1.621001381083838E9, 2021-05-14 16:09:41.083
66.0, 49.922054290771484, -173.49021911621094, 96.31364440917969, 426.8591003417969, 0.03200000151991844, -0.04800000041723251, 1.055999994277954, 0.0, 0.0, 0.0, 0.0, 0.0, 1.621001381083838E9, 2021-05-14 16:09:41.083
67.0, 60.569549560546875, -163.85997009277344, 99.84037017822266, 431.4329833984375, 0.03200000151991844, -0.04800000041723251, 1.055999994277954, 0.0, 0.0, 0.0, 0.0, 0.0, 1.6210013810844717E9, 2021-05-14 16:09:41.084
67.0, 45.52393341064453, -180.42025756835938, 94.0697021484375, 420.8528137207031, 0.03200000151991844, -0.04800000041723251, 1.055999994277954, 0.0, 0.0, 0.0, 0.0, 0.0, 1.6210013810844717E9, 2021-05-14 16:09:41.084
68.0, 54.8437614440918, -173.29574584960938, 98.55384063720703, 423.77740478515625, 0.03200000151991844, -0.04800000041723251, 1.055999994277954, 0.0, 0.0, 0.0, 0.0, 0.0, 1.621001381095363E9, 2021-05-14 16:09:41.095
68.0, 47.32656478881836, -172.82826232910156, 93.30302429199219, 429.4096984863281, 0.03200000151991844, -0.04800000041723251, 1.055999994277954, 0.0, 0.0, 0.0, 0.0, 0.0, 1.621001381095363E9, 2021-05-14 16:09:41.095
69.0, 42.22908020019531, -176.7925567626953, 83.27261352539062, 428.4447937011719, 0.03200000151991844, -0.04800000041723251, 1.055999994277954, 0.0, 0.0, 0.0, 0.0, 0.0, 1.6210013810959349E9, 2021-05-14 16:09:41.095
69.0, 35.938568115234375, -176.4896240234375, 83.90839385986328, 430.8420715332031, 0.03200000151991844, -0.04800000041723251, 1.055999994277954, 0.0, 0.0, 0.0, 0.0, 0.0, 1.6210013810959349E9, 2021-05-14 16:09:41.095
70.0, 43.070556640625, -182.74273681640625, 84.45068359375, 438.4527893066406, 0.03200000151991844, -0.04800000041723251, 1.055999994277954, 0.0, 0.0, 0.0, 0.0, 0.0, 1.6210013811095557E9, 2021-05-14 16:09:41.109
70.0, 54.99335861206055, -182.22288513183594, 82.66300964355469, 443.0416259765625, 0.03200000151991844, -0.04800000041723251, 1.055999994277954, 0.0, 0.0, 0.0, 0.0, 0.0, 1.6210013811095557E9, 2021-05-14 16:09:41.109
71.0, 60.36011505126953, -179.65357971191406, 89.1741714477539, 446.1906433105469, 0.03200000151991844, -0.04800000041723251, 1.055999994277954, 0.0, 0.0, 0.0, 0.0, 0.0, 1.6210013811252468E9, 2021-05-14 16:09:41.125
71.0, 42.21411895751953, -189.16787719726562, 84.54792022705078, 435.24395751953125, 0.03200000151991844, -0.04800000041723251, 1.055999994277954, 0.0, 0.0, 0.0, 0.0, 0.0, 1.6210013811252468E9, 2021-05-14 16:09:41.125
72.0, 49.024478912353516, -187.75045776367188, 82.67797088623047, 430.1988220214844, 0.03200000151991844, -0.04800000041723251, 1.055999994277954, 0.0, 0.0, 0.0, 0.0, 0.0, 1.621001381125975E9, 2021-05-14 16:09:41.125
72.0, 55.49824523925781, -184.67625427246094, 84.615234375, 440.5284118652344, 0.03200000151991844, -0.04800000041723251, 1.055999994277954, 0.0, 0.0, 0.0, 0.0, 0.0, 1.621001381125975E9, 2021-05-14 16:09:41.125
73.0, 57.58884811401367, -182.74647521972656, 91.92300415039062, 447.2004089355469, 0.03200000151991844, -0.04800000041723251, 1.055999994277954, 0.0, 0.0, 0.0, 0.0, 0.0, 1.6210013811561184E9, 2021-05-14 16:09:41.156
73.0, 49.76123809814453, -187.8477020263672, 87.28926849365234, 439.7542724609375, 0.03200000151991844, -0.04800000041723251, 1.055999994277954, 0.0, 0.0, 0.0, 0.0, 0.0, 1.6210013811561184E9, 2021-05-14 16:09:41.156
74.0, 53.602115631103516, -184.5042266845703, 89.09937286376953, 433.3889465332031, 0.03200000151991844, -0.04800000041723251, 1.055999994277954, 0.0, 0.0, 0.0, 0.0, 0.0, 1.6210013811567557E9, 2021-05-14 16:09:41.156
74.0, 59.22318649291992, -176.108154296875, 94.99720001220703, 439.69818115234375, 0.03200000151991844, -0.04800000041723251, 1.055999994277954, 0.0, 0.0, 0.0, 0.0, 0.0, 1.6210013811567557E9, 2021-05-14 16:09:41.156
75.0, 67.35372924804688, -175.2143096923828, 98.30326843261719, 445.48004150390625, 0.03200000151991844, -0.04800000041723251, 1.055999994277954, 0.0, 0.0, 0.0, 0.0, 0.0, 1.6210013811575015E9, 2021-05-14 16:09:41.157
75.0, 53.991065979003906, -179.95651245117188, 96.56421661376953, 436.66510009765625, 0.03200000151991844, -0.04800000041723251, 1.055999994277954, 0.0, 0.0, 0.0, 0.0, 0.0, 1.6210013811575015E9, 2021-05-14 16:09:41.157
76.0, 54.110740661621094, -179.00283813476562, 102.10675048828125, 438.340576171875, 0.03200000151991844, -0.04800000041723251, 1.055999994277954, 0.0, 0.0, 0.0, 0.0, 0.0, 1.621001381169528E9, 2021-05-14 16:09:41.169
76.0, 53.10470962524414, -174.64210510253906, 98.65856170654297, 440.9323425292969, 0.03200000151991844, -0.04800000041723251, 1.055999994277954, 0.0, 0.0, 0.0, 0.0, 0.0, 1.621001381169528E9, 2021-05-14 16:09:41.169
77.0, 55.475807189941406, -174.2456817626953, 99.39532470703125, 441.908447265625, 0.03200000151991844, -0.04800000041723251, 1.055999994277954, 0.0, 0.0, 0.0, 0.0, 0.0, 1.621001381185292E9, 2021-05-14 16:09:41.185
77.0, 40.54238510131836, -176.8149871826172, 96.56047821044922, 430.3521728515625, 0.03200000151991844, -0.04800000041723251, 1.055999994277954, 0.0, 0.0, 0.0, 0.0, 0.0, 1.621001381185292E9, 2021-05-14 16:09:41.185
78.0, 36.84736251831055, -180.14349365234375, 90.92818450927734, 428.8935852050781, 0.03200000151991844, -0.04800000041723251, 1.055999994277954, 0.0, 0.0, 0.0, 0.0, 0.0, 1.6210013811860027E9, 2021-05-14 16:09:41.186
78.0, 47.210628509521484, -173.97640991210938, 94.10336303710938, 438.4639892578125, 0.03200000151991844, -0.04800000041723251, 1.055999994277954, 0.0, 0.0, 0.0, 0.0, 0.0, 1.6210013811860027E9, 2021-05-14 16:09:41.186
79.0, 51.39557647705078, -174.45510864257812, 92.42041015625, 435.6740417480469, 0.03200000151991844, -0.04800000041723251, 1.055999994277954, 0.0, 0.0, 0.0, 0.0, 0.0, 1.6210013811996326E9, 2021-05-14 16:09:41.199
79.0, 39.562530517578125, -183.75997924804688, 90.636474609375, 424.2972717285156, 0.03200000151991844, -0.04800000041723251, 1.055999994277954, 0.0, 0.0, 0.0, 0.0, 0.0, 1.6210013811996326E9, 2021-05-14 16:09:41.199
80.0, 53.35154342651367, -177.68264770507812, 95.34127044677734, 422.94342041015625, 0.03200000151991844, -0.04800000041723251, 1.055999994277954, 0.0, 0.0, 0.0, 0.0, 0.0, 1.6210013812153928E9, 2021-05-14 16:09:41.215
80.0, 59.80287170410156, -178.57647705078125, 92.64105987548828, 423.39593505859375, 0.03200000151991844, -0.04800000041723251, 1.055999994277954, 0.0, 0.0, 0.0, 0.0, 0.0, 1.6210013812153928E9, 2021-05-14 16:09:41.215
81.0, 57.28217697143555, -178.14639282226562, 94.24922180175781, 425.7595520019531, 0.03200000151991844, -0.04800000041723251, 1.055999994277954, 0.0, 0.0, 0.0, 0.0, 0.0, 1.6210013812160711E9, 2021-05-14 16:09:41.216
81.0, 53.76667022705078, -186.63597106933594, 81.1184310913086, 419.76824951171875, 0.03200000151991844, -0.04800000041723251, 1.055999994277954, 0.0, 0.0, 0.0, 0.0, 0.0, 1.6210013812160711E9, 2021-05-14 16:09:41.216
82.0, 54.690425872802734, -190.09912109375, 87.58097839355469, 425.464111328125, 0.03200000151991844, -0.04800000041723251, 1.055999994277954, 0.0, 0.0, 0.0, 0.0, 0.0, 1.6210013812295504E9, 2021-05-14 16:09:41.229
82.0, 65.4725570678711, -182.62680053710938, 92.55504608154297, 439.5411071777344, 0.03200000151991844, -0.04800000041723251, 1.055999994277954, 0.0, 0.0, 0.0, 0.0, 0.0, 1.6210013812295504E9, 2021-05-14 16:09:41.229
83.0, 66.29533386230469, -181.8302001953125, 102.50318145751953, 450.0352478027344, 0.03200000151991844, -0.04800000041723251, 1.055999994277954, 0.0, 0.0, 0.0, 0.0, 0.0, 1.621001381245947E9, 2021-05-14 16:09:41.245
83.0, 60.54711151123047, -187.42507934570312, 100.22557830810547, 439.372802734375, 0.03200000151991844, -0.04800000041723251, 1.055999994277954, 0.0, 0.0, 0.0, 0.0, 0.0, 1.621001381245947E9, 2021-05-14 16:09:41.245
84.0, 57.334537506103516, -193.37152099609375, 90.45321655273438, 434.8475036621094, 0.03200000151991844, -0.04800000041723251, 1.055999994277954, 0.0, 0.0, 0.0, 0.0, 0.0, 1.621001381246642E9, 2021-05-14 16:09:41.246
84.0, 55.38230895996094, -172.98533630371094, 103.24742126464844, 452.7317199707031, 0.03200000151991844, -0.04800000041723251, 1.055999994277954, 0.0, 0.0, 0.0, 0.0, 0.0, 1.621001381246642E9, 2021-05-14 16:09:41.246
85.0, 51.70598602294922, -183.6889190673828, 100.92120361328125, 454.3922424316406, 0.03200000151991844, -0.04800000041723251, 1.055999994277954, 0.0, 0.0, 0.0, 0.0, 0.0, 1.6210013812595391E9, 2021-05-14 16:09:41.259
85.0, 50.35588455200195, -188.28152465820312, 91.74722290039062, 448.9432067871094, 0.03200000151991844, -0.04800000041723251, 1.055999994277954, 0.0, 0.0, 0.0, 0.0, 0.0, 1.6210013812595391E9, 2021-05-14 16:09:41.259
86.0, 51.81818389892578, -186.26571655273438, 96.25006866455078, 451.0001525878906, 0.03200000151991844, -0.04800000041723251, 1.055999994277954, 0.0, 0.0, 0.0, 0.0, 0.0, 1.621001381275262E9, 2021-05-14 16:09:41.275
86.0, 61.36988830566406, -179.29827880859375, 104.67231750488281, 455.97796630859375, 0.03200000151991844, -0.04800000041723251, 1.055999994277954, 0.0, 0.0, 0.0, 0.0, 0.0, 1.621001381275262E9, 2021-05-14 16:09:41.275
87.0, 67.48088836669922, -178.3595733642578, 102.63033294677734, 453.1430969238281, 0.03200000151991844, -0.04800000041723251, 1.055999994277954, 0.0, 0.0, 0.0, 0.0, 0.0, 1.6210013812759175E9, 2021-05-14 16:09:41.275
87.0, 50.31474304199219, -180.17715454101562, 94.02482604980469, 431.45916748046875, 0.03200000151991844, -0.04800000041723251, 1.055999994277954, 0.0, 0.0, 0.0, 0.0, 0.0, 1.6210013812759175E9, 2021-05-14 16:09:41.275
88.0, 49.98937225341797, -181.00367736816406, 92.02397918701172, 423.949462890625, 0.03200000151991844, -0.04800000041723251, 1.055999994277954, 0.0, 0.0, 0.0, 0.0, 0.0, 1.621001381289564E9, 2021-05-14 16:09:41.289
88.0, 52.37916946411133, -172.6599578857422, 95.38988494873047, 424.4505920410156, 0.03200000151991844, -0.04800000041723251, 1.055999994277954, 0.0, 0.0, 0.0, 0.0, 0.0, 1.621001381289564E9, 2021-05-14 16:09:41.289
89.0, 62.24128341674805, -167.33059692382812, 98.1424560546875, 428.9870910644531, 0.03200000151991844, -0.04800000041723251, 1.055999994277954, 0.0, 0.0, 0.0, 0.0, 0.0, 1.621001381306049E9, 2021-05-14 16:09:41.306
89.0, 52.1734733581543, -173.61737060546875, 95.31134796142578, 425.62493896484375, 0.03200000151991844, -0.04800000041723251, 1.055999994277954, 0.0, 0.0, 0.0, 0.0, 0.0, 1.621001381306049E9, 2021-05-14 16:09:41.306
90.0, 56.87452697753906, -173.725830078125, 90.9169692993164, 424.5852355957031, 0.03200000151991844, -0.04800000041723251, 1.055999994277954, 0.0, 0.0, 0.0, 0.0, 0.0, 1.6210013813068478E9, 2021-05-14 16:09:41.306
90.0, 65.78296661376953, -176.87857055664062, 84.91816711425781, 426.7618408203125, 0.03200000151991844, -0.04800000041723251, 1.055999994277954, 0.0, 0.0, 0.0, 0.0, 0.0, 1.6210013813068478E9, 2021-05-14 16:09:41.306
91.0, 72.43999481201172, -183.55055236816406, 89.86605834960938, 439.0511779785156, 0.03200000151991844, -0.04800000041723251, 1.055999994277954, 0.0, 0.0, 0.0, 0.0, 0.0, 1.621001381319788E9, 2021-05-14 16:09:41.319
91.0, 63.22861862182617, -184.4219512939453, 83.94953155517578, 431.391845703125, 0.03200000151991844, -0.04800000041723251, 1.055999994277954, 0.0, 0.0, 0.0, 0.0, 0.0, 1.621001381319788E9, 2021-05-14 16:09:41.319
92.0, 57.49909210205078, -186.45645141601562, 82.39747619628906, 431.391845703125, 0.03200000151991844, -0.04800000041723251, 1.055999994277954, 0.0, 0.0, 0.0, 0.0, 0.0, 1.621001381335201E9, 2021-05-14 16:09:41.335
92.0, 72.87381744384766, -180.22952270507812, 92.51390838623047, 437.21112060546875, 0.03200000151991844, -0.04800000041723251, 1.055999994277954, 0.0, 0.0, 0.0, 0.0, 0.0, 1.621001381335201E9, 2021-05-14 16:09:41.335
93.0, 65.58101654052734, -181.70303344726562, 89.63043975830078, 439.5036926269531, 0.03200000151991844, -0.04800000041723251, 1.055999994277954, 0.0, 0.0, 0.0, 0.0, 0.0, 1.621001381335889E9, 2021-05-14 16:09:41.335
93.0, 62.21884536743164, -192.57867431640625, 89.55938720703125, 435.7862243652344, 0.03200000151991844, -0.04800000041723251, 1.055999994277954, 0.0, 0.0, 0.0, 0.0, 0.0, 1.621001381335889E9, 2021-05-14 16:09:41.335
94.0, 55.73386001586914, -200.61196899414062, 88.48603057861328, 440.0048522949219, 0.03200000151991844, -0.04800000041723251, 1.055999994277954, 0.0, 0.0, 0.0, 0.0, 0.0, 1.6210013813495076E9, 2021-05-14 16:09:41.349
94.0, 61.182891845703125, -193.42388916015625, 93.0262680053711, 452.5409851074219, 0.03200000151991844, -0.04800000041723251, 1.055999994277954, 0.0, 0.0, 0.0, 0.0, 0.0, 1.6210013813495076E9, 2021-05-14 16:09:41.349
95.0, 70.0090560913086, -190.60400390625, 98.39676666259766, 459.2503662109375, 0.03200000151991844, -0.04800000041723251, 1.055999994277954, 0.0, 0.0, 0.0, 0.0, 0.0, 1.6210013813652084E9, 2021-05-14 16:09:41.365
95.0, 63.07528305053711, -192.39915466308594, 97.92928314208984, 449.61639404296875, 0.03200000151991844, -0.04800000041723251, 1.055999994277954, 0.0, 0.0, 0.0, 0.0, 0.0, 1.6210013813652084E9, 2021-05-14 16:09:41.365
96.0, 64.00651550292969, -189.1566619873047, 92.8018798828125, 437.8880615234375, 0.03200000151991844, -0.04800000041723251, 1.055999994277954, 0.0, 0.0, 0.0, 0.0, 0.0, 1.6210013813659427E9, 2021-05-14 16:09:41.365
96.0, 70.13621520996094, -193.4425811767578, 96.13412475585938, 444.1598815917969, 0.03200000151991844, -0.04800000041723251, 1.055999994277954, 0.0, 0.0, 0.0, 0.0, 0.0, 1.6210013813659427E9, 2021-05-14 16:09:41.365
97.0, 78.60708618164062, -188.96592712402344, 100.73420715332031, 449.34710693359375, 0.03200000151991844, -0.04800000041723251, 1.055999994277954, 0.0, 0.0, 0.0, 0.0, 0.0, 1.6210013813795536E9, 2021-05-14 16:09:41.379
97.0, 66.78152465820312, -192.60110473632812, 97.17008209228516, 439.5897216796875, 0.03200000151991844, -0.04800000041723251, 1.055999994277954, 0.0, 0.0, 0.0, 0.0, 0.0, 1.6210013813795536E9, 2021-05-14 16:09:41.379
98.0, 64.06261444091797, -187.24183654785156, 100.44248962402344, 446.2579650878906, 0.03200000151991844, -0.04800000041723251, 1.055999994277954, 0.0, 0.0, 0.0, 0.0, 0.0, 1.6210013813951852E9, 2021-05-14 16:09:41.395
98.0, 60.21051788330078, -180.1659393310547, 99.14849090576172, 450.3606262207031, 0.03200000151991844, -0.04800000041723251, 1.055999994277954, 0.0, 0.0, 0.0, 0.0, 0.0, 1.6210013813951852E9, 2021-05-14 16:09:41.395
99.0, 57.226078033447266, -176.07449340820312, 99.84410858154297, 445.27435302734375, 0.03200000151991844, -0.04800000041723251, 1.055999994277954, 0.0, 0.0, 0.0, 0.0, 0.0, 1.6210013813959563E9, 2021-05-14 16:09:41.395
99.0, 47.65567398071289, -186.76312255859375, 89.62296295166016, 427.42755126953125, 0.03200000151991844, -0.04800000041723251, 1.055999994277954, 0.0, 0.0, 0.0, 0.0, 0.0, 1.6210013813959563E9, 2021-05-14 16:09:41.395
100.0, 55.8871955871582, -182.32386779785156, 91.35453796386719, 421.8887634277344, 0.03200000151991844, -0.04800000041723251, 1.055999994277954, 0.0, 0.0, 0.0, 0.0, 0.0, 1.621001381426577E9, 2021-05-14 16:09:41.426
100.0, 72.64568328857422, -175.57708740234375, 97.19999694824219, 426.3018493652344, 0.03200000151991844, -0.04800000041723251, 1.055999994277954, 0.0, 0.0, 0.0, 0.0, 0.0, 1.621001381426577E9, 2021-05-14 16:09:41.426
0.0, 71.21891784667969, -174.41958618164062, 90.96932983398438, 413.6759338378906, 0.03200000151991844, -0.04800000041723251, 1.055999994277954, 0.0, 0.0, 0.0, 0.0, 0.0, 1.6210013814272947E9, 2021-05-14 16:09:41.427
1.0, 54.26968765258789, -181.97418212890625, 85.9167251586914, 409.4835205078125, 0.03200000151991844, -0.04800000041723251, 1.055999994277954, 0.0, 0.0, 0.0, 0.0, 0.0, 1.6210013814280305E9, 2021-05-14 16:09:41.428
1.0, 58.33121871948242, -180.19398498535156, 90.78607177734375, 415.2429504394531, 0.03200000151991844, -0.04800000041723251, 1.055999994277954, 0.0, 0.0, 0.0, 0.0, 0.0, 1.6210013814280305E9, 2021-05-14 16:09:41.428
2.0, 62.87519836425781, -178.43997192382812, 94.29409790039062, 432.3829345703125, 0.03200000151991844, -0.04800000041723251, 1.055999994277954, 0.0, 0.0, 0.0, 0.0, 0.0, 1.6210013814287903E9, 2021-05-14 16:09:41.428
2.0, 67.94276428222656, -185.91603088378906, 89.20783233642578, 438.2807312011719, 0.03200000151991844, -0.04800000041723251, 1.055999994277954, 0.0, 0.0, 0.0, 0.0, 0.0, 1.6210013814287903E9, 2021-05-14 16:09:41.428
3.0, 54.576358795166016, -194.43927001953125, 86.94893646240234, 439.3316650390625, 0.03200000151991844, -0.04800000041723251, 1.055999994277954, 0.0, 0.0, 0.0, 0.0, 0.0, 1.6210013814394982E9, 2021-05-14 16:09:41.439
3.0, 52.190303802490234, -201.60491943359375, 84.30108642578125, 441.9495849609375, 0.03200000151991844, -0.04800000041723251, 1.055999994277954, 0.0, 0.0, 0.0, 0.0, 0.0, 1.6210013814394982E9, 2021-05-14 16:09:41.439
4.0, 57.388763427734375, -193.4893341064453, 85.09020233154297, 451.0450134277344, 0.03200000151991844, -0.04800000041723251, 1.055999994277954, 0.0, 0.0, 0.0, 0.0, 0.0, 1.621001381470855E9, 2021-05-14 16:09:41.470
4.0, 59.04928207397461, -191.2827911376953, 84.04676818847656, 449.4480895996094, 0.03200000151991844, -0.04800000041723251, 1.055999994277954, 0.0, 0.0, 0.0, 0.0, 0.0, 1.621001381470855E9, 2021-05-14 16:09:41.470
5.0, 47.653804779052734, -189.50259399414062, 80.0188980102539, 439.0287170410156, 0.03200000151991844, -0.04800000041723251, 1.055999994277954, 0.0, 0.0, 0.0, 0.0, 0.0, 1.6210013814715793E9, 2021-05-14 16:09:41.471
5.0, 46.89460372924805, -186.80613708496094, 82.88365936279297, 438.5762023925781, 0.03200000151991844, -0.04800000041723251, 1.055999994277954, 0.0, 0.0, 0.0, 0.0, 0.0, 1.6210013814715793E9, 2021-05-14 16:09:41.471
6.0, 51.36004638671875, -176.2783203125, 91.62380981445312, 442.2712097167969, 0.03200000151991844, -0.04800000041723251, 1.055999994277954, 0.0, 0.0, 0.0, 0.0, 0.0, 1.6210013814723094E9, 2021-05-14 16:09:41.472
6.0, 57.80763244628906, -176.525146484375, 104.44044494628906, 447.2415466308594, 0.03200000151991844, -0.04800000041723251, 1.055999994277954, 0.0, 0.0, 0.0, 0.0, 0.0, 1.6210013814723094E9, 2021-05-14 16:09:41.472
7.0, 52.85600662231445, -186.60043334960938, 96.89332580566406, 439.73931884765625, 0.03200000151991844, -0.04800000041723251, 1.055999994277954, 0.0, 0.0, 0.0, 0.0, 0.0, 1.6210013814845428E9, 2021-05-14 16:09:41.484
7.0, 52.470794677734375, -186.42466735839844, 91.22737884521484, 435.05694580078125, 0.03200000151991844, -0.04800000041723251, 1.055999994277954, 0.0, 0.0, 0.0, 0.0, 0.0, 1.6210013814845428E9, 2021-05-14 16:09:41.484
8.0, 67.35559844970703, -179.43104553222656, 100.74168395996094, 447.342529296875, 0.03200000151991844, -0.04800000041723251, 1.055999994277954, 0.0, 0.0, 0.0, 0.0, 0.0, 1.6210013815002556E9, 2021-05-14 16:09:41.500
8.0, 66.77591705322266, -176.83181762695312, 99.65711212158203, 450.23345947265625, 0.03200000151991844, -0.04800000041723251, 1.055999994277954, 0.0, 0.0, 0.0, 0.0, 0.0, 1.6210013815002556E9, 2021-05-14 16:09:41.500
9.0, 55.870365142822266, -186.9445037841797, 89.88475799560547, 429.79864501953125, 0.03200000151991844, -0.04800000041723251, 1.055999994277954, 0.0, 0.0, 0.0, 0.0, 0.0, 1.6210013815009785E9, 2021-05-14 16:09:41.500
9.0, 57.639339447021484, -178.6942901611328, 93.60969543457031, 422.7489318847656, 0.03200000151991844, -0.04800000041723251, 1.055999994277954, 0.0, 0.0, 0.0, 0.0, 0.0, 1.6210013815009785E9, 2021-05-14 16:09:41.500
10.0, 59.5205078125, -163.1774444580078, 101.41112518310547, 425.4416809082031, 0.03200000151991844, -0.04800000041723251, 1.055999994277954, 0.0, 0.0, 0.0, 0.0, 0.0, 1.6210013815145748E9, 2021-05-14 16:09:41.514
10.0, 56.958675384521484, -169.43429565429688, 97.29723358154297, 411.7274475097656, 0.03200000151991844, -0.04800000041723251, 1.055999994277954, 0.0, 0.0, 0.0, 0.0, 0.0, 1.6210013815145748E9, 2021-05-14 16:09:41.514
11.0, 55.645973205566406, -173.28639221191406, 94.6867904663086, 406.22607421875, 0.03200000151991844, -0.04800000041723251, 1.055999994277954, 0.0, 0.0, 0.0, 0.0, 0.0, 1.62100138153018E9, 2021-05-14 16:09:41.530
11.0, 53.12527847290039, -179.13560485839844, 89.36865234375, 404.101806640625, 0.03200000151991844, -0.04800000041723251, 1.055999994277954, 0.0, 0.0, 0.0, 0.0, 0.0, 1.62100138153018E9, 2021-05-14 16:09:41.530
12.0, 71.79859924316406, -175.2199249267578, 94.51849365234375, 426.4103088378906, 0.03200000151991844, -0.04800000041723251, 1.055999994277954, 0.0, 0.0, 0.0, 0.0, 0.0, 1.6210013815309248E9, 2021-05-14 16:09:41.530
12.0, 65.5641860961914, -180.8447265625, 92.77195739746094, 440.5097351074219, 0.03200000151991844, -0.04800000041723251, 1.055999994277954, 0.0, 0.0, 0.0, 0.0, 0.0, 1.6210013815309248E9, 2021-05-14 16:09:41.530
13.0, 53.33845138549805, -196.31295776367188, 84.4693832397461, 436.1901550292969, 0.03200000151991844, -0.04800000041723251, 1.055999994277954, 0.0, 0.0, 0.0, 0.0, 0.0, 1.6210013815446572E9, 2021-05-14 16:09:41.544
13.0, 51.45354461669922, -193.91941833496094, 80.3143539428711, 437.01666259765625, 0.03200000151991844, -0.04800000041723251, 1.055999994277954, 0.0, 0.0, 0.0, 0.0, 0.0, 1.6210013815446572E9, 2021-05-14 16:09:41.544
14.0, 59.116600036621094, -185.28025817871094, 91.64998626708984, 448.352294921875, 0.03200000151991844, -0.04800000041723251, 1.055999994277954, 0.0, 0.0, 0.0, 0.0, 0.0, 1.621001381560277E9, 2021-05-14 16:09:41.560
14.0, 55.60857391357422, -184.18820190429688, 86.34680938720703, 446.59454345703125, 0.03200000151991844, -0.04800000041723251, 1.055999994277954, 0.0, 0.0, 0.0, 0.0, 0.0, 1.621001381560277E9, 2021-05-14 16:09:41.560
15.0, 42.8293342590332, -190.07855224609375, 86.04761505126953, 435.0943603515625, 0.03200000151991844, -0.04800000041723251, 1.055999994277954, 0.0, 0.0, 0.0, 0.0, 0.0, 1.6210013815610228E9, 2021-05-14 16:09:41.561
15.0, 48.78699493408203, -192.58053588867188, 83.7513198852539, 429.9145812988281, 0.03200000151991844, -0.04800000041723251, 1.055999994277954, 0.0, 0.0, 0.0, 0.0, 0.0, 1.6210013815610228E9, 2021-05-14 16:09:41.561
16.0, 59.31481170654297, -182.89793395996094, 88.04098510742188, 444.2421569824219, 0.03200000151991844, -0.04800000041723251, 1.055999994277954, 0.0, 0.0, 0.0, 0.0, 0.0, 1.6210013815910356E9, 2021-05-14 16:09:41.591
16.0, 58.0245475769043, -182.10507202148438, 84.19636535644531, 442.7873229980469, 0.03200000151991844, -0.04800000041723251, 1.055999994277954, 0.0, 0.0, 0.0, 0.0, 0.0, 1.6210013815910356E9, 2021-05-14 16:09:41.591
17.0, 46.10174560546875, -190.258056640625, 86.59364318847656, 438.2209167480469, 0.03200000151991844, -0.04800000041723251, 1.055999994277954, 0.0, 0.0, 0.0, 0.0, 0.0, 1.621001381591724E9, 2021-05-14 16:09:41.591
17.0, 47.61640548706055, -190.58717346191406, 83.82238006591797, 437.2073974609375, 0.03200000151991844, -0.04800000041723251, 1.055999994277954, 0.0, 0.0, 0.0, 0.0, 0.0, 1.621001381591724E9, 2021-05-14 16:09:41.591
18.0, 64.04578399658203, -181.30099487304688, 90.09793090820312, 440.640625, 0.03200000151991844, -0.04800000041723251, 1.055999994277954, 0.0, 0.0, 0.0, 0.0, 0.0, 1.621001381592441E9, 2021-05-14 16:09:41.592
18.0, 62.90885543823242, -185.29147338867188, 93.6470947265625, 443.258544921875, 0.03200000151991844, -0.04800000041723251, 1.055999994277954, 0.0, 0.0, 0.0, 0.0, 0.0, 1.621001381592441E9, 2021-05-14 16:09:41.592
19.0, 56.046142578125, -182.92037963867188, 85.17622375488281, 420.4862976074219, 0.03200000151991844, -0.04800000041723251, 1.055999994277954, 0.0, 0.0, 0.0, 0.0, 0.0, 1.6210013816045065E9, 2021-05-14 16:09:41.604
19.0, 59.071720123291016, -181.8245849609375, 90.44573974609375, 416.52947998046875, 0.03200000151991844, -0.04800000041723251, 1.055999994277954, 0.0, 0.0, 0.0, 0.0, 0.0, 1.6210013816045065E9, 2021-05-14 16:09:41.604
20.0, 67.56129455566406, -172.80393981933594, 92.51764678955078, 415.38507080078125, 0.03200000151991844, -0.04800000041723251, 1.055999994277954, 0.0, 0.0, 0.0, 0.0, 0.0, 1.6210013816203156E9, 2021-05-14 16:09:41.620
20.0, 65.21263885498047, -174.52056884765625, 92.03145599365234, 411.9855041503906, 0.03200000151991844, -0.04800000041723251, 1.055999994277954, 0.0, 0.0, 0.0, 0.0, 0.0, 1.6210013816203156E9, 2021-05-14 16:09:41.620
21.0, 51.15435028076172, -176.67848205566406, 90.5130615234375, 404.0569152832031, 0.03200000151991844, -0.04800000041723251, 1.055999994277954, 0.0, 0.0, 0.0, 0.0, 0.0, 1.62100138162108E9, 2021-05-14 16:09:41.621
21.0, 58.76504898071289, -177.86402893066406, 93.56108093261719, 418.350830078125, 0.03200000151991844, -0.04800000041723251, 1.055999994277954, 0.0, 0.0, 0.0, 0.0, 0.0, 1.62100138162108E9, 2021-05-14 16:09:41.621
22.0, 56.109718322753906, -177.86402893066406, 97.51041412353516, 430.6326599121094, 0.03200000151991844, -0.04800000041723251, 1.055999994277954, 0.0, 0.0, 0.0, 0.0, 0.0, 1.6210013816345627E9, 2021-05-14 16:09:41.634
22.0, 54.18741226196289, -186.0581512451172, 97.27479553222656, 430.99542236328125, 0.03200000151991844, -0.04800000041723251, 1.055999994277954, 0.0, 0.0, 0.0, 0.0, 0.0, 1.6210013816345627E9, 2021-05-14 16:09:41.634
23.0, 52.45583724975586, -187.51670837402344, 93.48253631591797, 428.5233459472656, 0.03200000151991844, -0.04800000041723251, 1.055999994277954, 0.0, 0.0, 0.0, 0.0, 0.0, 1.621001381650262E9, 2021-05-14 16:09:41.650
23.0, 53.630165100097656, -189.4577178955078, 83.38107299804688, 425.7184143066406, 0.03200000151991844, -0.04800000041723251, 1.055999994277954, 0.0, 0.0, 0.0, 0.0, 0.0, 1.621001381650262E9, 2021-05-14 16:09:41.650
24.0, 59.85335922241211, -185.22789001464844, 90.68135070800781, 439.0623779296875, 0.03200000151991844, -0.04800000041723251, 1.055999994277954, 0.0, 0.0, 0.0, 0.0, 0.0, 1.6210013816509728E9, 2021-05-14 16:09:41.650
24.0, 55.84044647216797, -187.31475830078125, 88.95726013183594, 437.02789306640625, 0.03200000151991844, -0.04800000041723251, 1.055999994277954, 0.0, 0.0, 0.0, 0.0, 0.0, 1.6210013816509728E9, 2021-05-14 16:09:41.650
25.0, 48.29332733154297, -199.85838317871094, 83.13797760009766, 433.3814697265625, 0.03200000151991844, -0.04800000041723251, 1.055999994277954, 0.0, 0.0, 0.0, 0.0, 0.0, 1.6210013816645856E9, 2021-05-14 16:09:41.664
25.0, 63.552120208740234, -192.83859252929688, 92.8841552734375, 438.35552978515625, 0.03200000151991844, -0.04800000041723251, 1.055999994277954, 0.0, 0.0, 0.0, 0.0, 0.0, 1.6210013816645856E9, 2021-05-14 16:09:41.664
26.0, 60.52280044555664, -189.80926513671875, 93.98368835449219, 444.4927062988281, 0.03200000151991844, -0.04800000041723251, 1.055999994277954, 0.0, 0.0, 0.0, 0.0, 0.0, 1.6210013816802633E9, 2021-05-14 16:09:41.680
26.0, 60.70979690551758, -192.63290405273438, 88.86750030517578, 435.73388671875, 0.03200000151991844, -0.04800000041723251, 1.055999994277954, 0.0, 0.0, 0.0, 0.0, 0.0, 1.6210013816802633E9, 2021-05-14 16:09:41.680
27.0, 56.19947814941406, -193.13404846191406, 90.60281372070312, 436.6912841796875, 0.03200000151991844, -0.04800000041723251, 1.055999994277954, 0.0, 0.0, 0.0, 0.0, 0.0, 1.621001381680968E9, 2021-05-14 16:09:41.680
27.0, 54.69229507446289, -188.83689880371094, 93.95750427246094, 432.57366943359375, 0.03200000151991844, -0.04800000041723251, 1.055999994277954, 0.0, 0.0, 0.0, 0.0, 0.0, 1.621001381680968E9, 2021-05-14 16:09:41.680
28.0, 60.56768035888672, -179.30389404296875, 100.45745086669922, 440.1170349121094, 0.03200000151991844, -0.04800000041723251, 1.055999994277954, 0.0, 0.0, 0.0, 0.0, 0.0, 1.6210013816945505E9, 2021-05-14 16:09:41.694
28.0, 59.62522506713867, -180.9008331298828, 96.11542510986328, 434.60443115234375, 0.03200000151991844, -0.04800000041723251, 1.055999994277954, 0.0, 0.0, 0.0, 0.0, 0.0, 1.6210013816945505E9, 2021-05-14 16:09:41.694
29.0, 43.77927017211914, -188.46664428710938, 90.34476470947266, 427.2069091796875, 0.03200000151991844, -0.04800000041723251, 1.055999994277954, 0.0, 0.0, 0.0, 0.0, 0.0, 1.6210013817274203E9, 2021-05-14 16:09:41.727
29.0, 57.03721237182617, -182.55386352539062, 98.99889373779297, 430.62890625, 0.03200000151991844, -0.04800000041723251, 1.055999994277954, 0.0, 0.0, 0.0, 0.0, 0.0, 1.6210013817274203E9, 2021-05-14 16:09:41.727
30.0, 58.929603576660156, -183.36541748046875, 94.20059967041016, 428.5382995605469, 0.03200000151991844, -0.04800000041723251, 1.055999994277954, 0.0, 0.0, 0.0, 0.0, 0.0, 1.621001381728071E9, 2021-05-14 16:09:41.728
30.0, 60.84443283081055, -180.32489013671875, 88.265380859375, 418.3583068847656, 0.03200000151991844, -0.04800000041723251, 1.055999994277954, 0.0, 0.0, 0.0, 0.0, 0.0, 1.621001381728071E9, 2021-05-14 16:09:41.728
31.0, 55.23832321166992, -180.23512268066406, 89.0470199584961, 415.8525695800781, 0.03200000151991844, -0.04800000041723251, 1.055999994277954, 0.0, 0.0, 0.0, 0.0, 0.0, 1.621001381728804E9, 2021-05-14 16:09:41.728
31.0, 53.26739501953125, -183.80673217773438, 87.76422882080078, 415.6917419433594, 0.03200000151991844, -0.04800000041723251, 1.055999994277954, 0.0, 0.0, 0.0, 0.0, 0.0, 1.621001381728804E9, 2021-05-14 16:09:41.728
32.0, 52.579254150390625, -179.3599853515625, 85.79330444335938, 420.8453369140625, 0.03200000151991844, -0.04800000041723251, 1.055999994277954, 0.0, 0.0, 0.0, 0.0, 0.0, 1.6210013817295327E9, 2021-05-14 16:09:41.729
32.0, 42.4665641784668, -183.6907958984375, 77.21771240234375, 426.896484375, 0.03200000151991844, -0.04800000041723251, 1.055999994277954, 0.0, 0.0, 0.0, 0.0, 0.0, 1.6210013817295327E9, 2021-05-14 16:09:41.729
33.0, 42.687217712402344, -193.07420349121094, 86.82177734375, 426.2083435058594, 0.03200000151991844, -0.04800000041723251, 1.055999994277954, 0.0, 0.0, 0.0, 0.0, 0.0, 1.6210013817397256E9, 2021-05-14 16:09:41.739
33.0, 44.05976104736328, -195.9875946044922, 84.69377136230469, 435.0868835449219, 0.03200000151991844, -0.04800000041723251, 1.055999994277954, 0.0, 0.0, 0.0, 0.0, 0.0, 1.6210013817397256E9, 2021-05-14 16:09:41.739
34.0, 62.1907958984375, -190.86766052246094, 86.13363647460938, 447.2939147949219, 0.03200000151991844, -0.04800000041723251, 1.055999994277954, 0.0, 0.0, 0.0, 0.0, 0.0, 1.6210013817545722E9, 2021-05-14 16:09:41.754
34.0, 67.64356994628906, -192.45712280273438, 84.75735473632812, 437.7309875488281, 0.03200000151991844, -0.04800000041723251, 1.055999994277954, 0.0, 0.0, 0.0, 0.0, 0.0, 1.6210013817545722E9, 2021-05-14 16:09:41.754
35.0, 59.75612258911133, -193.20510864257812, 85.04906463623047, 433.43756103515625, 0.03200000151991844, -0.04800000041723251, 1.055999994277954, 0.0, 0.0, 0.0, 0.0, 0.0, 1.621001381770386E9, 2021-05-14 16:09:41.770
35.0, 56.31541442871094, -190.06732177734375, 88.29155731201172, 431.74713134765625, 0.03200000151991844, -0.04800000041723251, 1.055999994277954, 0.0, 0.0, 0.0, 0.0, 0.0, 1.621001381770386E9, 2021-05-14 16:09:41.770
36.0, 57.01103591918945, -188.9042205810547, 86.36924743652344, 435.8086853027344, 0.03200000151991844, -0.04800000041723251, 1.055999994277954, 0.0, 0.0, 0.0, 0.0, 0.0, 1.621001381771138E9, 2021-05-14 16:09:41.771
36.0, 56.53232955932617, -186.00205993652344, 90.18020629882812, 443.3931884765625, 0.03200000151991844, -0.04800000041723251, 1.055999994277954, 0.0, 0.0, 0.0, 0.0, 0.0, 1.621001381771138E9, 2021-05-14 16:09:41.771
37.0, 45.22660827636719, -187.01556396484375, 89.791259765625, 441.8074645996094, 0.03200000151991844, -0.04800000041723251, 1.055999994277954, 0.0, 0.0, 0.0, 0.0, 0.0, 1.6210013817845402E9, 2021-05-14 16:09:41.784
37.0, 43.77552795410156, -186.9183349609375, 89.4097900390625, 439.3279113769531, 0.03200000151991844, -0.04800000041723251, 1.055999994277954, 0.0, 0.0, 0.0, 0.0, 0.0, 1.6210013817845402E9, 2021-05-14 16:09:41.784
38.0, 42.346885681152344, -183.20086669921875, 84.61149597167969, 442.6826171875, 0.03200000151991844, -0.04800000041723251, 1.055999994277954, 0.0, 0.0, 0.0, 0.0, 0.0, 1.6210013818003109E9, 2021-05-14 16:09:41.800
38.0, 45.25278854370117, -185.340087890625, 85.79330444335938, 445.7156677246094, 0.03200000151991844, -0.04800000041723251, 1.055999994277954, 0.0, 0.0, 0.0, 0.0, 0.0, 1.6210013818003109E9, 2021-05-14 16:09:41.800
39.0, 41.123939514160156, -186.67897033691406, 83.35115051269531, 431.58258056640625, 0.03200000151991844, -0.04800000041723251, 1.055999994277954, 0.0, 0.0, 0.0, 0.0, 0.0, 1.6210013818010368E9, 2021-05-14 16:09:41.801
39.0, 52.97194290161133, -179.072021484375, 98.5014877319336, 441.78875732421875, 0.03200000151991844, -0.04800000041723251, 1.055999994277954, 0.0, 0.0, 0.0, 0.0, 0.0, 1.6210013818010368E9, 2021-05-14 16:09:41.801
40.0, 66.95169067382812, -176.45034790039062, 103.09782409667969, 439.97491455078125, 0.03200000151991844, -0.04800000041723251, 1.055999994277954, 0.0, 0.0, 0.0, 0.0, 0.0, 1.6210013818145704E9, 2021-05-14 16:09:41.814
40.0, 75.34776306152344, -176.0240020751953, 105.6895751953125, 432.072509765625, 0.03200000151991844, -0.04800000041723251, 1.055999994277954, 0.0, 0.0, 0.0, 0.0, 0.0, 1.6210013818145704E9, 2021-05-14 16:09:41.814
41.0, 66.11395263671875, -183.0251007080078, 100.61078643798828, 425.6697998046875, 0.03200000151991844, -0.04800000041723251, 1.055999994277954, 0.0, 0.0, 0.0, 0.0, 0.0, 1.6210013818465853E9, 2021-05-14 16:09:41.846
41.0, 61.23338317871094, -179.31884765625, 99.21206665039062, 424.3197021484375, 0.03200000151991844, -0.04800000041723251, 1.055999994277954, 0.0, 0.0, 0.0, 0.0, 0.0, 1.6210013818465853E9, 2021-05-14 16:09:41.846
42.0, 55.773128509521484, -187.7186737060547, 95.50208282470703, 422.3786926269531, 0.03200000151991844, -0.04800000041723251, 1.055999994277954, 0.0, 0.0, 0.0, 0.0, 0.0, 1.62100138184733E9, 2021-05-14 16:09:41.847
42.0, 53.56284713745117, -183.8927459716797, 92.73829650878906, 427.483642578125, 0.03200000151991844, -0.04800000041723251, 1.055999994277954, 0.0, 0.0, 0.0, 0.0, 0.0, 1.62100138184733E9, 2021-05-14 16:09:41.847
43.0, 41.62134552001953, -187.89817810058594, 86.7170639038086, 424.48052978515625, 0.03200000151991844, -0.04800000041723251, 1.055999994277954, 0.0, 0.0, 0.0, 0.0, 0.0, 1.6210013818480825E9, 2021-05-14 16:09:41.848
43.0, 43.80918884277344, -195.0900115966797, 85.63249206542969, 422.3936462402344, 0.03200000151991844, -0.04800000041723251, 1.055999994277954, 0.0, 0.0, 0.0, 0.0, 0.0, 1.6210013818480825E9, 2021-05-14 16:09:41.848
44.0, 59.071720123291016, -187.9430694580078, 94.91866302490234, 433.74798583984375, 0.03200000151991844, -0.04800000041723251, 1.055999994277954, 0.0, 0.0, 0.0, 0.0, 0.0, 1.621001381848807E9, 2021-05-14 16:09:41.848
44.0, 65.5828857421875, -186.88467407226562, 91.39567565917969, 435.7750244140625, 0.03200000151991844, -0.04800000041723251, 1.055999994277954, 0.0, 0.0, 0.0, 0.0, 0.0, 1.621001381848807E9, 2021-05-14 16:09:41.848
45.0, 66.4879379272461, -188.1861572265625, 97.18504333496094, 439.372802734375, 0.03200000151991844, -0.04800000041723251, 1.055999994277954, 0.0, 0.0, 0.0, 0.0, 0.0, 1.6210013818753955E9, 2021-05-14 16:09:41.875
45.0, 61.32313919067383, -193.99795532226562, 95.50582885742188, 433.7554626464844, 0.03200000151991844, -0.04800000041723251, 1.055999994277954, 0.0, 0.0, 0.0, 0.0, 0.0, 1.6210013818753955E9, 2021-05-14 16:09:41.875
46.0, 56.75672149658203, -190.45252990722656, 96.76617431640625, 441.97576904296875, 0.03200000151991844, -0.04800000041723251, 1.055999994277954, 0.0, 0.0, 0.0, 0.0, 0.0, 1.6210013818761551E9, 2021-05-14 16:09:41.876
46.0, 64.30384063720703, -185.340087890625, 101.5569839477539, 449.5827331542969, 0.03200000151991844, -0.04800000041723251, 1.055999994277954, 0.0, 0.0, 0.0, 0.0, 0.0, 1.6210013818761551E9, 2021-05-14 16:09:41.876
47.0, 56.0573616027832, -198.24649047851562, 91.8818588256836, 439.6794738769531, 0.03200000151991844, -0.04800000041723251, 1.055999994277954, 0.0, 0.0, 0.0, 0.0, 0.0, 1.6210013818902903E9, 2021-05-14 16:09:41.890
47.0, 57.3027458190918, -196.98988342285156, 94.66434478759766, 444.6684875488281, 0.03200000151991844, -0.04800000041723251, 1.055999994277954, 0.0, 0.0, 0.0, 0.0, 0.0, 1.6210013818902903E9, 2021-05-14 16:09:41.890
48.0, 66.3682632446289, -192.6665496826172, 100.02362060546875, 450.73834228515625, 0.03200000151991844, -0.04800000041723251, 1.055999994277954, 0.0, 0.0, 0.0, 0.0, 0.0, 1.621001381891032E9, 2021-05-14 16:09:41.891
48.0, 63.18935012817383, -187.5915069580078, 99.45890045166016, 446.3739013671875, 0.03200000151991844, -0.04800000041723251, 1.055999994277954, 0.0, 0.0, 0.0, 0.0, 0.0, 1.621001381891032E9, 2021-05-14 16:09:41.891
49.0, 50.24929428100586, -196.98988342285156, 96.83722686767578, 435.311279296875, 0.03200000151991844, -0.04800000041723251, 1.055999994277954, 0.0, 0.0, 0.0, 0.0, 0.0, 1.6210013819045987E9, 2021-05-14 16:09:41.904
49.0, 59.5205078125, -185.2952117919922, 102.03569030761719, 435.5393981933594, 0.03200000151991844, -0.04800000041723251, 1.055999994277954, 0.0, 0.0, 0.0, 0.0, 0.0, 1.6210013819045987E9, 2021-05-14 16:09:41.904
50.0, 64.5394515991211, -177.5311737060547, 108.91336822509766, 437.49163818359375, 0.03200000151991844, -0.04800000041723251, 1.055999994277954, 0.0, 0.0, 0.0, 0.0, 0.0, 1.6210013819202511E9, 2021-05-14 16:09:41.920
50.0, 60.986549377441406, -177.77053833007812, 104.2235336303711, 428.1418762207031, 0.03200000151991844, -0.04800000041723251, 1.055999994277954, 0.0, 0.0, 0.0, 0.0, 0.0, 1.6210013819202511E9, 2021-05-14 16:09:41.920
51.0, 57.09705352783203, -183.75437927246094, 96.7811279296875, 416.0732116699219, 0.03200000151991844, -0.04800000041723251, 1.055999994277954, 0.0, 0.0, 0.0, 0.0, 0.0, 1.6210013819210415E9, 2021-05-14 16:09:41.921
51.0, 57.88243103027344, -179.81251525878906, 99.2457275390625, 423.54180908203125, 0.03200000151991844, -0.04800000041723251, 1.055999994277954, 0.0, 0.0, 0.0, 0.0, 0.0, 1.6210013819210415E9, 2021-05-14 16:09:41.921
52.0, 63.37260437011719, -176.20352172851562, 102.73505401611328, 427.08721923828125, 0.03200000151991844, -0.04800000041723251, 1.055999994277954, 0.0, 0.0, 0.0, 0.0, 0.0, 1.6210013819346335E9, 2021-05-14 16:09:41.934
52.0, 55.3355598449707, -177.6321563720703, 99.18962860107422, 433.1795349121094, 0.03200000151991844, -0.04800000041723251, 1.055999994277954, 0.0, 0.0, 0.0, 0.0, 0.0, 1.6210013819346335E9, 2021-05-14 16:09:41.934
53.0, 52.295021057128906, -187.58029174804688, 96.30990600585938, 434.8475036621094, 0.03200000151991844, -0.04800000041723251, 1.055999994277954, 0.0, 0.0, 0.0, 0.0, 0.0, 1.6210013819502308E9, 2021-05-14 16:09:41.950
53.0, 52.03322982788086, -186.2227020263672, 94.03978729248047, 439.14093017578125, 0.03200000151991844, -0.04800000041723251, 1.055999994277954, 0.0, 0.0, 0.0, 0.0, 0.0, 1.6210013819502308E9, 2021-05-14 16:09:41.950
54.0, 57.50844192504883, -186.0656280517578, 102.40593719482422, 452.754150390625, 0.03200000151991844, -0.04800000041723251, 1.055999994277954, 0.0, 0.0, 0.0, 0.0, 0.0, 1.6210013819509509E9, 2021-05-14 16:09:41.950
54.0, 63.649356842041016, -189.1996612548828, 100.0311050415039, 453.81256103515625, 0.03200000151991844, -0.04800000041723251, 1.055999994277954, 0.0, 0.0, 0.0, 0.0, 0.0, 1.6210013819509509E9, 2021-05-14 16:09:41.950
55.0, 55.20466232299805, -196.537353515625, 93.97246551513672, 448.7561950683594, 0.03200000151991844, -0.04800000041723251, 1.055999994277954, 0.0, 0.0, 0.0, 0.0, 0.0, 1.6210013819646652E9, 2021-05-14 16:09:41.964
55.0, 58.94830322265625, -192.2551727294922, 97.15512084960938, 447.9595947265625, 0.03200000151991844, -0.04800000041723251, 1.055999994277954, 0.0, 0.0, 0.0, 0.0, 0.0, 1.6210013819646652E9, 2021-05-14 16:09:41.964
56.0, 63.888710021972656, -190.83773803710938, 93.10481262207031, 448.5093688964844, 0.03200000151991844, -0.04800000041723251, 1.055999994277954, 0.0, 0.0, 0.0, 0.0, 0.0, 1.6210013819802113E9, 2021-05-14 16:09:41.980
56.0, 67.09754180908203, -181.79466247558594, 100.43501281738281, 448.0456237792969, 0.03200000151991844, -0.04800000041723251, 1.055999994277954, 0.0, 0.0, 0.0, 0.0, 0.0, 1.6210013819802113E9, 2021-05-14 16:09:41.980
57.0, 59.8907585144043, -188.0216064453125, 94.69426727294922, 440.5920104980469, 0.03200000151991844, -0.04800000041723251, 1.055999994277954, 0.0, 0.0, 0.0, 0.0, 0.0, 1.62100138198092E9, 2021-05-14 16:09:41.980
57.0, 49.602294921875, -190.48245239257812, 94.72044372558594, 442.1739807128906, 0.03200000151991844, -0.04800000041723251, 1.055999994277954, 0.0, 0.0, 0.0, 0.0, 0.0, 1.62100138198092E9, 2021-05-14 16:09:41.980
58.0, 56.12467956542969, -180.44830322265625, 100.79778289794922, 447.5482177734375, 0.03200000151991844, -0.04800000041723251, 1.055999994277954, 0.0, 0.0, 0.0, 0.0, 0.0, 1.621001381994737E9, 2021-05-14 16:09:41.994
58.0, 52.07810592651367, -187.71493530273438, 92.7420425415039, 446.8862609863281, 0.03200000151991844, -0.04800000041723251, 1.055999994277954, 0.0, 0.0, 0.0, 0.0, 0.0, 1.621001381994737E9, 2021-05-14 16:09:41.994
59.0, 46.78240966796875, -190.5609893798828, 89.82492065429688, 441.8074645996094, 0.03200000151991844, -0.04800000041723251, 1.055999994277954, 0.0, 0.0, 0.0, 0.0, 0.0, 1.6210013820102637E9, 2021-05-14 16:09:42.010
59.0, 47.13396072387695, -180.7175750732422, 95.0719985961914, 440.87249755859375, 0.03200000151991844, -0.04800000041723251, 1.055999994277954, 0.0, 0.0, 0.0, 0.0, 0.0, 1.6210013820102637E9, 2021-05-14 16:09:42.010
60.0, 53.11405944824219, -184.00868225097656, 92.35308837890625, 439.2419128417969, 0.03200000151991844, -0.04800000041723251, 1.055999994277954, 0.0, 0.0, 0.0, 0.0, 0.0, 1.621001382011029E9, 2021-05-14 16:09:42.011
60.0, 55.971343994140625, -175.5826873779297, 95.31134796142578, 438.7257995605469, 0.03200000151991844, -0.04800000041723251, 1.055999994277954, 0.0, 0.0, 0.0, 0.0, 0.0, 1.621001382011029E9, 2021-05-14 16:09:42.011
61.0, 50.619544982910156, -175.4592742919922, 94.92613983154297, 424.8844299316406, 0.03200000151991844, -0.04800000041723251, 1.055999994277954, 0.0, 0.0, 0.0, 0.0, 0.0, 1.6210013820247335E9, 2021-05-14 16:09:42.024
61.0, 50.290435791015625, -173.3462371826172, 96.19770812988281, 416.4098205566406, 0.03200000151991844, -0.04800000041723251, 1.055999994277954, 0.0, 0.0, 0.0, 0.0, 0.0, 1.6210013820247335E9, 2021-05-14 16:09:42.024
62.0, 53.143978118896484, -164.25453186035156, 108.11302947998047, 421.8064880371094, 0.03200000151991844, -0.04800000041723251, 1.055999994277954, 0.0, 0.0, 0.0, 0.0, 0.0, 1.621001382040343E9, 2021-05-14 16:09:42.040
62.0, 56.66322326660156, -165.81407165527344, 110.7720947265625, 427.2555236816406, 0.03200000151991844, -0.04800000041723251, 1.055999994277954, 0.0, 0.0, 0.0, 0.0, 0.0, 1.621001382040343E9, 2021-05-14 16:09:42.040
63.0, 51.24784851074219, -179.7115478515625, 101.44104766845703, 418.2797546386719, 0.03200000151991844, -0.04800000041723251, 1.055999994277954, 0.0, 0.0, 0.0, 0.0, 0.0, 1.621001382041016E9, 2021-05-14 16:09:42.041
63.0, 52.89714431762695, -185.39993286132812, 98.59123992919922, 416.6603698730469, 0.03200000151991844, -0.04800000041723251, 1.055999994277954, 0.0, 0.0, 0.0, 0.0, 0.0, 1.621001382041016E9, 2021-05-14 16:09:42.041
64.0, 61.027687072753906, -174.81600952148438, 98.83807373046875, 429.5705261230469, 0.03200000151991844, -0.04800000041723251, 1.055999994277954, 0.0, 0.0, 0.0, 0.0, 0.0, 1.621001382054596E9, 2021-05-14 16:09:42.054
64.0, 52.99064254760742, -182.30703735351562, 92.9028549194336, 424.41693115234375, 0.03200000151991844, -0.04800000041723251, 1.055999994277954, 0.0, 0.0, 0.0, 0.0, 0.0, 1.621001382054596E9, 2021-05-14 16:09:42.054
65.0, 47.736083984375, -188.54518127441406, 89.5743408203125, 424.9517517089844, 0.03200000151991844, -0.04800000041723251, 1.055999994277954, 0.0, 0.0, 0.0, 0.0, 0.0, 1.6210013820699885E9, 2021-05-14 16:09:42.069
65.0, 53.286094665527344, -188.64242553710938, 90.09419250488281, 431.9603271484375, 0.03200000151991844, -0.04800000041723251, 1.055999994277954, 0.0, 0.0, 0.0, 0.0, 0.0, 1.6210013820699885E9, 2021-05-14 16:09:42.069
66.0, 59.5915641784668, -190.00375366210938, 93.22822570800781, 447.4659423828125, 0.03200000151991844, -0.04800000041723251, 1.055999994277954, 0.0, 0.0, 0.0, 0.0, 0.0, 1.6210013820852044E9, 2021-05-14 16:09:42.085
66.0, 61.44281768798828, -189.09869384765625, 90.37467956542969, 444.9265441894531, 0.03200000151991844, -0.04800000041723251, 1.055999994277954, 0.0, 0.0, 0.0, 0.0, 0.0, 1.6210013820852044E9, 2021-05-14 16:09:42.085
67.0, 45.406124114990234, -194.2934112548828, 91.57893371582031, 438.80059814453125, 0.03200000151991844, -0.04800000041723251, 1.055999994277954, 0.0, 0.0, 0.0, 0.0, 0.0, 1.621001382085918E9, 2021-05-14 16:09:42.085
67.0, 46.58793258666992, -193.6090087890625, 91.87438201904297, 443.80084228515625, 0.03200000151991844, -0.04800000041723251, 1.055999994277954, 0.0, 0.0, 0.0, 0.0, 0.0, 1.621001382085918E9, 2021-05-14 16:09:42.085
68.0, 50.50360870361328, -192.68899536132812, 94.78402709960938, 454.2164611816406, 0.03200000151991844, -0.04800000041723251, 1.055999994277954, 0.0, 0.0, 0.0, 0.0, 0.0, 1.6210013821003344E9, 2021-05-14 16:09:42.100
68.0, 45.57442092895508, -197.97348022460938, 89.45840454101562, 450.5177001953125, 0.03200000151991844, -0.04800000041723251, 1.055999994277954, 0.0, 0.0, 0.0, 0.0, 0.0, 1.6210013821003344E9, 2021-05-14 16:09:42.100
69.0, 40.4993782043457, -193.85211181640625, 85.09768676757812, 445.0836181640625, 0.03200000151991844, -0.04800000041723251, 1.055999994277954, 0.0, 0.0, 0.0, 0.0, 0.0, 1.6210013821009936E9, 2021-05-14 16:09:42.100
69.0, 52.08558654785156, -194.0353546142578, 92.63358306884766, 450.8580322265625, 0.03200000151991844, -0.04800000041723251, 1.055999994277954, 0.0, 0.0, 0.0, 0.0, 0.0, 1.6210013821009936E9, 2021-05-14 16:09:42.100
70.0, 55.17848205566406, -188.6947784423828, 90.2363052368164, 446.8974609375, 0.03200000151991844, -0.04800000041723251, 1.055999994277954, 0.0, 0.0, 0.0, 0.0, 0.0, 1.6210013821147425E9, 2021-05-14 16:09:42.114
70.0, 63.54090118408203, -192.53192138671875, 92.97017669677734, 438.2657775878906, 0.03200000151991844, -0.04800000041723251, 1.055999994277954, 0.0, 0.0, 0.0, 0.0, 0.0, 1.6210013821147425E9, 2021-05-14 16:09:42.114
71.0, 62.62836456298828, -191.69044494628906, 90.88330841064453, 428.0184631347656, 0.03200000151991844, -0.04800000041723251, 1.055999994277954, 0.0, 0.0, 0.0, 0.0, 0.0, 1.621001382130294E9, 2021-05-14 16:09:42.130
71.0, 64.0794448852539, -182.1649169921875, 95.16549682617188, 425.1536865234375, 0.03200000151991844, -0.04800000041723251, 1.055999994277954, 0.0, 0.0, 0.0, 0.0, 0.0, 1.621001382130294E9, 2021-05-14 16:09:42.130
72.0, 74.55864715576172, -178.978515625, 102.60041809082031, 423.16033935546875, 0.03200000151991844, -0.04800000041723251, 1.055999994277954, 0.0, 0.0, 0.0, 0.0, 0.0, 1.6210013821309412E9, 2021-05-14 16:09:42.130
72.0, 77.06063842773438, -172.89744567871094, 108.06814575195312, 418.65374755859375, 0.03200000151991844, -0.04800000041723251, 1.055999994277954, 0.0, 0.0, 0.0, 0.0, 0.0, 1.6210013821309412E9, 2021-05-14 16:09:42.130
73.0, 66.89559173583984, -176.91409301757812, 103.26237487792969, 411.88079833984375, 0.03200000151991844, -0.04800000041723251, 1.055999994277954, 0.0, 0.0, 0.0, 0.0, 0.0, 1.6210013821446168E9, 2021-05-14 16:09:42.144
73.0, 58.301300048828125, -173.7314453125, 106.9798355102539, 421.380126953125, 0.03200000151991844, -0.04800000041723251, 1.055999994277954, 0.0, 0.0, 0.0, 0.0, 0.0, 1.6210013821446168E9, 2021-05-14 16:09:42.144
74.0, 60.971588134765625, -171.0499267578125, 104.93411254882812, 428.0408935546875, 0.03200000151991844, -0.04800000041723251, 1.055999994277954, 0.0, 0.0, 0.0, 0.0, 0.0, 1.6210013821603508E9, 2021-05-14 16:09:42.160
74.0, 57.91609191894531, -168.7760772705078, 103.05668640136719, 438.4266052246094, 0.03200000151991844, -0.04800000041723251, 1.055999994277954, 0.0, 0.0, 0.0, 0.0, 0.0, 1.6210013821603508E9, 2021-05-14 16:09:42.160
75.0, 47.82210159301758, -178.23802185058594, 92.4802474975586, 425.0714111328125, 0.03200000151991844, -0.04800000041723251, 1.055999994277954, 0.0, 0.0, 0.0, 0.0, 0.0, 1.621001382161105E9, 2021-05-14 16:09:42.161
75.0, 54.243507385253906, -176.64108276367188, 96.41088104248047, 436.58282470703125, 0.03200000151991844, -0.04800000041723251, 1.055999994277954, 0.0, 0.0, 0.0, 0.0, 0.0, 1.621001382161105E9, 2021-05-14 16:09:42.161
76.0, 48.267147064208984, -182.67727661132812, 95.09443664550781, 437.6225280761719, 0.03200000151991844, -0.04800000041723251, 1.055999994277954, 0.0, 0.0, 0.0, 0.0, 0.0, 1.6210013821745913E9, 2021-05-14 16:09:42.174
76.0, 49.74066925048828, -184.5734100341797, 93.6470947265625, 444.8180847167969, 0.03200000151991844, -0.04800000041723251, 1.055999994277954, 0.0, 0.0, 0.0, 0.0, 0.0, 1.6210013821745913E9, 2021-05-14 16:09:42.174
77.0, 43.07990646362305, -187.6700439453125, 92.9477310180664, 438.1535949707031, 0.03200000151991844, -0.04800000041723251, 1.055999994277954, 0.0, 0.0, 0.0, 0.0, 0.0, 1.6210013822072952E9, 2021-05-14 16:09:42.207
77.0, 42.900390625, -193.8221893310547, 84.03181457519531, 435.09808349609375, 0.03200000151991844, -0.04800000041723251, 1.055999994277954, 0.0, 0.0, 0.0, 0.0, 0.0, 1.6210013822072952E9, 2021-05-14 16:09:42.207
78.0, 51.70411682128906, -185.14187622070312, 91.66120910644531, 449.15264892578125, 0.03200000151991844, -0.04800000041723251, 1.055999994277954, 0.0, 0.0, 0.0, 0.0, 0.0, 1.6210013822079687E9, 2021-05-14 16:09:42.207
78.0, 52.104286193847656, -185.6018829345703, 91.35079956054688, 453.38995361328125, 0.03200000151991844, -0.04800000041723251, 1.055999994277954, 0.0, 0.0, 0.0, 0.0, 0.0, 1.6210013822079687E9, 2021-05-14 16:09:42.207
79.0, 56.917537689208984, -184.0311279296875, 93.11976623535156, 444.3319091796875, 0.03200000151991844, -0.04800000041723251, 1.055999994277954, 0.0, 0.0, 0.0, 0.0, 0.0, 1.621001382208728E9, 2021-05-14 16:09:42.208
79.0, 46.606632232666016, -191.9559783935547, 81.1595687866211, 440.0085754394531, 0.03200000151991844, -0.04800000041723251, 1.055999994277954, 0.0, 0.0, 0.0, 0.0, 0.0, 1.621001382208728E9, 2021-05-14 16:09:42.208
80.0, 55.79556655883789, -193.6090087890625, 79.09514617919922, 444.86669921875, 0.03200000151991844, -0.04800000041723251, 1.055999994277954, 0.0, 0.0, 0.0, 0.0, 0.0, 1.6210013822095613E9, 2021-05-14 16:09:42.209
80.0, 58.783748626708984, -189.5923614501953, 86.36177062988281, 444.1486511230469, 0.03200000151991844, -0.04800000041723251, 1.055999994277954, 0.0, 0.0, 0.0, 0.0, 0.0, 1.6210013822095613E9, 2021-05-14 16:09:42.209
81.0, 58.682769775390625, -188.743408203125, 91.06282043457031, 434.4660339355469, 0.03200000151991844, -0.04800000041723251, 1.055999994277954, 0.0, 0.0, 0.0, 0.0, 0.0, 1.6210013822195292E9, 2021-05-14 16:09:42.219
81.0, 57.84503173828125, -185.84498596191406, 94.92613983154297, 434.3127136230469, 0.03200000151991844, -0.04800000041723251, 1.055999994277954, 0.0, 0.0, 0.0, 0.0, 0.0, 1.6210013822195292E9, 2021-05-14 16:09:42.219
82.0, 67.01152801513672, -172.0709228515625, 101.10071563720703, 434.08831787109375, 0.03200000151991844, -0.04800000041723251, 1.055999994277954, 0.0, 0.0, 0.0, 0.0, 0.0, 1.6210013822346609E9, 2021-05-14 16:09:42.234
82.0, 70.56816864013672, -174.1989288330078, 104.12255096435547, 432.5362548828125, 0.03200000151991844, -0.04800000041723251, 1.055999994277954, 0.0, 0.0, 0.0, 0.0, 0.0, 1.6210013822346609E9, 2021-05-14 16:09:42.234
83.0, 54.74091720581055, -177.31427001953125, 98.74457550048828, 420.6097106933594, 0.03200000151991844, -0.04800000041723251, 1.055999994277954, 0.0, 0.0, 0.0, 0.0, 0.0, 1.6210013822502248E9, 2021-05-14 16:09:42.250
83.0, 61.3979377746582, -175.5527801513672, 99.76557159423828, 413.77691650390625, 0.03200000151991844, -0.04800000041723251, 1.055999994277954, 0.0, 0.0, 0.0, 0.0, 0.0, 1.6210013822502248E9, 2021-05-14 16:09:42.250
84.0, 73.39179992675781, -165.09600830078125, 105.89900970458984, 423.609130859375, 0.03200000151991844, -0.04800000041723251, 1.055999994277954, 0.0, 0.0, 0.0, 0.0, 0.0, 1.6210013822509384E9, 2021-05-14 16:09:42.250
84.0, 55.02140808105469, -171.94003295898438, 99.57483673095703, 421.226806640625, 0.03200000151991844, -0.04800000041723251, 1.055999994277954, 0.0, 0.0, 0.0, 0.0, 0.0, 1.6210013822509384E9, 2021-05-14 16:09:42.250
85.0, 46.78614807128906, -177.74061584472656, 97.5216293334961, 419.360595703125, 0.03200000151991844, -0.04800000041723251, 1.055999994277954, 0.0, 0.0, 0.0, 0.0, 0.0, 1.621001382264533E9, 2021-05-14 16:09:42.264
85.0, 35.00920486450195, -183.66461181640625, 97.60765075683594, 425.5688171386719, 0.03200000151991844, -0.04800000041723251, 1.055999994277954, 0.0, 0.0, 0.0, 0.0, 0.0, 1.621001382264533E9, 2021-05-14 16:09:42.264
86.0, 54.52400207519531, -171.0050506591797, 103.82710266113281, 448.4420471191406, 0.03200000151991844, -0.04800000041723251, 1.055999994277954, 0.0, 0.0, 0.0, 0.0, 0.0, 1.6210013822802656E9, 2021-05-14 16:09:42.280
86.0, 48.73089599609375, -180.4669952392578, 100.67436981201172, 446.4673767089844, 0.03200000151991844, -0.04800000041723251, 1.055999994277954, 0.0, 0.0, 0.0, 0.0, 0.0, 1.6210013822802656E9, 2021-05-14 16:09:42.280
87.0, 40.77238845825195, -191.59693908691406, 90.88330841064453, 437.9254455566406, 0.03200000151991844, -0.04800000041723251, 1.055999994277954, 0.0, 0.0, 0.0, 0.0, 0.0, 1.621001382281133E9, 2021-05-14 16:09:42.281
87.0, 49.751888275146484, -188.26095581054688, 85.58013153076172, 439.372802734375, 0.03200000151991844, -0.04800000041723251, 1.055999994277954, 0.0, 0.0, 0.0, 0.0, 0.0, 1.621001382281133E9, 2021-05-14 16:09:42.281
88.0, 50.62702560424805, -185.57569885253906, 85.14256286621094, 447.34625244140625, 0.03200000151991844, -0.04800000041723251, 1.055999994277954, 0.0, 0.0, 0.0, 0.0, 0.0, 1.6210013823110182E9, 2021-05-14 16:09:42.311
88.0, 55.88906478881836, -185.32139587402344, 89.5743408203125, 447.1069030761719, 0.03200000151991844, -0.04800000041723251, 1.055999994277954, 0.0, 0.0, 0.0, 0.0, 0.0, 1.6210013823110182E9, 2021-05-14 16:09:42.311
89.0, 50.084739685058594, -188.91543579101562, 91.12266540527344, 444.7881774902344, 0.03200000151991844, -0.04800000041723251, 1.055999994277954, 0.0, 0.0, 0.0, 0.0, 0.0, 1.6210013823117137E9, 2021-05-14 16:09:42.311
89.0, 59.778560638427734, -183.5636444091797, 95.5955810546875, 447.3350524902344, 0.03200000151991844, -0.04800000041723251, 1.055999994277954, 0.0, 0.0, 0.0, 0.0, 0.0, 1.6210013823117137E9, 2021-05-14 16:09:42.311
90.0, 68.69074249267578, -185.18675231933594, 94.19686126708984, 454.0406799316406, 0.03200000151991844, -0.04800000041723251, 1.055999994277954, 0.0, 0.0, 0.0, 0.0, 0.0, 1.6210013823125494E9, 2021-05-14 16:09:42.312
90.0, 64.1205825805664, -189.30812072753906, 94.37637329101562, 453.6966247558594, 0.03200000151991844, -0.04800000041723251, 1.055999994277954, 0.0, 0.0, 0.0, 0.0, 0.0, 1.6210013823125494E9, 2021-05-14 16:09:42.312
91.0, 57.6842155456543, -182.13873291015625, 100.20687866210938, 444.1448974609375, 0.03200000151991844, -0.04800000041723251, 1.055999994277954, 0.0, 0.0, 0.0, 0.0, 0.0, 1.6210013823245933E9, 2021-05-14 16:09:42.324
91.0, 54.669857025146484, -177.81167602539062, 100.44623565673828, 433.51611328125, 0.03200000151991844, -0.04800000041723251, 1.055999994277954, 0.0, 0.0, 0.0, 0.0, 0.0, 1.6210013823245933E9, 2021-05-14 16:09:42.324
92.0, 65.16401672363281, -173.86981201171875, 103.28855895996094, 435.2962951660156, 0.03200000151991844, -0.04800000041723251, 1.055999994277954, 0.0, 0.0, 0.0, 0.0, 0.0, 1.6210013823402824E9, 2021-05-14 16:09:42.340
92.0, 69.97726440429688, -171.33042907714844, 104.53768157958984, 429.7612609863281, 0.03200000151991844, -0.04800000041723251, 1.055999994277954, 0.0, 0.0, 0.0, 0.0, 0.0, 1.6210013823402824E9, 2021-05-14 16:09:42.340
93.0, 71.02818298339844, -176.3979949951172, 103.29229736328125, 430.00433349609375, 0.03200000151991844, -0.04800000041723251, 1.055999994277954, 0.0, 0.0, 0.0, 0.0, 0.0, 1.6210013823409545E9, 2021-05-14 16:09:42.340
93.0, 63.989688873291016, -185.78140258789062, 101.30267333984375, 419.93280029296875, 0.03200000151991844, -0.04800000041723251, 1.055999994277954, 0.0, 0.0, 0.0, 0.0, 0.0, 1.6210013823409545E9, 2021-05-14 16:09:42.340
94.0, 68.1895980834961, -177.81915283203125, 103.36335754394531, 421.0996398925781, 0.03200000151991844, -0.04800000041723251, 1.055999994277954, 0.0, 0.0, 0.0, 0.0, 0.0, 1.6210013823545969E9, 2021-05-14 16:09:42.354
94.0, 66.99282836914062, -167.65036010742188, 104.06271362304688, 415.9984130859375, 0.03200000151991844, -0.04800000041723251, 1.055999994277954, 0.0, 0.0, 0.0, 0.0, 0.0, 1.6210013823545969E9, 2021-05-14 16:09:42.354
95.0, 54.17245101928711, -177.85281372070312, 93.96124267578125, 406.648681640625, 0.03200000151991844, -0.04800000041723251, 1.055999994277954, 0.0, 0.0, 0.0, 0.0, 0.0, 1.6210013823702216E9, 2021-05-14 16:09:42.370
95.0, 54.194889068603516, -171.7418212890625, 100.5359878540039, 417.07177734375, 0.03200000151991844, -0.04800000041723251, 1.055999994277954, 0.0, 0.0, 0.0, 0.0, 0.0, 1.6210013823702216E9, 2021-05-14 16:09:42.370
96.0, 55.21962356567383, -175.76968383789062, 99.72069549560547, 425.3294677734375, 0.03200000151991844, -0.04800000041723251, 1.055999994277954, 0.0, 0.0, 0.0, 0.0, 0.0, 1.6210013823709233E9, 2021-05-14 16:09:42.370
96.0, 60.261009216308594, -178.39883422851562, 98.5837631225586, 436.2275390625, 0.03200000151991844, -0.04800000041723251, 1.055999994277954, 0.0, 0.0, 0.0, 0.0, 0.0, 1.6210013823709233E9, 2021-05-14 16:09:42.370
97.0, 45.69409942626953, -185.95343017578125, 89.8548355102539, 438.1685485839844, 0.03200000151991844, -0.04800000041723251, 1.055999994277954, 0.0, 0.0, 0.0, 0.0, 0.0, 1.6210013823845215E9, 2021-05-14 16:09:42.384
97.0, 42.63111877441406, -185.84872436523438, 84.47686004638672, 433.3739929199219, 0.03200000151991844, -0.04800000041723251, 1.055999994277954, 0.0, 0.0, 0.0, 0.0, 0.0, 1.6210013823845215E9, 2021-05-14 16:09:42.384
98.0, 52.818607330322266, -183.6907958984375, 94.74288177490234, 441.0333251953125, 0.03200000151991844, -0.04800000041723251, 1.055999994277954, 0.0, 0.0, 0.0, 0.0, 0.0, 1.621001382400221E9, 2021-05-14 16:09:42.400
98.0, 51.46102523803711, -183.989990234375, 89.58930206298828, 445.629638671875, 0.03200000151991844, -0.04800000041723251, 1.055999994277954, 0.0, 0.0, 0.0, 0.0, 0.0, 1.621001382400221E9, 2021-05-14 16:09:42.400
99.0, 41.71110534667969, -191.54832458496094, 81.71307373046875, 441.6167297363281, 0.03200000151991844, -0.04800000041723251, 1.055999994277954, 0.0, 0.0, 0.0, 0.0, 0.0, 1.621001382400951E9, 2021-05-14 16:09:42.400
99.0, 43.36040115356445, -195.35928344726562, 82.39747619628906, 446.30657958984375, 0.03200000151991844, -0.04800000041723251, 1.055999994277954, 0.0, 0.0, 0.0, 0.0, 0.0, 1.621001382400951E9, 2021-05-14 16:09:42.400
100.0, 54.969051361083984, -186.89962768554688, 94.63069152832031, 460.5929870605469, 0.03200000151991844, -0.04800000041723251, 1.055999994277954, 0.0, 0.0, 0.0, 0.0, 0.0, 1.62100138241603E9, 2021-05-14 16:09:42.416
100.0, 51.71159744262695, -191.64930725097656, 89.110595703125, 455.8994140625, 0.03200000151991844, -0.04800000041723251, 1.055999994277954, 0.0, 0.0, 0.0, 0.0, 0.0, 1.62100138241603E9, 2021-05-14 16:09:42.416
0.0, 47.04981231689453, -193.3135528564453, 93.28058624267578, 443.8326416015625, 0.03200000151991844, -0.04800000041723251, 1.055999994277954, 0.0, 0.0, 0.0, 0.0, 0.0, 1.6210013824167557E9, 2021-05-14 16:09:42.416
1.0, 50.43067932128906, -189.18470764160156, 89.43970489501953, 436.85772705078125, 0.03200000151991844, -0.04800000041723251, 1.055999994277954, 0.0, 0.0, 0.0, 0.0, 0.0, 1.6210013824296236E9, 2021-05-14 16:09:42.429
1.0, 57.83194351196289, -182.68850708007812, 94.55963134765625, 439.59906005859375, 0.03200000151991844, -0.04800000041723251, 1.055999994277954, 0.0, 0.0, 0.0, 0.0, 0.0, 1.6210013824296236E9, 2021-05-14 16:09:42.429
2.0, 59.61213684082031, -176.91783142089844, 99.61223602294922, 433.3160400390625, 0.03200000151991844, -0.04800000041723251, 1.055999994277954, 0.0, 0.0, 0.0, 0.0, 0.0, 1.6210013824453683E9, 2021-05-14 16:09:42.445
2.0, 52.29689025878906, -177.7256622314453, 100.46493530273438, 430.06231689453125, 0.03200000151991844, -0.04800000041723251, 1.055999994277954, 0.0, 0.0, 0.0, 0.0, 0.0, 1.6210013824453683E9, 2021-05-14 16:09:42.445
3.0, 52.78681945800781, -178.76161193847656, 95.5768814086914, 420.9219970703125, 0.03200000151991844, -0.04800000041723251, 1.055999994277954, 0.0, 0.0, 0.0, 0.0, 0.0, 1.6210013824461212E9, 2021-05-14 16:09:42.446
3.0, 64.07383728027344, -167.64288330078125, 104.43296813964844, 425.3986511230469, 0.03200000151991844, -0.04800000041723251, 1.055999994277954, 0.0, 0.0, 0.0, 0.0, 0.0, 1.6210013824461212E9, 2021-05-14 16:09:42.446
4.0, 66.29533386230469, -168.8097381591797, 106.19819641113281, 415.8207702636719, 0.03200000151991844, -0.04800000041723251, 1.055999994277954, 0.0, 0.0, 0.0, 0.0, 0.0, 1.621001382459527E9, 2021-05-14 16:09:42.459
4.0, 56.2462272644043, -176.4877471923828, 98.55758666992188, 407.6116943359375, 0.03200000151991844, -0.04800000041723251, 1.055999994277954, 0.0, 0.0, 0.0, 0.0, 0.0, 1.621001382459527E9, 2021-05-14 16:09:42.459
5.0, 50.71491241455078, -178.66810607910156, 98.73709869384766, 417.8365783691406, 0.03200000151991844, -0.04800000041723251, 1.055999994277954, 0.0, 0.0, 0.0, 0.0, 0.0, 1.6210013824752035E9, 2021-05-14 16:09:42.475
5.0, 57.94414138793945, -173.78379821777344, 97.82830047607422, 429.3891296386719, 0.03200000151991844, -0.04800000041723251, 1.055999994277954, 0.0, 0.0, 0.0, 0.0, 0.0, 1.6210013824752035E9, 2021-05-14 16:09:42.475
6.0, 60.468570709228516, -179.62925720214844, 99.61223602294922, 433.3421936035156, 0.03200000151991844, -0.04800000041723251, 1.055999994277954, 0.0, 0.0, 0.0, 0.0, 0.0, 1.6210013824759157E9, 2021-05-14 16:09:42.475
6.0, 48.66544723510742, -186.26759338378906, 89.96329498291016, 427.10406494140625, 0.03200000151991844, -0.04800000041723251, 1.055999994277954, 0.0, 0.0, 0.0, 0.0, 0.0, 1.6210013824759157E9, 2021-05-14 16:09:42.475
7.0, 44.959205627441406, -187.35589599609375, 89.09563446044922, 434.2135925292969, 0.03200000151991844, -0.04800000041723251, 1.055999994277954, 0.0, 0.0, 0.0, 0.0, 0.0, 1.6210013824895265E9, 2021-05-14 16:09:42.489
7.0, 45.58003234863281, -187.39329528808594, 83.3661117553711, 443.29034423828125, 0.03200000151991844, -0.04800000041723251, 1.055999994277954, 0.0, 0.0, 0.0, 0.0, 0.0, 1.6210013824895265E9, 2021-05-14 16:09:42.489
8.0, 39.72334671020508, -193.11160278320312, 81.8851089477539, 444.1841735839844, 0.03200000151991844, -0.04800000041723251, 1.055999994277954, 0.0, 0.0, 0.0, 0.0, 0.0, 1.6210013825052903E9, 2021-05-14 16:09:42.505
8.0, 38.137630462646484, -189.5437469482422, 88.71790313720703, 443.9560546875, 0.03200000151991844, -0.04800000041723251, 1.055999994277954, 0.0, 0.0, 0.0, 0.0, 0.0, 1.6210013825052903E9, 2021-05-14 16:09:42.505
9.0, 41.716712951660156, -190.598388671875, 92.68968200683594, 449.7080078125, 0.03200000151991844, -0.04800000041723251, 1.055999994277954, 0.0, 0.0, 0.0, 0.0, 0.0, 1.6210013825059185E9, 2021-05-14 16:09:42.505
9.0, 50.202545166015625, -182.01531982421875, 95.86485290527344, 453.4441833496094, 0.03200000151991844, -0.04800000041723251, 1.055999994277954, 0.0, 0.0, 0.0, 0.0, 0.0, 1.6210013825059185E9, 2021-05-14 16:09:42.505
10.0, 51.05150604248047, -183.63844299316406, 95.11687469482422, 454.3080749511719, 0.03200000151991844, -0.04800000041723251, 1.055999994277954, 0.0, 0.0, 0.0, 0.0, 0.0, 1.6210013825195956E9, 2021-05-14 16:09:42.519
10.0, 52.15851593017578, -188.3656768798828, 95.40858459472656, 447.594970703125, 0.03200000151991844, -0.04800000041723251, 1.055999994277954, 0.0, 0.0, 0.0, 0.0, 0.0, 1.6210013825195956E9, 2021-05-14 16:09:42.519
11.0, 52.394126892089844, -190.6507568359375, 93.75555419921875, 440.6387634277344, 0.03200000151991844, -0.04800000041723251, 1.055999994277954, 0.0, 0.0, 0.0, 0.0, 0.0, 1.62100138253519E9, 2021-05-14 16:09:42.535
11.0, 53.48244094848633, -183.02883911132812, 88.86376190185547, 445.22760009765625, 0.03200000151991844, -0.04800000041723251, 1.055999994277954, 0.0, 0.0, 0.0, 0.0, 0.0, 1.62100138253519E9, 2021-05-14 16:09:42.535
12.0, 53.12714767456055, -179.4385223388672, 91.83698272705078, 436.1583557128906, 0.03200000151991844, -0.04800000041723251, 1.055999994277954, 0.0, 0.0, 0.0, 0.0, 0.0, 1.6210013825359433E9, 2021-05-14 16:09:42.535
12.0, 55.4645881652832, -179.50584411621094, 93.2020492553711, 423.1734313964844, 0.03200000151991844, -0.04800000041723251, 1.055999994277954, 0.0, 0.0, 0.0, 0.0, 0.0, 1.6210013825359433E9, 2021-05-14 16:09:42.535
13.0, 65.46508026123047, -175.10398864746094, 99.36540222167969, 417.1521911621094, 0.03200000151991844, -0.04800000041723251, 1.055999994277954, 0.0, 0.0, 0.0, 0.0, 0.0, 1.621001382549628E9, 2021-05-14 16:09:42.549
13.0, 72.66438293457031, -162.78102111816406, 102.8023681640625, 420.9332275390625, 0.03200000151991844, -0.04800000041723251, 1.055999994277954, 0.0, 0.0, 0.0, 0.0, 0.0, 1.621001382549628E9, 2021-05-14 16:09:42.549
14.0, 72.15202331542969, -171.93255615234375, 96.94194793701172, 415.67864990234375, 0.03200000151991844, -0.04800000041723251, 1.055999994277954, 0.0, 0.0, 0.0, 0.0, 0.0, 1.6210013825656872E9, 2021-05-14 16:09:42.565
14.0, 53.06731033325195, -174.52056884765625, 87.27804565429688, 408.61773681640625, 0.03200000151991844, -0.04800000041723251, 1.055999994277954, 0.0, 0.0, 0.0, 0.0, 0.0, 1.6210013825656872E9, 2021-05-14 16:09:42.565
15.0, 49.159114837646484, -177.78549194335938, 88.0671615600586, 411.2842712402344, 0.03200000151991844, -0.04800000041723251, 1.055999994277954, 0.0, 0.0, 0.0, 0.0, 0.0, 1.6210013825802336E9, 2021-05-14 16:09:42.580
15.0, 55.34117126464844, -181.2635955810547, 92.0987777709961, 423.9662780761719, 0.03200000151991844, -0.04800000041723251, 1.055999994277954, 0.0, 0.0, 0.0, 0.0, 0.0, 1.6210013825802336E9, 2021-05-14 16:09:42.580
16.0, 58.374229431152344, -177.47508239746094, 97.70488739013672, 432.8784484863281, 0.03200000151991844, -0.04800000041723251, 1.055999994277954, 0.0, 0.0, 0.0, 0.0, 0.0, 1.621001382580948E9, 2021-05-14 16:09:42.580
16.0, 48.81130599975586, -191.75027465820312, 89.48458862304688, 430.48492431640625, 0.03200000151991844, -0.04800000041723251, 1.055999994277954, 0.0, 0.0, 0.0, 0.0, 0.0, 1.621001382580948E9, 2021-05-14 16:09:42.580
17.0, 46.776798248291016, -194.60008239746094, 84.86580657958984, 434.4193115234375, 0.03200000151991844, -0.04800000041723251, 1.055999994277954, 0.0, 0.0, 0.0, 0.0, 0.0, 1.621001382595337E9, 2021-05-14 16:09:42.595
17.0, 58.83423614501953, -191.50718688964844, 89.66036224365234, 442.82659912109375, 0.03200000151991844, -0.04800000041723251, 1.055999994277954, 0.0, 0.0, 0.0, 0.0, 0.0, 1.621001382595337E9, 2021-05-14 16:09:42.595
18.0, 53.05982971191406, -188.7733154296875, 85.08272552490234, 436.25933837890625, 0.03200000151991844, -0.04800000041723251, 1.055999994277954, 0.0, 0.0, 0.0, 0.0, 0.0, 1.6210013825960271E9, 2021-05-14 16:09:42.596
18.0, 44.63383483886719, -191.98214721679688, 86.6796646118164, 436.67071533203125, 0.03200000151991844, -0.04800000041723251, 1.055999994277954, 0.0, 0.0, 0.0, 0.0, 0.0, 1.6210013825960271E9, 2021-05-14 16:09:42.596
19.0, 43.437068939208984, -195.46026611328125, 91.42559051513672, 436.9661560058594, 0.03200000151991844, -0.04800000041723251, 1.055999994277954, 0.0, 0.0, 0.0, 0.0, 0.0, 1.6210013826095853E9, 2021-05-14 16:09:42.609
19.0, 56.00687026977539, -179.95089721679688, 105.15476989746094, 457.9956359863281, 0.03200000151991844, -0.04800000041723251, 1.055999994277954, 0.0, 0.0, 0.0, 0.0, 0.0, 1.6210013826095853E9, 2021-05-14 16:09:42.609
20.0, 57.20363998413086, -184.42007446289062, 106.44129180908203, 461.0885314941406, 0.03200000151991844, -0.04800000041723251, 1.055999994277954, 0.0, 0.0, 0.0, 0.0, 0.0, 1.6210013826253612E9, 2021-05-14 16:09:42.625
20.0, 50.38206100463867, -191.71287536621094, 100.66314697265625, 452.3670654296875, 0.03200000151991844, -0.04800000041723251, 1.055999994277954, 0.0, 0.0, 0.0, 0.0, 0.0, 1.6210013826253612E9, 2021-05-14 16:09:42.625
21.0, 52.906494140625, -193.0592498779297, 101.1343765258789, 451.5443115234375, 0.03200000151991844, -0.04800000041723251, 1.055999994277954, 0.0, 0.0, 0.0, 0.0, 0.0, 1.6210013826260097E9, 2021-05-14 16:09:42.626
21.0, 54.24163818359375, -190.50115966796875, 99.58231353759766, 450.5345153808594, 0.03200000151991844, -0.04800000041723251, 1.055999994277954, 0.0, 0.0, 0.0, 0.0, 0.0, 1.6210013826260097E9, 2021-05-14 16:09:42.626
22.0, 51.07768249511719, -189.59609985351562, 98.41920471191406, 443.27911376953125, 0.03200000151991844, -0.04800000041723251, 1.055999994277954, 0.0, 0.0, 0.0, 0.0, 0.0, 1.6210013826397152E9, 2021-05-14 16:09:42.639
22.0, 50.41946029663086, -177.1272735595703, 114.91590881347656, 436.1695861816406, 0.03200000151991844, -0.04800000041723251, 1.055999994277954, 0.0, 0.0, 0.0, 0.0, 0.0, 1.6210013826397152E9, 2021-05-14 16:09:42.639
23.0, 55.67028045654297, -181.93304443359375, 108.34864044189453, 425.0433654785156, 0.03200000151991844, -0.04800000041723251, 1.055999994277954, 0.0, 0.0, 0.0, 0.0, 0.0, 1.6210013826556776E9, 2021-05-14 16:09:42.655
23.0, 64.3094482421875, -170.7993621826172, 107.64553833007812, 425.8399658203125, 0.03200000151991844, -0.04800000041723251, 1.055999994277954, 0.0, 0.0, 0.0, 0.0, 0.0, 1.6210013826556776E9, 2021-05-14 16:09:42.655
24.0, 62.88828659057617, -180.71009826660156, 105.39411926269531, 421.80462646484375, 0.03200000151991844, -0.04800000041723251, 1.055999994277954, 0.0, 0.0, 0.0, 0.0, 0.0, 1.6210013826707985E9, 2021-05-14 16:09:42.670
24.0, 54.8437614440918, -187.5989990234375, 98.80067443847656, 407.7837219238281, 0.03200000151991844, -0.04800000041723251, 1.055999994277954, 0.0, 0.0, 0.0, 0.0, 0.0, 1.6210013826707985E9, 2021-05-14 16:09:42.670
25.0, 57.368194580078125, -186.37603759765625, 102.12918853759766, 417.7056884765625, 0.03200000151991844, -0.04800000041723251, 1.055999994277954, 0.0, 0.0, 0.0, 0.0, 0.0, 1.621001382685992E9, 2021-05-14 16:09:42.685
25.0, 68.79358673095703, -177.74061584472656, 109.00312042236328, 431.3338928222656, 0.03200000151991844, -0.04800000041723251, 1.055999994277954, 0.0, 0.0, 0.0, 0.0, 0.0, 1.621001382685992E9, 2021-05-14 16:09:42.685
26.0, 60.0609245300293, -185.9833526611328, 102.95570373535156, 433.0691833496094, 0.03200000151991844, -0.04800000041723251, 1.055999994277954, 0.0, 0.0, 0.0, 0.0, 0.0, 1.6210013826867251E9, 2021-05-14 16:09:42.686
26.0, 42.07574462890625, -201.38052368164062, 91.23485565185547, 426.76373291015625, 0.03200000151991844, -0.04800000041723251, 1.055999994277954, 0.0, 0.0, 0.0, 0.0, 0.0, 1.6210013826867251E9, 2021-05-14 16:09:42.686
27.0, 59.00627136230469, -188.8668212890625, 101.998291015625, 446.9741516113281, 0.03200000151991844, -0.04800000041723251, 1.055999994277954, 0.0, 0.0, 0.0, 0.0, 0.0, 1.621001382687374E9, 2021-05-14 16:09:42.687
27.0, 54.888641357421875, -186.78369140625, 105.10614776611328, 446.9666748046875, 0.03200000151991844, -0.04800000041723251, 1.055999994277954, 0.0, 0.0, 0.0, 0.0, 0.0, 1.621001382687374E9, 2021-05-14 16:09:42.687
28.0, 57.7945442199707, -188.97154235839844, 97.41691589355469, 443.75408935546875, 0.03200000151991844, -0.04800000041723251, 1.055999994277954, 0.0, 0.0, 0.0, 0.0, 0.0, 1.6210013826995697E9, 2021-05-14 16:09:42.699
28.0, 48.22414016723633, -200.59140014648438, 93.007568359375, 434.6586608886719, 0.03200000151991844, -0.04800000041723251, 1.055999994277954, 0.0, 0.0, 0.0, 0.0, 0.0, 1.6210013826995697E9, 2021-05-14 16:09:42.699
29.0, 43.13039779663086, -195.40415954589844, 95.25899505615234, 437.68048095703125, 0.03200000151991844, -0.04800000041723251, 1.055999994277954, 0.0, 0.0, 0.0, 0.0, 0.0, 1.6210013827152948E9, 2021-05-14 16:09:42.715
29.0, 54.14813995361328, -191.4510955810547, 97.75724792480469, 447.34814453125, 0.03200000151991844, -0.04800000041723251, 1.055999994277954, 0.0, 0.0, 0.0, 0.0, 0.0, 1.6210013827152948E9, 2021-05-14 16:09:42.715
30.0, 42.83494567871094, -198.29136657714844, 86.55624389648438, 440.4367980957031, 0.03200000151991844, -0.04800000041723251, 1.055999994277954, 0.0, 0.0, 0.0, 0.0, 0.0, 1.621001382716015E9, 2021-05-14 16:09:42.716
30.0, 51.54143142700195, -186.37229919433594, 103.29977416992188, 450.2465515136719, 0.03200000151991844, -0.04800000041723251, 1.055999994277954, 0.0, 0.0, 0.0, 0.0, 0.0, 1.621001382716015E9, 2021-05-14 16:09:42.716
31.0, 42.771366119384766, -189.51382446289062, 97.89936065673828, 439.68133544921875, 0.03200000151991844, -0.04800000041723251, 1.055999994277954, 0.0, 0.0, 0.0, 0.0, 0.0, 1.6210013827295537E9, 2021-05-14 16:09:42.729
31.0, 55.8460578918457, -179.80503845214844, 103.84954071044922, 445.7698974609375, 0.03200000151991844, -0.04800000041723251, 1.055999994277954, 0.0, 0.0, 0.0, 0.0, 0.0, 1.6210013827295537E9, 2021-05-14 16:09:42.729
32.0, 47.547218322753906, -183.11111450195312, 103.9056396484375, 435.79931640625, 0.03200000151991844, -0.04800000041723251, 1.055999994277954, 0.0, 0.0, 0.0, 0.0, 0.0, 1.6210013827779655E9, 2021-05-14 16:09:42.777
32.0, 45.2883186340332, -181.46182250976562, 103.1651382446289, 431.89111328125, 0.03200000151991844, -0.04800000041723251, 1.055999994277954, 0.0, 0.0, 0.0, 0.0, 0.0, 1.6210013827779655E9, 2021-05-14 16:09:42.777
33.0, 52.558685302734375, -176.15863037109375, 102.0618667602539, 425.0695495605469, 0.03200000151991844, -0.04800000041723251, 1.055999994277954, 0.0, 0.0, 0.0, 0.0, 0.0, 1.6210013827787614E9, 2021-05-14 16:09:42.778
33.0, 57.899261474609375, -172.123291015625, 103.78970336914062, 425.4211120605469, 0.03200000151991844, -0.04800000041723251, 1.055999994277954, 0.0, 0.0, 0.0, 0.0, 0.0, 1.6210013827787614E9, 2021-05-14 16:09:42.778
34.0, 54.226680755615234, -174.52430725097656, 98.7071762084961, 423.8017272949219, 0.03200000151991844, -0.04800000041723251, 1.055999994277954, 0.0, 0.0, 0.0, 0.0, 0.0, 1.6210013827793918E9, 2021-05-14 16:09:42.779
34.0, 43.60910415649414, -182.8007049560547, 85.09020233154297, 408.2886047363281, 0.03200000151991844, -0.04800000041723251, 1.055999994277954, 0.0, 0.0, 0.0, 0.0, 0.0, 1.6210013827793918E9, 2021-05-14 16:09:42.779
35.0, 53.6170768737793, -179.0346221923828, 89.65288543701172, 417.2232360839844, 0.03200000151991844, -0.04800000041723251, 1.055999994277954, 0.0, 0.0, 0.0, 0.0, 0.0, 1.6210013827801929E9, 2021-05-14 16:09:42.780
35.0, 63.10894012451172, -183.32054138183594, 95.18419647216797, 426.71136474609375, 0.03200000151991844, -0.04800000041723251, 1.055999994277954, 0.0, 0.0, 0.0, 0.0, 0.0, 1.6210013827801929E9, 2021-05-14 16:09:42.780
36.0, 63.89432144165039, -188.04029846191406, 94.8326416015625, 435.6385192871094, 0.03200000151991844, -0.04800000041723251, 1.055999994277954, 0.0, 0.0, 0.0, 0.0, 0.0, 1.6210013827901976E9, 2021-05-14 16:09:42.790
36.0, 54.59318923950195, -195.62107849121094, 89.4696273803711, 432.55682373046875, 0.03200000151991844, -0.04800000041723251, 1.055999994277954, 0.0, 0.0, 0.0, 0.0, 0.0, 1.6210013827901976E9, 2021-05-14 16:09:42.790
37.0, 67.79503631591797, -194.2522735595703, 96.34355926513672, 437.7889404296875, 0.03200000151991844, -0.04800000041723251, 1.055999994277954, 0.0, 0.0, 0.0, 0.0, 0.0, 1.6210013827909126E9, 2021-05-14 16:09:42.790
37.0, 70.62239837646484, -184.92869567871094, 94.65312957763672, 442.99114990234375, 0.03200000151991844, -0.04800000041723251, 1.055999994277954, 0.0, 0.0, 0.0, 0.0, 0.0, 1.6210013827909126E9, 2021-05-14 16:09:42.790
38.0, 61.34370803833008, -193.2275390625, 89.25645446777344, 431.89111328125, 0.03200000151991844, -0.04800000041723251, 1.055999994277954, 0.0, 0.0, 0.0, 0.0, 0.0, 1.6210013828052232E9, 2021-05-14 16:09:42.805
38.0, 63.239837646484375, -192.19158935546875, 96.87088775634766, 439.120361328125, 0.03200000151991844, -0.04800000041723251, 1.055999994277954, 0.0, 0.0, 0.0, 0.0, 0.0, 1.6210013828052232E9, 2021-05-14 16:09:42.805
39.0, 59.51115798950195, -203.47486877441406, 97.63382720947266, 441.97015380859375, 0.03200000151991844, -0.04800000041723251, 1.055999994277954, 0.0, 0.0, 0.0, 0.0, 0.0, 1.621001382805951E9, 2021-05-14 16:09:42.805
39.0, 63.389434814453125, -187.23995971679688, 101.10445404052734, 448.6571044921875, 0.03200000151991844, -0.04800000041723251, 1.055999994277954, 0.0, 0.0, 0.0, 0.0, 0.0, 1.621001382805951E9, 2021-05-14 16:09:42.805
40.0, 58.62480163574219, -183.88526916503906, 102.83602905273438, 448.86279296875, 0.03200000151991844, -0.04800000041723251, 1.055999994277954, 0.0, 0.0, 0.0, 0.0, 0.0, 1.621001382819579E9, 2021-05-14 16:09:42.819
40.0, 51.41801452636719, -189.90650939941406, 97.25235748291016, 438.4322204589844, 0.03200000151991844, -0.04800000041723251, 1.055999994277954, 0.0, 0.0, 0.0, 0.0, 0.0, 1.621001382819579E9, 2021-05-14 16:09:42.819
41.0, 55.371089935302734, -186.8397979736328, 100.80525970458984, 433.5179748535156, 0.03200000151991844, -0.04800000041723251, 1.055999994277954, 0.0, 0.0, 0.0, 0.0, 0.0, 1.621001382835386E9, 2021-05-14 16:09:42.835
41.0, 61.231510162353516, -180.22764587402344, 108.98068237304688, 436.8240661621094, 0.03200000151991844, -0.04800000041723251, 1.055999994277954, 0.0, 0.0, 0.0, 0.0, 0.0, 1.621001382835386E9, 2021-05-14 16:09:42.835
42.0, 48.83000564575195, -184.12461853027344, 105.58111572265625, 434.3445129394531, 0.03200000151991844, -0.04800000041723251, 1.055999994277954, 0.0, 0.0, 0.0, 0.0, 0.0, 1.6210013828360517E9, 2021-05-14 16:09:42.836
42.0, 51.23849868774414, -178.54095458984375, 103.10903930664062, 435.03265380859375, 0.03200000151991844, -0.04800000041723251, 1.055999994277954, 0.0, 0.0, 0.0, 0.0, 0.0, 1.6210013828360517E9, 2021-05-14 16:09:42.836
43.0, 41.87752914428711, -186.1067657470703, 95.6180191040039, 423.7044982910156, 0.03200000151991844, -0.04800000041723251, 1.055999994277954, 0.0, 0.0, 0.0, 0.0, 0.0, 1.621001382849616E9, 2021-05-14 16:09:42.849
43.0, 50.67003631591797, -181.45059204101562, 96.49315643310547, 426.2812805175781, 0.03200000151991844, -0.04800000041723251, 1.055999994277954, 0.0, 0.0, 0.0, 0.0, 0.0, 1.621001382849616E9, 2021-05-14 16:09:42.849
44.0, 50.550357818603516, -178.10337829589844, 100.132080078125, 432.1977844238281, 0.03200000151991844, -0.04800000041723251, 1.055999994277954, 0.0, 0.0, 0.0, 0.0, 0.0, 1.621001382865314E9, 2021-05-14 16:09:42.865
44.0, 46.305572509765625, -198.81869506835938, 89.62296295166016, 419.7364501953125, 0.03200000151991844, -0.04800000041723251, 1.055999994277954, 0.0, 0.0, 0.0, 0.0, 0.0, 1.621001382865314E9, 2021-05-14 16:09:42.865
45.0, 55.20279312133789, -184.48739624023438, 93.73685455322266, 436.0760803222656, 0.03200000151991844, -0.04800000041723251, 1.055999994277954, 0.0, 0.0, 0.0, 0.0, 0.0, 1.6210013828659937E9, 2021-05-14 16:09:42.865
45.0, 58.97261428833008, -190.9948272705078, 98.9053955078125, 435.4103698730469, 0.03200000151991844, -0.04800000041723251, 1.055999994277954, 0.0, 0.0, 0.0, 0.0, 0.0, 1.6210013828659937E9, 2021-05-14 16:09:42.865
46.0, 61.41102600097656, -186.4807586669922, 95.06077575683594, 442.2057800292969, 0.03200000151991844, -0.04800000041723251, 1.055999994277954, 0.0, 0.0, 0.0, 0.0, 0.0, 1.6210013828966975E9, 2021-05-14 16:09:42.896
46.0, 60.01978302001953, -193.27615356445312, 94.49605560302734, 434.3968505859375, 0.03200000151991844, -0.04800000041723251, 1.055999994277954, 0.0, 0.0, 0.0, 0.0, 0.0, 1.6210013828966975E9, 2021-05-14 16:09:42.896
47.0, 65.16962432861328, -196.61215209960938, 93.11228942871094, 439.2512512207031, 0.03200000151991844, -0.04800000041723251, 1.055999994277954, 0.0, 0.0, 0.0, 0.0, 0.0, 1.6210013828974276E9, 2021-05-14 16:09:42.897
47.0, 68.04934692382812, -192.95079040527344, 86.8629150390625, 445.9568786621094, 0.03200000151991844, -0.04800000041723251, 1.055999994277954, 0.0, 0.0, 0.0, 0.0, 0.0, 1.6210013828974276E9, 2021-05-14 16:09:42.897
48.0, 56.040531158447266, -194.10641479492188, 87.7268295288086, 440.23858642578125, 0.03200000151991844, -0.04800000041723251, 1.055999994277954, 0.0, 0.0, 0.0, 0.0, 0.0, 1.6210013828981948E9, 2021-05-14 16:09:42.898
48.0, 49.89961624145508, -201.86297607421875, 85.75590515136719, 433.95928955078125, 0.03200000151991844, -0.04800000041723251, 1.055999994277954, 0.0, 0.0, 0.0, 0.0, 0.0, 1.6210013828981948E9, 2021-05-14 16:09:42.898
49.0, 48.826263427734375, -196.12222290039062, 89.48458862304688, 444.3337707519531, 0.03200000151991844, -0.04800000041723251, 1.055999994277954, 0.0, 0.0, 0.0, 0.0, 0.0, 1.6210013829095645E9, 2021-05-14 16:09:42.909
49.0, 43.493167877197266, -194.07275390625, 94.60076904296875, 445.9007873535156, 0.03200000151991844, -0.04800000041723251, 1.055999994277954, 0.0, 0.0, 0.0, 0.0, 0.0, 1.6210013829095645E9, 2021-05-14 16:09:42.909
50.0, 42.906002044677734, -186.41343688964844, 95.08695983886719, 448.71319580078125, 0.03200000151991844, -0.04800000041723251, 1.055999994277954, 0.0, 0.0, 0.0, 0.0, 0.0, 1.6210013829252386E9, 2021-05-14 16:09:42.925
50.0, 42.7190055847168, -185.53829956054688, 94.44369506835938, 441.67095947265625, 0.03200000151991844, -0.04800000041723251, 1.055999994277954, 0.0, 0.0, 0.0, 0.0, 0.0, 1.6210013829252386E9, 2021-05-14 16:09:42.925
51.0, 45.00034713745117, -183.36541748046875, 102.46952056884766, 434.0191345214844, 0.03200000151991844, -0.04800000041723251, 1.055999994277954, 0.0, 0.0, 0.0, 0.0, 0.0, 1.6210013829259915E9, 2021-05-14 16:09:42.925
51.0, 53.39642333984375, -167.6241912841797, 110.73095703125, 439.85711669921875, 0.03200000151991844, -0.04800000041723251, 1.055999994277954, 0.0, 0.0, 0.0, 0.0, 0.0, 1.6210013829259915E9, 2021-05-14 16:09:42.925
52.0, 59.99360656738281, -171.76051330566406, 113.13197326660156, 431.90234375, 0.03200000151991844, -0.04800000041723251, 1.055999994277954, 0.0, 0.0, 0.0, 0.0, 0.0, 1.6210013829396353E9, 2021-05-14 16:09:42.939
52.0, 58.374229431152344, -172.65435791015625, 114.71395111083984, 430.8065490722656, 0.03200000151991844, -0.04800000041723251, 1.055999994277954, 0.0, 0.0, 0.0, 0.0, 0.0, 1.6210013829396353E9, 2021-05-14 16:09:42.939
53.0, 48.792606353759766, -176.46905517578125, 117.66473388671875, 431.55828857421875, 0.03200000151991844, -0.04800000041723251, 1.055999994277954, 0.0, 0.0, 0.0, 0.0, 0.0, 1.6210013829552436E9, 2021-05-14 16:09:42.955
53.0, 58.31813049316406, -169.07901000976562, 118.76800537109375, 435.5861511230469, 0.03200000151991844, -0.04800000041723251, 1.055999994277954, 0.0, 0.0, 0.0, 0.0, 0.0, 1.6210013829552436E9, 2021-05-14 16:09:42.955
54.0, 55.58052444458008, -172.34019470214844, 107.6567611694336, 434.0901794433594, 0.03200000151991844, -0.04800000041723251, 1.055999994277954, 0.0, 0.0, 0.0, 0.0, 0.0, 1.6210013829559052E9, 2021-05-14 16:09:42.955
54.0, 49.31245040893555, -177.14222717285156, 94.89622497558594, 415.5589904785156, 0.03200000151991844, -0.04800000041723251, 1.055999994277954, 0.0, 0.0, 0.0, 0.0, 0.0, 1.6210013829559052E9, 2021-05-14 16:09:42.955
55.0, 50.6475944519043, -189.80552673339844, 90.6551742553711, 418.73040771484375, 0.03200000151991844, -0.04800000041723251, 1.055999994277954, 0.0, 0.0, 0.0, 0.0, 0.0, 1.6210013829696312E9, 2021-05-14 16:09:42.969
55.0, 56.82965087890625, -186.43588256835938, 92.02397918701172, 433.0654602050781, 0.03200000151991844, -0.04800000041723251, 1.055999994277954, 0.0, 0.0, 0.0, 0.0, 0.0, 1.6210013829696312E9, 2021-05-14 16:09:42.969
56.0, 53.179508209228516, -195.0488739013672, 90.31110382080078, 437.01104736328125, 0.03200000151991844, -0.04800000041723251, 1.055999994277954, 0.0, 0.0, 0.0, 0.0, 0.0, 1.6210013829852016E9, 2021-05-14 16:09:42.985
56.0, 48.46349334716797, -196.00628662109375, 87.25934600830078, 432.4521179199219, 0.03200000151991844, -0.04800000041723251, 1.055999994277954, 0.0, 0.0, 0.0, 0.0, 0.0, 1.6210013829852016E9, 2021-05-14 16:09:42.985
57.0, 53.00373077392578, -195.4303436279297, 92.7831802368164, 436.1097412109375, 0.03200000151991844, -0.04800000041723251, 1.055999994277954, 0.0, 0.0, 0.0, 0.0, 0.0, 1.6210013829858952E9, 2021-05-14 16:09:42.985
57.0, 57.0615234375, -195.41163635253906, 90.56916046142578, 444.5020751953125, 0.03200000151991844, -0.04800000041723251, 1.055999994277954, 0.0, 0.0, 0.0, 0.0, 0.0, 1.6210013829858952E9, 2021-05-14 16:09:42.985
58.0, 57.82820129394531, -194.22982788085938, 89.34620666503906, 444.40484619140625, 0.03200000151991844, -0.04800000041723251, 1.055999994277954, 0.0, 0.0, 0.0, 0.0, 0.0, 1.621001382999624E9, 2021-05-14 16:09:42.999
58.0, 42.763885498046875, -194.26722717285156, 91.822021484375, 438.8623046875, 0.03200000151991844, -0.04800000041723251, 1.055999994277954, 0.0, 0.0, 0.0, 0.0, 0.0, 1.621001382999624E9, 2021-05-14 16:09:42.999
59.0, 55.35987091064453, -191.2005157470703, 98.05269622802734, 445.0817565917969, 0.03200000151991844, -0.04800000041723251, 1.055999994277954, 0.0, 0.0, 0.0, 0.0, 0.0, 1.621001383015304E9, 2021-05-14 16:09:43.015
59.0, 63.78212356567383, -182.38931274414062, 109.9904556274414, 458.36962890625, 0.03200000151991844, -0.04800000041723251, 1.055999994277954, 0.0, 0.0, 0.0, 0.0, 0.0, 1.621001383015304E9, 2021-05-14 16:09:43.015
60.0, 49.637821197509766, -189.77561950683594, 105.7531509399414, 448.3915710449219, 0.03200000151991844, -0.04800000041723251, 1.055999994277954, 0.0, 0.0, 0.0, 0.0, 0.0, 1.6210013830160103E9, 2021-05-14 16:09:43.016
60.0, 42.008426666259766, -185.9758758544922, 100.39013671875, 443.06219482421875, 0.03200000151991844, -0.04800000041723251, 1.055999994277954, 0.0, 0.0, 0.0, 0.0, 0.0, 1.6210013830160103E9, 2021-05-14 16:09:43.016
61.0, 46.67582321166992, -184.69308471679688, 102.6191177368164, 440.7808837890625, 0.03200000151991844, -0.04800000041723251, 1.055999994277954, 0.0, 0.0, 0.0, 0.0, 0.0, 1.6210013830295513E9, 2021-05-14 16:09:43.029
61.0, 44.94424819946289, -178.1856689453125, 106.30291748046875, 439.1951599121094, 0.03200000151991844, -0.04800000041723251, 1.055999994277954, 0.0, 0.0, 0.0, 0.0, 0.0, 1.6210013830295513E9, 2021-05-14 16:09:43.029
62.0, 46.21955490112305, -172.1606903076172, 107.00975799560547, 432.9570007324219, 0.03200000151991844, -0.04800000041723251, 1.055999994277954, 0.0, 0.0, 0.0, 0.0, 0.0, 1.621001383045322E9, 2021-05-14 16:09:43.045
62.0, 45.66604995727539, -171.85401916503906, 112.96741485595703, 421.655029296875, 0.03200000151991844, -0.04800000041723251, 1.055999994277954, 0.0, 0.0, 0.0, 0.0, 0.0, 1.621001383045322E9, 2021-05-14 16:09:43.045
63.0, 42.225341796875, -166.93978881835938, 107.30146789550781, 417.1147766113281, 0.03200000151991844, -0.04800000041723251, 1.055999994277954, 0.0, 0.0, 0.0, 0.0, 0.0, 1.6210013830461097E9, 2021-05-14 16:09:43.046
63.0, 48.88984298706055, -164.46771240234375, 105.54745483398438, 410.117431640625, 0.03200000151991844, -0.04800000041723251, 1.055999994277954, 0.0, 0.0, 0.0, 0.0, 0.0, 1.6210013830461097E9, 2021-05-14 16:09:43.046
64.0, 53.123409271240234, -166.91360473632812, 109.47061157226562, 407.85479736328125, 0.03200000151991844, -0.04800000041723251, 1.055999994277954, 0.0, 0.0, 0.0, 0.0, 0.0, 1.6210013830595667E9, 2021-05-14 16:09:43.059
64.0, 47.722991943359375, -169.37071228027344, 99.4701156616211, 401.3810119628906, 0.03200000151991844, -0.04800000041723251, 1.055999994277954, 0.0, 0.0, 0.0, 0.0, 0.0, 1.6210013830595667E9, 2021-05-14 16:09:43.059
65.0, 55.90215301513672, -175.41439819335938, 100.38265228271484, 410.9439392089844, 0.03200000151991844, -0.04800000041723251, 1.055999994277954, 0.0, 0.0, 0.0, 0.0, 0.0, 1.6210013830915864E9, 2021-05-14 16:09:43.091
65.0, 58.06007766723633, -182.40052795410156, 90.77484893798828, 419.6990661621094, 0.03200000151991844, -0.04800000041723251, 1.055999994277954, 0.0, 0.0, 0.0, 0.0, 0.0, 1.6210013830915864E9, 2021-05-14 16:09:43.091
66.0, 63.08650207519531, -189.7905731201172, 93.85652923583984, 431.984619140625, 0.03200000151991844, -0.04800000041723251, 1.055999994277954, 0.0, 0.0, 0.0, 0.0, 0.0, 1.6210013830922935E9, 2021-05-14 16:09:43.092
66.0, 51.45167541503906, -200.5652313232422, 81.39517974853516, 426.1279296875, 0.03200000151991844, -0.04800000041723251, 1.055999994277954, 0.0, 0.0, 0.0, 0.0, 0.0, 1.6210013830922935E9, 2021-05-14 16:09:43.092
67.0, 48.538291931152344, -195.07130432128906, 80.37045288085938, 434.4529724121094, 0.03200000151991844, -0.04800000041723251, 1.055999994277954, 0.0, 0.0, 0.0, 0.0, 0.0, 1.6210013830930507E9, 2021-05-14 16:09:43.093
67.0, 59.896366119384766, -186.3162078857422, 88.56831359863281, 446.88812255859375, 0.03200000151991844, -0.04800000041723251, 1.055999994277954, 0.0, 0.0, 0.0, 0.0, 0.0, 1.6210013830930507E9, 2021-05-14 16:09:43.093
68.0, 51.86306381225586, -198.2315216064453, 81.82527160644531, 449.6706237792969, 0.03200000151991844, -0.04800000041723251, 1.055999994277954, 0.0, 0.0, 0.0, 0.0, 0.0, 1.6210013830937908E9, 2021-05-14 16:09:43.093
68.0, 44.9666862487793, -195.06008911132812, 92.64854431152344, 451.2376403808594, 0.03200000151991844, -0.04800000041723251, 1.055999994277954, 0.0, 0.0, 0.0, 0.0, 0.0, 1.6210013830937908E9, 2021-05-14 16:09:43.093
69.0, 43.93447494506836, -199.0468292236328, 90.77859497070312, 456.5408020019531, 0.03200000151991844, -0.04800000041723251, 1.055999994277954, 0.0, 0.0, 0.0, 0.0, 0.0, 1.6210013831045384E9, 2021-05-14 16:09:43.104
69.0, 54.51091003417969, -188.31704711914062, 105.0313491821289, 474.39508056640625, 0.03200000151991844, -0.04800000041723251, 1.055999994277954, 0.0, 0.0, 0.0, 0.0, 0.0, 1.6210013831045384E9, 2021-05-14 16:09:43.104
70.0, 48.601871490478516, -186.2227020263672, 102.4620361328125, 461.8739013671875, 0.03200000151991844, -0.04800000041723251, 1.055999994277954, 0.0, 0.0, 0.0, 0.0, 0.0, 1.621001383119614E9, 2021-05-14 16:09:43.119
70.0, 49.174076080322266, -191.95223999023438, 101.5121078491211, 453.9490661621094, 0.03200000151991844, -0.04800000041723251, 1.055999994277954, 0.0, 0.0, 0.0, 0.0, 0.0, 1.621001383119614E9, 2021-05-14 16:09:43.119
71.0, 44.61139678955078, -187.26988220214844, 101.71031951904297, 450.6055908203125, 0.03200000151991844, -0.04800000041723251, 1.055999994277954, 0.0, 0.0, 0.0, 0.0, 0.0, 1.6210013831351964E9, 2021-05-14 16:09:43.135
71.0, 60.808902740478516, -175.06285095214844, 115.69380187988281, 454.8204650878906, 0.03200000151991844, -0.04800000041723251, 1.055999994277954, 0.0, 0.0, 0.0, 0.0, 0.0, 1.6210013831351964E9, 2021-05-14 16:09:43.135
72.0, 54.95970153808594, -174.4532470703125, 109.39955139160156, 440.4367980957031, 0.03200000151991844, -0.04800000041723251, 1.055999994277954, 0.0, 0.0, 0.0, 0.0, 0.0, 1.6210013831359668E9, 2021-05-14 16:09:43.135
72.0, 51.04776382446289, -177.48255920410156, 103.70368957519531, 420.8883361816406, 0.03200000151991844, -0.04800000041723251, 1.055999994277954, 0.0, 0.0, 0.0, 0.0, 0.0, 1.6210013831359668E9, 2021-05-14 16:09:43.135
73.0, 47.924949645996094, -178.1894073486328, 99.48881530761719, 408.0791931152344, 0.03200000151991844, -0.04800000041723251, 1.055999994277954, 0.0, 0.0, 0.0, 0.0, 0.0, 1.62100138314964E9, 2021-05-14 16:09:43.149
73.0, 61.388587951660156, -170.33187866210938, 114.27264404296875, 419.08197021484375, 0.03200000151991844, -0.04800000041723251, 1.055999994277954, 0.0, 0.0, 0.0, 0.0, 0.0, 1.62100138314964E9, 2021-05-14 16:09:43.149
74.0, 62.30486297607422, -176.7869415283203, 106.66194915771484, 417.5897521972656, 0.03200000151991844, -0.04800000041723251, 1.055999994277954, 0.0, 0.0, 0.0, 0.0, 0.0, 1.6210013831816535E9, 2021-05-14 16:09:43.181
74.0, 57.56267166137695, -178.71298217773438, 104.69475555419922, 409.0515441894531, 0.03200000151991844, -0.04800000041723251, 1.055999994277954, 0.0, 0.0, 0.0, 0.0, 0.0, 1.6210013831816535E9, 2021-05-14 16:09:43.181
75.0, 67.18917083740234, -179.21414184570312, 105.36045837402344, 405.3004455566406, 0.03200000151991844, -0.04800000041723251, 1.055999994277954, 0.0, 0.0, 0.0, 0.0, 0.0, 1.6210013831823823E9, 2021-05-14 16:09:43.182
75.0, 77.9825210571289, -169.55770874023438, 103.99913787841797, 415.5701904296875, 0.03200000151991844, -0.04800000041723251, 1.055999994277954, 0.0, 0.0, 0.0, 0.0, 0.0, 1.6210013831823823E9, 2021-05-14 16:09:43.182
76.0, 75.3496322631836, -179.54324340820312, 101.18299102783203, 417.70941162109375, 0.03200000151991844, -0.04800000041723251, 1.055999994277954, 0.0, 0.0, 0.0, 0.0, 0.0, 1.6210013831831565E9, 2021-05-14 16:09:43.183
76.0, 62.46194076538086, -187.48680114746094, 95.5955810546875, 416.714599609375, 0.03200000151991844, -0.04800000041723251, 1.055999994277954, 0.0, 0.0, 0.0, 0.0, 0.0, 1.6210013831831565E9, 2021-05-14 16:09:43.183
