Sample Index, EXG Channel 0, EXG Channel 1, EXG Channel 2, EXG Channel 3, Accel Channel 0, Accel Channel 1, Accel Channel 2, Other, Other, Other, Other, Other, Timestamp, Timestamp (Formatted)
0.0, 113.99775695800781, -125.03607177734375, 113.4610824584961, 516.2763671875, 0.0, 0.0, 0.0, 0.0, 0.0, 0.0, 0.0, 0.0, 1.6210009465114484E9, 2021-05-14 16:02:26.511
1.0, 121.30926513671875, -118.68572235107422, 123.958984375, 522.884765625, 0.0, -0.04800000041723251, 0.0, 0.0, 0.0, 0.0, 0.0, 0.0, 1.6210009465120895E9, 2021-05-14 16:02:26.512
1.0, 116.00234985351562, -116.071533203125, 123.78321075439453, 509.058349609375, 0.0, -0.04800000041723251, 0.0, 0.0, 0.0, 0.0, 0.0, 0.0, 1.6210009465120895E9, 2021-05-14 16:02:26.512
2.0, 116.46235656738281, -121.72252655029297, 120.42852020263672, 499.8020935058594, 0.03200000151991844, -0.04800000041723251, 0.0, 0.0, 0.0, 0.0, 0.0, 0.0, 1.621000946524705E9, 2021-05-14 16:02:26.524
2.0, 134.2081756591797, -115.17021942138672, 127.29871368408203, 497.8910217285156, 0.03200000151991844, -0.04800000041723251, 0.0, 0.0, 0.0, 0.0, 0.0, 0.0, 1.621000946524705E9, 2021-05-14 16:02:26.524
3.0, 140.13966369628906, -107.83627319335938, 126.73399353027344, 499.3533020019531, 0.03200000151991844, -0.04800000041723251, 0.0, 0.0, 0.0, 0.0, 0.0, 0.0, 1.6210009465255036E9, 2021-05-14 16:02:26.525
3.0, 142.0582275390625, -111.32186126708984, 123.96646118164062, 490.26910400390625, 0.03200000151991844, -0.04800000041723251, 0.0, 0.0, 0.0, 0.0, 0.0, 0.0, 1.6210009465255036E9, 2021-05-14 16:02:26.525
4.0, 124.14036560058594, -109.1863784790039, 124.49005126953125, 480.4930114746094, 0.03200000151991844, -0.04800000041723251, 0.0, 0.0, 0.0, 0.0, 0.0, 0.0, 1.6210009465400808E9, 2021-05-14 16:02:26.540
4.0, 131.4743194580078, -101.9384536743164, 128.60768127441406, 490.48602294921875, 0.03200000151991844, -0.04800000041723251, 0.0, 0.0, 0.0, 0.0, 0.0, 0.0, 1.6210009465400808E9, 2021-05-14 16:02:26.540
5.0, 127.8428726196289, -106.8564224243164, 123.80564880371094, 495.160888671875, 0.03200000151991844, -0.04800000041723251, 0.0, 0.0, 0.0, 0.0, 0.0, 0.0, 1.6210009465691824E9, 2021-05-14 16:02:26.569
5.0, 119.42061614990234, -116.13511657714844, 120.72023010253906, 487.79327392578125, 0.03200000151991844, -0.04800000041723251, 0.0, 0.0, 0.0, 0.0, 0.0, 0.0, 1.6210009465691824E9, 2021-05-14 16:02:26.569
6.0, 113.10392761230469, -116.669921875, 116.64373779296875, 492.2662048339844, 0.03200000151991844, -0.04800000041723251, 0.0, 0.0, 0.0, 0.0, 0.0, 0.0, 1.621000946601534E9, 2021-05-14 16:02:26.601
6.0, 122.46115112304688, -117.72083282470703, 119.56834411621094, 508.47119140625, 0.03200000151991844, -0.04800000041723251, 0.0, 0.0, 0.0, 0.0, 0.0, 0.0, 1.621000946601534E9, 2021-05-14 16:02:26.601
7.0, 126.02153778076172, -119.13451385498047, 119.23175048828125, 513.2993774414062, 0.03200000151991844, -0.04800000041723251, 0.0, 0.0, 0.0, 0.0, 0.0, 0.0, 1.6210009466022508E9, 2021-05-14 16:02:26.602
7.0, 108.86661529541016, -107.51464080810547, 115.98551940917969, 502.8089904785156, 0.03200000151991844, -0.04800000041723251, 0.0, 0.0, 0.0, 0.0, 0.0, 0.0, 1.6210009466022508E9, 2021-05-14 16:02:26.602
8.0, 105.57176208496094, -114.85980987548828, 112.88513946533203, 501.6383972167969, 0.03200000151991844, -0.04800000041723251, 0.0, 0.0, 0.0, 0.0, 0.0, 0.0, 1.621000946602954E9, 2021-05-14 16:02:26.602
8.0, 117.56562805175781, -113.12823486328125, 113.6181640625, 509.4061584472656, 0.03200000151991844, -0.04800000041723251, 0.0, 0.0, 0.0, 0.0, 0.0, 0.0, 1.621000946602954E9, 2021-05-14 16:02:26.602
9.0, 120.34436798095703, -115.83592224121094, 117.55253601074219, 516.885986328125, 0.03200000151991844, -0.04800000041723251, 0.0, 0.0, 0.0, 0.0, 0.0, 0.0, 1.6210009466037583E9, 2021-05-14 16:02:26.603
9.0, 116.72040557861328, -118.04246520996094, 112.50366973876953, 518.6063232421875, 0.03200000151991844, -0.04800000041723251, 0.0, 0.0, 0.0, 0.0, 0.0, 0.0, 1.6210009466037583E9, 2021-05-14 16:02:26.603
10.0, 110.06338500976562, -127.98685455322266, 103.78596496582031, 512.9964599609375, 0.03200000151991844, -0.04800000041723251, 1.055999994277954, 0.0, 0.0, 0.0, 0.0, 0.0, 1.6210009466315074E9, 2021-05-14 16:02:26.631
10.0, 111.86602020263672, -125.70177459716797, 111.3106460571289, 517.7050170898438, 0.03200000151991844, -0.04800000041723251, 1.055999994277954, 0.0, 0.0, 0.0, 0.0, 0.0, 1.6210009466315074E9, 2021-05-14 16:02:26.631
11.0, 121.58601379394531, -118.66702270507812, 112.50740814208984, 519.9639282226562, 0.03200000151991844, -0.04800000041723251, 1.055999994277954, 0.0, 0.0, 0.0, 0.0, 0.0, 1.6210009466322327E9, 2021-05-14 16:02:26.632
11.0, 123.28767395019531, -124.55736541748047, 114.90094757080078, 508.224365234375, 0.03200000151991844, -0.04800000041723251, 1.055999994277954, 0.0, 0.0, 0.0, 0.0, 0.0, 1.6210009466322327E9, 2021-05-14 16:02:26.632
12.0, 117.56936645507812, -128.04669189453125, 114.94208526611328, 491.5069885253906, 0.03200000151991844, -0.04800000041723251, 1.055999994277954, 0.0, 0.0, 0.0, 0.0, 0.0, 1.6210009466330097E9, 2021-05-14 16:02:26.633
12.0, 134.71681213378906, -110.99275207519531, 122.0516357421875, 495.2095031738281, 0.03200000151991844, -0.04800000041723251, 1.055999994277954, 0.0, 0.0, 0.0, 0.0, 0.0, 1.6210009466330097E9, 2021-05-14 16:02:26.633
13.0, 143.49435424804688, -105.23704528808594, 131.2031707763672, 500.3331604003906, 0.03200000151991844, -0.04800000041723251, 1.055999994277954, 0.0, 0.0, 0.0, 0.0, 0.0, 1.6210009466337218E9, 2021-05-14 16:02:26.633
13.0, 135.77145385742188, -115.09915924072266, 134.6363983154297, 491.768798828125, 0.03200000151991844, -0.04800000041723251, 1.055999994277954, 0.0, 0.0, 0.0, 0.0, 0.0, 1.6210009466337218E9, 2021-05-14 16:02:26.633
14.0, 121.41024017333984, -110.94786834716797, 129.6024932861328, 489.8951110839844, 0.03200000151991844, -0.04800000041723251, 1.055999994277954, 0.0, 0.0, 0.0, 0.0, 0.0, 1.6210009466444552E9, 2021-05-14 16:02:26.644
14.0, 123.108154296875, -106.41511535644531, 126.3899154663086, 493.2086486816406, 0.03200000151991844, -0.04800000041723251, 1.055999994277954, 0.0, 0.0, 0.0, 0.0, 0.0, 1.6210009466444552E9, 2021-05-14 16:02:26.644
15.0, 130.7824249267578, -106.70682525634766, 131.18072509765625, 499.222412109375, 0.03200000151991844, -0.04800000041723251, 1.055999994277954, 0.0, 0.0, 0.0, 0.0, 0.0, 1.6210009466451645E9, 2021-05-14 16:02:26.645
15.0, 116.2005615234375, -108.81238555908203, 126.73399353027344, 495.8490295410156, 0.03200000151991844, -0.04800000041723251, 1.055999994277954, 0.0, 0.0, 0.0, 0.0, 0.0, 1.6210009466451645E9, 2021-05-14 16:02:26.645
16.0, 112.03430938720703, -116.12763214111328, 121.01568603515625, 494.2296447753906, 0.03200000151991844, -0.04800000041723251, 1.055999994277954, 0.0, 0.0, 0.0, 0.0, 0.0, 1.6210009466588323E9, 2021-05-14 16:02:26.658
16.0, 121.89643096923828, -112.38025665283203, 122.32838439941406, 507.2632141113281, 0.03200000151991844, -0.04800000041723251, 1.055999994277954, 0.0, 0.0, 0.0, 0.0, 0.0, 1.6210009466588323E9, 2021-05-14 16:02:26.658
17.0, 127.11358642578125, -115.25997924804688, 114.8037109375, 515.8388061523438, 0.03200000151991844, -0.04800000041723251, 1.055999994277954, 0.0, 0.0, 0.0, 0.0, 0.0, 1.6210009466752222E9, 2021-05-14 16:02:26.675
17.0, 114.8167953491211, -115.49932861328125, 114.77378845214844, 509.5258483886719, 0.03200000151991844, -0.04800000041723251, 1.055999994277954, 0.0, 0.0, 0.0, 0.0, 0.0, 1.6210009466752222E9, 2021-05-14 16:02:26.675
18.0, 108.60856628417969, -119.85257720947266, 114.62419128417969, 509.1181945800781, 0.03200000151991844, -0.04800000041723251, 1.055999994277954, 0.0, 0.0, 0.0, 0.0, 0.0, 1.6210009466759193E9, 2021-05-14 16:02:26.675
18.0, 119.5926513671875, -120.1854248046875, 116.87935638427734, 514.8663940429688, 0.03200000151991844, -0.04800000041723251, 1.055999994277954, 0.0, 0.0, 0.0, 0.0, 0.0, 1.6210009466759193E9, 2021-05-14 16:02:26.675
19.0, 122.07220458984375, -117.05513000488281, 127.22391510009766, 529.63525390625, 0.03200000151991844, -0.04800000041723251, 1.055999994277954, 0.0, 0.0, 0.0, 0.0, 0.0, 1.6210009466888516E9, 2021-05-14 16:02:26.688
19.0, 115.71063232421875, -119.91241455078125, 123.73085021972656, 519.1336669921875, 0.03200000151991844, -0.04800000041723251, 1.055999994277954, 0.0, 0.0, 0.0, 0.0, 0.0, 1.6210009466888516E9, 2021-05-14 16:02:26.688
20.0, 111.98943328857422, -122.72481536865234, 121.19145965576172, 505.08282470703125, 0.03200000151991844, -0.04800000041723251, 1.055999994277954, 0.0, 0.0, 0.0, 0.0, 0.0, 1.6210009467045116E9, 2021-05-14 16:02:26.704
20.0, 123.24279022216797, -116.17625427246094, 126.17674255371094, 510.51690673828125, 0.03200000151991844, -0.04800000041723251, 1.055999994277954, 0.0, 0.0, 0.0, 0.0, 0.0, 1.6210009467045116E9, 2021-05-14 16:02:26.704
21.0, 136.34739685058594, -101.08201599121094, 134.393310546875, 513.6546630859375, 0.03200000151991844, -0.04800000041723251, 1.055999994277954, 0.0, 0.0, 0.0, 0.0, 0.0, 1.6210009467052135E9, 2021-05-14 16:02:26.705
21.0, 130.4121856689453, -116.17999267578125, 122.18627166748047, 500.8791809082031, 0.03200000151991844, -0.04800000041723251, 1.055999994277954, 0.0, 0.0, 0.0, 0.0, 0.0, 1.6210009467052135E9, 2021-05-14 16:02:26.705
22.0, 114.59988403320312, -127.04814147949219, 115.48436737060547, 486.22625732421875, 0.03200000151991844, -0.04800000041723251, 1.055999994277954, 0.0, 0.0, 0.0, 0.0, 0.0, 1.62100094671896E9, 2021-05-14 16:02:26.718
22.0, 131.2012939453125, -119.77777862548828, 123.18856811523438, 502.43499755859375, 0.03200000151991844, -0.04800000041723251, 1.055999994277954, 0.0, 0.0, 0.0, 0.0, 0.0, 1.62100094671896E9, 2021-05-14 16:02:26.718
23.0, 134.55224609375, -108.32620239257812, 128.0354766845703, 499.3907165527344, 0.03200000151991844, -0.04800000041723251, 1.055999994277954, 0.0, 0.0, 0.0, 0.0, 0.0, 1.6210009467351933E9, 2021-05-14 16:02:26.735
23.0, 123.7289810180664, -111.8155288696289, 124.4414291381836, 489.76422119140625, 0.03200000151991844, -0.04800000041723251, 1.055999994277954, 0.0, 0.0, 0.0, 0.0, 0.0, 1.6210009467351933E9, 2021-05-14 16:02:26.735
24.0, 121.83659362792969, -115.10289764404297, 120.09566497802734, 481.252197265625, 0.03200000151991844, -0.04800000041723251, 1.055999994277954, 0.0, 0.0, 0.0, 0.0, 0.0, 1.6210009467358608E9, 2021-05-14 16:02:26.735
24.0, 146.98367309570312, -115.9294204711914, 123.75702667236328, 487.87554931640625, 0.03200000151991844, -0.04800000041723251, 1.055999994277954, 0.0, 0.0, 0.0, 0.0, 0.0, 1.6210009467358608E9, 2021-05-14 16:02:26.735
25.0, 133.95761108398438, -99.3055648803711, 123.30450439453125, 492.2287902832031, 0.03200000151991844, -0.04800000041723251, 1.055999994277954, 0.0, 0.0, 0.0, 0.0, 0.0, 1.6210009467488055E9, 2021-05-14 16:02:26.748
25.0, 111.21527862548828, -114.84858703613281, 118.46881103515625, 484.5582580566406, 0.03200000151991844, -0.04800000041723251, 1.055999994277954, 0.0, 0.0, 0.0, 0.0, 0.0, 1.6210009467488055E9, 2021-05-14 16:02:26.748
26.0, 98.81002807617188, -117.2383804321289, 110.88429260253906, 484.9322509765625, 0.03200000151991844, -0.04800000041723251, 1.055999994277954, 0.0, 0.0, 0.0, 0.0, 0.0, 1.6210009467645104E9, 2021-05-14 16:02:26.764
26.0, 105.36981201171875, -106.70682525634766, 117.91156768798828, 504.5854187011719, 0.03200000151991844, -0.04800000041723251, 1.055999994277954, 0.0, 0.0, 0.0, 0.0, 0.0, 1.6210009467645104E9, 2021-05-14 16:02:26.764
27.0, 110.52339172363281, -110.45794677734375, 115.6077880859375, 519.29443359375, 0.03200000151991844, -0.04800000041723251, 1.055999994277954, 0.0, 0.0, 0.0, 0.0, 0.0, 1.6210009467652094E9, 2021-05-14 16:02:26.765
27.0, 110.8599853515625, -115.47315216064453, 109.9904556274414, 517.1514892578125, 0.03200000151991844, -0.04800000041723251, 1.055999994277954, 0.0, 0.0, 0.0, 0.0, 0.0, 1.6210009467652094E9, 2021-05-14 16:02:26.765
28.0, 112.4083023071289, -122.90433502197266, 107.3388671875, 512.4017944335938, 0.03200000151991844, -0.04800000041723251, 1.055999994277954, 0.0, 0.0, 0.0, 0.0, 0.0, 1.6210009467787893E9, 2021-05-14 16:02:26.778
28.0, 126.08511352539062, -122.8370132446289, 111.8117904663086, 515.771484375, 0.03200000151991844, -0.04800000041723251, 1.055999994277954, 0.0, 0.0, 0.0, 0.0, 0.0, 1.6210009467787893E9, 2021-05-14 16:02:26.778
29.0, 139.71705627441406, -121.56544494628906, 117.28700256347656, 520.4912109375, 0.03200000151991844, -0.04800000041723251, 1.055999994277954, 0.0, 0.0, 0.0, 0.0, 0.0, 1.6210009467945664E9, 2021-05-14 16:02:26.794
29.0, 127.50627899169922, -120.21534729003906, 119.7815170288086, 510.4421081542969, 0.03200000151991844, -0.04800000041723251, 1.055999994277954, 0.0, 0.0, 0.0, 0.0, 0.0, 1.6210009467945664E9, 2021-05-14 16:02:26.794
30.0, 112.0455322265625, -124.7854995727539, 103.72986602783203, 503.4784240722656, 0.03200000151991844, -0.04800000041723251, 1.055999994277954, 0.0, 0.0, 0.0, 0.0, 0.0, 1.6210009467953193E9, 2021-05-14 16:02:26.795
30.0, 131.1638946533203, -117.68343353271484, 121.95439910888672, 515.3226928710938, 0.03200000151991844, -0.04800000041723251, 1.055999994277954, 0.0, 0.0, 0.0, 0.0, 0.0, 1.6210009467953193E9, 2021-05-14 16:02:26.795
31.0, 133.4527130126953, -112.6570053100586, 120.86235046386719, 510.2214660644531, 0.03200000151991844, -0.04800000041723251, 1.055999994277954, 0.0, 0.0, 0.0, 0.0, 0.0, 1.6210009468089154E9, 2021-05-14 16:02:26.808
31.0, 131.62765502929688, -121.50186920166016, 119.9273681640625, 501.2980651855469, 0.03200000151991844, -0.04800000041723251, 1.055999994277954, 0.0, 0.0, 0.0, 0.0, 0.0, 1.6210009468089154E9, 2021-05-14 16:02:26.808
32.0, 128.34400939941406, -114.1641845703125, 117.31692504882812, 491.2003173828125, 0.03200000151991844, -0.04800000041723251, 1.055999994277954, 0.0, 0.0, 0.0, 0.0, 0.0, 1.6210009468245125E9, 2021-05-14 16:02:26.824
32.0, 140.63706970214844, -109.02556610107422, 127.56050872802734, 496.1781311035156, 0.03200000151991844, -0.04800000041723251, 1.055999994277954, 0.0, 0.0, 0.0, 0.0, 0.0, 1.6210009468245125E9, 2021-05-14 16:02:26.824
33.0, 145.09129333496094, -103.9879150390625, 132.53831481933594, 495.2356872558594, 0.03200000151991844, -0.04800000041723251, 1.055999994277954, 0.0, 0.0, 0.0, 0.0, 0.0, 1.6210009468252883E9, 2021-05-14 16:02:26.825
33.0, 132.91790771484375, -111.00022888183594, 130.41404724121094, 486.67132568359375, 0.03200000151991844, -0.04800000041723251, 1.055999994277954, 0.0, 0.0, 0.0, 0.0, 0.0, 1.6210009468252883E9, 2021-05-14 16:02:26.825
34.0, 120.58372497558594, -115.03932189941406, 119.65061950683594, 473.435791015625, 0.03200000151991844, -0.04800000041723251, 1.055999994277954, 0.0, 0.0, 0.0, 0.0, 0.0, 1.621000946838953E9, 2021-05-14 16:02:26.838
34.0, 127.34920501708984, -117.80310821533203, 120.94462585449219, 484.1319274902344, 0.03200000151991844, -0.04800000041723251, 1.055999994277954, 0.0, 0.0, 0.0, 0.0, 0.0, 1.621000946838953E9, 2021-05-14 16:02:26.838
35.0, 129.01719665527344, -106.75170135498047, 123.536376953125, 495.4301452636719, 0.03200000151991844, -0.04800000041723251, 1.055999994277954, 0.0, 0.0, 0.0, 0.0, 0.0, 1.6210009468547783E9, 2021-05-14 16:02:26.854
35.0, 116.37259674072266, -116.3108901977539, 118.51368713378906, 502.0909118652344, 0.03200000151991844, -0.04800000041723251, 1.055999994277954, 0.0, 0.0, 0.0, 0.0, 0.0, 1.6210009468547783E9, 2021-05-14 16:02:26.854
36.0, 112.8309097290039, -126.73399353027344, 108.55433654785156, 496.66058349609375, 0.03200000151991844, -0.04800000041723251, 1.055999994277954, 0.0, 0.0, 0.0, 0.0, 0.0, 1.6210009468553648E9, 2021-05-14 16:02:26.855
36.0, 125.45307159423828, -121.42707061767578, 121.3485336303711, 517.3048095703125, 0.03200000151991844, -0.04800000041723251, 1.055999994277954, 0.0, 0.0, 0.0, 0.0, 0.0, 1.6210009468553648E9, 2021-05-14 16:02:26.855
37.0, 135.7751922607422, -119.87501525878906, 122.81831359863281, 523.9843139648438, 0.03200000151991844, -0.04800000041723251, 1.055999994277954, 0.0, 0.0, 0.0, 0.0, 0.0, 1.6210009468689313E9, 2021-05-14 16:02:26.868
37.0, 126.45162963867188, -130.3616943359375, 122.24984741210938, 514.9561767578125, 0.03200000151991844, -0.04800000041723251, 1.055999994277954, 0.0, 0.0, 0.0, 0.0, 0.0, 1.6210009468689313E9, 2021-05-14 16:02:26.868
38.0, 117.37114715576172, -136.3455352783203, 116.61756134033203, 507.00140380859375, 0.03200000151991844, -0.04800000041723251, 1.055999994277954, 0.0, 0.0, 0.0, 0.0, 0.0, 1.621000946884481E9, 2021-05-14 16:02:26.884
38.0, 123.69532012939453, -124.65460205078125, 118.60718536376953, 512.6561279296875, 0.03200000151991844, -0.04800000041723251, 1.055999994277954, 0.0, 0.0, 0.0, 0.0, 0.0, 1.621000946884481E9, 2021-05-14 16:02:26.884
39.0, 132.23350524902344, -121.24382019042969, 115.29363250732422, 513.119873046875, 0.03200000151991844, -0.04800000041723251, 1.055999994277954, 0.0, 0.0, 0.0, 0.0, 0.0, 1.621000946885311E9, 2021-05-14 16:02:26.885
39.0, 134.0062255859375, -123.06140899658203, 120.72396850585938, 499.5178527832031, 0.03200000151991844, -0.04800000041723251, 1.055999994277954, 0.0, 0.0, 0.0, 0.0, 0.0, 1.621000946885311E9, 2021-05-14 16:02:26.885
40.0, 121.90764617919922, -126.21040344238281, 120.21908569335938, 491.1517028808594, 0.03200000151991844, -0.04800000041723251, 1.055999994277954, 0.0, 0.0, 0.0, 0.0, 0.0, 1.621000946898893E9, 2021-05-14 16:02:26.898
40.0, 141.64309692382812, -123.42791748046875, 125.22306823730469, 504.53680419921875, 0.03200000151991844, -0.04800000041723251, 1.055999994277954, 0.0, 0.0, 0.0, 0.0, 0.0, 1.621000946898893E9, 2021-05-14 16:02:26.898
41.0, 146.91636657714844, -115.731201171875, 131.63699340820312, 501.7319030761719, 0.03200000151991844, -0.04800000041723251, 1.055999994277954, 0.0, 0.0, 0.0, 0.0, 0.0, 1.6210009469144793E9, 2021-05-14 16:02:26.914
41.0, 142.29010009765625, -118.18457794189453, 126.78634643554688, 490.3439025878906, 0.03200000151991844, -0.04800000041723251, 1.055999994277954, 0.0, 0.0, 0.0, 0.0, 0.0, 1.6210009469144793E9, 2021-05-14 16:02:26.914
42.0, 135.15811157226562, -115.08419799804688, 129.21728515625, 479.4308776855469, 0.03200000151991844, -0.04800000041723251, 1.055999994277954, 0.0, 0.0, 0.0, 0.0, 0.0, 1.6210009469152024E9, 2021-05-14 16:02:26.915
42.0, 147.8775177001953, -102.64155578613281, 138.0359649658203, 493.5340270996094, 0.03200000151991844, -0.04800000041723251, 1.055999994277954, 0.0, 0.0, 0.0, 0.0, 0.0, 1.6210009469152024E9, 2021-05-14 16:02:26.915
43.0, 156.3521270751953, -103.73360443115234, 142.01522827148438, 496.48480224609375, 0.03200000151991844, -0.04800000041723251, 1.055999994277954, 0.0, 0.0, 0.0, 0.0, 0.0, 1.621000946928849E9, 2021-05-14 16:02:26.928
43.0, 135.18055725097656, -110.4130630493164, 143.47752380371094, 493.130126953125, 0.03200000151991844, -0.04800000041723251, 1.055999994277954, 0.0, 0.0, 0.0, 0.0, 0.0, 1.621000946928849E9, 2021-05-14 16:02:26.928
44.0, 117.42724609375, -112.74676513671875, 133.6154022216797, 485.57177734375, 0.03200000151991844, -0.04800000041723251, 1.055999994277954, 0.0, 0.0, 0.0, 0.0, 0.0, 1.621000946974338E9, 2021-05-14 16:02:26.974
44.0, 131.36585998535156, -108.51693725585938, 133.56304931640625, 497.1318054199219, 0.03200000151991844, -0.04800000041723251, 1.055999994277954, 0.0, 0.0, 0.0, 0.0, 0.0, 1.621000946974338E9, 2021-05-14 16:02:26.974
45.0, 129.01719665527344, -105.60355377197266, 135.43299865722656, 508.542236328125, 0.03200000151991844, -0.04800000041723251, 1.055999994277954, 0.0, 0.0, 0.0, 0.0, 0.0, 1.621000946992273E9, 2021-05-14 16:02:26.992
45.0, 107.32203674316406, -120.37242126464844, 118.8016586303711, 499.8170471191406, 0.03200000151991844, -0.04800000041723251, 1.055999994277954, 0.0, 0.0, 0.0, 0.0, 0.0, 1.621000946992273E9, 2021-05-14 16:02:26.992
46.0, 111.36861419677734, -123.61491394042969, 113.43490600585938, 499.6487731933594, 0.03200000151991844, -0.04800000041723251, 1.055999994277954, 0.0, 0.0, 0.0, 0.0, 0.0, 1.6210009469929345E9, 2021-05-14 16:02:26.992
46.0, 130.7001495361328, -116.66243743896484, 123.3194580078125, 513.5873413085938, 0.03200000151991844, -0.04800000041723251, 1.055999994277954, 0.0, 0.0, 0.0, 0.0, 0.0, 1.6210009469929345E9, 2021-05-14 16:02:26.992
47.0, 137.0205841064453, -118.42767333984375, 122.21619415283203, 524.504150390625, 0.03200000151991844, -0.04800000041723251, 1.055999994277954, 0.0, 0.0, 0.0, 0.0, 0.0, 1.62100094699378E9, 2021-05-14 16:02:26.993
47.0, 125.25859832763672, -131.45748901367188, 112.62709045410156, 511.40325927734375, 0.03200000151991844, -0.04800000041723251, 1.055999994277954, 0.0, 0.0, 0.0, 0.0, 0.0, 1.62100094699378E9, 2021-05-14 16:02:26.993
48.0, 128.1645050048828, -125.73169708251953, 114.19784545898438, 505.36334228515625, 0.03200000151991844, -0.04800000041723251, 1.055999994277954, 0.0, 0.0, 0.0, 0.0, 0.0, 1.6210009469944403E9, 2021-05-14 16:02:26.994
48.0, 140.50616455078125, -124.51622772216797, 112.97489929199219, 511.2611389160156, 0.03200000151991844, -0.04800000041723251, 1.055999994277954, 0.0, 0.0, 0.0, 0.0, 0.0, 1.6210009469944403E9, 2021-05-14 16:02:26.994
49.0, 146.30300903320312, -121.19519805908203, 115.11785888671875, 514.4849243164062, 0.03200000151991844, -0.04800000041723251, 1.055999994277954, 0.0, 0.0, 0.0, 0.0, 0.0, 1.6210009470052516E9, 2021-05-14 16:02:27.005
49.0, 136.5979766845703, -121.76366424560547, 107.20796966552734, 505.57275390625, 0.03200000151991844, -0.04800000041723251, 1.055999994277954, 0.0, 0.0, 0.0, 0.0, 0.0, 1.6210009470052516E9, 2021-05-14 16:02:27.005
50.0, 124.70509338378906, -121.40089416503906, 107.98587036132812, 500.067626953125, 0.03200000151991844, -0.04800000041723251, 1.055999994277954, 0.0, 0.0, 0.0, 0.0, 0.0, 1.6210009470059495E9, 2021-05-14 16:02:27.005
50.0, 137.6077423095703, -111.00022888183594, 116.25852966308594, 509.6156005859375, 0.03200000151991844, -0.04800000041723251, 1.055999994277954, 0.0, 0.0, 0.0, 0.0, 0.0, 1.6210009470059495E9, 2021-05-14 16:02:27.005
51.0, 144.1002197265625, -115.70128631591797, 120.05826568603516, 507.203369140625, 0.03200000151991844, -0.04800000041723251, 1.055999994277954, 0.0, 0.0, 0.0, 0.0, 0.0, 1.621000947006674E9, 2021-05-14 16:02:27.006
51.0, 129.6829071044922, -121.24382019042969, 110.71974182128906, 493.7397155761719, 0.03200000151991844, -0.04800000041723251, 1.055999994277954, 0.0, 0.0, 0.0, 0.0, 0.0, 1.621000947006674E9, 2021-05-14 16:02:27.006
52.0, 124.1515884399414, -117.92278289794922, 115.1851806640625, 488.3243408203125, 0.03200000151991844, -0.04800000041723251, 1.055999994277954, 0.0, 0.0, 0.0, 0.0, 0.0, 1.6210009470352936E9, 2021-05-14 16:02:27.035
52.0, 137.82839965820312, -103.26612091064453, 126.06080627441406, 491.2975769042969, 0.03200000151991844, -0.04800000041723251, 1.055999994277954, 0.0, 0.0, 0.0, 0.0, 0.0, 1.6210009470352936E9, 2021-05-14 16:02:27.035
53.0, 140.7081298828125, -93.9051513671875, 133.8809356689453, 496.3651428222656, 0.03200000151991844, -0.04800000041723251, 1.055999994277954, 0.0, 0.0, 0.0, 0.0, 0.0, 1.6210009470359344E9, 2021-05-14 16:02:27.035
53.0, 136.14544677734375, -96.75121307373047, 134.65884399414062, 478.0470886230469, 0.03200000151991844, -0.04800000041723251, 1.055999994277954, 0.0, 0.0, 0.0, 0.0, 0.0, 1.6210009470359344E9, 2021-05-14 16:02:27.035
54.0, 131.22000122070312, -110.01289367675781, 122.18627166748047, 473.8771057128906, 0.03200000151991844, -0.04800000041723251, 1.055999994277954, 0.0, 0.0, 0.0, 0.0, 0.0, 1.6210009470367503E9, 2021-05-14 16:02:27.036
54.0, 134.0922393798828, -106.73674774169922, 126.15056610107422, 492.2699279785156, 0.03200000151991844, -0.04800000041723251, 1.055999994277954, 0.0, 0.0, 0.0, 0.0, 0.0, 1.6210009470367503E9, 2021-05-14 16:02:27.036
55.0, 139.2196502685547, -105.42404174804688, 126.60309600830078, 504.87713623046875, 0.03200000151991844, -0.04800000041723251, 1.055999994277954, 0.0, 0.0, 0.0, 0.0, 0.0, 1.621000947065288E9, 2021-05-14 16:02:27.065
55.0, 114.1511001586914, -119.72541809082031, 111.40039825439453, 497.6778259277344, 0.03200000151991844, -0.04800000041723251, 1.055999994277954, 0.0, 0.0, 0.0, 0.0, 0.0, 1.621000947065288E9, 2021-05-14 16:02:27.065
56.0, 110.08208465576172, -132.3064422607422, 108.07189178466797, 502.0610046386719, 0.03200000151991844, -0.04800000041723251, 1.055999994277954, 0.0, 0.0, 0.0, 0.0, 0.0, 1.6210009470659935E9, 2021-05-14 16:02:27.065
56.0, 130.55055236816406, -126.87610626220703, 109.2462158203125, 513.53125, 0.03200000151991844, -0.04800000041723251, 1.055999994277954, 0.0, 0.0, 0.0, 0.0, 0.0, 1.6210009470659935E9, 2021-05-14 16:02:27.065
57.0, 131.72488403320312, -121.93569946289062, 108.8423080444336, 523.5018310546875, 0.03200000151991844, -0.04800000041723251, 1.055999994277954, 0.0, 0.0, 0.0, 0.0, 0.0, 1.621000947066642E9, 2021-05-14 16:02:27.066
57.0, 130.4757537841797, -129.03402709960938, 106.78536224365234, 510.5767517089844, 0.03200000151991844, -0.04800000041723251, 1.055999994277954, 0.0, 0.0, 0.0, 0.0, 0.0, 1.621000947066642E9, 2021-05-14 16:02:27.066
58.0, 125.49047088623047, -133.01327514648438, 107.58943939208984, 508.26922607421875, 0.03200000151991844, -0.04800000041723251, 1.055999994277954, 0.0, 0.0, 0.0, 0.0, 0.0, 1.6210009470788555E9, 2021-05-14 16:02:27.078
58.0, 129.6791534423828, -126.98456573486328, 113.4012451171875, 511.7510681152344, 0.03200000151991844, -0.04800000041723251, 1.055999994277954, 0.0, 0.0, 0.0, 0.0, 0.0, 1.6210009470788555E9, 2021-05-14 16:02:27.078
59.0, 131.95675659179688, -123.24465942382812, 114.17914581298828, 516.0482177734375, 0.03200000151991844, -0.04800000041723251, 1.055999994277954, 0.0, 0.0, 0.0, 0.0, 0.0, 1.6210009470951333E9, 2021-05-14 16:02:27.095
59.0, 125.16510009765625, -128.8208465576172, 108.45336151123047, 508.130859375, 0.03200000151991844, -0.04800000041723251, 1.055999994277954, 0.0, 0.0, 0.0, 0.0, 0.0, 1.6210009470951333E9, 2021-05-14 16:02:27.095
60.0, 122.7865219116211, -123.88418579101562, 110.8319320678711, 506.04400634765625, 0.03200000151991844, -0.04800000041723251, 1.055999994277954, 0.0, 0.0, 0.0, 0.0, 0.0, 1.6210009471100094E9, 2021-05-14 16:02:27.110
60.0, 136.77749633789062, -116.82325744628906, 118.5585708618164, 507.7867736816406, 0.03200000151991844, -0.04800000041723251, 1.055999994277954, 0.0, 0.0, 0.0, 0.0, 0.0, 1.6210009471100094E9, 2021-05-14 16:02:27.110
61.0, 140.68194580078125, -113.41246795654297, 122.7322998046875, 514.821533203125, 0.03200000151991844, -0.04800000041723251, 1.055999994277954, 0.0, 0.0, 0.0, 0.0, 0.0, 1.621000947125151E9, 2021-05-14 16:02:27.125
61.0, 133.0712432861328, -112.54106903076172, 124.13101959228516, 503.13433837890625, 0.03200000151991844, -0.04800000041723251, 1.055999994277954, 0.0, 0.0, 0.0, 0.0, 0.0, 1.621000947125151E9, 2021-05-14 16:02:27.125
62.0, 122.16944122314453, -114.17914581298828, 125.73169708251953, 496.1332702636719, 0.03200000151991844, -0.04800000041723251, 1.055999994277954, 0.0, 0.0, 0.0, 0.0, 0.0, 1.6210009471258829E9, 2021-05-14 16:02:27.125
62.0, 133.29190063476562, -104.90045166015625, 129.4716033935547, 498.4183349609375, 0.03200000151991844, -0.04800000041723251, 1.055999994277954, 0.0, 0.0, 0.0, 0.0, 0.0, 1.6210009471258829E9, 2021-05-14 16:02:27.125
63.0, 134.90005493164062, -101.42608642578125, 132.60189819335938, 496.30902099609375, 0.03200000151991844, -0.04800000041723251, 1.055999994277954, 0.0, 0.0, 0.0, 0.0, 0.0, 1.621000947126668E9, 2021-05-14 16:02:27.126
63.0, 129.2902069091797, -107.7390365600586, 124.80419921875, 479.2999572753906, 0.03200000151991844, -0.04800000041723251, 1.055999994277954, 0.0, 0.0, 0.0, 0.0, 0.0, 1.621000947126668E9, 2021-05-14 16:02:27.126
64.0, 127.08367156982422, -104.5676040649414, 123.82434844970703, 473.7424621582031, 0.03200000151991844, -0.04800000041723251, 1.055999994277954, 0.0, 0.0, 0.0, 0.0, 0.0, 1.6210009471549711E9, 2021-05-14 16:02:27.154
64.0, 141.8936767578125, -106.90878295898438, 129.8493194580078, 477.25048828125, 0.03200000151991844, -0.04800000041723251, 1.055999994277954, 0.0, 0.0, 0.0, 0.0, 0.0, 1.6210009471549711E9, 2021-05-14 16:02:27.154
65.0, 135.98463439941406, -104.3469467163086, 130.49632263183594, 500.6024475097656, 0.03200000151991844, -0.04800000041723251, 1.055999994277954, 0.0, 0.0, 0.0, 0.0, 0.0, 1.6210009471705875E9, 2021-05-14 16:02:27.170
65.0, 121.5224380493164, -116.6923599243164, 120.39485931396484, 488.43280029296875, 0.03200000151991844, -0.04800000041723251, 1.055999994277954, 0.0, 0.0, 0.0, 0.0, 0.0, 1.6210009471705875E9, 2021-05-14 16:02:27.170
66.0, 110.8786849975586, -125.24925231933594, 114.67655181884766, 491.7164306640625, 0.03200000151991844, -0.04800000041723251, 1.055999994277954, 0.0, 0.0, 0.0, 0.0, 0.0, 1.6210009471713204E9, 2021-05-14 16:02:27.171
66.0, 122.87628173828125, -117.32066345214844, 119.29532623291016, 503.2914123535156, 0.03200000151991844, -0.04800000041723251, 1.055999994277954, 0.0, 0.0, 0.0, 0.0, 0.0, 1.6210009471713204E9, 2021-05-14 16:02:27.171
67.0, 134.4325714111328, -115.226318359375, 118.50247192382812, 515.0347290039062, 0.03200000151991844, -0.04800000041723251, 1.055999994277954, 0.0, 0.0, 0.0, 0.0, 0.0, 1.6210009471720479E9, 2021-05-14 16:02:27.172
67.0, 129.10321044921875, -132.11570739746094, 108.12799072265625, 500.9614562988281, 0.03200000151991844, -0.04800000041723251, 1.055999994277954, 0.0, 0.0, 0.0, 0.0, 0.0, 1.6210009471720479E9, 2021-05-14 16:02:27.172
68.0, 120.32566833496094, -129.20606994628906, 109.29483795166016, 498.7549133300781, 0.03200000151991844, -0.04800000041723251, 1.055999994277954, 0.0, 0.0, 0.0, 0.0, 0.0, 1.6210009471845171E9, 2021-05-14 16:02:27.184
68.0, 132.3083038330078, -126.43853759765625, 109.6875228881836, 505.74853515625, 0.03200000151991844, -0.04800000041723251, 1.055999994277954, 0.0, 0.0, 0.0, 0.0, 0.0, 1.6210009471845171E9, 2021-05-14 16:02:27.184
69.0, 142.64540100097656, -125.71673583984375, 110.2896499633789, 510.39349365234375, 0.03200000151991844, -0.04800000041723251, 1.055999994277954, 0.0, 0.0, 0.0, 0.0, 0.0, 1.6210009471852498E9, 2021-05-14 16:02:27.185
69.0, 134.62704467773438, -130.93763732910156, 107.49220275878906, 500.2733154296875, 0.03200000151991844, -0.04800000041723251, 1.055999994277954, 0.0, 0.0, 0.0, 0.0, 0.0, 1.6210009471852498E9, 2021-05-14 16:02:27.185
70.0, 135.3189239501953, -143.64955139160156, 115.9256820678711, 497.9882507324219, 0.03200000151991844, -0.04800000041723251, 1.055999994277954, 0.0, 0.0, 0.0, 0.0, 0.0, 1.6210009472151654E9, 2021-05-14 16:02:27.215
70.0, 147.017333984375, -116.36698913574219, 120.95584106445312, 513.0001831054688, 0.03200000151991844, -0.04800000041723251, 1.055999994277954, 0.0, 0.0, 0.0, 0.0, 0.0, 1.6210009472151654E9, 2021-05-14 16:02:27.215
71.0, 146.1309814453125, -122.73603820800781, 116.53153991699219, 508.5085754394531, 0.03200000151991844, -0.04800000041723251, 1.055999994277954, 0.0, 0.0, 0.0, 0.0, 0.0, 1.6210009472158604E9, 2021-05-14 16:02:27.215
71.0, 138.64370727539062, -124.4002914428711, 121.03438568115234, 497.71148681640625, 0.03200000151991844, -0.04800000041723251, 1.055999994277954, 0.0, 0.0, 0.0, 0.0, 0.0, 1.6210009472158604E9, 2021-05-14 16:02:27.215
72.0, 128.99850463867188, -118.782958984375, 118.65206909179688, 488.9975280761719, 0.03200000151991844, -0.04800000041723251, 1.055999994277954, 0.0, 0.0, 0.0, 0.0, 0.0, 1.621000947216628E9, 2021-05-14 16:02:27.216
72.0, 135.7938995361328, -110.49534606933594, 129.28086853027344, 496.93359375, 0.03200000151991844, -0.04800000041723251, 1.055999994277954, 0.0, 0.0, 0.0, 0.0, 0.0, 1.621000947216628E9, 2021-05-14 16:02:27.216
73.0, 136.69146728515625, -106.28421783447266, 130.8665771484375, 500.60992431640625, 0.03200000151991844, -0.04800000041723251, 1.055999994277954, 0.0, 0.0, 0.0, 0.0, 0.0, 1.6210009472288733E9, 2021-05-14 16:02:27.228
73.0, 129.92599487304688, -110.3681869506836, 129.21728515625, 495.0337219238281, 0.03200000151991844, -0.04800000041723251, 1.055999994277954, 0.0, 0.0, 0.0, 0.0, 0.0, 1.6210009472288733E9, 2021-05-14 16:02:27.228
74.0, 119.55525207519531, -110.48786163330078, 124.73688507080078, 489.6370544433594, 0.03200000151991844, -0.04800000041723251, 1.055999994277954, 0.0, 0.0, 0.0, 0.0, 0.0, 1.6210009472445517E9, 2021-05-14 16:02:27.244
74.0, 130.42713928222656, -103.18757629394531, 122.43310546875, 500.6061706542969, 0.03200000151991844, -0.04800000041723251, 1.055999994277954, 0.0, 0.0, 0.0, 0.0, 0.0, 1.6210009472445517E9, 2021-05-14 16:02:27.244
75.0, 138.3220672607422, -108.0419692993164, 122.12643432617188, 501.02130126953125, 0.03200000151991844, -0.04800000041723251, 1.055999994277954, 0.0, 0.0, 0.0, 0.0, 0.0, 1.621000947245184E9, 2021-05-14 16:02:27.245
75.0, 128.3290557861328, -113.27409362792969, 122.67620086669922, 496.170654296875, 0.03200000151991844, -0.04800000041723251, 1.055999994277954, 0.0, 0.0, 0.0, 0.0, 0.0, 1.621000947245184E9, 2021-05-14 16:02:27.245
76.0, 120.36306762695312, -120.02461242675781, 109.31353759765625, 476.0799255371094, 0.03200000151991844, -0.04800000041723251, 1.055999994277954, 0.0, 0.0, 0.0, 0.0, 0.0, 1.6210009472752745E9, 2021-05-14 16:02:27.275
76.0, 133.34426879882812, -111.8529281616211, 119.75533294677734, 490.4411315917969, 0.03200000151991844, -0.04800000041723251, 1.055999994277954, 0.0, 0.0, 0.0, 0.0, 0.0, 1.6210009472752745E9, 2021-05-14 16:02:27.275
77.0, 135.6592559814453, -105.1098861694336, 121.80106353759766, 493.1936950683594, 0.03200000151991844, -0.04800000041723251, 1.055999994277954, 0.0, 0.0, 0.0, 0.0, 0.0, 1.6210009472759993E9, 2021-05-14 16:02:27.275
77.0, 117.90221405029297, -116.56146240234375, 103.183837890625, 479.9768981933594, 0.03200000151991844, -0.04800000041723251, 1.055999994277954, 0.0, 0.0, 0.0, 0.0, 0.0, 1.6210009472759993E9, 2021-05-14 16:02:27.275
78.0, 114.42037200927734, -124.55736541748047, 98.53140258789062, 483.35028076171875, 0.03200000151991844, -0.04800000041723251, 1.055999994277954, 0.0, 0.0, 0.0, 0.0, 0.0, 1.62100094727676E9, 2021-05-14 16:02:27.276
78.0, 133.11239624023438, -120.82868957519531, 108.53563690185547, 506.1188049316406, 0.03200000151991844, -0.04800000041723251, 1.055999994277954, 0.0, 0.0, 0.0, 0.0, 0.0, 1.62100094727676E9, 2021-05-14 16:02:27.276
79.0, 129.74273681640625, -110.57762145996094, 105.95884704589844, 511.7585754394531, 0.03200000151991844, -0.04800000041723251, 1.055999994277954, 0.0, 0.0, 0.0, 0.0, 0.0, 1.6210009472887945E9, 2021-05-14 16:02:27.288
79.0, 119.64126586914062, -120.34998321533203, 99.76557159423828, 496.0397644042969, 0.03200000151991844, -0.04800000041723251, 1.055999994277954, 0.0, 0.0, 0.0, 0.0, 0.0, 1.6210009472887945E9, 2021-05-14 16:02:27.288
80.0, 121.39527893066406, -124.80793762207031, 108.0419692993164, 497.85736083984375, 0.03200000151991844, -0.04800000041723251, 1.055999994277954, 0.0, 0.0, 0.0, 0.0, 0.0, 1.6210009473045459E9, 2021-05-14 16:02:27.304
80.0, 133.60604858398438, -113.09083557128906, 117.15984344482422, 509.2677917480469, 0.03200000151991844, -0.04800000041723251, 1.055999994277954, 0.0, 0.0, 0.0, 0.0, 0.0, 1.6210009473045459E9, 2021-05-14 16:02:27.304
81.0, 147.0584716796875, -104.21979522705078, 119.6618423461914, 512.8505859375, 0.03200000151991844, -0.04800000041723251, 1.055999994277954, 0.0, 0.0, 0.0, 0.0, 0.0, 1.6210009473053868E9, 2021-05-14 16:02:27.305
81.0, 131.18634033203125, -115.2076187133789, 109.51548767089844, 493.9678649902344, 0.03200000151991844, -0.04800000041723251, 1.055999994277954, 0.0, 0.0, 0.0, 0.0, 0.0, 1.6210009473053868E9, 2021-05-14 16:02:27.305
82.0, 126.65731811523438, -112.61212921142578, 111.35552215576172, 488.4140930175781, 0.03200000151991844, -0.04800000041723251, 1.055999994277954, 0.0, 0.0, 0.0, 0.0, 0.0, 1.621000947352203E9, 2021-05-14 16:02:27.352
82.0, 133.05255126953125, -108.59547424316406, 117.50017547607422, 494.1997375488281, 0.03200000151991844, -0.04800000041723251, 1.055999994277954, 0.0, 0.0, 0.0, 0.0, 0.0, 1.621000947352203E9, 2021-05-14 16:02:27.352
83.0, 139.6497344970703, -108.26262664794922, 121.7113037109375, 498.7511901855469, 0.03200000151991844, -0.04800000041723251, 1.055999994277954, 0.0, 0.0, 0.0, 0.0, 0.0, 1.6210009473529253E9, 2021-05-14 16:02:27.352
83.0, 118.18270874023438, -111.91650390625, 108.91710662841797, 489.4500427246094, 0.03200000151991844, -0.04800000041723251, 1.055999994277954, 0.0, 0.0, 0.0, 0.0, 0.0, 1.6210009473529253E9, 2021-05-14 16:02:27.352
84.0, 111.34991455078125, -114.66532897949219, 115.15525817871094, 485.7138977050781, 0.03200000151991844, -0.04800000041723251, 1.055999994277954, 0.0, 0.0, 0.0, 0.0, 0.0, 1.62100094735365E9, 2021-05-14 16:02:27.353
84.0, 126.07015991210938, -107.94847106933594, 116.21739196777344, 494.57745361328125, 0.03200000151991844, -0.04800000041723251, 1.055999994277954, 0.0, 0.0, 0.0, 0.0, 0.0, 1.62100094735365E9, 2021-05-14 16:02:27.353
85.0, 138.93167114257812, -104.08889770507812, 125.60079956054688, 504.3236389160156, 0.03200000151991844, -0.04800000041723251, 1.055999994277954, 0.0, 0.0, 0.0, 0.0, 0.0, 1.6210009473544924E9, 2021-05-14 16:02:27.354
85.0, 124.1889877319336, -103.27733612060547, 120.89974212646484, 491.1255187988281, 0.03200000151991844, -0.04800000041723251, 1.055999994277954, 0.0, 0.0, 0.0, 0.0, 0.0, 1.6210009473544924E9, 2021-05-14 16:02:27.354
86.0, 111.33121490478516, -105.04257202148438, 117.53009796142578, 483.1109313964844, 0.03200000151991844, -0.04800000041723251, 1.055999994277954, 0.0, 0.0, 0.0, 0.0, 0.0, 1.621000947364548E9, 2021-05-14 16:02:27.364
86.0, 130.5692596435547, -98.90913391113281, 123.52889251708984, 500.067626953125, 0.03200000151991844, -0.04800000041723251, 1.055999994277954, 0.0, 0.0, 0.0, 0.0, 0.0, 1.621000947364548E9, 2021-05-14 16:02:27.364
87.0, 137.00563049316406, -97.64505004882812, 133.8323211669922, 511.100341796875, 0.03200000151991844, -0.04800000041723251, 1.055999994277954, 0.0, 0.0, 0.0, 0.0, 0.0, 1.6210009473653283E9, 2021-05-14 16:02:27.365
87.0, 123.51206970214844, -112.72806549072266, 125.83641052246094, 496.7652893066406, 0.03200000151991844, -0.04800000041723251, 1.055999994277954, 0.0, 0.0, 0.0, 0.0, 0.0, 1.6210009473653283E9, 2021-05-14 16:02:27.365
88.0, 118.29490661621094, -124.7854995727539, 122.3695297241211, 490.4598388671875, 0.03200000151991844, -0.04800000041723251, 1.055999994277954, 0.0, 0.0, 0.0, 0.0, 0.0, 1.6210009473952203E9, 2021-05-14 16:02:27.395
88.0, 130.2700653076172, -116.8756103515625, 118.1546630859375, 496.23797607421875, 0.03200000151991844, -0.04800000041723251, 1.055999994277954, 0.0, 0.0, 0.0, 0.0, 0.0, 1.6210009473952203E9, 2021-05-14 16:02:27.395
89.0, 138.18743896484375, -113.4012451171875, 122.855712890625, 504.667724609375, 0.03200000151991844, -0.04800000041723251, 1.055999994277954, 0.0, 0.0, 0.0, 0.0, 0.0, 1.621000947395975E9, 2021-05-14 16:02:27.395
89.0, 133.59483337402344, -124.45265197753906, 106.56845092773438, 482.778076171875, 0.03200000151991844, -0.04800000041723251, 1.055999994277954, 0.0, 0.0, 0.0, 0.0, 0.0, 1.621000947395975E9, 2021-05-14 16:02:27.395
90.0, 129.1705322265625, -124.80793762207031, 96.71007537841797, 487.7820739746094, 0.03200000151991844, -0.04800000041723251, 1.055999994277954, 0.0, 0.0, 0.0, 0.0, 0.0, 1.6210009473967433E9, 2021-05-14 16:02:27.396
90.0, 147.7765350341797, -119.02979278564453, 103.76726531982422, 493.54150390625, 0.03200000151991844, -0.04800000041723251, 1.055999994277954, 0.0, 0.0, 0.0, 0.0, 0.0, 1.6210009473967433E9, 2021-05-14 16:02:27.396
91.0, 144.84071350097656, -113.25164794921875, 109.58280944824219, 496.4623718261719, 0.03200000151991844, -0.04800000041723251, 1.055999994277954, 0.0, 0.0, 0.0, 0.0, 0.0, 1.6210009474089088E9, 2021-05-14 16:02:27.408
91.0, 132.9066925048828, -116.19869232177734, 106.16454315185547, 489.562255859375, 0.03200000151991844, -0.04800000041723251, 1.055999994277954, 0.0, 0.0, 0.0, 0.0, 0.0, 1.6210009474089088E9, 2021-05-14 16:02:27.408
92.0, 122.83140563964844, -122.74725341796875, 107.33139038085938, 485.3174743652344, 0.03200000151991844, -0.04800000041723251, 1.055999994277954, 0.0, 0.0, 0.0, 0.0, 0.0, 1.621000947424235E9, 2021-05-14 16:02:27.424
92.0, 127.77928924560547, -120.1629867553711, 116.22860717773438, 498.3323059082031, 0.03200000151991844, -0.04800000041723251, 1.055999994277954, 0.0, 0.0, 0.0, 0.0, 0.0, 1.621000947424235E9, 2021-05-14 16:02:27.424
93.0, 131.7548065185547, -110.88803100585938, 117.62359619140625, 506.6498718261719, 0.03200000151991844, -0.04800000041723251, 1.055999994277954, 0.0, 0.0, 0.0, 0.0, 0.0, 1.621000947455051E9, 2021-05-14 16:02:27.455
93.0, 114.62232208251953, -119.56834411621094, 106.1121826171875, 492.9842529296875, 0.03200000151991844, -0.04800000041723251, 1.055999994277954, 0.0, 0.0, 0.0, 0.0, 0.0, 1.621000947455051E9, 2021-05-14 16:02:27.455
94.0, 112.1053695678711, -122.010498046875, 100.56591033935547, 488.78436279296875, 0.03200000151991844, -0.04800000041723251, 1.055999994277954, 0.0, 0.0, 0.0, 0.0, 0.0, 1.6210009474558787E9, 2021-05-14 16:02:27.455
94.0, 121.10356903076172, -111.0488510131836, 101.12315368652344, 497.45343017578125, 0.03200000151991844, -0.04800000041723251, 1.055999994277954, 0.0, 0.0, 0.0, 0.0, 0.0, 1.6210009474558787E9, 2021-05-14 16:02:27.455
95.0, 128.01864624023438, -103.82710266113281, 110.96656799316406, 501.2718811035156, 0.03200000151991844, -0.04800000041723251, 1.055999994277954, 0.0, 0.0, 0.0, 0.0, 0.0, 1.62100094747022E9, 2021-05-14 16:02:27.470
95.0, 115.26932525634766, -107.00601959228516, 111.21714782714844, 493.6985778808594, 0.03200000151991844, -0.04800000041723251, 1.055999994277954, 0.0, 0.0, 0.0, 0.0, 0.0, 1.62100094747022E9, 2021-05-14 16:02:27.470
96.0, 114.45028686523438, -107.44358825683594, 111.3929214477539, 487.9316711425781, 0.03200000151991844, -0.04800000041723251, 1.055999994277954, 0.0, 0.0, 0.0, 0.0, 0.0, 1.6210009474709616E9, 2021-05-14 16:02:27.470
96.0, 126.93781280517578, -103.62140655517578, 113.37133026123047, 501.9862060546875, 0.03200000151991844, -0.04800000041723251, 1.055999994277954, 0.0, 0.0, 0.0, 0.0, 0.0, 1.6210009474709616E9, 2021-05-14 16:02:27.470
97.0, 138.2061309814453, -100.32655334472656, 120.2078628540039, 509.91851806640625, 0.03200000151991844, -0.04800000041723251, 1.055999994277954, 0.0, 0.0, 0.0, 0.0, 0.0, 1.6210009474717472E9, 2021-05-14 16:02:27.471
97.0, 118.92694854736328, -109.04426574707031, 114.43720245361328, 488.4290771484375, 0.03200000151991844, -0.04800000041723251, 1.055999994277954, 0.0, 0.0, 0.0, 0.0, 0.0, 1.6210009474717472E9, 2021-05-14 16:02:27.471
98.0, 113.8893051147461, -109.34345245361328, 115.44322967529297, 488.9152526855469, 0.03200000151991844, -0.04800000041723251, 1.055999994277954, 0.0, 0.0, 0.0, 0.0, 0.0, 1.6210009474844728E9, 2021-05-14 16:02:27.484
98.0, 127.38660430908203, -102.97440338134766, 120.39859771728516, 501.37286376953125, 0.03200000151991844, -0.04800000041723251, 1.055999994277954, 0.0, 0.0, 0.0, 0.0, 0.0, 1.6210009474844728E9, 2021-05-14 16:02:27.484
99.0, 133.85662841796875, -109.15271759033203, 118.13970184326172, 510.25885009765625, 0.03200000151991844, -0.04800000041723251, 1.055999994277954, 0.0, 0.0, 0.0, 0.0, 0.0, 1.6210009474852452E9, 2021-05-14 16:02:27.485
99.0, 122.42375183105469, -121.81602478027344, 121.27747344970703, 506.0776672363281, 0.03200000151991844, -0.04800000041723251, 1.055999994277954, 0.0, 0.0, 0.0, 0.0, 0.0, 1.6210009474852452E9, 2021-05-14 16:02:27.485
100.0, 115.4376220703125, -125.29786682128906, 112.28675842285156, 494.6933898925781, 0.03200000151991844, -0.04800000041723251, 1.055999994277954, 0.0, 0.0, 0.0, 0.0, 0.0, 1.6210009474995513E9, 2021-05-14 16:02:27.499
100.0, 136.0519561767578, -112.2792739868164, 116.20990753173828, 505.2474060058594, 0.03200000151991844, -0.04800000041723251, 1.055999994277954, 0.0, 0.0, 0.0, 0.0, 0.0, 1.6210009474995513E9, 2021-05-14 16:02:27.499
0.0, 141.1699981689453, -111.50885772705078, 116.15568542480469, 513.1871948242188, 0.03200000151991844, -0.04800000041723251, 1.055999994277954, 0.0, 0.0, 0.0, 0.0, 0.0, 1.6210009475002267E9, 2021-05-14 16:02:27.500
1.0, 125.5073013305664, -118.80540466308594, 113.48539733886719, 503.788818359375, 0.03200000151991844, -0.04800000041723251, 1.055999994277954, 0.0, 0.0, 0.0, 0.0, 0.0, 1.6210009475138443E9, 2021-05-14 16:02:27.513
1.0, 116.09771728515625, -130.5823516845703, 107.57635498046875, 500.86798095703125, 0.03200000151991844, -0.04800000041723251, 1.055999994277954, 0.0, 0.0, 0.0, 0.0, 0.0, 1.6210009475138443E9, 2021-05-14 16:02:27.513
2.0, 126.9696044921875, -118.10604095458984, 109.48370361328125, 510.8348083496094, 0.03200000151991844, -0.04800000041723251, 1.055999994277954, 0.0, 0.0, 0.0, 0.0, 0.0, 1.621000947545836E9, 2021-05-14 16:02:27.545
2.0, 129.4267120361328, -112.58594512939453, 116.31649780273438, 520.4238891601562, 0.03200000151991844, -0.04800000041723251, 1.055999994277954, 0.0, 0.0, 0.0, 0.0, 0.0, 1.621000947545836E9, 2021-05-14 16:02:27.545
3.0, 121.75992584228516, -126.34130096435547, 117.15797424316406, 511.8445739746094, 0.03200000151991844, -0.04800000041723251, 1.055999994277954, 0.0, 0.0, 0.0, 0.0, 0.0, 1.621000947546616E9, 2021-05-14 16:02:27.546
3.0, 118.47628784179688, -132.5682373046875, 115.7592544555664, 509.1443786621094, 0.03200000151991844, -0.04800000041723251, 1.055999994277954, 0.0, 0.0, 0.0, 0.0, 0.0, 1.621000947546616E9, 2021-05-14 16:02:27.546
4.0, 118.61466979980469, -119.75533294677734, 118.8895492553711, 511.2125244140625, 0.03200000151991844, -0.04800000041723251, 1.055999994277954, 0.0, 0.0, 0.0, 0.0, 0.0, 1.621000947547336E9, 2021-05-14 16:02:27.547
4.0, 127.3286361694336, -108.89466857910156, 124.21891021728516, 513.5462036132812, 0.03200000151991844, -0.04800000041723251, 1.055999994277954, 0.0, 0.0, 0.0, 0.0, 0.0, 1.621000947547336E9, 2021-05-14 16:02:27.547
5.0, 116.67366027832031, -118.86150360107422, 120.35932922363281, 500.0601501464844, 0.03200000151991844, -0.04800000041723251, 1.055999994277954, 0.0, 0.0, 0.0, 0.0, 0.0, 1.6210009475481076E9, 2021-05-14 16:02:27.548
5.0, 115.63396453857422, -115.12159729003906, 117.03829956054688, 489.2181701660156, 0.03200000151991844, -0.04800000041723251, 1.055999994277954, 0.0, 0.0, 0.0, 0.0, 0.0, 1.6210009475481076E9, 2021-05-14 16:02:27.548
6.0, 127.21643829345703, -113.44612884521484, 119.57769012451172, 494.87664794921875, 0.03200000151991844, -0.04800000041723251, 1.055999994277954, 0.0, 0.0, 0.0, 0.0, 0.0, 1.6210009475588548E9, 2021-05-14 16:02:27.558
6.0, 136.05755615234375, -109.02556610107422, 120.4154281616211, 494.0501403808594, 0.03200000151991844, -0.04800000041723251, 1.055999994277954, 0.0, 0.0, 0.0, 0.0, 0.0, 1.6210009475588548E9, 2021-05-14 16:02:27.558
7.0, 123.74207305908203, -115.36095428466797, 113.21611785888672, 480.911865234375, 0.03200000151991844, -0.04800000041723251, 1.055999994277954, 0.0, 0.0, 0.0, 0.0, 0.0, 1.6210009475737612E9, 2021-05-14 16:02:27.573
7.0, 121.70382690429688, -119.69549560546875, 112.3260269165039, 487.6549072265625, 0.03200000151991844, -0.04800000041723251, 1.055999994277954, 0.0, 0.0, 0.0, 0.0, 0.0, 1.6210009475737612E9, 2021-05-14 16:02:27.573
8.0, 129.52395629882812, -115.06175994873047, 106.77975463867188, 494.8018493652344, 0.03200000151991844, -0.04800000041723251, 1.055999994277954, 0.0, 0.0, 0.0, 0.0, 0.0, 1.6210009475894444E9, 2021-05-14 16:02:27.589
8.0, 129.35940551757812, -128.64508056640625, 110.29899597167969, 506.71343994140625, 0.03200000151991844, -0.04800000041723251, 1.055999994277954, 0.0, 0.0, 0.0, 0.0, 0.0, 1.6210009475894444E9, 2021-05-14 16:02:27.589
9.0, 119.7815170288086, -121.3934097290039, 109.42760467529297, 500.6136474609375, 0.03200000151991844, -0.04800000041723251, 1.055999994277954, 0.0, 0.0, 0.0, 0.0, 0.0, 1.62100094759021E9, 2021-05-14 16:02:27.590
9.0, 114.87102508544922, -127.88214111328125, 109.30044555664062, 504.2637939453125, 0.03200000151991844, -0.04800000041723251, 1.055999994277954, 0.0, 0.0, 0.0, 0.0, 0.0, 1.62100094759021E9, 2021-05-14 16:02:27.590
10.0, 125.79901123046875, -123.39425659179688, 113.11140441894531, 510.5917053222656, 0.03200000151991844, -0.04800000041723251, 1.055999994277954, 0.0, 0.0, 0.0, 0.0, 0.0, 1.6210009476038852E9, 2021-05-14 16:02:27.603
10.0, 123.52889251708984, -111.84170532226562, 115.62835693359375, 518.6063232421875, 0.03200000151991844, -0.04800000041723251, 1.055999994277954, 0.0, 0.0, 0.0, 0.0, 0.0, 1.6210009476038852E9, 2021-05-14 16:02:27.603
11.0, 114.87850952148438, -123.73085021972656, 109.80907440185547, 506.3506774902344, 0.03200000151991844, -0.04800000041723251, 1.055999994277954, 0.0, 0.0, 0.0, 0.0, 0.0, 1.6210009476195943E9, 2021-05-14 16:02:27.619
11.0, 112.81034088134766, -129.03028869628906, 109.90257263183594, 506.37310791015625, 0.03200000151991844, -0.04800000041723251, 1.055999994277954, 0.0, 0.0, 0.0, 0.0, 0.0, 1.6210009476195943E9, 2021-05-14 16:02:27.619
12.0, 127.0294418334961, -117.72457122802734, 120.49022674560547, 516.1417236328125, 0.03200000151991844, -0.04800000041723251, 1.055999994277954, 0.0, 0.0, 0.0, 0.0, 0.0, 1.6210009476202388E9, 2021-05-14 16:02:27.620
12.0, 128.69369506835938, -108.60295104980469, 121.19706726074219, 524.0927734375, 0.03200000151991844, -0.04800000041723251, 1.055999994277954, 0.0, 0.0, 0.0, 0.0, 0.0, 1.6210009476202388E9, 2021-05-14 16:02:27.620
13.0, 114.21280670166016, -118.49124908447266, 114.2109375, 505.172607421875, 0.03200000151991844, -0.04800000041723251, 1.055999994277954, 0.0, 0.0, 0.0, 0.0, 0.0, 1.6210009476337535E9, 2021-05-14 16:02:27.633
13.0, 110.54396057128906, -119.62818145751953, 111.9819564819336, 497.3487243652344, 0.03200000151991844, -0.04800000041723251, 1.055999994277954, 0.0, 0.0, 0.0, 0.0, 0.0, 1.6210009476337535E9, 2021-05-14 16:02:27.633
14.0, 123.03523254394531, -111.19844818115234, 115.22444915771484, 507.37164306640625, 0.03200000151991844, -0.04800000041723251, 1.055999994277954, 0.0, 0.0, 0.0, 0.0, 0.0, 1.6210009476494126E9, 2021-05-14 16:02:27.649
14.0, 128.63011169433594, -104.12255096435547, 119.96664428710938, 507.3043518066406, 0.03200000151991844, -0.04800000041723251, 1.055999994277954, 0.0, 0.0, 0.0, 0.0, 0.0, 1.6210009476494126E9, 2021-05-14 16:02:27.649
15.0, 118.66702270507812, -114.77752685546875, 120.19103240966797, 490.76275634765625, 0.03200000151991844, -0.04800000041723251, 1.055999994277954, 0.0, 0.0, 0.0, 0.0, 0.0, 1.621000947650122E9, 2021-05-14 16:02:27.650
15.0, 116.46422576904297, -114.67281341552734, 118.94938659667969, 481.8879699707031, 0.03200000151991844, -0.04800000041723251, 1.055999994277954, 0.0, 0.0, 0.0, 0.0, 0.0, 1.621000947650122E9, 2021-05-14 16:02:27.650
16.0, 135.12258911132812, -103.94303894042969, 123.37368774414062, 481.74212646484375, 0.03200000151991844, -0.04800000041723251, 1.055999994277954, 0.0, 0.0, 0.0, 0.0, 0.0, 1.6210009476638112E9, 2021-05-14 16:02:27.663
16.0, 146.18521118164062, -95.72274017333984, 125.76348876953125, 481.9739990234375, 0.03200000151991844, -0.04800000041723251, 1.055999994277954, 0.0, 0.0, 0.0, 0.0, 0.0, 1.6210009476638112E9, 2021-05-14 16:02:27.663
17.0, 127.95319366455078, -111.40039825439453, 115.3366470336914, 475.5899963378906, 0.03200000151991844, -0.04800000041723251, 1.055999994277954, 0.0, 0.0, 0.0, 0.0, 0.0, 1.6210009476792743E9, 2021-05-14 16:02:27.679
17.0, 123.83930969238281, -113.30400848388672, 111.92585754394531, 478.93719482421875, 0.03200000151991844, -0.04800000041723251, 1.055999994277954, 0.0, 0.0, 0.0, 0.0, 0.0, 1.6210009476792743E9, 2021-05-14 16:02:27.679
18.0, 135.4404754638672, -103.74856567382812, 118.0854721069336, 498.1266174316406, 0.03200000151991844, -0.04800000041723251, 1.055999994277954, 0.0, 0.0, 0.0, 0.0, 0.0, 1.6210009476945577E9, 2021-05-14 16:02:27.694
18.0, 134.62518310546875, -111.19844818115234, 117.97701263427734, 508.5048522949219, 0.03200000151991844, -0.04800000041723251, 1.055999994277954, 0.0, 0.0, 0.0, 0.0, 0.0, 1.6210009476945577E9, 2021-05-14 16:02:27.694
19.0, 117.8330307006836, -119.69549560546875, 109.11344909667969, 498.4931335449219, 0.03200000151991844, -0.04800000041723251, 1.055999994277954, 0.0, 0.0, 0.0, 0.0, 0.0, 1.6210009476951475E9, 2021-05-14 16:02:27.695
19.0, 119.33646392822266, -125.8850326538086, 108.25701141357422, 501.1335144042969, 0.03200000151991844, -0.04800000041723251, 1.055999994277954, 0.0, 0.0, 0.0, 0.0, 0.0, 1.6210009476951475E9, 2021-05-14 16:02:27.695
20.0, 128.26734924316406, -116.54650115966797, 116.0771484375, 517.2898559570312, 0.03200000151991844, -0.04800000041723251, 1.055999994277954, 0.0, 0.0, 0.0, 0.0, 0.0, 1.6210009477101407E9, 2021-05-14 16:02:27.710
20.0, 129.87550354003906, -117.06634521484375, 113.09270477294922, 515.1655883789062, 0.03200000151991844, -0.04800000041723251, 1.055999994277954, 0.0, 0.0, 0.0, 0.0, 0.0, 1.6210009477101407E9, 2021-05-14 16:02:27.710
21.0, 122.07781219482422, -123.9178466796875, 114.24459075927734, 507.7942810058594, 0.03200000151991844, -0.04800000041723251, 1.055999994277954, 0.0, 0.0, 0.0, 0.0, 0.0, 1.621000947710956E9, 2021-05-14 16:02:27.710
21.0, 115.12908172607422, -123.3381576538086, 111.43966674804688, 509.05462646484375, 0.03200000151991844, -0.04800000041723251, 1.055999994277954, 0.0, 0.0, 0.0, 0.0, 0.0, 1.621000947710956E9, 2021-05-14 16:02:27.710
22.0, 128.2823028564453, -119.26914978027344, 118.82223510742188, 522.088134765625, 0.03200000151991844, -0.04800000041723251, 1.055999994277954, 0.0, 0.0, 0.0, 0.0, 0.0, 1.6210009477239752E9, 2021-05-14 16:02:27.723
22.0, 133.34986877441406, -111.57243347167969, 122.16944122314453, 522.3761596679688, 0.03200000151991844, -0.04800000041723251, 1.055999994277954, 0.0, 0.0, 0.0, 0.0, 0.0, 1.6210009477239752E9, 2021-05-14 16:02:27.723
23.0, 121.3522720336914, -127.69140625, 112.17642974853516, 508.18695068359375, 0.03200000151991844, -0.04800000041723251, 1.055999994277954, 0.0, 0.0, 0.0, 0.0, 0.0, 1.6210009477392762E9, 2021-05-14 16:02:27.739
23.0, 120.39485931396484, -108.59173583984375, 114.48768615722656, 504.79486083984375, 0.03200000151991844, -0.04800000041723251, 1.055999994277954, 0.0, 0.0, 0.0, 0.0, 0.0, 1.6210009477392762E9, 2021-05-14 16:02:27.739
24.0, 131.3751983642578, -104.05149841308594, 122.29660034179688, 506.76953125, 0.03200000151991844, -0.04800000041723251, 1.055999994277954, 0.0, 0.0, 0.0, 0.0, 0.0, 1.6210009477544205E9, 2021-05-14 16:02:27.754
24.0, 133.56678771972656, -103.1015625, 121.72439575195312, 497.3898620605469, 0.03200000151991844, -0.04800000041723251, 1.055999994277954, 0.0, 0.0, 0.0, 0.0, 0.0, 1.6210009477544205E9, 2021-05-14 16:02:27.754
25.0, 124.8640365600586, -102.20024871826172, 121.87399291992188, 489.5846862792969, 0.03200000151991844, -0.04800000041723251, 1.055999994277954, 0.0, 0.0, 0.0, 0.0, 0.0, 1.6210009477551603E9, 2021-05-14 16:02:27.755
25.0, 119.88623046875, -109.54541015625, 116.87000274658203, 473.5180969238281, 0.03200000151991844, -0.04800000041723251, 1.055999994277954, 0.0, 0.0, 0.0, 0.0, 0.0, 1.6210009477551603E9, 2021-05-14 16:02:27.755
26.0, 136.6297607421875, -108.73384857177734, 118.5492172241211, 477.92742919921875, 0.03200000151991844, -0.04800000041723251, 1.055999994277954, 0.0, 0.0, 0.0, 0.0, 0.0, 1.621000947769516E9, 2021-05-14 16:02:27.769
26.0, 148.99388122558594, -103.51295471191406, 122.47985076904297, 490.6430969238281, 0.03200000151991844, -0.04800000041723251, 1.055999994277954, 0.0, 0.0, 0.0, 0.0, 0.0, 1.621000947769516E9, 2021-05-14 16:02:27.769
27.0, 136.424072265625, -112.17829895019531, 120.49022674560547, 480.7248840332031, 0.03200000151991844, -0.04800000041723251, 1.055999994277954, 0.0, 0.0, 0.0, 0.0, 0.0, 1.6210009477702205E9, 2021-05-14 16:02:27.770
27.0, 129.0452423095703, -117.92652893066406, 113.01042938232422, 480.9417724609375, 0.03200000151991844, -0.04800000041723251, 1.055999994277954, 0.0, 0.0, 0.0, 0.0, 0.0, 1.6210009477702205E9, 2021-05-14 16:02:27.770
28.0, 134.32972717285156, -113.07587432861328, 115.06737518310547, 499.4468078613281, 0.03200000151991844, -0.04800000041723251, 1.055999994277954, 0.0, 0.0, 0.0, 0.0, 0.0, 1.6210009477837834E9, 2021-05-14 16:02:27.783
28.0, 136.58114624023438, -108.60295104980469, 115.20574951171875, 509.3351135253906, 0.03200000151991844, -0.04800000041723251, 1.055999994277954, 0.0, 0.0, 0.0, 0.0, 0.0, 1.6210009477837834E9, 2021-05-14 16:02:27.783
29.0, 126.51333618164062, -121.50560760498047, 107.9129409790039, 501.66082763671875, 0.03200000151991844, -0.04800000041723251, 1.055999994277954, 0.0, 0.0, 0.0, 0.0, 0.0, 1.6210009478000064E9, 2021-05-14 16:02:27.800
29.0, 116.82325744628906, -128.16636657714844, 104.33760070800781, 496.1332702636719, 0.03200000151991844, -0.04800000041723251, 1.055999994277954, 0.0, 0.0, 0.0, 0.0, 0.0, 1.6210009478000064E9, 2021-05-14 16:02:27.800
30.0, 126.99578094482422, -118.50621032714844, 111.80992126464844, 512.9291381835938, 0.03200000151991844, -0.04800000041723251, 1.055999994277954, 0.0, 0.0, 0.0, 0.0, 0.0, 1.6210009478149602E9, 2021-05-14 16:02:27.814
30.0, 133.2825469970703, -116.92423248291016, 110.49347686767578, 520.1995239257812, 0.03200000151991844, -0.04800000041723251, 1.055999994277954, 0.0, 0.0, 0.0, 0.0, 0.0, 1.6210009478149602E9, 2021-05-14 16:02:27.814
31.0, 118.65580749511719, -118.38653564453125, 110.99462127685547, 514.2605590820312, 0.03200000151991844, -0.04800000041723251, 1.055999994277954, 0.0, 0.0, 0.0, 0.0, 0.0, 1.6210009478301723E9, 2021-05-14 16:02:27.830
31.0, 112.514892578125, -129.23223876953125, 105.72884368896484, 506.4927673339844, 0.03200000151991844, -0.04800000041723251, 1.055999994277954, 0.0, 0.0, 0.0, 0.0, 0.0, 1.6210009478301723E9, 2021-05-14 16:02:27.830
32.0, 127.06684112548828, -119.03353881835938, 110.99462127685547, 513.9464111328125, 0.03200000151991844, -0.04800000041723251, 1.055999994277954, 0.0, 0.0, 0.0, 0.0, 0.0, 1.621000947830896E9, 2021-05-14 16:02:27.830
32.0, 128.9143524169922, -112.82156372070312, 117.20659637451172, 515.2291870117188, 0.03200000151991844, -0.04800000041723251, 1.055999994277954, 0.0, 0.0, 0.0, 0.0, 0.0, 1.621000947830896E9, 2021-05-14 16:02:27.830
33.0, 126.17674255371094, -113.7602767944336, 121.79544830322266, 500.44537353515625, 0.03200000151991844, -0.04800000041723251, 1.055999994277954, 0.0, 0.0, 0.0, 0.0, 0.0, 1.6210009478317711E9, 2021-05-14 16:02:27.831
33.0, 122.67245483398438, -115.9256820678711, 116.23796081542969, 489.2443542480469, 0.03200000151991844, -0.04800000041723251, 1.055999994277954, 0.0, 0.0, 0.0, 0.0, 0.0, 1.6210009478317711E9, 2021-05-14 16:02:27.831
34.0, 132.24285888671875, -106.92748260498047, 122.7491226196289, 499.1887512207031, 0.03200000151991844, -0.04800000041723251, 1.055999994277954, 0.0, 0.0, 0.0, 0.0, 0.0, 1.6210009478438537E9, 2021-05-14 16:02:27.843
34.0, 138.1556396484375, -104.85557556152344, 126.50398254394531, 504.91455078125, 0.03200000151991844, -0.04800000041723251, 1.055999994277954, 0.0, 0.0, 0.0, 0.0, 0.0, 1.6210009478438537E9, 2021-05-14 16:02:27.843
35.0, 124.54615020751953, -110.54022216796875, 120.65478515625, 493.62005615234375, 0.03200000151991844, -0.04800000041723251, 1.055999994277954, 0.0, 0.0, 0.0, 0.0, 0.0, 1.6210009478599484E9, 2021-05-14 16:02:27.859
35.0, 118.52490997314453, -117.7956314086914, 121.57853698730469, 483.0585632324219, 0.03200000151991844, -0.04800000041723251, 1.055999994277954, 0.0, 0.0, 0.0, 0.0, 0.0, 1.6210009478599484E9, 2021-05-14 16:02:27.859
36.0, 128.03921508789062, -111.81926727294922, 128.96484375, 491.4247131347656, 0.03200000151991844, -0.04800000041723251, 1.055999994277954, 0.0, 0.0, 0.0, 0.0, 0.0, 1.6210009478746736E9, 2021-05-14 16:02:27.874
36.0, 134.9430694580078, -102.62285614013672, 130.81234741210938, 492.08294677734375, 0.03200000151991844, -0.04800000041723251, 1.055999994277954, 0.0, 0.0, 0.0, 0.0, 0.0, 1.6210009478746736E9, 2021-05-14 16:02:27.874
37.0, 134.60647583007812, -105.16224670410156, 127.75311279296875, 478.8399658203125, 0.03200000151991844, -0.04800000041723251, 1.055999994277954, 0.0, 0.0, 0.0, 0.0, 0.0, 1.6210009478752797E9, 2021-05-14 16:02:27.875
37.0, 133.2414093017578, -105.73445129394531, 125.30347442626953, 481.39056396484375, 0.03200000151991844, -0.04800000041723251, 1.055999994277954, 0.0, 0.0, 0.0, 0.0, 0.0, 1.6210009478752797E9, 2021-05-14 16:02:27.875
38.0, 141.52903747558594, -107.69042205810547, 126.94903564453125, 495.9462585449219, 0.03200000151991844, -0.04800000041723251, 1.055999994277954, 0.0, 0.0, 0.0, 0.0, 0.0, 1.6210009478895054E9, 2021-05-14 16:02:27.889
38.0, 141.40562438964844, -111.89032745361328, 116.9635009765625, 509.0920104980469, 0.03200000151991844, -0.04800000041723251, 1.055999994277954, 0.0, 0.0, 0.0, 0.0, 0.0, 1.6210009478895054E9, 2021-05-14 16:02:27.889
39.0, 126.31512451171875, -118.3790512084961, 107.46415710449219, 500.89788818359375, 0.03200000151991844, -0.04800000041723251, 1.055999994277954, 0.0, 0.0, 0.0, 0.0, 0.0, 1.6210009478902164E9, 2021-05-14 16:02:27.890
39.0, 120.70153045654297, -122.43684387207031, 107.67733001708984, 497.4870910644531, 0.03200000151991844, -0.04800000041723251, 1.055999994277954, 0.0, 0.0, 0.0, 0.0, 0.0, 1.6210009478902164E9, 2021-05-14 16:02:27.890
40.0, 128.94801330566406, -118.91385650634766, 113.44425201416016, 513.7033081054688, 0.03200000151991844, -0.04800000041723251, 1.055999994277954, 0.0, 0.0, 0.0, 0.0, 0.0, 1.6210009479208767E9, 2021-05-14 16:02:27.920
40.0, 134.48306274414062, -120.56689453125, 117.0457763671875, 517.6563720703125, 0.03200000151991844, -0.04800000041723251, 1.055999994277954, 0.0, 0.0, 0.0, 0.0, 0.0, 1.6210009479208767E9, 2021-05-14 16:02:27.920
41.0, 125.21559143066406, -121.26251983642578, 114.63728332519531, 511.78472900390625, 0.03200000151991844, -0.04800000041723251, 1.055999994277954, 0.0, 0.0, 0.0, 0.0, 0.0, 1.6210009479217103E9, 2021-05-14 16:02:27.921
41.0, 113.46482849121094, -119.3215103149414, 112.4083023071289, 508.8040466308594, 0.03200000151991844, -0.04800000041723251, 1.055999994277954, 0.0, 0.0, 0.0, 0.0, 0.0, 1.6210009479217103E9, 2021-05-14 16:02:27.921
42.0, 130.1859130859375, -110.7496566772461, 115.93502807617188, 521.5234375, 0.03200000151991844, -0.04800000041723251, 1.055999994277954, 0.0, 0.0, 0.0, 0.0, 0.0, 1.6210009479223504E9, 2021-05-14 16:02:27.922
42.0, 134.23997497558594, -105.7531509399414, 119.45427703857422, 524.492919921875, 0.03200000151991844, -0.04800000041723251, 1.055999994277954, 0.0, 0.0, 0.0, 0.0, 0.0, 1.6210009479223504E9, 2021-05-14 16:02:27.922
43.0, 118.3416519165039, -113.49100494384766, 113.95661926269531, 513.6434936523438, 0.03200000151991844, -0.04800000041723251, 1.055999994277954, 0.0, 0.0, 0.0, 0.0, 0.0, 1.6210009479338875E9, 2021-05-14 16:02:27.933
43.0, 115.37591552734375, -118.77548217773438, 110.55331420898438, 507.61102294921875, 0.03200000151991844, -0.04800000041723251, 1.055999994277954, 0.0, 0.0, 0.0, 0.0, 0.0, 1.6210009479338875E9, 2021-05-14 16:02:27.933
44.0, 126.80504608154297, -111.59861755371094, 114.22589111328125, 505.7522888183594, 0.03200000151991844, -0.04800000041723251, 1.055999994277954, 0.0, 0.0, 0.0, 0.0, 0.0, 1.6210009479495301E9, 2021-05-14 16:02:27.949
44.0, 136.0276336669922, -101.4747085571289, 119.12516021728516, 504.2825012207031, 0.03200000151991844, -0.04800000041723251, 1.055999994277954, 0.0, 0.0, 0.0, 0.0, 0.0, 1.6210009479495301E9, 2021-05-14 16:02:27.949
45.0, 125.26420593261719, -117.75823211669922, 109.37150573730469, 487.3258056640625, 0.03200000151991844, -0.04800000041723251, 1.055999994277954, 0.0, 0.0, 0.0, 0.0, 0.0, 1.6210009479501932E9, 2021-05-14 16:02:27.950
45.0, 115.77234649658203, -111.4714584350586, 109.85021209716797, 479.1092224121094, 0.03200000151991844, -0.04800000041723251, 1.055999994277954, 0.0, 0.0, 0.0, 0.0, 0.0, 1.6210009479501932E9, 2021-05-14 16:02:27.950
46.0, 124.18338012695312, -104.14125061035156, 113.74718475341797, 487.41180419921875, 0.03200000151991844, -0.04800000041723251, 1.055999994277954, 0.0, 0.0, 0.0, 0.0, 0.0, 1.6210009479793165E9, 2021-05-14 16:02:27.979
46.0, 131.21438598632812, -97.17755889892578, 115.8789291381836, 489.375244140625, 0.03200000151991844, -0.04800000041723251, 1.055999994277954, 0.0, 0.0, 0.0, 0.0, 0.0, 1.6210009479793165E9, 2021-05-14 16:02:27.979
47.0, 117.98636627197266, -101.36998748779297, 116.4810562133789, 474.2174377441406, 0.03200000151991844, -0.04800000041723251, 1.055999994277954, 0.0, 0.0, 0.0, 0.0, 0.0, 1.6210009479957051E9, 2021-05-14 16:02:27.995
47.0, 126.84992980957031, -112.45130920410156, 117.3038330078125, 479.2139587402344, 0.03200000151991844, -0.04800000041723251, 1.055999994277954, 0.0, 0.0, 0.0, 0.0, 0.0, 1.6210009479957051E9, 2021-05-14 16:02:27.995
48.0, 143.02125549316406, -105.82421112060547, 119.18125915527344, 493.7621765136719, 0.03200000151991844, -0.04800000041723251, 1.055999994277954, 0.0, 0.0, 0.0, 0.0, 0.0, 1.6210009479963431E9, 2021-05-14 16:02:27.996
48.0, 141.7646484375, -102.81359100341797, 114.8167953491211, 506.1188049316406, 0.03200000151991844, -0.04800000041723251, 1.055999994277954, 0.0, 0.0, 0.0, 0.0, 0.0, 1.6210009479963431E9, 2021-05-14 16:02:27.996
49.0, 122.8781509399414, -118.3192138671875, 112.82343292236328, 507.038818359375, 0.03200000151991844, -0.04800000041723251, 1.055999994277954, 0.0, 0.0, 0.0, 0.0, 0.0, 1.6210009479971275E9, 2021-05-14 16:02:27.997
49.0, 121.14657592773438, -121.94691467285156, 110.59819030761719, 508.0149230957031, 0.03200000151991844, -0.04800000041723251, 1.055999994277954, 0.0, 0.0, 0.0, 0.0, 0.0, 1.6210009479971275E9, 2021-05-14 16:02:27.997
50.0, 123.6784896850586, -115.5853500366211, 117.40106964111328, 525.6036987304688, 0.03200000151991844, -0.04800000041723251, 1.055999994277954, 0.0, 0.0, 0.0, 0.0, 0.0, 1.6210009480095704E9, 2021-05-14 16:02:28.009
50.0, 129.89047241210938, -114.40727996826172, 115.42639923095703, 525.2184448242188, 0.03200000151991844, -0.04800000041723251, 1.055999994277954, 0.0, 0.0, 0.0, 0.0, 0.0, 1.6210009480095704E9, 2021-05-14 16:02:28.009
51.0, 115.49559020996094, -125.55966186523438, 113.20490264892578, 518.0677490234375, 0.03200000151991844, -0.04800000041723251, 1.055999994277954, 0.0, 0.0, 0.0, 0.0, 0.0, 1.6210009480102572E9, 2021-05-14 16:02:28.010
51.0, 115.08045959472656, -130.38038635253906, 102.96879577636719, 509.6492614746094, 0.03200000151991844, -0.04800000041723251, 1.055999994277954, 0.0, 0.0, 0.0, 0.0, 0.0, 1.6210009480102572E9, 2021-05-14 16:02:28.010
52.0, 126.84618377685547, -119.7852554321289, 120.09005737304688, 527.1183471679688, 0.03200000151991844, -0.04800000041723251, 1.055999994277954, 0.0, 0.0, 0.0, 0.0, 0.0, 1.62100094804029E9, 2021-05-14 16:02:28.040
52.0, 142.45278930664062, -111.4751968383789, 128.61703491210938, 536.5167236328125, 0.03200000151991844, -0.04800000041723251, 1.055999994277954, 0.0, 0.0, 0.0, 0.0, 0.0, 1.62100094804029E9, 2021-05-14 16:02:28.040
53.0, 132.6131134033203, -124.10484313964844, 120.56128692626953, 528.5993041992188, 0.03200000151991844, -0.04800000041723251, 1.055999994277954, 0.0, 0.0, 0.0, 0.0, 0.0, 1.6210009480410583E9, 2021-05-14 16:02:28.041
53.0, 118.11351776123047, -126.45349884033203, 111.89593505859375, 516.9869384765625, 0.03200000151991844, -0.04800000041723251, 1.055999994277954, 0.0, 0.0, 0.0, 0.0, 0.0, 1.6210009480410583E9, 2021-05-14 16:02:28.041
54.0, 123.28954315185547, -109.72118377685547, 108.76937866210938, 509.8437194824219, 0.03200000151991844, -0.04800000041723251, 1.055999994277954, 0.0, 0.0, 0.0, 0.0, 0.0, 1.621000948041763E9, 2021-05-14 16:02:28.041
54.0, 135.80699157714844, -104.50776672363281, 116.29779815673828, 507.9363708496094, 0.03200000151991844, -0.04800000041723251, 1.055999994277954, 0.0, 0.0, 0.0, 0.0, 0.0, 1.621000948041763E9, 2021-05-14 16:02:28.041
55.0, 129.07516479492188, -113.89117431640625, 115.97990417480469, 490.8824462890625, 0.03200000151991844, -0.04800000041723251, 1.055999994277954, 0.0, 0.0, 0.0, 0.0, 0.0, 1.6210009480537949E9, 2021-05-14 16:02:28.053
55.0, 126.47593688964844, -120.82120513916016, 103.76165771484375, 477.4674072265625, 0.03200000151991844, -0.04800000041723251, 1.055999994277954, 0.0, 0.0, 0.0, 0.0, 0.0, 1.6210009480537949E9, 2021-05-14 16:02:28.053
56.0, 135.5302276611328, -117.5562744140625, 104.57321166992188, 486.7461242675781, 0.03200000151991844, -0.04800000041723251, 1.055999994277954, 0.0, 0.0, 0.0, 0.0, 0.0, 1.6210009480695262E9, 2021-05-14 16:02:28.069
56.0, 143.64207458496094, -113.85003662109375, 107.4080581665039, 499.0877685546875, 0.03200000151991844, -0.04800000041723251, 1.055999994277954, 0.0, 0.0, 0.0, 0.0, 0.0, 1.6210009480695262E9, 2021-05-14 16:02:28.069
57.0, 123.76451110839844, -126.77886962890625, 101.35689544677734, 491.3873291015625, 0.03200000151991844, -0.04800000041723251, 1.055999994277954, 0.0, 0.0, 0.0, 0.0, 0.0, 1.621000948070266E9, 2021-05-14 16:02:28.070
57.0, 119.39256286621094, -125.78779602050781, 96.68202209472656, 487.9952392578125, 0.03200000151991844, -0.04800000041723251, 1.055999994277954, 0.0, 0.0, 0.0, 0.0, 0.0, 1.621000948070266E9, 2021-05-14 16:02:28.070
58.0, 129.49403381347656, -113.98841094970703, 108.15229797363281, 508.9162292480469, 0.03200000151991844, -0.04800000041723251, 1.055999994277954, 0.0, 0.0, 0.0, 0.0, 0.0, 1.621000948100292E9, 2021-05-14 16:02:28.100
58.0, 127.78490447998047, -112.03992462158203, 106.4468994140625, 518.7035522460938, 0.03200000151991844, -0.04800000041723251, 1.055999994277954, 0.0, 0.0, 0.0, 0.0, 0.0, 1.621000948100292E9, 2021-05-14 16:02:28.100
59.0, 117.94522857666016, -115.3497314453125, 109.41264343261719, 515.8799438476562, 0.03200000151991844, -0.04800000041723251, 1.055999994277954, 0.0, 0.0, 0.0, 0.0, 0.0, 1.6210009481009119E9, 2021-05-14 16:02:28.100
59.0, 114.14922332763672, -119.26167297363281, 108.1485595703125, 515.8836669921875, 0.03200000151991844, -0.04800000041723251, 1.055999994277954, 0.0, 0.0, 0.0, 0.0, 0.0, 1.6210009481009119E9, 2021-05-14 16:02:28.100
60.0, 120.78006744384766, -113.39376831054688, 114.26703643798828, 522.5631103515625, 0.03200000151991844, -0.04800000041723251, 1.055999994277954, 0.0, 0.0, 0.0, 0.0, 0.0, 1.6210009481017485E9, 2021-05-14 16:02:28.101
60.0, 129.99143981933594, -117.05886840820312, 113.82572174072266, 517.3945922851562, 0.03200000151991844, -0.04800000041723251, 1.055999994277954, 0.0, 0.0, 0.0, 0.0, 0.0, 1.6210009481017485E9, 2021-05-14 16:02:28.101
61.0, 114.885986328125, -111.44153594970703, 115.04492950439453, 509.1481018066406, 0.03200000151991844, -0.04800000041723251, 1.055999994277954, 0.0, 0.0, 0.0, 0.0, 0.0, 1.621000948113792E9, 2021-05-14 16:02:28.113
61.0, 102.338623046875, -110.0278549194336, 112.39334106445312, 497.71148681640625, 0.03200000151991844, -0.04800000041723251, 1.055999994277954, 0.0, 0.0, 0.0, 0.0, 0.0, 1.621000948113792E9, 2021-05-14 16:02:28.113
62.0, 119.47110748291016, -108.93580627441406, 117.45716857910156, 508.5572204589844, 0.03200000151991844, -0.04800000041723251, 1.055999994277954, 0.0, 0.0, 0.0, 0.0, 0.0, 1.6210009481298802E9, 2021-05-14 16:02:28.129
62.0, 123.24465942382812, -102.7425308227539, 118.96434783935547, 511.2461853027344, 0.03200000151991844, -0.04800000041723251, 1.055999994277954, 0.0, 0.0, 0.0, 0.0, 0.0, 1.6210009481298802E9, 2021-05-14 16:02:28.129
63.0, 117.44033813476562, -109.04426574707031, 116.95976257324219, 497.9508361816406, 0.03200000151991844, -0.04800000041723251, 1.055999994277954, 0.0, 0.0, 0.0, 0.0, 0.0, 1.6210009481458256E9, 2021-05-14 16:02:28.145
63.0, 111.3891830444336, -108.51319885253906, 115.48624420166016, 494.42413330078125, 0.03200000151991844, -0.04800000041723251, 1.055999994277954, 0.0, 0.0, 0.0, 0.0, 0.0, 1.6210009481458256E9, 2021-05-14 16:02:28.145
64.0, 128.17010498046875, -96.78861236572266, 122.59204864501953, 502.0759582519531, 0.03200000151991844, -0.04800000041723251, 1.055999994277954, 0.0, 0.0, 0.0, 0.0, 0.0, 1.621000948146652E9, 2021-05-14 16:02:28.146
64.0, 134.0903778076172, -104.7508544921875, 118.10791015625, 497.0869445800781, 0.03200000151991844, -0.04800000041723251, 1.055999994277954, 0.0, 0.0, 0.0, 0.0, 0.0, 1.621000948146652E9, 2021-05-14 16:02:28.146
65.0, 119.46736145019531, -111.54999542236328, 116.58950805664062, 481.2334899902344, 0.03200000151991844, -0.04800000041723251, 1.055999994277954, 0.0, 0.0, 0.0, 0.0, 0.0, 1.6210009481472604E9, 2021-05-14 16:02:28.147
65.0, 115.67510223388672, -126.89854431152344, 115.18331146240234, 482.34051513671875, 0.03200000151991844, -0.04800000041723251, 1.055999994277954, 0.0, 0.0, 0.0, 0.0, 0.0, 1.6210009481472604E9, 2021-05-14 16:02:28.147
66.0, 127.76620483398438, -102.52561950683594, 121.75057220458984, 491.7276611328125, 0.03200000151991844, -0.04800000041723251, 1.055999994277954, 0.0, 0.0, 0.0, 0.0, 0.0, 1.6210009481587825E9, 2021-05-14 16:02:28.158
66.0, 137.63954162597656, -102.76123046875, 117.80497741699219, 502.8538513183594, 0.03200000151991844, -0.04800000041723251, 1.055999994277954, 0.0, 0.0, 0.0, 0.0, 0.0, 1.6210009481587825E9, 2021-05-14 16:02:28.158
67.0, 126.247802734375, -114.8224105834961, 109.45004272460938, 492.2699279785156, 0.03200000151991844, -0.04800000041723251, 1.055999994277954, 0.0, 0.0, 0.0, 0.0, 0.0, 1.6210009481739037E9, 2021-05-14 16:02:28.173
67.0, 114.70647430419922, -126.04584503173828, 103.84019470214844, 484.9247741699219, 0.03200000151991844, -0.04800000041723251, 1.055999994277954, 0.0, 0.0, 0.0, 0.0, 0.0, 1.6210009481739037E9, 2021-05-14 16:02:28.173
68.0, 126.330078125, -114.01084899902344, 111.55186462402344, 500.63983154296875, 0.03200000151991844, -0.04800000041723251, 1.055999994277954, 0.0, 0.0, 0.0, 0.0, 0.0, 1.6210009481894464E9, 2021-05-14 16:02:28.189
68.0, 137.25059509277344, -110.26347351074219, 118.89702606201172, 512.4878540039062, 0.03200000151991844, -0.04800000041723251, 1.055999994277954, 0.0, 0.0, 0.0, 0.0, 0.0, 1.6210009481894464E9, 2021-05-14 16:02:28.189
69.0, 119.20557403564453, -119.93111419677734, 116.37259674072266, 509.6903991699219, 0.03200000151991844, -0.04800000041723251, 1.055999994277954, 0.0, 0.0, 0.0, 0.0, 0.0, 1.621000948190232E9, 2021-05-14 16:02:28.190
69.0, 125.35770416259766, -121.59910583496094, 120.31819152832031, 510.1429138183594, 0.03200000151991844, -0.04800000041723251, 1.055999994277954, 0.0, 0.0, 0.0, 0.0, 0.0, 1.621000948190232E9, 2021-05-14 16:02:28.190
70.0, 127.18651580810547, -115.50306701660156, 122.11708068847656, 515.7639770507812, 0.03200000151991844, -0.04800000041723251, 1.055999994277954, 0.0, 0.0, 0.0, 0.0, 0.0, 1.6210009482199883E9, 2021-05-14 16:02:28.219
70.0, 125.33152770996094, -114.29134368896484, 120.71088409423828, 517.697509765625, 0.03200000151991844, -0.04800000041723251, 1.055999994277954, 0.0, 0.0, 0.0, 0.0, 0.0, 1.6210009482199883E9, 2021-05-14 16:02:28.219
71.0, 123.55133819580078, -108.1429443359375, 124.90330505371094, 516.885986328125, 0.03200000151991844, -0.04800000041723251, 1.055999994277954, 0.0, 0.0, 0.0, 0.0, 0.0, 1.62100094822068E9, 2021-05-14 16:02:28.220
71.0, 121.82723999023438, -116.31836700439453, 116.60820770263672, 511.3658752441406, 0.03200000151991844, -0.04800000041723251, 1.055999994277954, 0.0, 0.0, 0.0, 0.0, 0.0, 1.62100094822068E9, 2021-05-14 16:02:28.220
72.0, 131.53228759765625, -111.92398834228516, 119.09524536132812, 513.2507934570312, 0.03200000151991844, -0.04800000041723251, 1.055999994277954, 0.0, 0.0, 0.0, 0.0, 0.0, 1.6210009482345455E9, 2021-05-14 16:02:28.234
72.0, 139.14297485351562, -111.35926055908203, 119.51411437988281, 511.56781005859375, 0.03200000151991844, -0.04800000041723251, 1.055999994277954, 0.0, 0.0, 0.0, 0.0, 0.0, 1.6210009482345455E9, 2021-05-14 16:02:28.234
73.0, 123.67475128173828, -115.39835357666016, 109.56971740722656, 490.13818359375, 0.03200000151991844, -0.04800000041723251, 1.055999994277954, 0.0, 0.0, 0.0, 0.0, 0.0, 1.6210009482351923E9, 2021-05-14 16:02:28.235
73.0, 119.59452056884766, -110.7533950805664, 105.36981201171875, 486.1514587402344, 0.03200000151991844, -0.04800000041723251, 1.055999994277954, 0.0, 0.0, 0.0, 0.0, 0.0, 1.6210009482351923E9, 2021-05-14 16:02:28.235
74.0, 135.7060089111328, -106.1944580078125, 113.76588439941406, 503.7364807128906, 0.03200000151991844, -0.04800000041723251, 1.055999994277954, 0.0, 0.0, 0.0, 0.0, 0.0, 1.6210009482642832E9, 2021-05-14 16:02:28.264
74.0, 140.1826629638672, -110.03533935546875, 107.9727783203125, 495.8789367675781, 0.03200000151991844, -0.04800000041723251, 1.055999994277954, 0.0, 0.0, 0.0, 0.0, 0.0, 1.6210009482642832E9, 2021-05-14 16:02:28.264
75.0, 123.61117553710938, -122.24984741210938, 106.0055923461914, 486.323486328125, 0.03200000151991844, -0.04800000041723251, 1.055999994277954, 0.0, 0.0, 0.0, 0.0, 0.0, 1.62100094827938E9, 2021-05-14 16:02:28.279
75.0, 124.68826293945312, -128.43190002441406, 102.2918701171875, 484.5171203613281, 0.03200000151991844, -0.04800000041723251, 1.055999994277954, 0.0, 0.0, 0.0, 0.0, 0.0, 1.62100094827938E9, 2021-05-14 16:02:28.279
76.0, 139.6964874267578, -124.7854995727539, 107.01536560058594, 494.64105224609375, 0.03200000151991844, -0.04800000041723251, 1.055999994277954, 0.0, 0.0, 0.0, 0.0, 0.0, 1.6210009482966568E9, 2021-05-14 16:02:28.296
76.0, 136.49887084960938, -118.38653564453125, 101.70845031738281, 496.23797607421875, 0.03200000151991844, -0.04800000041723251, 1.055999994277954, 0.0, 0.0, 0.0, 0.0, 0.0, 1.6210009482966568E9, 2021-05-14 16:02:28.296
77.0, 123.28954315185547, -123.08384704589844, 97.19438934326172, 491.2452087402344, 0.03200000151991844, -0.04800000041723251, 1.055999994277954, 0.0, 0.0, 0.0, 0.0, 0.0, 1.6210009482972853E9, 2021-05-14 16:02:28.297
77.0, 116.47918701171875, -117.0700912475586, 103.87010955810547, 492.4419860839844, 0.03200000151991844, -0.04800000041723251, 1.055999994277954, 0.0, 0.0, 0.0, 0.0, 0.0, 1.6210009482972853E9, 2021-05-14 16:02:28.297
78.0, 132.9908447265625, -113.91735076904297, 100.80713653564453, 496.0023498535156, 0.03200000151991844, -0.04800000041723251, 1.055999994277954, 0.0, 0.0, 0.0, 0.0, 0.0, 1.6210009482980728E9, 2021-05-14 16:02:28.298
78.0, 133.21897888183594, -115.8882827758789, 110.87494659423828, 505.2062683105469, 0.03200000151991844, -0.04800000041723251, 1.055999994277954, 0.0, 0.0, 0.0, 0.0, 0.0, 1.6210009482980728E9, 2021-05-14 16:02:28.298
79.0, 120.67161560058594, -106.32161712646484, 106.64885711669922, 497.8947448730469, 0.03200000151991844, -0.04800000041723251, 1.055999994277954, 0.0, 0.0, 0.0, 0.0, 0.0, 1.621000948298828E9, 2021-05-14 16:02:28.298
79.0, 112.06983947753906, -115.91819763183594, 108.00643920898438, 493.7247619628906, 0.03200000151991844, -0.04800000041723251, 1.055999994277954, 0.0, 0.0, 0.0, 0.0, 0.0, 1.621000948298828E9, 2021-05-14 16:02:28.298
80.0, 130.81796264648438, -112.73180389404297, 117.76383972167969, 513.3854370117188, 0.03200000151991844, -0.04800000041723251, 1.055999994277954, 0.0, 0.0, 0.0, 0.0, 0.0, 1.6210009483096771E9, 2021-05-14 16:02:28.309
80.0, 135.9490966796875, -100.16200256347656, 124.82102966308594, 527.731689453125, 0.03200000151991844, -0.04800000041723251, 1.055999994277954, 0.0, 0.0, 0.0, 0.0, 0.0, 1.6210009483096771E9, 2021-05-14 16:02:28.309
81.0, 120.51827239990234, -114.43345642089844, 121.29804229736328, 509.069580078125, 0.03200000151991844, -0.04800000041723251, 1.055999994277954, 0.0, 0.0, 0.0, 0.0, 0.0, 1.6210009483102503E9, 2021-05-14 16:02:28.310
81.0, 111.63601684570312, -121.06430053710938, 110.05964660644531, 498.23883056640625, 0.03200000151991844, -0.04800000041723251, 1.055999994277954, 0.0, 0.0, 0.0, 0.0, 0.0, 1.6210009483102503E9, 2021-05-14 16:02:28.310
82.0, 123.33441925048828, -113.90238952636719, 116.499755859375, 501.7169189453125, 0.04800000041723251, -0.04800000041723251, 1.055999994277954, 0.0, 0.0, 0.0, 0.0, 0.0, 1.6210009483238628E9, 2021-05-14 16:02:28.323
82.0, 134.99542236328125, -104.85557556152344, 120.51640319824219, 509.7913818359375, 0.04800000041723251, -0.04800000041723251, 1.055999994277954, 0.0, 0.0, 0.0, 0.0, 0.0, 1.6210009483238628E9, 2021-05-14 16:02:28.323
83.0, 127.18277740478516, -112.81782531738281, 110.55705261230469, 494.6859130859375, 0.04800000041723251, -0.04800000041723251, 1.055999994277954, 0.0, 0.0, 0.0, 0.0, 0.0, 1.621000948339486E9, 2021-05-14 16:02:28.339
83.0, 124.77054595947266, -118.14717864990234, 105.05565643310547, 488.7880859375, 0.04800000041723251, -0.04800000041723251, 1.055999994277954, 0.0, 0.0, 0.0, 0.0, 0.0, 1.621000948339486E9, 2021-05-14 16:02:28.339
84.0, 125.95983123779297, -114.42597961425781, 104.30393981933594, 490.8375549316406, 0.04800000041723251, -0.04800000041723251, 1.055999994277954, 0.0, 0.0, 0.0, 0.0, 0.0, 1.621000948340212E9, 2021-05-14 16:02:28.340
84.0, 135.9640655517578, -117.10374450683594, 104.67793273925781, 495.1795959472656, 0.04800000041723251, -0.04800000041723251, 1.055999994277954, 0.0, 0.0, 0.0, 0.0, 0.0, 1.621000948340212E9, 2021-05-14 16:02:28.340
85.0, 128.21499633789062, -109.29483795166016, 105.69144439697266, 483.66070556640625, 0.04800000041723251, -0.04800000041723251, 1.055999994277954, 0.0, 0.0, 0.0, 0.0, 0.0, 1.6210009483538475E9, 2021-05-14 16:02:28.353
85.0, 121.3934097290039, -115.11412048339844, 104.37873840332031, 483.9823303222656, 0.04800000041723251, -0.04800000041723251, 1.055999994277954, 0.0, 0.0, 0.0, 0.0, 0.0, 1.6210009483538475E9, 2021-05-14 16:02:28.353
86.0, 129.475341796875, -113.95848846435547, 107.73342895507812, 497.8424072265625, 0.04800000041723251, -0.04800000041723251, 1.055999994277954, 0.0, 0.0, 0.0, 0.0, 0.0, 1.6210009483694875E9, 2021-05-14 16:02:28.369
86.0, 131.8090362548828, -114.64289093017578, 111.02079772949219, 502.203125, 0.04800000041723251, -0.04800000041723251, 1.055999994277954, 0.0, 0.0, 0.0, 0.0, 0.0, 1.6210009483694875E9, 2021-05-14 16:02:28.369
87.0, 119.62818145751953, -120.88105010986328, 98.36872100830078, 487.50531005859375, 0.04800000041723251, -0.04800000041723251, 1.055999994277954, 0.0, 0.0, 0.0, 0.0, 0.0, 1.6210009483701985E9, 2021-05-14 16:02:28.370
87.0, 116.93545532226562, -117.24586486816406, 99.50190734863281, 484.3525695800781, 0.04800000041723251, -0.04800000041723251, 1.055999994277954, 0.0, 0.0, 0.0, 0.0, 0.0, 1.6210009483701985E9, 2021-05-14 16:02:28.370
88.0, 129.2023162841797, -111.1947021484375, 103.39140319824219, 495.6994323730469, 0.04800000041723251, -0.04800000041723251, 1.055999994277954, 0.0, 0.0, 0.0, 0.0, 0.0, 1.6210009483838804E9, 2021-05-14 16:02:28.383
88.0, 141.11764526367188, -105.7905502319336, 115.70315551757812, 508.66192626953125, 0.04800000041723251, -0.04800000041723251, 1.055999994277954, 0.0, 0.0, 0.0, 0.0, 0.0, 1.6210009483838804E9, 2021-05-14 16:02:28.383
89.0, 127.08927917480469, -114.45964050292969, 108.36173248291016, 497.520751953125, 0.04800000041723251, -0.04800000041723251, 1.055999994277954, 0.0, 0.0, 0.0, 0.0, 0.0, 1.6210009483996108E9, 2021-05-14 16:02:28.399
89.0, 122.53034210205078, -111.20218658447266, 104.00849151611328, 499.6786804199219, 0.04800000041723251, -0.04800000041723251, 1.055999994277954, 0.0, 0.0, 0.0, 0.0, 0.0, 1.6210009483996108E9, 2021-05-14 16:02:28.399
90.0, 138.39874267578125, -105.80924987792969, 114.80184173583984, 510.3074645996094, 0.04800000041723251, -0.04800000041723251, 1.055999994277954, 0.0, 0.0, 0.0, 0.0, 0.0, 1.6210009484002917E9, 2021-05-14 16:02:28.400
90.0, 137.96864318847656, -109.6688232421875, 126.36186981201172, 513.4564819335938, 0.04800000041723251, -0.04800000041723251, 1.055999994277954, 0.0, 0.0, 0.0, 0.0, 0.0, 1.6210009484002917E9, 2021-05-14 16:02:28.400
91.0, 131.44625854492188, -113.2553939819336, 117.2215576171875, 507.6334533691406, 0.04800000041723251, -0.04800000041723251, 1.055999994277954, 0.0, 0.0, 0.0, 0.0, 0.0, 1.6210009484137945E9, 2021-05-14 16:02:28.413
91.0, 131.55471801757812, -112.79912567138672, 118.21636962890625, 506.4104919433594, 0.04800000041723251, -0.04800000041723251, 1.055999994277954, 0.0, 0.0, 0.0, 0.0, 0.0, 1.6210009484137945E9, 2021-05-14 16:02:28.413
92.0, 140.60528564453125, -113.76775360107422, 118.7474365234375, 511.4331970214844, 0.04800000041723251, -0.04800000041723251, 1.055999994277954, 0.0, 0.0, 0.0, 0.0, 0.0, 1.621000948429578E9, 2021-05-14 16:02:28.429
92.0, 144.3900604248047, -119.99468994140625, 116.62690734863281, 512.0689697265625, 0.04800000041723251, -0.04800000041723251, 1.055999994277954, 0.0, 0.0, 0.0, 0.0, 0.0, 1.621000948429578E9, 2021-05-14 16:02:28.429
93.0, 128.17759704589844, -117.90034484863281, 103.16326904296875, 487.5838317871094, 0.04800000041723251, -0.04800000041723251, 1.055999994277954, 0.0, 0.0, 0.0, 0.0, 0.0, 1.6210009484302132E9, 2021-05-14 16:02:28.430
93.0, 123.80938720703125, -120.1218490600586, 93.8583984375, 480.066650390625, 0.04800000041723251, -0.04800000041723251, 1.055999994277954, 0.0, 0.0, 0.0, 0.0, 0.0, 1.6210009484302132E9, 2021-05-14 16:02:28.430
94.0, 131.82025146484375, -114.83362579345703, 98.00595092773438, 480.2723388671875, 0.04800000041723251, -0.04800000041723251, 1.055999994277954, 0.0, 0.0, 0.0, 0.0, 0.0, 1.62100094844406E9, 2021-05-14 16:02:28.444
94.0, 135.00665283203125, -105.50257873535156, 104.47223663330078, 487.15374755859375, 0.04800000041723251, -0.04800000041723251, 1.055999994277954, 0.0, 0.0, 0.0, 0.0, 0.0, 1.62100094844406E9, 2021-05-14 16:02:28.444
95.0, 133.90338134765625, -115.48811340332031, 100.48550415039062, 477.5796203613281, 0.04800000041723251, -0.04800000041723251, 1.055999994277954, 0.0, 0.0, 0.0, 0.0, 0.0, 1.6210009484595437E9, 2021-05-14 16:02:28.459
95.0, 131.23683166503906, -122.0329360961914, 96.10234069824219, 474.5278625488281, 0.04800000041723251, -0.04800000041723251, 1.055999994277954, 0.0, 0.0, 0.0, 0.0, 0.0, 1.6210009484595437E9, 2021-05-14 16:02:28.459
96.0, 139.06069946289062, -113.55831909179688, 104.5993881225586, 492.32977294921875, 0.04800000041723251, -0.04800000041723251, 1.055999994277954, 0.0, 0.0, 0.0, 0.0, 0.0, 1.6210009484602103E9, 2021-05-14 16:02:28.460
96.0, 140.7062530517578, -108.59921264648438, 107.20610046386719, 494.128662109375, 0.04800000041723251, -0.04800000041723251, 1.055999994277954, 0.0, 0.0, 0.0, 0.0, 0.0, 1.6210009484602103E9, 2021-05-14 16:02:28.460
97.0, 126.98081970214844, -113.24790954589844, 103.04733276367188, 481.0838928222656, 0.04800000041723251, -0.04800000041723251, 1.055999994277954, 0.0, 0.0, 0.0, 0.0, 0.0, 1.6210009484738138E9, 2021-05-14 16:02:28.473
97.0, 130.0251007080078, -115.43575286865234, 108.26075744628906, 487.1575012207031, 0.04800000041723251, -0.04800000041723251, 1.055999994277954, 0.0, 0.0, 0.0, 0.0, 0.0, 1.6210009484738138E9, 2021-05-14 16:02:28.473
98.0, 139.0980987548828, -100.86135864257812, 116.33893585205078, 502.0797119140625, 0.04800000041723251, -0.04800000041723251, 1.055999994277954, 0.0, 0.0, 0.0, 0.0, 0.0, 1.6210009484894552E9, 2021-05-14 16:02:28.489
98.0, 134.24745178222656, -101.78885650634766, 117.53570556640625, 504.89208984375, 0.04800000041723251, -0.04800000041723251, 1.055999994277954, 0.0, 0.0, 0.0, 0.0, 0.0, 1.6210009484894552E9, 2021-05-14 16:02:28.489
99.0, 120.06201171875, -113.90987396240234, 115.18331146240234, 502.8314208984375, 0.04800000041723251, -0.04800000041723251, 1.055999994277954, 0.0, 0.0, 0.0, 0.0, 0.0, 1.6210009484901688E9, 2021-05-14 16:02:28.490
99.0, 125.68307495117188, -110.63745880126953, 123.2652359008789, 510.81610107421875, 0.04800000041723251, -0.04800000041723251, 1.055999994277954, 0.0, 0.0, 0.0, 0.0, 0.0, 1.6210009484901688E9, 2021-05-14 16:02:28.490
100.0, 135.83316040039062, -102.02821350097656, 129.3350830078125, 533.87255859375, 0.04800000041723251, -0.04800000041723251, 1.055999994277954, 0.0, 0.0, 0.0, 0.0, 0.0, 1.621000948505023E9, 2021-05-14 16:02:28.505
100.0, 140.9979705810547, -100.28541564941406, 129.28646850585938, 542.4893188476562, 0.04800000041723251, -0.04800000041723251, 1.055999994277954, 0.0, 0.0, 0.0, 0.0, 0.0, 1.621000948505023E9, 2021-05-14 16:02:28.505
0.0, 124.84721374511719, -114.97200775146484, 115.38526153564453, 524.350830078125, 0.04800000041723251, -0.04800000041723251, 1.055999994277954, 0.0, 0.0, 0.0, 0.0, 0.0, 1.621000948519498E9, 2021-05-14 16:02:28.519
1.0, 113.41059875488281, -122.56400299072266, 106.92561340332031, 510.9320373535156, 0.04800000041723251, -0.04800000041723251, 1.055999994277954, 0.0, 0.0, 0.0, 0.0, 0.0, 1.6210009485201993E9, 2021-05-14 16:02:28.520
1.0, 130.8160858154297, -111.33308410644531, 110.44859313964844, 518.5090942382812, 0.04800000041723251, -0.04800000041723251, 1.055999994277954, 0.0, 0.0, 0.0, 0.0, 0.0, 1.6210009485201993E9, 2021-05-14 16:02:28.520
2.0, 131.04421997070312, -115.1664810180664, 115.7966537475586, 516.8111572265625, 0.04800000041723251, -0.04800000041723251, 1.055999994277954, 0.0, 0.0, 0.0, 0.0, 0.0, 1.6210009485345876E9, 2021-05-14 16:02:28.534
2.0, 120.0975341796875, -122.18253326416016, 102.86033630371094, 495.2730712890625, 0.04800000041723251, -0.04800000041723251, 1.055999994277954, 0.0, 0.0, 0.0, 0.0, 0.0, 1.6210009485345876E9, 2021-05-14 16:02:28.534
3.0, 118.20140838623047, -126.2253646850586, 95.53761291503906, 485.7961730957031, 0.04800000041723251, -0.04800000041723251, 1.055999994277954, 0.0, 0.0, 0.0, 0.0, 0.0, 1.621000948535208E9, 2021-05-14 16:02:28.535
3.0, 125.85698699951172, -119.00361633300781, 100.14143371582031, 488.5711669921875, 0.04800000041723251, -0.04800000041723251, 1.055999994277954, 0.0, 0.0, 0.0, 0.0, 0.0, 1.621000948535208E9, 2021-05-14 16:02:28.535
4.0, 132.43173217773438, -117.26456451416016, 98.42107391357422, 489.1396484375, 0.04800000041723251, -0.04800000041723251, 1.055999994277954, 0.0, 0.0, 0.0, 0.0, 0.0, 1.6210009485651693E9, 2021-05-14 16:02:28.565
4.0, 127.10237121582031, -122.18627166748047, 102.07122039794922, 480.7697448730469, 0.04800000041723251, -0.04800000041723251, 1.055999994277954, 0.0, 0.0, 0.0, 0.0, 0.0, 1.6210009485651693E9, 2021-05-14 16:02:28.565
5.0, 127.05748748779297, -115.74242401123047, 105.76624298095703, 474.95794677734375, 0.04800000041723251, -0.04800000041723251, 1.055999994277954, 0.0, 0.0, 0.0, 0.0, 0.0, 1.6210009485658967E9, 2021-05-14 16:02:28.565
5.0, 134.1446075439453, -101.96463012695312, 114.13613891601562, 491.439697265625, 0.04800000041723251, -0.04800000041723251, 1.055999994277954, 0.0, 0.0, 0.0, 0.0, 0.0, 1.6210009485658967E9, 2021-05-14 16:02:28.565
6.0, 139.29071044921875, -107.02098083496094, 116.10332489013672, 491.3162536621094, 0.04800000041723251, -0.04800000041723251, 1.055999994277954, 0.0, 0.0, 0.0, 0.0, 0.0, 1.621000948566644E9, 2021-05-14 16:02:28.566
6.0, 127.53245544433594, -113.6406021118164, 116.63813018798828, 490.3326721191406, 0.04800000041723251, -0.04800000041723251, 1.055999994277954, 0.0, 0.0, 0.0, 0.0, 0.0, 1.621000948566644E9, 2021-05-14 16:02:28.566
7.0, 130.71885681152344, -118.39401245117188, 114.9551773071289, 490.1419372558594, 0.04800000041723251, -0.04800000041723251, 1.055999994277954, 0.0, 0.0, 0.0, 0.0, 0.0, 1.6210009485787761E9, 2021-05-14 16:02:28.578
7.0, 130.97315979003906, -94.16693878173828, 118.03311157226562, 498.1266174316406, 0.04800000041723251, -0.04800000041723251, 1.055999994277954, 0.0, 0.0, 0.0, 0.0, 0.0, 1.6210009485787761E9, 2021-05-14 16:02:28.578
8.0, 137.02806091308594, -100.0722427368164, 121.39154052734375, 504.42462158203125, 0.04800000041723251, -0.04800000041723251, 1.055999994277954, 0.0, 0.0, 0.0, 0.0, 0.0, 1.6210009485945876E9, 2021-05-14 16:02:28.594
8.0, 123.81874084472656, -108.57677459716797, 119.14012145996094, 494.5550231933594, 0.04800000041723251, -0.04800000041723251, 1.055999994277954, 0.0, 0.0, 0.0, 0.0, 0.0, 1.6210009485945876E9, 2021-05-14 16:02:28.594
9.0, 125.64006805419922, -110.3270492553711, 118.42206573486328, 499.3458251953125, 0.04800000041723251, -0.04800000041723251, 1.055999994277954, 0.0, 0.0, 0.0, 0.0, 0.0, 1.6210009485952945E9, 2021-05-14 16:02:28.595
9.0, 139.75819396972656, -104.05897521972656, 127.22578430175781, 517.3235473632812, 0.04800000041723251, -0.04800000041723251, 1.055999994277954, 0.0, 0.0, 0.0, 0.0, 0.0, 1.6210009485952945E9, 2021-05-14 16:02:28.595
10.0, 151.44911193847656, -101.19047546386719, 133.0824737548828, 525.26708984375, 0.04800000041723251, -0.04800000041723251, 1.055999994277954, 0.0, 0.0, 0.0, 0.0, 0.0, 1.6210009486088643E9, 2021-05-14 16:02:28.608
10.0, 134.5634765625, -107.67172241210938, 125.3558349609375, 512.2110595703125, 0.04800000041723251, -0.04800000041723251, 1.055999994277954, 0.0, 0.0, 0.0, 0.0, 0.0, 1.6210009486088643E9, 2021-05-14 16:02:28.608
11.0, 129.74273681640625, -115.77234649658203, 118.23880767822266, 504.0618591308594, 0.04800000041723251, -0.04800000041723251, 1.055999994277954, 0.0, 0.0, 0.0, 0.0, 0.0, 1.6210009486244788E9, 2021-05-14 16:02:28.624
11.0, 134.3091583251953, -112.5335922241211, 111.83609771728516, 506.0290222167969, 0.04800000041723251, -0.04800000041723251, 1.055999994277954, 0.0, 0.0, 0.0, 0.0, 0.0, 1.6210009486244788E9, 2021-05-14 16:02:28.624
12.0, 132.0540008544922, -117.85920715332031, 106.26738739013672, 495.7181396484375, 0.03200000151991844, -0.04800000041723251, 1.055999994277954, 0.0, 0.0, 0.0, 0.0, 0.0, 1.6210009486251993E9, 2021-05-14 16:02:28.625
12.0, 122.71920776367188, -121.56170654296875, 99.64776611328125, 489.9736328125, 0.03200000151991844, -0.04800000041723251, 1.055999994277954, 0.0, 0.0, 0.0, 0.0, 0.0, 1.6210009486251993E9, 2021-05-14 16:02:28.625
13.0, 116.88496398925781, -131.3340606689453, 93.61156463623047, 481.3980407714844, 0.03200000151991844, -0.04800000041723251, 1.055999994277954, 0.0, 0.0, 0.0, 0.0, 0.0, 1.6210009486389463E9, 2021-05-14 16:02:28.638
13.0, 129.54078674316406, -121.52430725097656, 96.61844635009766, 495.89764404296875, 0.03200000151991844, -0.04800000041723251, 1.055999994277954, 0.0, 0.0, 0.0, 0.0, 0.0, 1.6210009486389463E9, 2021-05-14 16:02:28.638
14.0, 132.61123657226562, -120.09941101074219, 102.29561614990234, 501.9525451660156, 0.03200000151991844, -0.04800000041723251, 1.055999994277954, 0.0, 0.0, 0.0, 0.0, 0.0, 1.6210009486545088E9, 2021-05-14 16:02:28.654
14.0, 132.49903869628906, -120.78755187988281, 100.03297424316406, 494.3680114746094, 0.03200000151991844, -0.04800000041723251, 1.055999994277954, 0.0, 0.0, 0.0, 0.0, 0.0, 1.6210009486545088E9, 2021-05-14 16:02:28.654
15.0, 129.74647521972656, -121.74870300292969, 100.42192077636719, 492.72247314453125, 0.03200000151991844, -0.04800000041723251, 1.055999994277954, 0.0, 0.0, 0.0, 0.0, 0.0, 1.621000948655218E9, 2021-05-14 16:02:28.655
15.0, 132.81320190429688, -114.47459411621094, 109.51361846923828, 505.150146484375, 0.03200000151991844, -0.04800000041723251, 1.055999994277954, 0.0, 0.0, 0.0, 0.0, 0.0, 1.621000948655218E9, 2021-05-14 16:02:28.655
16.0, 137.27490234375, -111.30690002441406, 110.22794342041016, 507.8017578125, 0.03200000151991844, -0.04800000041723251, 1.055999994277954, 0.0, 0.0, 0.0, 0.0, 0.0, 1.6210009486849418E9, 2021-05-14 16:02:28.684
16.0, 121.36536407470703, -115.68632507324219, 101.18112182617188, 484.65924072265625, 0.03200000151991844, -0.04800000041723251, 1.055999994277954, 0.0, 0.0, 0.0, 0.0, 0.0, 1.6210009486849418E9, 2021-05-14 16:02:28.684
17.0, 122.6444091796875, -109.63516998291016, 107.62496948242188, 485.4408874511719, 0.03200000151991844, -0.04800000041723251, 1.055999994277954, 0.0, 0.0, 0.0, 0.0, 0.0, 1.621000948685676E9, 2021-05-14 16:02:28.685
17.0, 130.62161254882812, -102.56301879882812, 121.30552673339844, 495.0187683105469, 0.03200000151991844, -0.04800000041723251, 1.055999994277954, 0.0, 0.0, 0.0, 0.0, 0.0, 1.621000948685676E9, 2021-05-14 16:02:28.685
18.0, 127.4801025390625, -105.00143432617188, 121.1783676147461, 500.1611328125, 0.03200000151991844, -0.04800000041723251, 1.055999994277954, 0.0, 0.0, 0.0, 0.0, 0.0, 1.621000948699477E9, 2021-05-14 16:02:28.699
18.0, 118.96060943603516, -106.18324279785156, 121.33170318603516, 490.3439025878906, 0.03200000151991844, -0.04800000041723251, 1.055999994277954, 0.0, 0.0, 0.0, 0.0, 0.0, 1.621000948699477E9, 2021-05-14 16:02:28.699
19.0, 119.66744995117188, -99.4701156616211, 125.92803955078125, 494.97015380859375, 0.03200000151991844, -0.04800000041723251, 1.055999994277954, 0.0, 0.0, 0.0, 0.0, 0.0, 1.6210009487001724E9, 2021-05-14 16:02:28.700
19.0, 134.8477020263672, -84.40206146240234, 138.52027893066406, 513.9912719726562, 0.03200000151991844, -0.04800000041723251, 1.055999994277954, 0.0, 0.0, 0.0, 0.0, 0.0, 1.6210009487001724E9, 2021-05-14 16:02:28.700
20.0, 138.26223754882812, -93.74059295654297, 131.98294067382812, 514.1969604492188, 0.03200000151991844, -0.04800000041723251, 1.055999994277954, 0.0, 0.0, 0.0, 0.0, 0.0, 1.6210009487146337E9, 2021-05-14 16:02:28.714
20.0, 127.89897155761719, -109.77354431152344, 119.97038269042969, 496.9859619140625, 0.03200000151991844, -0.04800000041723251, 1.055999994277954, 0.0, 0.0, 0.0, 0.0, 0.0, 1.6210009487146337E9, 2021-05-14 16:02:28.714
21.0, 123.15677642822266, -120.36868286132812, 107.75960540771484, 492.7449035644531, 0.03200000151991844, -0.04800000041723251, 1.055999994277954, 0.0, 0.0, 0.0, 0.0, 0.0, 1.621000948715276E9, 2021-05-14 16:02:28.715
21.0, 135.5732421875, -115.85462188720703, 105.16411590576172, 498.39215087890625, 0.03200000151991844, -0.04800000041723251, 1.055999994277954, 0.0, 0.0, 0.0, 0.0, 0.0, 1.621000948715276E9, 2021-05-14 16:02:28.715
22.0, 134.5260772705078, -116.55772399902344, 103.7541732788086, 499.33087158203125, 0.03200000151991844, -0.04800000041723251, 1.055999994277954, 0.0, 0.0, 0.0, 0.0, 0.0, 1.621000948745288E9, 2021-05-14 16:02:28.745
22.0, 124.44329833984375, -128.8806915283203, 98.3948974609375, 490.5234069824219, 0.03200000151991844, -0.04800000041723251, 1.055999994277954, 0.0, 0.0, 0.0, 0.0, 0.0, 1.621000948745288E9, 2021-05-14 16:02:28.745
23.0, 127.39034271240234, -130.98251342773438, 98.02465057373047, 485.6615295410156, 0.03200000151991844, -0.04800000041723251, 1.055999994277954, 0.0, 0.0, 0.0, 0.0, 0.0, 1.621000948745992E9, 2021-05-14 16:02:28.745
23.0, 135.47975158691406, -129.4790802001953, 103.76539611816406, 493.5863952636719, 0.03200000151991844, -0.04800000041723251, 1.055999994277954, 0.0, 0.0, 0.0, 0.0, 0.0, 1.621000948745992E9, 2021-05-14 16:02:28.745
24.0, 140.52113342285156, -116.44926452636719, 114.49142456054688, 498.9157409667969, 0.03200000151991844, -0.04800000041723251, 1.055999994277954, 0.0, 0.0, 0.0, 0.0, 0.0, 1.621000948746716E9, 2021-05-14 16:02:28.746
24.0, 123.19417572021484, -113.97344970703125, 107.01910400390625, 494.1324157714844, 0.03200000151991844, -0.04800000041723251, 1.055999994277954, 0.0, 0.0, 0.0, 0.0, 0.0, 1.621000948746716E9, 2021-05-14 16:02:28.746
25.0, 123.4709243774414, -120.65665435791016, 107.61375427246094, 501.41400146484375, 0.03200000151991844, -0.04800000041723251, 1.055999994277954, 0.0, 0.0, 0.0, 0.0, 0.0, 1.6210009487588055E9, 2021-05-14 16:02:28.758
25.0, 133.95013427734375, -115.13282012939453, 115.38152313232422, 507.43524169921875, 0.03200000151991844, -0.04800000041723251, 1.055999994277954, 0.0, 0.0, 0.0, 0.0, 0.0, 1.6210009487588055E9, 2021-05-14 16:02:28.758
26.0, 132.61123657226562, -113.10953521728516, 116.08836364746094, 509.7464904785156, 0.03200000151991844, -0.04800000041723251, 1.055999994277954, 0.0, 0.0, 0.0, 0.0, 0.0, 1.6210009487746484E9, 2021-05-14 16:02:28.774
26.0, 119.20744323730469, -118.95499420166016, 109.25556945800781, 496.0509948730469, 0.03200000151991844, -0.04800000041723251, 1.055999994277954, 0.0, 0.0, 0.0, 0.0, 0.0, 1.6210009487746484E9, 2021-05-14 16:02:28.774
27.0, 118.54547882080078, -118.36408996582031, 110.14566040039062, 485.9756774902344, 0.03200000151991844, -0.04800000041723251, 1.055999994277954, 0.0, 0.0, 0.0, 0.0, 0.0, 1.6210009487753284E9, 2021-05-14 16:02:28.775
27.0, 129.76144409179688, -103.9692153930664, 121.42893981933594, 497.3262939453125, 0.03200000151991844, -0.04800000041723251, 1.055999994277954, 0.0, 0.0, 0.0, 0.0, 0.0, 1.6210009487753284E9, 2021-05-14 16:02:28.775
28.0, 136.27635192871094, -90.46443939208984, 125.31843566894531, 501.2157897949219, 0.03200000151991844, -0.04800000041723251, 1.055999994277954, 0.0, 0.0, 0.0, 0.0, 0.0, 1.621000948788768E9, 2021-05-14 16:02:28.788
28.0, 119.80582427978516, -99.86654663085938, 124.86591339111328, 487.8905334472656, 0.03200000151991844, -0.04800000041723251, 1.055999994277954, 0.0, 0.0, 0.0, 0.0, 0.0, 1.621000948788768E9, 2021-05-14 16:02:28.788
29.0, 117.7488784790039, -101.17925262451172, 124.0693130493164, 487.4080810546875, 0.03200000151991844, -0.04800000041723251, 1.055999994277954, 0.0, 0.0, 0.0, 0.0, 0.0, 1.6210009488192744E9, 2021-05-14 16:02:28.819
29.0, 124.1067123413086, -90.12036895751953, 127.25944519042969, 496.0584716796875, 0.03200000151991844, -0.04800000041723251, 1.055999994277954, 0.0, 0.0, 0.0, 0.0, 0.0, 1.6210009488192744E9, 2021-05-14 16:02:28.819
30.0, 131.60147094726562, -95.90973663330078, 123.16051483154297, 498.7661437988281, 0.03200000151991844, -0.04800000041723251, 1.055999994277954, 0.0, 0.0, 0.0, 0.0, 0.0, 1.6210009488358593E9, 2021-05-14 16:02:28.835
30.0, 136.40350341796875, -105.4950942993164, 123.28767395019531, 494.22216796875, 0.03200000151991844, -0.04800000041723251, 1.055999994277954, 0.0, 0.0, 0.0, 0.0, 0.0, 1.6210009488358593E9, 2021-05-14 16:02:28.835
31.0, 139.07752990722656, -121.50186920166016, 107.06024932861328, 487.860595703125, 0.03200000151991844, -0.04800000041723251, 1.055999994277954, 0.0, 0.0, 0.0, 0.0, 0.0, 1.6210009488365524E9, 2021-05-14 16:02:28.836
31.0, 139.1785125732422, -118.13970184326172, 106.37958526611328, 495.1795959472656, 0.03200000151991844, -0.04800000041723251, 1.055999994277954, 0.0, 0.0, 0.0, 0.0, 0.0, 1.6210009488365524E9, 2021-05-14 16:02:28.836
32.0, 154.5233154296875, -120.82120513916016, 108.8890609741211, 498.3023986816406, 0.03200000151991844, -0.04800000041723251, 1.055999994277954, 0.0, 0.0, 0.0, 0.0, 0.0, 1.6210009488372838E9, 2021-05-14 16:02:28.837
32.0, 128.7853240966797, -132.46351623535156, 95.76948547363281, 485.6839904785156, 0.03200000151991844, -0.04800000041723251, 1.055999994277954, 0.0, 0.0, 0.0, 0.0, 0.0, 1.6210009488372838E9, 2021-05-14 16:02:28.837
33.0, 116.14446258544922, -132.16058349609375, 94.62882232666016, 488.6946105957031, 0.03200000151991844, -0.04800000041723251, 1.055999994277954, 0.0, 0.0, 0.0, 0.0, 0.0, 1.6210009488380287E9, 2021-05-14 16:02:28.838
33.0, 135.9098358154297, -124.40776824951172, 101.41299438476562, 501.758056640625, 0.03200000151991844, -0.04800000041723251, 1.055999994277954, 0.0, 0.0, 0.0, 0.0, 0.0, 1.6210009488380287E9, 2021-05-14 16:02:28.838
34.0, 137.439453125, -111.1947021484375, 105.16785430908203, 502.37139892578125, 0.03200000151991844, -0.04800000041723251, 1.055999994277954, 0.0, 0.0, 0.0, 0.0, 0.0, 1.6210009488488624E9, 2021-05-14 16:02:28.848
34.0, 122.76034545898438, -117.4964370727539, 103.82523345947266, 495.8078918457031, 0.03200000151991844, -0.04800000041723251, 1.055999994277954, 0.0, 0.0, 0.0, 0.0, 0.0, 1.6210009488488624E9, 2021-05-14 16:02:28.848
35.0, 121.25316619873047, -123.92532348632812, 101.4466552734375, 494.6746826171875, 0.03200000151991844, -0.04800000041723251, 1.055999994277954, 0.0, 0.0, 0.0, 0.0, 0.0, 1.6210009488645003E9, 2021-05-14 16:02:28.864
35.0, 132.86929321289062, -117.94896697998047, 109.59963989257812, 504.5143737792969, 0.03200000151991844, -0.04800000041723251, 1.055999994277954, 0.0, 0.0, 0.0, 0.0, 0.0, 1.6210009488645003E9, 2021-05-14 16:02:28.864
36.0, 137.263671875, -113.06465911865234, 110.43363952636719, 511.54913330078125, 0.03200000151991844, -0.04800000041723251, 1.055999994277954, 0.0, 0.0, 0.0, 0.0, 0.0, 1.621000948865212E9, 2021-05-14 16:02:28.865
36.0, 122.37513732910156, -119.85257720947266, 103.84393310546875, 495.1085205078125, 0.03200000151991844, -0.04800000041723251, 1.055999994277954, 0.0, 0.0, 0.0, 0.0, 0.0, 1.621000948865212E9, 2021-05-14 16:02:28.865
37.0, 125.57275390625, -119.8450927734375, 110.57201385498047, 490.4037170410156, 0.03200000151991844, -0.04800000041723251, 1.055999994277954, 0.0, 0.0, 0.0, 0.0, 0.0, 1.6210009488787932E9, 2021-05-14 16:02:28.878
37.0, 134.1745147705078, -112.54854583740234, 116.49227142333984, 500.04144287109375, 0.03200000151991844, -0.04800000041723251, 1.055999994277954, 0.0, 0.0, 0.0, 0.0, 0.0, 1.6210009488787932E9, 2021-05-14 16:02:28.878
38.0, 136.1977996826172, -100.67810821533203, 122.59578704833984, 503.1717529296875, 0.03200000151991844, -0.04800000041723251, 1.055999994277954, 0.0, 0.0, 0.0, 0.0, 0.0, 1.6210009488945265E9, 2021-05-14 16:02:28.894
38.0, 122.00862884521484, -104.24971008300781, 120.90535736083984, 489.72308349609375, 0.03200000151991844, -0.04800000041723251, 1.055999994277954, 0.0, 0.0, 0.0, 0.0, 0.0, 1.6210009488945265E9, 2021-05-14 16:02:28.894
39.0, 111.47706604003906, -113.8238525390625, 120.61363983154297, 488.0999450683594, 0.03200000151991844, -0.04800000041723251, 1.055999994277954, 0.0, 0.0, 0.0, 0.0, 0.0, 1.6210009488953197E9, 2021-05-14 16:02:28.895
39.0, 126.92659759521484, -107.85871124267578, 118.75117492675781, 500.9539794921875, 0.03200000151991844, -0.04800000041723251, 1.055999994277954, 0.0, 0.0, 0.0, 0.0, 0.0, 1.6210009488953197E9, 2021-05-14 16:02:28.895
40.0, 126.04397583007812, -107.26780700683594, 115.19078826904297, 501.19708251953125, 0.03200000151991844, -0.04800000041723251, 1.055999994277954, 0.0, 0.0, 0.0, 0.0, 0.0, 1.62100094890885E9, 2021-05-14 16:02:28.908
40.0, 116.62690734863281, -103.28855895996094, 112.50927734375, 493.67987060546875, 0.03200000151991844, -0.04800000041723251, 1.055999994277954, 0.0, 0.0, 0.0, 0.0, 0.0, 1.62100094890885E9, 2021-05-14 16:02:28.908
41.0, 119.88809967041016, -109.05174255371094, 115.06737518310547, 497.2253112792969, 0.03200000151991844, -0.04800000041723251, 1.055999994277954, 0.0, 0.0, 0.0, 0.0, 0.0, 1.6210009489244583E9, 2021-05-14 16:02:28.924
41.0, 132.944091796875, -106.41511535644531, 119.15882110595703, 507.8316650390625, 0.03200000151991844, -0.04800000041723251, 1.055999994277954, 0.0, 0.0, 0.0, 0.0, 0.0, 1.6210009489244583E9, 2021-05-14 16:02:28.924
42.0, 133.95013427734375, -110.57762145996094, 114.58118438720703, 502.5135192871094, 0.04800000041723251, -0.04800000041723251, 1.055999994277954, 0.0, 0.0, 0.0, 0.0, 0.0, 1.621000948925154E9, 2021-05-14 16:02:28.925
42.0, 128.4898681640625, -118.97369384765625, 110.23168182373047, 492.4083251953125, 0.04800000041723251, -0.04800000041723251, 1.055999994277954, 0.0, 0.0, 0.0, 0.0, 0.0, 1.621000948925154E9, 2021-05-14 16:02:28.925
43.0, 122.93985748291016, -119.5458984375, 105.74005889892578, 490.0260009765625, 0.04800000041723251, -0.04800000041723251, 1.055999994277954, 0.0, 0.0, 0.0, 0.0, 0.0, 1.621000948938916E9, 2021-05-14 16:02:28.938
43.0, 137.95556640625, -112.43635559082031, 115.02622985839844, 496.5296936035156, 0.04800000041723251, -0.04800000041723251, 1.055999994277954, 0.0, 0.0, 0.0, 0.0, 0.0, 1.621000948938916E9, 2021-05-14 16:02:28.938
44.0, 137.88450622558594, -119.53468322753906, 116.67926788330078, 505.4568176269531, 0.04800000041723251, -0.04800000041723251, 1.055999994277954, 0.0, 0.0, 0.0, 0.0, 0.0, 1.6210009489545057E9, 2021-05-14 16:02:28.954
44.0, 128.00743103027344, -127.61286926269531, 113.53775024414062, 499.6674499511719, 0.04800000041723251, -0.04800000041723251, 1.055999994277954, 0.0, 0.0, 0.0, 0.0, 0.0, 1.6210009489545057E9, 2021-05-14 16:02:28.954
45.0, 124.41338348388672, -130.57861328125, 115.42639923095703, 500.04144287109375, 0.04800000041723251, -0.04800000041723251, 1.055999994277954, 0.0, 0.0, 0.0, 0.0, 0.0, 1.6210009489552615E9, 2021-05-14 16:02:28.955
45.0, 136.26138305664062, -123.45783996582031, 120.40420532226562, 520.1172485351562, 0.04800000041723251, -0.04800000041723251, 1.055999994277954, 0.0, 0.0, 0.0, 0.0, 0.0, 1.6210009489552615E9, 2021-05-14 16:02:28.955
46.0, 141.87123107910156, -114.62419128417969, 126.56756591796875, 525.2521362304688, 0.04800000041723251, -0.04800000041723251, 1.055999994277954, 0.0, 0.0, 0.0, 0.0, 0.0, 1.6210009489688237E9, 2021-05-14 16:02:28.968
46.0, 127.68953704833984, -124.19085693359375, 117.87229919433594, 511.2873229980469, 0.04800000041723251, -0.04800000041723251, 1.055999994277954, 0.0, 0.0, 0.0, 0.0, 0.0, 1.6210009489688237E9, 2021-05-14 16:02:28.968
47.0, 124.76866912841797, -120.39112091064453, 122.52099609375, 511.0068359375, 0.04800000041723251, -0.04800000041723251, 1.055999994277954, 0.0, 0.0, 0.0, 0.0, 0.0, 1.6210009489845629E9, 2021-05-14 16:02:28.984
47.0, 124.42459869384766, -109.75858306884766, 120.06761932373047, 516.7849731445312, 0.04800000041723251, -0.04800000041723251, 1.055999994277954, 0.0, 0.0, 0.0, 0.0, 0.0, 1.6210009489845629E9, 2021-05-14 16:02:28.984
48.0, 128.7479248046875, -103.0828628540039, 122.99970245361328, 524.163818359375, 0.04800000041723251, -0.04800000041723251, 1.055999994277954, 0.0, 0.0, 0.0, 0.0, 0.0, 1.6210009489852667E9, 2021-05-14 16:02:28.985
48.0, 111.95577239990234, -112.23065948486328, 117.09439849853516, 505.7148742675781, 0.04800000041723251, -0.04800000041723251, 1.055999994277954, 0.0, 0.0, 0.0, 0.0, 0.0, 1.6210009489852667E9, 2021-05-14 16:02:28.985
49.0, 109.66695404052734, -115.18144226074219, 115.13468933105469, 492.81597900390625, 0.04800000041723251, -0.04800000041723251, 1.055999994277954, 0.0, 0.0, 0.0, 0.0, 0.0, 1.6210009490153644E9, 2021-05-14 16:02:29.015
49.0, 121.30552673339844, -106.00746154785156, 118.1266098022461, 506.3020324707031, 0.04800000041723251, -0.04800000041723251, 1.055999994277954, 0.0, 0.0, 0.0, 0.0, 0.0, 1.6210009490153644E9, 2021-05-14 16:02:29.015
50.0, 126.75081634521484, -109.51548767089844, 121.32796478271484, 506.2721252441406, 0.04800000041723251, -0.04800000041723251, 1.055999994277954, 0.0, 0.0, 0.0, 0.0, 0.0, 1.621000949016118E9, 2021-05-14 16:02:29.016
50.0, 110.1568832397461, -109.49678802490234, 116.4773178100586, 494.6073913574219, 0.04800000041723251, -0.04800000041723251, 1.055999994277954, 0.0, 0.0, 0.0, 0.0, 0.0, 1.621000949016118E9, 2021-05-14 16:02:29.016
51.0, 111.29006958007812, -112.96741485595703, 113.35449981689453, 493.1637878417969, 0.04800000041723251, -0.04800000041723251, 1.055999994277954, 0.0, 0.0, 0.0, 0.0, 0.0, 1.6210009490167773E9, 2021-05-14 16:02:29.016
51.0, 127.20708465576172, -111.26950073242188, 119.60387420654297, 502.01239013671875, 0.04800000041723251, -0.04800000041723251, 1.055999994277954, 0.0, 0.0, 0.0, 0.0, 0.0, 1.6210009490167773E9, 2021-05-14 16:02:29.016
52.0, 134.69810485839844, -114.1828842163086, 114.03141784667969, 505.3034973144531, 0.04800000041723251, -0.04800000041723251, 1.055999994277954, 0.0, 0.0, 0.0, 0.0, 0.0, 1.6210009490288136E9, 2021-05-14 16:02:29.028
52.0, 129.1667938232422, -126.76016998291016, 108.49636840820312, 494.9776306152344, 0.04800000041723251, -0.04800000041723251, 1.055999994277954, 0.0, 0.0, 0.0, 0.0, 0.0, 1.6210009490288136E9, 2021-05-14 16:02:29.028
53.0, 125.83080291748047, -127.2874984741211, 107.11634826660156, 490.13818359375, 0.04800000041723251, -0.04800000041723251, 1.055999994277954, 0.0, 0.0, 0.0, 0.0, 0.0, 1.6210009490447152E9, 2021-05-14 16:02:29.044
53.0, 144.4854278564453, -114.08938598632812, 115.46379852294922, 505.1651306152344, 0.04800000041723251, -0.04800000041723251, 1.055999994277954, 0.0, 0.0, 0.0, 0.0, 0.0, 1.6210009490447152E9, 2021-05-14 16:02:29.044
54.0, 147.08839416503906, -120.4434814453125, 119.1476058959961, 503.1268615722656, 0.04800000041723251, -0.04800000041723251, 1.055999994277954, 0.0, 0.0, 0.0, 0.0, 0.0, 1.62100094904541E9, 2021-05-14 16:02:29.045
54.0, 130.22518920898438, -117.09626770019531, 112.28114318847656, 496.6343994140625, 0.04800000041723251, -0.04800000041723251, 1.055999994277954, 0.0, 0.0, 0.0, 0.0, 0.0, 1.62100094904541E9, 2021-05-14 16:02:29.045
55.0, 125.32965850830078, -120.2078628540039, 109.0162124633789, 495.160888671875, 0.04800000041723251, -0.04800000041723251, 1.055999994277954, 0.0, 0.0, 0.0, 0.0, 0.0, 1.6210009490919423E9, 2021-05-14 16:02:29.091
55.0, 137.686279296875, -113.26287078857422, 118.61653900146484, 513.5686645507812, 0.04800000041723251, -0.04800000041723251, 1.055999994277954, 0.0, 0.0, 0.0, 0.0, 0.0, 1.6210009490919423E9, 2021-05-14 16:02:29.091
56.0, 133.22084045410156, -114.6466293334961, 116.27909851074219, 510.8385314941406, 0.04800000041723251, -0.04800000041723251, 1.055999994277954, 0.0, 0.0, 0.0, 0.0, 0.0, 1.6210009490926547E9, 2021-05-14 16:02:29.092
56.0, 124.61907958984375, -113.3825454711914, 110.58697509765625, 507.4090576171875, 0.04800000041723251, -0.04800000041723251, 1.055999994277954, 0.0, 0.0, 0.0, 0.0, 0.0, 1.6210009490926547E9, 2021-05-14 16:02:29.092
57.0, 113.47417449951172, -117.4739990234375, 109.12093353271484, 505.52789306640625, 0.04800000041723251, -0.04800000041723251, 1.055999994277954, 0.0, 0.0, 0.0, 0.0, 0.0, 1.6210009490933974E9, 2021-05-14 16:02:29.093
57.0, 126.36560821533203, -113.54710388183594, 108.05506134033203, 516.040771484375, 0.04800000041723251, -0.04800000041723251, 1.055999994277954, 0.0, 0.0, 0.0, 0.0, 0.0, 1.6210009490933974E9, 2021-05-14 16:02:29.093
58.0, 122.41627502441406, -111.27698516845703, 107.61375427246094, 513.2694702148438, 0.04800000041723251, -0.04800000041723251, 1.055999994277954, 0.0, 0.0, 0.0, 0.0, 0.0, 1.62100094910526E9, 2021-05-14 16:02:29.105
58.0, 111.61170196533203, -121.85342407226562, 103.96360778808594, 502.4200439453125, 0.04800000041723251, -0.04800000041723251, 1.055999994277954, 0.0, 0.0, 0.0, 0.0, 0.0, 1.62100094910526E9, 2021-05-14 16:02:29.105
59.0, 106.05047607421875, -123.56255340576172, 104.02718353271484, 492.2101135253906, 0.04800000041723251, -0.04800000041723251, 1.055999994277954, 0.0, 0.0, 0.0, 0.0, 0.0, 1.6210009491059546E9, 2021-05-14 16:02:29.105
59.0, 125.95796203613281, -114.04450988769531, 114.92899322509766, 507.20709228515625, 0.04800000041723251, -0.04800000041723251, 1.055999994277954, 0.0, 0.0, 0.0, 0.0, 0.0, 1.6210009491059546E9, 2021-05-14 16:02:29.105
60.0, 138.3370361328125, -105.15476989746094, 121.02503204345703, 515.27783203125, 0.04800000041723251, -0.04800000041723251, 1.055999994277954, 0.0, 0.0, 0.0, 0.0, 0.0, 1.621000949106676E9, 2021-05-14 16:02:29.106
60.0, 132.36441040039062, -108.15042877197266, 122.91741943359375, 501.86279296875, 0.04800000041723251, -0.04800000041723251, 1.055999994277954, 0.0, 0.0, 0.0, 0.0, 0.0, 1.621000949106676E9, 2021-05-14 16:02:29.106
61.0, 127.6222152709961, -101.657958984375, 119.70858764648438, 492.4307556152344, 0.04800000041723251, -0.04800000041723251, 1.055999994277954, 0.0, 0.0, 0.0, 0.0, 0.0, 1.621000949119012E9, 2021-05-14 16:02:29.119
61.0, 140.68568420410156, -97.11772155761719, 120.27705383300781, 497.180419921875, 0.04800000041723251, -0.04800000041723251, 1.055999994277954, 0.0, 0.0, 0.0, 0.0, 0.0, 1.621000949119012E9, 2021-05-14 16:02:29.119
62.0, 140.3154296875, -97.31219482421875, 124.469482421875, 497.71148681640625, 0.04800000041723251, -0.04800000041723251, 1.055999994277954, 0.0, 0.0, 0.0, 0.0, 0.0, 1.6210009491346083E9, 2021-05-14 16:02:29.134
62.0, 126.70967864990234, -102.88465118408203, 113.93791961669922, 481.3419494628906, 0.04800000041723251, -0.04800000041723251, 1.055999994277954, 0.0, 0.0, 0.0, 0.0, 0.0, 1.6210009491346083E9, 2021-05-14 16:02:29.134
63.0, 122.08342742919922, -105.76811218261719, 107.23976135253906, 476.7381286621094, 0.04800000041723251, -0.04800000041723251, 1.055999994277954, 0.0, 0.0, 0.0, 0.0, 0.0, 1.6210009491353388E9, 2021-05-14 16:02:29.135
63.0, 124.64151763916016, -105.95884704589844, 112.65887451171875, 494.1099853515625, 0.04800000041723251, -0.04800000041723251, 1.055999994277954, 0.0, 0.0, 0.0, 0.0, 0.0, 1.6210009491353388E9, 2021-05-14 16:02:29.135
64.0, 130.97315979003906, -103.05294036865234, 118.68385314941406, 503.73272705078125, 0.04800000041723251, -0.04800000041723251, 1.055999994277954, 0.0, 0.0, 0.0, 0.0, 0.0, 1.6210009491489708E9, 2021-05-14 16:02:29.148
64.0, 119.54402923583984, -110.87307739257812, 109.41264343261719, 490.6879577636719, 0.04800000041723251, -0.04800000041723251, 1.055999994277954, 0.0, 0.0, 0.0, 0.0, 0.0, 1.6210009491489708E9, 2021-05-14 16:02:29.148
65.0, 125.42315673828125, -116.3894271850586, 105.25387573242188, 486.1103210449219, 0.04800000041723251, -0.04800000041723251, 1.055999994277954, 0.0, 0.0, 0.0, 0.0, 0.0, 1.6210009491644857E9, 2021-05-14 16:02:29.164
65.0, 140.5697479248047, -111.52755737304688, 108.49636840820312, 504.7836608886719, 0.04800000041723251, -0.04800000041723251, 1.055999994277954, 0.0, 0.0, 0.0, 0.0, 0.0, 1.6210009491644857E9, 2021-05-14 16:02:29.164
66.0, 141.3887939453125, -113.16563415527344, 115.52738189697266, 514.4961547851562, 0.04800000041723251, -0.04800000041723251, 1.055999994277954, 0.0, 0.0, 0.0, 0.0, 0.0, 1.6210009491652064E9, 2021-05-14 16:02:29.165
66.0, 122.7079849243164, -113.4423828125, 114.52508544921875, 507.0201110839844, 0.04800000041723251, -0.04800000041723251, 1.055999994277954, 0.0, 0.0, 0.0, 0.0, 0.0, 1.6210009491652064E9, 2021-05-14 16:02:29.165
67.0, 121.27560424804688, -114.79248809814453, 113.63873291015625, 508.7778625488281, 0.04800000041723251, -0.04800000041723251, 1.055999994277954, 0.0, 0.0, 0.0, 0.0, 0.0, 1.6210009491788511E9, 2021-05-14 16:02:29.178
67.0, 126.82561492919922, -118.2369384765625, 115.08607482910156, 517.3422241210938, 0.04800000041723251, -0.04800000041723251, 1.055999994277954, 0.0, 0.0, 0.0, 0.0, 0.0, 1.6210009491788511E9, 2021-05-14 16:02:29.178
68.0, 134.2680206298828, -105.68209075927734, 118.26124572753906, 520.7791748046875, 0.04800000041723251, -0.04800000041723251, 1.055999994277954, 0.0, 0.0, 0.0, 0.0, 0.0, 1.621000949195143E9, 2021-05-14 16:02:29.195
68.0, 120.69218444824219, -115.5442123413086, 103.91499328613281, 507.6783142089844, 0.04800000041723251, -0.04800000041723251, 1.055999994277954, 0.0, 0.0, 0.0, 0.0, 0.0, 1.621000949195143E9, 2021-05-14 16:02:29.195
69.0, 115.57599639892578, -127.79985809326172, 99.9020767211914, 499.0877685546875, 0.04800000041723251, -0.04800000041723251, 1.055999994277954, 0.0, 0.0, 0.0, 0.0, 0.0, 1.6210009491958857E9, 2021-05-14 16:02:29.195
69.0, 130.0980224609375, -103.7822265625, 107.03032684326172, 505.0155334472656, 0.04800000041723251, -0.04800000041723251, 1.055999994277954, 0.0, 0.0, 0.0, 0.0, 0.0, 1.6210009491958857E9, 2021-05-14 16:02:29.195
70.0, 134.88136291503906, -111.95016479492188, 110.69916534423828, 501.9001770019531, 0.04800000041723251, -0.04800000041723251, 1.055999994277954, 0.0, 0.0, 0.0, 0.0, 0.0, 1.6210009492088857E9, 2021-05-14 16:02:29.208
70.0, 123.91223907470703, -113.05717468261719, 107.3257827758789, 492.3260498046875, 0.04800000041723251, -0.04800000041723251, 1.055999994277954, 0.0, 0.0, 0.0, 0.0, 0.0, 1.6210009492088857E9, 2021-05-14 16:02:29.208
71.0, 128.73297119140625, -114.72891235351562, 116.07340240478516, 488.5075988769531, 0.04800000041723251, -0.04800000041723251, 1.055999994277954, 0.0, 0.0, 0.0, 0.0, 0.0, 1.6210009492244613E9, 2021-05-14 16:02:29.224
71.0, 136.078125, -113.49474334716797, 111.32373046875, 494.5325927734375, 0.04800000041723251, -0.04800000041723251, 1.055999994277954, 0.0, 0.0, 0.0, 0.0, 0.0, 1.6210009492244613E9, 2021-05-14 16:02:29.224
72.0, 134.2268829345703, -112.91131591796875, 112.7486343383789, 496.6418762207031, 0.03200000151991844, -0.04800000041723251, 1.055999994277954, 0.0, 0.0, 0.0, 0.0, 0.0, 1.6210009492251472E9, 2021-05-14 16:02:29.225
72.0, 129.92599487304688, -115.83218383789062, 113.37319946289062, 495.2431640625, 0.03200000151991844, -0.04800000041723251, 1.055999994277954, 0.0, 0.0, 0.0, 0.0, 0.0, 1.6210009492251472E9, 2021-05-14 16:02:29.225
73.0, 129.79135131835938, -117.02146911621094, 118.68385314941406, 497.12432861328125, 0.03200000151991844, -0.04800000041723251, 1.055999994277954, 0.0, 0.0, 0.0, 0.0, 0.0, 1.6210009492387943E9, 2021-05-14 16:02:29.238
73.0, 129.10321044921875, -103.37083435058594, 120.05265808105469, 510.5356140136719, 0.03200000151991844, -0.04800000041723251, 1.055999994277954, 0.0, 0.0, 0.0, 0.0, 0.0, 1.6210009492387943E9, 2021-05-14 16:02:29.238
74.0, 124.4470443725586, -104.68354034423828, 113.4292984008789, 509.46600341796875, 0.03200000151991844, -0.04800000041723251, 1.055999994277954, 0.0, 0.0, 0.0, 0.0, 0.0, 1.6210009492544353E9, 2021-05-14 16:02:29.254
74.0, 111.71642303466797, -123.08758544921875, 107.68855285644531, 500.4565734863281, 0.03200000151991844, -0.04800000041723251, 1.055999994277954, 0.0, 0.0, 0.0, 0.0, 0.0, 1.6210009492544353E9, 2021-05-14 16:02:29.254
75.0, 106.86576843261719, -126.30390167236328, 102.50505065917969, 496.76904296875, 0.03200000151991844, -0.04800000041723251, 1.055999994277954, 0.0, 0.0, 0.0, 0.0, 0.0, 1.6210009492551656E9, 2021-05-14 16:02:29.255
