Sample Index, EXG Channel 0, EXG Channel 1, EXG Channel 2, EXG Channel 3, Accel Channel 0, Accel Channel 1, Accel Channel 2, Other, Other, Other, Other, Other, Timestamp, Timestamp (Formatted)
0.0, -149.79421997070312, -199.31796264648438, 258.6178283691406, 176.75889587402344, 0.0, 0.0, 0.0, 0.0, 0.0, 0.0, 0.0, 0.0, 1.6209964893393428E9, 2021-05-14 14:48:09.339
1.0, -129.4342041015625, -188.6816864013672, 273.68212890625, 190.9293670654297, 0.0, -0.04800000041723251, 0.0, 0.0, 0.0, 0.0, 0.0, 0.0, 1.6209964893527145E9, 2021-05-14 14:48:09.352
1.0, -132.9459686279297, -191.38563537597656, 254.91531372070312, 180.5062713623047, 0.0, -0.04800000041723251, 0.0, 0.0, 0.0, 0.0, 0.0, 0.0, 1.6209964893527145E9, 2021-05-14 14:48:09.352
2.0, -151.15553283691406, -199.7144012451172, 243.1234130859375, 160.60626220703125, 0.03200000151991844, -0.04800000041723251, 0.0, 0.0, 0.0, 0.0, 0.0, 0.0, 1.6209964893691938E9, 2021-05-14 14:48:09.369
2.0, -151.52952575683594, -195.8623046875, 251.49331665039062, 182.08450317382812, 0.03200000151991844, -0.04800000041723251, 0.0, 0.0, 0.0, 0.0, 0.0, 0.0, 1.6209964893691938E9, 2021-05-14 14:48:09.369
3.0, -134.5952606201172, -192.0775146484375, 265.5815124511719, 191.35572814941406, 0.03200000151991844, -0.04800000041723251, 0.0, 0.0, 0.0, 0.0, 0.0, 0.0, 1.6209964893700695E9, 2021-05-14 14:48:09.370
3.0, -154.0913543701172, -197.21987915039062, 260.394287109375, 178.46803283691406, 0.03200000151991844, -0.04800000041723251, 0.0, 0.0, 0.0, 0.0, 0.0, 0.0, 1.6209964893700695E9, 2021-05-14 14:48:09.370
4.0, -151.77261352539062, -196.8346710205078, 254.34310913085938, 171.26498413085938, 0.03200000151991844, -0.04800000041723251, 0.0, 0.0, 0.0, 0.0, 0.0, 0.0, 1.6209964893825085E9, 2021-05-14 14:48:09.382
4.0, -159.8732452392578, -201.95834350585938, 257.6304931640625, 177.1141815185547, 0.03200000151991844, -0.04800000041723251, 0.0, 0.0, 0.0, 0.0, 0.0, 0.0, 1.6209964893825085E9, 2021-05-14 14:48:09.382
5.0, -138.22669982910156, -186.56117248535156, 266.28460693359375, 188.6143798828125, 0.03200000151991844, -0.04800000041723251, 0.0, 0.0, 0.0, 0.0, 0.0, 0.0, 1.6209964893981311E9, 2021-05-14 14:48:09.398
5.0, -152.76368713378906, -183.19900512695312, 260.7159118652344, 179.1449432373047, 0.03200000151991844, -0.04800000041723251, 0.0, 0.0, 0.0, 0.0, 0.0, 0.0, 1.6209964893981311E9, 2021-05-14 14:48:09.398
6.0, -158.79615783691406, -197.87062072753906, 245.29629516601562, 165.44195556640625, 0.03200000151991844, -0.04800000041723251, 0.0, 0.0, 0.0, 0.0, 0.0, 0.0, 1.620996489398831E9, 2021-05-14 14:48:09.398
6.0, -153.83705139160156, -191.78955078125, 253.5577392578125, 167.64102172851562, 0.03200000151991844, -0.04800000041723251, 0.0, 0.0, 0.0, 0.0, 0.0, 0.0, 1.620996489398831E9, 2021-05-14 14:48:09.398
7.0, -141.71603393554688, -185.39805603027344, 260.70843505859375, 188.40867614746094, 0.03200000151991844, -0.04800000041723251, 0.0, 0.0, 0.0, 0.0, 0.0, 0.0, 1.620996489412323E9, 2021-05-14 14:48:09.412
7.0, -142.7482452392578, -181.9087371826172, 260.6485900878906, 178.8233184814453, 0.03200000151991844, -0.04800000041723251, 0.0, 0.0, 0.0, 0.0, 0.0, 0.0, 1.620996489412323E9, 2021-05-14 14:48:09.412
8.0, -154.734619140625, -204.4977264404297, 253.0790252685547, 161.32058715820312, 0.03200000151991844, -0.04800000041723251, 0.0, 0.0, 0.0, 0.0, 0.0, 0.0, 1.6209964894451132E9, 2021-05-14 14:48:09.445
8.0, -142.41539001464844, -191.46043395996094, 262.8139953613281, 164.4022674560547, 0.03200000151991844, -0.04800000041723251, 0.0, 0.0, 0.0, 0.0, 0.0, 0.0, 1.6209964894451132E9, 2021-05-14 14:48:09.445
9.0, -134.23623657226562, -179.4591064453125, 272.8967590332031, 187.0511016845703, 0.03200000151991844, -0.04800000041723251, 0.0, 0.0, 0.0, 0.0, 0.0, 0.0, 1.620996489445818E9, 2021-05-14 14:48:09.445
9.0, -141.71229553222656, -190.33473205566406, 264.7624816894531, 171.20887756347656, 0.03200000151991844, -0.04800000041723251, 0.0, 0.0, 0.0, 0.0, 0.0, 0.0, 1.620996489445818E9, 2021-05-14 14:48:09.445
10.0, -147.4006805419922, -203.51412963867188, 248.83050537109375, 161.19717407226562, 0.03200000151991844, -0.04800000041723251, 1.055999994277954, 0.0, 0.0, 0.0, 0.0, 0.0, 1.6209964894466116E9, 2021-05-14 14:48:09.446
10.0, -130.22705078125, -196.0717315673828, 261.26568603515625, 181.50856018066406, 0.03200000151991844, -0.04800000041723251, 1.055999994277954, 0.0, 0.0, 0.0, 0.0, 0.0, 1.6209964894466116E9, 2021-05-14 14:48:09.446
11.0, -111.56869506835938, -196.6663818359375, 273.611083984375, 190.78726196289062, 0.03200000151991844, -0.04800000041723251, 1.055999994277954, 0.0, 0.0, 0.0, 0.0, 0.0, 1.6209964894473004E9, 2021-05-14 14:48:09.447
11.0, -151.49586486816406, -204.419189453125, 261.88275146484375, 178.2623291015625, 0.03200000151991844, -0.04800000041723251, 1.055999994277954, 0.0, 0.0, 0.0, 0.0, 0.0, 1.6209964894473004E9, 2021-05-14 14:48:09.447
12.0, -165.0305633544922, -199.56480407714844, 246.56411743164062, 159.9555206298828, 0.03200000151991844, -0.04800000041723251, 1.055999994277954, 0.0, 0.0, 0.0, 0.0, 0.0, 1.6209964894573805E9, 2021-05-14 14:48:09.457
12.0, -155.9575653076172, -183.42340087890625, 262.78033447265625, 182.64549255371094, 0.03200000151991844, -0.04800000041723251, 1.055999994277954, 0.0, 0.0, 0.0, 0.0, 0.0, 1.6209964894573805E9, 2021-05-14 14:48:09.457
13.0, -144.28533935546875, -200.3501739501953, 262.9635925292969, 188.0608673095703, 0.03200000151991844, -0.04800000041723251, 1.055999994277954, 0.0, 0.0, 0.0, 0.0, 0.0, 1.6209964894724085E9, 2021-05-14 14:48:09.472
13.0, -155.2544708251953, -194.56829833984375, 253.1800079345703, 176.25775146484375, 0.03200000151991844, -0.04800000041723251, 1.055999994277954, 0.0, 0.0, 0.0, 0.0, 0.0, 1.6209964894724085E9, 2021-05-14 14:48:09.472
14.0, -148.34312438964844, -195.7650604248047, 250.95851135253906, 172.21116638183594, 0.03200000151991844, -0.04800000041723251, 1.055999994277954, 0.0, 0.0, 0.0, 0.0, 0.0, 1.6209964895044234E9, 2021-05-14 14:48:09.504
14.0, -139.58802795410156, -196.29986572265625, 257.3387756347656, 179.59747314453125, 0.03200000151991844, -0.04800000041723251, 1.055999994277954, 0.0, 0.0, 0.0, 0.0, 0.0, 1.6209964895044234E9, 2021-05-14 14:48:09.504
15.0, -129.23223876953125, -185.263427734375, 276.1130676269531, 193.9586944580078, 0.03200000151991844, -0.04800000041723251, 1.055999994277954, 0.0, 0.0, 0.0, 0.0, 0.0, 1.6209964895051367E9, 2021-05-14 14:48:09.505
15.0, -145.4185333251953, -179.78073120117188, 269.48223876953125, 186.93142700195312, 0.03200000151991844, -0.04800000041723251, 1.055999994277954, 0.0, 0.0, 0.0, 0.0, 0.0, 1.6209964895051367E9, 2021-05-14 14:48:09.505
16.0, -166.37692260742188, -200.181884765625, 251.3511962890625, 170.90220642089844, 0.03200000151991844, -0.04800000041723251, 1.055999994277954, 0.0, 0.0, 0.0, 0.0, 0.0, 1.6209964895060296E9, 2021-05-14 14:48:09.506
16.0, -152.17652893066406, -190.9031982421875, 259.5079040527344, 183.67022705078125, 0.03200000151991844, -0.04800000041723251, 1.055999994277954, 0.0, 0.0, 0.0, 0.0, 0.0, 1.6209964895060296E9, 2021-05-14 14:48:09.506
17.0, -128.3720703125, -192.6759033203125, 265.2711181640625, 194.3251953125, 0.03200000151991844, -0.04800000041723251, 1.055999994277954, 0.0, 0.0, 0.0, 0.0, 0.0, 1.6209964895066261E9, 2021-05-14 14:48:09.506
17.0, -148.3767852783203, -195.4322052001953, 259.2386474609375, 178.58770751953125, 0.03200000151991844, -0.04800000041723251, 1.055999994277954, 0.0, 0.0, 0.0, 0.0, 0.0, 1.6209964895066261E9, 2021-05-14 14:48:09.506
18.0, -158.70639038085938, -195.58929443359375, 255.03500366210938, 171.870849609375, 0.03200000151991844, -0.04800000041723251, 1.055999994277954, 0.0, 0.0, 0.0, 0.0, 0.0, 1.6209964895173929E9, 2021-05-14 14:48:09.517
18.0, -158.2576141357422, -200.46237182617188, 254.1598663330078, 171.8970184326172, 0.03200000151991844, -0.04800000041723251, 1.055999994277954, 0.0, 0.0, 0.0, 0.0, 0.0, 1.6209964895173929E9, 2021-05-14 14:48:09.517
19.0, -142.38172912597656, -190.36465454101562, 258.15032958984375, 187.74671936035156, 0.03200000151991844, -0.04800000041723251, 1.055999994277954, 0.0, 0.0, 0.0, 0.0, 0.0, 1.6209964895324736E9, 2021-05-14 14:48:09.532
19.0, -148.4179229736328, -195.53318786621094, 249.69442749023438, 173.5650177001953, 0.03200000151991844, -0.04800000041723251, 1.055999994277954, 0.0, 0.0, 0.0, 0.0, 0.0, 1.6209964895324736E9, 2021-05-14 14:48:09.532
20.0, -160.6698455810547, -206.29287719726562, 233.76992797851562, 156.40261840820312, 0.03200000151991844, -0.04800000041723251, 1.055999994277954, 0.0, 0.0, 0.0, 0.0, 0.0, 1.6209964895488324E9, 2021-05-14 14:48:09.548
20.0, -143.77297973632812, -197.21987915039062, 248.3779754638672, 175.7640838623047, 0.03200000151991844, -0.04800000041723251, 1.055999994277954, 0.0, 0.0, 0.0, 0.0, 0.0, 1.6209964895488324E9, 2021-05-14 14:48:09.548
21.0, -137.75547790527344, -184.13771057128906, 263.5245666503906, 190.8059539794922, 0.03200000151991844, -0.04800000041723251, 1.055999994277954, 0.0, 0.0, 0.0, 0.0, 0.0, 1.620996489549584E9, 2021-05-14 14:48:09.549
21.0, -157.43482971191406, -201.0420684814453, 251.88600158691406, 173.8230743408203, 0.03200000151991844, -0.04800000041723251, 1.055999994277954, 0.0, 0.0, 0.0, 0.0, 0.0, 1.620996489549584E9, 2021-05-14 14:48:09.549
22.0, -170.26268005371094, -202.0518341064453, 248.2545623779297, 166.5714111328125, 0.03200000151991844, -0.04800000041723251, 1.055999994277954, 0.0, 0.0, 0.0, 0.0, 0.0, 1.6209964895623283E9, 2021-05-14 14:48:09.562
22.0, -155.49008178710938, -188.1917724609375, 259.30596923828125, 172.7833709716797, 0.03200000151991844, -0.04800000041723251, 1.055999994277954, 0.0, 0.0, 0.0, 0.0, 0.0, 1.6209964895623283E9, 2021-05-14 14:48:09.562
23.0, -136.6409912109375, -176.47091674804688, 266.41925048828125, 186.30311584472656, 0.03200000151991844, -0.04800000041723251, 1.055999994277954, 0.0, 0.0, 0.0, 0.0, 0.0, 1.6209964895780191E9, 2021-05-14 14:48:09.578
23.0, -157.0795440673828, -193.1396484375, 251.5157470703125, 168.11224365234375, 0.03200000151991844, -0.04800000041723251, 1.055999994277954, 0.0, 0.0, 0.0, 0.0, 0.0, 1.6209964895780191E9, 2021-05-14 14:48:09.578
24.0, -165.17642211914062, -201.23280334472656, 251.8934783935547, 167.37548828125, 0.03200000151991844, -0.04800000041723251, 1.055999994277954, 0.0, 0.0, 0.0, 0.0, 0.0, 1.6209964895789144E9, 2021-05-14 14:48:09.578
24.0, -146.27122497558594, -199.1982879638672, 259.8332824707031, 180.81668090820312, 0.03200000151991844, -0.04800000041723251, 1.055999994277954, 0.0, 0.0, 0.0, 0.0, 0.0, 1.6209964895789144E9, 2021-05-14 14:48:09.578
25.0, -128.22994995117188, -191.63621520996094, 275.0771179199219, 192.69834899902344, 0.03200000151991844, -0.04800000041723251, 1.055999994277954, 0.0, 0.0, 0.0, 0.0, 0.0, 1.6209964895923293E9, 2021-05-14 14:48:09.592
25.0, -146.65269470214844, -194.73284912109375, 255.41647338867188, 173.33688354492188, 0.03200000151991844, -0.04800000041723251, 1.055999994277954, 0.0, 0.0, 0.0, 0.0, 0.0, 1.6209964895923293E9, 2021-05-14 14:48:09.592
26.0, -167.6597137451172, -204.0339813232422, 244.87742614746094, 161.1373291015625, 0.03200000151991844, -0.04800000041723251, 1.055999994277954, 0.0, 0.0, 0.0, 0.0, 0.0, 1.6209964896087272E9, 2021-05-14 14:48:09.608
26.0, -157.93971252441406, -198.3717803955078, 253.4380645751953, 172.6749267578125, 0.03200000151991844, -0.04800000041723251, 1.055999994277954, 0.0, 0.0, 0.0, 0.0, 0.0, 1.6209964896087272E9, 2021-05-14 14:48:09.608
27.0, -140.496826171875, -200.33895874023438, 264.104248046875, 191.4529571533203, 0.03200000151991844, -0.04800000041723251, 1.055999994277954, 0.0, 0.0, 0.0, 0.0, 0.0, 1.6209964896095123E9, 2021-05-14 14:48:09.609
27.0, -145.6204833984375, -196.26246643066406, 261.134765625, 180.9700164794922, 0.03200000151991844, -0.04800000041723251, 1.055999994277954, 0.0, 0.0, 0.0, 0.0, 0.0, 1.6209964896095123E9, 2021-05-14 14:48:09.609
28.0, -157.27401733398438, -209.8121337890625, 246.78103637695312, 166.45547485351562, 0.03200000151991844, -0.04800000041723251, 1.055999994277954, 0.0, 0.0, 0.0, 0.0, 0.0, 1.620996489622437E9, 2021-05-14 14:48:09.622
28.0, -155.0300750732422, -200.7428741455078, 257.7464294433594, 170.62171936035156, 0.03200000151991844, -0.04800000041723251, 1.055999994277954, 0.0, 0.0, 0.0, 0.0, 0.0, 1.620996489622437E9, 2021-05-14 14:48:09.622
29.0, -141.8057861328125, -190.77603149414062, 272.60504150390625, 196.37466430664062, 0.03200000151991844, -0.04800000041723251, 1.055999994277954, 0.0, 0.0, 0.0, 0.0, 0.0, 1.6209964896380668E9, 2021-05-14 14:48:09.638
29.0, -148.95272827148438, -201.68531799316406, 259.52288818359375, 176.64295959472656, 0.03200000151991844, -0.04800000041723251, 1.055999994277954, 0.0, 0.0, 0.0, 0.0, 0.0, 1.6209964896380668E9, 2021-05-14 14:48:09.638
30.0, -150.05975341796875, -210.54141235351562, 247.5364990234375, 161.12237548828125, 0.03200000151991844, -0.04800000041723251, 1.055999994277954, 0.0, 0.0, 0.0, 0.0, 0.0, 1.6209964896387992E9, 2021-05-14 14:48:09.638
30.0, -144.1507110595703, -199.83407592773438, 251.45591735839844, 170.31878662109375, 0.03200000151991844, -0.04800000041723251, 1.055999994277954, 0.0, 0.0, 0.0, 0.0, 0.0, 1.6209964896387992E9, 2021-05-14 14:48:09.638
31.0, -137.57969665527344, -200.88497924804688, 261.5723571777344, 183.737548828125, 0.03200000151991844, -0.04800000041723251, 1.055999994277954, 0.0, 0.0, 0.0, 0.0, 0.0, 1.620996489652429E9, 2021-05-14 14:48:09.652
31.0, -140.81471252441406, -206.8875274658203, 260.0202941894531, 180.40155029296875, 0.03200000151991844, -0.04800000041723251, 1.055999994277954, 0.0, 0.0, 0.0, 0.0, 0.0, 1.620996489652429E9, 2021-05-14 14:48:09.652
32.0, -157.5432891845703, -204.1761016845703, 249.08106994628906, 167.73825073242188, 0.03200000151991844, -0.04800000041723251, 1.055999994277954, 0.0, 0.0, 0.0, 0.0, 0.0, 1.6209964896688595E9, 2021-05-14 14:48:09.668
32.0, -154.8617706298828, -199.81163024902344, 251.8710479736328, 176.63922119140625, 0.03200000151991844, -0.04800000041723251, 1.055999994277954, 0.0, 0.0, 0.0, 0.0, 0.0, 1.6209964896688595E9, 2021-05-14 14:48:09.668
33.0, -137.96864318847656, -192.3804473876953, 271.84210205078125, 191.90174865722656, 0.03200000151991844, -0.04800000041723251, 1.055999994277954, 0.0, 0.0, 0.0, 0.0, 0.0, 1.6209964896694536E9, 2021-05-14 14:48:09.669
33.0, -146.9444122314453, -207.470947265625, 254.01400756835938, 173.23216247558594, 0.03200000151991844, -0.04800000041723251, 1.055999994277954, 0.0, 0.0, 0.0, 0.0, 0.0, 1.6209964896694536E9, 2021-05-14 14:48:09.669
34.0, -161.3168487548828, -205.41773986816406, 241.60501098632812, 163.69541931152344, 0.03200000151991844, -0.04800000041723251, 1.055999994277954, 0.0, 0.0, 0.0, 0.0, 0.0, 1.6209964896825044E9, 2021-05-14 14:48:09.682
34.0, -147.38571166992188, -205.95628356933594, 249.75799560546875, 176.56442260742188, 0.03200000151991844, -0.04800000041723251, 1.055999994277954, 0.0, 0.0, 0.0, 0.0, 0.0, 1.6209964896825044E9, 2021-05-14 14:48:09.682
35.0, -131.31163024902344, -191.29588317871094, 264.30621337890625, 191.6175079345703, 0.03200000151991844, -0.04800000041723251, 1.055999994277954, 0.0, 0.0, 0.0, 0.0, 0.0, 1.62099648969805E9, 2021-05-14 14:48:09.698
35.0, -145.8635711669922, -184.72862243652344, 263.4647216796875, 183.902099609375, 0.03200000151991844, -0.04800000041723251, 1.055999994277954, 0.0, 0.0, 0.0, 0.0, 0.0, 1.62099648969805E9, 2021-05-14 14:48:09.698
36.0, -154.62615966796875, -205.29806518554688, 244.772705078125, 159.488037109375, 0.03200000151991844, -0.04800000041723251, 1.055999994277954, 0.0, 0.0, 0.0, 0.0, 0.0, 1.6209964896988049E9, 2021-05-14 14:48:09.698
36.0, -145.8000030517578, -186.74069213867188, 258.9768371582031, 179.1898193359375, 0.03200000151991844, -0.04800000041723251, 1.055999994277954, 0.0, 0.0, 0.0, 0.0, 0.0, 1.6209964896988049E9, 2021-05-14 14:48:09.698
37.0, -143.11474609375, -186.38165283203125, 268.9586486816406, 188.0533905029297, 0.03200000151991844, -0.04800000041723251, 1.055999994277954, 0.0, 0.0, 0.0, 0.0, 0.0, 1.6209964897123568E9, 2021-05-14 14:48:09.712
37.0, -156.82896423339844, -187.19320678710938, 256.310302734375, 179.99391174316406, 0.03200000151991844, -0.04800000041723251, 1.055999994277954, 0.0, 0.0, 0.0, 0.0, 0.0, 1.6209964897123568E9, 2021-05-14 14:48:09.712
38.0, -157.55076599121094, -208.8285369873047, 250.78646850585938, 172.05035400390625, 0.03200000151991844, -0.04800000041723251, 1.055999994277954, 0.0, 0.0, 0.0, 0.0, 0.0, 1.6209964897280333E9, 2021-05-14 14:48:09.728
38.0, -152.89459228515625, -202.71005249023438, 257.6267395019531, 174.8291015625, 0.03200000151991844, -0.04800000041723251, 1.055999994277954, 0.0, 0.0, 0.0, 0.0, 0.0, 1.6209964897280333E9, 2021-05-14 14:48:09.728
39.0, -145.38487243652344, -190.15147399902344, 265.0354919433594, 187.45126342773438, 0.03200000151991844, -0.04800000041723251, 1.055999994277954, 0.0, 0.0, 0.0, 0.0, 0.0, 1.6209964897287748E9, 2021-05-14 14:48:09.728
39.0, -140.6576385498047, -190.0467529296875, 255.75680541992188, 168.99111938476562, 0.03200000151991844, -0.04800000041723251, 1.055999994277954, 0.0, 0.0, 0.0, 0.0, 0.0, 1.6209964897287748E9, 2021-05-14 14:48:09.728
40.0, -154.7794952392578, -205.0587158203125, 246.33224487304688, 149.46136474609375, 0.03200000151991844, -0.04800000041723251, 1.055999994277954, 0.0, 0.0, 0.0, 0.0, 0.0, 1.6209964897588286E9, 2021-05-14 14:48:09.758
40.0, -155.06373596191406, -192.17849731445312, 263.01593017578125, 175.8089599609375, 0.03200000151991844, -0.04800000041723251, 1.055999994277954, 0.0, 0.0, 0.0, 0.0, 0.0, 1.6209964897588286E9, 2021-05-14 14:48:09.758
41.0, -135.41055297851562, -180.0500030517578, 280.6196594238281, 199.38902282714844, 0.03200000151991844, -0.04800000041723251, 1.055999994277954, 0.0, 0.0, 0.0, 0.0, 0.0, 1.6209964897594783E9, 2021-05-14 14:48:09.759
41.0, -151.3874053955078, -195.19659423828125, 262.95611572265625, 179.93406677246094, 0.03200000151991844, -0.04800000041723251, 1.055999994277954, 0.0, 0.0, 0.0, 0.0, 0.0, 1.6209964897594783E9, 2021-05-14 14:48:09.759
42.0, -171.58660888671875, -204.86050415039062, 251.0557403564453, 159.30104064941406, 0.03200000151991844, -0.04800000041723251, 1.055999994277954, 0.0, 0.0, 0.0, 0.0, 0.0, 1.620996489760183E9, 2021-05-14 14:48:09.760
42.0, -155.04129028320312, -197.0927276611328, 257.0321044921875, 167.10995483398438, 0.03200000151991844, -0.04800000041723251, 1.055999994277954, 0.0, 0.0, 0.0, 0.0, 0.0, 1.620996489760183E9, 2021-05-14 14:48:09.760
43.0, -140.33975219726562, -185.9066925048828, 278.2784729003906, 190.6414031982422, 0.03200000151991844, -0.04800000041723251, 1.055999994277954, 0.0, 0.0, 0.0, 0.0, 0.0, 1.620996489772411E9, 2021-05-14 14:48:09.772
43.0, -151.1817169189453, -200.02854919433594, 263.67791748046875, 174.64584350585938, 0.03200000151991844, -0.04800000041723251, 1.055999994277954, 0.0, 0.0, 0.0, 0.0, 0.0, 1.620996489772411E9, 2021-05-14 14:48:09.772
44.0, -163.8113555908203, -198.18478393554688, 248.29196166992188, 153.36581420898438, 0.03200000151991844, -0.04800000041723251, 1.055999994277954, 0.0, 0.0, 0.0, 0.0, 0.0, 1.6209964897881148E9, 2021-05-14 14:48:09.788
44.0, -151.03585815429688, -190.46188354492188, 266.4416809082031, 170.767578125, 0.03200000151991844, -0.04800000041723251, 1.055999994277954, 0.0, 0.0, 0.0, 0.0, 0.0, 1.6209964897881148E9, 2021-05-14 14:48:09.788
45.0, -132.53457641601562, -191.64369201660156, 274.4076843261719, 183.00827026367188, 0.03200000151991844, -0.04800000041723251, 1.055999994277954, 0.0, 0.0, 0.0, 0.0, 0.0, 1.6209964897888927E9, 2021-05-14 14:48:09.788
45.0, -145.5419464111328, -194.5795135498047, 264.2351379394531, 170.50204467773438, 0.03200000151991844, -0.04800000041723251, 1.055999994277954, 0.0, 0.0, 0.0, 0.0, 0.0, 1.6209964897888927E9, 2021-05-14 14:48:09.788
46.0, -163.81509399414062, -207.40737915039062, 248.845458984375, 166.4330291748047, 0.03200000151991844, -0.04800000041723251, 1.055999994277954, 0.0, 0.0, 0.0, 0.0, 0.0, 1.620996489802386E9, 2021-05-14 14:48:09.802
46.0, -156.0061798095703, -200.0584716796875, 257.58935546875, 169.1070556640625, 0.03200000151991844, -0.04800000041723251, 1.055999994277954, 0.0, 0.0, 0.0, 0.0, 0.0, 1.620996489802386E9, 2021-05-14 14:48:09.802
47.0, -142.96514892578125, -183.95071411132812, 272.3395080566406, 186.2694549560547, 0.03200000151991844, -0.04800000041723251, 1.055999994277954, 0.0, 0.0, 0.0, 0.0, 0.0, 1.6209964898180883E9, 2021-05-14 14:48:09.818
47.0, -137.4712371826172, -191.1500244140625, 267.3392639160156, 175.0908966064453, 0.03200000151991844, -0.04800000041723251, 1.055999994277954, 0.0, 0.0, 0.0, 0.0, 0.0, 1.6209964898180883E9, 2021-05-14 14:48:09.818
48.0, -151.83993530273438, -205.51498413085938, 257.0433349609375, 164.3611297607422, 0.03200000151991844, -0.04800000041723251, 1.055999994277954, 0.0, 0.0, 0.0, 0.0, 0.0, 1.6209964898188014E9, 2021-05-14 14:48:09.818
48.0, -148.3693084716797, -199.8976593017578, 260.20355224609375, 166.51156616210938, 0.03200000151991844, -0.04800000041723251, 1.055999994277954, 0.0, 0.0, 0.0, 0.0, 0.0, 1.6209964898188014E9, 2021-05-14 14:48:09.818
49.0, -137.0598602294922, -185.48782348632812, 277.58660888671875, 180.8466033935547, 0.03200000151991844, -0.04800000041723251, 1.055999994277954, 0.0, 0.0, 0.0, 0.0, 0.0, 1.6209964898323581E9, 2021-05-14 14:48:09.832
49.0, -154.065185546875, -196.48312377929688, 263.9696044921875, 172.04661560058594, 0.03200000151991844, -0.04800000041723251, 1.055999994277954, 0.0, 0.0, 0.0, 0.0, 0.0, 1.6209964898323581E9, 2021-05-14 14:48:09.832
50.0, -162.33409118652344, -216.3008575439453, 256.9722595214844, 163.82632446289062, 0.03200000151991844, -0.04800000041723251, 1.055999994277954, 0.0, 0.0, 0.0, 0.0, 0.0, 1.6209964898478067E9, 2021-05-14 14:48:09.847
50.0, -154.46908569335938, -194.05218505859375, 259.44061279296875, 164.08810424804688, 0.03200000151991844, -0.04800000041723251, 1.055999994277954, 0.0, 0.0, 0.0, 0.0, 0.0, 1.6209964898478067E9, 2021-05-14 14:48:09.847
51.0, -134.74111938476562, -178.3894805908203, 274.9910888671875, 182.18174743652344, 0.03200000151991844, -0.04800000041723251, 1.055999994277954, 0.0, 0.0, 0.0, 0.0, 0.0, 1.620996489863042E9, 2021-05-14 14:48:09.863
51.0, -129.41549682617188, -194.77024841308594, 263.7452392578125, 166.6088104248047, 0.03200000151991844, -0.04800000041723251, 1.055999994277954, 0.0, 0.0, 0.0, 0.0, 0.0, 1.620996489863042E9, 2021-05-14 14:48:09.863
52.0, -146.02066040039062, -208.24510192871094, 254.41043090820312, 149.86900329589844, 0.03200000151991844, -0.04800000041723251, 1.055999994277954, 0.0, 0.0, 0.0, 0.0, 0.0, 1.6209964898637314E9, 2021-05-14 14:48:09.863
52.0, -154.71218872070312, -199.22073364257812, 258.1129455566406, 161.8142547607422, 0.03200000151991844, -0.04800000041723251, 1.055999994277954, 0.0, 0.0, 0.0, 0.0, 0.0, 1.6209964898637314E9, 2021-05-14 14:48:09.863
53.0, -136.9850616455078, -178.4755096435547, 277.01812744140625, 186.3928680419922, 0.03200000151991844, -0.04800000041723251, 1.055999994277954, 0.0, 0.0, 0.0, 0.0, 0.0, 1.6209964898780158E9, 2021-05-14 14:48:09.878
53.0, -142.78564453125, -204.44537353515625, 260.7645263671875, 171.00692749023438, 0.03200000151991844, -0.04800000041723251, 1.055999994277954, 0.0, 0.0, 0.0, 0.0, 0.0, 1.6209964898780158E9, 2021-05-14 14:48:09.878
54.0, -163.44110107421875, -204.5052032470703, 255.26687622070312, 163.19427490234375, 0.03200000151991844, -0.04800000041723251, 1.055999994277954, 0.0, 0.0, 0.0, 0.0, 0.0, 1.6209964898787751E9, 2021-05-14 14:48:09.878
54.0, -151.24530029296875, -205.75433349609375, 257.2976379394531, 169.78024291992188, 0.03200000151991844, -0.04800000041723251, 1.055999994277954, 0.0, 0.0, 0.0, 0.0, 0.0, 1.6209964898787751E9, 2021-05-14 14:48:09.878
55.0, -127.20521545410156, -191.13880920410156, 274.8340148925781, 186.7369384765625, 0.03200000151991844, -0.04800000041723251, 1.055999994277954, 0.0, 0.0, 0.0, 0.0, 0.0, 1.6209964898925092E9, 2021-05-14 14:48:09.892
55.0, -154.0277862548828, -202.28370666503906, 264.48199462890625, 180.54367065429688, 0.03200000151991844, -0.04800000041723251, 1.055999994277954, 0.0, 0.0, 0.0, 0.0, 0.0, 1.6209964898925092E9, 2021-05-14 14:48:09.892
56.0, -161.74693298339844, -211.3754119873047, 253.92050170898438, 167.39044189453125, 0.03200000151991844, -0.04800000041723251, 1.055999994277954, 0.0, 0.0, 0.0, 0.0, 0.0, 1.6209964899080713E9, 2021-05-14 14:48:09.908
56.0, -146.79855346679688, -206.7042694091797, 258.69635009765625, 170.344970703125, 0.03200000151991844, -0.04800000041723251, 1.055999994277954, 0.0, 0.0, 0.0, 0.0, 0.0, 1.6209964899080713E9, 2021-05-14 14:48:09.908
57.0, -120.32006072998047, -188.56201171875, 277.2425231933594, 187.15206909179688, 0.03200000151991844, -0.04800000041723251, 1.055999994277954, 0.0, 0.0, 0.0, 0.0, 0.0, 1.6209964899088364E9, 2021-05-14 14:48:09.908
57.0, -145.1529998779297, -200.65684509277344, 262.15576171875, 173.41542053222656, 0.03200000151991844, -0.04800000041723251, 1.055999994277954, 0.0, 0.0, 0.0, 0.0, 0.0, 1.6209964899088364E9, 2021-05-14 14:48:09.908
58.0, -158.44085693359375, -203.3607940673828, 252.3572235107422, 160.3295135498047, 0.03200000151991844, -0.04800000041723251, 1.055999994277954, 0.0, 0.0, 0.0, 0.0, 0.0, 1.6209964899224255E9, 2021-05-14 14:48:09.922
58.0, -154.18112182617188, -205.9039306640625, 255.85777282714844, 168.0972900390625, 0.03200000151991844, -0.04800000041723251, 1.055999994277954, 0.0, 0.0, 0.0, 0.0, 0.0, 1.6209964899224255E9, 2021-05-14 14:48:09.922
59.0, -141.7235107421875, -198.24835205078125, 273.6297912597656, 190.65635681152344, 0.03200000151991844, -0.04800000041723251, 1.055999994277954, 0.0, 0.0, 0.0, 0.0, 0.0, 1.620996489938023E9, 2021-05-14 14:48:09.938
59.0, -141.67115783691406, -207.09695434570312, 266.1499938964844, 175.62570190429688, 0.03200000151991844, -0.04800000041723251, 1.055999994277954, 0.0, 0.0, 0.0, 0.0, 0.0, 1.620996489938023E9, 2021-05-14 14:48:09.938
60.0, -155.2469940185547, -204.61366271972656, 251.13427734375, 167.65223693847656, 0.03200000151991844, -0.04800000041723251, 1.055999994277954, 0.0, 0.0, 0.0, 0.0, 0.0, 1.620996489938757E9, 2021-05-14 14:48:09.938
60.0, -152.34107971191406, -196.38214111328125, 254.93402099609375, 173.80810546875, 0.03200000151991844, -0.04800000041723251, 1.055999994277954, 0.0, 0.0, 0.0, 0.0, 0.0, 1.620996489938757E9, 2021-05-14 14:48:09.938
61.0, -140.12657165527344, -189.61666870117188, 264.2426452636719, 186.77059936523438, 0.03200000151991844, -0.06400000303983688, 1.055999994277954, 0.0, 0.0, 0.0, 0.0, 0.0, 1.620996489952458E9, 2021-05-14 14:48:09.952
61.0, -159.4394073486328, -193.1433868408203, 256.0559997558594, 176.96832275390625, 0.03200000151991844, -0.06400000303983688, 1.055999994277954, 0.0, 0.0, 0.0, 0.0, 0.0, 1.620996489952458E9, 2021-05-14 14:48:09.952
62.0, -172.17002868652344, -210.4441680908203, 237.76788330078125, 163.97216796875, 0.03200000151991844, -0.06400000303983688, 1.055999994277954, 0.0, 0.0, 0.0, 0.0, 0.0, 1.6209964899684565E9, 2021-05-14 14:48:09.968
62.0, -152.88711547851562, -190.79100036621094, 251.50079345703125, 176.06326293945312, 0.03200000151991844, -0.06400000303983688, 1.055999994277954, 0.0, 0.0, 0.0, 0.0, 0.0, 1.6209964899684565E9, 2021-05-14 14:48:09.968
63.0, -132.515869140625, -189.2015380859375, 259.1339416503906, 189.60171508789062, 0.03200000151991844, -0.06400000303983688, 1.055999994277954, 0.0, 0.0, 0.0, 0.0, 0.0, 1.6209964899835486E9, 2021-05-14 14:48:09.983
63.0, -144.04225158691406, -190.85830688476562, 264.1080017089844, 189.6615447998047, 0.03200000151991844, -0.06400000303983688, 1.055999994277954, 0.0, 0.0, 0.0, 0.0, 0.0, 1.6209964899835486E9, 2021-05-14 14:48:09.983
64.0, -162.39019775390625, -208.08802795410156, 246.34347534179688, 169.5296630859375, 0.03200000151991844, -0.06400000303983688, 1.055999994277954, 0.0, 0.0, 0.0, 0.0, 0.0, 1.6209964899987116E9, 2021-05-14 14:48:09.998
64.0, -156.17822265625, -202.0443572998047, 253.32960510253906, 171.84466552734375, 0.03200000151991844, -0.06400000303983688, 1.055999994277954, 0.0, 0.0, 0.0, 0.0, 0.0, 1.6209964899987116E9, 2021-05-14 14:48:09.998
65.0, -134.87948608398438, -185.8468475341797, 270.42095947265625, 192.56744384765625, 0.03200000151991844, -0.06400000303983688, 1.055999994277954, 0.0, 0.0, 0.0, 0.0, 0.0, 1.6209964899994E9, 2021-05-14 14:48:09.999
65.0, -145.65040588378906, -197.31712341308594, 253.3034210205078, 168.71063232421875, 0.03200000151991844, -0.06400000303983688, 1.055999994277954, 0.0, 0.0, 0.0, 0.0, 0.0, 1.6209964899994E9, 2021-05-14 14:48:09.999
66.0, -167.65223693847656, -202.45948791503906, 243.79660034179688, 151.507080078125, 0.03200000151991844, -0.06400000303983688, 1.055999994277954, 0.0, 0.0, 0.0, 0.0, 0.0, 1.6209964900001445E9, 2021-05-14 14:48:10.000
66.0, -161.02139282226562, -192.26451110839844, 252.33853149414062, 166.34701538085938, 0.03200000151991844, -0.06400000303983688, 1.055999994277954, 0.0, 0.0, 0.0, 0.0, 0.0, 1.6209964900001445E9, 2021-05-14 14:48:10.000
67.0, -144.41249084472656, -190.86953735351562, 267.55242919921875, 181.24676513671875, 0.03200000151991844, -0.06400000303983688, 1.055999994277954, 0.0, 0.0, 0.0, 0.0, 0.0, 1.6209964900125215E9, 2021-05-14 14:48:10.012
67.0, -149.59225463867188, -190.4431915283203, 261.568603515625, 176.29515075683594, 0.03200000151991844, -0.06400000303983688, 1.055999994277954, 0.0, 0.0, 0.0, 0.0, 0.0, 1.6209964900125215E9, 2021-05-14 14:48:10.012
68.0, -157.05709838867188, -196.6626434326172, 251.84860229492188, 159.8134002685547, 0.03200000151991844, -0.06400000303983688, 1.055999994277954, 0.0, 0.0, 0.0, 0.0, 0.0, 1.6209964900280147E9, 2021-05-14 14:48:10.028
68.0, -148.1636199951172, -193.9586944580078, 266.40802001953125, 174.79544067382812, 0.03200000151991844, -0.06400000303983688, 1.055999994277954, 0.0, 0.0, 0.0, 0.0, 0.0, 1.6209964900280147E9, 2021-05-14 14:48:10.028
69.0, -135.79202270507812, -189.45211791992188, 270.3498840332031, 189.4969940185547, 0.03200000151991844, -0.06400000303983688, 1.055999994277954, 0.0, 0.0, 0.0, 0.0, 0.0, 1.6209964900287342E9, 2021-05-14 14:48:10.028
69.0, -135.83316040039062, -202.8521728515625, 265.0467224121094, 178.7335662841797, 0.03200000151991844, -0.06400000303983688, 1.055999994277954, 0.0, 0.0, 0.0, 0.0, 0.0, 1.6209964900287342E9, 2021-05-14 14:48:10.028
70.0, -149.4912872314453, -205.8253936767578, 249.88516235351562, 158.208984375, 0.03200000151991844, -0.06400000303983688, 1.055999994277954, 0.0, 0.0, 0.0, 0.0, 0.0, 1.6209964900425103E9, 2021-05-14 14:48:10.042
70.0, -143.70191955566406, -195.12928771972656, 258.95440673828125, 171.530517578125, 0.03200000151991844, -0.06400000303983688, 1.055999994277954, 0.0, 0.0, 0.0, 0.0, 0.0, 1.6209964900425103E9, 2021-05-14 14:48:10.042
71.0, -143.18206787109375, -187.66818237304688, 268.62579345703125, 186.9949951171875, 0.03200000151991844, -0.06400000303983688, 1.055999994277954, 0.0, 0.0, 0.0, 0.0, 0.0, 1.6209964900581427E9, 2021-05-14 14:48:10.058
71.0, -152.7823944091797, -192.88160705566406, 259.2199401855469, 170.2888641357422, 0.03200000151991844, -0.06400000303983688, 1.055999994277954, 0.0, 0.0, 0.0, 0.0, 0.0, 1.6209964900581427E9, 2021-05-14 14:48:10.058
72.0, -157.5657196044922, -205.3130340576172, 252.65267944335938, 159.63389587402344, 0.03200000151991844, -0.06400000303983688, 1.055999994277954, 0.0, 0.0, 0.0, 0.0, 0.0, 1.6209964900588288E9, 2021-05-14 14:48:10.058
72.0, -147.03790283203125, -193.71934509277344, 262.18194580078125, 179.26461791992188, 0.03200000151991844, -0.06400000303983688, 1.055999994277954, 0.0, 0.0, 0.0, 0.0, 0.0, 1.6209964900588288E9, 2021-05-14 14:48:10.058
73.0, -132.35879516601562, -188.56948852539062, 273.4390563964844, 187.1146697998047, 0.03200000151991844, -0.06400000303983688, 1.055999994277954, 0.0, 0.0, 0.0, 0.0, 0.0, 1.6209964900887854E9, 2021-05-14 14:48:10.088
73.0, -140.7586212158203, -202.86338806152344, 257.7838134765625, 177.3348388671875, 0.03200000151991844, -0.06400000303983688, 1.055999994277954, 0.0, 0.0, 0.0, 0.0, 0.0, 1.6209964900887854E9, 2021-05-14 14:48:10.088
74.0, -167.64849853515625, -212.16078186035156, 241.45916748046875, 165.8944854736328, 0.03200000151991844, -0.06400000303983688, 1.055999994277954, 0.0, 0.0, 0.0, 0.0, 0.0, 1.6209964900894797E9, 2021-05-14 14:48:10.089
74.0, -145.64292907714844, -204.31072998046875, 251.65786743164062, 167.4615020751953, 0.03200000151991844, -0.06400000303983688, 1.055999994277954, 0.0, 0.0, 0.0, 0.0, 0.0, 1.6209964900894797E9, 2021-05-14 14:48:10.089
75.0, -134.7598114013672, -189.41098022460938, 265.7572937011719, 181.29539489746094, 0.03200000151991844, -0.06400000303983688, 1.055999994277954, 0.0, 0.0, 0.0, 0.0, 0.0, 1.6209964900903249E9, 2021-05-14 14:48:10.090
75.0, -134.52793884277344, -196.1465301513672, 263.3301086425781, 175.16943359375, 0.03200000151991844, -0.06400000303983688, 1.055999994277954, 0.0, 0.0, 0.0, 0.0, 0.0, 1.6209964900903249E9, 2021-05-14 14:48:10.090
76.0, -147.42311096191406, -199.40399169921875, 255.03500366210938, 156.52603149414062, 0.03200000151991844, -0.06400000303983688, 1.055999994277954, 0.0, 0.0, 0.0, 0.0, 0.0, 1.620996490102481E9, 2021-05-14 14:48:10.102
76.0, -135.20486450195312, -205.51124572753906, 261.1572265625, 170.47959899902344, 0.03200000151991844, -0.06400000303983688, 1.055999994277954, 0.0, 0.0, 0.0, 0.0, 0.0, 1.620996490102481E9, 2021-05-14 14:48:10.102
77.0, -133.3274383544922, -191.6923065185547, 271.5616149902344, 182.09573364257812, 0.03200000151991844, -0.06400000303983688, 1.055999994277954, 0.0, 0.0, 0.0, 0.0, 0.0, 1.620996490118212E9, 2021-05-14 14:48:10.118
77.0, -144.75282287597656, -199.8004150390625, 267.7992858886719, 173.74827575683594, 0.03200000151991844, -0.06400000303983688, 1.055999994277954, 0.0, 0.0, 0.0, 0.0, 0.0, 1.620996490118212E9, 2021-05-14 14:48:10.118
78.0, -157.13563537597656, -202.8895721435547, 258.3859558105469, 160.2061004638672, 0.03200000151991844, -0.06400000303983688, 1.055999994277954, 0.0, 0.0, 0.0, 0.0, 0.0, 1.620996490118924E9, 2021-05-14 14:48:10.118
78.0, -150.78903198242188, -193.8203125, 258.06805419921875, 174.1933135986328, 0.03200000151991844, -0.06400000303983688, 1.055999994277954, 0.0, 0.0, 0.0, 0.0, 0.0, 1.620996490118924E9, 2021-05-14 14:48:10.118
79.0, -133.06564331054688, -191.1949005126953, 269.1344299316406, 187.810302734375, 0.03200000151991844, -0.06400000303983688, 1.055999994277954, 0.0, 0.0, 0.0, 0.0, 0.0, 1.6209964901323483E9, 2021-05-14 14:48:10.132
79.0, -140.17144775390625, -197.5901336669922, 262.4362487792969, 171.9119873046875, 0.03200000151991844, -0.06400000303983688, 1.055999994277954, 0.0, 0.0, 0.0, 0.0, 0.0, 1.6209964901323483E9, 2021-05-14 14:48:10.132
80.0, -156.46994018554688, -206.1993865966797, 253.06781005859375, 154.5738067626953, 0.03200000151991844, -0.06400000303983688, 1.055999994277954, 0.0, 0.0, 0.0, 0.0, 0.0, 1.620996490148174E9, 2021-05-14 14:48:10.148
80.0, -135.4890899658203, -198.32688903808594, 258.6626892089844, 172.47669982910156, 0.03200000151991844, -0.06400000303983688, 1.055999994277954, 0.0, 0.0, 0.0, 0.0, 0.0, 1.620996490148174E9, 2021-05-14 14:48:10.148
81.0, -131.89878845214844, -180.4314727783203, 274.3964538574219, 193.6183624267578, 0.03200000151991844, -0.06400000303983688, 1.055999994277954, 0.0, 0.0, 0.0, 0.0, 0.0, 1.620996490148806E9, 2021-05-14 14:48:10.148
81.0, -163.9048614501953, -196.97679138183594, 252.98179626464844, 170.2888641357422, 0.03200000151991844, -0.06400000303983688, 1.055999994277954, 0.0, 0.0, 0.0, 0.0, 0.0, 1.620996490148806E9, 2021-05-14 14:48:10.148
82.0, -158.84103393554688, -200.28660583496094, 254.76573181152344, 170.07943725585938, 0.03200000151991844, -0.06400000303983688, 1.055999994277954, 0.0, 0.0, 0.0, 0.0, 0.0, 1.6209964901623597E9, 2021-05-14 14:48:10.162
82.0, -152.89833068847656, -192.6310272216797, 261.21331787109375, 183.36729431152344, 0.03200000151991844, -0.06400000303983688, 1.055999994277954, 0.0, 0.0, 0.0, 0.0, 0.0, 1.6209964901623597E9, 2021-05-14 14:48:10.162
83.0, -137.433837890625, -179.45535278320312, 273.3081359863281, 200.20433044433594, 0.03200000151991844, -0.06400000303983688, 1.055999994277954, 0.0, 0.0, 0.0, 0.0, 0.0, 1.6209964901780744E9, 2021-05-14 14:48:10.178
83.0, -147.38571166992188, -200.3614044189453, 260.2484130859375, 181.34400939941406, 0.03200000151991844, -0.06400000303983688, 1.055999994277954, 0.0, 0.0, 0.0, 0.0, 0.0, 1.6209964901780744E9, 2021-05-14 14:48:10.178
84.0, -162.4949188232422, -206.99224853515625, 249.45880126953125, 165.19137573242188, 0.03200000151991844, -0.06400000303983688, 1.055999994277954, 0.0, 0.0, 0.0, 0.0, 0.0, 1.6209964901789353E9, 2021-05-14 14:48:10.178
84.0, -157.2403564453125, -199.72561645507812, 250.49850463867188, 165.8084716796875, 0.03200000151991844, -0.06400000303983688, 1.055999994277954, 0.0, 0.0, 0.0, 0.0, 0.0, 1.6209964901789353E9, 2021-05-14 14:48:10.178
85.0, -138.78021240234375, -177.05433654785156, 273.5063781738281, 184.23495483398438, 0.03200000151991844, -0.06400000303983688, 1.055999994277954, 0.0, 0.0, 0.0, 0.0, 0.0, 1.6209964902085962E9, 2021-05-14 14:48:10.208
85.0, -148.7919158935547, -199.39649963378906, 260.1997985839844, 166.8144989013672, 0.03200000151991844, -0.06400000303983688, 1.055999994277954, 0.0, 0.0, 0.0, 0.0, 0.0, 1.6209964902085962E9, 2021-05-14 14:48:10.208
86.0, -154.9889373779297, -198.33438110351562, 253.8419647216797, 147.37823486328125, 0.03200000151991844, -0.06400000303983688, 1.055999994277954, 0.0, 0.0, 0.0, 0.0, 0.0, 1.620996490209175E9, 2021-05-14 14:48:10.209
86.0, -143.11474609375, -198.08753967285156, 252.9967498779297, 154.04273986816406, 0.03200000151991844, -0.06400000303983688, 1.055999994277954, 0.0, 0.0, 0.0, 0.0, 0.0, 1.620996490209175E9, 2021-05-14 14:48:10.209
87.0, -133.01327514648438, -188.8163299560547, 272.44049072265625, 181.3103485107422, 0.03200000151991844, -0.06400000303983688, 1.055999994277954, 0.0, 0.0, 0.0, 0.0, 0.0, 1.6209964902231927E9, 2021-05-14 14:48:10.223
87.0, -137.56100463867188, -187.98233032226562, 263.50213623046875, 181.04107666015625, 0.03200000151991844, -0.06400000303983688, 1.055999994277954, 0.0, 0.0, 0.0, 0.0, 0.0, 1.6209964902231927E9, 2021-05-14 14:48:10.223
88.0, -162.95492553710938, -197.10394287109375, 254.6647491455078, 166.81076049804688, 0.03200000151991844, -0.06400000303983688, 1.055999994277954, 0.0, 0.0, 0.0, 0.0, 0.0, 1.6209964902239463E9, 2021-05-14 14:48:10.223
88.0, -169.04721069335938, -194.9385528564453, 254.01026916503906, 175.73789978027344, 0.03200000151991844, -0.06400000303983688, 1.055999994277954, 0.0, 0.0, 0.0, 0.0, 0.0, 1.6209964902239463E9, 2021-05-14 14:48:10.223
89.0, -146.09170532226562, -180.91766357421875, 267.2008972167969, 196.30360412597656, 0.03200000151991844, -0.06400000303983688, 1.055999994277954, 0.0, 0.0, 0.0, 0.0, 0.0, 1.6209964902382464E9, 2021-05-14 14:48:10.238
89.0, -148.19728088378906, -192.1710205078125, 263.58441162109375, 189.53439331054688, 0.03200000151991844, -0.06400000303983688, 1.055999994277954, 0.0, 0.0, 0.0, 0.0, 0.0, 1.6209964902382464E9, 2021-05-14 14:48:10.238
90.0, -138.14442443847656, -193.43136596679688, 257.05828857421875, 169.42494201660156, 0.03200000151991844, -0.06400000303983688, 1.055999994277954, 0.0, 0.0, 0.0, 0.0, 0.0, 1.620996490238802E9, 2021-05-14 14:48:10.238
90.0, -146.2637481689453, -192.3916778564453, 264.1341857910156, 181.24302673339844, 0.03200000151991844, -0.06400000303983688, 1.055999994277954, 0.0, 0.0, 0.0, 0.0, 0.0, 1.620996490238802E9, 2021-05-14 14:48:10.238
91.0, -122.9192886352539, -181.58709716796875, 277.1602478027344, 193.67445373535156, 0.03200000151991844, -0.06400000303983688, 1.055999994277954, 0.0, 0.0, 0.0, 0.0, 0.0, 1.6209964902525651E9, 2021-05-14 14:48:10.252
91.0, -152.81605529785156, -187.60833740234375, 259.51165771484375, 175.8538360595703, 0.03200000151991844, -0.06400000303983688, 1.055999994277954, 0.0, 0.0, 0.0, 0.0, 0.0, 1.6209964902525651E9, 2021-05-14 14:48:10.252
92.0, -151.06951904296875, -196.05677795410156, 251.4334716796875, 177.40963745117188, 0.03200000151991844, -0.06400000303983688, 1.055999994277954, 0.0, 0.0, 0.0, 0.0, 0.0, 1.6209964902680295E9, 2021-05-14 14:48:10.268
92.0, -150.08966064453125, -199.12722778320312, 250.57330322265625, 169.86251831054688, 0.03200000151991844, -0.06400000303983688, 1.055999994277954, 0.0, 0.0, 0.0, 0.0, 0.0, 1.6209964902680295E9, 2021-05-14 14:48:10.268
93.0, -150.86007690429688, -178.18753051757812, 276.7638244628906, 193.3191680908203, 0.03200000151991844, -0.06400000303983688, 1.055999994277954, 0.0, 0.0, 0.0, 0.0, 0.0, 1.6209964902688143E9, 2021-05-14 14:48:10.268
93.0, -153.3433837890625, -182.98956298828125, 269.79638671875, 178.7298126220703, 0.03200000151991844, -0.06400000303983688, 1.055999994277954, 0.0, 0.0, 0.0, 0.0, 0.0, 1.6209964902688143E9, 2021-05-14 14:48:10.268
94.0, -159.37583923339844, -202.96063232421875, 250.37881469726562, 160.60626220703125, 0.03200000151991844, -0.06400000303983688, 1.055999994277954, 0.0, 0.0, 0.0, 0.0, 0.0, 1.620996490282364E9, 2021-05-14 14:48:10.282
94.0, -153.20126342773438, -191.93914794921875, 254.27206420898438, 173.06761169433594, 0.03200000151991844, -0.06400000303983688, 1.055999994277954, 0.0, 0.0, 0.0, 0.0, 0.0, 1.620996490282364E9, 2021-05-14 14:48:10.282
95.0, -148.22718811035156, -187.0885009765625, 260.9515075683594, 187.0398712158203, 0.03200000151991844, -0.06400000303983688, 1.055999994277954, 0.0, 0.0, 0.0, 0.0, 0.0, 1.6209964902981927E9, 2021-05-14 14:48:10.298
95.0, -134.65509033203125, -184.13397216796875, 255.7642822265625, 174.99740600585938, 0.03200000151991844, -0.06400000303983688, 1.055999994277954, 0.0, 0.0, 0.0, 0.0, 0.0, 1.6209964902981927E9, 2021-05-14 14:48:10.298
96.0, -157.8312530517578, -193.40892028808594, 242.85414123535156, 149.38282775878906, 0.03200000151991844, -0.06400000303983688, 1.055999994277954, 0.0, 0.0, 0.0, 0.0, 0.0, 1.6209964902988513E9, 2021-05-14 14:48:10.298
96.0, -136.18846130371094, -185.35691833496094, 259.4630432128906, 173.6472930908203, 0.03200000151991844, -0.06400000303983688, 1.055999994277954, 0.0, 0.0, 0.0, 0.0, 0.0, 1.6209964902988513E9, 2021-05-14 14:48:10.298
97.0, -144.15444946289062, -186.1123809814453, 267.3804016113281, 176.7327117919922, 0.03200000151991844, -0.06400000303983688, 1.055999994277954, 0.0, 0.0, 0.0, 0.0, 0.0, 1.6209964903124871E9, 2021-05-14 14:48:10.312
97.0, -156.013671875, -200.84384155273438, 262.29412841796875, 174.25689697265625, 0.03200000151991844, -0.06400000303983688, 1.055999994277954, 0.0, 0.0, 0.0, 0.0, 0.0, 1.6209964903124871E9, 2021-05-14 14:48:10.312
98.0, -167.0613250732422, -189.6278839111328, 254.33189392089844, 160.6287078857422, 0.03200000151991844, -0.06400000303983688, 1.055999994277954, 0.0, 0.0, 0.0, 0.0, 0.0, 1.6209964903280888E9, 2021-05-14 14:48:10.328
98.0, -145.93463134765625, -191.41929626464844, 259.51165771484375, 177.2488250732422, 0.03200000151991844, -0.06400000303983688, 1.055999994277954, 0.0, 0.0, 0.0, 0.0, 0.0, 1.6209964903280888E9, 2021-05-14 14:48:10.328
99.0, -134.3035430908203, -184.0255126953125, 271.30731201171875, 191.50531005859375, 0.03200000151991844, -0.06400000303983688, 1.055999994277954, 0.0, 0.0, 0.0, 0.0, 0.0, 1.62099649032876E9, 2021-05-14 14:48:10.328
99.0, -153.5041961669922, -189.91586303710938, 259.2573547363281, 182.35003662109375, 0.03200000151991844, -0.06400000303983688, 1.055999994277954, 0.0, 0.0, 0.0, 0.0, 0.0, 1.62099649032876E9, 2021-05-14 14:48:10.328
100.0, -165.31105041503906, -194.6393585205078, 244.17059326171875, 167.8280029296875, 0.03200000151991844, -0.06400000303983688, 1.055999994277954, 0.0, 0.0, 0.0, 0.0, 0.0, 1.62099649034301E9, 2021-05-14 14:48:10.343
100.0, -145.4970703125, -192.4178466796875, 252.6676483154297, 181.18319702148438, 0.03200000151991844, -0.06400000303983688, 1.055999994277954, 0.0, 0.0, 0.0, 0.0, 0.0, 1.62099649034301E9, 2021-05-14 14:48:10.343
0.0, -128.40573120117188, -189.6241455078125, 260.4634704589844, 194.64495849609375, 0.03200000151991844, -0.06400000303983688, 1.055999994277954, 0.0, 0.0, 0.0, 0.0, 0.0, 1.620996490343762E9, 2021-05-14 14:48:10.343
1.0, -140.3621826171875, -186.5275115966797, 259.54718017578125, 185.64675903320312, 0.03200000151991844, -0.06400000303983688, 1.055999994277954, 0.0, 0.0, 0.0, 0.0, 0.0, 1.6209964903737588E9, 2021-05-14 14:48:10.373
1.0, -159.37210083007812, -208.2488555908203, 248.52569580078125, 174.5803985595703, 0.03200000151991844, -0.06400000303983688, 1.055999994277954, 0.0, 0.0, 0.0, 0.0, 0.0, 1.6209964903737588E9, 2021-05-14 14:48:10.373
2.0, -159.45811462402344, -195.45838928222656, 253.1444854736328, 180.36228942871094, 0.03200000151991844, -0.06400000303983688, 1.055999994277954, 0.0, 0.0, 0.0, 0.0, 0.0, 1.6209964903744493E9, 2021-05-14 14:48:10.374
2.0, -137.75921630859375, -186.96133422851562, 270.2769470214844, 198.8299102783203, 0.03200000151991844, -0.06400000303983688, 1.055999994277954, 0.0, 0.0, 0.0, 0.0, 0.0, 1.6209964903744493E9, 2021-05-14 14:48:10.374
3.0, -147.77841186523438, -192.5898895263672, 270.21337890625, 192.2102813720703, 0.03200000151991844, -0.06400000303983688, 1.055999994277954, 0.0, 0.0, 0.0, 0.0, 0.0, 1.6209964903752227E9, 2021-05-14 14:48:10.375
3.0, -162.28173828125, -202.87461853027344, 253.62318420410156, 167.66159057617188, 0.03200000151991844, -0.06400000303983688, 1.055999994277954, 0.0, 0.0, 0.0, 0.0, 0.0, 1.6209964903752227E9, 2021-05-14 14:48:10.375
4.0, -155.9351348876953, -192.10743713378906, 259.9249267578125, 178.29786682128906, 0.03200000151991844, -0.06400000303983688, 1.055999994277954, 0.0, 0.0, 0.0, 0.0, 0.0, 1.6209964903873997E9, 2021-05-14 14:48:10.387
4.0, -130.5412139892578, -181.190673828125, 273.5867614746094, 188.83689880371094, 0.03200000151991844, -0.06400000303983688, 1.055999994277954, 0.0, 0.0, 0.0, 0.0, 0.0, 1.6209964903873997E9, 2021-05-14 14:48:10.387
5.0, -137.89759826660156, -192.24208068847656, 265.0859680175781, 180.82603454589844, 0.03200000151991844, -0.06400000303983688, 1.055999994277954, 0.0, 0.0, 0.0, 0.0, 0.0, 1.6209964904030924E9, 2021-05-14 14:48:10.403
5.0, -143.18954467773438, -202.49688720703125, 246.8240509033203, 156.2922821044922, 0.03200000151991844, -0.06400000303983688, 1.055999994277954, 0.0, 0.0, 0.0, 0.0, 0.0, 1.6209964904030924E9, 2021-05-14 14:48:10.403
6.0, -136.3866729736328, -201.0794677734375, 251.92152404785156, 167.90093994140625, 0.03200000151991844, -0.06400000303983688, 1.055999994277954, 0.0, 0.0, 0.0, 0.0, 0.0, 1.6209964904038093E9, 2021-05-14 14:48:10.403
6.0, -123.71215057373047, -192.1298828125, 267.1279602050781, 189.00144958496094, 0.03200000151991844, -0.06400000303983688, 1.055999994277954, 0.0, 0.0, 0.0, 0.0, 0.0, 1.6209964904038093E9, 2021-05-14 14:48:10.403
7.0, -138.6567840576172, -204.3780517578125, 257.6884460449219, 183.1036376953125, 0.03200000151991844, -0.06400000303983688, 1.055999994277954, 0.0, 0.0, 0.0, 0.0, 0.0, 1.620996490417292E9, 2021-05-14 14:48:10.417
7.0, -151.11439514160156, -193.6407928466797, 251.59616088867188, 175.23114013671875, 0.03200000151991844, -0.06400000303983688, 1.055999994277954, 0.0, 0.0, 0.0, 0.0, 0.0, 1.620996490417292E9, 2021-05-14 14:48:10.417
8.0, -150.63943481445312, -186.81922912597656, 264.4128112792969, 181.6562957763672, 0.03200000151991844, -0.06400000303983688, 1.055999994277954, 0.0, 0.0, 0.0, 0.0, 0.0, 1.6209964904328027E9, 2021-05-14 14:48:10.432
8.0, -133.7537841796875, -180.9737548828125, 272.4834899902344, 198.37738037109375, 0.03200000151991844, -0.06400000303983688, 1.055999994277954, 0.0, 0.0, 0.0, 0.0, 0.0, 1.6209964904328027E9, 2021-05-14 14:48:10.432
9.0, -137.24310302734375, -201.59182739257812, 261.8734130859375, 187.90567016601562, 0.03200000151991844, -0.06400000303983688, 1.055999994277954, 0.0, 0.0, 0.0, 0.0, 0.0, 1.6209964904484768E9, 2021-05-14 14:48:10.448
9.0, -152.35604858398438, -206.8837890625, 254.03831481933594, 180.0518798828125, 0.03200000151991844, -0.06400000303983688, 1.055999994277954, 0.0, 0.0, 0.0, 0.0, 0.0, 1.6209964904484768E9, 2021-05-14 14:48:10.448
10.0, -146.36473083496094, -198.0613555908203, 264.9999694824219, 192.81240844726562, 0.03200000151991844, -0.06400000303983688, 1.055999994277954, 0.0, 0.0, 0.0, 0.0, 0.0, 1.6209964904637234E9, 2021-05-14 14:48:10.463
10.0, -124.56484985351562, -192.98631286621094, 276.8741455078125, 203.99472045898438, 0.03200000151991844, -0.06400000303983688, 1.055999994277954, 0.0, 0.0, 0.0, 0.0, 0.0, 1.6209964904637234E9, 2021-05-14 14:48:10.463
11.0, -128.20376586914062, -198.62234497070312, 270.2358093261719, 192.01206970214844, 0.03200000151991844, -0.06400000303983688, 1.055999994277954, 0.0, 0.0, 0.0, 0.0, 0.0, 1.6209964904644146E9, 2021-05-14 14:48:10.464
11.0, -155.86033630371094, -205.38034057617188, 257.46405029296875, 174.48690795898438, 0.03200000151991844, -0.06400000303983688, 1.055999994277954, 0.0, 0.0, 0.0, 0.0, 0.0, 1.6209964904644146E9, 2021-05-14 14:48:10.464
12.0, -148.63858032226562, -205.24945068359375, 257.0190124511719, 182.63613891601562, 0.03200000151991844, -0.06400000303983688, 1.055999994277954, 0.0, 0.0, 0.0, 0.0, 0.0, 1.6209964904652014E9, 2021-05-14 14:48:10.465
12.0, -128.22621154785156, -194.6356201171875, 266.4323425292969, 193.07420349121094, 0.03200000151991844, -0.06400000303983688, 1.055999994277954, 0.0, 0.0, 0.0, 0.0, 0.0, 1.6209964904652014E9, 2021-05-14 14:48:10.465
13.0, -147.8270263671875, -191.7932891845703, 260.624267578125, 179.0159149169922, 0.03200000151991844, -0.06400000303983688, 1.055999994277954, 0.0, 0.0, 0.0, 0.0, 0.0, 1.6209964904773915E9, 2021-05-14 14:48:10.477
13.0, -156.2754669189453, -197.35452270507812, 246.16583251953125, 165.30545043945312, 0.03200000151991844, -0.06400000303983688, 1.055999994277954, 0.0, 0.0, 0.0, 0.0, 0.0, 1.6209964904773915E9, 2021-05-14 14:48:10.477
14.0, -144.21054077148438, -198.51014709472656, 253.48480224609375, 166.75653076171875, 0.03200000151991844, -0.06400000303983688, 1.055999994277954, 0.0, 0.0, 0.0, 0.0, 0.0, 1.6209964904930289E9, 2021-05-14 14:48:10.493
14.0, -122.10025024414062, -188.28152465820312, 273.57928466796875, 191.7053985595703, 0.03200000151991844, -0.06400000303983688, 1.055999994277954, 0.0, 0.0, 0.0, 0.0, 0.0, 1.6209964904930289E9, 2021-05-14 14:48:10.493
15.0, -138.87744140625, -195.6453857421875, 260.800048828125, 177.93882751464844, 0.03200000151991844, -0.06400000303983688, 1.055999994277954, 0.0, 0.0, 0.0, 0.0, 0.0, 1.6209964904937568E9, 2021-05-14 14:48:10.493
15.0, -151.19667053222656, -205.59725952148438, 251.5625, 165.51861572265625, 0.03200000151991844, -0.06400000303983688, 1.055999994277954, 0.0, 0.0, 0.0, 0.0, 0.0, 1.6209964904937568E9, 2021-05-14 14:48:10.493
16.0, -149.80917358398438, -198.25584411621094, 250.7135467529297, 170.08877563476562, 0.03200000151991844, -0.06400000303983688, 1.055999994277954, 0.0, 0.0, 0.0, 0.0, 0.0, 1.6209964905074348E9, 2021-05-14 14:48:10.507
16.0, -121.2886962890625, -182.9596405029297, 264.61474609375, 187.17637634277344, 0.03200000151991844, -0.06400000303983688, 1.055999994277954, 0.0, 0.0, 0.0, 0.0, 0.0, 1.6209964905074348E9, 2021-05-14 14:48:10.507
17.0, -136.81675720214844, -200.25294494628906, 255.2575225830078, 175.5602569580078, 0.03200000151991844, -0.06400000303983688, 1.055999994277954, 0.0, 0.0, 0.0, 0.0, 0.0, 1.620996490523033E9, 2021-05-14 14:48:10.523
17.0, -151.9371795654297, -204.2995147705078, 249.7935333251953, 167.35491943359375, 0.03200000151991844, -0.06400000303983688, 1.055999994277954, 0.0, 0.0, 0.0, 0.0, 0.0, 1.620996490523033E9, 2021-05-14 14:48:10.523
18.0, -153.44808959960938, -189.72886657714844, 255.119140625, 173.3050994873047, 0.03200000151991844, -0.06400000303983688, 1.055999994277954, 0.0, 0.0, 0.0, 0.0, 0.0, 1.6209964905237565E9, 2021-05-14 14:48:10.523
18.0, -141.98904418945312, -186.60604858398438, 263.863037109375, 185.04464721679688, 0.03200000151991844, -0.06400000303983688, 1.055999994277954, 0.0, 0.0, 0.0, 0.0, 0.0, 1.6209964905237565E9, 2021-05-14 14:48:10.523
19.0, -151.30886840820312, -192.3505401611328, 260.8898010253906, 185.80758666992188, 0.03200000151991844, -0.06400000303983688, 1.055999994277954, 0.0, 0.0, 0.0, 0.0, 0.0, 1.620996490554368E9, 2021-05-14 14:48:10.554
19.0, -159.5329132080078, -203.89186096191406, 248.27886962890625, 168.61526489257812, 0.03200000151991844, -0.06400000303983688, 1.055999994277954, 0.0, 0.0, 0.0, 0.0, 0.0, 1.620996490554368E9, 2021-05-14 14:48:10.554
20.0, -151.71278381347656, -199.2431640625, 252.72561645507812, 172.792724609375, 0.03200000151991844, -0.06400000303983688, 1.055999994277954, 0.0, 0.0, 0.0, 0.0, 0.0, 1.6209964905550935E9, 2021-05-14 14:48:10.555
20.0, -126.41983795166016, -192.01768493652344, 264.016357421875, 192.51321411132812, 0.03200000151991844, -0.06400000303983688, 1.055999994277954, 0.0, 0.0, 0.0, 0.0, 0.0, 1.6209964905550935E9, 2021-05-14 14:48:10.555
21.0, -128.20376586914062, -190.6002655029297, 263.93408203125, 182.27711486816406, 0.03200000151991844, -0.06400000303983688, 1.055999994277954, 0.0, 0.0, 0.0, 0.0, 0.0, 1.6209964905558827E9, 2021-05-14 14:48:10.555
21.0, -159.6937255859375, -203.5290985107422, 243.51797485351562, 159.83396911621094, 0.03200000151991844, -0.06400000303983688, 1.055999994277954, 0.0, 0.0, 0.0, 0.0, 0.0, 1.6209964905558827E9, 2021-05-14 14:48:10.555
22.0, -152.25132751464844, -202.10044860839844, 251.79811096191406, 171.8689727783203, 0.03200000151991844, -0.06400000303983688, 1.055999994277954, 0.0, 0.0, 0.0, 0.0, 0.0, 1.6209964905673475E9, 2021-05-14 14:48:10.567
22.0, -137.104736328125, -182.540771484375, 268.04425048828125, 184.81651306152344, 0.03200000151991844, -0.06400000303983688, 1.055999994277954, 0.0, 0.0, 0.0, 0.0, 0.0, 1.6209964905673475E9, 2021-05-14 14:48:10.567
23.0, -143.4102020263672, -190.1851348876953, 257.14990234375, 174.318603515625, 0.03200000151991844, -0.06400000303983688, 1.055999994277954, 0.0, 0.0, 0.0, 0.0, 0.0, 1.6209964905830188E9, 2021-05-14 14:48:10.583
23.0, -163.39622497558594, -196.80474853515625, 246.63331604003906, 162.47808837890625, 0.03200000151991844, -0.06400000303983688, 1.055999994277954, 0.0, 0.0, 0.0, 0.0, 0.0, 1.6209964905830188E9, 2021-05-14 14:48:10.583
24.0, -157.39369201660156, -196.81224060058594, 248.20407104492188, 168.57786560058594, 0.03200000151991844, -0.06400000303983688, 1.055999994277954, 0.0, 0.0, 0.0, 0.0, 0.0, 1.6209964905837584E9, 2021-05-14 14:48:10.583
24.0, -136.9663543701172, -186.29563903808594, 266.4435729980469, 182.31825256347656, 0.03200000151991844, -0.06400000303983688, 1.055999994277954, 0.0, 0.0, 0.0, 0.0, 0.0, 1.6209964905837584E9, 2021-05-14 14:48:10.583
25.0, -138.51467895507812, -195.5070037841797, 254.25523376464844, 177.45639038085938, 0.03200000151991844, -0.06400000303983688, 1.055999994277954, 0.0, 0.0, 0.0, 0.0, 0.0, 1.6209964905973184E9, 2021-05-14 14:48:10.597
25.0, -149.70819091796875, -198.1885223388672, 243.26739501953125, 162.30604553222656, 0.03200000151991844, -0.06400000303983688, 1.055999994277954, 0.0, 0.0, 0.0, 0.0, 0.0, 1.6209964905973184E9, 2021-05-14 14:48:10.597
26.0, -149.04249572753906, -203.10275268554688, 249.8309326171875, 170.4627685546875, 0.03200000151991844, -0.06400000303983688, 1.055999994277954, 0.0, 0.0, 0.0, 0.0, 0.0, 1.6209964906131308E9, 2021-05-14 14:48:10.613
26.0, -125.27916717529297, -185.7309112548828, 271.0099792480469, 187.6812744140625, 0.03200000151991844, -0.06400000303983688, 1.055999994277954, 0.0, 0.0, 0.0, 0.0, 0.0, 1.6209964906131308E9, 2021-05-14 14:48:10.613
27.0, -128.08782958984375, -186.80426025390625, 266.3089294433594, 176.1025390625, 0.03200000151991844, -0.06400000303983688, 1.055999994277954, 0.0, 0.0, 0.0, 0.0, 0.0, 1.6209964906137705E9, 2021-05-14 14:48:10.613
27.0, -149.9475555419922, -201.6292266845703, 247.27284240722656, 166.524658203125, 0.03200000151991844, -0.06400000303983688, 1.055999994277954, 0.0, 0.0, 0.0, 0.0, 0.0, 1.6209964906137705E9, 2021-05-14 14:48:10.613
28.0, -155.60601806640625, -188.6405487060547, 254.16920471191406, 176.20352172851562, 0.03200000151991844, -0.06400000303983688, 1.055999994277954, 0.0, 0.0, 0.0, 0.0, 0.0, 1.6209964906273327E9, 2021-05-14 14:48:10.627
28.0, -144.30404663085938, -181.72174072265625, 270.2545166015625, 196.35409545898438, 0.03200000151991844, -0.06400000303983688, 1.055999994277954, 0.0, 0.0, 0.0, 0.0, 0.0, 1.6209964906273327E9, 2021-05-14 14:48:10.627
29.0, -136.87660217285156, -191.2285614013672, 265.1121520996094, 185.8188018798828, 0.03200000151991844, -0.06400000303983688, 1.055999994277954, 0.0, 0.0, 0.0, 0.0, 0.0, 1.620996490643018E9, 2021-05-14 14:48:10.643
29.0, -145.43722534179688, -202.6876220703125, 246.35281372070312, 172.5496368408203, 0.03200000151991844, -0.06400000303983688, 1.055999994277954, 0.0, 0.0, 0.0, 0.0, 0.0, 1.620996490643018E9, 2021-05-14 14:48:10.643
30.0, -137.87515258789062, -197.7733917236328, 262.8083801269531, 186.64532470703125, 0.03200000151991844, -0.06400000303983688, 1.055999994277954, 0.0, 0.0, 0.0, 0.0, 0.0, 1.6209964906437292E9, 2021-05-14 14:48:10.643
30.0, -118.72686767578125, -200.40628051757812, 274.1290588378906, 204.1256103515625, 0.03200000151991844, -0.06400000303983688, 1.055999994277954, 0.0, 0.0, 0.0, 0.0, 0.0, 1.6209964906437292E9, 2021-05-14 14:48:10.643
31.0, -137.04489135742188, -199.78172302246094, 260.1792297363281, 178.50355529785156, 0.03200000151991844, -0.06400000303983688, 1.055999994277954, 0.0, 0.0, 0.0, 0.0, 0.0, 1.6209964906738138E9, 2021-05-14 14:48:10.673
31.0, -154.78697204589844, -202.90078735351562, 251.2371368408203, 171.5697784423828, 0.03200000151991844, -0.06400000303983688, 1.055999994277954, 0.0, 0.0, 0.0, 0.0, 0.0, 1.6209964906738138E9, 2021-05-14 14:48:10.673
32.0, -145.57186889648438, -198.14364624023438, 252.22071838378906, 178.0136260986328, 0.03200000151991844, -0.06400000303983688, 1.055999994277954, 0.0, 0.0, 0.0, 0.0, 0.0, 1.6209964906745691E9, 2021-05-14 14:48:10.674
32.0, -130.1036376953125, -192.02516174316406, 263.88922119140625, 191.46604919433594, 0.03200000151991844, -0.06400000303983688, 1.055999994277954, 0.0, 0.0, 0.0, 0.0, 0.0, 1.6209964906745691E9, 2021-05-14 14:48:10.674
33.0, -136.52505493164062, -195.41351318359375, 261.92950439453125, 184.92495727539062, 0.03200000151991844, -0.06400000303983688, 1.055999994277954, 0.0, 0.0, 0.0, 0.0, 0.0, 1.6209964906752155E9, 2021-05-14 14:48:10.675
33.0, -151.29017639160156, -198.93649291992188, 254.13555908203125, 169.18373107910156, 0.03200000151991844, -0.06400000303983688, 1.055999994277954, 0.0, 0.0, 0.0, 0.0, 0.0, 1.6209964906752155E9, 2021-05-14 14:48:10.675
34.0, -142.87539672851562, -194.48602294921875, 260.3175964355469, 173.92591857910156, 0.03200000151991844, -0.06400000303983688, 1.055999994277954, 0.0, 0.0, 0.0, 0.0, 0.0, 1.6209964906873055E9, 2021-05-14 14:48:10.687
34.0, -131.3677215576172, -193.5360870361328, 268.90814208984375, 185.2989501953125, 0.03200000151991844, -0.06400000303983688, 1.055999994277954, 0.0, 0.0, 0.0, 0.0, 0.0, 1.6209964906873055E9, 2021-05-14 14:48:10.687
35.0, -140.58657836914062, -204.2995147705078, 257.4004821777344, 178.72421264648438, 0.03200000151991844, -0.06400000303983688, 1.055999994277954, 0.0, 0.0, 0.0, 0.0, 0.0, 1.6209964907030425E9, 2021-05-14 14:48:10.703
35.0, -149.29306030273438, -205.6084747314453, 247.3289337158203, 171.49124145507812, 0.03200000151991844, -0.06400000303983688, 1.055999994277954, 0.0, 0.0, 0.0, 0.0, 0.0, 1.6209964907030425E9, 2021-05-14 14:48:10.703
36.0, -144.0572052001953, -193.3603057861328, 249.54295349121094, 176.8280792236328, 0.03200000151991844, -0.06400000303983688, 1.055999994277954, 0.0, 0.0, 0.0, 0.0, 0.0, 1.6209964907037792E9, 2021-05-14 14:48:10.703
36.0, -125.4624252319336, -185.07269287109375, 267.7973937988281, 190.74798583984375, 0.03200000151991844, -0.06400000303983688, 1.055999994277954, 0.0, 0.0, 0.0, 0.0, 0.0, 1.6209964907037792E9, 2021-05-14 14:48:10.703
37.0, -142.3892059326172, -194.759033203125, 264.9850158691406, 183.20834350585938, 0.03200000151991844, -0.06400000303983688, 1.055999994277954, 0.0, 0.0, 0.0, 0.0, 0.0, 1.620996490717409E9, 2021-05-14 14:48:10.717
37.0, -155.4526824951172, -200.61944580078125, 253.9373321533203, 165.03244018554688, 0.03200000151991844, -0.06400000303983688, 1.055999994277954, 0.0, 0.0, 0.0, 0.0, 0.0, 1.620996490717409E9, 2021-05-14 14:48:10.717
38.0, -148.30947875976562, -196.84963989257812, 264.10986328125, 173.79876708984375, 0.03200000151991844, -0.06400000303983688, 1.055999994277954, 0.0, 0.0, 0.0, 0.0, 0.0, 1.6209964907330842E9, 2021-05-14 14:48:10.733
38.0, -129.75209045410156, -190.9480743408203, 272.9285583496094, 188.6873016357422, 0.03200000151991844, -0.06400000303983688, 1.055999994277954, 0.0, 0.0, 0.0, 0.0, 0.0, 1.6209964907330842E9, 2021-05-14 14:48:10.733
39.0, -143.14093017578125, -197.3395538330078, 255.60533142089844, 186.196533203125, 0.03200000151991844, -0.06400000303983688, 1.055999994277954, 0.0, 0.0, 0.0, 0.0, 0.0, 1.6209964907337563E9, 2021-05-14 14:48:10.733
39.0, -145.55690002441406, -216.2559814453125, 236.45330810546875, 167.05946350097656, 0.03200000151991844, -0.06400000303983688, 1.055999994277954, 0.0, 0.0, 0.0, 0.0, 0.0, 1.6209964907337563E9, 2021-05-14 14:48:10.733
40.0, -126.1468276977539, -189.80740356445312, 259.0759582519531, 181.71612548828125, 0.03200000151991844, -0.06400000303983688, 1.055999994277954, 0.0, 0.0, 0.0, 0.0, 0.0, 1.62099649074748E9, 2021-05-14 14:48:10.747
40.0, -129.0901336669922, -187.78785705566406, 268.0255432128906, 183.03631591796875, 0.03200000151991844, -0.06400000303983688, 1.055999994277954, 0.0, 0.0, 0.0, 0.0, 0.0, 1.62099649074748E9, 2021-05-14 14:48:10.747
41.0, -138.2117462158203, -190.8957061767578, 264.3604431152344, 180.67269897460938, 0.03200000151991844, -0.06400000303983688, 1.055999994277954, 0.0, 0.0, 0.0, 0.0, 0.0, 1.6209964907631726E9, 2021-05-14 14:48:10.763
41.0, -153.09280395507812, -198.6148681640625, 250.73971557617188, 167.76255798339844, 0.03200000151991844, -0.06400000303983688, 1.055999994277954, 0.0, 0.0, 0.0, 0.0, 0.0, 1.6209964907631726E9, 2021-05-14 14:48:10.763
42.0, -144.6892547607422, -196.46817016601562, 257.490234375, 168.28240966796875, 0.03200000151991844, -0.06400000303983688, 1.055999994277954, 0.0, 0.0, 0.0, 0.0, 0.0, 1.6209964907639172E9, 2021-05-14 14:48:10.763
42.0, -133.09181213378906, -196.75987243652344, 265.224365234375, 185.175537109375, 0.03200000151991844, -0.06400000303983688, 1.055999994277954, 0.0, 0.0, 0.0, 0.0, 0.0, 1.6209964907639172E9, 2021-05-14 14:48:10.763
43.0, -133.56304931640625, -188.67047119140625, 261.6864013671875, 184.6182861328125, 0.03200000151991844, -0.06400000303983688, 1.055999994277954, 0.0, 0.0, 0.0, 0.0, 0.0, 1.6209964907774007E9, 2021-05-14 14:48:10.777
43.0, -158.02198791503906, -199.1982879638672, 244.03408813476562, 172.3289794921875, 0.03200000151991844, -0.06400000303983688, 1.055999994277954, 0.0, 0.0, 0.0, 0.0, 0.0, 1.6209964907774007E9, 2021-05-14 14:48:10.777
44.0, -144.11705017089844, -196.4906005859375, 247.63560485839844, 170.48147583007812, 0.03200000151991844, -0.06400000303983688, 1.055999994277954, 0.0, 0.0, 0.0, 0.0, 0.0, 1.6209964907931285E9, 2021-05-14 14:48:10.793
44.0, -127.04440307617188, -190.5890350341797, 268.3920593261719, 195.90530395507812, 0.03200000151991844, -0.06400000303983688, 1.055999994277954, 0.0, 0.0, 0.0, 0.0, 0.0, 1.6209964907931285E9, 2021-05-14 14:48:10.793
45.0, -132.5682373046875, -201.41604614257812, 262.59893798828125, 176.89540100097656, 0.03200000151991844, -0.06400000303983688, 1.055999994277954, 0.0, 0.0, 0.0, 0.0, 0.0, 1.6209964907938647E9, 2021-05-14 14:48:10.793
45.0, -143.5747528076172, -203.42437744140625, 250.9678497314453, 164.01144409179688, 0.03200000151991844, -0.06400000303983688, 1.055999994277954, 0.0, 0.0, 0.0, 0.0, 0.0, 1.6209964907938647E9, 2021-05-14 14:48:10.793
46.0, -149.79421997070312, -196.64767456054688, 255.27621459960938, 169.40811157226562, 0.03200000151991844, -0.06400000303983688, 1.055999994277954, 0.0, 0.0, 0.0, 0.0, 0.0, 1.6209964908074105E9, 2021-05-14 14:48:10.807
46.0, -135.09640502929688, -187.1707763671875, 270.3592529296875, 184.98480224609375, 0.03200000151991844, -0.06400000303983688, 1.055999994277954, 0.0, 0.0, 0.0, 0.0, 0.0, 1.6209964908074105E9, 2021-05-14 14:48:10.807
47.0, -144.3115234375, -181.64694213867188, 264.6671142578125, 182.62118530273438, 0.03200000151991844, -0.06400000303983688, 1.055999994277954, 0.0, 0.0, 0.0, 0.0, 0.0, 1.620996490823239E9, 2021-05-14 14:48:10.823
47.0, -155.08242797851562, -197.32460021972656, 244.4940948486328, 166.20675659179688, 0.03200000151991844, -0.06400000303983688, 1.055999994277954, 0.0, 0.0, 0.0, 0.0, 0.0, 1.620996490823239E9, 2021-05-14 14:48:10.823
48.0, -148.0850830078125, -197.92672729492188, 252.830322265625, 180.44082641601562, 0.03200000151991844, -0.06400000303983688, 1.055999994277954, 0.0, 0.0, 0.0, 0.0, 0.0, 1.620996490823812E9, 2021-05-14 14:48:10.823
48.0, -126.27772521972656, -179.64608764648438, 264.5549011230469, 194.9703369140625, 0.03200000151991844, -0.06400000303983688, 1.055999994277954, 0.0, 0.0, 0.0, 0.0, 0.0, 1.620996490823812E9, 2021-05-14 14:48:10.823
49.0, -148.14117431640625, -201.7489013671875, 255.42581176757812, 190.4749755859375, 0.03200000151991844, -0.06400000303983688, 1.055999994277954, 0.0, 0.0, 0.0, 0.0, 0.0, 1.6209964908374116E9, 2021-05-14 14:48:10.837
49.0, -158.99810791015625, -199.9761962890625, 255.58663940429688, 178.70176696777344, 0.03200000151991844, -0.06400000303983688, 1.055999994277954, 0.0, 0.0, 0.0, 0.0, 0.0, 1.6209964908374116E9, 2021-05-14 14:48:10.837
50.0, -142.37425231933594, -193.22567749023438, 267.3299255371094, 184.42755126953125, 0.03200000151991844, -0.06400000303983688, 1.055999994277954, 0.0, 0.0, 0.0, 0.0, 0.0, 1.620996490853048E9, 2021-05-14 14:48:10.853
50.0, -134.86453247070312, -185.89920043945312, 279.8810119628906, 198.2651824951172, 0.03200000151991844, -0.06400000303983688, 1.055999994277954, 0.0, 0.0, 0.0, 0.0, 0.0, 1.620996490853048E9, 2021-05-14 14:48:10.853
51.0, -154.4840545654297, -200.82888793945312, 264.5923156738281, 182.09759521484375, 0.03200000151991844, -0.06400000303983688, 1.055999994277954, 0.0, 0.0, 0.0, 0.0, 0.0, 1.620996490853718E9, 2021-05-14 14:48:10.853
51.0, -150.34024047851562, -197.2685089111328, 254.24400329589844, 165.90008544921875, 0.03200000151991844, -0.06400000303983688, 1.055999994277954, 0.0, 0.0, 0.0, 0.0, 0.0, 1.620996490853718E9, 2021-05-14 14:48:10.853
52.0, -127.11546325683594, -198.98512268066406, 257.66229248046875, 172.13450622558594, 0.03200000151991844, -0.06400000303983688, 1.055999994277954, 0.0, 0.0, 0.0, 0.0, 0.0, 1.620996490867362E9, 2021-05-14 14:48:10.867
52.0, -133.33865356445312, -193.25558471679688, 266.95965576171875, 187.82337951660156, 0.03200000151991844, -0.06400000303983688, 1.055999994277954, 0.0, 0.0, 0.0, 0.0, 0.0, 1.620996490867362E9, 2021-05-14 14:48:10.867
53.0, -152.4084014892578, -198.4764862060547, 258.2120361328125, 181.7423095703125, 0.03200000151991844, -0.06400000303983688, 1.055999994277954, 0.0, 0.0, 0.0, 0.0, 0.0, 1.6209964908830786E9, 2021-05-14 14:48:10.883
53.0, -155.2544708251953, -191.89427185058594, 252.9088592529297, 172.57582092285156, 0.03200000151991844, -0.06400000303983688, 1.055999994277954, 0.0, 0.0, 0.0, 0.0, 0.0, 1.6209964908830786E9, 2021-05-14 14:48:10.883
54.0, -149.48379516601562, -193.04241943359375, 253.35765075683594, 174.7113037109375, 0.03200000151991844, -0.06400000303983688, 1.055999994277954, 0.0, 0.0, 0.0, 0.0, 0.0, 1.6209964908838933E9, 2021-05-14 14:48:10.883
54.0, -141.23731994628906, -187.94866943359375, 258.9749755859375, 190.8153076171875, 0.03200000151991844, -0.06400000303983688, 1.055999994277954, 0.0, 0.0, 0.0, 0.0, 0.0, 1.6209964908838933E9, 2021-05-14 14:48:10.883
55.0, -137.03741455078125, -197.810791015625, 254.7489013671875, 182.45289611816406, 0.03200000151991844, -0.06400000303983688, 1.055999994277954, 0.0, 0.0, 0.0, 0.0, 0.0, 1.6209964908974607E9, 2021-05-14 14:48:10.897
55.0, -149.1920928955078, -203.66746520996094, 241.3899688720703, 157.12628173828125, 0.03200000151991844, -0.06400000303983688, 1.055999994277954, 0.0, 0.0, 0.0, 0.0, 0.0, 1.6209964908974607E9, 2021-05-14 14:48:10.897
56.0, -152.55052185058594, -186.88279724121094, 243.57032775878906, 160.14813232421875, 0.03200000151991844, -0.06400000303983688, 1.055999994277954, 0.0, 0.0, 0.0, 0.0, 0.0, 1.6209964909131815E9, 2021-05-14 14:48:10.913
56.0, -133.68646240234375, -167.26702880859375, 262.4007263183594, 180.14910888671875, 0.03200000151991844, -0.06400000303983688, 1.055999994277954, 0.0, 0.0, 0.0, 0.0, 0.0, 1.6209964909131815E9, 2021-05-14 14:48:10.913
57.0, -151.49960327148438, -188.96966552734375, 254.85360717773438, 174.50933837890625, 0.03200000151991844, -0.06400000303983688, 1.055999994277954, 0.0, 0.0, 0.0, 0.0, 0.0, 1.6209964909139152E9, 2021-05-14 14:48:10.913
57.0, -162.29669189453125, -194.08958435058594, 246.49119567871094, 162.4930419921875, 0.03200000151991844, -0.06400000303983688, 1.055999994277954, 0.0, 0.0, 0.0, 0.0, 0.0, 1.6209964909139152E9, 2021-05-14 14:48:10.913
58.0, -148.0028076171875, -191.68856811523438, 248.4247283935547, 172.1644287109375, 0.03200000151991844, -0.06400000303983688, 1.055999994277954, 0.0, 0.0, 0.0, 0.0, 0.0, 1.620996490927544E9, 2021-05-14 14:48:10.927
58.0, -127.04440307617188, -191.67361450195312, 258.63092041015625, 185.83001708984375, 0.03200000151991844, -0.06400000303983688, 1.055999994277954, 0.0, 0.0, 0.0, 0.0, 0.0, 1.620996490927544E9, 2021-05-14 14:48:10.927
59.0, -137.269287109375, -186.03384399414062, 256.8694152832031, 188.58258056640625, 0.03200000151991844, -0.06400000303983688, 1.055999994277954, 0.0, 0.0, 0.0, 0.0, 0.0, 1.6209964909435833E9, 2021-05-14 14:48:10.943
59.0, -146.15528869628906, -196.55044555664062, 245.98631286621094, 165.78414916992188, 0.03200000151991844, -0.06400000303983688, 1.055999994277954, 0.0, 0.0, 0.0, 0.0, 0.0, 1.6209964909435833E9, 2021-05-14 14:48:10.943
60.0, -136.6858673095703, -194.06715393066406, 253.4661102294922, 172.06344604492188, 0.03200000151991844, -0.06400000303983688, 1.055999994277954, 0.0, 0.0, 0.0, 0.0, 0.0, 1.6209964909580622E9, 2021-05-14 14:48:10.958
60.0, -140.51551818847656, -185.3494415283203, 261.2974548339844, 185.08204650878906, 0.03200000151991844, -0.06400000303983688, 1.055999994277954, 0.0, 0.0, 0.0, 0.0, 0.0, 1.6209964909580622E9, 2021-05-14 14:48:10.958
61.0, -142.29197692871094, -196.53173828125, 256.24859619140625, 178.15574645996094, 0.03200000151991844, -0.06400000303983688, 1.055999994277954, 0.0, 0.0, 0.0, 0.0, 0.0, 1.6209964909588678E9, 2021-05-14 14:48:10.958
61.0, -156.58587646484375, -196.4532012939453, 243.82090759277344, 165.2568359375, 0.03200000151991844, -0.06400000303983688, 1.055999994277954, 0.0, 0.0, 0.0, 0.0, 0.0, 1.6209964909588678E9, 2021-05-14 14:48:10.958
62.0, -139.0569610595703, -200.8101806640625, 242.829833984375, 167.9981689453125, 0.03200000151991844, -0.06400000303983688, 1.055999994277954, 0.0, 0.0, 0.0, 0.0, 0.0, 1.6209964909730456E9, 2021-05-14 14:48:10.973
62.0, -121.99553680419922, -188.53208923339844, 261.1179504394531, 186.50320434570312, 0.03200000151991844, -0.06400000303983688, 1.055999994277954, 0.0, 0.0, 0.0, 0.0, 0.0, 1.6209964909730456E9, 2021-05-14 14:48:10.973
63.0, -143.38401794433594, -182.65296936035156, 257.2396545410156, 182.8081817626953, 0.03200000151991844, -0.06400000303983688, 1.055999994277954, 0.0, 0.0, 0.0, 0.0, 0.0, 1.6209964909738696E9, 2021-05-14 14:48:10.973
63.0, -159.71243286132812, -198.30072021484375, 244.531494140625, 169.5240478515625, 0.03200000151991844, -0.06400000303983688, 1.055999994277954, 0.0, 0.0, 0.0, 0.0, 0.0, 1.6209964909738696E9, 2021-05-14 14:48:10.973
64.0, -156.36521911621094, -193.2593231201172, 252.59844970703125, 170.1374053955078, 0.03200000151991844, -0.06400000303983688, 1.055999994277954, 0.0, 0.0, 0.0, 0.0, 0.0, 1.6209964909874856E9, 2021-05-14 14:48:10.987
64.0, -126.80130767822266, -181.83767700195312, 267.5879821777344, 181.2823028564453, 0.03200000151991844, -0.06400000303983688, 1.055999994277954, 0.0, 0.0, 0.0, 0.0, 0.0, 1.6209964909874856E9, 2021-05-14 14:48:10.987
65.0, -132.07456970214844, -184.81089782714844, 267.53936767578125, 182.60247802734375, 0.03200000151991844, -0.06400000303983688, 1.055999994277954, 0.0, 0.0, 0.0, 0.0, 0.0, 1.6209964910030062E9, 2021-05-14 14:48:11.003
65.0, -152.79734802246094, -202.6389923095703, 249.8346710205078, 159.5684356689453, 0.03200000151991844, -0.06400000303983688, 1.055999994277954, 0.0, 0.0, 0.0, 0.0, 0.0, 1.6209964910030062E9, 2021-05-14 14:48:11.003
66.0, -145.9234161376953, -204.27706909179688, 262.4007263183594, 168.36842346191406, 0.03200000151991844, -0.06400000303983688, 1.055999994277954, 0.0, 0.0, 0.0, 0.0, 0.0, 1.620996491003746E9, 2021-05-14 14:48:11.003
66.0, -130.55242919921875, -197.53028869628906, 270.79681396484375, 186.13294982910156, 0.03200000151991844, -0.06400000303983688, 1.055999994277954, 0.0, 0.0, 0.0, 0.0, 0.0, 1.620996491003746E9, 2021-05-14 14:48:11.003
67.0, -129.10134887695312, -205.93385314941406, 268.03302001953125, 181.9068603515625, 0.03200000151991844, -0.06400000303983688, 1.055999994277954, 0.0, 0.0, 0.0, 0.0, 0.0, 1.6209964910173905E9, 2021-05-14 14:48:11.017
67.0, -147.7709197998047, -213.05462646484375, 252.03372192382812, 167.9607696533203, 0.03200000151991844, -0.06400000303983688, 1.055999994277954, 0.0, 0.0, 0.0, 0.0, 0.0, 1.6209964910173905E9, 2021-05-14 14:48:11.017
68.0, -147.12393188476562, -197.4255828857422, 255.8521728515625, 178.3950958251953, 0.03200000151991844, -0.06400000303983688, 1.055999994277954, 0.0, 0.0, 0.0, 0.0, 0.0, 1.6209964910330536E9, 2021-05-14 14:48:11.033
68.0, -135.89674377441406, -191.77084350585938, 272.513427734375, 197.55087280273438, 0.03200000151991844, -0.06400000303983688, 1.055999994277954, 0.0, 0.0, 0.0, 0.0, 0.0, 1.6209964910330536E9, 2021-05-14 14:48:11.033
69.0, -146.95562744140625, -191.2435302734375, 266.739013671875, 190.41513061523438, 0.03200000151991844, -0.06400000303983688, 1.055999994277954, 0.0, 0.0, 0.0, 0.0, 0.0, 1.6209964910337448E9, 2021-05-14 14:48:11.033
69.0, -161.55245971679688, -205.95254516601562, 252.04495239257812, 172.09336853027344, 0.03200000151991844, -0.06400000303983688, 1.055999994277954, 0.0, 0.0, 0.0, 0.0, 0.0, 1.6209964910337448E9, 2021-05-14 14:48:11.033
70.0, -141.2896728515625, -197.62753295898438, 258.0101013183594, 178.4474639892578, 0.03200000151991844, -0.06400000303983688, 1.055999994277954, 0.0, 0.0, 0.0, 0.0, 0.0, 1.620996491047397E9, 2021-05-14 14:48:11.047
70.0, -125.9486083984375, -193.0162353515625, 261.34234619140625, 189.04632568359375, 0.03200000151991844, -0.06400000303983688, 1.055999994277954, 0.0, 0.0, 0.0, 0.0, 0.0, 1.620996491047397E9, 2021-05-14 14:48:11.047
71.0, -149.0911102294922, -202.294921875, 256.8843688964844, 184.00868225097656, 0.03200000151991844, -0.06400000303983688, 1.055999994277954, 0.0, 0.0, 0.0, 0.0, 0.0, 1.6209964910631497E9, 2021-05-14 14:48:11.063
71.0, -159.94056701660156, -207.0520782470703, 247.98715209960938, 171.6632843017578, 0.03200000151991844, -0.06400000303983688, 1.055999994277954, 0.0, 0.0, 0.0, 0.0, 0.0, 1.6209964910631497E9, 2021-05-14 14:48:11.063
72.0, -149.41275024414062, -201.1879119873047, 255.7586669921875, 184.85391235351562, 0.03200000151991844, -0.06400000303983688, 1.055999994277954, 0.0, 0.0, 0.0, 0.0, 0.0, 1.6209964910637956E9, 2021-05-14 14:48:11.063
72.0, -132.25782775878906, -196.8309326171875, 268.9380798339844, 192.03451538085938, 0.03200000151991844, -0.06400000303983688, 1.055999994277954, 0.0, 0.0, 0.0, 0.0, 0.0, 1.6209964910637956E9, 2021-05-14 14:48:11.063
73.0, -142.4041748046875, -207.85989379882812, 262.1426696777344, 191.5819854736328, 0.03200000151991844, -0.06400000303983688, 1.055999994277954, 0.0, 0.0, 0.0, 0.0, 0.0, 1.6209964910774257E9, 2021-05-14 14:48:11.077
73.0, -162.57345581054688, -205.95628356933594, 254.1953887939453, 177.43768310546875, 0.03200000151991844, -0.06400000303983688, 1.055999994277954, 0.0, 0.0, 0.0, 0.0, 0.0, 1.6209964910774257E9, 2021-05-14 14:48:11.077
74.0, -143.66452026367188, -197.41061401367188, 257.078857421875, 184.1956787109375, 0.03200000151991844, -0.06400000303983688, 1.055999994277954, 0.0, 0.0, 0.0, 0.0, 0.0, 1.6209964910932004E9, 2021-05-14 14:48:11.093
74.0, -132.12692260742188, -192.0102081298828, 266.65673828125, 193.43698120117188, 0.03200000151991844, -0.06400000303983688, 1.055999994277954, 0.0, 0.0, 0.0, 0.0, 0.0, 1.6209964910932004E9, 2021-05-14 14:48:11.093
75.0, -142.2732696533203, -198.2745361328125, 262.2922668457031, 183.92640686035156, 0.03200000151991844, -0.06400000303983688, 1.055999994277954, 0.0, 0.0, 0.0, 0.0, 0.0, 1.6209964910938225E9, 2021-05-14 14:48:11.093
75.0, -157.4049072265625, -202.75868225097656, 252.93878173828125, 174.7823486328125, 0.03200000151991844, -0.06400000303983688, 1.055999994277954, 0.0, 0.0, 0.0, 0.0, 0.0, 1.6209964910938225E9, 2021-05-14 14:48:11.093
76.0, -145.29136657714844, -210.76954650878906, 252.31048583984375, 191.4024658203125, 0.03200000151991844, -0.06400000303983688, 1.055999994277954, 0.0, 0.0, 0.0, 0.0, 0.0, 1.6209964911073692E9, 2021-05-14 14:48:11.107
76.0, -136.7232666015625, -197.4255828857422, 258.86651611328125, 196.95248413085938, 0.03200000151991844, -0.06400000303983688, 1.055999994277954, 0.0, 0.0, 0.0, 0.0, 0.0, 1.6209964911073692E9, 2021-05-14 14:48:11.107
77.0, -139.2215118408203, -205.615966796875, 251.91778564453125, 187.8420867919922, 0.03200000151991844, -0.06400000303983688, 1.055999994277954, 0.0, 0.0, 0.0, 0.0, 0.0, 1.6209964911237319E9, 2021-05-14 14:48:11.123
77.0, -141.6300048828125, -206.93614196777344, 244.8194580078125, 177.07492065429688, 0.03200000151991844, -0.06400000303983688, 1.055999994277954, 0.0, 0.0, 0.0, 0.0, 0.0, 1.6209964911237319E9, 2021-05-14 14:48:11.123
78.0, -153.10775756835938, -198.07632446289062, 251.1810302734375, 183.4065704345703, 0.03200000151991844, -0.06400000303983688, 1.055999994277954, 0.0, 0.0, 0.0, 0.0, 0.0, 1.6209964911245537E9, 2021-05-14 14:48:11.124
78.0, -138.2491455078125, -182.974609375, 268.0404968261719, 202.23321533203125, 0.03200000151991844, -0.06400000303983688, 1.055999994277954, 0.0, 0.0, 0.0, 0.0, 0.0, 1.6209964911245537E9, 2021-05-14 14:48:11.124
79.0, -152.65524291992188, -196.3223114013672, 257.6847229003906, 189.76812744140625, 0.03200000151991844, -0.06400000303983688, 1.055999994277954, 0.0, 0.0, 0.0, 0.0, 0.0, 1.6209964911373682E9, 2021-05-14 14:48:11.137
79.0, -161.2158660888672, -206.1993865966797, 248.2900848388672, 172.7889862060547, 0.03200000151991844, -0.06400000303983688, 1.055999994277954, 0.0, 0.0, 0.0, 0.0, 0.0, 1.6209964911373682E9, 2021-05-14 14:48:11.137
80.0, -159.22998046875, -203.9591827392578, 244.37815856933594, 174.7487030029297, 0.03200000151991844, -0.06400000303983688, 1.055999994277954, 0.0, 0.0, 0.0, 0.0, 0.0, 1.6209964911531625E9, 2021-05-14 14:48:11.153
80.0, -135.63121032714844, -188.74900817871094, 269.20361328125, 205.08302307128906, 0.03200000151991844, -0.06400000303983688, 1.055999994277954, 0.0, 0.0, 0.0, 0.0, 0.0, 1.6209964911531625E9, 2021-05-14 14:48:11.153
81.0, -140.87081909179688, -201.0682373046875, 256.8432312011719, 195.5612335205078, 0.03200000151991844, -0.06400000303983688, 1.055999994277954, 0.0, 0.0, 0.0, 0.0, 0.0, 1.6209964911537638E9, 2021-05-14 14:48:11.153
81.0, -151.73147583007812, -207.7738800048828, 245.8030548095703, 175.53033447265625, 0.03200000151991844, -0.06400000303983688, 1.055999994277954, 0.0, 0.0, 0.0, 0.0, 0.0, 1.6209964911537638E9, 2021-05-14 14:48:11.153
82.0, -148.971435546875, -201.01588439941406, 255.7137908935547, 184.8763427734375, 0.03200000151991844, -0.06400000303983688, 1.055999994277954, 0.0, 0.0, 0.0, 0.0, 0.0, 1.6209964911673334E9, 2021-05-14 14:48:11.167
82.0, -135.04405212402344, -183.76747131347656, 270.2732238769531, 203.05599975585938, 0.03200000151991844, -0.06400000303983688, 1.055999994277954, 0.0, 0.0, 0.0, 0.0, 0.0, 1.6209964911673334E9, 2021-05-14 14:48:11.167
83.0, -136.928955078125, -196.11660766601562, 261.9930725097656, 189.21836853027344, 0.03200000151991844, -0.06400000303983688, 1.055999994277954, 0.0, 0.0, 0.0, 0.0, 0.0, 1.6209964911838875E9, 2021-05-14 14:48:11.183
83.0, -158.1828155517578, -202.3472900390625, 243.7610626220703, 161.58798217773438, 0.03200000151991844, -0.06400000303983688, 1.055999994277954, 0.0, 0.0, 0.0, 0.0, 0.0, 1.6209964911838875E9, 2021-05-14 14:48:11.183
84.0, -149.1846160888672, -191.12384033203125, 258.417724609375, 175.78465270996094, 0.03200000151991844, -0.06400000303983688, 1.055999994277954, 0.0, 0.0, 0.0, 0.0, 0.0, 1.6209964911846335E9, 2021-05-14 14:48:11.184
84.0, -122.32838439941406, -192.24581909179688, 270.53875732421875, 197.75656127929688, 0.03200000151991844, -0.06400000303983688, 1.055999994277954, 0.0, 0.0, 0.0, 0.0, 0.0, 1.6209964911846335E9, 2021-05-14 14:48:11.184
85.0, -131.9287109375, -198.11746215820312, 260.4896545410156, 187.79347229003906, 0.03200000151991844, -0.06400000303983688, 1.055999994277954, 0.0, 0.0, 0.0, 0.0, 0.0, 1.6209964911974435E9, 2021-05-14 14:48:11.197
85.0, -161.95262145996094, -215.26864624023438, 242.9906463623047, 172.76280212402344, 0.03200000151991844, -0.06400000303983688, 1.055999994277954, 0.0, 0.0, 0.0, 0.0, 0.0, 1.6209964911974435E9, 2021-05-14 14:48:11.197
86.0, -141.9441680908203, -210.33570861816406, 256.4169006347656, 184.72300720214844, 0.03200000151991844, -0.06400000303983688, 1.055999994277954, 0.0, 0.0, 0.0, 0.0, 0.0, 1.6209964912130458E9, 2021-05-14 14:48:11.213
86.0, -123.78694915771484, -193.96990966796875, 271.22314453125, 196.7056427001953, 0.03200000151991844, -0.06400000303983688, 1.055999994277954, 0.0, 0.0, 0.0, 0.0, 0.0, 1.6209964912130458E9, 2021-05-14 14:48:11.213
87.0, -148.6685028076172, -202.11915588378906, 249.9506072998047, 179.7040557861328, 0.03200000151991844, -0.06400000303983688, 1.055999994277954, 0.0, 0.0, 0.0, 0.0, 0.0, 1.6209964912137563E9, 2021-05-14 14:48:11.213
87.0, -157.4423065185547, -203.09901428222656, 250.9267120361328, 174.68885803222656, 0.03200000151991844, -0.06400000303983688, 1.055999994277954, 0.0, 0.0, 0.0, 0.0, 0.0, 1.6209964912137563E9, 2021-05-14 14:48:11.213
88.0, -140.58657836914062, -194.65057373046875, 263.07391357421875, 182.31077575683594, 0.03200000151991844, -0.06400000303983688, 1.055999994277954, 0.0, 0.0, 0.0, 0.0, 0.0, 1.6209964912437909E9, 2021-05-14 14:48:11.243
88.0, -131.62203979492188, -196.17645263671875, 267.4159240722656, 196.23068237304688, 0.03200000151991844, -0.06400000303983688, 1.055999994277954, 0.0, 0.0, 0.0, 0.0, 0.0, 1.6209964912437909E9, 2021-05-14 14:48:11.243
89.0, -148.98265075683594, -196.63272094726562, 261.046875, 191.79141235351562, 0.03200000151991844, -0.06400000303983688, 1.055999994277954, 0.0, 0.0, 0.0, 0.0, 0.0, 1.6209964912445247E9, 2021-05-14 14:48:11.244
89.0, -158.74005126953125, -207.5906219482422, 249.0605010986328, 175.87066650390625, 0.03200000151991844, -0.06400000303983688, 1.055999994277954, 0.0, 0.0, 0.0, 0.0, 0.0, 1.6209964912445247E9, 2021-05-14 14:48:11.244
90.0, -156.84017944335938, -199.89016723632812, 251.7008819580078, 184.0760040283203, 0.03200000151991844, -0.06400000303983688, 1.055999994277954, 0.0, 0.0, 0.0, 0.0, 0.0, 1.6209964912452545E9, 2021-05-14 14:48:11.245
90.0, -139.08688354492188, -204.74830627441406, 259.1133728027344, 190.83773803710938, 0.03200000151991844, -0.06400000303983688, 1.055999994277954, 0.0, 0.0, 0.0, 0.0, 0.0, 1.6209964912452545E9, 2021-05-14 14:48:11.245
91.0, -141.69732666015625, -206.3714141845703, 254.4123077392578, 186.1516571044922, 0.03200000151991844, -0.06400000303983688, 1.055999994277954, 0.0, 0.0, 0.0, 0.0, 0.0, 1.6209964912575216E9, 2021-05-14 14:48:11.257
91.0, -159.20379638671875, -211.3641815185547, 239.43026733398438, 168.40208435058594, 0.03200000151991844, -0.06400000303983688, 1.055999994277954, 0.0, 0.0, 0.0, 0.0, 0.0, 1.6209964912575216E9, 2021-05-14 14:48:11.257
92.0, -151.77261352539062, -205.74685668945312, 251.58868408203125, 175.8407440185547, 0.03200000151991844, -0.06400000303983688, 1.055999994277954, 0.0, 0.0, 0.0, 0.0, 0.0, 1.620996491273072E9, 2021-05-14 14:48:11.273
92.0, -129.04898071289062, -198.5176239013672, 269.8805236816406, 193.95681762695312, 0.03200000151991844, -0.06400000303983688, 1.055999994277954, 0.0, 0.0, 0.0, 0.0, 0.0, 1.620996491273072E9, 2021-05-14 14:48:11.273
93.0, -141.0428466796875, -198.92527770996094, 254.54693603515625, 183.24574279785156, 0.03200000151991844, -0.06400000303983688, 1.055999994277954, 0.0, 0.0, 0.0, 0.0, 0.0, 1.6209964912737925E9, 2021-05-14 14:48:11.273
93.0, -163.9759063720703, -201.67410278320312, 250.6649169921875, 170.09625244140625, 0.03200000151991844, -0.06400000303983688, 1.055999994277954, 0.0, 0.0, 0.0, 0.0, 0.0, 1.6209964912737925E9, 2021-05-14 14:48:11.273
94.0, -150.56089782714844, -206.7454071044922, 253.06968688964844, 182.64736938476562, 0.03200000151991844, -0.06400000303983688, 1.055999994277954, 0.0, 0.0, 0.0, 0.0, 0.0, 1.6209964912875252E9, 2021-05-14 14:48:11.287
94.0, -129.79696655273438, -197.11141967773438, 264.203369140625, 201.9153289794922, 0.03200000151991844, -0.06400000303983688, 1.055999994277954, 0.0, 0.0, 0.0, 0.0, 0.0, 1.6209964912875252E9, 2021-05-14 14:48:11.287
95.0, -137.0635986328125, -201.8349151611328, 261.140380859375, 196.22320556640625, 0.03200000151991844, -0.06400000303983688, 1.055999994277954, 0.0, 0.0, 0.0, 0.0, 0.0, 1.6209964913030343E9, 2021-05-14 14:48:11.303
95.0, -158.6839599609375, -203.62258911132812, 256.9479675292969, 176.30075073242188, 0.03200000151991844, -0.06400000303983688, 1.055999994277954, 0.0, 0.0, 0.0, 0.0, 0.0, 1.6209964913030343E9, 2021-05-14 14:48:11.303
96.0, -148.82183837890625, -212.25802612304688, 262.32220458984375, 188.732177734375, 0.03200000151991844, -0.06400000303983688, 1.055999994277954, 0.0, 0.0, 0.0, 0.0, 0.0, 1.6209964913037612E9, 2021-05-14 14:48:11.303
96.0, -132.0147247314453, -197.73973083496094, 268.6463623046875, 191.97840881347656, 0.03200000151991844, -0.06400000303983688, 1.055999994277954, 0.0, 0.0, 0.0, 0.0, 0.0, 1.6209964913037612E9, 2021-05-14 14:48:11.303
97.0, -143.96371459960938, -204.8829345703125, 259.5658874511719, 191.2005157470703, 0.03200000151991844, -0.06400000303983688, 1.055999994277954, 0.0, 0.0, 0.0, 0.0, 0.0, 1.6209964913175075E9, 2021-05-14 14:48:11.317
97.0, -143.1297149658203, -218.2082061767578, 246.07232666015625, 172.2093048095703, 0.03200000151991844, -0.06400000303983688, 1.055999994277954, 0.0, 0.0, 0.0, 0.0, 0.0, 1.6209964913175075E9, 2021-05-14 14:48:11.317
98.0, -141.26724243164062, -208.77243041992188, 249.92068481445312, 182.7520751953125, 0.03200000151991844, -0.06400000303983688, 1.055999994277954, 0.0, 0.0, 0.0, 0.0, 0.0, 1.6209964913331194E9, 2021-05-14 14:48:11.333
98.0, -120.11810302734375, -195.87351989746094, 270.0862121582031, 199.39463806152344, 0.03200000151991844, -0.06400000303983688, 1.055999994277954, 0.0, 0.0, 0.0, 0.0, 0.0, 1.6209964913331194E9, 2021-05-14 14:48:11.333
99.0, -127.38847351074219, -216.74215698242188, 262.26983642578125, 183.33924865722656, 0.03200000151991844, -0.06400000303983688, 1.055999994277954, 0.0, 0.0, 0.0, 0.0, 0.0, 1.6209964913338325E9, 2021-05-14 14:48:11.333
99.0, -136.36048889160156, -217.2283477783203, 251.10997009277344, 169.59510803222656, 0.03200000151991844, -0.06400000303983688, 1.055999994277954, 0.0, 0.0, 0.0, 0.0, 0.0, 1.6209964913338325E9, 2021-05-14 14:48:11.333
100.0, -129.20980834960938, -216.14752197265625, 257.5426025390625, 173.61924743652344, 0.03200000151991844, -0.06400000303983688, 1.055999994277954, 0.0, 0.0, 0.0, 0.0, 0.0, 1.6209964913480897E9, 2021-05-14 14:48:11.348
100.0, -107.12569427490234, -201.3300323486328, 277.44635009765625, 192.52444458007812, 0.03200000151991844, -0.06400000303983688, 1.055999994277954, 0.0, 0.0, 0.0, 0.0, 0.0, 1.6209964913480897E9, 2021-05-14 14:48:11.348
0.0, -118.07611846923828, -208.7350311279297, 271.80096435546875, 187.31663513183594, 0.03200000151991844, -0.06400000303983688, 1.055999994277954, 0.0, 0.0, 0.0, 0.0, 0.0, 1.6209964913488019E9, 2021-05-14 14:48:11.348
1.0, -131.56968688964844, -218.90382385253906, 257.342529296875, 166.71351623535156, 0.03200000151991844, -0.06400000303983688, 1.055999994277954, 0.0, 0.0, 0.0, 0.0, 0.0, 1.6209964913625593E9, 2021-05-14 14:48:11.362
1.0, -132.03343200683594, -223.4141387939453, 257.7987976074219, 173.53509521484375, 0.03200000151991844, -0.06400000303983688, 1.055999994277954, 0.0, 0.0, 0.0, 0.0, 0.0, 1.6209964913625593E9, 2021-05-14 14:48:11.362
2.0, -108.37107849121094, -213.78016662597656, 276.5319519042969, 196.59532165527344, 0.03200000151991844, -0.06400000303983688, 1.055999994277954, 0.0, 0.0, 0.0, 0.0, 0.0, 1.6209964913782156E9, 2021-05-14 14:48:11.378
2.0, -109.83712005615234, -221.5965576171875, 259.54156494140625, 186.2320556640625, 0.03200000151991844, -0.06400000303983688, 1.055999994277954, 0.0, 0.0, 0.0, 0.0, 0.0, 1.6209964913782156E9, 2021-05-14 14:48:11.378
3.0, -124.7817611694336, -229.2222137451172, 250.042236328125, 168.75177001953125, 0.03200000151991844, -0.06400000303983688, 1.055999994277954, 0.0, 0.0, 0.0, 0.0, 0.0, 1.6209964913789463E9, 2021-05-14 14:48:11.378
3.0, -116.06031799316406, -224.86148071289062, 249.88140869140625, 173.5575408935547, 0.03200000151991844, -0.06400000303983688, 1.055999994277954, 0.0, 0.0, 0.0, 0.0, 0.0, 1.6209964913789463E9, 2021-05-14 14:48:11.378
4.0, -106.06729888916016, -219.03846740722656, 268.2069396972656, 199.98741149902344, 0.03200000151991844, -0.06400000303983688, 1.055999994277954, 0.0, 0.0, 0.0, 0.0, 0.0, 1.6209964913925765E9, 2021-05-14 14:48:11.392
4.0, -114.1828842163086, -223.8853759765625, 253.6400146484375, 181.47116088867188, 0.03200000151991844, -0.06400000303983688, 1.055999994277954, 0.0, 0.0, 0.0, 0.0, 0.0, 1.6209964913925765E9, 2021-05-14 14:48:11.392
5.0, -121.03812408447266, -230.6171875, 252.52552795410156, 161.4365234375, 0.03200000151991844, -0.06400000303983688, 1.055999994277954, 0.0, 0.0, 0.0, 0.0, 0.0, 1.6209964914080415E9, 2021-05-14 14:48:11.408
5.0, -113.73035430908203, -222.99526977539062, 259.20123291015625, 172.1588134765625, 0.03200000151991844, -0.06400000303983688, 1.055999994277954, 0.0, 0.0, 0.0, 0.0, 0.0, 1.6209964914080415E9, 2021-05-14 14:48:11.408
6.0, -112.41017150878906, -217.16476440429688, 275.4249267578125, 192.23834228515625, 0.03200000151991844, -0.06400000303983688, 1.055999994277954, 0.0, 0.0, 0.0, 0.0, 0.0, 1.6209964914088418E9, 2021-05-14 14:48:11.408
6.0, -120.39112091064453, -217.3592529296875, 270.9520263671875, 179.83682250976562, 0.03200000151991844, -0.06400000303983688, 1.055999994277954, 0.0, 0.0, 0.0, 0.0, 0.0, 1.6209964914088418E9, 2021-05-14 14:48:11.408
7.0, -134.28485107421875, -224.92506408691406, 252.6638946533203, 160.1275634765625, 0.03200000151991844, -0.06400000303983688, 1.055999994277954, 0.0, 0.0, 0.0, 0.0, 0.0, 1.6209964914224935E9, 2021-05-14 14:48:11.422
7.0, -120.56689453125, -222.6998291015625, 257.68658447265625, 169.94105529785156, 0.03200000151991844, -0.06400000303983688, 1.055999994277954, 0.0, 0.0, 0.0, 0.0, 0.0, 1.6209964914224935E9, 2021-05-14 14:48:11.422
8.0, -114.00337219238281, -213.38746643066406, 275.54461669921875, 191.1051483154297, 0.03200000151991844, -0.06400000303983688, 1.055999994277954, 0.0, 0.0, 0.0, 0.0, 0.0, 1.6209964914380038E9, 2021-05-14 14:48:11.438
8.0, -122.08155059814453, -223.59739685058594, 263.4759521484375, 182.73524475097656, 0.03200000151991844, -0.06400000303983688, 1.055999994277954, 0.0, 0.0, 0.0, 0.0, 0.0, 1.6209964914380038E9, 2021-05-14 14:48:11.438
9.0, -129.67355346679688, -234.5627899169922, 250.99964904785156, 171.64645385742188, 0.03200000151991844, -0.06400000303983688, 1.055999994277954, 0.0, 0.0, 0.0, 0.0, 0.0, 1.6209964914387524E9, 2021-05-14 14:48:11.438
9.0, -122.97538757324219, -230.85653686523438, 258.6739196777344, 179.5376434326172, 0.03200000151991844, -0.06400000303983688, 1.055999994277954, 0.0, 0.0, 0.0, 0.0, 0.0, 1.6209964914387524E9, 2021-05-14 14:48:11.438
10.0, -120.38738250732422, -215.82962036132812, 276.1093444824219, 186.56491088867188, 0.03200000151991844, -0.06400000303983688, 1.055999994277954, 0.0, 0.0, 0.0, 0.0, 0.0, 1.6209964914524536E9, 2021-05-14 14:48:11.452
10.0, -121.7748794555664, -228.17503356933594, 263.16552734375, 178.70364379882812, 0.03200000151991844, -0.06400000303983688, 1.055999994277954, 0.0, 0.0, 0.0, 0.0, 0.0, 1.6209964914524536E9, 2021-05-14 14:48:11.452
11.0, -136.424072265625, -233.53431701660156, 245.51695251464844, 170.66285705566406, 0.03200000151991844, -0.06400000303983688, 1.055999994277954, 0.0, 0.0, 0.0, 0.0, 0.0, 1.6209964914680524E9, 2021-05-14 14:48:11.468
11.0, -125.32405090332031, -226.87355041503906, 255.82037353515625, 175.28163146972656, 0.03200000151991844, -0.06400000303983688, 1.055999994277954, 0.0, 0.0, 0.0, 0.0, 0.0, 1.6209964914680524E9, 2021-05-14 14:48:11.468
12.0, -106.34779357910156, -217.13111877441406, 266.146240234375, 192.6385040283203, 0.03200000151991844, -0.06400000303983688, 1.055999994277954, 0.0, 0.0, 0.0, 0.0, 0.0, 1.6209964914687357E9, 2021-05-14 14:48:11.468
12.0, -117.65351104736328, -223.3318634033203, 263.16180419921875, 183.34860229492188, 0.03200000151991844, -0.06400000303983688, 1.055999994277954, 0.0, 0.0, 0.0, 0.0, 0.0, 1.6209964914687357E9, 2021-05-14 14:48:11.468
13.0, -124.96501922607422, -228.25357055664062, 253.25106811523438, 167.60736083984375, 0.03200000151991844, -0.06400000303983688, 1.055999994277954, 0.0, 0.0, 0.0, 0.0, 0.0, 1.6209964914824245E9, 2021-05-14 14:48:11.482
13.0, -121.71504211425781, -228.42935180664062, 257.6940612792969, 175.41627502441406, 0.03200000151991844, -0.06400000303983688, 1.055999994277954, 0.0, 0.0, 0.0, 0.0, 0.0, 1.6209964914824245E9, 2021-05-14 14:48:11.482
14.0, -129.1798858642578, -217.35549926757812, 262.2791748046875, 186.75564575195312, 0.03200000151991844, -0.06400000303983688, 1.055999994277954, 0.0, 0.0, 0.0, 0.0, 0.0, 1.6209964914981987E9, 2021-05-14 14:48:11.498
14.0, -133.4134521484375, -211.97752380371094, 267.4327697753906, 181.98727416992188, 0.03200000151991844, -0.06400000303983688, 1.055999994277954, 0.0, 0.0, 0.0, 0.0, 0.0, 1.6209964914981987E9, 2021-05-14 14:48:11.498
15.0, -154.12127685546875, -224.74554443359375, 257.4547119140625, 168.28053283691406, 0.03200000151991844, -0.06400000303983688, 1.055999994277954, 0.0, 0.0, 0.0, 0.0, 0.0, 1.6209964914988327E9, 2021-05-14 14:48:11.498
15.0, -142.29197692871094, -214.94700622558594, 260.52142333984375, 178.0042724609375, 0.03200000151991844, -0.06400000303983688, 1.055999994277954, 0.0, 0.0, 0.0, 0.0, 0.0, 1.6209964914988327E9, 2021-05-14 14:48:11.498
16.0, -117.4552993774414, -208.1142120361328, 273.1286315917969, 199.9275665283203, 0.03200000151991844, -0.06400000303983688, 1.055999994277954, 0.0, 0.0, 0.0, 0.0, 0.0, 1.6209964915124288E9, 2021-05-14 14:48:11.512
16.0, -126.44601440429688, -223.86666870117188, 260.5513610839844, 180.8540802001953, 0.03200000151991844, -0.06400000303983688, 1.055999994277954, 0.0, 0.0, 0.0, 0.0, 0.0, 1.6209964915124288E9, 2021-05-14 14:48:11.512
17.0, -137.3104248046875, -229.41668701171875, 253.49789428710938, 164.55186462402344, 0.03200000151991844, -0.06400000303983688, 1.055999994277954, 0.0, 0.0, 0.0, 0.0, 0.0, 1.6209964915280058E9, 2021-05-14 14:48:11.528
17.0, -126.59561157226562, -215.5715789794922, 258.2513122558594, 172.64500427246094, 0.03200000151991844, -0.06400000303983688, 1.055999994277954, 0.0, 0.0, 0.0, 0.0, 0.0, 1.6209964915280058E9, 2021-05-14 14:48:11.528
18.0, -112.78790283203125, -208.7126007080078, 272.4779052734375, 191.5277557373047, 0.03200000151991844, -0.06400000303983688, 1.055999994277954, 0.0, 0.0, 0.0, 0.0, 0.0, 1.6209964915287356E9, 2021-05-14 14:48:11.528
18.0, -118.85775756835938, -216.47288513183594, 264.13043212890625, 180.14349365234375, 0.03200000151991844, -0.06400000303983688, 1.055999994277954, 0.0, 0.0, 0.0, 0.0, 0.0, 1.6209964915287356E9, 2021-05-14 14:48:11.528
19.0, -141.70480346679688, -223.17478942871094, 253.32586669921875, 169.49974060058594, 0.03200000151991844, -0.06400000303983688, 1.055999994277954, 0.0, 0.0, 0.0, 0.0, 0.0, 1.620996491542415E9, 2021-05-14 14:48:11.542
19.0, -132.515869140625, -212.1458282470703, 264.10052490234375, 172.42808532714844, 0.03200000151991844, -0.06400000303983688, 1.055999994277954, 0.0, 0.0, 0.0, 0.0, 0.0, 1.620996491542415E9, 2021-05-14 14:48:11.542
20.0, -122.22740936279297, -199.09732055664062, 278.4243469238281, 190.3048095703125, 0.03200000151991844, -0.06400000303983688, 1.055999994277954, 0.0, 0.0, 0.0, 0.0, 0.0, 1.620996491558038E9, 2021-05-14 14:48:11.558
20.0, -120.78755187988281, -202.48191833496094, 274.6956481933594, 183.8572235107422, 0.03200000151991844, -0.06400000303983688, 1.055999994277954, 0.0, 0.0, 0.0, 0.0, 0.0, 1.620996491558038E9, 2021-05-14 14:48:11.558
21.0, -152.8833770751953, -217.11614990234375, 255.09109497070312, 163.1680908203125, 0.03200000151991844, -0.06400000303983688, 1.055999994277954, 0.0, 0.0, 0.0, 0.0, 0.0, 1.6209964915588505E9, 2021-05-14 14:48:11.558
21.0, -142.90158081054688, -207.91226196289062, 266.23974609375, 176.5718994140625, 0.03200000151991844, -0.06400000303983688, 1.055999994277954, 0.0, 0.0, 0.0, 0.0, 0.0, 1.6209964915588505E9, 2021-05-14 14:48:11.558
22.0, -115.23379516601562, -198.94772338867188, 281.5770568847656, 190.86953735351562, 0.03200000151991844, -0.06400000303983688, 1.055999994277954, 0.0, 0.0, 0.0, 0.0, 0.0, 1.620996491572348E9, 2021-05-14 14:48:11.572
22.0, -132.54953002929688, -211.0425567626953, 268.51361083984375, 183.6029052734375, 0.03200000151991844, -0.06400000303983688, 1.055999994277954, 0.0, 0.0, 0.0, 0.0, 0.0, 1.620996491572348E9, 2021-05-14 14:48:11.572
23.0, -135.21981811523438, -216.56639099121094, 261.6209716796875, 174.0212860107422, 0.03200000151991844, -0.06400000303983688, 1.055999994277954, 0.0, 0.0, 0.0, 0.0, 0.0, 1.6209964915884926E9, 2021-05-14 14:48:11.588
23.0, -129.135009765625, -218.34657287597656, 265.1551818847656, 177.84719848632812, 0.03200000151991844, -0.06400000303983688, 1.055999994277954, 0.0, 0.0, 0.0, 0.0, 0.0, 1.6209964915884926E9, 2021-05-14 14:48:11.588
24.0, -113.17684936523438, -208.97439575195312, 271.72991943359375, 181.9498748779297, 0.03200000151991844, -0.06400000303983688, 1.055999994277954, 0.0, 0.0, 0.0, 0.0, 0.0, 1.6209964916029956E9, 2021-05-14 14:48:11.602
24.0, -108.89840698242188, -216.18865966796875, 266.4267272949219, 179.07388305664062, 0.03200000151991844, -0.06400000303983688, 1.055999994277954, 0.0, 0.0, 0.0, 0.0, 0.0, 1.6209964916029956E9, 2021-05-14 14:48:11.602
25.0, -128.74606323242188, -229.2296905517578, 251.66160583496094, 156.57838439941406, 0.03200000151991844, -0.06400000303983688, 1.055999994277954, 0.0, 0.0, 0.0, 0.0, 0.0, 1.6209964916037304E9, 2021-05-14 14:48:11.603
25.0, -133.7986602783203, -219.06463623046875, 260.207275390625, 166.5340118408203, 0.03200000151991844, -0.06400000303983688, 1.055999994277954, 0.0, 0.0, 0.0, 0.0, 0.0, 1.6209964916037304E9, 2021-05-14 14:48:11.603
26.0, -115.62274932861328, -208.57421875, 279.2022399902344, 184.7435760498047, 0.03200000151991844, -0.06400000303983688, 1.055999994277954, 0.0, 0.0, 0.0, 0.0, 0.0, 1.6209964916181479E9, 2021-05-14 14:48:11.618
26.0, -124.5798110961914, -214.15789794921875, 275.09954833984375, 181.2318115234375, 0.03200000151991844, -0.06400000303983688, 1.055999994277954, 0.0, 0.0, 0.0, 0.0, 0.0, 1.6209964916181479E9, 2021-05-14 14:48:11.618
27.0, -141.99652099609375, -220.22401428222656, 260.899169921875, 164.6079559326172, 0.03200000151991844, -0.06400000303983688, 1.055999994277954, 0.0, 0.0, 0.0, 0.0, 0.0, 1.6209964916188996E9, 2021-05-14 14:48:11.618
27.0, -135.85560607910156, -220.50823974609375, 265.4206848144531, 172.17752075195312, 0.03200000151991844, -0.06400000303983688, 1.055999994277954, 0.0, 0.0, 0.0, 0.0, 0.0, 1.6209964916188996E9, 2021-05-14 14:48:11.618
28.0, -123.80938720703125, -206.40133666992188, 275.7764892578125, 181.07847595214844, 0.03200000151991844, -0.06400000303983688, 1.055999994277954, 0.0, 0.0, 0.0, 0.0, 0.0, 1.620996491632378E9, 2021-05-14 14:48:11.632
28.0, -134.6812744140625, -213.59317016601562, 271.74859619140625, 173.561279296875, 0.03200000151991844, -0.06400000303983688, 1.055999994277954, 0.0, 0.0, 0.0, 0.0, 0.0, 1.620996491632378E9, 2021-05-14 14:48:11.632
29.0, -144.3115234375, -207.71405029296875, 262.9673156738281, 159.30104064941406, 0.03200000151991844, -0.06400000303983688, 1.055999994277954, 0.0, 0.0, 0.0, 0.0, 0.0, 1.6209964916644793E9, 2021-05-14 14:48:11.664
29.0, -134.15020751953125, -206.15077209472656, 266.7857666015625, 168.14964294433594, 0.03200000151991844, -0.06400000303983688, 1.055999994277954, 0.0, 0.0, 0.0, 0.0, 0.0, 1.6209964916644793E9, 2021-05-14 14:48:11.664
30.0, -113.75653839111328, -202.9718475341797, 280.38031005859375, 185.57383728027344, 0.03200000151991844, -0.06400000303983688, 1.055999994277954, 0.0, 0.0, 0.0, 0.0, 0.0, 1.6209964916652546E9, 2021-05-14 14:48:11.665
30.0, -108.5244140625, -211.09117126464844, 274.0112609863281, 180.8466033935547, 0.03200000151991844, -0.06400000303983688, 1.055999994277954, 0.0, 0.0, 0.0, 0.0, 0.0, 1.6209964916652546E9, 2021-05-14 14:48:11.665
31.0, -138.89988708496094, -221.34971618652344, 256.8039855957031, 159.59649658203125, 0.03200000151991844, -0.06400000303983688, 1.055999994277954, 0.0, 0.0, 0.0, 0.0, 0.0, 1.6209964916659553E9, 2021-05-14 14:48:11.665
31.0, -133.48451232910156, -218.73179626464844, 258.02691650390625, 165.2886199951172, 0.03200000151991844, -0.06400000303983688, 1.055999994277954, 0.0, 0.0, 0.0, 0.0, 0.0, 1.6209964916659553E9, 2021-05-14 14:48:11.665
32.0, -109.9268798828125, -203.96665954589844, 274.6395568847656, 181.29165649414062, 0.03200000151991844, -0.06400000303983688, 1.055999994277954, 0.0, 0.0, 0.0, 0.0, 0.0, 1.6209964916665952E9, 2021-05-14 14:48:11.666
32.0, -116.87935638427734, -209.35960388183594, 270.94451904296875, 184.17510986328125, 0.03200000151991844, -0.06400000303983688, 1.055999994277954, 0.0, 0.0, 0.0, 0.0, 0.0, 1.6209964916665952E9, 2021-05-14 14:48:11.666
33.0, -147.43434143066406, -214.5169219970703, 254.6236114501953, 163.65428161621094, 0.03200000151991844, -0.06400000303983688, 1.055999994277954, 0.0, 0.0, 0.0, 0.0, 0.0, 1.6209964916775267E9, 2021-05-14 14:48:11.677
33.0, -146.4395294189453, -211.03134155273438, 259.6275939941406, 166.53775024414062, 0.03200000151991844, -0.06400000303983688, 1.055999994277954, 0.0, 0.0, 0.0, 0.0, 0.0, 1.6209964916775267E9, 2021-05-14 14:48:11.677
34.0, -132.6131134033203, -219.23294067382812, 274.2468566894531, 186.54995727539062, 0.03200000151991844, -0.06400000303983688, 1.055999994277954, 0.0, 0.0, 0.0, 0.0, 0.0, 1.6209964916924264E9, 2021-05-14 14:48:11.692
34.0, -120.12932586669922, -215.46311950683594, 274.5198669433594, 187.27549743652344, 0.03200000151991844, -0.06400000303983688, 1.055999994277954, 0.0, 0.0, 0.0, 0.0, 0.0, 1.6209964916924264E9, 2021-05-14 14:48:11.692
35.0, -140.97926330566406, -219.1693572998047, 258.7524719238281, 173.056396484375, 0.03200000151991844, -0.06400000303983688, 1.055999994277954, 0.0, 0.0, 0.0, 0.0, 0.0, 1.6209964917086873E9, 2021-05-14 14:48:11.708
35.0, -141.78334045410156, -213.80259704589844, 261.06744384765625, 172.00173950195312, 0.03200000151991844, -0.06400000303983688, 1.055999994277954, 0.0, 0.0, 0.0, 0.0, 0.0, 1.6209964917086873E9, 2021-05-14 14:48:11.708
36.0, -127.96441650390625, -204.99513244628906, 271.48681640625, 190.93310546875, 0.03200000151991844, -0.06400000303983688, 1.055999994277954, 0.0, 0.0, 0.0, 0.0, 0.0, 1.620996491709428E9, 2021-05-14 14:48:11.709
36.0, -124.77802276611328, -202.83721923828125, 273.2370910644531, 186.93516540527344, 0.03200000151991844, -0.06400000303983688, 1.055999994277954, 0.0, 0.0, 0.0, 0.0, 0.0, 1.620996491709428E9, 2021-05-14 14:48:11.709
37.0, -136.78309631347656, -211.3716583251953, 263.6442565917969, 166.5340118408203, 0.03200000151991844, -0.06400000303983688, 1.055999994277954, 0.0, 0.0, 0.0, 0.0, 0.0, 1.6209964917224286E9, 2021-05-14 14:48:11.722
37.0, -138.0284881591797, -214.56179809570312, 265.3608703613281, 165.60276794433594, 0.03200000151991844, -0.06400000303983688, 1.055999994277954, 0.0, 0.0, 0.0, 0.0, 0.0, 1.6209964917224286E9, 2021-05-14 14:48:11.722
38.0, -114.87850952148438, -203.09901428222656, 279.57623291015625, 186.09742736816406, 0.03200000151991844, -0.06400000303983688, 1.055999994277954, 0.0, 0.0, 0.0, 0.0, 0.0, 1.620996491738056E9, 2021-05-14 14:48:11.738
38.0, -129.6024932861328, -205.6982421875, 270.94451904296875, 174.59349060058594, 0.03200000151991844, -0.06400000303983688, 1.055999994277954, 0.0, 0.0, 0.0, 0.0, 0.0, 1.620996491738056E9, 2021-05-14 14:48:11.738
39.0, -144.59201049804688, -219.18431091308594, 259.0628662109375, 163.81509399414062, 0.03200000151991844, -0.06400000303983688, 1.055999994277954, 0.0, 0.0, 0.0, 0.0, 0.0, 1.620996491738815E9, 2021-05-14 14:48:11.738
39.0, -138.4174346923828, -210.77328491210938, 261.4638977050781, 160.333251953125, 0.03200000151991844, -0.06400000303983688, 1.055999994277954, 0.0, 0.0, 0.0, 0.0, 0.0, 1.620996491738815E9, 2021-05-14 14:48:11.738
40.0, -121.34479522705078, -202.11915588378906, 267.5449523925781, 179.30950927734375, 0.03200000151991844, -0.06400000303983688, 1.055999994277954, 0.0, 0.0, 0.0, 0.0, 0.0, 1.6209964917524123E9, 2021-05-14 14:48:11.752
40.0, -134.10906982421875, -196.78231811523438, 267.40283203125, 173.9801483154297, 0.03200000151991844, -0.06400000303983688, 1.055999994277954, 0.0, 0.0, 0.0, 0.0, 0.0, 1.6209964917524123E9, 2021-05-14 14:48:11.752
41.0, -150.3252716064453, -214.90960693359375, 252.7947998046875, 164.33868408203125, 0.03200000151991844, -0.06400000303983688, 1.055999994277954, 0.0, 0.0, 0.0, 0.0, 0.0, 1.6209964917681625E9, 2021-05-14 14:48:11.768
41.0, -143.56727600097656, -209.60269165039062, 255.86898803710938, 170.95455932617188, 0.03200000151991844, -0.06400000303983688, 1.055999994277954, 0.0, 0.0, 0.0, 0.0, 0.0, 1.6209964917681625E9, 2021-05-14 14:48:11.768
42.0, -127.10797882080078, -196.3223114013672, 275.6829833984375, 194.1643829345703, 0.03200000151991844, -0.06400000303983688, 1.055999994277954, 0.0, 0.0, 0.0, 0.0, 0.0, 1.620996491768782E9, 2021-05-14 14:48:11.768
42.0, -131.94740295410156, -211.81297302246094, 268.35650634765625, 182.90354919433594, 0.03200000151991844, -0.06400000303983688, 1.055999994277954, 0.0, 0.0, 0.0, 0.0, 0.0, 1.620996491768782E9, 2021-05-14 14:48:11.768
43.0, -141.01666259765625, -215.62767028808594, 257.4060974121094, 165.7523651123047, 0.03200000151991844, -0.06400000303983688, 1.055999994277954, 0.0, 0.0, 0.0, 0.0, 0.0, 1.620996491782358E9, 2021-05-14 14:48:11.782
43.0, -131.73423767089844, -205.11480712890625, 260.899169921875, 172.73101806640625, 0.03200000151991844, -0.06400000303983688, 1.055999994277954, 0.0, 0.0, 0.0, 0.0, 0.0, 1.620996491782358E9, 2021-05-14 14:48:11.782
44.0, -115.25249481201172, -194.0746307373047, 272.6761169433594, 191.12010192871094, 0.03200000151991844, -0.06400000303983688, 1.055999994277954, 0.0, 0.0, 0.0, 0.0, 0.0, 1.6209964917981665E9, 2021-05-14 14:48:11.798
44.0, -127.3286361694336, -208.7350311279297, 263.37872314453125, 174.59349060058594, 0.03200000151991844, -0.06400000303983688, 1.055999994277954, 0.0, 0.0, 0.0, 0.0, 0.0, 1.6209964917981665E9, 2021-05-14 14:48:11.798
45.0, -134.84957885742188, -218.84024047851562, 250.0684051513672, 157.21791076660156, 0.03200000151991844, -0.06400000303983688, 1.055999994277954, 0.0, 0.0, 0.0, 0.0, 0.0, 1.6209964917989817E9, 2021-05-14 14:48:11.798
45.0, -124.40776824951172, -212.1046905517578, 263.8798522949219, 172.27101135253906, 0.03200000151991844, -0.06400000303983688, 1.055999994277954, 0.0, 0.0, 0.0, 0.0, 0.0, 1.6209964917989817E9, 2021-05-14 14:48:11.798
46.0, -118.96621704101562, -208.38722229003906, 278.1139221191406, 188.67047119140625, 0.03200000151991844, -0.06400000303983688, 1.055999994277954, 0.0, 0.0, 0.0, 0.0, 0.0, 1.6209964918125196E9, 2021-05-14 14:48:11.812
46.0, -130.58609008789062, -199.9687042236328, 272.0926818847656, 187.60833740234375, 0.03200000151991844, -0.06400000303983688, 1.055999994277954, 0.0, 0.0, 0.0, 0.0, 0.0, 1.6209964918125196E9, 2021-05-14 14:48:11.812
47.0, -157.63677978515625, -211.5063018798828, 256.1681823730469, 169.50347900390625, 0.03200000151991844, -0.06400000303983688, 1.055999994277954, 0.0, 0.0, 0.0, 0.0, 0.0, 1.620996491828153E9, 2021-05-14 14:48:11.828
47.0, -137.49742126464844, -213.77267456054688, 258.05682373046875, 169.30152893066406, 0.03200000151991844, -0.06400000303983688, 1.055999994277954, 0.0, 0.0, 0.0, 0.0, 0.0, 1.620996491828153E9, 2021-05-14 14:48:11.828
48.0, -122.3732681274414, -198.92153930664062, 271.28485107421875, 184.76976013183594, 0.03200000151991844, -0.06400000303983688, 1.055999994277954, 0.0, 0.0, 0.0, 0.0, 0.0, 1.620996491828923E9, 2021-05-14 14:48:11.828
48.0, -134.23997497558594, -200.28286743164062, 269.81134033203125, 179.57504272460938, 0.03200000151991844, -0.06400000303983688, 1.055999994277954, 0.0, 0.0, 0.0, 0.0, 0.0, 1.620996491828923E9, 2021-05-14 14:48:11.828
49.0, -148.20101928710938, -212.08224487304688, 251.37364196777344, 156.5970916748047, 0.03200000151991844, -0.06400000303983688, 1.055999994277954, 0.0, 0.0, 0.0, 0.0, 0.0, 1.6209964918425891E9, 2021-05-14 14:48:11.842
49.0, -133.0731201171875, -202.8970489501953, 265.1738586425781, 174.241943359375, 0.03200000151991844, -0.06400000303983688, 1.055999994277954, 0.0, 0.0, 0.0, 0.0, 0.0, 1.6209964918425891E9, 2021-05-14 14:48:11.842
50.0, -107.58196258544922, -203.94049072265625, 276.827392578125, 188.82754516601562, 0.03200000151991844, -0.06400000303983688, 1.055999994277954, 0.0, 0.0, 0.0, 0.0, 0.0, 1.620996491858054E9, 2021-05-14 14:48:11.858
50.0, -132.34010314941406, -205.38034057617188, 268.7454833984375, 178.96543884277344, 0.03200000151991844, -0.06400000303983688, 1.055999994277954, 0.0, 0.0, 0.0, 0.0, 0.0, 1.620996491858054E9, 2021-05-14 14:48:11.858
51.0, -149.84657287597656, -214.08309936523438, 248.7594451904297, 156.91871643066406, 0.03200000151991844, -0.06400000303983688, 1.055999994277954, 0.0, 0.0, 0.0, 0.0, 0.0, 1.620996491858879E9, 2021-05-14 14:48:11.858
51.0, -146.4769287109375, -204.5912322998047, 255.11727905273438, 166.13009643554688, 0.03200000151991844, -0.06400000303983688, 1.055999994277954, 0.0, 0.0, 0.0, 0.0, 0.0, 1.620996491858879E9, 2021-05-14 14:48:11.858
52.0, -132.71034240722656, -206.94361877441406, 273.7419738769531, 181.13832092285156, 0.03200000151991844, -0.06400000303983688, 1.055999994277954, 0.0, 0.0, 0.0, 0.0, 0.0, 1.6209964918723528E9, 2021-05-14 14:48:11.872
52.0, -126.80878448486328, -201.1505126953125, 272.6424560546875, 183.00453186035156, 0.03200000151991844, -0.06400000303983688, 1.055999994277954, 0.0, 0.0, 0.0, 0.0, 0.0, 1.6209964918723528E9, 2021-05-14 14:48:11.872
53.0, -149.49502563476562, -217.9090118408203, 259.8332824707031, 160.38186645507812, 0.03200000151991844, -0.06400000303983688, 1.055999994277954, 0.0, 0.0, 0.0, 0.0, 0.0, 1.6209964918882189E9, 2021-05-14 14:48:11.888
53.0, -146.48814392089844, -215.7024688720703, 260.64483642578125, 174.77301025390625, 0.03200000151991844, -0.06400000303983688, 1.055999994277954, 0.0, 0.0, 0.0, 0.0, 0.0, 1.6209964918882189E9, 2021-05-14 14:48:11.888
54.0, -137.46749877929688, -197.9716033935547, 276.22900390625, 194.35885620117188, 0.03200000151991844, -0.06400000303983688, 1.055999994277954, 0.0, 0.0, 0.0, 0.0, 0.0, 1.6209964918889253E9, 2021-05-14 14:48:11.888
54.0, -148.39175415039062, -204.36309814453125, 266.9540710449219, 190.8545684814453, 0.03200000151991844, -0.06400000303983688, 1.055999994277954, 0.0, 0.0, 0.0, 0.0, 0.0, 1.6209964918889253E9, 2021-05-14 14:48:11.888
55.0, -145.3736572265625, -211.19589233398438, 253.5427703857422, 173.10501098632812, 0.03200000151991844, -0.06400000303983688, 1.055999994277954, 0.0, 0.0, 0.0, 0.0, 0.0, 1.6209964919024305E9, 2021-05-14 14:48:11.902
55.0, -130.0998992919922, -208.1964874267578, 260.94403076171875, 175.5957794189453, 0.03200000151991844, -0.06400000303983688, 1.055999994277954, 0.0, 0.0, 0.0, 0.0, 0.0, 1.6209964919024305E9, 2021-05-14 14:48:11.902
56.0, -128.0167694091797, -198.73828125, 269.609375, 188.9060821533203, 0.03200000151991844, -0.06400000303983688, 1.055999994277954, 0.0, 0.0, 0.0, 0.0, 0.0, 1.6209964919181733E9, 2021-05-14 14:48:11.918
56.0, -128.42442321777344, -203.16632080078125, 268.9810791015625, 186.2694549560547, 0.03200000151991844, -0.06400000303983688, 1.055999994277954, 0.0, 0.0, 0.0, 0.0, 0.0, 1.6209964919181733E9, 2021-05-14 14:48:11.918
57.0, -149.74932861328125, -224.39773559570312, 252.6564178466797, 162.8651580810547, 0.03200000151991844, -0.06400000303983688, 1.055999994277954, 0.0, 0.0, 0.0, 0.0, 0.0, 1.6209964919189093E9, 2021-05-14 14:48:11.918
57.0, -140.65016174316406, -205.59352111816406, 257.69781494140625, 171.68385314941406, 0.03200000151991844, -0.06400000303983688, 1.055999994277954, 0.0, 0.0, 0.0, 0.0, 0.0, 1.6209964919189093E9, 2021-05-14 14:48:11.918
58.0, -116.57642364501953, -196.70004272460938, 272.94537353515625, 181.27294921875, 0.03200000151991844, -0.06400000303983688, 1.055999994277954, 0.0, 0.0, 0.0, 0.0, 0.0, 1.6209964919323847E9, 2021-05-14 14:48:11.932
58.0, -132.57571411132812, -199.65081787109375, 269.88238525390625, 179.58251953125, 0.03200000151991844, -0.06400000303983688, 1.055999994277954, 0.0, 0.0, 0.0, 0.0, 0.0, 1.6209964919323847E9, 2021-05-14 14:48:11.932
59.0, -148.65728759765625, -206.9623260498047, 258.43829345703125, 158.62411499023438, 0.03200000151991844, -0.06400000303983688, 1.055999994277954, 0.0, 0.0, 0.0, 0.0, 0.0, 1.6209964919478304E9, 2021-05-14 14:48:11.947
59.0, -149.4314422607422, -209.62139892578125, 259.7958984375, 165.26991271972656, 0.03200000151991844, -0.06400000303983688, 1.055999994277954, 0.0, 0.0, 0.0, 0.0, 0.0, 1.6209964919478304E9, 2021-05-14 14:48:11.947
60.0, -132.24285888671875, -203.15884399414062, 270.723876953125, 180.427734375, 0.03200000151991844, -0.06400000303983688, 1.055999994277954, 0.0, 0.0, 0.0, 0.0, 0.0, 1.62099649196305E9, 2021-05-14 14:48:11.963
60.0, -137.8115692138672, -205.09237670898438, 268.1545715332031, 178.57647705078125, 0.03200000151991844, -0.06400000303983688, 1.055999994277954, 0.0, 0.0, 0.0, 0.0, 0.0, 1.62099649196305E9, 2021-05-14 14:48:11.963
61.0, -148.5937042236328, -210.2796173095703, 252.98553466796875, 159.488037109375, 0.03200000151991844, -0.06400000303983688, 1.055999994277954, 0.0, 0.0, 0.0, 0.0, 0.0, 1.6209964919637733E9, 2021-05-14 14:48:11.963
61.0, -148.09629821777344, -212.83396911621094, 258.4644775390625, 163.20175170898438, 0.03200000151991844, -0.06400000303983688, 1.055999994277954, 0.0, 0.0, 0.0, 0.0, 0.0, 1.6209964919637733E9, 2021-05-14 14:48:11.963
62.0, -128.3720703125, -202.212646484375, 273.0538330078125, 184.38455200195312, 0.03200000151991844, -0.06400000303983688, 1.055999994277954, 0.0, 0.0, 0.0, 0.0, 0.0, 1.620996491978078E9, 2021-05-14 14:48:11.978
62.0, -131.94366455078125, -204.5987091064453, 264.52685546875, 176.21286010742188, 0.03200000151991844, -0.06400000303983688, 1.055999994277954, 0.0, 0.0, 0.0, 0.0, 0.0, 1.620996491978078E9, 2021-05-14 14:48:11.978
63.0, -143.6719970703125, -211.96630859375, 254.28701782226562, 156.27171325683594, 0.03200000151991844, -0.06400000303983688, 1.055999994277954, 0.0, 0.0, 0.0, 0.0, 0.0, 1.6209964919789157E9, 2021-05-14 14:48:11.978
63.0, -144.5172119140625, -202.82598876953125, 258.10919189453125, 163.4261474609375, 0.03200000151991844, -0.06400000303983688, 1.055999994277954, 0.0, 0.0, 0.0, 0.0, 0.0, 1.6209964919789157E9, 2021-05-14 14:48:11.978
64.0, -133.57052612304688, -185.1661834716797, 276.6291809082031, 181.4337615966797, 0.03200000151991844, -0.06400000303983688, 1.055999994277954, 0.0, 0.0, 0.0, 0.0, 0.0, 1.6209964919925184E9, 2021-05-14 14:48:11.992
64.0, -137.97613525390625, -202.35476684570312, 268.0311584472656, 177.1590576171875, 0.03200000151991844, -0.06400000303983688, 1.055999994277954, 0.0, 0.0, 0.0, 0.0, 0.0, 1.6209964919925184E9, 2021-05-14 14:48:11.992
65.0, -147.20620727539062, -212.23558044433594, 251.63917541503906, 158.69891357421875, 0.03200000151991844, -0.06400000303983688, 1.055999994277954, 0.0, 0.0, 0.0, 0.0, 0.0, 1.620996492008031E9, 2021-05-14 14:48:12.008
65.0, -146.16650390625, -206.57711791992188, 254.12246704101562, 163.25411987304688, 0.03200000151991844, -0.06400000303983688, 1.055999994277954, 0.0, 0.0, 0.0, 0.0, 0.0, 1.620996492008031E9, 2021-05-14 14:48:12.008
66.0, -137.89010620117188, -183.1765594482422, 272.2460021972656, 183.6590118408203, 0.03200000151991844, -0.06400000303983688, 1.055999994277954, 0.0, 0.0, 0.0, 0.0, 0.0, 1.6209964920087545E9, 2021-05-14 14:48:12.008
66.0, -146.929443359375, -195.99319458007812, 263.5507507324219, 178.24363708496094, 0.03200000151991844, -0.06400000303983688, 1.055999994277954, 0.0, 0.0, 0.0, 0.0, 0.0, 1.6209964920087545E9, 2021-05-14 14:48:12.008
67.0, -162.42759704589844, -205.71693420410156, 248.53878784179688, 167.18849182128906, 0.03200000151991844, -0.06400000303983688, 1.055999994277954, 0.0, 0.0, 0.0, 0.0, 0.0, 1.6209964920225124E9, 2021-05-14 14:48:12.022
67.0, -148.60491943359375, -205.50001525878906, 255.629638671875, 168.20199584960938, 0.03200000151991844, -0.06400000303983688, 1.055999994277954, 0.0, 0.0, 0.0, 0.0, 0.0, 1.6209964920225124E9, 2021-05-14 14:48:12.022
68.0, -128.76101684570312, -201.4534454345703, 269.1643371582031, 184.0255126953125, 0.03200000151991844, -0.06400000303983688, 1.055999994277954, 0.0, 0.0, 0.0, 0.0, 0.0, 1.6209964920380235E9, 2021-05-14 14:48:12.038
68.0, -137.78164672851562, -205.25318908691406, 266.9690246582031, 179.0290069580078, 0.03200000151991844, -0.06400000303983688, 1.055999994277954, 0.0, 0.0, 0.0, 0.0, 0.0, 1.6209964920380235E9, 2021-05-14 14:48:12.038
69.0, -152.80108642578125, -207.74021911621094, 257.5856018066406, 163.5981903076172, 0.03200000151991844, -0.06400000303983688, 1.055999994277954, 0.0, 0.0, 0.0, 0.0, 0.0, 1.62099649203872E9, 2021-05-14 14:48:12.038
69.0, -138.5857391357422, -194.01478576660156, 262.9075012207031, 166.74717712402344, 0.03200000151991844, -0.06400000303983688, 1.055999994277954, 0.0, 0.0, 0.0, 0.0, 0.0, 1.62099649203872E9, 2021-05-14 14:48:12.038
70.0, -127.8335189819336, -201.17295837402344, 275.5894775390625, 182.30889892578125, 0.03200000151991844, -0.06400000303983688, 1.055999994277954, 0.0, 0.0, 0.0, 0.0, 0.0, 1.6209964920694108E9, 2021-05-14 14:48:12.069
70.0, -128.85824584960938, -203.42811584472656, 271.2923278808594, 183.12420654296875, 0.03200000151991844, -0.06400000303983688, 1.055999994277954, 0.0, 0.0, 0.0, 0.0, 0.0, 1.6209964920694108E9, 2021-05-14 14:48:12.069
71.0, -151.6417236328125, -211.55117797851562, 254.5413360595703, 155.46763610839844, 0.03200000151991844, -0.06400000303983688, 1.055999994277954, 0.0, 0.0, 0.0, 0.0, 0.0, 1.62099649207011E9, 2021-05-14 14:48:12.070
71.0, -143.34661865234375, -196.43824768066406, 264.1566162109375, 169.29779052734375, 0.03200000151991844, -0.06400000303983688, 1.055999994277954, 0.0, 0.0, 0.0, 0.0, 0.0, 1.62099649207011E9, 2021-05-14 14:48:12.070
72.0, -132.03343200683594, -193.82778930664062, 271.36712646484375, 183.81982421875, 0.03200000151991844, -0.06400000303983688, 1.055999994277954, 0.0, 0.0, 0.0, 0.0, 0.0, 1.6209964920708392E9, 2021-05-14 14:48:12.070
72.0, -146.8434295654297, -195.63790893554688, 267.9226989746094, 179.05519104003906, 0.03200000151991844, -0.06400000303983688, 1.055999994277954, 0.0, 0.0, 0.0, 0.0, 0.0, 1.6209964920708392E9, 2021-05-14 14:48:12.070
73.0, -155.250732421875, -208.60787963867188, 255.43516540527344, 166.53775024414062, 0.03200000151991844, -0.06400000303983688, 1.055999994277954, 0.0, 0.0, 0.0, 0.0, 0.0, 1.620996492082409E9, 2021-05-14 14:48:12.082
73.0, -145.63919067382812, -213.31640625, 261.134765625, 171.9082489013672, 0.03200000151991844, -0.06400000303983688, 1.055999994277954, 0.0, 0.0, 0.0, 0.0, 0.0, 1.620996492082409E9, 2021-05-14 14:48:12.082
74.0, -143.09605407714844, -191.5838623046875, 262.7130126953125, 173.96517944335938, 0.03200000151991844, -0.06400000303983688, 1.055999994277954, 0.0, 0.0, 0.0, 0.0, 0.0, 1.6209964920981245E9, 2021-05-14 14:48:12.098
