Sample Index, EXG Channel 0, EXG Channel 1, EXG Channel 2, EXG Channel 3, Accel Channel 0, Accel Channel 1, Accel Channel 2, Other, Other, Other, Other, Other, Timestamp, Timestamp (Formatted)
0.0, 35.97596740722656, -208.29747009277344, 53.09349060058594, 393.25982666015625, 0.0, 0.0, 0.0, 0.0, 0.0, 0.0, 0.0, 0.0, 1.6210019672821927E9, 2021-05-14 16:19:27.282
1.0, 35.91613006591797, -206.109619140625, 61.16045379638672, 387.7920837402344, 0.0, -0.04800000041723251, 0.0, 0.0, 0.0, 0.0, 0.0, 0.0, 1.6210019673288467E9, 2021-05-14 16:19:27.328
1.0, 31.256214141845703, -212.9087677001953, 54.53335189819336, 376.5836181640625, 0.0, -0.04800000041723251, 0.0, 0.0, 0.0, 0.0, 0.0, 0.0, 1.6210019673288467E9, 2021-05-14 16:19:27.328
2.0, 33.86292266845703, -208.0730743408203, 50.43067932128906, 381.6698913574219, 0.04800000041723251, -0.04800000041723251, 0.0, 0.0, 0.0, 0.0, 0.0, 0.0, 1.621001967330201E9, 2021-05-14 16:19:27.330
2.0, 37.3784294128418, -213.76893615722656, 54.92604064941406, 391.4796447753906, 0.04800000041723251, -0.04800000041723251, 0.0, 0.0, 0.0, 0.0, 0.0, 0.0, 1.621001967330201E9, 2021-05-14 16:19:27.330
3.0, 28.196975708007812, -217.93145751953125, 45.45287322998047, 392.4894104003906, 0.04800000041723251, -0.04800000041723251, 0.0, 0.0, 0.0, 0.0, 0.0, 0.0, 1.6210019673309288E9, 2021-05-14 16:19:27.330
3.0, 26.585079193115234, -216.966552734375, 42.864864349365234, 388.39422607421875, 0.04800000041723251, -0.04800000041723251, 0.0, 0.0, 0.0, 0.0, 0.0, 0.0, 1.6210019673309288E9, 2021-05-14 16:19:27.330
4.0, 26.94036865234375, -214.8011474609375, 39.83554458618164, 394.7221374511719, 0.04800000041723251, -0.04800000041723251, 0.0, 0.0, 0.0, 0.0, 0.0, 0.0, 1.6210019673417811E9, 2021-05-14 16:19:27.341
4.0, 22.833959579467773, -210.50401306152344, 42.60306930541992, 399.96173095703125, 0.04800000041723251, -0.04800000041723251, 0.0, 0.0, 0.0, 0.0, 0.0, 0.0, 1.6210019673417811E9, 2021-05-14 16:19:27.341
5.0, 12.78858757019043, -222.06777954101562, 32.363224029541016, 390.80645751953125, 0.04800000041723251, -0.04800000041723251, 0.0, 0.0, 0.0, 0.0, 0.0, 0.0, 1.6210019673424516E9, 2021-05-14 16:19:27.342
5.0, -3.0947673320770264, -227.81600952148438, 31.10287857055664, 391.14678955078125, 0.04800000041723251, -0.04800000041723251, 0.0, 0.0, 0.0, 0.0, 0.0, 0.0, 1.6210019673424516E9, 2021-05-14 16:19:27.342
6.0, 6.2026238441467285, -214.52066040039062, 37.34477233886719, 406.37567138671875, 0.04800000041723251, -0.04800000041723251, 0.0, 0.0, 0.0, 0.0, 0.0, 0.0, 1.6210019673432825E9, 2021-05-14 16:19:27.343
6.0, 6.479376792907715, -217.45648193359375, 36.750125885009766, 404.11676025390625, 0.04800000041723251, -0.04800000041723251, 0.0, 0.0, 0.0, 0.0, 0.0, 0.0, 1.6210019673432825E9, 2021-05-14 16:19:27.343
7.0, 3.7716891765594482, -221.51426696777344, 39.82806396484375, 400.4479064941406, 0.04800000041723251, -0.04800000041723251, 0.0, 0.0, 0.0, 0.0, 0.0, 0.0, 1.6210019673716948E9, 2021-05-14 16:19:27.371
7.0, 10.709203720092773, -222.58763122558594, 38.57893753051758, 393.2972412109375, 0.04800000041723251, -0.04800000041723251, 0.0, 0.0, 0.0, 0.0, 0.0, 0.0, 1.6210019673716948E9, 2021-05-14 16:19:27.371
8.0, 28.526086807250977, -215.3995361328125, 39.854244232177734, 402.0971984863281, 0.04800000041723251, -0.04800000041723251, 0.0, 0.0, 0.0, 0.0, 0.0, 0.0, 1.6210019673724136E9, 2021-05-14 16:19:27.372
8.0, 38.26104736328125, -216.27467346191406, 38.036651611328125, 404.0382080078125, 0.04800000041723251, -0.04800000041723251, 0.0, 0.0, 0.0, 0.0, 0.0, 0.0, 1.6210019673724136E9, 2021-05-14 16:19:27.372
9.0, 38.560237884521484, -223.55625915527344, 34.85399627685547, 396.0011901855469, 0.04800000041723251, -0.04800000041723251, 0.0, 0.0, 0.0, 0.0, 0.0, 0.0, 1.621001967373171E9, 2021-05-14 16:19:27.373
9.0, 34.49870681762695, -222.6437225341797, 38.908050537109375, 380.3534240722656, 0.04800000041723251, -0.04800000041723251, 0.0, 0.0, 0.0, 0.0, 0.0, 0.0, 1.621001967373171E9, 2021-05-14 16:19:27.373
10.0, 38.0815315246582, -211.81297302246094, 50.90564727783203, 387.67242431640625, 0.04800000041723251, -0.04800000041723251, 1.055999994277954, 0.0, 0.0, 0.0, 0.0, 0.0, 1.6210019673853812E9, 2021-05-14 16:19:27.385
10.0, 46.802978515625, -206.8463897705078, 58.60236358642578, 383.47998046875, 0.04800000041723251, -0.04800000041723251, 1.055999994277954, 0.0, 0.0, 0.0, 0.0, 0.0, 1.6210019673853812E9, 2021-05-14 16:19:27.385
11.0, 30.186601638793945, -210.1861114501953, 52.06501770019531, 375.98150634765625, 0.04800000041723251, -0.04800000041723251, 1.055999994277954, 0.0, 0.0, 0.0, 0.0, 0.0, 1.6210019674183009E9, 2021-05-14 16:19:27.418
11.0, 28.08477783203125, -211.5474395751953, 45.045223236083984, 369.0290222167969, 0.04800000041723251, -0.04800000041723251, 1.055999994277954, 0.0, 0.0, 0.0, 0.0, 0.0, 1.6210019674183009E9, 2021-05-14 16:19:27.418
12.0, 34.53236770629883, -208.327392578125, 46.11857604980469, 372.4996337890625, 0.03200000151991844, -0.04800000041723251, 1.055999994277954, 0.0, 0.0, 0.0, 0.0, 0.0, 1.6210019674189456E9, 2021-05-14 16:19:27.418
12.0, 30.6989688873291, -208.58543395996094, 42.48713302612305, 376.624755859375, 0.03200000151991844, -0.04800000041723251, 1.055999994277954, 0.0, 0.0, 0.0, 0.0, 0.0, 1.6210019674189456E9, 2021-05-14 16:19:27.418
13.0, 21.016366958618164, -218.64576721191406, 33.69462966918945, 369.70220947265625, 0.03200000151991844, -0.04800000041723251, 1.055999994277954, 0.0, 0.0, 0.0, 0.0, 0.0, 1.6210019674196424E9, 2021-05-14 16:19:27.419
13.0, 20.0888729095459, -213.0284423828125, 36.72768783569336, 379.347412109375, 0.03200000151991844, -0.04800000041723251, 1.055999994277954, 0.0, 0.0, 0.0, 0.0, 0.0, 1.6210019674196424E9, 2021-05-14 16:19:27.419
14.0, 20.88547134399414, -214.16537475585938, 42.89104080200195, 394.1761169433594, 0.03200000151991844, -0.04800000041723251, 1.055999994277954, 0.0, 0.0, 0.0, 0.0, 0.0, 1.621001967420402E9, 2021-05-14 16:19:27.420
14.0, 20.32822608947754, -217.14981079101562, 42.18794250488281, 410.57183837890625, 0.03200000151991844, -0.04800000041723251, 1.055999994277954, 0.0, 0.0, 0.0, 0.0, 0.0, 1.621001967420402E9, 2021-05-14 16:19:27.420
15.0, 6.367179870605469, -224.09854125976562, 34.37528991699219, 409.2853088378906, 0.03200000151991844, -0.04800000041723251, 1.055999994277954, 0.0, 0.0, 0.0, 0.0, 0.0, 1.621001967446226E9, 2021-05-14 16:19:27.446
15.0, 1.7072643041610718, -228.51162719726562, 26.289627075195312, 399.9841613769531, 0.03200000151991844, -0.04800000041723251, 1.055999994277954, 0.0, 0.0, 0.0, 0.0, 0.0, 1.621001967446226E9, 2021-05-14 16:19:27.446
16.0, 11.225309371948242, -224.0050506591797, 28.649503707885742, 410.2576904296875, 0.03200000151991844, -0.04800000041723251, 1.055999994277954, 0.0, 0.0, 0.0, 0.0, 0.0, 1.6210019674468966E9, 2021-05-14 16:19:27.446
16.0, 24.05690574645996, -219.10951232910156, 34.05365753173828, 415.20556640625, 0.03200000151991844, -0.04800000041723251, 1.055999994277954, 0.0, 0.0, 0.0, 0.0, 0.0, 1.6210019674468966E9, 2021-05-14 16:19:27.446
17.0, 24.73008918762207, -224.5510711669922, 30.66530990600586, 407.8753662109375, 0.03200000151991844, -0.04800000041723251, 1.055999994277954, 0.0, 0.0, 0.0, 0.0, 0.0, 1.6210019674610608E9, 2021-05-14 16:19:27.461
17.0, 21.117345809936523, -226.01336669921875, 24.01576805114746, 402.4412841796875, 0.03200000151991844, -0.04800000041723251, 1.055999994277954, 0.0, 0.0, 0.0, 0.0, 0.0, 1.6210019674610608E9, 2021-05-14 16:19:27.461
18.0, 37.647701263427734, -221.9630584716797, 36.667850494384766, 406.8618469238281, 0.03200000151991844, -0.04800000041723251, 1.055999994277954, 0.0, 0.0, 0.0, 0.0, 0.0, 1.6210019674618917E9, 2021-05-14 16:19:27.461
18.0, 35.56831741333008, -224.61465454101562, 36.136783599853516, 403.98211669921875, 0.03200000151991844, -0.04800000041723251, 1.055999994277954, 0.0, 0.0, 0.0, 0.0, 0.0, 1.6210019674618917E9, 2021-05-14 16:19:27.461
19.0, 34.01251983642578, -232.98080444335938, 27.220861434936523, 393.68243408203125, 0.03200000151991844, -0.04800000041723251, 1.055999994277954, 0.0, 0.0, 0.0, 0.0, 0.0, 1.6210019674914503E9, 2021-05-14 16:19:27.491
19.0, 34.58098602294922, -228.3657684326172, 32.69981384277344, 388.12493896484375, 0.03200000151991844, -0.04800000041723251, 1.055999994277954, 0.0, 0.0, 0.0, 0.0, 0.0, 1.6210019674914503E9, 2021-05-14 16:19:27.491
20.0, 45.217262268066406, -219.7340850830078, 44.57025909423828, 387.71728515625, 0.03200000151991844, -0.04800000041723251, 1.055999994277954, 0.0, 0.0, 0.0, 0.0, 0.0, 1.6210019674921975E9, 2021-05-14 16:19:27.492
20.0, 47.782833099365234, -211.6259765625, 49.308712005615234, 386.25872802734375, 0.03200000151991844, -0.04800000041723251, 1.055999994277954, 0.0, 0.0, 0.0, 0.0, 0.0, 1.6210019674921975E9, 2021-05-14 16:19:27.492
21.0, 32.497859954833984, -212.66566467285156, 48.80008316040039, 375.3756408691406, 0.03200000151991844, -0.04800000041723251, 1.055999994277954, 0.0, 0.0, 0.0, 0.0, 0.0, 1.6210019675064282E9, 2021-05-14 16:19:27.506
21.0, 28.182016372680664, -213.8362579345703, 53.6806526184082, 374.6276550292969, 0.03200000151991844, -0.04800000041723251, 1.055999994277954, 0.0, 0.0, 0.0, 0.0, 0.0, 1.6210019675064282E9, 2021-05-14 16:19:27.506
22.0, 32.86811065673828, -210.83311462402344, 52.67835998535156, 382.08502197265625, 0.03200000151991844, -0.04800000041723251, 1.055999994277954, 0.0, 0.0, 0.0, 0.0, 0.0, 1.6210019675218625E9, 2021-05-14 16:19:27.521
22.0, 34.19577407836914, -205.96751403808594, 51.7097282409668, 386.37841796875, 0.03200000151991844, -0.04800000041723251, 1.055999994277954, 0.0, 0.0, 0.0, 0.0, 0.0, 1.6210019675218625E9, 2021-05-14 16:19:27.521
23.0, 19.20999526977539, -211.39410400390625, 43.7400016784668, 389.92010498046875, 0.03200000151991844, -0.04800000041723251, 1.055999994277954, 0.0, 0.0, 0.0, 0.0, 0.0, 1.621001967522457E9, 2021-05-14 16:19:27.522
23.0, 8.12867259979248, -219.04220581054688, 36.073204040527344, 388.73828125, 0.03200000151991844, -0.04800000041723251, 1.055999994277954, 0.0, 0.0, 0.0, 0.0, 0.0, 1.621001967522457E9, 2021-05-14 16:19:27.522
24.0, 15.85904598236084, -212.02615356445312, 41.70175552368164, 405.39581298828125, 0.03200000151991844, -0.04800000041723251, 1.055999994277954, 0.0, 0.0, 0.0, 0.0, 0.0, 1.6210019675232084E9, 2021-05-14 16:19:27.523
24.0, 23.312665939331055, -220.1005859375, 41.525978088378906, 402.4412841796875, 0.03200000151991844, -0.04800000041723251, 1.055999994277954, 0.0, 0.0, 0.0, 0.0, 0.0, 1.6210019675232084E9, 2021-05-14 16:19:27.523
25.0, 16.726701736450195, -226.29013061523438, 37.49810791015625, 401.06500244140625, 0.03200000151991844, -0.04800000041723251, 1.055999994277954, 0.0, 0.0, 0.0, 0.0, 0.0, 1.621001967535378E9, 2021-05-14 16:19:27.535
25.0, 20.732135772705078, -230.81166076660156, 29.906110763549805, 398.06561279296875, 0.03200000151991844, -0.04800000041723251, 1.055999994277954, 0.0, 0.0, 0.0, 0.0, 0.0, 1.621001967535378E9, 2021-05-14 16:19:27.535
26.0, 35.500999450683594, -223.09999084472656, 36.44345474243164, 407.0076904296875, 0.03200000151991844, -0.04800000041723251, 1.055999994277954, 0.0, 0.0, 0.0, 0.0, 0.0, 1.6210019675511608E9, 2021-05-14 16:19:27.551
26.0, 37.34477233886719, -217.07501220703125, 37.266231536865234, 408.48870849609375, 0.03200000151991844, -0.04800000041723251, 1.055999994277954, 0.0, 0.0, 0.0, 0.0, 0.0, 1.6210019675511608E9, 2021-05-14 16:19:27.551
27.0, 29.072113037109375, -221.63021850585938, 35.96848678588867, 396.2106018066406, 0.03200000151991844, -0.04800000041723251, 1.055999994277954, 0.0, 0.0, 0.0, 0.0, 0.0, 1.6210019675519495E9, 2021-05-14 16:19:27.551
27.0, 28.391450881958008, -215.07791137695312, 44.113990783691406, 389.9388122558594, 0.03200000151991844, -0.04800000041723251, 1.055999994277954, 0.0, 0.0, 0.0, 0.0, 0.0, 1.6210019675519495E9, 2021-05-14 16:19:27.551
28.0, 37.07175827026367, -214.91708374023438, 47.158267974853516, 403.7726745605469, 0.03200000151991844, -0.04800000041723251, 1.055999994277954, 0.0, 0.0, 0.0, 0.0, 0.0, 1.6210019675654955E9, 2021-05-14 16:19:27.565
28.0, 45.733367919921875, -216.2933807373047, 49.38351058959961, 398.2451171875, 0.03200000151991844, -0.04800000041723251, 1.055999994277954, 0.0, 0.0, 0.0, 0.0, 0.0, 1.6210019675654955E9, 2021-05-14 16:19:27.565
29.0, 43.68764114379883, -222.7447052001953, 40.11603546142578, 384.1232604980469, 0.03200000151991844, -0.04800000041723251, 1.055999994277954, 0.0, 0.0, 0.0, 0.0, 0.0, 1.621001967597515E9, 2021-05-14 16:19:27.597
29.0, 42.44599533081055, -221.4656524658203, 40.61344528198242, 379.45587158203125, 0.03200000151991844, -0.04800000041723251, 1.055999994277954, 0.0, 0.0, 0.0, 0.0, 0.0, 1.621001967597515E9, 2021-05-14 16:19:27.597
30.0, 48.246578216552734, -213.21917724609375, 44.779693603515625, 379.511962890625, 0.03200000151991844, -0.04800000041723251, 1.055999994277954, 0.0, 0.0, 0.0, 0.0, 0.0, 1.6210019675982704E9, 2021-05-14 16:19:27.598
30.0, 46.07743835449219, -211.68582153320312, 44.495460510253906, 377.4400634765625, 0.03200000151991844, -0.04800000041723251, 1.055999994277954, 0.0, 0.0, 0.0, 0.0, 0.0, 1.6210019675982704E9, 2021-05-14 16:19:27.598
31.0, 38.53031921386719, -215.5379180908203, 39.36431884765625, 377.6419982910156, 0.03200000151991844, -0.04800000041723251, 1.055999994277954, 0.0, 0.0, 0.0, 0.0, 0.0, 1.6210019675989847E9, 2021-05-14 16:19:27.598
31.0, 34.04991912841797, -219.173095703125, 37.92819595336914, 371.5497131347656, 0.03200000151991844, -0.04800000041723251, 1.055999994277954, 0.0, 0.0, 0.0, 0.0, 0.0, 1.6210019675989847E9, 2021-05-14 16:19:27.598
32.0, 37.516807556152344, -220.93084716796875, 43.003238677978516, 388.99261474609375, 0.03200000151991844, -0.04800000041723251, 1.055999994277954, 0.0, 0.0, 0.0, 0.0, 0.0, 1.6210019675996132E9, 2021-05-14 16:19:27.599
32.0, 36.652889251708984, -227.37469482421875, 36.899723052978516, 392.048095703125, 0.03200000151991844, -0.04800000041723251, 1.055999994277954, 0.0, 0.0, 0.0, 0.0, 0.0, 1.6210019675996132E9, 2021-05-14 16:19:27.599
33.0, 30.12676429748535, -225.7889862060547, 32.71851348876953, 391.3599548339844, 0.03200000151991844, -0.04800000041723251, 1.055999994277954, 0.0, 0.0, 0.0, 0.0, 0.0, 1.6210019676103215E9, 2021-05-14 16:19:27.610
33.0, 20.49652099609375, -233.85594177246094, 30.6989688873291, 391.2926330566406, 0.03200000151991844, -0.04800000041723251, 1.055999994277954, 0.0, 0.0, 0.0, 0.0, 0.0, 1.6210019676103215E9, 2021-05-14 16:19:27.610
34.0, 30.62042999267578, -221.80972290039062, 40.35538864135742, 405.26116943359375, 0.03200000151991844, -0.04800000041723251, 1.055999994277954, 0.0, 0.0, 0.0, 0.0, 0.0, 1.621001967625452E9, 2021-05-14 16:19:27.625
34.0, 34.120975494384766, -216.30833435058594, 41.668094635009766, 405.5117492675781, 0.03200000151991844, -0.04800000041723251, 1.055999994277954, 0.0, 0.0, 0.0, 0.0, 0.0, 1.621001967625452E9, 2021-05-14 16:19:27.625
35.0, 18.13664436340332, -217.95388793945312, 39.39797592163086, 394.3070068359375, 0.03200000151991844, -0.04800000041723251, 1.055999994277954, 0.0, 0.0, 0.0, 0.0, 0.0, 1.6210019676410773E9, 2021-05-14 16:19:27.641
35.0, 10.47732925415039, -224.7268524169922, 29.846271514892578, 383.81658935546875, 0.03200000151991844, -0.04800000041723251, 1.055999994277954, 0.0, 0.0, 0.0, 0.0, 0.0, 1.6210019676410773E9, 2021-05-14 16:19:27.641
36.0, 22.7292423248291, -222.389404296875, 36.57061004638672, 394.25091552734375, 0.03200000151991844, -0.04800000041723251, 1.055999994277954, 0.0, 0.0, 0.0, 0.0, 0.0, 1.6210019676418064E9, 2021-05-14 16:19:27.641
36.0, 28.0286808013916, -214.40098571777344, 35.25416564941406, 396.2367858886719, 0.03200000151991844, -0.04800000041723251, 1.055999994277954, 0.0, 0.0, 0.0, 0.0, 0.0, 1.6210019676418064E9, 2021-05-14 16:19:27.641
37.0, 20.19359016418457, -221.87704467773438, 33.881622314453125, 390.522216796875, 0.03200000151991844, -0.04800000041723251, 1.055999994277954, 0.0, 0.0, 0.0, 0.0, 0.0, 1.6210019676553547E9, 2021-05-14 16:19:27.655
37.0, 27.325578689575195, -219.70042419433594, 41.286624908447266, 386.9020080566406, 0.03200000151991844, -0.04800000041723251, 1.055999994277954, 0.0, 0.0, 0.0, 0.0, 0.0, 1.6210019676553547E9, 2021-05-14 16:19:27.655
38.0, 39.371795654296875, -212.5272979736328, 49.02821731567383, 397.1380920410156, 0.03200000151991844, -0.04800000041723251, 1.055999994277954, 0.0, 0.0, 0.0, 0.0, 0.0, 1.6210019676710668E9, 2021-05-14 16:19:27.671
38.0, 43.4408073425293, -215.02928161621094, 43.14909744262695, 389.0374755859375, 0.03200000151991844, -0.04800000041723251, 1.055999994277954, 0.0, 0.0, 0.0, 0.0, 0.0, 1.6210019676710668E9, 2021-05-14 16:19:27.671
39.0, 29.64057731628418, -216.8057403564453, 39.86920166015625, 382.1111755371094, 0.03200000151991844, -0.04800000041723251, 1.055999994277954, 0.0, 0.0, 0.0, 0.0, 0.0, 1.6210019676717553E9, 2021-05-14 16:19:27.671
39.0, 20.103832244873047, -224.431396484375, 37.99925231933594, 379.0556945800781, 0.03200000151991844, -0.04800000041723251, 1.055999994277954, 0.0, 0.0, 0.0, 0.0, 0.0, 1.6210019676717553E9, 2021-05-14 16:19:27.671
40.0, 32.36696243286133, -213.97463989257812, 40.73311996459961, 391.038330078125, 0.03200000151991844, -0.04800000041723251, 1.055999994277954, 0.0, 0.0, 0.0, 0.0, 0.0, 1.6210019676854277E9, 2021-05-14 16:19:27.685
40.0, 31.121578216552734, -214.73757934570312, 43.343570709228516, 390.6344299316406, 0.03200000151991844, -0.04800000041723251, 1.055999994277954, 0.0, 0.0, 0.0, 0.0, 0.0, 1.6210019676854277E9, 2021-05-14 16:19:27.685
41.0, 34.11349868774414, -221.87704467773438, 42.150543212890625, 393.47674560546875, 0.03200000151991844, -0.04800000041723251, 1.055999994277954, 0.0, 0.0, 0.0, 0.0, 0.0, 1.6210019677011533E9, 2021-05-14 16:19:27.701
41.0, 24.05690574645996, -228.4181365966797, 41.73541259765625, 385.2265319824219, 0.03200000151991844, -0.04800000041723251, 1.055999994277954, 0.0, 0.0, 0.0, 0.0, 0.0, 1.6210019677011533E9, 2021-05-14 16:19:27.701
42.0, 33.171043395996094, -215.1153106689453, 44.71237564086914, 394.1125183105469, 0.03200000151991844, -0.04800000041723251, 1.055999994277954, 0.0, 0.0, 0.0, 0.0, 0.0, 1.621001967701807E9, 2021-05-14 16:19:27.701
42.0, 27.714529037475586, -218.98983764648438, 49.8023796081543, 396.4948425292969, 0.03200000151991844, -0.04800000041723251, 1.055999994277954, 0.0, 0.0, 0.0, 0.0, 0.0, 1.621001967701807E9, 2021-05-14 16:19:27.701
43.0, 14.419184684753418, -226.03955078125, 44.04667282104492, 388.8504943847656, 0.03200000151991844, -0.04800000041723251, 1.055999994277954, 0.0, 0.0, 0.0, 0.0, 0.0, 1.6210019677155502E9, 2021-05-14 16:19:27.715
43.0, 18.46949577331543, -227.0568084716797, 35.62067794799805, 382.82550048828125, 0.03200000151991844, -0.04800000041723251, 1.055999994277954, 0.0, 0.0, 0.0, 0.0, 0.0, 1.6210019677155502E9, 2021-05-14 16:19:27.715
44.0, 26.753374099731445, -217.16476440429688, 41.15572738647461, 383.4388427734375, 0.03200000151991844, -0.04800000041723251, 1.055999994277954, 0.0, 0.0, 0.0, 0.0, 0.0, 1.6210019677311852E9, 2021-05-14 16:19:27.731
44.0, 27.826725006103516, -218.94122314453125, 32.165008544921875, 385.2676696777344, 0.03200000151991844, -0.04800000041723251, 1.055999994277954, 0.0, 0.0, 0.0, 0.0, 0.0, 1.6210019677311852E9, 2021-05-14 16:19:27.731
45.0, 29.04593276977539, -226.19288635253906, 33.81430435180664, 385.9520568847656, 0.03200000151991844, -0.04800000041723251, 1.055999994277954, 0.0, 0.0, 0.0, 0.0, 0.0, 1.6210019677318814E9, 2021-05-14 16:19:27.731
45.0, 24.124225616455078, -229.4765167236328, 34.7193603515625, 384.5458679199219, 0.03200000151991844, -0.04800000041723251, 1.055999994277954, 0.0, 0.0, 0.0, 0.0, 0.0, 1.6210019677318814E9, 2021-05-14 16:19:27.731
46.0, 30.556852340698242, -225.7141876220703, 42.9583625793457, 393.9554443359375, 0.03200000151991844, -0.04800000041723251, 1.055999994277954, 0.0, 0.0, 0.0, 0.0, 0.0, 1.6210019677455888E9, 2021-05-14 16:19:27.745
46.0, 34.6370849609375, -219.513427734375, 45.31449890136719, 395.9375915527344, 0.03200000151991844, -0.04800000041723251, 1.055999994277954, 0.0, 0.0, 0.0, 0.0, 0.0, 1.6210019677455888E9, 2021-05-14 16:19:27.745
47.0, 30.874744415283203, -220.9158935546875, 40.235713958740234, 388.7196044921875, 0.03200000151991844, -0.04800000041723251, 1.055999994277954, 0.0, 0.0, 0.0, 0.0, 0.0, 1.621001967761142E9, 2021-05-14 16:19:27.761
47.0, 25.20879554748535, -223.6235809326172, 40.359130859375, 385.20782470703125, 0.03200000151991844, -0.04800000041723251, 1.055999994277954, 0.0, 0.0, 0.0, 0.0, 0.0, 1.621001967761142E9, 2021-05-14 16:19:27.761
48.0, 31.959314346313477, -218.1072235107422, 42.431034088134766, 387.53778076171875, 0.03200000151991844, -0.04800000041723251, 1.055999994277954, 0.0, 0.0, 0.0, 0.0, 0.0, 1.621001967761857E9, 2021-05-14 16:19:27.761
48.0, 31.708742141723633, -216.51776123046875, 41.94858932495117, 389.5498352050781, 0.03200000151991844, -0.04800000041723251, 1.055999994277954, 0.0, 0.0, 0.0, 0.0, 0.0, 1.621001967761857E9, 2021-05-14 16:19:27.761
49.0, 26.768333435058594, -218.36154174804688, 40.11977767944336, 384.39251708984375, 0.03200000151991844, -0.04800000041723251, 1.055999994277954, 0.0, 0.0, 0.0, 0.0, 0.0, 1.621001967775454E9, 2021-05-14 16:19:27.775
49.0, 23.207948684692383, -224.32667541503906, 40.78921890258789, 384.4822998046875, 0.03200000151991844, -0.04800000041723251, 1.055999994277954, 0.0, 0.0, 0.0, 0.0, 0.0, 1.621001967775454E9, 2021-05-14 16:19:27.775
50.0, 33.72454833984375, -220.5755615234375, 42.73396682739258, 390.38385009765625, 0.03200000151991844, -0.04800000041723251, 1.055999994277954, 0.0, 0.0, 0.0, 0.0, 0.0, 1.6210019677910783E9, 2021-05-14 16:19:27.791
50.0, 37.39712905883789, -218.38397216796875, 46.13353729248047, 396.9698181152344, 0.03200000151991844, -0.04800000041723251, 1.055999994277954, 0.0, 0.0, 0.0, 0.0, 0.0, 1.6210019677910783E9, 2021-05-14 16:19:27.791
51.0, 26.43922233581543, -224.24440002441406, 39.719608306884766, 385.9221496582031, 0.03200000151991844, -0.04800000041723251, 1.055999994277954, 0.0, 0.0, 0.0, 0.0, 0.0, 1.6210019677918546E9, 2021-05-14 16:19:27.791
51.0, 24.120485305786133, -225.7852325439453, 39.60367202758789, 391.8386535644531, 0.03200000151991844, -0.04800000041723251, 1.055999994277954, 0.0, 0.0, 0.0, 0.0, 0.0, 1.6210019677918546E9, 2021-05-14 16:19:27.791
52.0, 32.35200500488281, -223.27951049804688, 38.69861602783203, 397.8860778808594, 0.03200000151991844, -0.04800000041723251, 1.055999994277954, 0.0, 0.0, 0.0, 0.0, 0.0, 1.6210019678217163E9, 2021-05-14 16:19:27.821
52.0, 32.273468017578125, -228.5078887939453, 35.43368148803711, 389.7929382324219, 0.03200000151991844, -0.04800000041723251, 1.055999994277954, 0.0, 0.0, 0.0, 0.0, 0.0, 1.6210019678217163E9, 2021-05-14 16:19:27.821
53.0, 19.49422836303711, -227.46070861816406, 31.757360458374023, 380.98175048828125, 0.03200000151991844, -0.04800000041723251, 1.055999994277954, 0.0, 0.0, 0.0, 0.0, 0.0, 1.6210019678225205E9, 2021-05-14 16:19:27.822
53.0, 21.446456909179688, -223.2869873046875, 34.38650894165039, 380.9256286621094, 0.03200000151991844, -0.04800000041723251, 1.055999994277954, 0.0, 0.0, 0.0, 0.0, 0.0, 1.6210019678225205E9, 2021-05-14 16:19:27.822
54.0, 31.192636489868164, -225.3701171875, 39.89912414550781, 384.3439025878906, 0.03200000151991844, -0.04800000041723251, 1.055999994277954, 0.0, 0.0, 0.0, 0.0, 0.0, 1.621001967823196E9, 2021-05-14 16:19:27.823
54.0, 34.6370849609375, -223.2869873046875, 35.66929626464844, 387.1600646972656, 0.03200000151991844, -0.04800000041723251, 1.055999994277954, 0.0, 0.0, 0.0, 0.0, 0.0, 1.621001967823196E9, 2021-05-14 16:19:27.823
55.0, 21.199623107910156, -218.84397888183594, 33.25706100463867, 379.4633483886719, 0.03200000151991844, -0.04800000041723251, 1.055999994277954, 0.0, 0.0, 0.0, 0.0, 0.0, 1.6210019678353295E9, 2021-05-14 16:19:27.835
55.0, 15.589773178100586, -224.83155822753906, 35.71043395996094, 382.99005126953125, 0.03200000151991844, -0.04800000041723251, 1.055999994277954, 0.0, 0.0, 0.0, 0.0, 0.0, 1.6210019678353295E9, 2021-05-14 16:19:27.835
56.0, 27.112403869628906, -215.74734497070312, 41.82891082763672, 397.0520935058594, 0.03200000151991844, -0.04800000041723251, 1.055999994277954, 0.0, 0.0, 0.0, 0.0, 0.0, 1.6210019678523073E9, 2021-05-14 16:19:27.852
56.0, 30.62042999267578, -216.27467346191406, 43.06681823730469, 398.0992736816406, 0.03200000151991844, -0.04800000041723251, 1.055999994277954, 0.0, 0.0, 0.0, 0.0, 0.0, 1.6210019678523073E9, 2021-05-14 16:19:27.852
57.0, 24.55431365966797, -223.65724182128906, 35.53091812133789, 384.3700866699219, 0.03200000151991844, -0.04800000041723251, 1.055999994277954, 0.0, 0.0, 0.0, 0.0, 0.0, 1.6210019678661273E9, 2021-05-14 16:19:27.866
57.0, 33.021446228027344, -225.68800354003906, 35.8749885559082, 378.5433349609375, 0.03200000151991844, -0.04800000041723251, 1.055999994277954, 0.0, 0.0, 0.0, 0.0, 0.0, 1.6210019678661273E9, 2021-05-14 16:19:27.866
58.0, 34.92505645751953, -221.75363159179688, 38.814552307128906, 387.14508056640625, 0.03200000151991844, -0.04800000041723251, 1.055999994277954, 0.0, 0.0, 0.0, 0.0, 0.0, 1.6210019678668876E9, 2021-05-14 16:19:27.866
58.0, 43.874637603759766, -214.53561401367188, 50.318485260009766, 398.996826171875, 0.03200000151991844, -0.04800000041723251, 1.055999994277954, 0.0, 0.0, 0.0, 0.0, 0.0, 1.6210019678668876E9, 2021-05-14 16:19:27.866
59.0, 35.92734909057617, -223.75820922851562, 43.90455627441406, 393.5029296875, 0.03200000151991844, -0.04800000041723251, 1.055999994277954, 0.0, 0.0, 0.0, 0.0, 0.0, 1.6210019678811932E9, 2021-05-14 16:19:27.881
59.0, 26.499061584472656, -227.21388244628906, 44.49171829223633, 392.8297424316406, 0.03200000151991844, -0.04800000041723251, 1.055999994277954, 0.0, 0.0, 0.0, 0.0, 0.0, 1.6210019678811932E9, 2021-05-14 16:19:27.881
60.0, 31.940614700317383, -224.4351348876953, 46.27191162109375, 406.6412048339844, 0.03200000151991844, -0.04800000041723251, 1.055999994277954, 0.0, 0.0, 0.0, 0.0, 0.0, 1.6210019678818336E9, 2021-05-14 16:19:27.881
60.0, 31.465648651123047, -222.4791717529297, 44.60017776489258, 406.9403991699219, 0.03200000151991844, -0.04800000041723251, 1.055999994277954, 0.0, 0.0, 0.0, 0.0, 0.0, 1.6210019678818336E9, 2021-05-14 16:19:27.881
61.0, 18.196483612060547, -227.988037109375, 42.666648864746094, 397.1605529785156, 0.03200000151991844, -0.04800000041723251, 1.055999994277954, 0.0, 0.0, 0.0, 0.0, 0.0, 1.6210019679109032E9, 2021-05-14 16:19:27.910
61.0, 12.653951644897461, -229.6036834716797, 33.48893356323242, 384.0297546386719, 0.03200000151991844, -0.04800000041723251, 1.055999994277954, 0.0, 0.0, 0.0, 0.0, 0.0, 1.6210019679109032E9, 2021-05-14 16:19:27.910
62.0, 19.524147033691406, -219.4274139404297, 36.14052200317383, 383.65203857421875, 0.03200000151991844, -0.04800000041723251, 1.055999994277954, 0.0, 0.0, 0.0, 0.0, 0.0, 1.6210019679275336E9, 2021-05-14 16:19:27.927
62.0, 26.345726013183594, -217.16476440429688, 27.18720245361328, 378.8238220214844, 0.03200000151991844, -0.04800000041723251, 1.055999994277954, 0.0, 0.0, 0.0, 0.0, 0.0, 1.6210019679275336E9, 2021-05-14 16:19:27.927
63.0, 28.694381713867188, -222.99900817871094, 38.64251708984375, 379.4222106933594, 0.03200000151991844, -0.04800000041723251, 1.055999994277954, 0.0, 0.0, 0.0, 0.0, 0.0, 1.6210019679282227E9, 2021-05-14 16:19:27.928
63.0, 27.714529037475586, -226.01712036132812, 39.43537521362305, 379.19781494140625, 0.03200000151991844, -0.04800000041723251, 1.055999994277954, 0.0, 0.0, 0.0, 0.0, 0.0, 1.6210019679282227E9, 2021-05-14 16:19:27.928
64.0, 29.56203842163086, -222.7372283935547, 45.66604995727539, 396.5210266113281, 0.03200000151991844, -0.04800000041723251, 1.055999994277954, 0.0, 0.0, 0.0, 0.0, 0.0, 1.6210019679288907E9, 2021-05-14 16:19:27.928
64.0, 31.013120651245117, -220.77377319335938, 45.93532180786133, 393.596435546875, 0.03200000151991844, -0.04800000041723251, 1.055999994277954, 0.0, 0.0, 0.0, 0.0, 0.0, 1.6210019679288907E9, 2021-05-14 16:19:27.928
65.0, 20.773273468017578, -228.73976135253906, 38.893089294433594, 388.51763916015625, 0.03200000151991844, -0.04800000041723251, 1.055999994277954, 0.0, 0.0, 0.0, 0.0, 0.0, 1.621001967929601E9, 2021-05-14 16:19:27.929
65.0, 24.947002410888672, -230.89019775390625, 37.097938537597656, 384.8301086425781, 0.03200000151991844, -0.04800000041723251, 1.055999994277954, 0.0, 0.0, 0.0, 0.0, 0.0, 1.621001967929601E9, 2021-05-14 16:19:27.929
66.0, 34.86521911621094, -224.61839294433594, 38.36576461791992, 398.1590881347656, 0.03200000151991844, -0.04800000041723251, 1.055999994277954, 0.0, 0.0, 0.0, 0.0, 0.0, 1.6210019679564812E9, 2021-05-14 16:19:27.956
66.0, 33.68341064453125, -222.7783660888672, 43.59788513183594, 399.9056396484375, 0.03200000151991844, -0.04800000041723251, 1.055999994277954, 0.0, 0.0, 0.0, 0.0, 0.0, 1.6210019679564812E9, 2021-05-14 16:19:27.956
67.0, 26.77955436706543, -225.11953735351562, 44.12520980834961, 387.36199951171875, 0.03200000151991844, -0.04800000041723251, 1.055999994277954, 0.0, 0.0, 0.0, 0.0, 0.0, 1.6210019679717412E9, 2021-05-14 16:19:27.971
67.0, 20.90791130065918, -220.9420623779297, 48.3812141418457, 391.4833679199219, 0.03200000151991844, -0.04800000041723251, 1.055999994277954, 0.0, 0.0, 0.0, 0.0, 0.0, 1.6210019679717412E9, 2021-05-14 16:19:27.971
68.0, 23.14811134338379, -213.5482940673828, 49.91083526611328, 391.62548828125, 0.03200000151991844, -0.04800000041723251, 1.055999994277954, 0.0, 0.0, 0.0, 0.0, 0.0, 1.6210019679724655E9, 2021-05-14 16:19:27.972
68.0, 27.834205627441406, -210.08888244628906, 53.130889892578125, 399.71490478515625, 0.03200000151991844, -0.04800000041723251, 1.055999994277954, 0.0, 0.0, 0.0, 0.0, 0.0, 1.6210019679724655E9, 2021-05-14 16:19:27.972
69.0, 17.504602432250977, -218.327880859375, 47.962345123291016, 394.359375, 0.03200000151991844, -0.04800000041723251, 1.055999994277954, 0.0, 0.0, 0.0, 0.0, 0.0, 1.62100196797321E9, 2021-05-14 16:19:27.973
69.0, 14.677237510681152, -224.9849090576172, 42.397377014160156, 391.05328369140625, 0.03200000151991844, -0.04800000041723251, 1.055999994277954, 0.0, 0.0, 0.0, 0.0, 0.0, 1.62100196797321E9, 2021-05-14 16:19:27.973
70.0, 31.61150360107422, -218.56723022460938, 49.33115005493164, 390.6344299316406, 0.03200000151991844, -0.04800000041723251, 1.055999994277954, 0.0, 0.0, 0.0, 0.0, 0.0, 1.621001967985493E9, 2021-05-14 16:19:27.985
70.0, 39.10626220703125, -213.33511352539062, 49.880916595458984, 396.2255859375, 0.03200000151991844, -0.04800000041723251, 1.055999994277954, 0.0, 0.0, 0.0, 0.0, 0.0, 1.621001967985493E9, 2021-05-14 16:19:27.985
71.0, 34.97367477416992, -225.56459045410156, 40.85279846191406, 383.2855224609375, 0.03200000151991844, -0.04800000041723251, 1.055999994277954, 0.0, 0.0, 0.0, 0.0, 0.0, 1.621001968018963E9, 2021-05-14 16:19:28.018
71.0, 24.34861946105957, -225.90118408203125, 39.2446403503418, 381.34075927734375, 0.03200000151991844, -0.04800000041723251, 1.055999994277954, 0.0, 0.0, 0.0, 0.0, 0.0, 1.621001968018963E9, 2021-05-14 16:19:28.018
72.0, 35.699214935302734, -221.87330627441406, 41.63069534301758, 387.1338806152344, 0.04800000041723251, -0.04800000041723251, 1.055999994277954, 0.0, 0.0, 0.0, 0.0, 0.0, 1.6210019680195427E9, 2021-05-14 16:19:28.019
72.0, 33.9040641784668, -219.6368408203125, 42.2963981628418, 393.55902099609375, 0.04800000041723251, -0.04800000041723251, 1.055999994277954, 0.0, 0.0, 0.0, 0.0, 0.0, 1.6210019680195427E9, 2021-05-14 16:19:28.019
73.0, 25.8109188079834, -226.884765625, 37.6888427734375, 387.646240234375, 0.04800000041723251, -0.04800000041723251, 1.055999994277954, 0.0, 0.0, 0.0, 0.0, 0.0, 1.621001968020313E9, 2021-05-14 16:19:28.020
73.0, 23.43608283996582, -223.82553100585938, 37.60282516479492, 391.3861389160156, 0.04800000041723251, -0.04800000041723251, 1.055999994277954, 0.0, 0.0, 0.0, 0.0, 0.0, 1.621001968020313E9, 2021-05-14 16:19:28.020
74.0, 28.133398056030273, -226.68655395507812, 47.36022186279297, 400.8406066894531, 0.04800000041723251, -0.04800000041723251, 1.055999994277954, 0.0, 0.0, 0.0, 0.0, 0.0, 1.6210019680210454E9, 2021-05-14 16:19:28.021
74.0, 27.34427833557129, -223.26828002929688, 44.910587310791016, 400.88922119140625, 0.04800000041723251, -0.04800000041723251, 1.055999994277954, 0.0, 0.0, 0.0, 0.0, 0.0, 1.6210019680210454E9, 2021-05-14 16:19:28.021
75.0, 16.86507797241211, -225.56459045410156, 43.98309326171875, 392.470703125, 0.04800000041723251, -0.04800000041723251, 1.055999994277954, 0.0, 0.0, 0.0, 0.0, 0.0, 1.6210019680304205E9, 2021-05-14 16:19:28.030
75.0, 15.103586196899414, -234.15887451171875, 35.90116882324219, 383.7679748535156, 0.04800000041723251, -0.04800000041723251, 1.055999994277954, 0.0, 0.0, 0.0, 0.0, 0.0, 1.6210019680304205E9, 2021-05-14 16:19:28.030
76.0, 27.53501319885254, -221.6339569091797, 43.40340805053711, 390.7989807128906, 0.04800000041723251, -0.04800000041723251, 1.055999994277954, 0.0, 0.0, 0.0, 0.0, 0.0, 1.6210019680454009E9, 2021-05-14 16:19:28.045
76.0, 41.73915481567383, -225.2803497314453, 47.27046585083008, 394.7520446777344, 0.04800000041723251, -0.04800000041723251, 1.055999994277954, 0.0, 0.0, 0.0, 0.0, 0.0, 1.6210019680454009E9, 2021-05-14 16:19:28.045
77.0, 36.237762451171875, -229.2222137451172, 48.3176383972168, 388.8280334472656, 0.04800000041723251, -0.04800000041723251, 1.055999994277954, 0.0, 0.0, 0.0, 0.0, 0.0, 1.621001968077466E9, 2021-05-14 16:19:28.077
77.0, 31.99297332763672, -232.0981903076172, 47.199405670166016, 390.346435546875, 0.04800000041723251, -0.04800000041723251, 1.055999994277954, 0.0, 0.0, 0.0, 0.0, 0.0, 1.621001968077466E9, 2021-05-14 16:19:28.077
78.0, 40.044979095458984, -224.22195434570312, 54.548309326171875, 394.7183837890625, 0.04800000041723251, -0.04800000041723251, 1.055999994277954, 0.0, 0.0, 0.0, 0.0, 0.0, 1.6210019680781403E9, 2021-05-14 16:19:28.078
78.0, 41.45117950439453, -223.48146057128906, 52.068756103515625, 393.6973876953125, 0.04800000041723251, -0.04800000041723251, 1.055999994277954, 0.0, 0.0, 0.0, 0.0, 0.0, 1.6210019680781403E9, 2021-05-14 16:19:28.078
79.0, 31.09539794921875, -232.67413330078125, 45.63612747192383, 385.38360595703125, 0.04800000041723251, -0.04800000041723251, 1.055999994277954, 0.0, 0.0, 0.0, 0.0, 0.0, 1.621001968078858E9, 2021-05-14 16:19:28.078
79.0, 36.413536071777344, -229.71961975097656, 46.69451904296875, 384.3962707519531, 0.04800000041723251, -0.04800000041723251, 1.055999994277954, 0.0, 0.0, 0.0, 0.0, 0.0, 1.621001968078858E9, 2021-05-14 16:19:28.078
80.0, 37.48314666748047, -221.6414337158203, 44.70115280151367, 383.0498962402344, 0.04800000041723251, -0.04800000041723251, 1.055999994277954, 0.0, 0.0, 0.0, 0.0, 0.0, 1.6210019680797017E9, 2021-05-14 16:19:28.079
80.0, 41.88127136230469, -222.7858428955078, 50.87947082519531, 393.76470947265625, 0.04800000041723251, -0.04800000041723251, 1.055999994277954, 0.0, 0.0, 0.0, 0.0, 0.0, 1.6210019680797017E9, 2021-05-14 16:19:28.079
81.0, 22.53850746154785, -233.51934814453125, 44.98912811279297, 382.49639892578125, 0.04800000041723251, -0.04800000041723251, 1.055999994277954, 0.0, 0.0, 0.0, 0.0, 0.0, 1.6210019680904872E9, 2021-05-14 16:19:28.090
81.0, 14.407964706420898, -228.00674438476562, 42.670387268066406, 379.3660888671875, 0.04800000041723251, -0.04800000041723251, 1.055999994277954, 0.0, 0.0, 0.0, 0.0, 0.0, 1.6210019680904872E9, 2021-05-14 16:19:28.090
82.0, 26.01661491394043, -224.3453826904297, 47.16948699951172, 387.0067138671875, 0.03200000151991844, -0.04800000041723251, 1.055999994277954, 0.0, 0.0, 0.0, 0.0, 0.0, 1.621001968105334E9, 2021-05-14 16:19:28.105
82.0, 36.9782600402832, -220.64288330078125, 46.61224365234375, 387.12640380859375, 0.03200000151991844, -0.04800000041723251, 1.055999994277954, 0.0, 0.0, 0.0, 0.0, 0.0, 1.621001968105334E9, 2021-05-14 16:19:28.105
83.0, 24.62911033630371, -220.85231018066406, 40.680763244628906, 382.2570495605469, 0.03200000151991844, -0.04800000041723251, 1.055999994277954, 0.0, 0.0, 0.0, 0.0, 0.0, 1.6210019681218207E9, 2021-05-14 16:19:28.121
83.0, 24.075605392456055, -229.23342895507812, 38.11518859863281, 383.4463195800781, 0.03200000151991844, -0.04800000041723251, 1.055999994277954, 0.0, 0.0, 0.0, 0.0, 0.0, 1.6210019681218207E9, 2021-05-14 16:19:28.121
84.0, 29.838790893554688, -224.36781311035156, 40.706939697265625, 393.7535095214844, 0.03200000151991844, -0.04800000041723251, 1.055999994277954, 0.0, 0.0, 0.0, 0.0, 0.0, 1.6210019681225398E9, 2021-05-14 16:19:28.122
84.0, 31.0804386138916, -219.76400756835938, 41.30158615112305, 393.0765686035156, 0.03200000151991844, -0.04800000041723251, 1.055999994277954, 0.0, 0.0, 0.0, 0.0, 0.0, 1.6210019681225398E9, 2021-05-14 16:19:28.122
85.0, 27.71078872680664, -226.27890014648438, 40.856536865234375, 387.67242431640625, 0.03200000151991844, -0.04800000041723251, 1.055999994277954, 0.0, 0.0, 0.0, 0.0, 0.0, 1.621001968151884E9, 2021-05-14 16:19:28.151
85.0, 27.561193466186523, -232.2814483642578, 38.792110443115234, 385.4322204589844, 0.03200000151991844, -0.04800000041723251, 1.055999994277954, 0.0, 0.0, 0.0, 0.0, 0.0, 1.621001968151884E9, 2021-05-14 16:19:28.151
86.0, 32.25102615356445, -224.76051330566406, 40.84531784057617, 393.7796630859375, 0.03200000151991844, -0.04800000041723251, 1.055999994277954, 0.0, 0.0, 0.0, 0.0, 0.0, 1.6210019681524465E9, 2021-05-14 16:19:28.152
86.0, 35.4935188293457, -220.42970275878906, 45.58003234863281, 395.0213317871094, 0.03200000151991844, -0.04800000041723251, 1.055999994277954, 0.0, 0.0, 0.0, 0.0, 0.0, 1.6210019681524465E9, 2021-05-14 16:19:28.152
87.0, 26.648656845092773, -221.5591583251953, 38.384464263916016, 384.583251953125, 0.03200000151991844, -0.04800000041723251, 1.055999994277954, 0.0, 0.0, 0.0, 0.0, 0.0, 1.6210019681531703E9, 2021-05-14 16:19:28.153
87.0, 22.725502014160156, -222.42306518554688, 40.841575622558594, 387.0478515625, 0.03200000151991844, -0.04800000041723251, 1.055999994277954, 0.0, 0.0, 0.0, 0.0, 0.0, 1.6210019681531703E9, 2021-05-14 16:19:28.153
88.0, 20.006595611572266, -224.14341735839844, 43.10795593261719, 389.5872497558594, 0.03200000151991844, -0.04800000041723251, 1.055999994277954, 0.0, 0.0, 0.0, 0.0, 0.0, 1.6210019681653893E9, 2021-05-14 16:19:28.165
88.0, 27.594852447509766, -220.93458557128906, 45.41921615600586, 395.7393798828125, 0.03200000151991844, -0.04800000041723251, 1.055999994277954, 0.0, 0.0, 0.0, 0.0, 0.0, 1.6210019681653893E9, 2021-05-14 16:19:28.165
89.0, 21.476375579833984, -222.96536254882812, 39.813106536865234, 391.2477722167969, 0.03200000151991844, -0.04800000041723251, 1.055999994277954, 0.0, 0.0, 0.0, 0.0, 0.0, 1.6210019681819105E9, 2021-05-14 16:19:28.181
89.0, 23.230388641357422, -224.38278198242188, 42.36745834350586, 386.81597900390625, 0.03200000151991844, -0.04800000041723251, 1.055999994277954, 0.0, 0.0, 0.0, 0.0, 0.0, 1.6210019681819105E9, 2021-05-14 16:19:28.181
90.0, 34.91383743286133, -224.43887329101562, 43.328609466552734, 391.5881042480469, 0.03200000151991844, -0.04800000041723251, 1.055999994277954, 0.0, 0.0, 0.0, 0.0, 0.0, 1.6210019681825771E9, 2021-05-14 16:19:28.182
90.0, 38.29844665527344, -227.83096313476562, 46.537445068359375, 395.7393798828125, 0.03200000151991844, -0.04800000041723251, 1.055999994277954, 0.0, 0.0, 0.0, 0.0, 0.0, 1.6210019681825771E9, 2021-05-14 16:19:28.182
91.0, 28.94121551513672, -225.2915802001953, 44.768470764160156, 384.7104187011719, 0.03200000151991844, -0.04800000041723251, 1.055999994277954, 0.0, 0.0, 0.0, 0.0, 0.0, 1.6210019681953661E9, 2021-05-14 16:19:28.195
91.0, 24.296260833740234, -226.82493591308594, 40.53490447998047, 381.026611328125, 0.03200000151991844, -0.04800000041723251, 1.055999994277954, 0.0, 0.0, 0.0, 0.0, 0.0, 1.6210019681953661E9, 2021-05-14 16:19:28.195
92.0, 39.16984176635742, -227.12039184570312, 44.18878936767578, 390.9111633300781, 0.03200000151991844, -0.04800000041723251, 1.055999994277954, 0.0, 0.0, 0.0, 0.0, 0.0, 1.621001968211053E9, 2021-05-14 16:19:28.211
92.0, 38.44804000854492, -215.92686462402344, 48.542030334472656, 396.5060729980469, 0.03200000151991844, -0.04800000041723251, 1.055999994277954, 0.0, 0.0, 0.0, 0.0, 0.0, 1.621001968211053E9, 2021-05-14 16:19:28.211
93.0, 31.241254806518555, -225.29905700683594, 39.83554458618164, 394.2434387207031, 0.03200000151991844, -0.04800000041723251, 1.055999994277954, 0.0, 0.0, 0.0, 0.0, 0.0, 1.6210019682119193E9, 2021-05-14 16:19:28.211
93.0, 27.5125732421875, -229.1361846923828, 42.86860275268555, 392.070556640625, 0.03200000151991844, -0.04800000041723251, 1.055999994277954, 0.0, 0.0, 0.0, 0.0, 0.0, 1.6210019682119193E9, 2021-05-14 16:19:28.211
94.0, 32.512821197509766, -222.57640075683594, 44.13642883300781, 402.87884521484375, 0.03200000151991844, -0.04800000041723251, 1.055999994277954, 0.0, 0.0, 0.0, 0.0, 0.0, 1.6210019682253785E9, 2021-05-14 16:19:28.225
94.0, 34.52114486694336, -219.5994415283203, 49.581722259521484, 398.0057678222656, 0.03200000151991844, -0.04800000041723251, 1.055999994277954, 0.0, 0.0, 0.0, 0.0, 0.0, 1.6210019682253785E9, 2021-05-14 16:19:28.225
95.0, 19.770980834960938, -223.09999084472656, 44.68993377685547, 391.7414245605469, 0.03200000151991844, -0.04800000041723251, 1.055999994277954, 0.0, 0.0, 0.0, 0.0, 0.0, 1.6210019682418504E9, 2021-05-14 16:19:28.241
95.0, 12.754928588867188, -224.13967895507812, 41.78777313232422, 386.9730529785156, 0.03200000151991844, -0.04800000041723251, 1.055999994277954, 0.0, 0.0, 0.0, 0.0, 0.0, 1.6210019682418504E9, 2021-05-14 16:19:28.241
96.0, 27.25078010559082, -216.4242706298828, 47.18818664550781, 398.5368347167969, 0.03200000151991844, -0.04800000041723251, 1.055999994277954, 0.0, 0.0, 0.0, 0.0, 0.0, 1.621001968242396E9, 2021-05-14 16:19:28.242
96.0, 33.78812789916992, -223.4627685546875, 47.162010192871094, 400.42547607421875, 0.03200000151991844, -0.04800000041723251, 1.055999994277954, 0.0, 0.0, 0.0, 0.0, 0.0, 1.621001968242396E9, 2021-05-14 16:19:28.242
97.0, 32.50907897949219, -228.29844665527344, 45.639869689941406, 395.1709289550781, 0.03200000151991844, -0.04800000041723251, 1.055999994277954, 0.0, 0.0, 0.0, 0.0, 0.0, 1.6210019682553644E9, 2021-05-14 16:19:28.255
97.0, 36.940860748291016, -222.37818908691406, 44.83205032348633, 392.070556640625, 0.03200000151991844, -0.04800000041723251, 1.055999994277954, 0.0, 0.0, 0.0, 0.0, 0.0, 1.6210019682553644E9, 2021-05-14 16:19:28.255
98.0, 37.946895599365234, -226.31256103515625, 50.41197967529297, 394.1237487792969, 0.03200000151991844, -0.04800000041723251, 1.055999994277954, 0.0, 0.0, 0.0, 0.0, 0.0, 1.6210019682709973E9, 2021-05-14 16:19:28.270
98.0, 36.944602966308594, -218.6644744873047, 52.76063919067383, 395.9151611328125, 0.03200000151991844, -0.04800000041723251, 1.055999994277954, 0.0, 0.0, 0.0, 0.0, 0.0, 1.6210019682709973E9, 2021-05-14 16:19:28.270
99.0, 29.51342010498047, -220.29881286621094, 41.98972702026367, 386.1577453613281, 0.03200000151991844, -0.04800000041723251, 1.055999994277954, 0.0, 0.0, 0.0, 0.0, 0.0, 1.6210019682718008E9, 2021-05-14 16:19:28.271
99.0, 28.731781005859375, -226.48834228515625, 43.818538665771484, 387.9566650390625, 0.03200000151991844, -0.04800000041723251, 1.055999994277954, 0.0, 0.0, 0.0, 0.0, 0.0, 1.6210019682718008E9, 2021-05-14 16:19:28.271
100.0, 30.063186645507812, -223.65724182128906, 38.02543258666992, 386.6065368652344, 0.03200000151991844, -0.04800000041723251, 1.055999994277954, 0.0, 0.0, 0.0, 0.0, 0.0, 1.6210019682860253E9, 2021-05-14 16:19:28.286
100.0, 31.940614700317383, -226.52200317382812, 36.44345474243164, 392.6689147949219, 0.03200000151991844, -0.04800000041723251, 1.055999994277954, 0.0, 0.0, 0.0, 0.0, 0.0, 1.6210019682860253E9, 2021-05-14 16:19:28.286
0.0, 17.6411075592041, -230.53305053710938, 35.17936706542969, 387.6275329589844, 0.03200000151991844, -0.04800000041723251, 1.055999994277954, 0.0, 0.0, 0.0, 0.0, 0.0, 1.6210019682869115E9, 2021-05-14 16:19:28.286
1.0, 17.454113006591797, -230.83596801757812, 40.815399169921875, 384.3551330566406, 0.03200000151991844, -0.04800000041723251, 1.055999994277954, 0.0, 0.0, 0.0, 0.0, 0.0, 1.6210019683003893E9, 2021-05-14 16:19:28.300
1.0, 13.654375076293945, -220.92149353027344, 43.34730911254883, 397.36248779296875, 0.03200000151991844, -0.04800000041723251, 1.055999994277954, 0.0, 0.0, 0.0, 0.0, 0.0, 1.6210019683003893E9, 2021-05-14 16:19:28.300
2.0, 14.140562057495117, -216.55703735351562, 45.781986236572266, 396.58087158203125, 0.03200000151991844, -0.04800000041723251, 1.055999994277954, 0.0, 0.0, 0.0, 0.0, 0.0, 1.621001968316043E9, 2021-05-14 16:19:28.316
2.0, 7.330204010009766, -226.4228973388672, 38.560237884521484, 382.80682373046875, 0.03200000151991844, -0.04800000041723251, 1.055999994277954, 0.0, 0.0, 0.0, 0.0, 0.0, 1.621001968316043E9, 2021-05-14 16:19:28.316
3.0, 12.532404899597168, -220.51011657714844, 34.48748779296875, 376.99127197265625, 0.03200000151991844, -0.04800000041723251, 1.055999994277954, 0.0, 0.0, 0.0, 0.0, 0.0, 1.6210019683167703E9, 2021-05-14 16:19:28.316
3.0, 23.98771858215332, -225.6487274169922, 38.20120620727539, 383.64080810546875, 0.03200000151991844, -0.04800000041723251, 1.055999994277954, 0.0, 0.0, 0.0, 0.0, 0.0, 1.6210019683167703E9, 2021-05-14 16:19:28.316
4.0, 36.91655349731445, -225.63377380371094, 41.30906677246094, 391.9994812011719, 0.03200000151991844, -0.04800000041723251, 1.055999994277954, 0.0, 0.0, 0.0, 0.0, 0.0, 1.6210019683304112E9, 2021-05-14 16:19:28.330
4.0, 34.26122283935547, -230.17027282714844, 44.22618865966797, 388.8280334472656, 0.03200000151991844, -0.04800000041723251, 1.055999994277954, 0.0, 0.0, 0.0, 0.0, 0.0, 1.6210019683304112E9, 2021-05-14 16:19:28.330
5.0, 28.7860107421875, -229.00341796875, 36.24898147583008, 379.6727600097656, 0.03200000151991844, -0.04800000041723251, 1.055999994277954, 0.0, 0.0, 0.0, 0.0, 0.0, 1.62100196834616E9, 2021-05-14 16:19:28.346
5.0, 33.487064361572266, -225.1027069091797, 43.87837600708008, 391.543212890625, 0.03200000151991844, -0.04800000041723251, 1.055999994277954, 0.0, 0.0, 0.0, 0.0, 0.0, 1.62100196834616E9, 2021-05-14 16:19:28.346
6.0, 39.37366485595703, -224.014404296875, 42.2552604675293, 398.174072265625, 0.03200000151991844, -0.04800000041723251, 1.055999994277954, 0.0, 0.0, 0.0, 0.0, 0.0, 1.6210019683468425E9, 2021-05-14 16:19:28.346
6.0, 30.94019317626953, -226.31817626953125, 40.905155181884766, 394.1424560546875, 0.03200000151991844, -0.04800000041723251, 1.055999994277954, 0.0, 0.0, 0.0, 0.0, 0.0, 1.6210019683468425E9, 2021-05-14 16:19:28.346
7.0, 27.058176040649414, -226.10873413085938, 40.4301872253418, 391.883544921875, 0.03200000151991844, -0.04800000041723251, 1.055999994277954, 0.0, 0.0, 0.0, 0.0, 0.0, 1.6210019683604267E9, 2021-05-14 16:19:28.360
7.0, 31.564756393432617, -215.85768127441406, 45.22473907470703, 396.2517395019531, 0.03200000151991844, -0.04800000041723251, 1.055999994277954, 0.0, 0.0, 0.0, 0.0, 0.0, 1.6210019683604267E9, 2021-05-14 16:19:28.360
8.0, 26.72906494140625, -212.98916625976562, 50.66629409790039, 396.6781005859375, 0.03200000151991844, -0.04800000041723251, 1.055999994277954, 0.0, 0.0, 0.0, 0.0, 0.0, 1.621001968376039E9, 2021-05-14 16:19:28.376
8.0, 14.196660041809082, -225.1962127685547, 40.05619812011719, 382.4216003417969, 0.03200000151991844, -0.04800000041723251, 1.055999994277954, 0.0, 0.0, 0.0, 0.0, 0.0, 1.621001968376039E9, 2021-05-14 16:19:28.376
9.0, 8.919661521911621, -226.57997131347656, 34.25935363769531, 380.3796081542969, 0.03200000151991844, -0.04800000041723251, 1.055999994277954, 0.0, 0.0, 0.0, 0.0, 0.0, 1.6210019683767424E9, 2021-05-14 16:19:28.376
9.0, 18.1871337890625, -221.05613708496094, 42.04582595825195, 388.6448059082031, 0.03200000151991844, -0.04800000041723251, 1.055999994277954, 0.0, 0.0, 0.0, 0.0, 0.0, 1.6210019683767424E9, 2021-05-14 16:19:28.376
10.0, 23.800724029541016, -214.70204162597656, 41.35020446777344, 396.1806945800781, 0.03200000151991844, -0.04800000041723251, 1.055999994277954, 0.0, 0.0, 0.0, 0.0, 0.0, 1.621001968390436E9, 2021-05-14 16:19:28.390
10.0, 20.15806007385254, -224.0181427001953, 37.763641357421875, 390.33148193359375, 0.03200000151991844, -0.04800000041723251, 1.055999994277954, 0.0, 0.0, 0.0, 0.0, 0.0, 1.621001968390436E9, 2021-05-14 16:19:28.390
11.0, 20.401153564453125, -228.44244384765625, 32.16875076293945, 382.5936279296875, 0.03200000151991844, -0.04800000041723251, 1.055999994277954, 0.0, 0.0, 0.0, 0.0, 0.0, 1.6210019684224927E9, 2021-05-14 16:19:28.422
11.0, 27.18159294128418, -228.88748168945312, 39.9664421081543, 385.05450439453125, 0.03200000151991844, -0.04800000041723251, 1.055999994277954, 0.0, 0.0, 0.0, 0.0, 0.0, 1.6210019684224927E9, 2021-05-14 16:19:28.422
12.0, 34.485618591308594, -223.6591033935547, 36.29759979248047, 391.62548828125, 0.03200000151991844, -0.04800000041723251, 1.055999994277954, 0.0, 0.0, 0.0, 0.0, 0.0, 1.621001968423139E9, 2021-05-14 16:19:28.423
12.0, 27.74631690979004, -223.2028350830078, 32.48664093017578, 383.5772399902344, 0.03200000151991844, -0.04800000041723251, 1.055999994277954, 0.0, 0.0, 0.0, 0.0, 0.0, 1.621001968423139E9, 2021-05-14 16:19:28.423
13.0, 26.44109344482422, -227.5673065185547, 33.9040641784668, 383.0760803222656, 0.03200000151991844, -0.04800000041723251, 1.055999994277954, 0.0, 0.0, 0.0, 0.0, 0.0, 1.6210019684238944E9, 2021-05-14 16:19:28.423
13.0, 40.76490783691406, -220.98507690429688, 35.26538848876953, 392.2762451171875, 0.03200000151991844, -0.04800000041723251, 1.055999994277954, 0.0, 0.0, 0.0, 0.0, 0.0, 1.6210019684238944E9, 2021-05-14 16:19:28.423
14.0, 41.51288986206055, -223.6179656982422, 44.51416015625, 399.0491943359375, 0.03200000151991844, -0.04800000041723251, 1.055999994277954, 0.0, 0.0, 0.0, 0.0, 0.0, 1.6210019684246411E9, 2021-05-14 16:19:28.424
14.0, 26.7141056060791, -227.7767333984375, 42.72648620605469, 391.7601318359375, 0.03200000151991844, -0.04800000041723251, 1.055999994277954, 0.0, 0.0, 0.0, 0.0, 0.0, 1.6210019684246411E9, 2021-05-14 16:19:28.424
15.0, 17.18484115600586, -222.58575439453125, 44.73855209350586, 387.0665588378906, 0.03200000151991844, -0.04800000041723251, 1.055999994277954, 0.0, 0.0, 0.0, 0.0, 0.0, 1.6210019684354117E9, 2021-05-14 16:19:28.435
15.0, 23.767065048217773, -219.37318420410156, 47.42380142211914, 393.1962585449219, 0.03200000151991844, -0.04800000041723251, 1.055999994277954, 0.0, 0.0, 0.0, 0.0, 0.0, 1.6210019684354117E9, 2021-05-14 16:19:28.435
16.0, 25.292943954467773, -211.98687744140625, 51.90793991088867, 402.4450378417969, 0.03200000151991844, -0.04800000041723251, 1.055999994277954, 0.0, 0.0, 0.0, 0.0, 0.0, 1.621001968450411E9, 2021-05-14 16:19:28.450
16.0, 16.30596351623535, -224.7212371826172, 47.2555046081543, 389.79669189453125, 0.03200000151991844, -0.04800000041723251, 1.055999994277954, 0.0, 0.0, 0.0, 0.0, 0.0, 1.621001968450411E9, 2021-05-14 16:19:28.450
17.0, 19.54471778869629, -228.90992736816406, 43.096736907958984, 389.4713134765625, 0.03200000151991844, -0.04800000041723251, 1.055999994277954, 0.0, 0.0, 0.0, 0.0, 0.0, 1.6210019684661796E9, 2021-05-14 16:19:28.466
17.0, 32.327693939208984, -228.35267639160156, 44.61887741088867, 394.10504150390625, 0.03200000151991844, -0.04800000041723251, 1.055999994277954, 0.0, 0.0, 0.0, 0.0, 0.0, 1.6210019684661796E9, 2021-05-14 16:19:28.466
18.0, 36.27703094482422, -223.97325134277344, 42.670387268066406, 393.585205078125, 0.03200000151991844, -0.04800000041723251, 1.055999994277954, 0.0, 0.0, 0.0, 0.0, 0.0, 1.6210019684668837E9, 2021-05-14 16:19:28.466
18.0, 28.180145263671875, -233.850341796875, 39.345619201660156, 393.0092468261719, 0.03200000151991844, -0.04800000041723251, 1.055999994277954, 0.0, 0.0, 0.0, 0.0, 0.0, 1.6210019684668837E9, 2021-05-14 16:19:28.466
19.0, 24.410327911376953, -234.3028564453125, 36.30508041381836, 382.2757568359375, 0.03200000151991844, -0.04800000041723251, 1.055999994277954, 0.0, 0.0, 0.0, 0.0, 0.0, 1.6210019684804535E9, 2021-05-14 16:19:28.480
19.0, 29.403093338012695, -222.5745391845703, 44.87318801879883, 389.5348815917969, 0.03200000151991844, -0.04800000041723251, 1.055999994277954, 0.0, 0.0, 0.0, 0.0, 0.0, 1.6210019684804535E9, 2021-05-14 16:19:28.480
20.0, 35.13636016845703, -222.70916748046875, 46.28313064575195, 393.244873046875, 0.03200000151991844, -0.04800000041723251, 1.055999994277954, 0.0, 0.0, 0.0, 0.0, 0.0, 1.6210019684960337E9, 2021-05-14 16:19:28.496
20.0, 23.333236694335938, -233.81668090820312, 40.87897491455078, 383.4986877441406, 0.03200000151991844, -0.04800000041723251, 1.055999994277954, 0.0, 0.0, 0.0, 0.0, 0.0, 1.6210019684960337E9, 2021-05-14 16:19:28.496
21.0, 21.710119247436523, -226.8043670654297, 43.35478973388672, 389.4114685058594, 0.03200000151991844, -0.04800000041723251, 1.055999994277954, 0.0, 0.0, 0.0, 0.0, 0.0, 1.6210019684967687E9, 2021-05-14 16:19:28.496
21.0, 23.53519058227539, -224.20887756347656, 41.20060729980469, 398.8023681640625, 0.03200000151991844, -0.04800000041723251, 1.055999994277954, 0.0, 0.0, 0.0, 0.0, 0.0, 1.6210019684967687E9, 2021-05-14 16:19:28.496
22.0, 27.85103416442871, -221.9275360107422, 47.79779052734375, 394.17236328125, 0.03200000151991844, -0.04800000041723251, 1.055999994277954, 0.0, 0.0, 0.0, 0.0, 0.0, 1.6210019685103734E9, 2021-05-14 16:19:28.510
22.0, 21.455806732177734, -228.87252807617188, 38.848209381103516, 382.1186828613281, 0.03200000151991844, -0.04800000041723251, 1.055999994277954, 0.0, 0.0, 0.0, 0.0, 0.0, 1.6210019685103734E9, 2021-05-14 16:19:28.510
23.0, 25.708072662353516, -229.9870147705078, 41.911190032958984, 385.4920654296875, 0.03200000151991844, -0.04800000041723251, 1.055999994277954, 0.0, 0.0, 0.0, 0.0, 0.0, 1.6210019685260708E9, 2021-05-14 16:19:28.526
23.0, 31.714351654052734, -222.55209350585938, 46.36540985107422, 389.0674133300781, 0.03200000151991844, -0.04800000041723251, 1.055999994277954, 0.0, 0.0, 0.0, 0.0, 0.0, 1.6210019685260708E9, 2021-05-14 16:19:28.526
24.0, 33.958290100097656, -223.44593811035156, 49.207733154296875, 393.48797607421875, 0.03200000151991844, -0.04800000041723251, 1.055999994277954, 0.0, 0.0, 0.0, 0.0, 0.0, 1.621001968526825E9, 2021-05-14 16:19:28.526
24.0, 29.687326431274414, -229.4634246826172, 46.40654754638672, 384.4897766113281, 0.03200000151991844, -0.04800000041723251, 1.055999994277954, 0.0, 0.0, 0.0, 0.0, 0.0, 1.621001968526825E9, 2021-05-14 16:19:28.526
25.0, 23.538930892944336, -231.48672485351562, 42.7003059387207, 388.9215393066406, 0.03200000151991844, -0.04800000041723251, 1.055999994277954, 0.0, 0.0, 0.0, 0.0, 0.0, 1.621001968540342E9, 2021-05-14 16:19:28.540
25.0, 25.51359748840332, -229.58311462402344, 45.351898193359375, 388.7083740234375, 0.03200000151991844, -0.04800000041723251, 1.055999994277954, 0.0, 0.0, 0.0, 0.0, 0.0, 1.621001968540342E9, 2021-05-14 16:19:28.540
26.0, 29.855621337890625, -228.10211181640625, 44.85074996948242, 395.51873779296875, 0.03200000151991844, -0.04800000041723251, 1.055999994277954, 0.0, 0.0, 0.0, 0.0, 0.0, 1.6210019685560608E9, 2021-05-14 16:19:28.556
26.0, 22.40574073791504, -235.98582458496094, 42.65168762207031, 390.61944580078125, 0.03200000151991844, -0.04800000041723251, 1.055999994277954, 0.0, 0.0, 0.0, 0.0, 0.0, 1.6210019685560608E9, 2021-05-14 16:19:28.556
27.0, 22.58151626586914, -231.1314239501953, 35.52717971801758, 392.12664794921875, 0.03200000151991844, -0.04800000041723251, 1.055999994277954, 0.0, 0.0, 0.0, 0.0, 0.0, 1.621001968556769E9, 2021-05-14 16:19:28.556
27.0, 28.344701766967773, -227.61965942382812, 40.96873474121094, 397.84869384765625, 0.03200000151991844, -0.04800000041723251, 1.055999994277954, 0.0, 0.0, 0.0, 0.0, 0.0, 1.621001968556769E9, 2021-05-14 16:19:28.556
28.0, 26.99085807800293, -230.09173583984375, 38.81829071044922, 403.4847106933594, 0.03200000151991844, -0.04800000041723251, 1.055999994277954, 0.0, 0.0, 0.0, 0.0, 0.0, 1.6210019685704076E9, 2021-05-14 16:19:28.570
28.0, 12.42394733428955, -232.26087951660156, 33.997562408447266, 388.4017028808594, 0.03200000151991844, -0.04800000041723251, 1.055999994277954, 0.0, 0.0, 0.0, 0.0, 0.0, 1.6210019685704076E9, 2021-05-14 16:19:28.570
29.0, 5.03764533996582, -238.02406311035156, 34.644561767578125, 384.9684753417969, 0.03200000151991844, -0.04800000041723251, 1.055999994277954, 0.0, 0.0, 0.0, 0.0, 0.0, 1.6210019685861201E9, 2021-05-14 16:19:28.586
29.0, 12.158414840698242, -225.49539184570312, 38.425601959228516, 390.0098571777344, 0.03200000151991844, -0.04800000041723251, 1.055999994277954, 0.0, 0.0, 0.0, 0.0, 0.0, 1.6210019685861201E9, 2021-05-14 16:19:28.586
30.0, 20.22163963317871, -223.74887084960938, 37.423309326171875, 388.94024658203125, 0.03200000151991844, -0.04800000041723251, 1.055999994277954, 0.0, 0.0, 0.0, 0.0, 0.0, 1.6210019685867922E9, 2021-05-14 16:19:28.586
30.0, 22.480539321899414, -226.8043670654297, 36.39109802246094, 378.5358581542969, 0.03200000151991844, -0.04800000041723251, 1.055999994277954, 0.0, 0.0, 0.0, 0.0, 0.0, 1.6210019685867922E9, 2021-05-14 16:19:28.586
31.0, 23.045263290405273, -231.0005340576172, 36.944602966308594, 377.0548400878906, 0.03200000151991844, -0.04800000041723251, 1.055999994277954, 0.0, 0.0, 0.0, 0.0, 0.0, 1.6210019686003692E9, 2021-05-14 16:19:28.600
31.0, 30.465225219726562, -232.18234252929688, 36.38361740112305, 378.7490234375, 0.03200000151991844, -0.04800000041723251, 1.055999994277954, 0.0, 0.0, 0.0, 0.0, 0.0, 1.6210019686003692E9, 2021-05-14 16:19:28.600
32.0, 39.29887008666992, -224.3958740234375, 41.30532455444336, 384.96099853515625, 0.03200000151991844, -0.04800000041723251, 1.055999994277954, 0.0, 0.0, 0.0, 0.0, 0.0, 1.6210019686160667E9, 2021-05-14 16:19:28.616
32.0, 30.457744598388672, -227.71690368652344, 36.50703430175781, 384.7665100097656, 0.03200000151991844, -0.04800000041723251, 1.055999994277954, 0.0, 0.0, 0.0, 0.0, 0.0, 1.6210019686160667E9, 2021-05-14 16:19:28.616
33.0, 29.807003021240234, -233.31178283691406, 35.216766357421875, 382.78436279296875, 0.03200000151991844, -0.04800000041723251, 1.055999994277954, 0.0, 0.0, 0.0, 0.0, 0.0, 1.62100196861684E9, 2021-05-14 16:19:28.616
33.0, 37.59721374511719, -227.21200561523438, 48.99456024169922, 388.8093566894531, 0.03200000151991844, -0.04800000041723251, 1.055999994277954, 0.0, 0.0, 0.0, 0.0, 0.0, 1.62100196861684E9, 2021-05-14 16:19:28.616
34.0, 42.05143356323242, -228.04600524902344, 46.60102462768555, 390.3763732910156, 0.03200000151991844, -0.04800000041723251, 1.055999994277954, 0.0, 0.0, 0.0, 0.0, 0.0, 1.6210019686304436E9, 2021-05-14 16:19:28.630
34.0, 25.401399612426758, -235.13311767578125, 47.32656478881836, 396.2218322753906, 0.03200000151991844, -0.04800000041723251, 1.055999994277954, 0.0, 0.0, 0.0, 0.0, 0.0, 1.6210019686304436E9, 2021-05-14 16:19:28.630
35.0, 20.99953842163086, -239.0600128173828, 42.79754638671875, 392.8746337890625, 0.03200000151991844, -0.04800000041723251, 1.055999994277954, 0.0, 0.0, 0.0, 0.0, 0.0, 1.6210019686460748E9, 2021-05-14 16:19:28.646
35.0, 26.186779022216797, -231.72607421875, 50.41572189331055, 402.3963928222656, 0.03200000151991844, -0.04800000041723251, 1.055999994277954, 0.0, 0.0, 0.0, 0.0, 0.0, 1.6210019686460748E9, 2021-05-14 16:19:28.646
36.0, 22.33468246459961, -228.00486755371094, 49.72758102416992, 409.8350524902344, 0.03200000151991844, -0.04800000041723251, 1.055999994277954, 0.0, 0.0, 0.0, 0.0, 0.0, 1.6210019686468053E9, 2021-05-14 16:19:28.646
36.0, 13.59079647064209, -229.91969299316406, 46.94883346557617, 401.566162109375, 0.03200000151991844, -0.04800000041723251, 1.055999994277954, 0.0, 0.0, 0.0, 0.0, 0.0, 1.6210019686468053E9, 2021-05-14 16:19:28.646
37.0, 9.57414436340332, -235.95216369628906, 39.255859375, 395.0886535644531, 0.03200000151991844, -0.04800000041723251, 1.055999994277954, 0.0, 0.0, 0.0, 0.0, 0.0, 1.62100196866051E9, 2021-05-14 16:19:28.660
37.0, 30.715797424316406, -226.47525024414062, 47.02737045288086, 399.0379638671875, 0.03200000151991844, -0.04800000041723251, 1.055999994277954, 0.0, 0.0, 0.0, 0.0, 0.0, 1.62100196866051E9, 2021-05-14 16:19:28.660
38.0, 34.14154815673828, -226.07882690429688, 43.92699432373047, 396.4649353027344, 0.03200000151991844, -0.04800000041723251, 1.055999994277954, 0.0, 0.0, 0.0, 0.0, 0.0, 1.621001968676034E9, 2021-05-14 16:19:28.676
38.0, 22.173866271972656, -229.94961547851562, 41.484840393066406, 386.22882080078125, 0.03200000151991844, -0.04800000041723251, 1.055999994277954, 0.0, 0.0, 0.0, 0.0, 0.0, 1.621001968676034E9, 2021-05-14 16:19:28.676
39.0, 18.25819206237793, -234.2991180419922, 39.38301467895508, 380.697509765625, 0.03200000151991844, -0.04800000041723251, 1.055999994277954, 0.0, 0.0, 0.0, 0.0, 0.0, 1.6210019686767795E9, 2021-05-14 16:19:28.676
39.0, 32.634368896484375, -222.3164825439453, 44.12894821166992, 384.4411315917969, 0.03200000151991844, -0.04800000041723251, 1.055999994277954, 0.0, 0.0, 0.0, 0.0, 0.0, 1.6210019686767795E9, 2021-05-14 16:19:28.676
40.0, 38.532188415527344, -218.8795166015625, 48.13438415527344, 385.955810546875, 0.03200000151991844, -0.04800000041723251, 1.055999994277954, 0.0, 0.0, 0.0, 0.0, 0.0, 1.62100196869039E9, 2021-05-14 16:19:28.690
40.0, 28.640153884887695, -223.34869384765625, 49.581722259521484, 383.3042297363281, 0.03200000151991844, -0.04800000041723251, 1.055999994277954, 0.0, 0.0, 0.0, 0.0, 0.0, 1.62100196869039E9, 2021-05-14 16:19:28.690
41.0, 32.94477844238281, -226.7557373046875, 43.960655212402344, 381.61004638671875, 0.03200000151991844, -0.04800000041723251, 1.055999994277954, 0.0, 0.0, 0.0, 0.0, 0.0, 1.6210019687359495E9, 2021-05-14 16:19:28.735
41.0, 37.922584533691406, -214.9862823486328, 43.104217529296875, 384.7104187011719, 0.03200000151991844, -0.04800000041723251, 1.055999994277954, 0.0, 0.0, 0.0, 0.0, 0.0, 1.6210019687359495E9, 2021-05-14 16:19:28.735
42.0, 39.7775764465332, -212.641357421875, 43.343570709228516, 383.3042297363281, 0.03200000151991844, -0.04800000041723251, 1.055999994277954, 0.0, 0.0, 0.0, 0.0, 0.0, 1.621001968753935E9, 2021-05-14 16:19:28.753
42.0, 23.572589874267578, -214.64968872070312, 40.89019775390625, 380.45068359375, 0.03200000151991844, -0.04800000041723251, 1.055999994277954, 0.0, 0.0, 0.0, 0.0, 0.0, 1.621001968753935E9, 2021-05-14 16:19:28.753
43.0, 8.175421714782715, -215.86141967773438, 44.22244644165039, 384.07464599609375, 0.03200000151991844, -0.04800000041723251, 1.055999994277954, 0.0, 0.0, 0.0, 0.0, 0.0, 1.6210019687545788E9, 2021-05-14 16:19:28.754
43.0, 12.25565242767334, -207.23345947265625, 46.92265319824219, 392.0668029785156, 0.03200000151991844, -0.04800000041723251, 1.055999994277954, 0.0, 0.0, 0.0, 0.0, 0.0, 1.6210019687545788E9, 2021-05-14 16:19:28.754
44.0, 15.958152770996094, -203.08966064453125, 50.079132080078125, 403.7128601074219, 0.03200000151991844, -0.04800000041723251, 1.055999994277954, 0.0, 0.0, 0.0, 0.0, 0.0, 1.621001968755354E9, 2021-05-14 16:19:28.755
44.0, 11.507672309875488, -216.64305114746094, 41.0809326171875, 395.05499267578125, 0.03200000151991844, -0.04800000041723251, 1.055999994277954, 0.0, 0.0, 0.0, 0.0, 0.0, 1.621001968755354E9, 2021-05-14 16:19:28.755
45.0, 8.968279838562012, -226.92404174804688, 36.36491775512695, 383.8726806640625, 0.03200000151991844, -0.04800000041723251, 1.055999994277954, 0.0, 0.0, 0.0, 0.0, 0.0, 1.6210019687560372E9, 2021-05-14 16:19:28.756
45.0, 24.223331451416016, -216.02223205566406, 43.82975769042969, 395.8441162109375, 0.03200000151991844, -0.04800000041723251, 1.055999994277954, 0.0, 0.0, 0.0, 0.0, 0.0, 1.6210019687560372E9, 2021-05-14 16:19:28.756
46.0, 25.44253921508789, -211.8372802734375, 38.582679748535156, 402.3963928222656, 0.03200000151991844, -0.04800000041723251, 1.055999994277954, 0.0, 0.0, 0.0, 0.0, 0.0, 1.6210019687831786E9, 2021-05-14 16:19:28.783
46.0, 21.915813446044922, -218.49057006835938, 39.48773193359375, 391.52825927734375, 0.03200000151991844, -0.04800000041723251, 1.055999994277954, 0.0, 0.0, 0.0, 0.0, 0.0, 1.6210019687831786E9, 2021-05-14 16:19:28.783
47.0, 24.23455238342285, -222.50721740722656, 38.552757263183594, 387.7771301269531, 0.03200000151991844, -0.04800000041723251, 1.055999994277954, 0.0, 0.0, 0.0, 0.0, 0.0, 1.621001968783842E9, 2021-05-14 16:19:28.783
47.0, 34.149024963378906, -218.98423767089844, 42.32257843017578, 388.5251159667969, 0.03200000151991844, -0.04800000041723251, 1.055999994277954, 0.0, 0.0, 0.0, 0.0, 0.0, 1.621001968783842E9, 2021-05-14 16:19:28.783
48.0, 37.12224578857422, -210.434814453125, 39.427894592285156, 385.8249206542969, 0.03200000151991844, -0.04800000041723251, 1.055999994277954, 0.0, 0.0, 0.0, 0.0, 0.0, 1.6210019687845895E9, 2021-05-14 16:19:28.784
48.0, 30.151073455810547, -223.56187438964844, 37.191436767578125, 379.69146728515625, 0.03200000151991844, -0.04800000041723251, 1.055999994277954, 0.0, 0.0, 0.0, 0.0, 0.0, 1.6210019687845895E9, 2021-05-14 16:19:28.784
49.0, 25.883848190307617, -225.4093780517578, 32.25476837158203, 371.718017578125, 0.03200000151991844, -0.04800000041723251, 1.055999994277954, 0.0, 0.0, 0.0, 0.0, 0.0, 1.6210019687853863E9, 2021-05-14 16:19:28.785
49.0, 32.009803771972656, -215.3939208984375, 36.97452163696289, 374.9006652832031, 0.03200000151991844, -0.04800000041723251, 1.055999994277954, 0.0, 0.0, 0.0, 0.0, 0.0, 1.6210019687853863E9, 2021-05-14 16:19:28.785
50.0, 37.593475341796875, -212.9854278564453, 42.40485382080078, 374.4817810058594, 0.03200000151991844, -0.04800000041723251, 1.055999994277954, 0.0, 0.0, 0.0, 0.0, 0.0, 1.6210019687960644E9, 2021-05-14 16:19:28.796
50.0, 32.33143615722656, -219.53399658203125, 35.78523254394531, 366.283935546875, 0.03200000151991844, -0.04800000041723251, 1.055999994277954, 0.0, 0.0, 0.0, 0.0, 0.0, 1.6210019687960644E9, 2021-05-14 16:19:28.796
51.0, 14.761384963989258, -216.19052124023438, 30.743846893310547, 361.0966796875, 0.03200000151991844, -0.04800000041723251, 1.055999994277954, 0.0, 0.0, 0.0, 0.0, 0.0, 1.6210019687970648E9, 2021-05-14 16:19:28.797
51.0, 13.957306861877441, -213.41552734375, 32.23980712890625, 379.03326416015625, 0.03200000151991844, -0.04800000041723251, 1.055999994277954, 0.0, 0.0, 0.0, 0.0, 0.0, 1.6210019687970648E9, 2021-05-14 16:19:28.797
52.0, 20.33383560180664, -210.4759521484375, 39.386756896972656, 386.6028137207031, 0.03200000151991844, -0.04800000041723251, 1.055999994277954, 0.0, 0.0, 0.0, 0.0, 0.0, 1.6210019688103757E9, 2021-05-14 16:19:28.810
52.0, 10.793351173400879, -223.77877807617188, 39.57374954223633, 388.9327697753906, 0.03200000151991844, -0.04800000041723251, 1.055999994277954, 0.0, 0.0, 0.0, 0.0, 0.0, 1.6210019688103757E9, 2021-05-14 16:19:28.810
53.0, 6.832797050476074, -235.1630401611328, 34.95497512817383, 391.96209716796875, 0.03200000151991844, -0.04800000041723251, 1.055999994277954, 0.0, 0.0, 0.0, 0.0, 0.0, 1.6210019688269007E9, 2021-05-14 16:19:28.826
53.0, 26.55328941345215, -228.5883026123047, 37.67388153076172, 404.0157775878906, 0.03200000151991844, -0.04800000041723251, 1.055999994277954, 0.0, 0.0, 0.0, 0.0, 0.0, 1.6210019688269007E9, 2021-05-14 16:19:28.826
54.0, 26.818822860717773, -220.81678771972656, 40.632144927978516, 406.1849365234375, 0.03200000151991844, -0.04800000041723251, 1.055999994277954, 0.0, 0.0, 0.0, 0.0, 0.0, 1.6210019688275747E9, 2021-05-14 16:19:28.827
54.0, 19.26796531677246, -225.6075897216797, 35.05595397949219, 395.5112609863281, 0.03200000151991844, -0.04800000041723251, 1.055999994277954, 0.0, 0.0, 0.0, 0.0, 0.0, 1.6210019688275747E9, 2021-05-14 16:19:28.827
55.0, 20.322616577148438, -225.51783752441406, 33.81804656982422, 386.9020080566406, 0.03200000151991844, -0.04800000041723251, 1.055999994277954, 0.0, 0.0, 0.0, 0.0, 0.0, 1.6210019688568268E9, 2021-05-14 16:19:28.856
55.0, 27.15915298461914, -225.52157592773438, 38.43682098388672, 391.2328186035156, 0.03200000151991844, -0.04800000041723251, 1.055999994277954, 0.0, 0.0, 0.0, 0.0, 0.0, 1.6210019688568268E9, 2021-05-14 16:19:28.856
56.0, 34.35845947265625, -223.84983825683594, 36.76134490966797, 394.55010986328125, 0.03200000151991844, -0.04800000041723251, 1.055999994277954, 0.0, 0.0, 0.0, 0.0, 0.0, 1.6210019688575258E9, 2021-05-14 16:19:28.857
56.0, 29.08894157409668, -226.44906616210938, 36.45093536376953, 383.420166015625, 0.03200000151991844, -0.04800000041723251, 1.055999994277954, 0.0, 0.0, 0.0, 0.0, 0.0, 1.6210019688575258E9, 2021-05-14 16:19:28.857
57.0, 29.06650161743164, -228.1544647216797, 34.311710357666016, 380.9892272949219, 0.03200000151991844, -0.04800000041723251, 1.055999994277954, 0.0, 0.0, 0.0, 0.0, 0.0, 1.6210019688582335E9, 2021-05-14 16:19:28.858
57.0, 32.185577392578125, -226.35183715820312, 37.61778259277344, 387.4779357910156, 0.03200000151991844, -0.04800000041723251, 1.055999994277954, 0.0, 0.0, 0.0, 0.0, 0.0, 1.6210019688582335E9, 2021-05-14 16:19:28.858
58.0, 36.94647216796875, -218.46438598632812, 39.49895477294922, 385.9632873535156, 0.03200000151991844, -0.04800000041723251, 1.055999994277954, 0.0, 0.0, 0.0, 0.0, 0.0, 1.6210019688704813E9, 2021-05-14 16:19:28.870
58.0, 22.832088470458984, -226.90533447265625, 40.7518196105957, 369.0738830566406, 0.03200000151991844, -0.04800000041723251, 1.055999994277954, 0.0, 0.0, 0.0, 0.0, 0.0, 1.6210019688704813E9, 2021-05-14 16:19:28.870
59.0, 25.19570541381836, -227.00631713867188, 31.91443634033203, 369.9565124511719, 0.03200000151991844, -0.04800000041723251, 1.055999994277954, 0.0, 0.0, 0.0, 0.0, 0.0, 1.6210019688868916E9, 2021-05-14 16:19:28.886
59.0, 32.88867950439453, -221.74801635742188, 39.315696716308594, 377.3016662597656, 0.03200000151991844, -0.04800000041723251, 1.055999994277954, 0.0, 0.0, 0.0, 0.0, 0.0, 1.6210019688868916E9, 2021-05-14 16:19:28.886
60.0, 43.607234954833984, -213.05648803710938, 40.44514846801758, 381.2360534667969, 0.03200000151991844, -0.04800000041723251, 1.055999994277954, 0.0, 0.0, 0.0, 0.0, 0.0, 1.621001968887506E9, 2021-05-14 16:19:28.887
60.0, 34.46317672729492, -224.32855224609375, 44.74229431152344, 377.7355041503906, 0.03200000151991844, -0.04800000041723251, 1.055999994277954, 0.0, 0.0, 0.0, 0.0, 0.0, 1.621001968887506E9, 2021-05-14 16:19:28.887
61.0, 26.691665649414062, -230.5816650390625, 41.43247985839844, 380.50677490234375, 0.03200000151991844, -0.04800000041723251, 1.055999994277954, 0.0, 0.0, 0.0, 0.0, 0.0, 1.6210019689003768E9, 2021-05-14 16:19:28.900
61.0, 30.124895095825195, -224.178955078125, 45.15742111206055, 394.1349792480469, 0.03200000151991844, -0.04800000041723251, 1.055999994277954, 0.0, 0.0, 0.0, 0.0, 0.0, 1.6210019689003768E9, 2021-05-14 16:19:28.900
62.0, 30.82799530029297, -221.7293243408203, 44.60391616821289, 390.193115234375, 0.03200000151991844, -0.04800000041723251, 1.055999994277954, 0.0, 0.0, 0.0, 0.0, 0.0, 1.6210019689161518E9, 2021-05-14 16:19:28.916
62.0, 19.885047912597656, -227.6159210205078, 34.90635681152344, 381.6586608886719, 0.03200000151991844, -0.04800000041723251, 1.055999994277954, 0.0, 0.0, 0.0, 0.0, 0.0, 1.6210019689161518E9, 2021-05-14 16:19:28.916
63.0, 10.561477661132812, -226.0863037109375, 33.118682861328125, 377.8738708496094, 0.03200000151991844, -0.04800000041723251, 1.055999994277954, 0.0, 0.0, 0.0, 0.0, 0.0, 1.6210019689168437E9, 2021-05-14 16:19:28.916
63.0, 23.47161293029785, -220.9476776123047, 39.33439636230469, 389.05242919921875, 0.03200000151991844, -0.04800000041723251, 1.055999994277954, 0.0, 0.0, 0.0, 0.0, 0.0, 1.6210019689168437E9, 2021-05-14 16:19:28.916
64.0, 25.6108341217041, -217.218994140625, 43.14909744262695, 395.33172607421875, 0.03200000151991844, -0.04800000041723251, 1.055999994277954, 0.0, 0.0, 0.0, 0.0, 0.0, 1.6210019689303806E9, 2021-05-14 16:19:28.930
64.0, 11.395475387573242, -227.12973022460938, 37.307373046875, 384.2840576171875, 0.03200000151991844, -0.04800000041723251, 1.055999994277954, 0.0, 0.0, 0.0, 0.0, 0.0, 1.6210019689303806E9, 2021-05-14 16:19:28.930
65.0, 3.1901347637176514, -226.89785766601562, 37.902015686035156, 379.5493469238281, 0.03200000151991844, -0.04800000041723251, 1.055999994277954, 0.0, 0.0, 0.0, 0.0, 0.0, 1.6210019689614956E9, 2021-05-14 16:19:28.961
65.0, 8.74388599395752, -219.1413116455078, 45.07888412475586, 384.1681213378906, 0.03200000151991844, -0.04800000041723251, 1.055999994277954, 0.0, 0.0, 0.0, 0.0, 0.0, 1.6210019689614956E9, 2021-05-14 16:19:28.961
66.0, 14.409834861755371, -212.04298400878906, 42.816246032714844, 390.7840270996094, 0.03200000151991844, -0.04800000041723251, 1.055999994277954, 0.0, 0.0, 0.0, 0.0, 0.0, 1.6210019689622092E9, 2021-05-14 16:19:28.962
66.0, 14.559430122375488, -226.2882537841797, 38.64625549316406, 380.7723083496094, 0.03200000151991844, -0.04800000041723251, 1.055999994277954, 0.0, 0.0, 0.0, 0.0, 0.0, 1.6210019689622092E9, 2021-05-14 16:19:28.962
67.0, 20.210418701171875, -231.8046112060547, 39.65229034423828, 383.3752746582031, 0.03200000151991844, -0.04800000041723251, 1.055999994277954, 0.0, 0.0, 0.0, 0.0, 0.0, 1.6210019689764524E9, 2021-05-14 16:19:28.976
67.0, 36.157352447509766, -228.36764526367188, 43.3809700012207, 394.35186767578125, 0.03200000151991844, -0.04800000041723251, 1.055999994277954, 0.0, 0.0, 0.0, 0.0, 0.0, 1.6210019689764524E9, 2021-05-14 16:19:28.976
68.0, 37.46631622314453, -227.5747833251953, 49.42838668823242, 390.6344299316406, 0.03200000151991844, -0.04800000041723251, 1.055999994277954, 0.0, 0.0, 0.0, 0.0, 0.0, 1.6210019689771717E9, 2021-05-14 16:19:28.977
68.0, 34.88204574584961, -235.77264404296875, 50.254905700683594, 382.5824279785156, 0.03200000151991844, -0.04800000041723251, 1.055999994277954, 0.0, 0.0, 0.0, 0.0, 0.0, 1.6210019689771717E9, 2021-05-14 16:19:28.977
69.0, 27.877214431762695, -235.0732879638672, 46.593544006347656, 376.8304443359375, 0.03200000151991844, -0.04800000041723251, 1.055999994277954, 0.0, 0.0, 0.0, 0.0, 0.0, 1.621001968991097E9, 2021-05-14 16:19:28.991
69.0, 34.75115203857422, -227.61965942382812, 43.048118591308594, 379.9981384277344, 0.03200000151991844, -0.04800000041723251, 1.055999994277954, 0.0, 0.0, 0.0, 0.0, 0.0, 1.621001968991097E9, 2021-05-14 16:19:28.991
70.0, 36.781917572021484, -224.5604248046875, 46.589805603027344, 382.10369873046875, 0.03200000151991844, -0.04800000041723251, 1.055999994277954, 0.0, 0.0, 0.0, 0.0, 0.0, 1.6210019689918993E9, 2021-05-14 16:19:28.991
70.0, 27.185333251953125, -231.1725616455078, 35.4112434387207, 367.117919921875, 0.03200000151991844, -0.04800000041723251, 1.055999994277954, 0.0, 0.0, 0.0, 0.0, 0.0, 1.6210019689918993E9, 2021-05-14 16:19:28.991
71.0, 25.199445724487305, -231.984130859375, 35.23546600341797, 356.97906494140625, 0.03200000151991844, -0.04800000041723251, 1.055999994277954, 0.0, 0.0, 0.0, 0.0, 0.0, 1.6210019690067208E9, 2021-05-14 16:19:29.006
71.0, 35.02790451049805, -224.53050231933594, 44.06163024902344, 380.66009521484375, 0.03200000151991844, -0.04800000041723251, 1.055999994277954, 0.0, 0.0, 0.0, 0.0, 0.0, 1.6210019690067208E9, 2021-05-14 16:19:29.006
72.0, 36.13491439819336, -224.67636108398438, 42.50209426879883, 381.0303649902344, 0.04800000041723251, -0.04800000041723251, 1.055999994277954, 0.0, 0.0, 0.0, 0.0, 0.0, 1.6210019690074012E9, 2021-05-14 16:19:29.007
72.0, 26.040924072265625, -230.26002502441406, 41.60451889038086, 380.5516357421875, 0.04800000041723251, -0.04800000041723251, 1.055999994277954, 0.0, 0.0, 0.0, 0.0, 0.0, 1.6210019690074012E9, 2021-05-14 16:19:29.007
73.0, 7.520938873291016, -226.7519989013672, 35.98344802856445, 372.8998107910156, 0.04800000041723251, -0.04800000041723251, 1.055999994277954, 0.0, 0.0, 0.0, 0.0, 0.0, 1.6210019690203826E9, 2021-05-14 16:19:29.020
73.0, 5.213420391082764, -221.4188995361328, 33.941463470458984, 387.2722473144531, 0.04800000041723251, -0.04800000041723251, 1.055999994277954, 0.0, 0.0, 0.0, 0.0, 0.0, 1.6210019690203826E9, 2021-05-14 16:19:29.020
74.0, 11.7432861328125, -228.1170654296875, 33.32811737060547, 390.7615661621094, 0.04800000041723251, -0.04800000041723251, 1.055999994277954, 0.0, 0.0, 0.0, 0.0, 0.0, 1.6210019690361624E9, 2021-05-14 16:19:29.036
74.0, 15.217653274536133, -226.40792846679688, 34.644561767578125, 390.8812561035156, 0.04800000041723251, -0.04800000041723251, 1.055999994277954, 0.0, 0.0, 0.0, 0.0, 0.0, 1.6210019690361624E9, 2021-05-14 16:19:29.036
75.0, 20.91352081298828, -230.82101440429688, 33.39917755126953, 386.99176025390625, 0.04800000041723251, -0.04800000041723251, 1.055999994277954, 0.0, 0.0, 0.0, 0.0, 0.0, 1.6210019690368664E9, 2021-05-14 16:19:29.036
75.0, 36.733299255371094, -230.85467529296875, 42.34501647949219, 396.3340148925781, 0.04800000041723251, -0.04800000041723251, 1.055999994277954, 0.0, 0.0, 0.0, 0.0, 0.0, 1.6210019690368664E9, 2021-05-14 16:19:29.036
76.0, 46.464515686035156, -223.98074340820312, 46.8141975402832, 401.63720703125, 0.04800000041723251, -0.04800000041723251, 1.055999994277954, 0.0, 0.0, 0.0, 0.0, 0.0, 1.6210019690504105E9, 2021-05-14 16:19:29.050
76.0, 33.64788055419922, -232.70217895507812, 43.732521057128906, 386.89825439453125, 0.04800000041723251, -0.04800000041723251, 1.055999994277954, 0.0, 0.0, 0.0, 0.0, 0.0, 1.6210019690504105E9, 2021-05-14 16:19:29.050
77.0, 36.33686828613281, -230.60409545898438, 47.580875396728516, 391.7489013671875, 0.04800000041723251, -0.04800000041723251, 1.055999994277954, 0.0, 0.0, 0.0, 0.0, 0.0, 1.6210019690821471E9, 2021-05-14 16:19:29.082
77.0, 39.42228698730469, -222.7390899658203, 44.869449615478516, 387.8743591308594, 0.04800000041723251, -0.04800000041723251, 1.055999994277954, 0.0, 0.0, 0.0, 0.0, 0.0, 1.6210019690821471E9, 2021-05-14 16:19:29.082
78.0, 42.71339797973633, -225.47669982910156, 49.937015533447266, 387.8182678222656, 0.04800000041723251, -0.04800000041723251, 1.055999994277954, 0.0, 0.0, 0.0, 0.0, 0.0, 1.6210019690829031E9, 2021-05-14 16:19:29.082
78.0, 33.322509765625, -226.41542053222656, 42.580631256103516, 373.16534423828125, 0.04800000041723251, -0.04800000041723251, 1.055999994277954, 0.0, 0.0, 0.0, 0.0, 0.0, 1.6210019690829031E9, 2021-05-14 16:19:29.082
79.0, 33.42722702026367, -229.97206115722656, 45.011566162109375, 373.37103271484375, 0.04800000041723251, -0.04800000041723251, 1.055999994277954, 0.0, 0.0, 0.0, 0.0, 0.0, 1.6210019690971556E9, 2021-05-14 16:19:29.097
79.0, 38.689266204833984, -222.91860961914062, 46.290611267089844, 376.8080139160156, 0.04800000041723251, -0.04800000041723251, 1.055999994277954, 0.0, 0.0, 0.0, 0.0, 0.0, 1.6210019690971556E9, 2021-05-14 16:19:29.097
80.0, 40.62279510498047, -229.766357421875, 46.447689056396484, 378.99212646484375, 0.04800000041723251, -0.04800000041723251, 1.055999994277954, 0.0, 0.0, 0.0, 0.0, 0.0, 1.6210019690978632E9, 2021-05-14 16:19:29.097
80.0, 27.914613723754883, -238.416748046875, 42.17672348022461, 381.0191345214844, 0.04800000041723251, -0.04800000041723251, 1.055999994277954, 0.0, 0.0, 0.0, 0.0, 0.0, 1.6210019690978632E9, 2021-05-14 16:19:29.097
81.0, 13.938607215881348, -239.66961669921875, 36.63418960571289, 381.13507080078125, 0.04800000041723251, -0.04800000041723251, 1.055999994277954, 0.0, 0.0, 0.0, 0.0, 0.0, 1.6210019691110108E9, 2021-05-14 16:19:29.111
81.0, 8.4185152053833, -235.00222778320312, 37.25127410888672, 390.862548828125, 0.04800000041723251, -0.04800000041723251, 1.055999994277954, 0.0, 0.0, 0.0, 0.0, 0.0, 1.6210019691110108E9, 2021-05-14 16:19:29.111
82.0, 10.438060760498047, -230.4844207763672, 40.531166076660156, 398.31243896484375, 0.04800000041723251, -0.04800000041723251, 1.055999994277954, 0.0, 0.0, 0.0, 0.0, 0.0, 1.6210019691117592E9, 2021-05-14 16:19:29.111
82.0, 16.571496963500977, -227.42892456054688, 40.841575622558594, 398.3797607421875, 0.04800000041723251, -0.04800000041723251, 1.055999994277954, 0.0, 0.0, 0.0, 0.0, 0.0, 1.6210019691117592E9, 2021-05-14 16:19:29.111
83.0, 14.16300106048584, -235.08450317382812, 39.233421325683594, 395.0250549316406, 0.04800000041723251, -0.04800000041723251, 1.055999994277954, 0.0, 0.0, 0.0, 0.0, 0.0, 1.6210019691261003E9, 2021-05-14 16:19:29.126
83.0, 27.843555450439453, -233.99618530273438, 42.02712631225586, 390.7204284667969, 0.04800000041723251, -0.04800000041723251, 1.055999994277954, 0.0, 0.0, 0.0, 0.0, 0.0, 1.6210019691261003E9, 2021-05-14 16:19:29.126
84.0, 40.413360595703125, -231.53160095214844, 52.203392028808594, 403.50341796875, 0.04800000041723251, -0.04800000041723251, 1.055999994277954, 0.0, 0.0, 0.0, 0.0, 0.0, 1.6210019691268182E9, 2021-05-14 16:19:29.126
84.0, 34.35845947265625, -236.01199340820312, 47.84640884399414, 397.5233154296875, 0.04800000041723251, -0.04800000041723251, 1.055999994277954, 0.0, 0.0, 0.0, 0.0, 0.0, 1.6210019691268182E9, 2021-05-14 16:19:29.126
85.0, 41.09402084350586, -239.3180694580078, 47.47241973876953, 394.7782287597656, 0.04800000041723251, -0.04800000041723251, 1.055999994277954, 0.0, 0.0, 0.0, 0.0, 0.0, 1.621001969140416E9, 2021-05-14 16:19:29.140
85.0, 43.2818603515625, -235.18548583984375, 47.068511962890625, 390.0584716796875, 0.04800000041723251, -0.04800000041723251, 1.055999994277954, 0.0, 0.0, 0.0, 0.0, 0.0, 1.621001969140416E9, 2021-05-14 16:19:29.140
86.0, 53.151458740234375, -227.30177307128906, 50.6288948059082, 392.13037109375, 0.04800000041723251, -0.04800000041723251, 1.055999994277954, 0.0, 0.0, 0.0, 0.0, 0.0, 1.6210019691562104E9, 2021-05-14 16:19:29.156
86.0, 45.8997917175293, -228.04600524902344, 45.161163330078125, 388.0650939941406, 0.04800000041723251, -0.04800000041723251, 1.055999994277954, 0.0, 0.0, 0.0, 0.0, 0.0, 1.6210019691562104E9, 2021-05-14 16:19:29.156
87.0, 38.008602142333984, -234.40383911132812, 46.529964447021484, 380.5254821777344, 0.04800000041723251, -0.04800000041723251, 1.055999994277954, 0.0, 0.0, 0.0, 0.0, 0.0, 1.6210019691570792E9, 2021-05-14 16:19:29.157
87.0, 40.75743103027344, -232.05517578125, 52.124855041503906, 386.7411804199219, 0.04800000041723251, -0.04800000041723251, 1.055999994277954, 0.0, 0.0, 0.0, 0.0, 0.0, 1.6210019691570792E9, 2021-05-14 16:19:29.157
88.0, 40.30116271972656, -233.19210815429688, 50.41197967529297, 382.6946105957031, 0.04800000041723251, -0.04800000041723251, 1.055999994277954, 0.0, 0.0, 0.0, 0.0, 0.0, 1.6210019691868124E9, 2021-05-14 16:19:29.186
88.0, 28.748611450195312, -238.73464965820312, 45.11628341674805, 379.4483947753906, 0.04800000041723251, -0.04800000041723251, 1.055999994277954, 0.0, 0.0, 0.0, 0.0, 0.0, 1.6210019691868124E9, 2021-05-14 16:19:29.186
89.0, 15.202692985534668, -243.64886474609375, 40.187095642089844, 375.6897888183594, 0.04800000041723251, -0.04800000041723251, 1.055999994277954, 0.0, 0.0, 0.0, 0.0, 0.0, 1.6210019691874027E9, 2021-05-14 16:19:29.187
89.0, 16.291004180908203, -239.6546630859375, 45.187339782714844, 389.66204833984375, 0.04800000041723251, -0.04800000041723251, 1.055999994277954, 0.0, 0.0, 0.0, 0.0, 0.0, 1.6210019691874027E9, 2021-05-14 16:19:29.187
90.0, 19.85512924194336, -231.37452697753906, 47.42753982543945, 391.38238525390625, 0.04800000041723251, -0.04800000041723251, 1.055999994277954, 0.0, 0.0, 0.0, 0.0, 0.0, 1.621001969188288E9, 2021-05-14 16:19:29.188
90.0, 9.690080642700195, -236.045654296875, 37.516807556152344, 384.33642578125, 0.04800000041723251, -0.04800000041723251, 1.055999994277954, 0.0, 0.0, 0.0, 0.0, 0.0, 1.621001969188288E9, 2021-05-14 16:19:29.188
91.0, 21.968172073364258, -237.50421142578125, 35.23546600341797, 387.11517333984375, 0.04800000041723251, -0.04800000041723251, 1.055999994277954, 0.0, 0.0, 0.0, 0.0, 0.0, 1.6210019692004545E9, 2021-05-14 16:19:29.200
91.0, 35.27099609375, -237.16387939453125, 37.52802658081055, 390.1332702636719, 0.04800000041723251, -0.04800000041723251, 1.055999994277954, 0.0, 0.0, 0.0, 0.0, 0.0, 1.6210019692004545E9, 2021-05-14 16:19:29.200
92.0, 42.4067268371582, -239.1796875, 44.70863342285156, 399.41571044921875, 0.03200000151991844, -0.04800000041723251, 1.055999994277954, 0.0, 0.0, 0.0, 0.0, 0.0, 1.621001969216071E9, 2021-05-14 16:19:29.216
92.0, 36.4266242980957, -242.1903076171875, 40.36661148071289, 392.388427734375, 0.03200000151991844, -0.04800000041723251, 1.055999994277954, 0.0, 0.0, 0.0, 0.0, 0.0, 1.621001969216071E9, 2021-05-14 16:19:29.216
93.0, 24.013896942138672, -250.09271240234375, 44.03545379638672, 387.470458984375, 0.03200000151991844, -0.04800000041723251, 1.055999994277954, 0.0, 0.0, 0.0, 0.0, 0.0, 1.6210019692167704E9, 2021-05-14 16:19:29.216
93.0, 31.740530014038086, -241.1020050048828, 37.87209701538086, 386.6028137207031, 0.03200000151991844, -0.04800000041723251, 1.055999994277954, 0.0, 0.0, 0.0, 0.0, 0.0, 1.6210019692167704E9, 2021-05-14 16:19:29.216
94.0, 32.94477844238281, -236.2663116455078, 37.329811096191406, 383.7567443847656, 0.03200000151991844, -0.04800000041723251, 1.055999994277954, 0.0, 0.0, 0.0, 0.0, 0.0, 1.62100196923044E9, 2021-05-14 16:19:29.230
94.0, 27.503223419189453, -235.8287353515625, 40.45636749267578, 381.366943359375, 0.03200000151991844, -0.04800000041723251, 1.055999994277954, 0.0, 0.0, 0.0, 0.0, 0.0, 1.62100196923044E9, 2021-05-14 16:19:29.230
95.0, 28.65885353088379, -232.25714111328125, 41.97102737426758, 380.5666198730469, 0.03200000151991844, -0.04800000041723251, 1.055999994277954, 0.0, 0.0, 0.0, 0.0, 0.0, 1.6210019692458563E9, 2021-05-14 16:19:29.245
95.0, 40.28620147705078, -235.69036865234375, 46.870296478271484, 392.388427734375, 0.03200000151991844, -0.04800000041723251, 1.055999994277954, 0.0, 0.0, 0.0, 0.0, 0.0, 1.6210019692458563E9, 2021-05-14 16:19:29.245
96.0, 39.964569091796875, -230.43206787109375, 51.440452575683594, 399.77099609375, 0.03200000151991844, -0.04800000041723251, 1.055999994277954, 0.0, 0.0, 0.0, 0.0, 0.0, 1.6210019692611914E9, 2021-05-14 16:19:29.261
96.0, 34.55667495727539, -237.96047973632812, 48.33633804321289, 395.2457275390625, 0.03200000151991844, -0.04800000041723251, 1.055999994277954, 0.0, 0.0, 0.0, 0.0, 0.0, 1.6210019692611914E9, 2021-05-14 16:19:29.261
97.0, 16.814590454101562, -241.17306518554688, 45.725887298583984, 384.2466735839844, 0.03200000151991844, -0.04800000041723251, 1.055999994277954, 0.0, 0.0, 0.0, 0.0, 0.0, 1.6210019692619135E9, 2021-05-14 16:19:29.261
97.0, 14.66414737701416, -233.77554321289062, 50.303524017333984, 398.00201416015625, 0.03200000151991844, -0.04800000041723251, 1.055999994277954, 0.0, 0.0, 0.0, 0.0, 0.0, 1.6210019692619135E9, 2021-05-14 16:19:29.261
98.0, 6.750519275665283, -231.127685546875, 46.84037780761719, 395.7319030761719, 0.03200000151991844, -0.04800000041723251, 1.055999994277954, 0.0, 0.0, 0.0, 0.0, 0.0, 1.6210019692767842E9, 2021-05-14 16:19:29.276
98.0, 6.3241705894470215, -236.61412048339844, 42.6180305480957, 385.5144958496094, 0.03200000151991844, -0.04800000041723251, 1.055999994277954, 0.0, 0.0, 0.0, 0.0, 0.0, 1.6210019692767842E9, 2021-05-14 16:19:29.276
99.0, 17.786964416503906, -233.01634216308594, 39.97391891479492, 379.9158630371094, 0.03200000151991844, -0.04800000041723251, 1.055999994277954, 0.0, 0.0, 0.0, 0.0, 0.0, 1.6210019692774081E9, 2021-05-14 16:19:29.277
99.0, 23.183639526367188, -238.8094482421875, 39.30073928833008, 386.6028137207031, 0.03200000151991844, -0.04800000041723251, 1.055999994277954, 0.0, 0.0, 0.0, 0.0, 0.0, 1.6210019692774081E9, 2021-05-14 16:19:29.277
100.0, 37.46257781982422, -229.5232696533203, 45.85304260253906, 393.2860107421875, 0.03200000151991844, -0.04800000041723251, 1.055999994277954, 0.0, 0.0, 0.0, 0.0, 0.0, 1.621001969291796E9, 2021-05-14 16:19:29.291
100.0, 31.489957809448242, -241.1655731201172, 42.707786560058594, 385.33123779296875, 0.03200000151991844, -0.04800000041723251, 1.055999994277954, 0.0, 0.0, 0.0, 0.0, 0.0, 1.621001969291796E9, 2021-05-14 16:19:29.291
0.0, 23.694135665893555, -244.07334899902344, 35.98344802856445, 381.02288818359375, 0.03200000151991844, -0.04800000041723251, 1.055999994277954, 0.0, 0.0, 0.0, 0.0, 0.0, 1.6210019692925217E9, 2021-05-14 16:19:29.292
1.0, 38.287227630615234, -232.9583740234375, 37.01192092895508, 391.4945983886719, 0.03200000151991844, -0.04800000041723251, 1.055999994277954, 0.0, 0.0, 0.0, 0.0, 0.0, 1.621001969305414E9, 2021-05-14 16:19:29.305
1.0, 49.125457763671875, -234.947998046875, 44.68993377685547, 396.0498046875, 0.03200000151991844, -0.04800000041723251, 1.055999994277954, 0.0, 0.0, 0.0, 0.0, 0.0, 1.621001969305414E9, 2021-05-14 16:19:29.305
2.0, 34.44260787963867, -238.05584716796875, 38.33958435058594, 376.72198486328125, 0.03200000151991844, -0.04800000041723251, 1.055999994277954, 0.0, 0.0, 0.0, 0.0, 0.0, 1.6210019693210716E9, 2021-05-14 16:19:29.321
2.0, 28.44754981994629, -236.3130645751953, 33.95268249511719, 379.2912902832031, 0.03200000151991844, -0.04800000041723251, 1.055999994277954, 0.0, 0.0, 0.0, 0.0, 0.0, 1.6210019693210716E9, 2021-05-14 16:19:29.321
3.0, 33.698368072509766, -231.95980834960938, 39.79440689086914, 387.02166748046875, 0.03200000151991844, -0.04800000041723251, 1.055999994277954, 0.0, 0.0, 0.0, 0.0, 0.0, 1.6210019693217924E9, 2021-05-14 16:19:29.321
3.0, 36.073204040527344, -232.1842041015625, 42.98828125, 395.72442626953125, 0.03200000151991844, -0.04800000041723251, 1.055999994277954, 0.0, 0.0, 0.0, 0.0, 0.0, 1.6210019693217924E9, 2021-05-14 16:19:29.321
4.0, 32.31086730957031, -237.0984344482422, 38.410640716552734, 391.049560546875, 0.03200000151991844, -0.04800000041723251, 1.055999994277954, 0.0, 0.0, 0.0, 0.0, 0.0, 1.621001969335426E9, 2021-05-14 16:19:29.335
4.0, 20.919130325317383, -242.4390106201172, 37.232574462890625, 384.946044921875, 0.03200000151991844, -0.04800000041723251, 1.055999994277954, 0.0, 0.0, 0.0, 0.0, 0.0, 1.621001969335426E9, 2021-05-14 16:19:29.335
5.0, 23.37250518798828, -230.2918243408203, 52.409088134765625, 398.6340637207031, 0.03200000151991844, -0.04800000041723251, 1.055999994277954, 0.0, 0.0, 0.0, 0.0, 0.0, 1.621001969368142E9, 2021-05-14 16:19:29.368
5.0, 24.86472511291504, -221.40956115722656, 60.775245666503906, 399.6849670410156, 0.03200000151991844, -0.04800000041723251, 1.055999994277954, 0.0, 0.0, 0.0, 0.0, 0.0, 1.621001969368142E9, 2021-05-14 16:19:29.368
6.0, 16.453689575195312, -225.96475219726562, 56.20134735107422, 387.0141906738281, 0.03200000151991844, -0.04800000041723251, 1.055999994277954, 0.0, 0.0, 0.0, 0.0, 0.0, 1.6210019693687744E9, 2021-05-14 16:19:29.368
6.0, 16.05352020263672, -233.10047912597656, 53.48617935180664, 381.378173828125, 0.03200000151991844, -0.04800000041723251, 1.055999994277954, 0.0, 0.0, 0.0, 0.0, 0.0, 1.6210019693687744E9, 2021-05-14 16:19:29.368
7.0, 24.03072738647461, -228.65374755859375, 54.57823181152344, 386.26995849609375, 0.03200000151991844, -0.04800000041723251, 1.055999994277954, 0.0, 0.0, 0.0, 0.0, 0.0, 1.6210019693696234E9, 2021-05-14 16:19:29.369
7.0, 30.23896026611328, -236.24200439453125, 45.531410217285156, 384.4673156738281, 0.03200000151991844, -0.04800000041723251, 1.055999994277954, 0.0, 0.0, 0.0, 0.0, 0.0, 1.6210019693696234E9, 2021-05-14 16:19:29.369
8.0, 25.04050064086914, -234.21871948242188, 41.66435623168945, 386.0343322753906, 0.03200000151991844, -0.04800000041723251, 1.055999994277954, 0.0, 0.0, 0.0, 0.0, 0.0, 1.6210019693703797E9, 2021-05-14 16:19:29.370
8.0, 29.692935943603516, -235.5089874267578, 40.142215728759766, 386.05303955078125, 0.03200000151991844, -0.04800000041723251, 1.055999994277954, 0.0, 0.0, 0.0, 0.0, 0.0, 1.6210019693703797E9, 2021-05-14 16:19:29.370
9.0, 37.367210388183594, -237.31161499023438, 40.998653411865234, 385.0208435058594, 0.03200000151991844, -0.04800000041723251, 1.055999994277954, 0.0, 0.0, 0.0, 0.0, 0.0, 1.6210019693803122E9, 2021-05-14 16:19:29.380
9.0, 35.50474166870117, -235.44540405273438, 40.20579528808594, 389.1235046386719, 0.03200000151991844, -0.04800000041723251, 1.055999994277954, 0.0, 0.0, 0.0, 0.0, 0.0, 1.6210019693803122E9, 2021-05-14 16:19:29.380
10.0, 29.864971160888672, -237.1395721435547, 38.22364807128906, 379.32122802734375, 0.03200000151991844, -0.04800000041723251, 1.055999994277954, 0.0, 0.0, 0.0, 0.0, 0.0, 1.6210019693954368E9, 2021-05-14 16:19:29.395
10.0, 23.64177703857422, -239.72384643554688, 37.090457916259766, 377.6120910644531, 0.03200000151991844, -0.04800000041723251, 1.055999994277954, 0.0, 0.0, 0.0, 0.0, 0.0, 1.6210019693954368E9, 2021-05-14 16:19:29.395
11.0, 28.956174850463867, -236.11109924316406, 38.474220275878906, 388.4129333496094, 0.03200000151991844, -0.04800000041723251, 1.055999994277954, 0.0, 0.0, 0.0, 0.0, 0.0, 1.6210019694111395E9, 2021-05-14 16:19:29.411
11.0, 30.53815269470215, -239.0244903564453, 39.68220901489258, 397.78509521484375, 0.03200000151991844, -0.04800000041723251, 1.055999994277954, 0.0, 0.0, 0.0, 0.0, 0.0, 1.6210019694111395E9, 2021-05-14 16:19:29.411
12.0, 24.81610679626465, -240.34466552734375, 34.76797866821289, 395.33172607421875, 0.03200000151991844, -0.04800000041723251, 1.055999994277954, 0.0, 0.0, 0.0, 0.0, 0.0, 1.621001969411767E9, 2021-05-14 16:19:29.411
12.0, 16.603286743164062, -240.7523193359375, 33.23088073730469, 388.5961608886719, 0.03200000151991844, -0.04800000041723251, 1.055999994277954, 0.0, 0.0, 0.0, 0.0, 0.0, 1.621001969411767E9, 2021-05-14 16:19:29.411
13.0, 17.455982208251953, -228.24609375, 39.52513122558594, 399.70367431640625, 0.03200000151991844, -0.04800000041723251, 1.055999994277954, 0.0, 0.0, 0.0, 0.0, 0.0, 1.6210019694254992E9, 2021-05-14 16:19:29.425
13.0, 7.616306304931641, -226.121826171875, 47.36770248413086, 405.4182434082031, 0.03200000151991844, -0.04800000041723251, 1.055999994277954, 0.0, 0.0, 0.0, 0.0, 0.0, 1.6210019694254992E9, 2021-05-14 16:19:29.425
14.0, 3.3939592838287354, -224.3042449951172, 50.29978561401367, 396.307861328125, 0.03200000151991844, -0.04800000041723251, 1.055999994277954, 0.0, 0.0, 0.0, 0.0, 0.0, 1.6210019694411595E9, 2021-05-14 16:19:29.441
14.0, 7.590126991271973, -233.35105895996094, 51.91168212890625, 392.646484375, 0.03200000151991844, -0.04800000041723251, 1.055999994277954, 0.0, 0.0, 0.0, 0.0, 0.0, 1.6210019694411595E9, 2021-05-14 16:19:29.441
15.0, 26.012874603271484, -227.37843322753906, 53.86764907836914, 397.46722412109375, 0.03200000151991844, -0.04800000041723251, 1.055999994277954, 0.0, 0.0, 0.0, 0.0, 0.0, 1.6210019694418945E9, 2021-05-14 16:19:29.441
15.0, 31.15897560119629, -228.77342224121094, 53.63203430175781, 394.2434387207031, 0.03200000151991844, -0.04800000041723251, 1.055999994277954, 0.0, 0.0, 0.0, 0.0, 0.0, 1.6210019694418945E9, 2021-05-14 16:19:29.441
16.0, 31.630203247070312, -232.17298889160156, 41.94110870361328, 384.29156494140625, 0.03200000151991844, -0.04800000041723251, 1.055999994277954, 0.0, 0.0, 0.0, 0.0, 0.0, 1.6210019694554284E9, 2021-05-14 16:19:29.455
16.0, 32.411842346191406, -237.7454376220703, 38.26478576660156, 377.2455749511719, 0.03200000151991844, -0.04800000041723251, 1.055999994277954, 0.0, 0.0, 0.0, 0.0, 0.0, 1.6210019694554284E9, 2021-05-14 16:19:29.455
17.0, 41.56711959838867, -236.20086669921875, 38.941707611083984, 383.8913879394531, 0.03200000151991844, -0.04800000041723251, 1.055999994277954, 0.0, 0.0, 0.0, 0.0, 0.0, 1.6210019694881468E9, 2021-05-14 16:19:29.488
17.0, 36.19662094116211, -236.45143127441406, 40.609703063964844, 385.8398742675781, 0.03200000151991844, -0.04800000041723251, 1.055999994277954, 0.0, 0.0, 0.0, 0.0, 0.0, 1.6210019694881468E9, 2021-05-14 16:19:29.488
18.0, 22.882577896118164, -242.17721557617188, 31.705001831054688, 379.6952209472656, 0.03200000151991844, -0.04800000041723251, 1.055999994277954, 0.0, 0.0, 0.0, 0.0, 0.0, 1.621001969488839E9, 2021-05-14 16:19:29.488
18.0, 20.178630828857422, -242.4502410888672, 37.43826675415039, 384.759033203125, 0.03200000151991844, -0.04800000041723251, 1.055999994277954, 0.0, 0.0, 0.0, 0.0, 0.0, 1.621001969488839E9, 2021-05-14 16:19:29.488
19.0, 22.310373306274414, -235.7146759033203, 40.018798828125, 397.5943603515625, 0.03200000151991844, -0.04800000041723251, 1.055999994277954, 0.0, 0.0, 0.0, 0.0, 0.0, 1.6210019694897077E9, 2021-05-14 16:19:29.489
19.0, 25.085378646850586, -233.55300903320312, 45.28458023071289, 407.29193115234375, 0.03200000151991844, -0.04800000041723251, 1.055999994277954, 0.0, 0.0, 0.0, 0.0, 0.0, 1.6210019694897077E9, 2021-05-14 16:19:29.489
20.0, 16.73792266845703, -246.89697265625, 34.34537124633789, 398.4283752441406, 0.03200000151991844, -0.04800000041723251, 1.055999994277954, 0.0, 0.0, 0.0, 0.0, 0.0, 1.6210019694903944E9, 2021-05-14 16:19:29.490
20.0, 12.493135452270508, -240.81964111328125, 37.19891357421875, 398.99310302734375, 0.03200000151991844, -0.04800000041723251, 1.055999994277954, 0.0, 0.0, 0.0, 0.0, 0.0, 1.6210019694903944E9, 2021-05-14 16:19:29.490
21.0, 11.292628288269043, -233.14910888671875, 42.79754638671875, 400.4217529296875, 0.03200000151991844, -0.04800000041723251, 1.055999994277954, 0.0, 0.0, 0.0, 0.0, 0.0, 1.6210019695005727E9, 2021-05-14 16:19:29.500
21.0, 17.695337295532227, -234.67498779296875, 45.36311721801758, 395.33172607421875, 0.03200000151991844, -0.04800000041723251, 1.055999994277954, 0.0, 0.0, 0.0, 0.0, 0.0, 1.6210019695005727E9, 2021-05-14 16:19:29.500
22.0, 13.824540138244629, -235.26588439941406, 42.588111877441406, 394.32196044921875, 0.03200000151991844, -0.04800000041723251, 1.055999994277954, 0.0, 0.0, 0.0, 0.0, 0.0, 1.621001969515401E9, 2021-05-14 16:19:29.515
22.0, 16.913698196411133, -238.27276611328125, 43.392189025878906, 385.70147705078125, 0.03200000151991844, -0.04800000041723251, 1.055999994277954, 0.0, 0.0, 0.0, 0.0, 0.0, 1.621001969515401E9, 2021-05-14 16:19:29.515
23.0, 27.13858413696289, -230.6209259033203, 49.263832092285156, 400.3357238769531, 0.03200000151991844, -0.04800000041723251, 1.055999994277954, 0.0, 0.0, 0.0, 0.0, 0.0, 1.621001969548775E9, 2021-05-14 16:19:29.548
23.0, 28.09225845336914, -228.7098388671875, 54.94847869873047, 398.47698974609375, 0.03200000151991844, -0.04800000041723251, 1.055999994277954, 0.0, 0.0, 0.0, 0.0, 0.0, 1.621001969548775E9, 2021-05-14 16:19:29.548
24.0, 25.205055236816406, -229.62985229492188, 52.19217300415039, 388.5400695800781, 0.03200000151991844, -0.04800000041723251, 1.055999994277954, 0.0, 0.0, 0.0, 0.0, 0.0, 1.621001969549504E9, 2021-05-14 16:19:29.549
24.0, 21.715728759765625, -231.7989959716797, 50.09783172607422, 382.1822509765625, 0.03200000151991844, -0.04800000041723251, 1.055999994277954, 0.0, 0.0, 0.0, 0.0, 0.0, 1.621001969549504E9, 2021-05-14 16:19:29.549
25.0, 35.224246978759766, -224.0125274658203, 53.261783599853516, 391.9059753417969, 0.03200000151991844, -0.04800000041723251, 1.055999994277954, 0.0, 0.0, 0.0, 0.0, 0.0, 1.6210019695502825E9, 2021-05-14 16:19:29.550
25.0, 32.53525924682617, -227.9917755126953, 48.38495635986328, 387.06280517578125, 0.03200000151991844, -0.04800000041723251, 1.055999994277954, 0.0, 0.0, 0.0, 0.0, 0.0, 1.6210019695502825E9, 2021-05-14 16:19:29.550
26.0, 29.846271514892578, -231.1781768798828, 56.713714599609375, 385.87353515625, 0.03200000151991844, -0.04800000041723251, 1.055999994277954, 0.0, 0.0, 0.0, 0.0, 0.0, 1.6210019695509949E9, 2021-05-14 16:19:29.550
26.0, 24.53935432434082, -235.18734741210938, 52.06501770019531, 384.33270263671875, 0.03200000151991844, -0.04800000041723251, 1.055999994277954, 0.0, 0.0, 0.0, 0.0, 0.0, 1.6210019695509949E9, 2021-05-14 16:19:29.550
27.0, 31.312313079833984, -238.9833526611328, 54.795143127441406, 396.85760498046875, 0.03200000151991844, -0.04800000041723251, 1.055999994277954, 0.0, 0.0, 0.0, 0.0, 0.0, 1.6210019695603957E9, 2021-05-14 16:19:29.560
27.0, 26.450443267822266, -233.6652069091797, 53.403900146484375, 403.06585693359375, 0.03200000151991844, -0.04800000041723251, 1.055999994277954, 0.0, 0.0, 0.0, 0.0, 0.0, 1.6210019695603957E9, 2021-05-14 16:19:29.560
28.0, 13.87315845489502, -241.12631225585938, 42.3076171875, 397.6055908203125, 0.03200000151991844, -0.04800000041723251, 1.055999994277954, 0.0, 0.0, 0.0, 0.0, 0.0, 1.6210019695753307E9, 2021-05-14 16:19:29.575
28.0, 11.172950744628906, -246.10037231445312, 42.69656753540039, 397.6803894042969, 0.03200000151991844, -0.04800000041723251, 1.055999994277954, 0.0, 0.0, 0.0, 0.0, 0.0, 1.6210019695753307E9, 2021-05-14 16:19:29.575
29.0, 18.54803466796875, -236.1372833251953, 44.686195373535156, 399.6475830078125, 0.03200000151991844, -0.04800000041723251, 1.055999994277954, 0.0, 0.0, 0.0, 0.0, 0.0, 1.6210019695918496E9, 2021-05-14 16:19:29.591
29.0, 28.836498260498047, -231.391357421875, 49.85847473144531, 399.0940856933594, 0.03200000151991844, -0.04800000041723251, 1.055999994277954, 0.0, 0.0, 0.0, 0.0, 0.0, 1.6210019695918496E9, 2021-05-14 16:19:29.591
30.0, 24.457075119018555, -234.4468536376953, 50.509220123291016, 396.9436340332031, 0.03200000151991844, -0.04800000041723251, 1.055999994277954, 0.0, 0.0, 0.0, 0.0, 0.0, 1.6210019695925076E9, 2021-05-14 16:19:29.592
30.0, 20.986448287963867, -236.7730712890625, 46.23077392578125, 392.7698974609375, 0.03200000151991844, -0.04800000041723251, 1.055999994277954, 0.0, 0.0, 0.0, 0.0, 0.0, 1.6210019695925076E9, 2021-05-14 16:19:29.592
31.0, 33.552513122558594, -229.0651397705078, 50.66629409790039, 403.256591796875, 0.03200000151991844, -0.04800000041723251, 1.055999994277954, 0.0, 0.0, 0.0, 0.0, 0.0, 1.6210019696053739E9, 2021-05-14 16:19:29.605
31.0, 36.86606216430664, -229.67474365234375, 48.71780776977539, 406.5850830078125, 0.03200000151991844, -0.04800000041723251, 1.055999994277954, 0.0, 0.0, 0.0, 0.0, 0.0, 1.6210019696053739E9, 2021-05-14 16:19:29.605
32.0, 26.514020919799805, -243.72927856445312, 42.31135940551758, 394.6548156738281, 0.04800000041723251, -0.04800000041723251, 1.055999994277954, 0.0, 0.0, 0.0, 0.0, 0.0, 1.621001969621016E9, 2021-05-14 16:19:29.621
32.0, 24.995620727539062, -238.65049743652344, 52.21461486816406, 393.66748046875, 0.04800000041723251, -0.04800000041723251, 1.055999994277954, 0.0, 0.0, 0.0, 0.0, 0.0, 1.621001969621016E9, 2021-05-14 16:19:29.621
33.0, 33.649749755859375, -233.14537048339844, 48.6991081237793, 393.64129638671875, 0.04800000041723251, -0.04800000041723251, 1.055999994277954, 0.0, 0.0, 0.0, 0.0, 0.0, 1.621001969621767E9, 2021-05-14 16:19:29.621
33.0, 42.01216506958008, -223.8292694091797, 53.90878677368164, 394.5613098144531, 0.04800000041723251, -0.04800000041723251, 1.055999994277954, 0.0, 0.0, 0.0, 0.0, 0.0, 1.621001969621767E9, 2021-05-14 16:19:29.621
34.0, 32.14630889892578, -228.13015747070312, 49.51814651489258, 388.2333984375, 0.04800000041723251, -0.04800000041723251, 1.055999994277954, 0.0, 0.0, 0.0, 0.0, 0.0, 1.6210019696353986E9, 2021-05-14 16:19:29.635
34.0, 25.403270721435547, -235.18360900878906, 44.5665168762207, 380.9779968261719, 0.04800000041723251, -0.04800000041723251, 1.055999994277954, 0.0, 0.0, 0.0, 0.0, 0.0, 1.6210019696353986E9, 2021-05-14 16:19:29.635
35.0, 24.453336715698242, -233.9644012451172, 43.88211441040039, 384.86376953125, 0.04800000041723251, -0.04800000041723251, 1.055999994277954, 0.0, 0.0, 0.0, 0.0, 0.0, 1.6210019696517963E9, 2021-05-14 16:19:29.651
35.0, 28.110958099365234, -228.98284912109375, 52.210872650146484, 401.2108459472656, 0.04800000041723251, -0.04800000041723251, 1.055999994277954, 0.0, 0.0, 0.0, 0.0, 0.0, 1.6210019696517963E9, 2021-05-14 16:19:29.651
36.0, 16.378890991210938, -235.02279663085938, 44.15886688232422, 389.28057861328125, 0.04800000041723251, -0.04800000041723251, 1.055999994277954, 0.0, 0.0, 0.0, 0.0, 0.0, 1.6210019696524324E9, 2021-05-14 16:19:29.652
36.0, 8.588680267333984, -240.18759155273438, 41.26044464111328, 388.326904296875, 0.04800000041723251, -0.04800000041723251, 1.055999994277954, 0.0, 0.0, 0.0, 0.0, 0.0, 1.6210019696524324E9, 2021-05-14 16:19:29.652
37.0, 18.649011611938477, -232.12063598632812, 46.08491897583008, 397.90478515625, 0.04800000041723251, -0.04800000041723251, 1.055999994277954, 0.0, 0.0, 0.0, 0.0, 0.0, 1.6210019696653512E9, 2021-05-14 16:19:29.665
37.0, 26.902971267700195, -235.72215270996094, 43.21641540527344, 398.4021911621094, 0.04800000041723251, -0.04800000041723251, 1.055999994277954, 0.0, 0.0, 0.0, 0.0, 0.0, 1.6210019696653512E9, 2021-05-14 16:19:29.665
38.0, 24.72260856628418, -239.79116821289062, 41.484840393066406, 390.7428894042969, 0.04800000041723251, -0.04800000041723251, 1.055999994277954, 0.0, 0.0, 0.0, 0.0, 0.0, 1.6210019696810207E9, 2021-05-14 16:19:29.681
38.0, 18.910804748535156, -243.64700317382812, 36.477115631103516, 386.6701354980469, 0.04800000041723251, -0.04800000041723251, 1.055999994277954, 0.0, 0.0, 0.0, 0.0, 0.0, 1.6210019696810207E9, 2021-05-14 16:19:29.681
39.0, 31.40580940246582, -243.48619079589844, 35.86003112792969, 392.64276123046875, 0.04800000041723251, -0.04800000041723251, 1.055999994277954, 0.0, 0.0, 0.0, 0.0, 0.0, 1.6210019696817937E9, 2021-05-14 16:19:29.681
39.0, 32.307125091552734, -239.95571899414062, 31.331012725830078, 389.4675598144531, 0.04800000041723251, -0.04800000041723251, 1.055999994277954, 0.0, 0.0, 0.0, 0.0, 0.0, 1.6210019696817937E9, 2021-05-14 16:19:29.681
40.0, 33.82926559448242, -246.21630859375, 30.66530990600586, 385.3387145996094, 0.04800000041723251, -0.04800000041723251, 1.055999994277954, 0.0, 0.0, 0.0, 0.0, 0.0, 1.6210019696953864E9, 2021-05-14 16:19:29.695
40.0, 30.743846893310547, -242.35299682617188, 31.136537551879883, 383.7716979980469, 0.04800000041723251, -0.04800000041723251, 1.055999994277954, 0.0, 0.0, 0.0, 0.0, 0.0, 1.6210019696953864E9, 2021-05-14 16:19:29.695
41.0, 41.24174499511719, -235.1574249267578, 39.02398681640625, 397.4073791503906, 0.04800000041723251, -0.04800000041723251, 1.055999994277954, 0.0, 0.0, 0.0, 0.0, 0.0, 1.6210019697118356E9, 2021-05-14 16:19:29.711
41.0, 36.34621810913086, -234.06912231445312, 42.40485382080078, 393.3907165527344, 0.04800000041723251, -0.04800000041723251, 1.055999994277954, 0.0, 0.0, 0.0, 0.0, 0.0, 1.6210019697118356E9, 2021-05-14 16:19:29.711
42.0, 24.89838409423828, -239.46205139160156, 42.89478302001953, 384.8114013671875, 0.03200000151991844, -0.04800000041723251, 1.055999994277954, 0.0, 0.0, 0.0, 0.0, 0.0, 1.6210019697125113E9, 2021-05-14 16:19:29.712
42.0, 17.822492599487305, -241.44793701171875, 46.54866409301758, 382.3430480957031, 0.03200000151991844, -0.04800000041723251, 1.055999994277954, 0.0, 0.0, 0.0, 0.0, 0.0, 1.6210019697125113E9, 2021-05-14 16:19:29.712
43.0, 27.624771118164062, -232.6442108154297, 46.586063385009766, 393.6151123046875, 0.03200000151991844, -0.04800000041723251, 1.055999994277954, 0.0, 0.0, 0.0, 0.0, 0.0, 1.621001969741896E9, 2021-05-14 16:19:29.741
43.0, 25.0068416595459, -235.12376403808594, 45.04148483276367, 395.2344970703125, 0.03200000151991844, -0.04800000041723251, 1.055999994277954, 0.0, 0.0, 0.0, 0.0, 0.0, 1.621001969741896E9, 2021-05-14 16:19:29.741
44.0, 21.876544952392578, -238.57943725585938, 42.74518585205078, 386.6289978027344, 0.03200000151991844, -0.04800000041723251, 1.055999994277954, 0.0, 0.0, 0.0, 0.0, 0.0, 1.6210019697425296E9, 2021-05-14 16:19:29.742
44.0, 23.275266647338867, -237.56591796875, 42.816246032714844, 381.191162109375, 0.03200000151991844, -0.04800000041723251, 1.055999994277954, 0.0, 0.0, 0.0, 0.0, 0.0, 1.6210019697425296E9, 2021-05-14 16:19:29.742
45.0, 33.35055923461914, -236.02134704589844, 40.3292121887207, 384.4411315917969, 0.03200000151991844, -0.04800000041723251, 1.055999994277954, 0.0, 0.0, 0.0, 0.0, 0.0, 1.621001969743335E9, 2021-05-14 16:19:29.743
45.0, 43.09299850463867, -237.33404541015625, 42.9995002746582, 388.4316101074219, 0.03200000151991844, -0.04800000041723251, 1.055999994277954, 0.0, 0.0, 0.0, 0.0, 0.0, 1.621001969743335E9, 2021-05-14 16:19:29.743
46.0, 38.53779983520508, -235.7071990966797, 43.46324920654297, 393.409423828125, 0.03200000151991844, -0.04800000041723251, 1.055999994277954, 0.0, 0.0, 0.0, 0.0, 0.0, 1.621001969755469E9, 2021-05-14 16:19:29.755
46.0, 27.348018646240234, -241.62745666503906, 42.6068115234375, 390.7428894042969, 0.03200000151991844, -0.04800000041723251, 1.055999994277954, 0.0, 0.0, 0.0, 0.0, 0.0, 1.621001969755469E9, 2021-05-14 16:19:29.755
47.0, 27.08248519897461, -240.4493865966797, 44.22992706298828, 388.64105224609375, 0.03200000151991844, -0.04800000041723251, 1.055999994277954, 0.0, 0.0, 0.0, 0.0, 0.0, 1.6210019697710707E9, 2021-05-14 16:19:29.771
47.0, 30.250181198120117, -240.35589599609375, 42.35623550415039, 393.5552673339844, 0.03200000151991844, -0.04800000041723251, 1.055999994277954, 0.0, 0.0, 0.0, 0.0, 0.0, 1.6210019697710707E9, 2021-05-14 16:19:29.771
48.0, 21.38661766052246, -243.47496032714844, 35.0709114074707, 384.48602294921875, 0.03200000151991844, -0.04800000041723251, 1.055999994277954, 0.0, 0.0, 0.0, 0.0, 0.0, 1.621001969771784E9, 2021-05-14 16:19:29.771
48.0, 20.795713424682617, -244.61936950683594, 32.50160217285156, 376.7406921386719, 0.03200000151991844, -0.04800000041723251, 1.055999994277954, 0.0, 0.0, 0.0, 0.0, 0.0, 1.621001969771784E9, 2021-05-14 16:19:29.771
49.0, 26.457921981811523, -240.22499084472656, 35.418724060058594, 390.3389587402344, 0.03200000151991844, -0.04800000041723251, 1.055999994277954, 0.0, 0.0, 0.0, 0.0, 0.0, 1.6210019697853673E9, 2021-05-14 16:19:29.785
49.0, 30.680269241333008, -228.15634155273438, 34.62960433959961, 396.1545104980469, 0.03200000151991844, -0.04800000041723251, 1.055999994277954, 0.0, 0.0, 0.0, 0.0, 0.0, 1.6210019697853673E9, 2021-05-14 16:19:29.785
50.0, 20.324485778808594, -234.20375061035156, 30.02204704284668, 386.4906005859375, 0.03200000151991844, -0.04800000041723251, 1.055999994277954, 0.0, 0.0, 0.0, 0.0, 0.0, 1.6210019698175237E9, 2021-05-14 16:19:29.817
50.0, 10.436190605163574, -235.89419555664062, 37.374691009521484, 382.8554382324219, 0.03200000151991844, -0.04800000041723251, 1.055999994277954, 0.0, 0.0, 0.0, 0.0, 0.0, 1.6210019698175237E9, 2021-05-14 16:19:29.817
51.0, 15.238222122192383, -229.90286254882812, 36.83988571166992, 388.92901611328125, 0.03200000151991844, -0.04800000041723251, 1.055999994277954, 0.0, 0.0, 0.0, 0.0, 0.0, 1.62100196981755E9, 2021-05-14 16:19:29.817
51.0, 19.905616760253906, -227.6103057861328, 40.50498580932617, 390.5259704589844, 0.03200000151991844, -0.04800000041723251, 1.055999994277954, 0.0, 0.0, 0.0, 0.0, 0.0, 1.62100196981755E9, 2021-05-14 16:19:29.817
52.0, 8.682177543640137, -233.61285400390625, 32.871849060058594, 382.6534729003906, 0.03200000151991844, -0.04800000041723251, 1.055999994277954, 0.0, 0.0, 0.0, 0.0, 0.0, 1.621001969831846E9, 2021-05-14 16:19:29.831
52.0, 5.334967136383057, -235.8792266845703, 33.601131439208984, 383.98114013671875, 0.03200000151991844, -0.04800000041723251, 1.055999994277954, 0.0, 0.0, 0.0, 0.0, 0.0, 1.621001969831846E9, 2021-05-14 16:19:29.831
53.0, 16.509788513183594, -230.90516662597656, 33.34307861328125, 381.6025695800781, 0.03200000151991844, -0.04800000041723251, 1.055999994277954, 0.0, 0.0, 0.0, 0.0, 0.0, 1.6210019698325584E9, 2021-05-14 16:19:29.832
53.0, 38.855690002441406, -230.3740997314453, 41.00987243652344, 387.7210388183594, 0.03200000151991844, -0.04800000041723251, 1.055999994277954, 0.0, 0.0, 0.0, 0.0, 0.0, 1.6210019698325584E9, 2021-05-14 16:19:29.832
54.0, 37.14655685424805, -241.556396484375, 33.63105010986328, 381.7521667480469, 0.03200000151991844, -0.04800000041723251, 1.055999994277954, 0.0, 0.0, 0.0, 0.0, 0.0, 1.621001969833338E9, 2021-05-14 16:19:29.833
54.0, 33.42909622192383, -243.0860137939453, 33.028926849365234, 374.8595275878906, 0.03200000151991844, -0.04800000041723251, 1.055999994277954, 0.0, 0.0, 0.0, 0.0, 0.0, 1.621001969833338E9, 2021-05-14 16:19:29.833
55.0, 33.5861701965332, -237.09095764160156, 35.658077239990234, 382.4066467285156, 0.03200000151991844, -0.04800000041723251, 1.055999994277954, 0.0, 0.0, 0.0, 0.0, 0.0, 1.6210019698453536E9, 2021-05-14 16:19:29.845
55.0, 37.838436126708984, -230.93508911132812, 39.29325866699219, 386.1951599121094, 0.03200000151991844, -0.04800000041723251, 1.055999994277954, 0.0, 0.0, 0.0, 0.0, 0.0, 1.6210019698453536E9, 2021-05-14 16:19:29.845
56.0, 32.31086730957031, -239.27505493164062, 40.12725830078125, 383.84649658203125, 0.03200000151991844, -0.04800000041723251, 1.055999994277954, 0.0, 0.0, 0.0, 0.0, 0.0, 1.6210019698611906E9, 2021-05-14 16:19:29.861
56.0, 19.643823623657227, -242.24827575683594, 32.09395217895508, 380.9929504394531, 0.03200000151991844, -0.04800000041723251, 1.055999994277954, 0.0, 0.0, 0.0, 0.0, 0.0, 1.6210019698611906E9, 2021-05-14 16:19:29.861
57.0, 23.596899032592773, -229.74952697753906, 42.37119674682617, 388.0164794921875, 0.03200000151991844, -0.04800000041723251, 1.055999994277954, 0.0, 0.0, 0.0, 0.0, 0.0, 1.621001969861756E9, 2021-05-14 16:19:29.861
57.0, 29.5956974029541, -236.46640014648438, 41.720455169677734, 392.7923278808594, 0.03200000151991844, -0.04800000041723251, 1.055999994277954, 0.0, 0.0, 0.0, 0.0, 0.0, 1.621001969861756E9, 2021-05-14 16:19:29.861
58.0, 27.10492515563965, -238.35504150390625, 47.12086868286133, 386.4943542480469, 0.03200000151991844, -0.04800000041723251, 1.055999994277954, 0.0, 0.0, 0.0, 0.0, 0.0, 1.6210019698754783E9, 2021-05-14 16:19:29.875
58.0, 13.828280448913574, -235.8380889892578, 43.26877212524414, 379.10430908203125, 0.03200000151991844, -0.04800000041723251, 1.055999994277954, 0.0, 0.0, 0.0, 0.0, 0.0, 1.6210019698754783E9, 2021-05-14 16:19:29.875
59.0, 22.516067504882812, -235.81565856933594, 44.90311050415039, 387.4181213378906, 0.03200000151991844, -0.04800000041723251, 1.055999994277954, 0.0, 0.0, 0.0, 0.0, 0.0, 1.6210019698910425E9, 2021-05-14 16:19:29.891
59.0, 31.331012725830078, -223.3842315673828, 47.2555046081543, 401.1958923339844, 0.03200000151991844, -0.04800000041723251, 1.055999994277954, 0.0, 0.0, 0.0, 0.0, 0.0, 1.6210019698910425E9, 2021-05-14 16:19:29.891
60.0, 18.54055404663086, -233.02194213867188, 38.83699035644531, 392.294921875, 0.03200000151991844, -0.04800000041723251, 1.055999994277954, 0.0, 0.0, 0.0, 0.0, 0.0, 1.6210019698917773E9, 2021-05-14 16:19:29.891
60.0, 15.945063591003418, -235.21353149414062, 32.04159164428711, 384.3139953613281, 0.03200000151991844, -0.04800000041723251, 1.055999994277954, 0.0, 0.0, 0.0, 0.0, 0.0, 1.6210019698917773E9, 2021-05-14 16:19:29.891
61.0, 24.59545135498047, -231.22679138183594, 42.33005905151367, 389.2244873046875, 0.03200000151991844, -0.04800000041723251, 1.055999994277954, 0.0, 0.0, 0.0, 0.0, 0.0, 1.6210019699053793E9, 2021-05-14 16:19:29.905
61.0, 29.719114303588867, -224.9736785888672, 40.78921890258789, 389.7181396484375, 0.03200000151991844, -0.04800000041723251, 1.055999994277954, 0.0, 0.0, 0.0, 0.0, 0.0, 1.6210019699053793E9, 2021-05-14 16:19:29.905
62.0, 28.17827606201172, -231.8551025390625, 41.959808349609375, 385.286376953125, 0.03200000151991844, -0.04800000041723251, 1.055999994277954, 0.0, 0.0, 0.0, 0.0, 0.0, 1.6210019699209888E9, 2021-05-14 16:19:29.920
62.0, 27.16102409362793, -236.0550079345703, 33.57121276855469, 378.07208251953125, 0.03200000151991844, -0.04800000041723251, 1.055999994277954, 0.0, 0.0, 0.0, 0.0, 0.0, 1.6210019699209888E9, 2021-05-14 16:19:29.920
63.0, 36.34995651245117, -231.5185089111328, 38.44430160522461, 386.5130615234375, 0.03200000151991844, -0.04800000041723251, 1.055999994277954, 0.0, 0.0, 0.0, 0.0, 0.0, 1.6210019699217448E9, 2021-05-14 16:19:29.921
63.0, 35.68799591064453, -225.9123992919922, 44.5852165222168, 385.615478515625, 0.03200000151991844, -0.04800000041723251, 1.055999994277954, 0.0, 0.0, 0.0, 0.0, 0.0, 1.6210019699217448E9, 2021-05-14 16:19:29.921
64.0, 31.895736694335938, -226.71273803710938, 45.426692962646484, 377.974853515625, 0.03200000151991844, -0.04800000041723251, 1.055999994277954, 0.0, 0.0, 0.0, 0.0, 0.0, 1.6210019699353375E9, 2021-05-14 16:19:29.935
64.0, 24.09430503845215, -225.16441345214844, 44.61887741088867, 377.70184326171875, 0.03200000151991844, -0.04800000041723251, 1.055999994277954, 0.0, 0.0, 0.0, 0.0, 0.0, 1.6210019699353375E9, 2021-05-14 16:19:29.935
65.0, 30.111804962158203, -220.29507446289062, 49.38351058959961, 384.43365478515625, 0.03200000151991844, -0.04800000041723251, 1.055999994277954, 0.0, 0.0, 0.0, 0.0, 0.0, 1.621001969951048E9, 2021-05-14 16:19:29.951
65.0, 29.39374351501465, -222.96536254882812, 45.83808517456055, 387.4629821777344, 0.03200000151991844, -0.04800000041723251, 1.055999994277954, 0.0, 0.0, 0.0, 0.0, 0.0, 1.621001969951048E9, 2021-05-14 16:19:29.951
66.0, 24.083086013793945, -231.49232482910156, 38.4517822265625, 388.2670593261719, 0.03200000151991844, -0.04800000041723251, 1.055999994277954, 0.0, 0.0, 0.0, 0.0, 0.0, 1.6210019699517682E9, 2021-05-14 16:19:29.951
66.0, 9.422677993774414, -234.86572265625, 30.14920425415039, 384.51593017578125, 0.03200000151991844, -0.04800000041723251, 1.055999994277954, 0.0, 0.0, 0.0, 0.0, 0.0, 1.6210019699517682E9, 2021-05-14 16:19:29.951
67.0, 23.264047622680664, -227.11663818359375, 42.094444274902344, 396.05352783203125, 0.03200000151991844, -0.04800000041723251, 1.055999994277954, 0.0, 0.0, 0.0, 0.0, 0.0, 1.6210019699653456E9, 2021-05-14 16:19:29.965
67.0, 22.38517189025879, -229.92904663085938, 39.562530517578125, 401.78680419921875, 0.03200000151991844, -0.04800000041723251, 1.055999994277954, 0.0, 0.0, 0.0, 0.0, 0.0, 1.6210019699653456E9, 2021-05-14 16:19:29.965
68.0, 19.082839965820312, -232.50958251953125, 36.77630615234375, 399.183837890625, 0.03200000151991844, -0.04800000041723251, 1.055999994277954, 0.0, 0.0, 0.0, 0.0, 0.0, 1.6210019699811223E9, 2021-05-14 16:19:29.981
68.0, 19.40821075439453, -233.3248748779297, 35.897430419921875, 392.15655517578125, 0.03200000151991844, -0.04800000041723251, 1.055999994277954, 0.0, 0.0, 0.0, 0.0, 0.0, 1.6210019699811223E9, 2021-05-14 16:19:29.981
69.0, 23.18924903869629, -230.43019104003906, 39.678466796875, 390.3127746582031, 0.03200000151991844, -0.04800000041723251, 1.055999994277954, 0.0, 0.0, 0.0, 0.0, 0.0, 1.6210019699818213E9, 2021-05-14 16:19:29.981
69.0, 34.76797866821289, -223.7133331298828, 42.83868408203125, 394.8904113769531, 0.03200000151991844, -0.04800000041723251, 1.055999994277954, 0.0, 0.0, 0.0, 0.0, 0.0, 1.6210019699818213E9, 2021-05-14 16:19:29.981
70.0, 34.96619415283203, -231.8438720703125, 41.41378402709961, 391.9246826171875, 0.03200000151991844, -0.04800000041723251, 1.055999994277954, 0.0, 0.0, 0.0, 0.0, 0.0, 1.6210019700123773E9, 2021-05-14 16:19:30.012
70.0, 35.90116882324219, -237.30413818359375, 37.12411880493164, 382.6983642578125, 0.03200000151991844, -0.04800000041723251, 1.055999994277954, 0.0, 0.0, 0.0, 0.0, 0.0, 1.6210019700123773E9, 2021-05-14 16:19:30.012
71.0, 41.522239685058594, -235.77076721191406, 45.3070182800293, 396.1545104980469, 0.03200000151991844, -0.04800000041723251, 1.055999994277954, 0.0, 0.0, 0.0, 0.0, 0.0, 1.621001970013105E9, 2021-05-14 16:19:30.013
71.0, 46.73191833496094, -230.7892303466797, 48.24283981323242, 397.4111328125, 0.03200000151991844, -0.04800000041723251, 1.055999994277954, 0.0, 0.0, 0.0, 0.0, 0.0, 1.621001970013105E9, 2021-05-14 16:19:30.013
72.0, 41.12580871582031, -238.03341674804688, 45.35563659667969, 390.1033630371094, 0.03200000151991844, -0.04800000041723251, 1.055999994277954, 0.0, 0.0, 0.0, 0.0, 0.0, 1.621001970013852E9, 2021-05-14 16:19:30.013
72.0, 36.20036315917969, -235.35189819335938, 47.18070602416992, 377.26800537109375, 0.03200000151991844, -0.04800000041723251, 1.055999994277954, 0.0, 0.0, 0.0, 0.0, 0.0, 1.621001970013852E9, 2021-05-14 16:19:30.013
73.0, 33.365516662597656, -229.2222137451172, 46.245731353759766, 383.0199890136719, 0.03200000151991844, -0.04800000041723251, 1.055999994277954, 0.0, 0.0, 0.0, 0.0, 0.0, 1.6210019700254097E9, 2021-05-14 16:19:30.025
73.0, 37.49810791015625, -223.750732421875, 50.6475944519043, 383.61090087890625, 0.03200000151991844, -0.04800000041723251, 1.055999994277954, 0.0, 0.0, 0.0, 0.0, 0.0, 1.6210019700254097E9, 2021-05-14 16:19:30.025
74.0, 22.901277542114258, -233.8035888671875, 42.9995002746582, 372.00970458984375, 0.03200000151991844, -0.04800000041723251, 1.055999994277954, 0.0, 0.0, 0.0, 0.0, 0.0, 1.6210019700410852E9, 2021-05-14 16:19:30.041
74.0, 22.396390914916992, -234.3870086669922, 40.63962173461914, 369.8368225097656, 0.03200000151991844, -0.04800000041723251, 1.055999994277954, 0.0, 0.0, 0.0, 0.0, 0.0, 1.6210019700410852E9, 2021-05-14 16:19:30.041
75.0, 26.70849609375, -233.19024658203125, 43.11543655395508, 389.160888671875, 0.03200000151991844, -0.04800000041723251, 1.055999994277954, 0.0, 0.0, 0.0, 0.0, 0.0, 1.6210019700418036E9, 2021-05-14 16:19:30.041
75.0, 25.979215621948242, -229.78318786621094, 44.85074996948242, 397.1904602050781, 0.03200000151991844, -0.04800000041723251, 1.055999994277954, 0.0, 0.0, 0.0, 0.0, 0.0, 1.6210019700418036E9, 2021-05-14 16:19:30.041
76.0, 22.534767150878906, -235.71841430664062, 46.39906692504883, 395.11480712890625, 0.03200000151991844, -0.04800000041723251, 1.055999994277954, 0.0, 0.0, 0.0, 0.0, 0.0, 1.6210019700554316E9, 2021-05-14 16:19:30.055
