Sample Index, EXG Channel 0, EXG Channel 1, EXG Channel 2, EXG Channel 3, Accel Channel 0, Accel Channel 1, Accel Channel 2, Other, Other, Other, Other, Other, Timestamp, Timestamp (Formatted)
0.0, -104.65548706054688, 157.50401306152344, 20.477821350097656, 311.51123046875, 0.0, 0.0, 0.0, 0.0, 0.0, 0.0, 0.0, 0.0, 1.6212566855296311E9, 2021-05-17 15:04:45.529
1.0, -89.29572296142578, 166.64059448242188, 31.918176651000977, 325.9659423828125, 0.0, -0.01600000075995922, 0.0, 0.0, 0.0, 0.0, 0.0, 0.0, 1.6212566855430984E9, 2021-05-17 15:04:45.543
1.0, -99.33734893798828, 158.99996948242188, 26.70849609375, 314.6751708984375, 0.0, -0.01600000075995922, 0.0, 0.0, 0.0, 0.0, 0.0, 0.0, 1.6212566855430984E9, 2021-05-17 15:04:45.543
2.0, -110.00354766845703, 155.11422729492188, 20.533920288085938, 309.1214294433594, 0.04800000041723251, -0.01600000075995922, 0.0, 0.0, 0.0, 0.0, 0.0, 0.0, 1.6212566855597308E9, 2021-05-17 15:04:45.559
2.0, -101.47657775878906, 158.27442932128906, 25.908157348632812, 316.7096862792969, 0.04800000041723251, -0.01600000075995922, 0.0, 0.0, 0.0, 0.0, 0.0, 0.0, 1.6212566855597308E9, 2021-05-17 15:04:45.559
3.0, -91.32274627685547, 166.7752227783203, 38.096492767333984, 326.5830383300781, 0.04800000041723251, -0.01600000075995922, 0.0, 0.0, 0.0, 0.0, 0.0, 0.0, 1.621256685560455E9, 2021-05-17 15:04:45.560
3.0, -98.42481994628906, 164.6434783935547, 30.04822540283203, 316.0252990722656, 0.04800000041723251, -0.01600000075995922, 0.0, 0.0, 0.0, 0.0, 0.0, 0.0, 1.621256685560455E9, 2021-05-17 15:04:45.560
4.0, -108.2083969116211, 153.4574432373047, 21.00514793395996, 310.99139404296875, 0.04800000041723251, -0.01600000075995922, 0.0, 0.0, 0.0, 0.0, 0.0, 0.0, 1.6212566855728855E9, 2021-05-17 15:04:45.572
4.0, -102.07495880126953, 158.57362365722656, 26.69353675842285, 317.6072692871094, 0.04800000041723251, -0.01600000075995922, 0.0, 0.0, 0.0, 0.0, 0.0, 0.0, 1.6212566855728855E9, 2021-05-17 15:04:45.572
5.0, -86.95454406738281, 171.7044219970703, 38.65373611450195, 333.8346862792969, 0.04800000041723251, -0.01600000075995922, 0.0, 0.0, 0.0, 0.0, 0.0, 0.0, 1.6212566855884967E9, 2021-05-17 15:04:45.588
5.0, -93.5779037475586, 164.93519592285156, 33.53007125854492, 325.42364501953125, 0.04800000041723251, -0.01600000075995922, 0.0, 0.0, 0.0, 0.0, 0.0, 0.0, 1.6212566855884967E9, 2021-05-17 15:04:45.588
6.0, -109.02369689941406, 153.6818389892578, 22.639484405517578, 313.4410095214844, 0.04800000041723251, -0.01600000075995922, 0.0, 0.0, 0.0, 0.0, 0.0, 0.0, 1.6212566855892472E9, 2021-05-17 15:04:45.589
6.0, -100.9417724609375, 159.78909301757812, 29.102031707763672, 323.1423034667969, 0.04800000041723251, -0.01600000075995922, 0.0, 0.0, 0.0, 0.0, 0.0, 0.0, 1.6212566855892472E9, 2021-05-17 15:04:45.589
7.0, -87.79975891113281, 169.93170166015625, 44.07659149169922, 332.0507507324219, 0.04800000041723251, -0.01600000075995922, 0.0, 0.0, 0.0, 0.0, 0.0, 0.0, 1.6212566856029725E9, 2021-05-17 15:04:45.602
7.0, -98.7988052368164, 167.9121551513672, 32.213626861572266, 320.1130065917969, 0.04800000041723251, -0.01600000075995922, 0.0, 0.0, 0.0, 0.0, 0.0, 0.0, 1.6212566856029725E9, 2021-05-17 15:04:45.602
8.0, -107.18366241455078, 160.3800048828125, 16.56214714050293, 310.5426025390625, 0.04800000041723251, -0.01600000075995922, 0.0, 0.0, 0.0, 0.0, 0.0, 0.0, 1.6212566856185026E9, 2021-05-17 15:04:45.618
8.0, -109.58094024658203, 167.13426208496094, 23.394943237304688, 314.8434753417969, 0.04800000041723251, -0.01600000075995922, 0.0, 0.0, 0.0, 0.0, 0.0, 0.0, 1.6212566856185026E9, 2021-05-17 15:04:45.618
9.0, -102.43772888183594, 180.938232421875, 32.71851348876953, 327.884521484375, 0.04800000041723251, -0.01600000075995922, 0.0, 0.0, 0.0, 0.0, 0.0, 0.0, 1.6212566856192286E9, 2021-05-17 15:04:45.619
9.0, -99.10922241210938, 179.3749542236328, 26.293367385864258, 327.8658142089844, 0.04800000041723251, -0.01600000075995922, 0.0, 0.0, 0.0, 0.0, 0.0, 0.0, 1.6212566856192286E9, 2021-05-17 15:04:45.619
10.0, -99.22515869140625, 166.7303466796875, 22.931196212768555, 317.0762023925781, 0.04800000041723251, -0.01600000075995922, 1.055999994277954, 0.0, 0.0, 0.0, 0.0, 0.0, 1.6212566856328259E9, 2021-05-17 15:04:45.632
10.0, -88.29342651367188, 170.5824432373047, 31.33475112915039, 317.05377197265625, 0.04800000041723251, -0.01600000075995922, 1.055999994277954, 0.0, 0.0, 0.0, 0.0, 0.0, 1.6212566856328259E9, 2021-05-17 15:04:45.632
11.0, -76.2509536743164, 174.12039184570312, 42.588111877441406, 326.8036804199219, 0.04800000041723251, -0.01600000075995922, 1.055999994277954, 0.0, 0.0, 0.0, 0.0, 0.0, 1.621256685648476E9, 2021-05-17 15:04:45.648
11.0, -88.67115783691406, 164.08250427246094, 27.744447708129883, 314.8434753417969, 0.04800000041723251, -0.01600000075995922, 1.055999994277954, 0.0, 0.0, 0.0, 0.0, 0.0, 1.621256685648476E9, 2021-05-17 15:04:45.648
12.0, -92.60179138183594, 161.15042114257812, 22.153297424316406, 306.3389587402344, 0.04800000041723251, -0.01600000075995922, 1.055999994277954, 0.0, 0.0, 0.0, 0.0, 0.0, 1.621256685649237E9, 2021-05-17 15:04:45.649
12.0, -92.22032165527344, 162.9979248046875, 24.70016860961914, 316.44415283203125, 0.04800000041723251, -0.01600000075995922, 1.055999994277954, 0.0, 0.0, 0.0, 0.0, 0.0, 1.621256685649237E9, 2021-05-17 15:04:45.649
13.0, -87.70252227783203, 171.16587829589844, 31.465648651123047, 327.1477355957031, 0.04800000041723251, -0.01600000075995922, 1.055999994277954, 0.0, 0.0, 0.0, 0.0, 0.0, 1.6212566856628127E9, 2021-05-17 15:04:45.662
13.0, -93.72376251220703, 165.31292724609375, 30.661569595336914, 328.6474609375, 0.04800000041723251, -0.01600000075995922, 1.055999994277954, 0.0, 0.0, 0.0, 0.0, 0.0, 1.6212566856628127E9, 2021-05-17 15:04:45.662
14.0, -95.18980407714844, 162.84085083007812, 24.98440170288086, 326.94580078125, 0.04800000041723251, -0.01600000075995922, 1.055999994277954, 0.0, 0.0, 0.0, 0.0, 0.0, 1.6212566856792436E9, 2021-05-17 15:04:45.679
14.0, -93.57042694091797, 160.57821655273438, 26.349464416503906, 330.34161376953125, 0.04800000041723251, -0.01600000075995922, 1.055999994277954, 0.0, 0.0, 0.0, 0.0, 0.0, 1.6212566856792436E9, 2021-05-17 15:04:45.679
15.0, -87.25373840332031, 171.7455596923828, 35.91613006591797, 336.44140625, 0.04800000041723251, -0.01600000075995922, 1.055999994277954, 0.0, 0.0, 0.0, 0.0, 0.0, 1.6212566856799176E9, 2021-05-17 15:04:45.679
15.0, -97.5272445678711, 165.69813537597656, 22.059799194335938, 327.92938232421875, 0.04800000041723251, -0.01600000075995922, 1.055999994277954, 0.0, 0.0, 0.0, 0.0, 0.0, 1.6212566856799176E9, 2021-05-17 15:04:45.679
16.0, -103.08473205566406, 158.05752563476562, 20.74335479736328, 316.5488586425781, 0.04800000041723251, -0.01600000075995922, 1.055999994277954, 0.0, 0.0, 0.0, 0.0, 0.0, 1.6212566856928804E9, 2021-05-17 15:04:45.692
16.0, -100.75103759765625, 165.8888702392578, 31.473127365112305, 328.45672607421875, 0.04800000041723251, -0.01600000075995922, 1.055999994277954, 0.0, 0.0, 0.0, 0.0, 0.0, 1.6212566856928804E9, 2021-05-17 15:04:45.692
17.0, -92.68407440185547, 177.23947143554688, 38.67991638183594, 333.8758239746094, 0.04800000041723251, -0.01600000075995922, 1.055999994277954, 0.0, 0.0, 0.0, 0.0, 0.0, 1.6212566857086017E9, 2021-05-17 15:04:45.708
17.0, -105.68770599365234, 171.36782836914062, 31.8433780670166, 322.0652160644531, 0.04800000041723251, -0.01600000075995922, 1.055999994277954, 0.0, 0.0, 0.0, 0.0, 0.0, 1.6212566857086017E9, 2021-05-17 15:04:45.708
18.0, -116.35389709472656, 164.22836303710938, 14.389265060424805, 306.1781311035156, 0.04800000041723251, -0.01600000075995922, 1.055999994277954, 0.0, 0.0, 0.0, 0.0, 0.0, 1.621256685709264E9, 2021-05-17 15:04:45.709
18.0, -96.95877838134766, 167.46336364746094, 26.73467445373535, 325.7265930175781, 0.04800000041723251, -0.01600000075995922, 1.055999994277954, 0.0, 0.0, 0.0, 0.0, 0.0, 1.621256685709264E9, 2021-05-17 15:04:45.709
19.0, -83.99628448486328, 175.5490264892578, 40.68450164794922, 329.1112060546875, 0.04800000041723251, -0.01600000075995922, 1.055999994277954, 0.0, 0.0, 0.0, 0.0, 0.0, 1.621256685722826E9, 2021-05-17 15:04:45.722
19.0, -89.2209243774414, 166.93605041503906, 33.58243179321289, 318.8750915527344, 0.04800000041723251, -0.01600000075995922, 1.055999994277954, 0.0, 0.0, 0.0, 0.0, 0.0, 1.621256685722826E9, 2021-05-17 15:04:45.722
20.0, -98.66790771484375, 152.18214416503906, 22.448749542236328, 305.0898132324219, 0.04800000041723251, -0.01600000075995922, 1.055999994277954, 0.0, 0.0, 0.0, 0.0, 0.0, 1.6212566857385073E9, 2021-05-17 15:04:45.738
20.0, -84.12718200683594, 159.2281036376953, 31.600284576416016, 317.5810852050781, 0.04800000041723251, -0.01600000075995922, 1.055999994277954, 0.0, 0.0, 0.0, 0.0, 0.0, 1.6212566857385073E9, 2021-05-17 15:04:45.738
21.0, -84.3440933227539, 168.99673461914062, 26.775814056396484, 328.366943359375, 0.04800000041723251, -0.01600000075995922, 1.055999994277954, 0.0, 0.0, 0.0, 0.0, 0.0, 1.6212566857392209E9, 2021-05-17 15:04:45.739
21.0, -94.58767700195312, 162.20132446289062, 19.396991729736328, 323.2358093261719, 0.04800000041723251, -0.01600000075995922, 1.055999994277954, 0.0, 0.0, 0.0, 0.0, 0.0, 1.6212566857392209E9, 2021-05-17 15:04:45.739
22.0, -102.62846374511719, 158.10614013671875, 14.348126411437988, 319.67169189453125, 0.04800000041723251, -0.01600000075995922, 1.055999994277954, 0.0, 0.0, 0.0, 0.0, 0.0, 1.6212566857528193E9, 2021-05-17 15:04:45.752
22.0, -99.6028823852539, 159.93495178222656, 20.126272201538086, 324.6233215332031, 0.04800000041723251, -0.01600000075995922, 1.055999994277954, 0.0, 0.0, 0.0, 0.0, 0.0, 1.6212566857528193E9, 2021-05-17 15:04:45.752
23.0, -86.30380249023438, 168.66014099121094, 32.90550994873047, 339.1079406738281, 0.04800000041723251, -0.01600000075995922, 1.055999994277954, 0.0, 0.0, 0.0, 0.0, 0.0, 1.621256685768239E9, 2021-05-17 15:04:45.768
23.0, -95.94152069091797, 160.49594116210938, 26.360685348510742, 328.1650085449219, 0.04800000041723251, -0.01600000075995922, 1.055999994277954, 0.0, 0.0, 0.0, 0.0, 0.0, 1.621256685768239E9, 2021-05-17 15:04:45.768
24.0, -102.76309967041016, 156.34091186523438, 19.206256866455078, 316.83685302734375, 0.04800000041723251, -0.01600000075995922, 1.055999994277954, 0.0, 0.0, 0.0, 0.0, 0.0, 1.621256685783496E9, 2021-05-17 15:04:45.783
24.0, -90.51493072509766, 160.86244201660156, 24.352357864379883, 326.2239990234375, 0.04800000041723251, -0.01600000075995922, 1.055999994277954, 0.0, 0.0, 0.0, 0.0, 0.0, 1.621256685783496E9, 2021-05-17 15:04:45.783
25.0, -80.13670349121094, 176.50645446777344, 41.911190032958984, 332.2153015136719, 0.04800000041723251, -0.01600000075995922, 1.055999994277954, 0.0, 0.0, 0.0, 0.0, 0.0, 1.6212566857842035E9, 2021-05-17 15:04:45.784
25.0, -99.48320770263672, 167.5306854248047, 31.001901626586914, 319.1817626953125, 0.04800000041723251, -0.01600000075995922, 1.055999994277954, 0.0, 0.0, 0.0, 0.0, 0.0, 1.6212566857842035E9, 2021-05-17 15:04:45.784
26.0, -116.01730346679688, 153.89501953125, 17.983308792114258, 300.5421142578125, 0.04800000041723251, -0.01600000075995922, 1.055999994277954, 0.0, 0.0, 0.0, 0.0, 0.0, 1.621256685798554E9, 2021-05-17 15:04:45.798
26.0, -103.66067504882812, 162.48556518554688, 23.454782485961914, 312.5658874511719, 0.04800000041723251, -0.01600000075995922, 1.055999994277954, 0.0, 0.0, 0.0, 0.0, 0.0, 1.621256685798554E9, 2021-05-17 15:04:45.798
27.0, -93.20765686035156, 170.75448608398438, 35.29530715942383, 321.7922058105469, 0.04800000041723251, -0.01600000075995922, 1.055999994277954, 0.0, 0.0, 0.0, 0.0, 0.0, 1.6212566858002615E9, 2021-05-17 15:04:45.800
27.0, -101.43169403076172, 162.94183349609375, 21.798006057739258, 313.5382385253906, 0.04800000041723251, -0.01600000075995922, 1.055999994277954, 0.0, 0.0, 0.0, 0.0, 0.0, 1.6212566858002615E9, 2021-05-17 15:04:45.800
28.0, -103.27546691894531, 155.86593627929688, 22.201915740966797, 308.0032043457031, 0.04800000041723251, -0.01600000075995922, 1.055999994277954, 0.0, 0.0, 0.0, 0.0, 0.0, 1.621256685812817E9, 2021-05-17 15:04:45.812
28.0, -88.6225357055664, 159.64697265625, 27.980060577392578, 314.0693054199219, 0.04800000041723251, -0.01600000075995922, 1.055999994277954, 0.0, 0.0, 0.0, 0.0, 0.0, 1.621256685812817E9, 2021-05-17 15:04:45.812
29.0, -74.8447494506836, 169.8606414794922, 45.864261627197266, 325.5508117675781, 0.04800000041723251, -0.01600000075995922, 1.055999994277954, 0.0, 0.0, 0.0, 0.0, 0.0, 1.621256685828267E9, 2021-05-17 15:04:45.828
29.0, -81.86827850341797, 168.5928192138672, 35.01481246948242, 316.2309875488281, 0.04800000041723251, -0.01600000075995922, 1.055999994277954, 0.0, 0.0, 0.0, 0.0, 0.0, 1.621256685828267E9, 2021-05-17 15:04:45.828
30.0, -91.15444946289062, 156.26611328125, 24.14292335510254, 313.99078369140625, 0.04800000041723251, -0.01600000075995922, 1.055999994277954, 0.0, 0.0, 0.0, 0.0, 0.0, 1.6212566858435545E9, 2021-05-17 15:04:45.843
30.0, -92.32129669189453, 160.68667602539062, 27.71078872680664, 316.6423645019531, 0.04800000041723251, -0.01600000075995922, 1.055999994277954, 0.0, 0.0, 0.0, 0.0, 0.0, 1.6212566858435545E9, 2021-05-17 15:04:45.843
31.0, -84.18701934814453, 171.59970092773438, 36.72768783569336, 331.0596923828125, 0.04800000041723251, -0.01600000075995922, 1.055999994277954, 0.0, 0.0, 0.0, 0.0, 0.0, 1.6212566858442826E9, 2021-05-17 15:04:45.844
31.0, -97.68805694580078, 163.80575561523438, 29.674236297607422, 322.4915771484375, 0.04800000041723251, -0.01600000075995922, 1.055999994277954, 0.0, 0.0, 0.0, 0.0, 0.0, 1.6212566858442826E9, 2021-05-17 15:04:45.844
32.0, -99.80110168457031, 160.70162963867188, 23.155590057373047, 308.54547119140625, 0.03200000151991844, -0.01600000075995922, 1.055999994277954, 0.0, 0.0, 0.0, 0.0, 0.0, 1.6212566858584769E9, 2021-05-17 15:04:45.858
32.0, -94.59142303466797, 158.0537872314453, 33.552513122558594, 320.8759460449219, 0.03200000151991844, -0.01600000075995922, 1.055999994277954, 0.0, 0.0, 0.0, 0.0, 0.0, 1.6212566858584769E9, 2021-05-17 15:04:45.858
33.0, -76.35940551757812, 171.39401245117188, 48.62430953979492, 334.0291748046875, 0.03200000151991844, -0.01600000075995922, 1.055999994277954, 0.0, 0.0, 0.0, 0.0, 0.0, 1.6212566858591928E9, 2021-05-17 15:04:45.859
33.0, -85.67923736572266, 166.37132263183594, 39.11374282836914, 325.0870666503906, 0.03200000151991844, -0.01600000075995922, 1.055999994277954, 0.0, 0.0, 0.0, 0.0, 0.0, 1.6212566858591928E9, 2021-05-17 15:04:45.859
34.0, -103.4138412475586, 157.3207550048828, 19.318452835083008, 307.42724609375, 0.03200000151991844, -0.01600000075995922, 1.055999994277954, 0.0, 0.0, 0.0, 0.0, 0.0, 1.6212566858900056E9, 2021-05-17 15:04:45.890
34.0, -100.68745422363281, 161.66651916503906, 25.65384292602539, 318.6058044433594, 0.03200000151991844, -0.01600000075995922, 1.055999994277954, 0.0, 0.0, 0.0, 0.0, 0.0, 1.6212566858900056E9, 2021-05-17 15:04:45.890
35.0, -93.5592041015625, 168.45069885253906, 37.034358978271484, 325.1431579589844, 0.03200000151991844, -0.01600000075995922, 1.055999994277954, 0.0, 0.0, 0.0, 0.0, 0.0, 1.6212566858905976E9, 2021-05-17 15:04:45.890
35.0, -102.38911437988281, 163.1774444580078, 34.513668060302734, 318.5609436035156, 0.03200000151991844, -0.01600000075995922, 1.055999994277954, 0.0, 0.0, 0.0, 0.0, 0.0, 1.6212566858905976E9, 2021-05-17 15:04:45.890
36.0, -106.17388916015625, 159.97235107421875, 28.02120018005371, 300.2541198730469, 0.03200000151991844, -0.01600000075995922, 1.055999994277954, 0.0, 0.0, 0.0, 0.0, 0.0, 1.621256685891334E9, 2021-05-17 15:04:45.891
36.0, -96.96625518798828, 167.69898986816406, 35.05595397949219, 307.520751953125, 0.03200000151991844, -0.01600000075995922, 1.055999994277954, 0.0, 0.0, 0.0, 0.0, 0.0, 1.621256685891334E9, 2021-05-17 15:04:45.891
37.0, -84.65450286865234, 169.2772216796875, 45.243438720703125, 318.2879333496094, 0.03200000151991844, -0.01600000075995922, 1.055999994277954, 0.0, 0.0, 0.0, 0.0, 0.0, 1.6212566859029343E9, 2021-05-17 15:04:45.902
37.0, -86.13924407958984, 165.26805114746094, 40.003841400146484, 310.9539794921875, 0.03200000151991844, -0.01600000075995922, 1.055999994277954, 0.0, 0.0, 0.0, 0.0, 0.0, 1.6212566859029343E9, 2021-05-17 15:04:45.902
38.0, -91.29283142089844, 166.72286987304688, 36.312557220458984, 310.912841796875, 0.03200000151991844, -0.01600000075995922, 1.055999994277954, 0.0, 0.0, 0.0, 0.0, 0.0, 1.6212566859184997E9, 2021-05-17 15:04:45.918
38.0, -84.65076446533203, 160.86993408203125, 33.070064544677734, 314.469482421875, 0.03200000151991844, -0.01600000075995922, 1.055999994277954, 0.0, 0.0, 0.0, 0.0, 0.0, 1.6212566859184997E9, 2021-05-17 15:04:45.918
39.0, -78.1957015991211, 170.44781494140625, 42.35249710083008, 326.1379699707031, 0.03200000151991844, -0.01600000075995922, 1.055999994277954, 0.0, 0.0, 0.0, 0.0, 0.0, 1.621256685919437E9, 2021-05-17 15:04:45.919
39.0, -83.95514678955078, 162.81842041015625, 31.764841079711914, 324.29046630859375, 0.03200000151991844, -0.01600000075995922, 1.055999994277954, 0.0, 0.0, 0.0, 0.0, 0.0, 1.621256685919437E9, 2021-05-17 15:04:45.919
40.0, -93.9182357788086, 156.49798583984375, 24.486995697021484, 315.6213684082031, 0.03200000151991844, -0.01600000075995922, 1.055999994277954, 0.0, 0.0, 0.0, 0.0, 0.0, 1.6212566859328663E9, 2021-05-17 15:04:45.932
40.0, -91.33770751953125, 154.2615203857422, 25.9866943359375, 324.39892578125, 0.03200000151991844, -0.01600000075995922, 1.055999994277954, 0.0, 0.0, 0.0, 0.0, 0.0, 1.6212566859328663E9, 2021-05-17 15:04:45.932
41.0, -79.99459075927734, 169.55023193359375, 33.847965240478516, 332.0881652832031, 0.03200000151991844, -0.01600000075995922, 1.055999994277954, 0.0, 0.0, 0.0, 0.0, 0.0, 1.6212566859489284E9, 2021-05-17 15:04:45.948
41.0, -86.94332122802734, 165.4251251220703, 28.993574142456055, 325.42364501953125, 0.03200000151991844, -0.01600000075995922, 1.055999994277954, 0.0, 0.0, 0.0, 0.0, 0.0, 1.6212566859489284E9, 2021-05-17 15:04:45.948
42.0, -104.75273132324219, 147.54840087890625, 12.485655784606934, 309.24859619140625, 0.04800000041723251, -0.01600000075995922, 1.055999994277954, 0.0, 0.0, 0.0, 0.0, 0.0, 1.6212566859635882E9, 2021-05-17 15:04:45.963
42.0, -93.3722152709961, 159.7853546142578, 28.71308135986328, 319.32012939453125, 0.04800000041723251, -0.01600000075995922, 1.055999994277954, 0.0, 0.0, 0.0, 0.0, 0.0, 1.6212566859635882E9, 2021-05-17 15:04:45.963
43.0, -78.3191146850586, 174.4420166015625, 41.88127136230469, 333.2512512207031, 0.04800000041723251, -0.01600000075995922, 1.055999994277954, 0.0, 0.0, 0.0, 0.0, 0.0, 1.6212566859643955E9, 2021-05-17 15:04:45.964
43.0, -97.62448120117188, 162.3733673095703, 31.43572998046875, 318.8339538574219, 0.04800000041723251, -0.01600000075995922, 1.055999994277954, 0.0, 0.0, 0.0, 0.0, 0.0, 1.6212566859643955E9, 2021-05-17 15:04:45.964
44.0, -102.51626586914062, 156.54660034179688, 18.45453643798828, 311.5037536621094, 0.04800000041723251, -0.01600000075995922, 1.055999994277954, 0.0, 0.0, 0.0, 0.0, 0.0, 1.6212566859785376E9, 2021-05-17 15:04:45.978
44.0, -95.11874389648438, 159.33656311035156, 27.217121124267578, 317.779296875, 0.04800000041723251, -0.01600000075995922, 1.055999994277954, 0.0, 0.0, 0.0, 0.0, 0.0, 1.6212566859785376E9, 2021-05-17 15:04:45.978
45.0, -82.0103988647461, 165.81033325195312, 33.48519515991211, 323.2732238769531, 0.04800000041723251, -0.01600000075995922, 1.055999994277954, 0.0, 0.0, 0.0, 0.0, 0.0, 1.6212566859792151E9, 2021-05-17 15:04:45.979
45.0, -87.63894653320312, 164.29940795898438, 28.387710571289062, 314.996826171875, 0.04800000041723251, -0.01600000075995922, 1.055999994277954, 0.0, 0.0, 0.0, 0.0, 0.0, 1.6212566859792151E9, 2021-05-17 15:04:45.979
46.0, -97.38512420654297, 160.09576416015625, 28.14087677001953, 308.89703369140625, 0.04800000041723251, -0.01600000075995922, 1.055999994277954, 0.0, 0.0, 0.0, 0.0, 0.0, 1.6212566860098927E9, 2021-05-17 15:04:46.009
46.0, -91.04973602294922, 164.41534423828125, 35.47481918334961, 316.9153747558594, 0.04800000041723251, -0.01600000075995922, 1.055999994277954, 0.0, 0.0, 0.0, 0.0, 0.0, 1.6212566860098927E9, 2021-05-17 15:04:46.009
47.0, -76.23599243164062, 177.45639038085938, 45.01530456542969, 330.1022644042969, 0.04800000041723251, -0.01600000075995922, 1.055999994277954, 0.0, 0.0, 0.0, 0.0, 0.0, 1.62125668601063E9, 2021-05-17 15:04:46.010
47.0, -88.01293182373047, 162.05921936035156, 28.885116577148438, 313.5606994628906, 0.04800000041723251, -0.01600000075995922, 1.055999994277954, 0.0, 0.0, 0.0, 0.0, 0.0, 1.62125668601063E9, 2021-05-17 15:04:46.010
48.0, -99.67768096923828, 152.9974365234375, 26.140029907226562, 303.6574401855469, 0.04800000041723251, -0.01600000075995922, 1.055999994277954, 0.0, 0.0, 0.0, 0.0, 0.0, 1.6212566860113378E9, 2021-05-17 15:04:46.011
48.0, -86.9732437133789, 160.50341796875, 32.598838806152344, 314.3011779785156, 0.04800000041723251, -0.01600000075995922, 1.055999994277954, 0.0, 0.0, 0.0, 0.0, 0.0, 1.6212566860113378E9, 2021-05-17 15:04:46.011
49.0, -79.97962951660156, 171.46131896972656, 38.93048858642578, 327.028076171875, 0.04800000041723251, -0.01600000075995922, 1.055999994277954, 0.0, 0.0, 0.0, 0.0, 0.0, 1.6212566860228696E9, 2021-05-17 15:04:46.022
49.0, -88.9815673828125, 161.92831420898438, 27.927703857421875, 317.3492126464844, 0.04800000041723251, -0.01600000075995922, 1.055999994277954, 0.0, 0.0, 0.0, 0.0, 0.0, 1.6212566860228696E9, 2021-05-17 15:04:46.022
50.0, -97.48609924316406, 152.30929565429688, 19.00056266784668, 303.3881530761719, 0.04800000041723251, -0.01600000075995922, 1.055999994277954, 0.0, 0.0, 0.0, 0.0, 0.0, 1.621256686038538E9, 2021-05-17 15:04:46.038
50.0, -93.73123931884766, 158.9364013671875, 25.0068416595459, 316.6161804199219, 0.04800000041723251, -0.01600000075995922, 1.055999994277954, 0.0, 0.0, 0.0, 0.0, 0.0, 1.621256686038538E9, 2021-05-17 15:04:46.038
51.0, -82.1749496459961, 171.6109161376953, 41.28288650512695, 335.51763916015625, 0.04800000041723251, -0.01600000075995922, 1.055999994277954, 0.0, 0.0, 0.0, 0.0, 0.0, 1.6212566860392532E9, 2021-05-17 15:04:46.039
51.0, -94.88313293457031, 166.97718811035156, 30.104324340820312, 327.5815734863281, 0.04800000041723251, -0.01600000075995922, 1.055999994277954, 0.0, 0.0, 0.0, 0.0, 0.0, 1.6212566860392532E9, 2021-05-17 15:04:46.039
52.0, -99.45329284667969, 156.07911682128906, 27.61355209350586, 319.48468017578125, 0.04800000041723251, -0.01600000075995922, 1.055999994277954, 0.0, 0.0, 0.0, 0.0, 0.0, 1.6212566860695927E9, 2021-05-17 15:04:46.069
52.0, -93.40213012695312, 161.5281524658203, 33.227142333984375, 325.0346984863281, 0.04800000041723251, -0.01600000075995922, 1.055999994277954, 0.0, 0.0, 0.0, 0.0, 0.0, 1.6212566860695927E9, 2021-05-17 15:04:46.069
53.0, -89.88288879394531, 161.8983917236328, 35.66555404663086, 327.5292053222656, 0.04800000041723251, -0.01600000075995922, 1.055999994277954, 0.0, 0.0, 0.0, 0.0, 0.0, 1.6212566860703528E9, 2021-05-17 15:04:46.070
53.0, -99.43084716796875, 159.1383514404297, 25.74734115600586, 315.4605712890625, 0.04800000041723251, -0.01600000075995922, 1.055999994277954, 0.0, 0.0, 0.0, 0.0, 0.0, 1.6212566860703528E9, 2021-05-17 15:04:46.070
54.0, -93.69758605957031, 162.13027954101562, 24.763748168945312, 319.6043701171875, 0.04800000041723251, -0.01600000075995922, 1.055999994277954, 0.0, 0.0, 0.0, 0.0, 0.0, 1.6212566860835044E9, 2021-05-17 15:04:46.083
54.0, -87.0555191040039, 164.7968292236328, 31.862077713012695, 328.44921875, 0.04800000041723251, -0.01600000075995922, 1.055999994277954, 0.0, 0.0, 0.0, 0.0, 0.0, 1.6212566860835044E9, 2021-05-17 15:04:46.083
55.0, -77.37291717529297, 175.91928100585938, 38.77715301513672, 333.5616760253906, 0.04800000041723251, -0.01600000075995922, 1.055999994277954, 0.0, 0.0, 0.0, 0.0, 0.0, 1.6212566860842257E9, 2021-05-17 15:04:46.084
55.0, -84.3852310180664, 166.59945678710938, 30.710187911987305, 322.2522277832031, 0.04800000041723251, -0.01600000075995922, 1.055999994277954, 0.0, 0.0, 0.0, 0.0, 0.0, 1.6212566860842257E9, 2021-05-17 15:04:46.084
56.0, -86.16168212890625, 154.08200073242188, 23.402423858642578, 312.7715759277344, 0.04800000041723251, -0.01600000075995922, 1.055999994277954, 0.0, 0.0, 0.0, 0.0, 0.0, 1.62125668609863E9, 2021-05-17 15:04:46.098
56.0, -87.0330810546875, 163.1737060546875, 36.21906280517578, 319.3238830566406, 0.04800000041723251, -0.01600000075995922, 1.055999994277954, 0.0, 0.0, 0.0, 0.0, 0.0, 1.62125668609863E9, 2021-05-17 15:04:46.098
57.0, -75.9106216430664, 170.19723510742188, 42.86860275268555, 322.91790771484375, 0.04800000041723251, -0.01600000075995922, 1.055999994277954, 0.0, 0.0, 0.0, 0.0, 0.0, 1.621256686099242E9, 2021-05-17 15:04:46.099
57.0, -86.8909683227539, 167.38856506347656, 30.725147247314453, 318.9162292480469, 0.04800000041723251, -0.01600000075995922, 1.055999994277954, 0.0, 0.0, 0.0, 0.0, 0.0, 1.621256686099242E9, 2021-05-17 15:04:46.099
58.0, -97.9087142944336, 161.81985473632812, 21.88776397705078, 307.91717529296875, 0.04800000041723251, -0.01600000075995922, 1.055999994277954, 0.0, 0.0, 0.0, 0.0, 0.0, 1.6212566861292412E9, 2021-05-17 15:04:46.129
58.0, -95.33940124511719, 161.33367919921875, 27.5125732421875, 315.89813232421875, 0.04800000041723251, -0.01600000075995922, 1.055999994277954, 0.0, 0.0, 0.0, 0.0, 0.0, 1.6212566861292412E9, 2021-05-17 15:04:46.129
59.0, -83.36424255371094, 175.70237731933594, 44.764732360839844, 331.0260314941406, 0.04800000041723251, -0.01600000075995922, 1.055999994277954, 0.0, 0.0, 0.0, 0.0, 0.0, 1.6212566861299384E9, 2021-05-17 15:04:46.129
59.0, -89.19100189208984, 168.88079833984375, 38.997806549072266, 326.0968322753906, 0.04800000041723251, -0.01600000075995922, 1.055999994277954, 0.0, 0.0, 0.0, 0.0, 0.0, 1.6212566861299384E9, 2021-05-17 15:04:46.129
60.0, -95.69843292236328, 155.35731506347656, 30.010828018188477, 311.9001770019531, 0.04800000041723251, -0.01600000075995922, 1.055999994277954, 0.0, 0.0, 0.0, 0.0, 0.0, 1.6212566861307073E9, 2021-05-17 15:04:46.130
60.0, -84.7218246459961, 160.94097900390625, 32.72599411010742, 323.1123962402344, 0.04800000041723251, -0.01600000075995922, 1.055999994277954, 0.0, 0.0, 0.0, 0.0, 0.0, 1.6212566861307073E9, 2021-05-17 15:04:46.130
61.0, -73.84245300292969, 169.92422485351562, 42.73770523071289, 331.3102722167969, 0.04800000041723251, -0.01600000075995922, 1.055999994277954, 0.0, 0.0, 0.0, 0.0, 0.0, 1.6212566861429465E9, 2021-05-17 15:04:46.142
61.0, -92.9944839477539, 159.97982788085938, 28.383970260620117, 319.0545959472656, 0.04800000041723251, -0.01600000075995922, 1.055999994277954, 0.0, 0.0, 0.0, 0.0, 0.0, 1.6212566861429465E9, 2021-05-17 15:04:46.142
62.0, -99.57296752929688, 152.59727478027344, 21.28190040588379, 316.81439208984375, 0.03200000151991844, -0.01600000075995922, 1.055999994277954, 0.0, 0.0, 0.0, 0.0, 0.0, 1.6212566861585484E9, 2021-05-17 15:04:46.158
62.0, -93.58164978027344, 159.71803283691406, 24.415937423706055, 324.45501708984375, 0.03200000151991844, -0.01600000075995922, 1.055999994277954, 0.0, 0.0, 0.0, 0.0, 0.0, 1.6212566861585484E9, 2021-05-17 15:04:46.158
63.0, -79.81507110595703, 173.3948516845703, 43.65398406982422, 335.51763916015625, 0.03200000151991844, -0.01600000075995922, 1.055999994277954, 0.0, 0.0, 0.0, 0.0, 0.0, 1.621256686159275E9, 2021-05-17 15:04:46.159
63.0, -85.37256622314453, 166.9098663330078, 31.390850067138672, 327.0692138671875, 0.03200000151991844, -0.01600000075995922, 1.055999994277954, 0.0, 0.0, 0.0, 0.0, 0.0, 1.621256686159275E9, 2021-05-17 15:04:46.159
64.0, -91.38632202148438, 157.1524658203125, 26.401823043823242, 323.7481689453125, 0.03200000151991844, -0.01600000075995922, 1.055999994277954, 0.0, 0.0, 0.0, 0.0, 0.0, 1.621256686189237E9, 2021-05-17 15:04:46.189
64.0, -89.6397933959961, 157.00286865234375, 28.24933433532715, 318.1944274902344, 0.03200000151991844, -0.01600000075995922, 1.055999994277954, 0.0, 0.0, 0.0, 0.0, 0.0, 1.621256686189237E9, 2021-05-17 15:04:46.189
65.0, -83.6409912109375, 168.0467987060547, 33.515113830566406, 327.8396301269531, 0.03200000151991844, -0.01600000075995922, 1.055999994277954, 0.0, 0.0, 0.0, 0.0, 0.0, 1.6212566861899796E9, 2021-05-17 15:04:46.189
65.0, -95.16736602783203, 165.09600830078125, 30.740108489990234, 324.5709533691406, 0.03200000151991844, -0.01600000075995922, 1.055999994277954, 0.0, 0.0, 0.0, 0.0, 0.0, 1.6212566861899796E9, 2021-05-17 15:04:46.189
66.0, -95.05142974853516, 158.66339111328125, 30.534412384033203, 318.0149230957031, 0.03200000151991844, -0.01600000075995922, 1.055999994277954, 0.0, 0.0, 0.0, 0.0, 0.0, 1.6212566861906085E9, 2021-05-17 15:04:46.190
66.0, -90.98241424560547, 164.25453186035156, 31.98549461364746, 329.40289306640625, 0.03200000151991844, -0.01600000075995922, 1.055999994277954, 0.0, 0.0, 0.0, 0.0, 0.0, 1.6212566861906085E9, 2021-05-17 15:04:46.190
67.0, -75.36833190917969, 176.6485595703125, 46.141014099121094, 345.26007080078125, 0.03200000151991844, -0.01600000075995922, 1.055999994277954, 0.0, 0.0, 0.0, 0.0, 0.0, 1.6212566862028008E9, 2021-05-17 15:04:46.202
67.0, -93.8359603881836, 166.09457397460938, 33.92276382446289, 329.9489440917969, 0.03200000151991844, -0.01600000075995922, 1.055999994277954, 0.0, 0.0, 0.0, 0.0, 0.0, 1.6212566862028008E9, 2021-05-17 15:04:46.202
68.0, -105.83355712890625, 153.28541564941406, 23.06209373474121, 314.8434753417969, 0.03200000151991844, -0.01600000075995922, 1.055999994277954, 0.0, 0.0, 0.0, 0.0, 0.0, 1.6212566862184608E9, 2021-05-17 15:04:46.218
68.0, -96.40901184082031, 158.24452209472656, 26.413043975830078, 321.66131591796875, 0.03200000151991844, -0.01600000075995922, 1.055999994277954, 0.0, 0.0, 0.0, 0.0, 0.0, 1.6212566862184608E9, 2021-05-17 15:04:46.218
69.0, -80.40597534179688, 171.1060333251953, 38.5228385925293, 332.3499450683594, 0.03200000151991844, -0.01600000075995922, 1.055999994277954, 0.0, 0.0, 0.0, 0.0, 0.0, 1.621256686219175E9, 2021-05-17 15:04:46.219
69.0, -85.03597259521484, 167.1978302001953, 33.500152587890625, 321.6276550292969, 0.03200000151991844, -0.01600000075995922, 1.055999994277954, 0.0, 0.0, 0.0, 0.0, 0.0, 1.621256686219175E9, 2021-05-17 15:04:46.219
70.0, -99.17279815673828, 156.9879150390625, 25.407011032104492, 309.40191650390625, 0.03200000151991844, -0.01600000075995922, 1.055999994277954, 0.0, 0.0, 0.0, 0.0, 0.0, 1.6212566862493043E9, 2021-05-17 15:04:46.249
70.0, -91.49851989746094, 161.28504943847656, 32.61005783081055, 316.0252990722656, 0.03200000151991844, -0.01600000075995922, 1.055999994277954, 0.0, 0.0, 0.0, 0.0, 0.0, 1.6212566862493043E9, 2021-05-17 15:04:46.249
71.0, -83.599853515625, 170.8853759765625, 40.80418014526367, 330.4837341308594, 0.03200000151991844, -0.01600000075995922, 1.055999994277954, 0.0, 0.0, 0.0, 0.0, 0.0, 1.6212566862499137E9, 2021-05-17 15:04:46.249
71.0, -92.40357971191406, 162.2312469482422, 32.15378952026367, 325.10577392578125, 0.03200000151991844, -0.01600000075995922, 1.055999994277954, 0.0, 0.0, 0.0, 0.0, 0.0, 1.6212566862499137E9, 2021-05-17 15:04:46.249
72.0, -99.1353988647461, 153.95484924316406, 23.466001510620117, 313.82623291015625, 0.04800000041723251, -0.01600000075995922, 1.055999994277954, 0.0, 0.0, 0.0, 0.0, 0.0, 1.6212566862506957E9, 2021-05-17 15:04:46.250
72.0, -97.71049499511719, 156.6438446044922, 24.8011474609375, 320.7300720214844, 0.04800000041723251, -0.01600000075995922, 1.055999994277954, 0.0, 0.0, 0.0, 0.0, 0.0, 1.6212566862506957E9, 2021-05-17 15:04:46.250
73.0, -84.92377471923828, 166.7340850830078, 33.833003997802734, 326.0818786621094, 0.04800000041723251, -0.01600000075995922, 1.055999994277954, 0.0, 0.0, 0.0, 0.0, 0.0, 1.6212566862628417E9, 2021-05-17 15:04:46.262
73.0, -89.62483215332031, 166.7752227783203, 30.57181167602539, 321.6986999511719, 0.04800000041723251, -0.01600000075995922, 1.055999994277954, 0.0, 0.0, 0.0, 0.0, 0.0, 1.6212566862628417E9, 2021-05-17 15:04:46.262
74.0, -100.38826751708984, 152.7954864501953, 19.901878356933594, 311.01007080078125, 0.04800000041723251, -0.01600000075995922, 1.055999994277954, 0.0, 0.0, 0.0, 0.0, 0.0, 1.621256686278568E9, 2021-05-17 15:04:46.278
74.0, -93.23757934570312, 152.42897033691406, 25.283594131469727, 312.7080078125, 0.04800000041723251, -0.01600000075995922, 1.055999994277954, 0.0, 0.0, 0.0, 0.0, 0.0, 1.621256686278568E9, 2021-05-17 15:04:46.278
75.0, -77.92642211914062, 172.02230834960938, 37.789817810058594, 325.6368408203125, 0.04800000041723251, -0.01600000075995922, 1.055999994277954, 0.0, 0.0, 0.0, 0.0, 0.0, 1.6212566862792935E9, 2021-05-17 15:04:46.279
75.0, -83.55123138427734, 164.5350341796875, 33.657230377197266, 324.36151123046875, 0.04800000041723251, -0.01600000075995922, 1.055999994277954, 0.0, 0.0, 0.0, 0.0, 0.0, 1.6212566862792935E9, 2021-05-17 15:04:46.279
76.0, -93.20018005371094, 152.5374298095703, 25.631404876708984, 309.90679931640625, 0.04800000041723251, -0.01600000075995922, 1.055999994277954, 0.0, 0.0, 0.0, 0.0, 0.0, 1.6212566863089201E9, 2021-05-17 15:04:46.308
76.0, -90.42890930175781, 159.09347534179688, 30.69148826599121, 321.52294921875, 0.04800000041723251, -0.01600000075995922, 1.055999994277954, 0.0, 0.0, 0.0, 0.0, 0.0, 1.6212566863089201E9, 2021-05-17 15:04:46.308
77.0, -80.86224365234375, 168.74615478515625, 43.470726013183594, 330.7006530761719, 0.04800000041723251, -0.01600000075995922, 1.055999994277954, 0.0, 0.0, 0.0, 0.0, 0.0, 1.621256686309631E9, 2021-05-17 15:04:46.309
77.0, -82.28340911865234, 166.008544921875, 40.680763244628906, 326.1417236328125, 0.04800000041723251, -0.01600000075995922, 1.055999994277954, 0.0, 0.0, 0.0, 0.0, 0.0, 1.621256686309631E9, 2021-05-17 15:04:46.309
78.0, -101.31201934814453, 151.76327514648438, 23.51462173461914, 314.5442810058594, 0.04800000041723251, -0.01600000075995922, 1.055999994277954, 0.0, 0.0, 0.0, 0.0, 0.0, 1.6212566863234751E9, 2021-05-17 15:04:46.323
78.0, -100.81087493896484, 153.64443969726562, 21.928903579711914, 318.38140869140625, 0.04800000041723251, -0.01600000075995922, 1.055999994277954, 0.0, 0.0, 0.0, 0.0, 0.0, 1.6212566863234751E9, 2021-05-17 15:04:46.323
79.0, -79.24286651611328, 166.947265625, 47.37892150878906, 337.4923095703125, 0.04800000041723251, -0.01600000075995922, 1.055999994277954, 0.0, 0.0, 0.0, 0.0, 0.0, 1.621256686324236E9, 2021-05-17 15:04:46.324
79.0, -84.05612182617188, 164.3966522216797, 43.392189025878906, 327.6638488769531, 0.04800000041723251, -0.01600000075995922, 1.055999994277954, 0.0, 0.0, 0.0, 0.0, 0.0, 1.621256686324236E9, 2021-05-17 15:04:46.324
80.0, -99.72256469726562, 153.31158447265625, 29.539600372314453, 311.9151306152344, 0.04800000041723251, -0.01600000075995922, 1.055999994277954, 0.0, 0.0, 0.0, 0.0, 0.0, 1.6212566863385036E9, 2021-05-17 15:04:46.338
80.0, -80.92208862304688, 162.68751525878906, 38.657474517822266, 330.13592529296875, 0.04800000041723251, -0.01600000075995922, 1.055999994277954, 0.0, 0.0, 0.0, 0.0, 0.0, 1.6212566863385036E9, 2021-05-17 15:04:46.338
81.0, -72.36145782470703, 168.8920135498047, 47.5247802734375, 336.194580078125, 0.04800000041723251, -0.01600000075995922, 1.055999994277954, 0.0, 0.0, 0.0, 0.0, 0.0, 1.621256686339234E9, 2021-05-17 15:04:46.339
81.0, -79.17181396484375, 165.4625244140625, 44.14017105102539, 328.2996520996094, 0.04800000041723251, -0.01600000075995922, 1.055999994277954, 0.0, 0.0, 0.0, 0.0, 0.0, 1.621256686339234E9, 2021-05-17 15:04:46.339
82.0, -90.8253402709961, 156.79344177246094, 36.30881881713867, 318.34027099609375, 0.04800000041723251, -0.01600000075995922, 1.055999994277954, 0.0, 0.0, 0.0, 0.0, 0.0, 1.6212566863529563E9, 2021-05-17 15:04:46.352
82.0, -86.2701416015625, 158.79428100585938, 41.9373664855957, 329.070068359375, 0.04800000041723251, -0.01600000075995922, 1.055999994277954, 0.0, 0.0, 0.0, 0.0, 0.0, 1.6212566863529563E9, 2021-05-17 15:04:46.352
83.0, -79.62433624267578, 168.32728576660156, 46.589805603027344, 335.4690246582031, 0.04800000041723251, -0.01600000075995922, 1.055999994277954, 0.0, 0.0, 0.0, 0.0, 0.0, 1.6212566863685467E9, 2021-05-17 15:04:46.368
83.0, -87.24999237060547, 167.52694702148438, 41.04353332519531, 330.56976318359375, 0.04800000041723251, -0.01600000075995922, 1.055999994277954, 0.0, 0.0, 0.0, 0.0, 0.0, 1.6212566863685467E9, 2021-05-17 15:04:46.368
84.0, -99.43084716796875, 152.93385314941406, 33.8741455078125, 315.24365234375, 0.04800000041723251, -0.01600000075995922, 1.055999994277954, 0.0, 0.0, 0.0, 0.0, 0.0, 1.621256686369262E9, 2021-05-17 15:04:46.369
84.0, -93.40586853027344, 164.493896484375, 38.44804000854492, 321.99041748046875, 0.04800000041723251, -0.01600000075995922, 1.055999994277954, 0.0, 0.0, 0.0, 0.0, 0.0, 1.621256686369262E9, 2021-05-17 15:04:46.369
85.0, -82.70975494384766, 170.7993621826172, 43.53804397583008, 338.3824157714844, 0.04800000041723251, -0.01600000075995922, 1.055999994277954, 0.0, 0.0, 0.0, 0.0, 0.0, 1.6212566863992171E9, 2021-05-17 15:04:46.399
85.0, -89.44157409667969, 158.7232208251953, 34.67822265625, 320.7413024902344, 0.04800000041723251, -0.01600000075995922, 1.055999994277954, 0.0, 0.0, 0.0, 0.0, 0.0, 1.6212566863992171E9, 2021-05-17 15:04:46.399
86.0, -96.19957733154297, 153.0834503173828, 28.301692962646484, 313.1006774902344, 0.04800000041723251, -0.01600000075995922, 1.055999994277954, 0.0, 0.0, 0.0, 0.0, 0.0, 1.621256686399952E9, 2021-05-17 15:04:46.399
86.0, -91.2890853881836, 156.3932647705078, 33.021446228027344, 321.8595275878906, 0.04800000041723251, -0.01600000075995922, 1.055999994277954, 0.0, 0.0, 0.0, 0.0, 0.0, 1.621256686399952E9, 2021-05-17 15:04:46.399
87.0, -70.3119888305664, 168.0954132080078, 49.821075439453125, 339.05560302734375, 0.04800000041723251, -0.01600000075995922, 1.055999994277954, 0.0, 0.0, 0.0, 0.0, 0.0, 1.6212566864006748E9, 2021-05-17 15:04:46.400
87.0, -81.6738052368164, 163.36070251464844, 36.67906951904297, 326.5830383300781, 0.04800000041723251, -0.01600000075995922, 1.055999994277954, 0.0, 0.0, 0.0, 0.0, 0.0, 1.6212566864006748E9, 2021-05-17 15:04:46.400
88.0, -90.43639373779297, 154.41111755371094, 28.37649154663086, 317.2332763671875, 0.04800000041723251, -0.01600000075995922, 1.055999994277954, 0.0, 0.0, 0.0, 0.0, 0.0, 1.62125668641287E9, 2021-05-17 15:04:46.412
88.0, -82.86309051513672, 158.12484741210938, 36.33125686645508, 326.6653137207031, 0.04800000041723251, -0.01600000075995922, 1.055999994277954, 0.0, 0.0, 0.0, 0.0, 0.0, 1.62125668641287E9, 2021-05-17 15:04:46.412
89.0, -75.17012023925781, 168.8920135498047, 43.95317459106445, 334.8257751464844, 0.04800000041723251, -0.01600000075995922, 1.055999994277954, 0.0, 0.0, 0.0, 0.0, 0.0, 1.6212566864285276E9, 2021-05-17 15:04:46.428
89.0, -85.20053100585938, 161.37855529785156, 35.572059631347656, 326.5643310546875, 0.04800000041723251, -0.01600000075995922, 1.055999994277954, 0.0, 0.0, 0.0, 0.0, 0.0, 1.6212566864285276E9, 2021-05-17 15:04:46.428
90.0, -94.72605895996094, 152.97125244140625, 25.10407829284668, 317.68206787109375, 0.04800000041723251, -0.01600000075995922, 1.055999994277954, 0.0, 0.0, 0.0, 0.0, 0.0, 1.6212566864292593E9, 2021-05-17 15:04:46.429
90.0, -93.28245544433594, 159.15330505371094, 30.923362731933594, 325.6854553222656, 0.04800000041723251, -0.01600000075995922, 1.055999994277954, 0.0, 0.0, 0.0, 0.0, 0.0, 1.6212566864292593E9, 2021-05-17 15:04:46.429
91.0, -78.45001220703125, 169.9204864501953, 45.43791580200195, 338.31134033203125, 0.04800000041723251, -0.01600000075995922, 1.055999994277954, 0.0, 0.0, 0.0, 0.0, 0.0, 1.6212566864427824E9, 2021-05-17 15:04:46.442
91.0, -81.6738052368164, 167.62045288085938, 41.810211181640625, 332.4060363769531, 0.04800000041723251, -0.01600000075995922, 1.055999994277954, 0.0, 0.0, 0.0, 0.0, 0.0, 1.6212566864427824E9, 2021-05-17 15:04:46.442
92.0, -93.43952941894531, 157.22726440429688, 33.04762649536133, 318.47491455078125, 0.04800000041723251, -0.01600000075995922, 1.055999994277954, 0.0, 0.0, 0.0, 0.0, 0.0, 1.6212566864585958E9, 2021-05-17 15:04:46.458
92.0, -87.54918670654297, 164.06005859375, 39.16236114501953, 327.5030517578125, 0.04800000041723251, -0.01600000075995922, 1.055999994277954, 0.0, 0.0, 0.0, 0.0, 0.0, 1.6212566864585958E9, 2021-05-17 15:04:46.458
93.0, -83.09122467041016, 171.84652709960938, 44.8844108581543, 331.0596923828125, 0.04800000041723251, -0.01600000075995922, 1.055999994277954, 0.0, 0.0, 0.0, 0.0, 0.0, 1.62125668645927E9, 2021-05-17 15:04:46.459
93.0, -91.15071105957031, 171.61839294433594, 38.982845306396484, 326.1080627441406, 0.04800000041723251, -0.01600000075995922, 1.055999994277954, 0.0, 0.0, 0.0, 0.0, 0.0, 1.62125668645927E9, 2021-05-17 15:04:46.459
94.0, -101.49527740478516, 160.35008239746094, 33.664710998535156, 319.1630554199219, 0.04800000041723251, -0.01600000075995922, 1.055999994277954, 0.0, 0.0, 0.0, 0.0, 0.0, 1.6212566864728594E9, 2021-05-17 15:04:46.472
94.0, -99.84223937988281, 160.245361328125, 30.32497787475586, 322.02783203125, 0.04800000041723251, -0.01600000075995922, 1.055999994277954, 0.0, 0.0, 0.0, 0.0, 0.0, 1.6212566864728594E9, 2021-05-17 15:04:46.472
95.0, -92.92716217041016, 168.91819763183594, 35.18684768676758, 329.20843505859375, 0.04800000041723251, -0.01600000075995922, 1.055999994277954, 0.0, 0.0, 0.0, 0.0, 0.0, 1.6212566864885397E9, 2021-05-17 15:04:46.488
95.0, -91.18063354492188, 166.3900146484375, 27.766887664794922, 328.9054870605469, 0.04800000041723251, -0.01600000075995922, 1.055999994277954, 0.0, 0.0, 0.0, 0.0, 0.0, 1.6212566864885397E9, 2021-05-17 15:04:46.488
96.0, -96.31925201416016, 155.98936462402344, 25.455629348754883, 324.8626708984375, 0.04800000041723251, -0.01600000075995922, 1.055999994277954, 0.0, 0.0, 0.0, 0.0, 0.0, 1.621256686489242E9, 2021-05-17 15:04:46.489
96.0, -90.384033203125, 159.36648559570312, 33.25706100463867, 333.79730224609375, 0.04800000041723251, -0.01600000075995922, 1.055999994277954, 0.0, 0.0, 0.0, 0.0, 0.0, 1.621256686489242E9, 2021-05-17 15:04:46.489
97.0, -85.43988800048828, 167.9981689453125, 46.60850143432617, 339.0406188964844, 0.04800000041723251, -0.01600000075995922, 1.055999994277954, 0.0, 0.0, 0.0, 0.0, 0.0, 1.6212566865028615E9, 2021-05-17 15:04:46.502
97.0, -94.53157806396484, 161.03822326660156, 41.720455169677734, 326.35113525390625, 0.04800000041723251, -0.01600000075995922, 1.055999994277954, 0.0, 0.0, 0.0, 0.0, 0.0, 1.6212566865028615E9, 2021-05-17 15:04:46.502
98.0, -104.53955078125, 157.30953979492188, 32.4006233215332, 318.2654724121094, 0.04800000041723251, -0.01600000075995922, 1.055999994277954, 0.0, 0.0, 0.0, 0.0, 0.0, 1.6212566865186174E9, 2021-05-17 15:04:46.518
98.0, -93.55546569824219, 161.0943145751953, 35.990928649902344, 322.80572509765625, 0.04800000041723251, -0.01600000075995922, 1.055999994277954, 0.0, 0.0, 0.0, 0.0, 0.0, 1.6212566865186174E9, 2021-05-17 15:04:46.518
99.0, -84.14588165283203, 177.15719604492188, 43.676422119140625, 331.7104187011719, 0.04800000041723251, -0.01600000075995922, 1.055999994277954, 0.0, 0.0, 0.0, 0.0, 0.0, 1.621256686519292E9, 2021-05-17 15:04:46.519
99.0, -92.8149642944336, 165.99359130859375, 37.25127410888672, 320.1204833984375, 0.04800000041723251, -0.01600000075995922, 1.055999994277954, 0.0, 0.0, 0.0, 0.0, 0.0, 1.621256686519292E9, 2021-05-17 15:04:46.519
100.0, -97.40382385253906, 160.90357971191406, 32.7596549987793, 314.0169677734375, 0.04800000041723251, -0.01600000075995922, 1.055999994277954, 0.0, 0.0, 0.0, 0.0, 0.0, 1.6212566865333457E9, 2021-05-17 15:04:46.533
100.0, -97.83765411376953, 150.1887664794922, 26.323286056518555, 307.191650390625, 0.04800000041723251, -0.01600000075995922, 1.055999994277954, 0.0, 0.0, 0.0, 0.0, 0.0, 1.6212566865333457E9, 2021-05-17 15:04:46.533
0.0, -77.92268371582031, 176.1885528564453, 45.166770935058594, 329.1953430175781, 0.04800000041723251, -0.01600000075995922, 1.055999994277954, 0.0, 0.0, 0.0, 0.0, 0.0, 1.6212566865489132E9, 2021-05-17 15:04:46.548
1.0, -93.08423614501953, 163.7608642578125, 34.69879150390625, 313.5588073730469, 0.04800000041723251, -0.01600000075995922, 1.055999994277954, 0.0, 0.0, 0.0, 0.0, 0.0, 1.6212566865642004E9, 2021-05-17 15:04:46.564
1.0, -104.74150848388672, 154.8187713623047, 26.366294860839844, 311.0343933105469, 0.04800000041723251, -0.01600000075995922, 1.055999994277954, 0.0, 0.0, 0.0, 0.0, 0.0, 1.6212566865642004E9, 2021-05-17 15:04:46.564
2.0, -96.93634033203125, 157.8293914794922, 31.90134620666504, 316.54327392578125, 0.04800000041723251, -0.01600000075995922, 1.055999994277954, 0.0, 0.0, 0.0, 0.0, 0.0, 1.6212566865648863E9, 2021-05-17 15:04:46.564
2.0, -90.14842224121094, 166.09457397460938, 41.58768844604492, 321.4313049316406, 0.04800000041723251, -0.01600000075995922, 1.055999994277954, 0.0, 0.0, 0.0, 0.0, 0.0, 1.6212566865648863E9, 2021-05-17 15:04:46.564
3.0, -98.3724594116211, 157.24595642089844, 30.943931579589844, 313.3942565917969, 0.04800000041723251, -0.01600000075995922, 1.055999994277954, 0.0, 0.0, 0.0, 0.0, 0.0, 1.621256686565653E9, 2021-05-17 15:04:46.565
3.0, -105.83729553222656, 153.79403686523438, 26.557029724121094, 310.2452697753906, 0.04800000041723251, -0.01600000075995922, 1.055999994277954, 0.0, 0.0, 0.0, 0.0, 0.0, 1.621256686565653E9, 2021-05-17 15:04:46.565
4.0, -98.35749816894531, 158.46142578125, 37.155906677246094, 324.9879455566406, 0.04800000041723251, -0.01600000075995922, 1.055999994277954, 0.0, 0.0, 0.0, 0.0, 0.0, 1.6212566865778325E9, 2021-05-17 15:04:46.577
4.0, -83.23334503173828, 174.77113342285156, 51.49842071533203, 340.1756896972656, 0.04800000041723251, -0.01600000075995922, 1.055999994277954, 0.0, 0.0, 0.0, 0.0, 0.0, 1.6212566865778325E9, 2021-05-17 15:04:46.577
5.0, -95.05516815185547, 160.87367248535156, 40.76116943359375, 323.8809509277344, 0.04800000041723251, -0.01600000075995922, 1.055999994277954, 0.0, 0.0, 0.0, 0.0, 0.0, 1.6212566865933177E9, 2021-05-17 15:04:46.593
5.0, -100.82209014892578, 156.95799255371094, 34.69131088256836, 314.97998046875, 0.04800000041723251, -0.01600000075995922, 1.055999994277954, 0.0, 0.0, 0.0, 0.0, 0.0, 1.6212566865933177E9, 2021-05-17 15:04:46.593
6.0, -94.2174301147461, 153.5172882080078, 39.598060607910156, 313.1025695800781, 0.04800000041723251, -0.01600000075995922, 1.055999994277954, 0.0, 0.0, 0.0, 0.0, 0.0, 1.62125668660864E9, 2021-05-17 15:04:46.608
6.0, -79.69913482666016, 167.9271240234375, 53.921878814697266, 333.2718200683594, 0.04800000041723251, -0.01600000075995922, 1.055999994277954, 0.0, 0.0, 0.0, 0.0, 0.0, 1.62125668660864E9, 2021-05-17 15:04:46.608
7.0, -91.39380645751953, 164.18722534179688, 44.452449798583984, 323.5293884277344, 0.04800000041723251, -0.01600000075995922, 1.055999994277954, 0.0, 0.0, 0.0, 0.0, 0.0, 1.6212566866092534E9, 2021-05-17 15:04:46.609
7.0, -106.17015075683594, 153.91371154785156, 33.909671783447266, 310.155517578125, 0.04800000041723251, -0.01600000075995922, 1.055999994277954, 0.0, 0.0, 0.0, 0.0, 0.0, 1.6212566866092534E9, 2021-05-17 15:04:46.609
8.0, -95.57127380371094, 161.62538146972656, 39.14927291870117, 319.2210388183594, 0.04800000041723251, -0.01600000075995922, 1.055999994277954, 0.0, 0.0, 0.0, 0.0, 0.0, 1.6212566866235657E9, 2021-05-17 15:04:46.623
8.0, -89.13490295410156, 163.61502075195312, 47.40323257446289, 327.609619140625, 0.04800000041723251, -0.01600000075995922, 1.055999994277954, 0.0, 0.0, 0.0, 0.0, 0.0, 1.6212566866235657E9, 2021-05-17 15:04:46.623
9.0, -93.94441986083984, 164.00396728515625, 42.75453567504883, 322.175537109375, 0.04800000041723251, -0.01600000075995922, 1.055999994277954, 0.0, 0.0, 0.0, 0.0, 0.0, 1.6212566866242552E9, 2021-05-17 15:04:46.624
9.0, -105.0781021118164, 151.47903442382812, 30.36798858642578, 313.3194580078125, 0.04800000041723251, -0.01600000075995922, 1.055999994277954, 0.0, 0.0, 0.0, 0.0, 0.0, 1.6212566866242552E9, 2021-05-17 15:04:46.624
10.0, -96.00884246826172, 156.39700317382812, 35.386932373046875, 312.6612548828125, 0.04800000041723251, -0.01600000075995922, 1.055999994277954, 0.0, 0.0, 0.0, 0.0, 0.0, 1.6212566866378262E9, 2021-05-17 15:04:46.637
10.0, -85.12947082519531, 169.72975158691406, 51.1393928527832, 328.4698181152344, 0.04800000041723251, -0.01600000075995922, 1.055999994277954, 0.0, 0.0, 0.0, 0.0, 0.0, 1.6212566866378262E9, 2021-05-17 15:04:46.637
11.0, -93.940673828125, 160.4174041748047, 37.39152145385742, 321.9736022949219, 0.04800000041723251, -0.01600000075995922, 1.055999994277954, 0.0, 0.0, 0.0, 0.0, 0.0, 1.62125668665402E9, 2021-05-17 15:04:46.654
11.0, -100.54534149169922, 152.64588928222656, 28.07168960571289, 310.2078857421875, 0.04800000041723251, -0.01600000075995922, 1.055999994277954, 0.0, 0.0, 0.0, 0.0, 0.0, 1.62125668665402E9, 2021-05-17 15:04:46.654
12.0, -91.8874740600586, 156.75604248046875, 39.10065460205078, 321.330322265625, 0.04800000041723251, -0.01600000075995922, 1.055999994277954, 0.0, 0.0, 0.0, 0.0, 0.0, 1.621256686668506E9, 2021-05-17 15:04:46.668
12.0, -76.12005615234375, 169.0191650390625, 53.40203094482422, 337.33709716796875, 0.04800000041723251, -0.01600000075995922, 1.055999994277954, 0.0, 0.0, 0.0, 0.0, 0.0, 1.621256686668506E9, 2021-05-17 15:04:46.668
13.0, -87.52301025390625, 159.66567993164062, 42.417945861816406, 322.1905212402344, 0.04800000041723251, -0.01600000075995922, 1.055999994277954, 0.0, 0.0, 0.0, 0.0, 0.0, 1.6212566866692493E9, 2021-05-17 15:04:46.669
13.0, -101.52145385742188, 150.5814666748047, 31.082307815551758, 317.79986572265625, 0.04800000041723251, -0.01600000075995922, 1.055999994277954, 0.0, 0.0, 0.0, 0.0, 0.0, 1.6212566866692493E9, 2021-05-17 15:04:46.669
14.0, -99.2401123046875, 156.36708068847656, 30.188472747802734, 318.3533630371094, 0.04800000041723251, -0.01600000075995922, 1.055999994277954, 0.0, 0.0, 0.0, 0.0, 0.0, 1.6212566866839805E9, 2021-05-17 15:04:46.683
14.0, -84.6395492553711, 167.98695373535156, 43.45389938354492, 330.31732177734375, 0.04800000041723251, -0.01600000075995922, 1.055999994277954, 0.0, 0.0, 0.0, 0.0, 0.0, 1.6212566866839805E9, 2021-05-17 15:04:46.683
15.0, -86.92088317871094, 164.31063842773438, 41.84947967529297, 329.73016357421875, 0.04800000041723251, -0.01600000075995922, 1.055999994277954, 0.0, 0.0, 0.0, 0.0, 0.0, 1.6212566866985736E9, 2021-05-17 15:04:46.698
15.0, -101.35315704345703, 153.86883544921875, 32.582008361816406, 311.2363586425781, 0.04800000041723251, -0.01600000075995922, 1.055999994277954, 0.0, 0.0, 0.0, 0.0, 0.0, 1.6212566866985736E9, 2021-05-17 15:04:46.698
16.0, -87.27617645263672, 159.6058349609375, 37.61591339111328, 319.464111328125, 0.04800000041723251, -0.01600000075995922, 1.055999994277954, 0.0, 0.0, 0.0, 0.0, 0.0, 1.6212566866992087E9, 2021-05-17 15:04:46.699
16.0, -79.42986297607422, 169.98780822753906, 54.23603057861328, 326.611083984375, 0.04800000041723251, -0.01600000075995922, 1.055999994277954, 0.0, 0.0, 0.0, 0.0, 0.0, 1.6212566866992087E9, 2021-05-17 15:04:46.699
17.0, -88.34204864501953, 161.5244140625, 44.82644271850586, 324.1801452636719, 0.04800000041723251, -0.01600000075995922, 1.055999994277954, 0.0, 0.0, 0.0, 0.0, 0.0, 1.6212566867139027E9, 2021-05-17 15:04:46.713
17.0, -99.10173797607422, 155.69764709472656, 34.39585876464844, 310.71649169921875, 0.04800000041723251, -0.01600000075995922, 1.055999994277954, 0.0, 0.0, 0.0, 0.0, 0.0, 1.6212566867139027E9, 2021-05-17 15:04:46.713
18.0, -92.78504943847656, 155.29747009277344, 38.7154426574707, 319.36688232421875, 0.04800000041723251, -0.01600000075995922, 1.055999994277954, 0.0, 0.0, 0.0, 0.0, 0.0, 1.62125668672851E9, 2021-05-17 15:04:46.728
18.0, -86.6291732788086, 171.15090942382812, 54.194889068603516, 330.25, 0.04800000041723251, -0.01600000075995922, 1.055999994277954, 0.0, 0.0, 0.0, 0.0, 0.0, 1.62125668672851E9, 2021-05-17 15:04:46.728
19.0, -95.03646850585938, 164.29193115234375, 40.69758987426758, 319.8194274902344, 0.04800000041723251, -0.01600000075995922, 1.055999994277954, 0.0, 0.0, 0.0, 0.0, 0.0, 1.6212566867292025E9, 2021-05-17 15:04:46.729
19.0, -101.05397033691406, 158.27069091796875, 29.45545196533203, 315.9710693359375, 0.04800000041723251, -0.01600000075995922, 1.055999994277954, 0.0, 0.0, 0.0, 0.0, 0.0, 1.6212566867292025E9, 2021-05-17 15:04:46.729
20.0, -98.73896789550781, 161.61416625976562, 32.31647491455078, 321.857666015625, 0.04800000041723251, -0.01600000075995922, 1.055999994277954, 0.0, 0.0, 0.0, 0.0, 0.0, 1.6212566867435343E9, 2021-05-17 15:04:46.743
20.0, -81.47559356689453, 170.93399047851562, 47.59770584106445, 337.30718994140625, 0.04800000041723251, -0.01600000075995922, 1.055999994277954, 0.0, 0.0, 0.0, 0.0, 0.0, 1.6212566867435343E9, 2021-05-17 15:04:46.743
21.0, -88.82449340820312, 162.04798889160156, 39.00341796875, 323.9482727050781, 0.04800000041723251, -0.01600000075995922, 1.055999994277954, 0.0, 0.0, 0.0, 0.0, 0.0, 1.6212566867442396E9, 2021-05-17 15:04:46.744
21.0, -93.23757934570312, 156.36708068847656, 33.69649887084961, 319.49029541015625, 0.04800000041723251, -0.01600000075995922, 1.055999994277954, 0.0, 0.0, 0.0, 0.0, 0.0, 1.6212566867442396E9, 2021-05-17 15:04:46.744
22.0, -89.9427261352539, 154.9608917236328, 34.433258056640625, 316.5507507324219, 0.04800000041723251, -0.01600000075995922, 1.055999994277954, 0.0, 0.0, 0.0, 0.0, 0.0, 1.6212566867748673E9, 2021-05-17 15:04:46.774
22.0, -85.1032943725586, 163.3943634033203, 50.44002914428711, 329.064453125, 0.04800000041723251, -0.01600000075995922, 1.055999994277954, 0.0, 0.0, 0.0, 0.0, 0.0, 1.6212566867748673E9, 2021-05-17 15:04:46.774
23.0, -92.48211669921875, 159.2729949951172, 47.87071990966797, 325.4479675292969, 0.04800000041723251, -0.01600000075995922, 1.055999994277954, 0.0, 0.0, 0.0, 0.0, 0.0, 1.6212566867757556E9, 2021-05-17 15:04:46.775
23.0, -103.3353042602539, 147.92987060546875, 34.672611236572266, 304.1641845703125, 0.04800000041723251, -0.01600000075995922, 1.055999994277954, 0.0, 0.0, 0.0, 0.0, 0.0, 1.6212566867757556E9, 2021-05-17 15:04:46.775
24.0, -92.5718765258789, 156.41944885253906, 40.85840606689453, 316.23284912109375, 0.04800000041723251, -0.01600000075995922, 1.055999994277954, 0.0, 0.0, 0.0, 0.0, 0.0, 1.6212566867764907E9, 2021-05-17 15:04:46.776
24.0, -83.1996841430664, 166.65928649902344, 51.23289108276367, 328.2117614746094, 0.04800000041723251, -0.01600000075995922, 1.055999994277954, 0.0, 0.0, 0.0, 0.0, 0.0, 1.6212566867764907E9, 2021-05-17 15:04:46.776
25.0, -89.3854751586914, 157.33946228027344, 47.0142822265625, 324.9393310546875, 0.04800000041723251, -0.01600000075995922, 1.055999994277954, 0.0, 0.0, 0.0, 0.0, 0.0, 1.6212566868041894E9, 2021-05-17 15:04:46.804
25.0, -104.50963592529297, 151.86798095703125, 36.26580810546875, 314.733154296875, 0.04800000041723251, -0.01600000075995922, 1.055999994277954, 0.0, 0.0, 0.0, 0.0, 0.0, 1.6212566868041894E9, 2021-05-17 15:04:46.804
26.0, -90.7842025756836, 151.91287231445312, 33.389827728271484, 315.8027648925781, 0.04800000041723251, -0.01600000075995922, 1.055999994277954, 0.0, 0.0, 0.0, 0.0, 0.0, 1.6212566868050053E9, 2021-05-17 15:04:46.805
26.0, -76.58753967285156, 168.15150451660156, 52.676490783691406, 327.8190612792969, 0.04800000041723251, -0.01600000075995922, 1.055999994277954, 0.0, 0.0, 0.0, 0.0, 0.0, 1.6212566868050053E9, 2021-05-17 15:04:46.805
27.0, -81.64388275146484, 166.84628295898438, 48.06893539428711, 321.9287109375, 0.04800000041723251, -0.01600000075995922, 1.055999994277954, 0.0, 0.0, 0.0, 0.0, 0.0, 1.6212566868056016E9, 2021-05-17 15:04:46.805
27.0, -92.39984130859375, 150.89187622070312, 37.683231353759766, 308.5174255371094, 0.04800000041723251, -0.01600000075995922, 1.055999994277954, 0.0, 0.0, 0.0, 0.0, 0.0, 1.6212566868056016E9, 2021-05-17 15:04:46.805
28.0, -84.05238342285156, 158.36045837402344, 45.28270721435547, 320.98626708984375, 0.04800000041723251, -0.01600000075995922, 1.055999994277954, 0.0, 0.0, 0.0, 0.0, 0.0, 1.6212566868342056E9, 2021-05-17 15:04:46.834
28.0, -79.0035171508789, 160.14437866210938, 47.24615478515625, 329.9021911621094, 0.04800000041723251, -0.01600000075995922, 1.055999994277954, 0.0, 0.0, 0.0, 0.0, 0.0, 1.6212566868342056E9, 2021-05-17 15:04:46.834
29.0, -79.97962951660156, 161.54684448242188, 51.17304992675781, 329.04949951171875, 0.04800000041723251, -0.01600000075995922, 1.055999994277954, 0.0, 0.0, 0.0, 0.0, 0.0, 1.621256686834895E9, 2021-05-17 15:04:46.834
29.0, -101.27835845947266, 147.89620971679688, 33.65161895751953, 312.1264343261719, 0.04800000041723251, -0.01600000075995922, 1.055999994277954, 0.0, 0.0, 0.0, 0.0, 0.0, 1.621256686834895E9, 2021-05-17 15:04:46.834
30.0, -101.48405456542969, 155.6228485107422, 37.731849670410156, 317.7101135253906, 0.04800000041723251, -0.01600000075995922, 1.055999994277954, 0.0, 0.0, 0.0, 0.0, 0.0, 1.621256686835682E9, 2021-05-17 15:04:46.835
30.0, -78.46871185302734, 162.82215881347656, 45.20791244506836, 332.45654296875, 0.04800000041723251, -0.01600000075995922, 1.055999994277954, 0.0, 0.0, 0.0, 0.0, 0.0, 1.621256686835682E9, 2021-05-17 15:04:46.835
31.0, -91.44242095947266, 157.41799926757812, 40.1179084777832, 324.27362060546875, 0.04800000041723251, -0.01600000075995922, 1.055999994277954, 0.0, 0.0, 0.0, 0.0, 0.0, 1.62125668684786E9, 2021-05-17 15:04:46.847
31.0, -100.85201263427734, 148.9733123779297, 33.61796188354492, 318.6376037597656, 0.04800000041723251, -0.01600000075995922, 1.055999994277954, 0.0, 0.0, 0.0, 0.0, 0.0, 1.62125668684786E9, 2021-05-17 15:04:46.847
32.0, -100.0030517578125, 155.94821166992188, 35.592628479003906, 322.6729431152344, 0.04800000041723251, -0.01600000075995922, 1.055999994277954, 0.0, 0.0, 0.0, 0.0, 0.0, 1.621256686863495E9, 2021-05-17 15:04:46.863
32.0, -87.14527893066406, 164.88658142089844, 49.97628402709961, 334.3414611816406, 0.04800000041723251, -0.01600000075995922, 1.055999994277954, 0.0, 0.0, 0.0, 0.0, 0.0, 1.621256686863495E9, 2021-05-17 15:04:46.863
33.0, -94.13140869140625, 164.9426727294922, 48.68975830078125, 328.6829833984375, 0.04800000041723251, -0.01600000075995922, 1.055999994277954, 0.0, 0.0, 0.0, 0.0, 0.0, 1.6212566868642027E9, 2021-05-17 15:04:46.864
33.0, -105.22395324707031, 157.27587890625, 40.42083740234375, 313.79443359375, 0.04800000041723251, -0.01600000075995922, 1.055999994277954, 0.0, 0.0, 0.0, 0.0, 0.0, 1.6212566868642027E9, 2021-05-17 15:04:46.864
34.0, -90.15963745117188, 159.63949584960938, 50.18571853637695, 323.4583435058594, 0.04800000041723251, -0.01600000075995922, 1.055999994277954, 0.0, 0.0, 0.0, 0.0, 0.0, 1.621256686894932E9, 2021-05-17 15:04:46.894
34.0, -79.71035766601562, 165.57472229003906, 62.70690155029297, 333.5934753417969, 0.04800000041723251, -0.01600000075995922, 1.055999994277954, 0.0, 0.0, 0.0, 0.0, 0.0, 1.621256686894932E9, 2021-05-17 15:04:46.894
35.0, -83.42034149169922, 161.19529724121094, 54.969051361083984, 320.4103088378906, 0.04800000041723251, -0.01600000075995922, 1.055999994277954, 0.0, 0.0, 0.0, 0.0, 0.0, 1.621256686895579E9, 2021-05-17 15:04:46.895
35.0, -99.54304504394531, 150.91806030273438, 35.87311935424805, 314.75933837890625, 0.04800000041723251, -0.01600000075995922, 1.055999994277954, 0.0, 0.0, 0.0, 0.0, 0.0, 1.621256686895579E9, 2021-05-17 15:04:46.895
36.0, -101.80194854736328, 151.8567657470703, 37.9300651550293, 315.05853271484375, 0.04800000041723251, -0.01600000075995922, 1.055999994277954, 0.0, 0.0, 0.0, 0.0, 0.0, 1.621256686896355E9, 2021-05-17 15:04:46.896
36.0, -80.7874526977539, 165.8028564453125, 50.97483825683594, 328.1033020019531, 0.04800000041723251, -0.01600000075995922, 1.055999994277954, 0.0, 0.0, 0.0, 0.0, 0.0, 1.621256686896355E9, 2021-05-17 15:04:46.896
37.0, -88.29716491699219, 163.8506317138672, 49.2731819152832, 323.888427734375, 0.04800000041723251, -0.01600000075995922, 1.055999994277954, 0.0, 0.0, 0.0, 0.0, 0.0, 1.6212566869079015E9, 2021-05-17 15:04:46.907
37.0, -102.4452133178711, 149.65769958496094, 40.27872085571289, 315.93365478515625, 0.04800000041723251, -0.01600000075995922, 1.055999994277954, 0.0, 0.0, 0.0, 0.0, 0.0, 1.6212566869079015E9, 2021-05-17 15:04:46.907
38.0, -94.93174743652344, 158.63720703125, 44.37765121459961, 322.0184631347656, 0.04800000041723251, -0.01600000075995922, 1.055999994277954, 0.0, 0.0, 0.0, 0.0, 0.0, 1.621256686928937E9, 2021-05-17 15:04:46.928
38.0, -84.07855987548828, 167.5867919921875, 55.836708068847656, 332.3181457519531, 0.04800000041723251, -0.01600000075995922, 1.055999994277954, 0.0, 0.0, 0.0, 0.0, 0.0, 1.621256686928937E9, 2021-05-17 15:04:46.928
39.0, -90.84403991699219, 155.99310302734375, 43.266902923583984, 322.63555908203125, 0.04800000041723251, -0.01600000075995922, 1.055999994277954, 0.0, 0.0, 0.0, 0.0, 0.0, 1.6212566869289713E9, 2021-05-17 15:04:46.928
39.0, -101.95528411865234, 149.29867553710938, 33.84235382080078, 312.38824462890625, 0.04800000041723251, -0.01600000075995922, 1.055999994277954, 0.0, 0.0, 0.0, 0.0, 0.0, 1.6212566869289713E9, 2021-05-17 15:04:46.928
40.0, -93.97433471679688, 151.35935974121094, 39.24650955200195, 318.80963134765625, 0.04800000041723251, -0.01600000075995922, 1.055999994277954, 0.0, 0.0, 0.0, 0.0, 0.0, 1.6212566869542212E9, 2021-05-17 15:04:46.954
40.0, -79.53458404541016, 164.77438354492188, 54.84563446044922, 331.0765075683594, 0.04800000041723251, -0.01600000075995922, 1.055999994277954, 0.0, 0.0, 0.0, 0.0, 0.0, 1.6212566869542212E9, 2021-05-17 15:04:46.954
41.0, -80.5892333984375, 164.5387725830078, 50.331573486328125, 323.1441955566406, 0.04800000041723251, -0.01600000075995922, 1.055999994277954, 0.0, 0.0, 0.0, 0.0, 0.0, 1.6212566869549377E9, 2021-05-17 15:04:46.954
41.0, -96.98869323730469, 153.91371154785156, 41.307193756103516, 311.20269775390625, 0.04800000041723251, -0.01600000075995922, 1.055999994277954, 0.0, 0.0, 0.0, 0.0, 0.0, 1.6212566869549377E9, 2021-05-17 15:04:46.954
42.0, -93.26375579833984, 157.26840209960938, 46.7038688659668, 315.5746154785156, 0.04800000041723251, -0.01600000075995922, 1.055999994277954, 0.0, 0.0, 0.0, 0.0, 0.0, 1.6212566869556715E9, 2021-05-17 15:04:46.955
42.0, -78.2405776977539, 160.98960876464844, 52.03322982788086, 324.32598876953125, 0.04800000041723251, -0.01600000075995922, 1.055999994277954, 0.0, 0.0, 0.0, 0.0, 0.0, 1.6212566869556715E9, 2021-05-17 15:04:46.955
43.0, -88.43928527832031, 159.66567993164062, 45.24530792236328, 323.28631591796875, 0.04800000041723251, -0.01600000075995922, 1.055999994277954, 0.0, 0.0, 0.0, 0.0, 0.0, 1.6212566869678297E9, 2021-05-17 15:04:46.967
43.0, -98.2901840209961, 149.0181884765625, 30.98133087158203, 309.69549560546875, 0.04800000041723251, -0.01600000075995922, 1.055999994277954, 0.0, 0.0, 0.0, 0.0, 0.0, 1.6212566869678297E9, 2021-05-17 15:04:46.967
44.0, -85.9522476196289, 156.02674865722656, 44.34025573730469, 313.79071044921875, 0.04800000041723251, -0.01600000075995922, 1.055999994277954, 0.0, 0.0, 0.0, 0.0, 0.0, 1.6212566869835248E9, 2021-05-17 15:04:46.983
44.0, -77.70577239990234, 168.39834594726562, 54.27716827392578, 324.71868896484375, 0.04800000041723251, -0.01600000075995922, 1.055999994277954, 0.0, 0.0, 0.0, 0.0, 0.0, 1.6212566869835248E9, 2021-05-17 15:04:46.983
45.0, -86.62169647216797, 160.17056274414062, 52.571773529052734, 315.52227783203125, 0.04800000041723251, -0.01600000075995922, 1.055999994277954, 0.0, 0.0, 0.0, 0.0, 0.0, 1.6212566869842362E9, 2021-05-17 15:04:46.984
45.0, -101.98146057128906, 149.43331909179688, 35.360755920410156, 306.5128479003906, 0.04800000041723251, -0.01600000075995922, 1.055999994277954, 0.0, 0.0, 0.0, 0.0, 0.0, 1.6212566869842362E9, 2021-05-17 15:04:46.984
46.0, -98.48091888427734, 156.06790161132812, 42.05517578125, 310.6828308105469, 0.04800000041723251, -0.01600000075995922, 1.055999994277954, 0.0, 0.0, 0.0, 0.0, 0.0, 1.6212566870139885E9, 2021-05-17 15:04:47.013
46.0, -92.49707794189453, 169.7372283935547, 49.6322135925293, 325.6798400878906, 0.04800000041723251, -0.01600000075995922, 1.055999994277954, 0.0, 0.0, 0.0, 0.0, 0.0, 1.6212566870139885E9, 2021-05-17 15:04:47.013
47.0, -96.19210052490234, 163.57762145996094, 43.48755645751953, 314.80047607421875, 0.04800000041723251, -0.01600000075995922, 1.055999994277954, 0.0, 0.0, 0.0, 0.0, 0.0, 1.6212566870146592E9, 2021-05-17 15:04:47.014
47.0, -98.14806365966797, 156.29977416992188, 37.791690826416016, 310.3537292480469, 0.04800000041723251, -0.01600000075995922, 1.055999994277954, 0.0, 0.0, 0.0, 0.0, 0.0, 1.6212566870146592E9, 2021-05-17 15:04:47.014
48.0, -95.32817840576172, 158.40159606933594, 45.611820220947266, 319.62493896484375, 0.04800000041723251, -0.01600000075995922, 1.055999994277954, 0.0, 0.0, 0.0, 0.0, 0.0, 1.6212566870286138E9, 2021-05-17 15:04:47.028
48.0, -82.10763549804688, 168.63021850585938, 56.67070388793945, 331.4654541015625, 0.04800000041723251, -0.01600000075995922, 1.055999994277954, 0.0, 0.0, 0.0, 0.0, 0.0, 1.6212566870286138E9, 2021-05-17 15:04:47.028
49.0, -92.95708465576172, 164.18722534179688, 45.26026916503906, 322.93475341796875, 0.04800000041723251, -0.01600000075995922, 1.055999994277954, 0.0, 0.0, 0.0, 0.0, 0.0, 1.621256687029224E9, 2021-05-17 15:04:47.029
49.0, -107.9914779663086, 156.67750549316406, 29.010404586791992, 312.702392578125, 0.04800000041723251, -0.01600000075995922, 1.055999994277954, 0.0, 0.0, 0.0, 0.0, 0.0, 1.621256687029224E9, 2021-05-17 15:04:47.029
50.0, -103.86263275146484, 155.85472106933594, 30.783117294311523, 312.76971435546875, 0.04800000041723251, -0.01600000075995922, 1.055999994277954, 0.0, 0.0, 0.0, 0.0, 0.0, 1.6212566870434897E9, 2021-05-17 15:04:47.043
50.0, -88.39814758300781, 169.46421813964844, 48.87301254272461, 323.1067810058594, 0.04800000041723251, -0.01600000075995922, 1.055999994277954, 0.0, 0.0, 0.0, 0.0, 0.0, 1.6212566870434897E9, 2021-05-17 15:04:47.043
51.0, -98.15928649902344, 170.761962890625, 40.207664489746094, 312.526611328125, 0.04800000041723251, -0.01600000075995922, 1.055999994277954, 0.0, 0.0, 0.0, 0.0, 0.0, 1.621256687044227E9, 2021-05-17 15:04:47.044
51.0, -97.25422668457031, 161.80116271972656, 34.54545593261719, 310.9109802246094, 0.04800000041723251, -0.01600000075995922, 1.055999994277954, 0.0, 0.0, 0.0, 0.0, 0.0, 1.621256687044227E9, 2021-05-17 15:04:47.044
52.0, -100.20874786376953, 165.35406494140625, 36.879154205322266, 316.90228271484375, 0.04800000041723251, -0.01600000075995922, 1.055999994277954, 0.0, 0.0, 0.0, 0.0, 0.0, 1.621256687074074E9, 2021-05-17 15:04:47.074
52.0, -85.2267074584961, 180.3922119140625, 48.274627685546875, 329.9844665527344, 0.04800000041723251, -0.01600000075995922, 1.055999994277954, 0.0, 0.0, 0.0, 0.0, 0.0, 1.621256687074074E9, 2021-05-17 15:04:47.074
53.0, -98.90352630615234, 168.27493286132812, 42.63486099243164, 321.20318603515625, 0.04800000041723251, -0.01600000075995922, 1.055999994277954, 0.0, 0.0, 0.0, 0.0, 0.0, 1.6212566870746129E9, 2021-05-17 15:04:47.074
53.0, -101.42047882080078, 151.2621307373047, 29.937898635864258, 311.329833984375, 0.04800000041723251, -0.01600000075995922, 1.055999994277954, 0.0, 0.0, 0.0, 0.0, 0.0, 1.6212566870746129E9, 2021-05-17 15:04:47.074
54.0, -94.60637664794922, 157.28335571289062, 35.93669891357422, 315.41754150390625, 0.04800000041723251, -0.01600000075995922, 1.055999994277954, 0.0, 0.0, 0.0, 0.0, 0.0, 1.621256687088481E9, 2021-05-17 15:04:47.088
54.0, -76.0751724243164, 176.91783142089844, 52.21648406982422, 327.5984191894531, 0.04800000041723251, -0.01600000075995922, 1.055999994277954, 0.0, 0.0, 0.0, 0.0, 0.0, 1.621256687088481E9, 2021-05-17 15:04:47.088
55.0, -88.73847961425781, 169.56893920898438, 43.274383544921875, 318.289794921875, 0.04800000041723251, -0.01600000075995922, 1.055999994277954, 0.0, 0.0, 0.0, 0.0, 0.0, 1.6212566870891776E9, 2021-05-17 15:04:47.089
55.0, -101.74958801269531, 159.21315002441406, 29.893020629882812, 306.6923522949219, 0.04800000041723251, -0.01600000075995922, 1.055999994277954, 0.0, 0.0, 0.0, 0.0, 0.0, 1.6212566870891776E9, 2021-05-17 15:04:47.089
56.0, -98.21538543701172, 157.84060668945312, 27.974451065063477, 311.6776428222656, 0.04800000041723251, -0.01600000075995922, 1.055999994277954, 0.0, 0.0, 0.0, 0.0, 0.0, 1.6212566871198823E9, 2021-05-17 15:04:47.119
56.0, -84.35157012939453, 173.7314453125, 43.521217346191406, 326.37921142578125, 0.04800000041723251, -0.01600000075995922, 1.055999994277954, 0.0, 0.0, 0.0, 0.0, 0.0, 1.6212566871198823E9, 2021-05-17 15:04:47.119
57.0, -90.1446762084961, 168.28614807128906, 39.964569091796875, 320.9526062011719, 0.04800000041723251, -0.01600000075995922, 1.055999994277954, 0.0, 0.0, 0.0, 0.0, 0.0, 1.6212566871206694E9, 2021-05-17 15:04:47.120
57.0, -95.6236343383789, 160.97837829589844, 33.64788055419922, 312.21246337890625, 0.04800000041723251, -0.01600000075995922, 1.055999994277954, 0.0, 0.0, 0.0, 0.0, 0.0, 1.6212566871206694E9, 2021-05-17 15:04:47.120
58.0, -97.93862915039062, 163.53273010253906, 34.160247802734375, 314.6209411621094, 0.04800000041723251, -0.01600000075995922, 1.055999994277954, 0.0, 0.0, 0.0, 0.0, 0.0, 1.6212566871212997E9, 2021-05-17 15:04:47.121
58.0, -88.11017608642578, 173.83241271972656, 47.908119201660156, 321.77911376953125, 0.04800000041723251, -0.01600000075995922, 1.055999994277954, 0.0, 0.0, 0.0, 0.0, 0.0, 1.6212566871212997E9, 2021-05-17 15:04:47.121
59.0, -93.61904907226562, 172.38882446289062, 43.57357406616211, 310.62298583984375, 0.04800000041723251, -0.01600000075995922, 1.055999994277954, 0.0, 0.0, 0.0, 0.0, 0.0, 1.6212566871220748E9, 2021-05-17 15:04:47.122
59.0, -95.02899169921875, 167.10060119628906, 36.46402359008789, 303.1170349121094, 0.04800000041723251, -0.01600000075995922, 1.055999994277954, 0.0, 0.0, 0.0, 0.0, 0.0, 1.6212566871220748E9, 2021-05-17 15:04:47.122
60.0, -102.69578552246094, 164.38543701171875, 36.47150421142578, 309.1644287109375, 0.04800000041723251, -0.01600000075995922, 1.055999994277954, 0.0, 0.0, 0.0, 0.0, 0.0, 1.6212566871328404E9, 2021-05-17 15:04:47.132
60.0, -81.89071655273438, 177.0375213623047, 46.05686950683594, 327.291748046875, 0.04800000041723251, -0.01600000075995922, 1.055999994277954, 0.0, 0.0, 0.0, 0.0, 0.0, 1.6212566871328404E9, 2021-05-17 15:04:47.132
61.0, -88.42806243896484, 171.8502655029297, 41.45305252075195, 323.9370422363281, 0.04800000041723251, -0.01600000075995922, 1.055999994277954, 0.0, 0.0, 0.0, 0.0, 0.0, 1.6212566871479566E9, 2021-05-17 15:04:47.147
61.0, -103.27920532226562, 161.54684448242188, 26.72158432006836, 313.59246826171875, 0.04800000041723251, -0.01600000075995922, 1.055999994277954, 0.0, 0.0, 0.0, 0.0, 0.0, 1.6212566871479566E9, 2021-05-17 15:04:47.147
62.0, -99.06807708740234, 165.3652801513672, 32.533390045166016, 321.7155456542969, 0.04800000041723251, -0.01600000075995922, 1.055999994277954, 0.0, 0.0, 0.0, 0.0, 0.0, 1.6212566871653924E9, 2021-05-17 15:04:47.165
62.0, -91.87625122070312, 173.29013061523438, 40.447017669677734, 335.2464904785156, 0.04800000041723251, -0.01600000075995922, 1.055999994277954, 0.0, 0.0, 0.0, 0.0, 0.0, 1.6212566871653924E9, 2021-05-17 15:04:47.165
63.0, -97.13081359863281, 163.8506317138672, 33.87975311279297, 325.60504150390625, 0.04800000041723251, -0.01600000075995922, 1.055999994277954, 0.0, 0.0, 0.0, 0.0, 0.0, 1.621256687165429E9, 2021-05-17 15:04:47.165
63.0, -105.92705535888672, 155.30496215820312, 26.025964736938477, 309.69549560546875, 0.04800000041723251, -0.01600000075995922, 1.055999994277954, 0.0, 0.0, 0.0, 0.0, 0.0, 1.621256687165429E9, 2021-05-17 15:04:47.165
64.0, -96.43892669677734, 162.00685119628906, 37.37282180786133, 314.02630615234375, 0.04800000041723251, -0.01600000075995922, 1.055999994277954, 0.0, 0.0, 0.0, 0.0, 0.0, 1.621256687178358E9, 2021-05-17 15:04:47.178
64.0, -77.8778076171875, 172.03726196289062, 48.558860778808594, 326.48016357421875, 0.04800000041723251, -0.01600000075995922, 1.055999994277954, 0.0, 0.0, 0.0, 0.0, 0.0, 1.621256687178358E9, 2021-05-17 15:04:47.178
65.0, -91.38632202148438, 162.6127166748047, 40.56669616699219, 317.8447570800781, 0.04800000041723251, -0.01600000075995922, 1.055999994277954, 0.0, 0.0, 0.0, 0.0, 0.0, 1.6212566871936092E9, 2021-05-17 15:04:47.193
65.0, -100.14143371582031, 152.20083618164062, 26.837522506713867, 307.8367614746094, 0.04800000041723251, -0.01600000075995922, 1.055999994277954, 0.0, 0.0, 0.0, 0.0, 0.0, 1.6212566871936092E9, 2021-05-17 15:04:47.193
66.0, -95.41046142578125, 157.46287536621094, 37.59721374511719, 318.2262268066406, 0.04800000041723251, -0.01600000075995922, 1.055999994277954, 0.0, 0.0, 0.0, 0.0, 0.0, 1.6212566871942525E9, 2021-05-17 15:04:47.194
66.0, -79.3027114868164, 167.194091796875, 51.41240310668945, 330.81097412109375, 0.04800000041723251, -0.01600000075995922, 1.055999994277954, 0.0, 0.0, 0.0, 0.0, 0.0, 1.6212566871942525E9, 2021-05-17 15:04:47.194
67.0, -87.3098373413086, 162.88198852539062, 44.003662109375, 325.567626953125, 0.04800000041723251, -0.01600000075995922, 1.055999994277954, 0.0, 0.0, 0.0, 0.0, 0.0, 1.6212566872078824E9, 2021-05-17 15:04:47.207
67.0, -100.09281158447266, 154.7776336669922, 33.37112808227539, 315.5821228027344, 0.04800000041723251, -0.01600000075995922, 1.055999994277954, 0.0, 0.0, 0.0, 0.0, 0.0, 1.6212566872078824E9, 2021-05-17 15:04:47.207
68.0, -93.26375579833984, 159.8264923095703, 36.7856559753418, 317.3398742675781, 0.04800000041723251, -0.01600000075995922, 1.055999994277954, 0.0, 0.0, 0.0, 0.0, 0.0, 1.6212566872236807E9, 2021-05-17 15:04:47.223
68.0, -85.61940002441406, 175.62008666992188, 48.226009368896484, 328.3613586425781, 0.04800000041723251, -0.01600000075995922, 1.055999994277954, 0.0, 0.0, 0.0, 0.0, 0.0, 1.6212566872236807E9, 2021-05-17 15:04:47.223
69.0, -98.21912384033203, 167.0669403076172, 38.95479965209961, 315.2455139160156, 0.04800000041723251, -0.01600000075995922, 1.055999994277954, 0.0, 0.0, 0.0, 0.0, 0.0, 1.621256687224246E9, 2021-05-17 15:04:47.224
69.0, -98.23033905029297, 159.97982788085938, 35.37197494506836, 307.2870178222656, 0.04800000041723251, -0.01600000075995922, 1.055999994277954, 0.0, 0.0, 0.0, 0.0, 0.0, 1.621256687224246E9, 2021-05-17 15:04:47.224
70.0, -94.52783966064453, 160.66049194335938, 36.32938766479492, 309.979736328125, 0.04800000041723251, -0.01600000075995922, 1.055999994277954, 0.0, 0.0, 0.0, 0.0, 0.0, 1.6212566872378237E9, 2021-05-17 15:04:47.237
70.0, -81.49429321289062, 165.3765106201172, 45.67913818359375, 328.3613586425781, 0.04800000041723251, -0.01600000075995922, 1.055999994277954, 0.0, 0.0, 0.0, 0.0, 0.0, 1.6212566872378237E9, 2021-05-17 15:04:47.237
71.0, -88.61505889892578, 161.5281524658203, 39.153011322021484, 318.12896728515625, 0.04800000041723251, -0.01600000075995922, 1.055999994277954, 0.0, 0.0, 0.0, 0.0, 0.0, 1.6212566872704968E9, 2021-05-17 15:04:47.270
71.0, -101.23722076416016, 155.85472106933594, 26.41117286682129, 312.2348937988281, 0.04800000041723251, -0.01600000075995922, 1.055999994277954, 0.0, 0.0, 0.0, 0.0, 0.0, 1.6212566872704968E9, 2021-05-17 15:04:47.270
72.0, -93.24879455566406, 155.4657745361328, 30.47270393371582, 315.5484619140625, 0.03200000151991844, -0.01600000075995922, 1.055999994277954, 0.0, 0.0, 0.0, 0.0, 0.0, 1.621256687270598E9, 2021-05-17 15:04:47.270
72.0, -81.97673797607422, 170.07008361816406, 44.91246032714844, 329.5917663574219, 0.03200000151991844, -0.01600000075995922, 1.055999994277954, 0.0, 0.0, 0.0, 0.0, 0.0, 1.621256687270598E9, 2021-05-17 15:04:47.270
73.0, -91.45738220214844, 163.42428588867188, 38.92487716674805, 322.97589111328125, 0.03200000151991844, -0.01600000075995922, 1.055999994277954, 0.0, 0.0, 0.0, 0.0, 0.0, 1.6212566872713876E9, 2021-05-17 15:04:47.271
73.0, -100.08533477783203, 148.03085327148438, 28.845848083496094, 314.6209411621094, 0.03200000151991844, -0.01600000075995922, 1.055999994277954, 0.0, 0.0, 0.0, 0.0, 0.0, 1.6212566872713876E9, 2021-05-17 15:04:47.271
74.0, -95.0663833618164, 154.95713806152344, 36.74077606201172, 322.5906677246094, 0.03200000151991844, -0.01600000075995922, 1.055999994277954, 0.0, 0.0, 0.0, 0.0, 0.0, 1.6212566872721138E9, 2021-05-17 15:04:47.272
74.0, -81.18013763427734, 169.94667053222656, 51.610618591308594, 333.1708679199219, 0.03200000151991844, -0.01600000075995922, 1.055999994277954, 0.0, 0.0, 0.0, 0.0, 0.0, 1.6212566872721138E9, 2021-05-17 15:04:47.272
75.0, -88.05781555175781, 160.83627319335938, 38.78276443481445, 321.0722961425781, 0.03200000151991844, -0.01600000075995922, 1.055999994277954, 0.0, 0.0, 0.0, 0.0, 0.0, 1.6212566872828348E9, 2021-05-17 15:04:47.282
75.0, -102.56114959716797, 156.5092010498047, 31.014989852905273, 308.4351501464844, 0.03200000151991844, -0.01600000075995922, 1.055999994277954, 0.0, 0.0, 0.0, 0.0, 0.0, 1.6212566872828348E9, 2021-05-17 15:04:47.282
76.0, -96.36787414550781, 161.92457580566406, 34.74367141723633, 314.228271484375, 0.03200000151991844, -0.01600000075995922, 1.055999994277954, 0.0, 0.0, 0.0, 0.0, 0.0, 1.6212566872979376E9, 2021-05-17 15:04:47.297
76.0, -90.57102966308594, 174.20640563964844, 39.80001449584961, 327.5198669433594, 0.03200000151991844, -0.01600000075995922, 1.055999994277954, 0.0, 0.0, 0.0, 0.0, 0.0, 1.6212566872979376E9, 2021-05-17 15:04:47.297
77.0, -93.435791015625, 164.74072265625, 33.48332595825195, 322.43359375, 0.03200000151991844, -0.01600000075995922, 1.055999994277954, 0.0, 0.0, 0.0, 0.0, 0.0, 1.6212566873136053E9, 2021-05-17 15:04:47.313
77.0, -103.8177490234375, 156.6849822998047, 20.677906036376953, 309.31402587890625, 0.03200000151991844, -0.01600000075995922, 1.055999994277954, 0.0, 0.0, 0.0, 0.0, 0.0, 1.6212566873136053E9, 2021-05-17 15:04:47.313
78.0, -93.90327453613281, 160.10699462890625, 26.770204544067383, 316.7863464355469, 0.03200000151991844, -0.01600000075995922, 1.055999994277954, 0.0, 0.0, 0.0, 0.0, 0.0, 1.621256687314177E9, 2021-05-17 15:04:47.314
78.0, -85.72037506103516, 170.48147583007812, 47.59396743774414, 330.8820495605469, 0.03200000151991844, -0.01600000075995922, 1.055999994277954, 0.0, 0.0, 0.0, 0.0, 0.0, 1.621256687314177E9, 2021-05-17 15:04:47.314
79.0, -91.13948822021484, 161.9058837890625, 36.22093200683594, 319.8792419433594, 0.03200000151991844, -0.01600000075995922, 1.055999994277954, 0.0, 0.0, 0.0, 0.0, 0.0, 1.6212566873278203E9, 2021-05-17 15:04:47.327
79.0, -97.02235412597656, 152.275634765625, 24.32056999206543, 308.4501037597656, 0.03200000151991844, -0.01600000075995922, 1.055999994277954, 0.0, 0.0, 0.0, 0.0, 0.0, 1.6212566873278203E9, 2021-05-17 15:04:47.327
80.0, -100.18630981445312, 153.34524536132812, 18.048757553100586, 309.7104797363281, 0.03200000151991844, -0.01600000075995922, 1.055999994277954, 0.0, 0.0, 0.0, 0.0, 0.0, 1.6212566873434904E9, 2021-05-17 15:04:47.343
80.0, -87.23129272460938, 163.23355102539062, 36.123695373535156, 322.4485778808594, 0.03200000151991844, -0.01600000075995922, 1.055999994277954, 0.0, 0.0, 0.0, 0.0, 0.0, 1.6212566873434904E9, 2021-05-17 15:04:47.343
81.0, -91.9734878540039, 164.37420654296875, 29.227317810058594, 316.1019592285156, 0.03200000151991844, -0.01600000075995922, 1.055999994277954, 0.0, 0.0, 0.0, 0.0, 0.0, 1.6212566873445902E9, 2021-05-17 15:04:47.344
81.0, -104.62557220458984, 154.7664031982422, 21.455806732177734, 304.7700500488281, 0.03200000151991844, -0.01600000075995922, 1.055999994277954, 0.0, 0.0, 0.0, 0.0, 0.0, 1.6212566873445902E9, 2021-05-17 15:04:47.344
82.0, -91.064697265625, 158.7980194091797, 25.947425842285156, 313.1474304199219, 0.04800000041723251, -0.01600000075995922, 1.055999994277954, 0.0, 0.0, 0.0, 0.0, 0.0, 1.6212566873578572E9, 2021-05-17 15:04:47.357
82.0, -85.49224090576172, 168.94436645507812, 38.84260177612305, 320.7469177246094, 0.04800000041723251, -0.01600000075995922, 1.055999994277954, 0.0, 0.0, 0.0, 0.0, 0.0, 1.6212566873578572E9, 2021-05-17 15:04:47.357
83.0, -84.6395492553711, 161.19903564453125, 38.48357009887695, 314.99493408203125, 0.04800000041723251, -0.01600000075995922, 1.055999994277954, 0.0, 0.0, 0.0, 0.0, 0.0, 1.62125668737356E9, 2021-05-17 15:04:47.373
83.0, -103.20440673828125, 152.56361389160156, 25.95864486694336, 303.4573669433594, 0.04800000041723251, -0.01600000075995922, 1.055999994277954, 0.0, 0.0, 0.0, 0.0, 0.0, 1.62125668737356E9, 2021-05-17 15:04:47.373
84.0, -96.56234741210938, 157.1524658203125, 28.247465133666992, 310.8473815917969, 0.04800000041723251, -0.01600000075995922, 1.055999994277954, 0.0, 0.0, 0.0, 0.0, 0.0, 1.621256687374254E9, 2021-05-17 15:04:47.374
84.0, -87.08917999267578, 167.28759765625, 41.45305252075195, 328.49224853515625, 0.04800000041723251, -0.01600000075995922, 1.055999994277954, 0.0, 0.0, 0.0, 0.0, 0.0, 1.621256687374254E9, 2021-05-17 15:04:47.374
85.0, -93.8995361328125, 165.7654571533203, 34.867088317871094, 325.0515441894531, 0.04800000041723251, -0.01600000075995922, 1.055999994277954, 0.0, 0.0, 0.0, 0.0, 0.0, 1.6212566873877995E9, 2021-05-17 15:04:47.387
85.0, -101.65982818603516, 157.88922119140625, 32.810142517089844, 313.6672668457031, 0.04800000041723251, -0.01600000075995922, 1.055999994277954, 0.0, 0.0, 0.0, 0.0, 0.0, 1.6212566873877995E9, 2021-05-17 15:04:47.387
86.0, -95.97144317626953, 159.20193481445312, 37.974945068359375, 319.4828186035156, 0.04800000041723251, -0.01600000075995922, 1.055999994277954, 0.0, 0.0, 0.0, 0.0, 0.0, 1.6212566874036095E9, 2021-05-17 15:04:47.403
86.0, -85.33142852783203, 174.0156707763672, 45.5183219909668, 330.496826171875, 0.04800000041723251, -0.01600000075995922, 1.055999994277954, 0.0, 0.0, 0.0, 0.0, 0.0, 1.6212566874036095E9, 2021-05-17 15:04:47.403
87.0, -94.05287170410156, 169.1500701904297, 39.085693359375, 322.3812561035156, 0.04800000041723251, -0.01600000075995922, 1.055999994277954, 0.0, 0.0, 0.0, 0.0, 0.0, 1.6212566874042509E9, 2021-05-17 15:04:47.404
87.0, -95.7470474243164, 155.48446655273438, 30.816776275634766, 312.2610778808594, 0.04800000041723251, -0.01600000075995922, 1.055999994277954, 0.0, 0.0, 0.0, 0.0, 0.0, 1.6212566874042509E9, 2021-05-17 15:04:47.404
88.0, -96.30055236816406, 150.5290985107422, 33.10185623168945, 319.8792419433594, 0.04800000041723251, -0.01600000075995922, 1.055999994277954, 0.0, 0.0, 0.0, 0.0, 0.0, 1.6212566874178166E9, 2021-05-17 15:04:47.417
88.0, -81.77104187011719, 166.79019165039062, 43.173404693603516, 330.76983642578125, 0.04800000041723251, -0.01600000075995922, 1.055999994277954, 0.0, 0.0, 0.0, 0.0, 0.0, 1.6212566874178166E9, 2021-05-17 15:04:47.417
89.0, -95.88168334960938, 161.16537475585938, 28.355920791625977, 316.8686218261719, 0.04800000041723251, -0.01600000075995922, 1.055999994277954, 0.0, 0.0, 0.0, 0.0, 0.0, 1.621256687433664E9, 2021-05-17 15:04:47.433
89.0, -103.24554443359375, 152.62344360351562, 23.576330184936523, 313.0015869140625, 0.04800000041723251, -0.01600000075995922, 1.055999994277954, 0.0, 0.0, 0.0, 0.0, 0.0, 1.621256687433664E9, 2021-05-17 15:04:47.433
90.0, -97.28041076660156, 161.11676025390625, 24.664640426635742, 319.0564880371094, 0.04800000041723251, -0.01600000075995922, 1.055999994277954, 0.0, 0.0, 0.0, 0.0, 0.0, 1.6212566874342942E9, 2021-05-17 15:04:47.434
90.0, -90.58598327636719, 170.22341918945312, 32.44363021850586, 326.23333740234375, 0.04800000041723251, -0.01600000075995922, 1.055999994277954, 0.0, 0.0, 0.0, 0.0, 0.0, 1.6212566874342942E9, 2021-05-17 15:04:47.434
91.0, -100.90062713623047, 164.11990356445312, 23.864301681518555, 319.146240234375, 0.04800000041723251, -0.01600000075995922, 1.055999994277954, 0.0, 0.0, 0.0, 0.0, 0.0, 1.621256687447766E9, 2021-05-17 15:04:47.447
91.0, -105.29127502441406, 153.31906127929688, 15.075536727905273, 305.742431640625, 0.04800000041723251, -0.01600000075995922, 1.055999994277954, 0.0, 0.0, 0.0, 0.0, 0.0, 1.621256687447766E9, 2021-05-17 15:04:47.447
92.0, -97.47862243652344, 159.6208038330078, 19.64943504333496, 314.9912109375, 0.04800000041723251, -0.01600000075995922, 1.055999994277954, 0.0, 0.0, 0.0, 0.0, 0.0, 1.6212566874635355E9, 2021-05-17 15:04:47.463
92.0, -90.17086029052734, 164.04136657714844, 30.094974517822266, 318.55908203125, 0.04800000041723251, -0.01600000075995922, 1.055999994277954, 0.0, 0.0, 0.0, 0.0, 0.0, 1.6212566874635355E9, 2021-05-17 15:04:47.463
93.0, -92.21658325195312, 169.0154266357422, 30.67840003967285, 316.6778869628906, 0.04800000041723251, -0.01600000075995922, 1.055999994277954, 0.0, 0.0, 0.0, 0.0, 0.0, 1.621256687464319E9, 2021-05-17 15:04:47.464
93.0, -98.88856506347656, 160.79513549804688, 27.82485580444336, 314.01507568359375, 0.04800000041723251, -0.01600000075995922, 1.055999994277954, 0.0, 0.0, 0.0, 0.0, 0.0, 1.621256687464319E9, 2021-05-17 15:04:47.464
94.0, -98.24530029296875, 160.5408172607422, 30.154813766479492, 311.0867614746094, 0.04800000041723251, -0.01600000075995922, 1.055999994277954, 0.0, 0.0, 0.0, 0.0, 0.0, 1.621256687477776E9, 2021-05-17 15:04:47.477
94.0, -83.02391052246094, 173.83990478515625, 46.43085861206055, 325.64617919921875, 0.04800000041723251, -0.01600000075995922, 1.055999994277954, 0.0, 0.0, 0.0, 0.0, 0.0, 1.621256687477776E9, 2021-05-17 15:04:47.477
95.0, -90.67574310302734, 166.4386444091797, 35.2597770690918, 319.53143310546875, 0.04800000041723251, -0.01600000075995922, 1.055999994277954, 0.0, 0.0, 0.0, 0.0, 0.0, 1.621256687493531E9, 2021-05-17 15:04:47.493
95.0, -100.57151794433594, 155.4994354248047, 30.28944969177246, 312.1563720703125, 0.04800000041723251, -0.01600000075995922, 1.055999994277954, 0.0, 0.0, 0.0, 0.0, 0.0, 1.621256687493531E9, 2021-05-17 15:04:47.493
96.0, -85.49224090576172, 165.52984619140625, 41.12767791748047, 324.0342712402344, 0.04800000041723251, -0.01600000075995922, 1.055999994277954, 0.0, 0.0, 0.0, 0.0, 0.0, 1.6212566874942193E9, 2021-05-17 15:04:47.494
96.0, -79.20172882080078, 170.95643615722656, 46.07182693481445, 324.51300048828125, 0.04800000041723251, -0.01600000075995922, 1.055999994277954, 0.0, 0.0, 0.0, 0.0, 0.0, 1.6212566874942193E9, 2021-05-17 15:04:47.494
97.0, -88.03163146972656, 163.70851135253906, 38.54340744018555, 317.88214111328125, 0.04800000041723251, -0.01600000075995922, 1.055999994277954, 0.0, 0.0, 0.0, 0.0, 0.0, 1.6212566875077865E9, 2021-05-17 15:04:47.507
97.0, -93.38716888427734, 157.0739288330078, 29.904239654541016, 308.9213562011719, 0.04800000041723251, -0.01600000075995922, 1.055999994277954, 0.0, 0.0, 0.0, 0.0, 0.0, 1.6212566875077865E9, 2021-05-17 15:04:47.507
98.0, -88.20367431640625, 154.34005737304688, 34.567893981933594, 307.2608337402344, 0.04800000041723251, -0.01600000075995922, 1.055999994277954, 0.0, 0.0, 0.0, 0.0, 0.0, 1.621256687540566E9, 2021-05-17 15:04:47.540
98.0, -79.95719146728516, 162.90817260742188, 44.553428649902344, 323.05816650390625, 0.04800000041723251, -0.01600000075995922, 1.055999994277954, 0.0, 0.0, 0.0, 0.0, 0.0, 1.621256687540566E9, 2021-05-17 15:04:47.540
99.0, -95.6647720336914, 156.29977416992188, 35.95166015625, 317.8073425292969, 0.04800000041723251, -0.01600000075995922, 1.055999994277954, 0.0, 0.0, 0.0, 0.0, 0.0, 1.6212566875413175E9, 2021-05-17 15:04:47.541
99.0, -107.68106842041016, 149.57168579101562, 23.808202743530273, 306.30340576171875, 0.04800000041723251, -0.01600000075995922, 1.055999994277954, 0.0, 0.0, 0.0, 0.0, 0.0, 1.6212566875413175E9, 2021-05-17 15:04:47.541
100.0, -107.8082275390625, 155.7238311767578, 23.580068588256836, 316.7452087402344, 0.04800000041723251, -0.01600000075995922, 1.055999994277954, 0.0, 0.0, 0.0, 0.0, 0.0, 1.6212566875420172E9, 2021-05-17 15:04:47.542
100.0, -91.2890853881836, 165.42138671875, 43.023807525634766, 331.74969482421875, 0.04800000041723251, -0.01600000075995922, 1.055999994277954, 0.0, 0.0, 0.0, 0.0, 0.0, 1.6212566875420172E9, 2021-05-17 15:04:47.542
0.0, -97.61138916015625, 158.2501220703125, 32.17435836791992, 320.5206604003906, 0.04800000041723251, -0.01600000075995922, 1.055999994277954, 0.0, 0.0, 0.0, 0.0, 0.0, 1.6212566875427644E9, 2021-05-17 15:04:47.542
1.0, -101.2129135131836, 148.66102600097656, 22.910627365112305, 309.3570556640625, 0.04800000041723251, -0.01600000075995922, 1.055999994277954, 0.0, 0.0, 0.0, 0.0, 0.0, 1.6212566875528145E9, 2021-05-17 15:04:47.552
1.0, -100.58460998535156, 152.77865600585938, 29.126340866088867, 311.3392028808594, 0.04800000041723251, -0.01600000075995922, 1.055999994277954, 0.0, 0.0, 0.0, 0.0, 0.0, 1.6212566875528145E9, 2021-05-17 15:04:47.552
2.0, -80.91647338867188, 168.63583374023438, 42.00655746459961, 319.30145263671875, 0.03200000151991844, -0.01600000075995922, 1.055999994277954, 0.0, 0.0, 0.0, 0.0, 0.0, 1.6212566875702136E9, 2021-05-17 15:04:47.570
2.0, -86.11493682861328, 164.20779418945312, 35.360755920410156, 313.7252502441406, 0.03200000151991844, -0.01600000075995922, 1.055999994277954, 0.0, 0.0, 0.0, 0.0, 0.0, 1.6212566875702136E9, 2021-05-17 15:04:47.570
3.0, -95.05329895019531, 152.67393493652344, 28.32600212097168, 304.6971435546875, 0.03200000151991844, -0.01600000075995922, 1.055999994277954, 0.0, 0.0, 0.0, 0.0, 0.0, 1.621256687570249E9, 2021-05-17 15:04:47.570
3.0, -88.01106262207031, 157.42735290527344, 35.98531723022461, 316.9303283691406, 0.03200000151991844, -0.01600000075995922, 1.055999994277954, 0.0, 0.0, 0.0, 0.0, 0.0, 1.621256687570249E9, 2021-05-17 15:04:47.570
4.0, -81.17453002929688, 163.5944366455078, 42.19729232788086, 329.31689453125, 0.03200000151991844, -0.01600000075995922, 1.055999994277954, 0.0, 0.0, 0.0, 0.0, 0.0, 1.6212566875992355E9, 2021-05-17 15:04:47.599
4.0, -90.00443267822266, 156.3839111328125, 38.79024124145508, 323.5649108886719, 0.03200000151991844, -0.01600000075995922, 1.055999994277954, 0.0, 0.0, 0.0, 0.0, 0.0, 1.6212566875992355E9, 2021-05-17 15:04:47.599
5.0, -102.83976745605469, 150.99098205566406, 29.586349487304688, 318.4225769042969, 0.03200000151991844, -0.01600000075995922, 1.055999994277954, 0.0, 0.0, 0.0, 0.0, 0.0, 1.6212566876005583E9, 2021-05-17 15:04:47.600
5.0, -93.03375244140625, 153.60142517089844, 34.27992248535156, 323.3330383300781, 0.03200000151991844, -0.01600000075995922, 1.055999994277954, 0.0, 0.0, 0.0, 0.0, 0.0, 1.6212566876005583E9, 2021-05-17 15:04:47.600
6.0, -80.99127197265625, 163.78517150878906, 38.36763381958008, 331.8226318359375, 0.03200000151991844, -0.01600000075995922, 1.055999994277954, 0.0, 0.0, 0.0, 0.0, 0.0, 1.6212566876010118E9, 2021-05-17 15:04:47.601
6.0, -89.26393127441406, 156.70555114746094, 28.726171493530273, 319.6791687011719, 0.03200000151991844, -0.01600000075995922, 1.055999994277954, 0.0, 0.0, 0.0, 0.0, 0.0, 1.6212566876010118E9, 2021-05-17 15:04:47.601
7.0, -108.60669708251953, 142.3144073486328, 10.875629425048828, 312.19561767578125, 0.03200000151991844, -0.01600000075995922, 1.055999994277954, 0.0, 0.0, 0.0, 0.0, 0.0, 1.6212566876172822E9, 2021-05-17 15:04:47.617
7.0, -100.25923919677734, 150.59080505371094, 18.048757553100586, 319.6455078125, 0.03200000151991844, -0.01600000075995922, 1.055999994277954, 0.0, 0.0, 0.0, 0.0, 0.0, 1.6212566876172822E9, 2021-05-17 15:04:47.617
8.0, -88.4486312866211, 156.7205047607422, 29.242277145385742, 330.6221008300781, 0.03200000151991844, -0.01600000075995922, 1.055999994277954, 0.0, 0.0, 0.0, 0.0, 0.0, 1.6212566876285412E9, 2021-05-17 15:04:47.628
8.0, -93.6470947265625, 157.65548706054688, 23.452913284301758, 322.0652160644531, 0.03200000151991844, -0.01600000075995922, 1.055999994277954, 0.0, 0.0, 0.0, 0.0, 0.0, 1.6212566876285412E9, 2021-05-17 15:04:47.628
9.0, -107.00601959228516, 150.56463623046875, 11.821824073791504, 309.727294921875, 0.03200000151991844, -0.01600000075995922, 1.055999994277954, 0.0, 0.0, 0.0, 0.0, 0.0, 1.6212566876296914E9, 2021-05-17 15:04:47.629
9.0, -99.4102783203125, 154.8730010986328, 21.425886154174805, 310.47900390625, 0.03200000151991844, -0.01600000075995922, 1.055999994277954, 0.0, 0.0, 0.0, 0.0, 0.0, 1.6212566876296914E9, 2021-05-17 15:04:47.629
10.0, -87.56975555419922, 165.47561645507812, 34.8783073425293, 326.48577880859375, 0.03200000151991844, -0.01600000075995922, 1.055999994277954, 0.0, 0.0, 0.0, 0.0, 0.0, 1.6212566876594229E9, 2021-05-17 15:04:47.659
10.0, -84.35718536376953, 160.01536560058594, 32.873722076416016, 323.624755859375, 0.03200000151991844, -0.01600000075995922, 1.055999994277954, 0.0, 0.0, 0.0, 0.0, 0.0, 1.6212566876594229E9, 2021-05-17 15:04:47.659
11.0, -101.29145050048828, 149.83535766601562, 17.86924171447754, 309.5141296386719, 0.03200000151991844, -0.01600000075995922, 1.055999994277954, 0.0, 0.0, 0.0, 0.0, 0.0, 1.6212566876600568E9, 2021-05-17 15:04:47.660
11.0, -96.00697326660156, 148.06263732910156, 26.916059494018555, 312.1320495605469, 0.03200000151991844, -0.01600000075995922, 1.055999994277954, 0.0, 0.0, 0.0, 0.0, 0.0, 1.6212566876600568E9, 2021-05-17 15:04:47.660
12.0, -84.54792022705078, 153.89688110351562, 34.96806335449219, 325.65179443359375, 0.04800000041723251, -0.01600000075995922, 1.055999994277954, 0.0, 0.0, 0.0, 0.0, 0.0, 1.6212566876606667E9, 2021-05-17 15:04:47.660
12.0, -88.42619323730469, 154.75332641601562, 29.178699493408203, 324.645751953125, 0.04800000041723251, -0.01600000075995922, 1.055999994277954, 0.0, 0.0, 0.0, 0.0, 0.0, 1.6212566876606667E9, 2021-05-17 15:04:47.660
13.0, -97.02796173095703, 142.0488739013672, 15.389688491821289, 309.20745849609375, 0.04800000041723251, -0.01600000075995922, 1.055999994277954, 0.0, 0.0, 0.0, 0.0, 0.0, 1.621256687672818E9, 2021-05-17 15:04:47.672
13.0, -93.21326446533203, 144.66307067871094, 24.915212631225586, 315.9355163574219, 0.04800000041723251, -0.01600000075995922, 1.055999994277954, 0.0, 0.0, 0.0, 0.0, 0.0, 1.621256687672818E9, 2021-05-17 15:04:47.672
14.0, -82.36381530761719, 156.8027801513672, 32.88494110107422, 322.58880615234375, 0.04800000041723251, -0.01600000075995922, 1.055999994277954, 0.0, 0.0, 0.0, 0.0, 0.0, 1.6212566876887293E9, 2021-05-17 15:04:47.688
14.0, -90.98428344726562, 155.35169982910156, 21.24637222290039, 311.2045593261719, 0.04800000041723251, -0.01600000075995922, 1.055999994277954, 0.0, 0.0, 0.0, 0.0, 0.0, 1.6212566876887293E9, 2021-05-17 15:04:47.688
15.0, -102.41716003417969, 143.46630859375, 20.225378036499023, 305.0374450683594, 0.04800000041723251, -0.01600000075995922, 1.055999994277954, 0.0, 0.0, 0.0, 0.0, 0.0, 1.621256687689257E9, 2021-05-17 15:04:47.689
15.0, -95.44598388671875, 149.91015625, 19.028610229492188, 314.3647766113281, 0.04800000041723251, -0.01600000075995922, 1.055999994277954, 0.0, 0.0, 0.0, 0.0, 0.0, 1.621256687689257E9, 2021-05-17 15:04:47.689
16.0, -81.3802261352539, 162.60336303710938, 33.588043212890625, 333.7374572753906, 0.04800000041723251, -0.01600000075995922, 1.055999994277954, 0.0, 0.0, 0.0, 0.0, 0.0, 1.6212566877192216E9, 2021-05-17 15:04:47.719
16.0, -91.01420593261719, 155.5536651611328, 27.44338607788086, 322.5102844238281, 0.04800000041723251, -0.01600000075995922, 1.055999994277954, 0.0, 0.0, 0.0, 0.0, 0.0, 1.6212566877192216E9, 2021-05-17 15:04:47.719
17.0, -100.14704132080078, 145.0782012939453, 22.345901489257812, 313.3662109375, 0.04800000041723251, -0.01600000075995922, 1.055999994277954, 0.0, 0.0, 0.0, 0.0, 0.0, 1.621256687719888E9, 2021-05-17 15:04:47.719
17.0, -95.74891662597656, 149.67453002929688, 24.761877059936523, 323.4228210449219, 0.04800000041723251, -0.01600000075995922, 1.055999994277954, 0.0, 0.0, 0.0, 0.0, 0.0, 1.621256687719888E9, 2021-05-17 15:04:47.719
18.0, -91.11518096923828, 161.3168487548828, 32.44737243652344, 327.37213134765625, 0.04800000041723251, -0.01600000075995922, 1.055999994277954, 0.0, 0.0, 0.0, 0.0, 0.0, 1.621256687720621E9, 2021-05-17 15:04:47.720
18.0, -95.96957397460938, 150.80398559570312, 22.809650421142578, 320.6328430175781, 0.04800000041723251, -0.01600000075995922, 1.055999994277954, 0.0, 0.0, 0.0, 0.0, 0.0, 1.621256687720621E9, 2021-05-17 15:04:47.720
19.0, -102.17780303955078, 147.3483123779297, 21.710119247436523, 309.3832092285156, 0.04800000041723251, -0.01600000075995922, 1.055999994277954, 0.0, 0.0, 0.0, 0.0, 0.0, 1.6212566877328477E9, 2021-05-17 15:04:47.732
19.0, -96.16030883789062, 149.64462280273438, 29.077722549438477, 316.3992614746094, 0.04800000041723251, -0.01600000075995922, 1.055999994277954, 0.0, 0.0, 0.0, 0.0, 0.0, 1.6212566877328477E9, 2021-05-17 15:04:47.732
20.0, -80.52378845214844, 156.5559539794922, 39.063255310058594, 323.3554992675781, 0.04800000041723251, -0.01600000075995922, 1.055999994277954, 0.0, 0.0, 0.0, 0.0, 0.0, 1.6212566877484891E9, 2021-05-17 15:04:47.748
20.0, -92.27828979492188, 149.76803588867188, 29.769603729248047, 316.07763671875, 0.04800000041723251, -0.01600000075995922, 1.055999994277954, 0.0, 0.0, 0.0, 0.0, 0.0, 1.6212566877484891E9, 2021-05-17 15:04:47.748
21.0, -101.42608642578125, 146.1328582763672, 15.834736824035645, 310.7295837402344, 0.04800000041723251, -0.01600000075995922, 1.055999994277954, 0.0, 0.0, 0.0, 0.0, 0.0, 1.6212566877491863E9, 2021-05-17 15:04:47.749
21.0, -96.92698669433594, 149.33795166015625, 21.152873992919922, 316.45538330078125, 0.04800000041723251, -0.01600000075995922, 1.055999994277954, 0.0, 0.0, 0.0, 0.0, 0.0, 1.6212566877491863E9, 2021-05-17 15:04:47.749
22.0, -87.82032775878906, 153.6874542236328, 30.50262451171875, 324.9075622558594, 0.03200000151991844, -0.01600000075995922, 1.055999994277954, 0.0, 0.0, 0.0, 0.0, 0.0, 1.6212566877790284E9, 2021-05-17 15:04:47.779
22.0, -91.18250274658203, 149.12477111816406, 27.551843643188477, 329.5711975097656, 0.03200000151991844, -0.01600000075995922, 1.055999994277954, 0.0, 0.0, 0.0, 0.0, 0.0, 1.6212566877790284E9, 2021-05-17 15:04:47.779
23.0, -96.19022369384766, 142.29945373535156, 22.211265563964844, 318.729248046875, 0.03200000151991844, -0.01600000075995922, 1.055999994277954, 0.0, 0.0, 0.0, 0.0, 0.0, 1.621256687779678E9, 2021-05-17 15:04:47.779
23.0, -97.43561553955078, 144.7715301513672, 22.78721046447754, 320.8123474121094, 0.03200000151991844, -0.01600000075995922, 1.055999994277954, 0.0, 0.0, 0.0, 0.0, 0.0, 1.621256687779678E9, 2021-05-17 15:04:47.779
24.0, -83.0669174194336, 158.03695678710938, 41.258575439453125, 337.5521545410156, 0.03200000151991844, -0.01600000075995922, 1.055999994277954, 0.0, 0.0, 0.0, 0.0, 0.0, 1.6212566877935352E9, 2021-05-17 15:04:47.793
24.0, -91.63128662109375, 155.14227294921875, 36.886634826660156, 327.73492431640625, 0.03200000151991844, -0.01600000075995922, 1.055999994277954, 0.0, 0.0, 0.0, 0.0, 0.0, 1.6212566877935352E9, 2021-05-17 15:04:47.793
25.0, -98.07513427734375, 144.1731414794922, 25.786609649658203, 313.6878356933594, 0.03200000151991844, -0.01600000075995922, 1.055999994277954, 0.0, 0.0, 0.0, 0.0, 0.0, 1.6212566877942731E9, 2021-05-17 15:04:47.794
25.0, -95.82371520996094, 147.15757751464844, 25.91002655029297, 317.9326477050781, 0.03200000151991844, -0.01600000075995922, 1.055999994277954, 0.0, 0.0, 0.0, 0.0, 0.0, 1.6212566877942731E9, 2021-05-17 15:04:47.794
26.0, -83.63912200927734, 162.35279846191406, 44.81896209716797, 327.4319763183594, 0.03200000151991844, -0.01600000075995922, 1.055999994277954, 0.0, 0.0, 0.0, 0.0, 0.0, 1.6212566878085644E9, 2021-05-17 15:04:47.808
26.0, -92.1810531616211, 158.72509765625, 35.113922119140625, 316.4516296386719, 0.03200000151991844, -0.01600000075995922, 1.055999994277954, 0.0, 0.0, 0.0, 0.0, 0.0, 1.6212566878085644E9, 2021-05-17 15:04:47.808
27.0, -98.41920471191406, 152.11294555664062, 27.151674270629883, 307.6927795410156, 0.03200000151991844, -0.01600000075995922, 1.055999994277954, 0.0, 0.0, 0.0, 0.0, 0.0, 1.621256687809404E9, 2021-05-17 15:04:47.809
27.0, -96.92698669433594, 151.02464294433594, 33.49080276489258, 312.4312438964844, 0.03200000151991844, -0.01600000075995922, 1.055999994277954, 0.0, 0.0, 0.0, 0.0, 0.0, 1.621256687809404E9, 2021-05-17 15:04:47.809
28.0, -78.30976867675781, 164.20030212402344, 49.34423828125, 329.0812683105469, 0.03200000151991844, -0.01600000075995922, 1.055999994277954, 0.0, 0.0, 0.0, 0.0, 0.0, 1.6212566878390107E9, 2021-05-17 15:04:47.839
28.0, -83.84855651855469, 157.51710510253906, 41.77842330932617, 327.13653564453125, 0.03200000151991844, -0.01600000075995922, 1.055999994277954, 0.0, 0.0, 0.0, 0.0, 0.0, 1.6212566878390107E9, 2021-05-17 15:04:47.839
29.0, -94.63816833496094, 147.7410125732422, 33.27762985229492, 314.4320983886719, 0.03200000151991844, -0.01600000075995922, 1.055999994277954, 0.0, 0.0, 0.0, 0.0, 0.0, 1.621256687839654E9, 2021-05-17 15:04:47.839
29.0, -94.38385772705078, 145.46714782714844, 30.143592834472656, 317.8802795410156, 0.03200000151991844, -0.01600000075995922, 1.055999994277954, 0.0, 0.0, 0.0, 0.0, 0.0, 1.621256687839654E9, 2021-05-17 15:04:47.839
30.0, -83.82238006591797, 160.66610717773438, 41.20621871948242, 328.02288818359375, 0.03200000151991844, -0.01600000075995922, 1.055999994277954, 0.0, 0.0, 0.0, 0.0, 0.0, 1.621256687853581E9, 2021-05-17 15:04:47.853
30.0, -87.4800033569336, 153.9342803955078, 39.54570388793945, 318.553466796875, 0.03200000151991844, -0.01600000075995922, 1.055999994277954, 0.0, 0.0, 0.0, 0.0, 0.0, 1.621256687853581E9, 2021-05-17 15:04:47.853
31.0, -97.37203216552734, 142.8118133544922, 25.292943954467773, 302.53173828125, 0.03200000151991844, -0.01600000075995922, 1.055999994277954, 0.0, 0.0, 0.0, 0.0, 0.0, 1.6212566878542824E9, 2021-05-17 15:04:47.854
31.0, -100.84265899658203, 142.01522827148438, 24.335529327392578, 303.459228515625, 0.03200000151991844, -0.01600000075995922, 1.055999994277954, 0.0, 0.0, 0.0, 0.0, 0.0, 1.6212566878542824E9, 2021-05-17 15:04:47.854
32.0, -84.40579986572266, 162.27426147460938, 36.59865951538086, 317.58856201171875, 0.03200000151991844, -0.01600000075995922, 1.055999994277954, 0.0, 0.0, 0.0, 0.0, 0.0, 1.6212566878685732E9, 2021-05-17 15:04:47.868
32.0, -92.32317352294922, 157.8013458251953, 34.018131256103516, 313.7102966308594, 0.03200000151991844, -0.01600000075995922, 1.055999994277954, 0.0, 0.0, 0.0, 0.0, 0.0, 1.6212566878685732E9, 2021-05-17 15:04:47.868
33.0, -107.89611053466797, 152.80857849121094, 20.767663955688477, 306.6717834472656, 0.03200000151991844, -0.01600000075995922, 1.055999994277954, 0.0, 0.0, 0.0, 0.0, 0.0, 1.6212566878692317E9, 2021-05-17 15:04:47.869
33.0, -98.95027160644531, 154.78323364257812, 25.969865798950195, 312.3938293457031, 0.03200000151991844, -0.01600000075995922, 1.055999994277954, 0.0, 0.0, 0.0, 0.0, 0.0, 1.6212566878692317E9, 2021-05-17 15:04:47.869
34.0, -86.94893646240234, 171.5604248046875, 42.44412612915039, 329.0887451171875, 0.03200000151991844, -0.01600000075995922, 1.055999994277954, 0.0, 0.0, 0.0, 0.0, 0.0, 1.6212566878828897E9, 2021-05-17 15:04:47.882
34.0, -88.3065185546875, 165.34844970703125, 44.235538482666016, 328.0154113769531, 0.03200000151991844, -0.01600000075995922, 1.055999994277954, 0.0, 0.0, 0.0, 0.0, 0.0, 1.6212566878828897E9, 2021-05-17 15:04:47.882
35.0, -97.75350189208984, 153.291015625, 32.38005447387695, 310.32568359375, 0.03200000151991844, -0.01600000075995922, 1.055999994277954, 0.0, 0.0, 0.0, 0.0, 0.0, 1.6212566878985915E9, 2021-05-17 15:04:47.898
35.0, -93.57977294921875, 153.75851440429688, 32.45485305786133, 314.5816955566406, 0.03200000151991844, -0.01600000075995922, 1.055999994277954, 0.0, 0.0, 0.0, 0.0, 0.0, 1.6212566878985915E9, 2021-05-17 15:04:47.898
36.0, -83.1304931640625, 162.35653686523438, 44.91619873046875, 326.94952392578125, 0.03200000151991844, -0.01600000075995922, 1.055999994277954, 0.0, 0.0, 0.0, 0.0, 0.0, 1.6212566878992133E9, 2021-05-17 15:04:47.899
36.0, -87.31170654296875, 160.23974609375, 43.03876876831055, 323.976318359375, 0.03200000151991844, -0.01600000075995922, 1.055999994277954, 0.0, 0.0, 0.0, 0.0, 0.0, 1.6212566878992133E9, 2021-05-17 15:04:47.899
37.0, -100.16947937011719, 150.60951232910156, 25.064809799194336, 313.04083251953125, 0.03200000151991844, -0.01600000075995922, 1.055999994277954, 0.0, 0.0, 0.0, 0.0, 0.0, 1.6212566879129324E9, 2021-05-17 15:04:47.912
37.0, -94.15946197509766, 152.2251434326172, 28.337221145629883, 318.4375305175781, 0.03200000151991844, -0.01600000075995922, 1.055999994277954, 0.0, 0.0, 0.0, 0.0, 0.0, 1.6212566879129324E9, 2021-05-17 15:04:47.912
38.0, -75.8227310180664, 164.15916442871094, 40.32360076904297, 332.4471740722656, 0.03200000151991844, -0.01600000075995922, 1.055999994277954, 0.0, 0.0, 0.0, 0.0, 0.0, 1.62125668792858E9, 2021-05-17 15:04:47.928
38.0, -83.84855651855469, 157.00474548339844, 33.02705764770508, 325.0907897949219, 0.03200000151991844, -0.01600000075995922, 1.055999994277954, 0.0, 0.0, 0.0, 0.0, 0.0, 1.62125668792858E9, 2021-05-17 15:04:47.928
39.0, -96.90454864501953, 144.5957489013672, 20.23659896850586, 314.5555114746094, 0.03200000151991844, -0.01600000075995922, 1.055999994277954, 0.0, 0.0, 0.0, 0.0, 0.0, 1.62125668792925E9, 2021-05-17 15:04:47.929
39.0, -91.42559051513672, 147.2024688720703, 24.36918830871582, 312.88751220703125, 0.03200000151991844, -0.01600000075995922, 1.055999994277954, 0.0, 0.0, 0.0, 0.0, 0.0, 1.62125668792925E9, 2021-05-17 15:04:47.929
40.0, -80.13483428955078, 162.2368621826172, 32.89616012573242, 323.2320861816406, 0.03200000151991844, -0.01600000075995922, 1.055999994277954, 0.0, 0.0, 0.0, 0.0, 0.0, 1.6212566879430785E9, 2021-05-17 15:04:47.943
40.0, -92.45780944824219, 154.88047790527344, 26.859960556030273, 313.2240905761719, 0.03200000151991844, -0.01600000075995922, 1.055999994277954, 0.0, 0.0, 0.0, 0.0, 0.0, 1.6212566879430785E9, 2021-05-17 15:04:47.943
41.0, -102.00951385498047, 145.72520446777344, 18.568603515625, 303.2909240722656, 0.03200000151991844, -0.01600000075995922, 1.055999994277954, 0.0, 0.0, 0.0, 0.0, 0.0, 1.6212566879585023E9, 2021-05-17 15:04:47.958
41.0, -96.66519165039062, 150.69178771972656, 25.30042266845703, 314.293701171875, 0.03200000151991844, -0.01600000075995922, 1.055999994277954, 0.0, 0.0, 0.0, 0.0, 0.0, 1.6212566879585023E9, 2021-05-17 15:04:47.958
42.0, -73.00658416748047, 161.92271423339844, 44.594566345214844, 325.244140625, 0.04800000041723251, -0.01600000075995922, 1.055999994277954, 0.0, 0.0, 0.0, 0.0, 0.0, 1.621256687959202E9, 2021-05-17 15:04:47.959
42.0, -82.89488220214844, 159.68624877929688, 37.37282180786133, 314.6864013671875, 0.04800000041723251, -0.01600000075995922, 1.055999994277954, 0.0, 0.0, 0.0, 0.0, 0.0, 1.621256687959202E9, 2021-05-17 15:04:47.959
43.0, -87.52861785888672, 154.394287109375, 27.978191375732422, 312.0348205566406, 0.04800000041723251, -0.01600000075995922, 1.055999994277954, 0.0, 0.0, 0.0, 0.0, 0.0, 1.621256687972813E9, 2021-05-17 15:04:47.972
43.0, -84.75361633300781, 152.1914825439453, 24.522523880004883, 313.1530456542969, 0.04800000041723251, -0.01600000075995922, 1.055999994277954, 0.0, 0.0, 0.0, 0.0, 0.0, 1.621256687972813E9, 2021-05-17 15:04:47.972
44.0, -75.1794662475586, 164.0207977294922, 38.072181701660156, 330.85772705078125, 0.04800000041723251, -0.01600000075995922, 1.055999994277954, 0.0, 0.0, 0.0, 0.0, 0.0, 1.6212566879885087E9, 2021-05-17 15:04:47.988
44.0, -83.60920715332031, 158.15663146972656, 32.97469711303711, 320.78619384765625, 0.04800000041723251, -0.01600000075995922, 1.055999994277954, 0.0, 0.0, 0.0, 0.0, 0.0, 1.6212566879885087E9, 2021-05-17 15:04:47.988
45.0, -96.63153839111328, 147.0603485107422, 17.603708267211914, 309.9442138671875, 0.04800000041723251, -0.01600000075995922, 1.055999994277954, 0.0, 0.0, 0.0, 0.0, 0.0, 1.6212566879891813E9, 2021-05-17 15:04:47.989
45.0, -91.37323760986328, 154.1923370361328, 22.26362419128418, 314.78363037109375, 0.04800000041723251, -0.01600000075995922, 1.055999994277954, 0.0, 0.0, 0.0, 0.0, 0.0, 1.6212566879891813E9, 2021-05-17 15:04:47.989
46.0, -82.53211212158203, 163.32516479492188, 27.907133102416992, 327.3272705078125, 0.04800000041723251, -0.01600000075995922, 1.055999994277954, 0.0, 0.0, 0.0, 0.0, 0.0, 1.621256688002904E9, 2021-05-17 15:04:48.002
46.0, -87.76422882080078, 161.0400848388672, 26.833782196044922, 323.7593994140625, 0.04800000041723251, -0.01600000075995922, 1.055999994277954, 0.0, 0.0, 0.0, 0.0, 0.0, 1.621256688002904E9, 2021-05-17 15:04:48.002
47.0, -92.45406341552734, 151.6379852294922, 17.207279205322266, 314.40216064453125, 0.04800000041723251, -0.01600000075995922, 1.055999994277954, 0.0, 0.0, 0.0, 0.0, 0.0, 1.6212566880188177E9, 2021-05-17 15:04:48.018
47.0, -94.55963134765625, 157.1468505859375, 23.27339744567871, 321.4668273925781, 0.04800000041723251, -0.01600000075995922, 1.055999994277954, 0.0, 0.0, 0.0, 0.0, 0.0, 1.6212566880188177E9, 2021-05-17 15:04:48.018
48.0, -80.48265075683594, 162.60711669921875, 29.911720275878906, 332.9071960449219, 0.04800000041723251, -0.01600000075995922, 1.055999994277954, 0.0, 0.0, 0.0, 0.0, 0.0, 1.6212566880195782E9, 2021-05-17 15:04:48.019
48.0, -88.92359924316406, 161.17098999023438, 28.168926239013672, 331.1943054199219, 0.04800000041723251, -0.01600000075995922, 1.055999994277954, 0.0, 0.0, 0.0, 0.0, 0.0, 1.6212566880195782E9, 2021-05-17 15:04:48.019
49.0, -100.58834838867188, 154.7308807373047, 21.956953048706055, 305.665771484375, 0.04800000041723251, -0.01600000075995922, 1.055999994277954, 0.0, 0.0, 0.0, 0.0, 0.0, 1.6212566880329049E9, 2021-05-17 15:04:48.032
49.0, -97.44683074951172, 155.3741455078125, 27.028257369995117, 305.1982727050781, 0.04800000041723251, -0.01600000075995922, 1.055999994277954, 0.0, 0.0, 0.0, 0.0, 0.0, 1.6212566880329049E9, 2021-05-17 15:04:48.032
50.0, -76.903564453125, 161.5973358154297, 42.96023178100586, 325.5246276855469, 0.04800000041723251, -0.01600000075995922, 1.055999994277954, 0.0, 0.0, 0.0, 0.0, 0.0, 1.6212566880485744E9, 2021-05-17 15:04:48.048
50.0, -75.47492218017578, 161.97506713867188, 37.02874755859375, 318.0822448730469, 0.04800000041723251, -0.01600000075995922, 1.055999994277954, 0.0, 0.0, 0.0, 0.0, 0.0, 1.6212566880485744E9, 2021-05-17 15:04:48.048
51.0, -93.11602783203125, 146.45448303222656, 24.518783569335938, 309.31964111328125, 0.04800000041723251, -0.01600000075995922, 1.055999994277954, 0.0, 0.0, 0.0, 0.0, 0.0, 1.6212566880492754E9, 2021-05-17 15:04:48.049
51.0, -85.1724853515625, 147.00424194335938, 33.995689392089844, 320.748779296875, 0.04800000041723251, -0.01600000075995922, 1.055999994277954, 0.0, 0.0, 0.0, 0.0, 0.0, 1.6212566880492754E9, 2021-05-17 15:04:48.049
52.0, -71.45826721191406, 162.1583251953125, 42.8480339050293, 329.9115295410156, 0.04800000041723251, -0.01600000075995922, 1.055999994277954, 0.0, 0.0, 0.0, 0.0, 0.0, 1.6212566880628169E9, 2021-05-17 15:04:48.062
52.0, -84.0505142211914, 153.4293975830078, 34.95310592651367, 322.43548583984375, 0.04800000041723251, -0.01600000075995922, 1.055999994277954, 0.0, 0.0, 0.0, 0.0, 0.0, 1.6212566880628169E9, 2021-05-17 15:04:48.062
53.0, -90.83094787597656, 152.89085388183594, 34.20512390136719, 318.4674377441406, 0.04800000041723251, -0.01600000075995922, 1.055999994277954, 0.0, 0.0, 0.0, 0.0, 0.0, 1.6212566880784967E9, 2021-05-17 15:04:48.078
53.0, -89.12181854248047, 151.013427734375, 34.25374221801758, 317.1435241699219, 0.04800000041723251, -0.01600000075995922, 1.055999994277954, 0.0, 0.0, 0.0, 0.0, 0.0, 1.6212566880784967E9, 2021-05-17 15:04:48.078
54.0, -82.64057159423828, 160.57260131835938, 35.32709503173828, 329.84796142578125, 0.04800000041723251, -0.01600000075995922, 1.055999994277954, 0.0, 0.0, 0.0, 0.0, 0.0, 1.6212566880792637E9, 2021-05-17 15:04:48.079
54.0, -83.99815368652344, 158.20150756835938, 35.36449432373047, 325.56951904296875, 0.04800000041723251, -0.01600000075995922, 1.055999994277954, 0.0, 0.0, 0.0, 0.0, 0.0, 1.6212566880792637E9, 2021-05-17 15:04:48.079
55.0, -98.81937408447266, 146.39089965820312, 20.92099952697754, 314.56298828125, 0.04800000041723251, -0.01600000075995922, 1.055999994277954, 0.0, 0.0, 0.0, 0.0, 0.0, 1.6212566880927913E9, 2021-05-17 15:04:48.092
55.0, -92.14739227294922, 146.90701293945312, 23.7034854888916, 316.26837158203125, 0.04800000041723251, -0.01600000075995922, 1.055999994277954, 0.0, 0.0, 0.0, 0.0, 0.0, 1.6212566880927913E9, 2021-05-17 15:04:48.092
56.0, -78.40325927734375, 158.13792419433594, 39.7551383972168, 327.7012634277344, 0.04800000041723251, -0.01600000075995922, 1.055999994277954, 0.0, 0.0, 0.0, 0.0, 0.0, 1.6212566881086445E9, 2021-05-17 15:04:48.108
56.0, -87.6482925415039, 155.6322021484375, 28.984224319458008, 321.5042419433594, 0.04800000041723251, -0.01600000075995922, 1.055999994277954, 0.0, 0.0, 0.0, 0.0, 0.0, 1.6212566881086445E9, 2021-05-17 15:04:48.108
57.0, -105.95510864257812, 143.98614501953125, 14.226579666137695, 312.88751220703125, 0.04800000041723251, -0.01600000075995922, 1.055999994277954, 0.0, 0.0, 0.0, 0.0, 0.0, 1.6212566881093192E9, 2021-05-17 15:04:48.109
57.0, -93.87522888183594, 149.6894989013672, 21.007017135620117, 325.88739013671875, 0.04800000041723251, -0.01600000075995922, 1.055999994277954, 0.0, 0.0, 0.0, 0.0, 0.0, 1.6212566881093192E9, 2021-05-17 15:04:48.109
58.0, -83.27635192871094, 161.56741333007812, 33.84609603881836, 340.7011413574219, 0.04800000041723251, -0.01600000075995922, 1.055999994277954, 0.0, 0.0, 0.0, 0.0, 0.0, 1.6212566881228604E9, 2021-05-17 15:04:48.122
58.0, -87.29674530029297, 154.1773681640625, 32.731605529785156, 327.6638488769531, 0.04800000041723251, -0.01600000075995922, 1.055999994277954, 0.0, 0.0, 0.0, 0.0, 0.0, 1.6212566881228604E9, 2021-05-17 15:04:48.122
59.0, -98.81189727783203, 146.6863555908203, 24.900253295898438, 314.5330810546875, 0.04800000041723251, -0.01600000075995922, 1.055999994277954, 0.0, 0.0, 0.0, 0.0, 0.0, 1.6212566881385353E9, 2021-05-17 15:04:48.138
59.0, -91.38819885253906, 155.8341522216797, 28.273643493652344, 317.97003173828125, 0.04800000041723251, -0.01600000075995922, 1.055999994277954, 0.0, 0.0, 0.0, 0.0, 0.0, 1.6212566881385353E9, 2021-05-17 15:04:48.138
60.0, -76.2004623413086, 162.22938537597656, 39.10813522338867, 330.1209716796875, 0.04800000041723251, -0.01600000075995922, 1.055999994277954, 0.0, 0.0, 0.0, 0.0, 0.0, 1.6212566881392407E9, 2021-05-17 15:04:48.139
60.0, -89.06571960449219, 164.20030212402344, 32.68672561645508, 322.12506103515625, 0.04800000041723251, -0.01600000075995922, 1.055999994277954, 0.0, 0.0, 0.0, 0.0, 0.0, 1.6212566881392407E9, 2021-05-17 15:04:48.139
61.0, -103.13896179199219, 152.28125, 23.954059600830078, 312.8127136230469, 0.04800000041723251, -0.01600000075995922, 1.055999994277954, 0.0, 0.0, 0.0, 0.0, 0.0, 1.621256688152988E9, 2021-05-17 15:04:48.152
61.0, -99.03629302978516, 153.7547607421875, 23.39307403564453, 314.5143737792969, 0.04800000041723251, -0.01600000075995922, 1.055999994277954, 0.0, 0.0, 0.0, 0.0, 0.0, 1.621256688152988E9, 2021-05-17 15:04:48.152
62.0, -83.72139739990234, 164.65283203125, 38.640647888183594, 331.6281433105469, 0.03200000151991844, -0.01600000075995922, 1.055999994277954, 0.0, 0.0, 0.0, 0.0, 0.0, 1.6212566881689727E9, 2021-05-17 15:04:48.168
62.0, -95.21784973144531, 159.80592346191406, 29.294635772705078, 326.62042236328125, 0.03200000151991844, -0.01600000075995922, 1.055999994277954, 0.0, 0.0, 0.0, 0.0, 0.0, 1.6212566881689727E9, 2021-05-17 15:04:48.168
63.0, -101.2989273071289, 150.83016967773438, 16.623855590820312, 316.3992614746094, 0.03200000151991844, -0.01600000075995922, 1.055999994277954, 0.0, 0.0, 0.0, 0.0, 0.0, 1.6212566881705213E9, 2021-05-17 15:04:48.170
63.0, -99.24946594238281, 151.518310546875, 24.825456619262695, 327.4020690917969, 0.03200000151991844, -0.01600000075995922, 1.055999994277954, 0.0, 0.0, 0.0, 0.0, 0.0, 1.6212566881705213E9, 2021-05-17 15:04:48.170
64.0, -87.86894989013672, 158.84103393554688, 36.35930633544922, 330.7081298828125, 0.03200000151991844, -0.01600000075995922, 1.055999994277954, 0.0, 0.0, 0.0, 0.0, 0.0, 1.6212566881844296E9, 2021-05-17 15:04:48.184
64.0, -86.73576354980469, 152.7861328125, 27.473304748535156, 328.28466796875, 0.03200000151991844, -0.01600000075995922, 1.055999994277954, 0.0, 0.0, 0.0, 0.0, 0.0, 1.6212566881844296E9, 2021-05-17 15:04:48.184
65.0, -98.31822967529297, 146.9668426513672, 15.838476181030273, 312.5135192871094, 0.03200000151991844, -0.01600000075995922, 1.055999994277954, 0.0, 0.0, 0.0, 0.0, 0.0, 1.6212566881985896E9, 2021-05-17 15:04:48.198
65.0, -96.34355926513672, 149.07615661621094, 15.18399429321289, 315.056640625, 0.03200000151991844, -0.01600000075995922, 1.055999994277954, 0.0, 0.0, 0.0, 0.0, 0.0, 1.6212566881985896E9, 2021-05-17 15:04:48.198
66.0, -79.30831909179688, 161.002685546875, 30.745718002319336, 324.316650390625, 0.03200000151991844, -0.01600000075995922, 1.055999994277954, 0.0, 0.0, 0.0, 0.0, 0.0, 1.6212566881992302E9, 2021-05-17 15:04:48.199
66.0, -82.77146911621094, 157.96963500976562, 27.450864791870117, 319.7801513671875, 0.03200000151991844, -0.01600000075995922, 1.055999994277954, 0.0, 0.0, 0.0, 0.0, 0.0, 1.6212566881992302E9, 2021-05-17 15:04:48.199
67.0, -94.13702392578125, 151.65667724609375, 16.743532180786133, 309.27850341796875, 0.03200000151991844, -0.01600000075995922, 1.055999994277954, 0.0, 0.0, 0.0, 0.0, 0.0, 1.6212566882135816E9, 2021-05-17 15:04:48.213
67.0, -88.94978332519531, 149.76429748535156, 17.85428237915039, 313.38116455078125, 0.03200000151991844, -0.01600000075995922, 1.055999994277954, 0.0, 0.0, 0.0, 0.0, 0.0, 1.6212566882135816E9, 2021-05-17 15:04:48.213
68.0, -73.71717071533203, 166.8967742919922, 34.066749572753906, 331.7216491699219, 0.03200000151991844, -0.01600000075995922, 1.055999994277954, 0.0, 0.0, 0.0, 0.0, 0.0, 1.621256688228547E9, 2021-05-17 15:04:48.228
68.0, -82.46853637695312, 156.70555114746094, 26.818822860717773, 319.1742858886719, 0.03200000151991844, -0.01600000075995922, 1.055999994277954, 0.0, 0.0, 0.0, 0.0, 0.0, 1.621256688228547E9, 2021-05-17 15:04:48.228
69.0, -93.79669189453125, 145.8000030517578, 8.972020149230957, 305.5273742675781, 0.03200000151991844, -0.01600000075995922, 1.055999994277954, 0.0, 0.0, 0.0, 0.0, 0.0, 1.621256688229273E9, 2021-05-17 15:04:48.229
69.0, -89.0694580078125, 144.734130859375, 15.797337532043457, 309.84698486328125, 0.03200000151991844, -0.01600000075995922, 1.055999994277954, 0.0, 0.0, 0.0, 0.0, 0.0, 1.621256688229273E9, 2021-05-17 15:04:48.229
70.0, -77.10177612304688, 155.52000427246094, 31.422639846801758, 329.19720458984375, 0.03200000151991844, -0.01600000075995922, 1.055999994277954, 0.0, 0.0, 0.0, 0.0, 0.0, 1.6212566882429583E9, 2021-05-17 15:04:48.242
70.0, -86.5225830078125, 153.51541137695312, 29.866840362548828, 322.2372741699219, 0.03200000151991844, -0.01600000075995922, 1.055999994277954, 0.0, 0.0, 0.0, 0.0, 0.0, 1.6212566882429583E9, 2021-05-17 15:04:48.242
71.0, -102.678955078125, 146.1627655029297, 21.14165496826172, 310.00030517578125, 0.03200000151991844, -0.01600000075995922, 1.055999994277954, 0.0, 0.0, 0.0, 0.0, 0.0, 1.6212566882585356E9, 2021-05-17 15:04:48.258
71.0, -99.45890045166016, 143.17459106445312, 22.379560470581055, 314.49566650390625, 0.03200000151991844, -0.01600000075995922, 1.055999994277954, 0.0, 0.0, 0.0, 0.0, 0.0, 1.6212566882585356E9, 2021-05-17 15:04:48.258
72.0, -86.06257629394531, 160.06024169921875, 34.17146682739258, 329.6272888183594, 0.04800000041723251, -0.01600000075995922, 1.055999994277954, 0.0, 0.0, 0.0, 0.0, 0.0, 1.6212566882592773E9, 2021-05-17 15:04:48.259
72.0, -89.57060241699219, 153.8445281982422, 34.590335845947266, 318.7928161621094, 0.04800000041723251, -0.01600000075995922, 1.055999994277954, 0.0, 0.0, 0.0, 0.0, 0.0, 1.6212566882592773E9, 2021-05-17 15:04:48.259
73.0, -101.50462341308594, 139.52818298339844, 20.15806007385254, 306.3838195800781, 0.04800000041723251, -0.01600000075995922, 1.055999994277954, 0.0, 0.0, 0.0, 0.0, 0.0, 1.6212566882728052E9, 2021-05-17 15:04:48.272
73.0, -96.87837219238281, 149.78672790527344, 24.604801177978516, 305.5273742675781, 0.04800000041723251, -0.01600000075995922, 1.055999994277954, 0.0, 0.0, 0.0, 0.0, 0.0, 1.6212566882728052E9, 2021-05-17 15:04:48.272
74.0, -83.26139068603516, 155.4564208984375, 32.432411193847656, 313.7140197753906, 0.04800000041723251, -0.01600000075995922, 1.055999994277954, 0.0, 0.0, 0.0, 0.0, 0.0, 1.621256688319575E9, 2021-05-17 15:04:48.319
74.0, -93.19456481933594, 150.0186004638672, 28.479337692260742, 305.6358337402344, 0.04800000041723251, -0.01600000075995922, 1.055999994277954, 0.0, 0.0, 0.0, 0.0, 0.0, 1.621256688319575E9, 2021-05-17 15:04:48.319
75.0, -102.35358428955078, 144.42745971679688, 14.832443237304688, 299.8689270019531, 0.04800000041723251, -0.01600000075995922, 1.055999994277954, 0.0, 0.0, 0.0, 0.0, 0.0, 1.6212566883203633E9, 2021-05-17 15:04:48.320
75.0, -101.82251739501953, 142.75572204589844, 14.379915237426758, 295.97943115234375, 0.04800000041723251, -0.01600000075995922, 1.055999994277954, 0.0, 0.0, 0.0, 0.0, 0.0, 1.6212566883203633E9, 2021-05-17 15:04:48.320
76.0, -84.9742660522461, 148.631103515625, 23.045263290405273, 311.48504638671875, 0.04800000041723251, -0.01600000075995922, 1.055999994277954, 0.0, 0.0, 0.0, 0.0, 0.0, 1.6212566883211036E9, 2021-05-17 15:04:48.321
