Sample Index, EXG Channel 0, EXG Channel 1, EXG Channel 2, EXG Channel 3, Accel Channel 0, Accel Channel 1, Accel Channel 2, Other, Other, Other, Other, Other, Timestamp, Timestamp (Formatted)
0.0, -57.504703521728516, 201.7507781982422, 73.96025848388672, 281.69488525390625, 0.0, 0.0, 0.0, 0.0, 0.0, 0.0, 0.0, 0.0, 1.621257372153568E9, 2021-05-17 15:16:12.153
1.0, -38.31527328491211, 218.38958740234375, 88.74408721923828, 292.61163330078125, 0.0, -0.01600000075995922, 0.0, 0.0, 0.0, 0.0, 0.0, 0.0, 1.621257372182906E9, 2021-05-17 15:16:12.182
1.0, -42.23843002319336, 224.7698516845703, 89.0507583618164, 287.0691223144531, 0.0, -0.01600000075995922, 0.0, 0.0, 0.0, 0.0, 0.0, 0.0, 1.621257372182906E9, 2021-05-17 15:16:12.182
2.0, -61.04638671875, 214.8628692626953, 82.25910186767578, 266.64178466796875, 0.03200000151991844, -0.01600000075995922, 0.0, 0.0, 0.0, 0.0, 0.0, 0.0, 1.621257372199084E9, 2021-05-17 15:16:12.199
2.0, -46.228904724121094, 215.49490356445312, 93.34042358398438, 268.70245361328125, 0.03200000151991844, -0.01600000075995922, 0.0, 0.0, 0.0, 0.0, 0.0, 0.0, 1.621257372199084E9, 2021-05-17 15:16:12.199
3.0, -25.618314743041992, 221.90509033203125, 110.12135314941406, 278.1232604980469, 0.03200000151991844, -0.01600000075995922, 0.0, 0.0, 0.0, 0.0, 0.0, 0.0, 1.6212573721998415E9, 2021-05-17 15:16:12.199
3.0, -29.006664276123047, 219.03285217285156, 98.9278335571289, 278.00732421875, 0.03200000151991844, -0.01600000075995922, 0.0, 0.0, 0.0, 0.0, 0.0, 0.0, 1.6212573721998415E9, 2021-05-17 15:16:12.199
4.0, -35.345794677734375, 212.2150115966797, 90.2138671875, 261.28997802734375, 0.03200000151991844, -0.01600000075995922, 0.0, 0.0, 0.0, 0.0, 0.0, 0.0, 1.621257372200575E9, 2021-05-17 15:16:12.200
4.0, -44.093421936035156, 205.97311401367188, 83.56806182861328, 262.0566711425781, 0.03200000151991844, -0.01600000075995922, 0.0, 0.0, 0.0, 0.0, 0.0, 0.0, 1.621257372200575E9, 2021-05-17 15:16:12.200
5.0, -32.30525588989258, 218.5840606689453, 92.0613784790039, 281.9117736816406, 0.03200000151991844, -0.01600000075995922, 0.0, 0.0, 0.0, 0.0, 0.0, 0.0, 1.6212573722125065E9, 2021-05-17 15:16:12.212
5.0, -36.781917572021484, 214.05130004882812, 87.99610900878906, 281.5340576171875, 0.03200000151991844, -0.01600000075995922, 0.0, 0.0, 0.0, 0.0, 0.0, 0.0, 1.6212573722125065E9, 2021-05-17 15:16:12.212
6.0, -44.15325927734375, 203.76283264160156, 80.90899658203125, 279.9259033203125, 0.03200000151991844, -0.01600000075995922, 0.0, 0.0, 0.0, 0.0, 0.0, 0.0, 1.621257372213176E9, 2021-05-17 15:16:12.213
6.0, -36.74825668334961, 204.10316467285156, 83.09683990478516, 286.0107116699219, 0.03200000151991844, -0.01600000075995922, 0.0, 0.0, 0.0, 0.0, 0.0, 0.0, 1.621257372213176E9, 2021-05-17 15:16:12.213
7.0, -27.66777992248535, 214.518798828125, 94.95606231689453, 298.8236083984375, 0.03200000151991844, -0.01600000075995922, 0.0, 0.0, 0.0, 0.0, 0.0, 0.0, 1.6212573722267463E9, 2021-05-17 15:16:12.226
7.0, -36.0227165222168, 211.76995849609375, 90.8758316040039, 292.1516418457031, 0.03200000151991844, -0.01600000075995922, 0.0, 0.0, 0.0, 0.0, 0.0, 0.0, 1.6212573722267463E9, 2021-05-17 15:16:12.226
8.0, -44.7666015625, 201.05514526367188, 86.93023681640625, 288.101318359375, 0.03200000151991844, -0.01600000075995922, 0.0, 0.0, 0.0, 0.0, 0.0, 0.0, 1.6212573722424932E9, 2021-05-17 15:16:12.242
8.0, -45.42482376098633, 201.63858032226562, 92.85423278808594, 284.18939208984375, 0.03200000151991844, -0.01600000075995922, 0.0, 0.0, 0.0, 0.0, 0.0, 0.0, 1.6212573722424932E9, 2021-05-17 15:16:12.242
9.0, -40.52555465698242, 207.6785125732422, 100.4911117553711, 292.4134216308594, 0.03200000151991844, -0.01600000075995922, 0.0, 0.0, 0.0, 0.0, 0.0, 0.0, 1.6212573722431817E9, 2021-05-17 15:16:12.243
9.0, -36.95021057128906, 212.54786682128906, 107.75399780273438, 294.3432312011719, 0.03200000151991844, -0.01600000075995922, 0.0, 0.0, 0.0, 0.0, 0.0, 0.0, 1.6212573722431817E9, 2021-05-17 15:16:12.243
10.0, -53.74236297607422, 200.66246032714844, 90.1540298461914, 274.77606201171875, 0.03200000151991844, -0.01600000075995922, 1.055999994277954, 0.0, 0.0, 0.0, 0.0, 0.0, 1.6212573722566683E9, 2021-05-17 15:16:12.256
10.0, -56.450050354003906, 205.84222412109375, 90.38590240478516, 273.511962890625, 0.03200000151991844, -0.01600000075995922, 1.055999994277954, 0.0, 0.0, 0.0, 0.0, 0.0, 1.6212573722566683E9, 2021-05-17 15:16:12.256
11.0, -42.76575469970703, 219.1375732421875, 100.00118255615234, 281.0665588378906, 0.03200000151991844, -0.01600000075995922, 1.055999994277954, 0.0, 0.0, 0.0, 0.0, 0.0, 1.6212573722888112E9, 2021-05-17 15:16:12.288
11.0, -36.11247253417969, 221.8863983154297, 102.33488464355469, 280.29241943359375, 0.03200000151991844, -0.01600000075995922, 1.055999994277954, 0.0, 0.0, 0.0, 0.0, 0.0, 1.6212573722888112E9, 2021-05-17 15:16:12.288
12.0, -46.15036392211914, 208.37786865234375, 95.48712921142578, 271.3465576171875, 0.03200000151991844, -0.01600000075995922, 1.055999994277954, 0.0, 0.0, 0.0, 0.0, 0.0, 1.6212573722894022E9, 2021-05-17 15:16:12.289
12.0, -46.96940231323242, 202.7605438232422, 90.81973266601562, 261.87713623046875, 0.03200000151991844, -0.01600000075995922, 1.055999994277954, 0.0, 0.0, 0.0, 0.0, 0.0, 1.6212573722894022E9, 2021-05-17 15:16:12.289
13.0, -26.310195922851562, 217.48452758789062, 100.7117691040039, 282.31195068359375, 0.03200000151991844, -0.01600000075995922, 1.055999994277954, 0.0, 0.0, 0.0, 0.0, 0.0, 1.6212573722902665E9, 2021-05-17 15:16:12.290
13.0, -26.84874153137207, 211.22767639160156, 102.91830444335938, 276.07379150390625, 0.03200000151991844, -0.01600000075995922, 1.055999994277954, 0.0, 0.0, 0.0, 0.0, 0.0, 1.6212573722902665E9, 2021-05-17 15:16:12.290
14.0, -35.633766174316406, 203.25794982910156, 90.6140365600586, 266.3500671386719, 0.03200000151991844, -0.01600000075995922, 1.055999994277954, 0.0, 0.0, 0.0, 0.0, 0.0, 1.621257372291041E9, 2021-05-17 15:16:12.291
14.0, -33.79747772216797, 199.82098388671875, 91.57893371582031, 274.5965576171875, 0.03200000151991844, -0.01600000075995922, 1.055999994277954, 0.0, 0.0, 0.0, 0.0, 0.0, 1.621257372291041E9, 2021-05-17 15:16:12.291
15.0, -22.506717681884766, 209.32406616210938, 101.76641845703125, 285.7077941894531, 0.03200000151991844, -0.01600000075995922, 1.055999994277954, 0.0, 0.0, 0.0, 0.0, 0.0, 1.6212573723016155E9, 2021-05-17 15:16:12.301
15.0, -41.13890075683594, 199.51805114746094, 94.52223205566406, 284.2679138183594, 0.03200000151991844, -0.01600000075995922, 1.055999994277954, 0.0, 0.0, 0.0, 0.0, 0.0, 1.6212573723016155E9, 2021-05-17 15:16:12.301
16.0, -42.833072662353516, 201.04393005371094, 87.67821502685547, 281.3507995605469, 0.03200000151991844, -0.01600000075995922, 1.055999994277954, 0.0, 0.0, 0.0, 0.0, 0.0, 1.6212573723330348E9, 2021-05-17 15:16:12.333
16.0, -45.03587341308594, 200.0902557373047, 87.69317626953125, 285.2739562988281, 0.03200000151991844, -0.01600000075995922, 1.055999994277954, 0.0, 0.0, 0.0, 0.0, 0.0, 1.6212573723330348E9, 2021-05-17 15:16:12.333
17.0, -33.0233154296875, 208.2806396484375, 100.48363494873047, 296.99853515625, 0.03200000151991844, -0.01600000075995922, 1.055999994277954, 0.0, 0.0, 0.0, 0.0, 0.0, 1.6212573723338168E9, 2021-05-17 15:16:12.333
17.0, -40.637752532958984, 204.7165069580078, 94.0921401977539, 292.7313232421875, 0.03200000151991844, -0.01600000075995922, 1.055999994277954, 0.0, 0.0, 0.0, 0.0, 0.0, 1.6212573723338168E9, 2021-05-17 15:16:12.333
18.0, -47.0030632019043, 201.7058868408203, 91.77340698242188, 281.71356201171875, 0.03200000151991844, -0.01600000075995922, 1.055999994277954, 0.0, 0.0, 0.0, 0.0, 0.0, 1.621257372334444E9, 2021-05-17 15:16:12.334
18.0, -48.23722839355469, 192.27012634277344, 89.0096206665039, 279.43597412109375, 0.03200000151991844, -0.01600000075995922, 1.055999994277954, 0.0, 0.0, 0.0, 0.0, 0.0, 1.621257372334444E9, 2021-05-17 15:16:12.334
19.0, -35.188716888427734, 210.04586791992188, 101.35502624511719, 288.1087951660156, 0.03200000151991844, -0.01600000075995922, 1.055999994277954, 0.0, 0.0, 0.0, 0.0, 0.0, 1.6212573723467064E9, 2021-05-17 15:16:12.346
19.0, -35.31961441040039, 207.50648498535156, 101.5345458984375, 286.5268249511719, 0.03200000151991844, -0.01600000075995922, 1.055999994277954, 0.0, 0.0, 0.0, 0.0, 0.0, 1.6212573723467064E9, 2021-05-17 15:16:12.346
20.0, -42.68347930908203, 200.92051696777344, 101.19795227050781, 270.9800720214844, 0.03200000151991844, -0.01600000075995922, 1.055999994277954, 0.0, 0.0, 0.0, 0.0, 0.0, 1.6212573723625708E9, 2021-05-17 15:16:12.362
20.0, -41.49045181274414, 196.80288696289062, 94.91492462158203, 262.9991149902344, 0.03200000151991844, -0.01600000075995922, 1.055999994277954, 0.0, 0.0, 0.0, 0.0, 0.0, 1.6212573723625708E9, 2021-05-17 15:16:12.362
21.0, -19.159507751464844, 218.47186279296875, 117.08130645751953, 278.7740173339844, 0.03200000151991844, -0.01600000075995922, 1.055999994277954, 0.0, 0.0, 0.0, 0.0, 0.0, 1.6212573723631327E9, 2021-05-17 15:16:12.363
21.0, -24.586101531982422, 209.51853942871094, 115.15525817871094, 270.10491943359375, 0.03200000151991844, -0.01600000075995922, 1.055999994277954, 0.0, 0.0, 0.0, 0.0, 0.0, 1.6212573723631327E9, 2021-05-17 15:16:12.363
22.0, -40.166526794433594, 199.40585327148438, 96.87462615966797, 266.9484558105469, 0.03200000151991844, -0.01600000075995922, 1.055999994277954, 0.0, 0.0, 0.0, 0.0, 0.0, 1.6212573723768733E9, 2021-05-17 15:16:12.376
22.0, -38.827640533447266, 199.1216278076172, 98.00782012939453, 273.2763671875, 0.03200000151991844, -0.01600000075995922, 1.055999994277954, 0.0, 0.0, 0.0, 0.0, 0.0, 1.6212573723768733E9, 2021-05-17 15:16:12.376
23.0, -30.596120834350586, 204.06202697753906, 102.88090515136719, 285.7377014160156, 0.03200000151991844, -0.01600000075995922, 1.055999994277954, 0.0, 0.0, 0.0, 0.0, 0.0, 1.6212573723925183E9, 2021-05-17 15:16:12.392
23.0, -29.260976791381836, 207.8954315185547, 100.6145248413086, 281.13763427734375, 0.03200000151991844, -0.01600000075995922, 1.055999994277954, 0.0, 0.0, 0.0, 0.0, 0.0, 1.6212573723925183E9, 2021-05-17 15:16:12.392
24.0, -49.35546112060547, 196.00254821777344, 85.94664001464844, 269.44671630859375, 0.03200000151991844, -0.01600000075995922, 1.055999994277954, 0.0, 0.0, 0.0, 0.0, 0.0, 1.6212573723931897E9, 2021-05-17 15:16:12.393
24.0, -49.52375411987305, 197.56582641601562, 84.75361633300781, 275.1911926269531, 0.03200000151991844, -0.01600000075995922, 1.055999994277954, 0.0, 0.0, 0.0, 0.0, 0.0, 1.6212573723931897E9, 2021-05-17 15:16:12.393
25.0, -37.0960693359375, 206.63882446289062, 96.44080352783203, 295.72698974609375, 0.03200000151991844, -0.01600000075995922, 1.055999994277954, 0.0, 0.0, 0.0, 0.0, 0.0, 1.621257372406734E9, 2021-05-17 15:16:12.406
25.0, -40.36473846435547, 209.73919677734375, 95.64046478271484, 301.2994384765625, 0.03200000151991844, -0.01600000075995922, 1.055999994277954, 0.0, 0.0, 0.0, 0.0, 0.0, 1.621257372406734E9, 2021-05-17 15:16:12.406
26.0, -56.08353805541992, 198.71397399902344, 84.90320587158203, 286.5230712890625, 0.03200000151991844, -0.01600000075995922, 1.055999994277954, 0.0, 0.0, 0.0, 0.0, 0.0, 1.621257372422073E9, 2021-05-17 15:16:12.422
26.0, -50.20441818237305, 194.68609619140625, 90.52053833007812, 291.5008850097656, 0.03200000151991844, -0.01600000075995922, 1.055999994277954, 0.0, 0.0, 0.0, 0.0, 0.0, 1.621257372422073E9, 2021-05-17 15:16:12.422
27.0, -35.16627883911133, 212.45809936523438, 102.3610610961914, 304.908447265625, 0.03200000151991844, -0.01600000075995922, 1.055999994277954, 0.0, 0.0, 0.0, 0.0, 0.0, 1.6212573724372866E9, 2021-05-17 15:16:12.437
27.0, -40.65645217895508, 206.86695861816406, 98.45660400390625, 290.07598876953125, 0.03200000151991844, -0.01600000075995922, 1.055999994277954, 0.0, 0.0, 0.0, 0.0, 0.0, 1.6212573724372866E9, 2021-05-17 15:16:12.437
28.0, -52.3660774230957, 191.4510955810547, 87.55105590820312, 273.6092224121094, 0.03200000151991844, -0.01600000075995922, 1.055999994277954, 0.0, 0.0, 0.0, 0.0, 0.0, 1.621257372438007E9, 2021-05-17 15:16:12.438
28.0, -50.51108932495117, 193.57908630371094, 91.20120239257812, 264.7381591796875, 0.03200000151991844, -0.01600000075995922, 1.055999994277954, 0.0, 0.0, 0.0, 0.0, 0.0, 1.621257372438007E9, 2021-05-17 15:16:12.438
29.0, -26.433612823486328, 212.03175354003906, 106.41511535644531, 281.844482421875, 0.03200000151991844, -0.01600000075995922, 1.055999994277954, 0.0, 0.0, 0.0, 0.0, 0.0, 1.6212573724523132E9, 2021-05-17 15:16:12.452
29.0, -38.31527328491211, 206.1302032470703, 100.86510467529297, 268.2125244140625, 0.03200000151991844, -0.01600000075995922, 1.055999994277954, 0.0, 0.0, 0.0, 0.0, 0.0, 1.6212573724523132E9, 2021-05-17 15:16:12.452
30.0, -43.99618148803711, 192.969482421875, 91.24234008789062, 253.02105712890625, 0.03200000151991844, -0.01600000075995922, 1.055999994277954, 0.0, 0.0, 0.0, 0.0, 0.0, 1.6212573724530208E9, 2021-05-17 15:16:12.453
30.0, -46.2513427734375, 197.01231384277344, 93.57603454589844, 253.23049926757812, 0.03200000151991844, -0.01600000075995922, 1.055999994277954, 0.0, 0.0, 0.0, 0.0, 0.0, 1.6212573724530208E9, 2021-05-17 15:16:12.453
31.0, -25.629533767700195, 214.2196044921875, 107.99335479736328, 270.90899658203125, 0.03200000151991844, -0.01600000075995922, 1.055999994277954, 0.0, 0.0, 0.0, 0.0, 0.0, 1.621257372466666E9, 2021-05-17 15:16:12.466
31.0, -27.36484718322754, 206.80337524414062, 106.9386978149414, 274.01312255859375, 0.03200000151991844, -0.01600000075995922, 1.055999994277954, 0.0, 0.0, 0.0, 0.0, 0.0, 1.621257372466666E9, 2021-05-17 15:16:12.466
32.0, -48.921630859375, 197.3040313720703, 91.47047424316406, 271.668212890625, 0.04800000041723251, -0.01600000075995922, 1.055999994277954, 0.0, 0.0, 0.0, 0.0, 0.0, 1.6212573724824853E9, 2021-05-17 15:16:12.482
32.0, -52.44087600708008, 191.57077026367188, 83.61294555664062, 269.1923828125, 0.04800000041723251, -0.01600000075995922, 1.055999994277954, 0.0, 0.0, 0.0, 0.0, 0.0, 1.6212573724824853E9, 2021-05-17 15:16:12.482
33.0, -41.22865676879883, 201.27206420898438, 91.22364044189453, 287.32342529296875, 0.04800000041723251, -0.01600000075995922, 1.055999994277954, 0.0, 0.0, 0.0, 0.0, 0.0, 1.6212573724830933E9, 2021-05-17 15:16:12.483
33.0, -40.76865005493164, 207.36436462402344, 96.57917785644531, 301.1124267578125, 0.04800000041723251, -0.01600000075995922, 1.055999994277954, 0.0, 0.0, 0.0, 0.0, 0.0, 1.6212573724830933E9, 2021-05-17 15:16:12.483
34.0, -61.56997299194336, 188.99771118164062, 76.86990356445312, 287.14764404296875, 0.04800000041723251, -0.01600000075995922, 1.055999994277954, 0.0, 0.0, 0.0, 0.0, 0.0, 1.6212573724967349E9, 2021-05-17 15:16:12.496
34.0, -51.35256576538086, 191.0172576904297, 79.62621307373047, 294.040283203125, 0.04800000041723251, -0.01600000075995922, 1.055999994277954, 0.0, 0.0, 0.0, 0.0, 0.0, 1.6212573724967349E9, 2021-05-17 15:16:12.496
35.0, -40.929466247558594, 205.3111572265625, 96.01445007324219, 308.91387939453125, 0.04800000041723251, -0.01600000075995922, 1.055999994277954, 0.0, 0.0, 0.0, 0.0, 0.0, 1.621257372512444E9, 2021-05-17 15:16:12.512
35.0, -46.38597869873047, 206.73605346679688, 97.16634368896484, 304.1305236816406, 0.04800000041723251, -0.01600000075995922, 1.055999994277954, 0.0, 0.0, 0.0, 0.0, 0.0, 1.621257372512444E9, 2021-05-17 15:16:12.512
36.0, -67.05640411376953, 193.97178649902344, 81.98234558105469, 291.4522705078125, 0.04800000041723251, -0.01600000075995922, 1.055999994277954, 0.0, 0.0, 0.0, 0.0, 0.0, 1.6212573725131977E9, 2021-05-17 15:16:12.513
36.0, -56.93997573852539, 187.40451049804688, 83.20155334472656, 284.2641906738281, 0.04800000041723251, -0.01600000075995922, 1.055999994277954, 0.0, 0.0, 0.0, 0.0, 0.0, 1.6212573725131977E9, 2021-05-17 15:16:12.513
37.0, -45.43604278564453, 200.7297821044922, 100.59957122802734, 292.55181884765625, 0.04800000041723251, -0.01600000075995922, 1.055999994277954, 0.0, 0.0, 0.0, 0.0, 0.0, 1.6212573725267093E9, 2021-05-17 15:16:12.526
37.0, -47.478031158447266, 196.17083740234375, 95.6554183959961, 282.42041015625, 0.04800000041723251, -0.01600000075995922, 1.055999994277954, 0.0, 0.0, 0.0, 0.0, 0.0, 1.6212573725267093E9, 2021-05-17 15:16:12.526
38.0, -46.232643127441406, 197.32273864746094, 91.39567565917969, 279.0619812011719, 0.04800000041723251, -0.01600000075995922, 1.055999994277954, 0.0, 0.0, 0.0, 0.0, 0.0, 1.621257372558669E9, 2021-05-17 15:16:12.558
38.0, -48.88797378540039, 192.45338439941406, 89.67906188964844, 267.06439208984375, 0.04800000041723251, -0.01600000075995922, 1.055999994277954, 0.0, 0.0, 0.0, 0.0, 0.0, 1.621257372558669E9, 2021-05-17 15:16:12.558
39.0, -29.51902961730957, 202.5024871826172, 105.58485412597656, 284.0809326171875, 0.04800000041723251, -0.01600000075995922, 1.055999994277954, 0.0, 0.0, 0.0, 0.0, 0.0, 1.6212573725594213E9, 2021-05-17 15:16:12.559
39.0, -28.19884490966797, 201.69093322753906, 101.28397369384766, 267.7936706542969, 0.04800000041723251, -0.01600000075995922, 1.055999994277954, 0.0, 0.0, 0.0, 0.0, 0.0, 1.6212573725594213E9, 2021-05-17 15:16:12.559
40.0, -48.562599182128906, 192.464599609375, 92.68219757080078, 254.2701873779297, 0.04800000041723251, -0.01600000075995922, 1.055999994277954, 0.0, 0.0, 0.0, 0.0, 0.0, 1.6212573725601103E9, 2021-05-17 15:16:12.560
40.0, -50.447509765625, 192.70021057128906, 92.08755493164062, 262.4007263183594, 0.04800000041723251, -0.01600000075995922, 1.055999994277954, 0.0, 0.0, 0.0, 0.0, 0.0, 1.6212573725601103E9, 2021-05-17 15:16:12.560
41.0, -28.879507064819336, 210.3974151611328, 114.22028350830078, 284.2791442871094, 0.04800000041723251, -0.01600000075995922, 1.055999994277954, 0.0, 0.0, 0.0, 0.0, 0.0, 1.6212573725609107E9, 2021-05-17 15:16:12.560
41.0, -30.412866592407227, 205.49441528320312, 105.09492492675781, 279.7314147949219, 0.04800000041723251, -0.01600000075995922, 1.055999994277954, 0.0, 0.0, 0.0, 0.0, 0.0, 1.6212573725609107E9, 2021-05-17 15:16:12.560
42.0, -49.14228439331055, 200.28099060058594, 93.38156127929688, 271.8439636230469, 0.03200000151991844, -0.01600000075995922, 1.055999994277954, 0.0, 0.0, 0.0, 0.0, 0.0, 1.621257372587808E9, 2021-05-17 15:16:12.587
42.0, -42.8592529296875, 194.91049194335938, 90.83094787597656, 272.8238220214844, 0.03200000151991844, -0.01600000075995922, 1.055999994277954, 0.0, 0.0, 0.0, 0.0, 0.0, 1.621257372587808E9, 2021-05-17 15:16:12.587
43.0, -33.73763656616211, 197.16940307617188, 94.87004089355469, 283.1646423339844, 0.03200000151991844, -0.01600000075995922, 1.055999994277954, 0.0, 0.0, 0.0, 0.0, 0.0, 1.621257372602049E9, 2021-05-17 15:16:12.602
43.0, -36.60240173339844, 196.2344207763672, 98.38555145263672, 290.15826416015625, 0.03200000151991844, -0.01600000075995922, 1.055999994277954, 0.0, 0.0, 0.0, 0.0, 0.0, 1.621257372602049E9, 2021-05-17 15:16:12.602
44.0, -54.75587463378906, 187.69622802734375, 87.08357238769531, 279.17791748046875, 0.03200000151991844, -0.01600000075995922, 1.055999994277954, 0.0, 0.0, 0.0, 0.0, 0.0, 1.621257372618726E9, 2021-05-17 15:16:12.618
44.0, -56.719322204589844, 186.60043334960938, 78.92311096191406, 272.8200988769531, 0.03200000151991844, -0.01600000075995922, 1.055999994277954, 0.0, 0.0, 0.0, 0.0, 0.0, 1.621257372618726E9, 2021-05-17 15:16:12.618
45.0, -43.57357406616211, 199.73497009277344, 95.03833770751953, 288.4603576660156, 0.03200000151991844, -0.01600000075995922, 1.055999994277954, 0.0, 0.0, 0.0, 0.0, 0.0, 1.6212573726194751E9, 2021-05-17 15:16:12.619
45.0, -54.22854995727539, 197.56956481933594, 88.00358581542969, 285.7788391113281, 0.03200000151991844, -0.01600000075995922, 1.055999994277954, 0.0, 0.0, 0.0, 0.0, 0.0, 1.6212573726194751E9, 2021-05-17 15:16:12.619
46.0, -57.067134857177734, 189.6708984375, 83.64286041259766, 280.8608703613281, 0.03200000151991844, -0.01600000075995922, 1.055999994277954, 0.0, 0.0, 0.0, 0.0, 0.0, 1.6212573726202483E9, 2021-05-17 15:16:12.620
46.0, -55.79182815551758, 187.04922485351562, 90.09793090820312, 285.42730712890625, 0.03200000151991844, -0.01600000075995922, 1.055999994277954, 0.0, 0.0, 0.0, 0.0, 0.0, 1.6212573726202483E9, 2021-05-17 15:16:12.620
47.0, -36.8380126953125, 196.04368591308594, 104.87427520751953, 300.68609619140625, 0.03200000151991844, -0.01600000075995922, 1.055999994277954, 0.0, 0.0, 0.0, 0.0, 0.0, 1.6212573726208534E9, 2021-05-17 15:16:12.620
47.0, -40.974342346191406, 188.62371826171875, 99.42523956298828, 294.98272705078125, 0.03200000151991844, -0.01600000075995922, 1.055999994277954, 0.0, 0.0, 0.0, 0.0, 0.0, 1.6212573726208534E9, 2021-05-17 15:16:12.620
48.0, -52.84852600097656, 175.01422119140625, 84.94435119628906, 277.7118835449219, 0.03200000151991844, -0.01600000075995922, 1.055999994277954, 0.0, 0.0, 0.0, 0.0, 0.0, 1.6212573726316848E9, 2021-05-17 15:16:12.631
48.0, -44.792781829833984, 185.48968505859375, 94.12206268310547, 278.0522155761719, 0.03200000151991844, -0.01600000075995922, 1.055999994277954, 0.0, 0.0, 0.0, 0.0, 0.0, 1.6212573726316848E9, 2021-05-17 15:16:12.631
49.0, -33.73015594482422, 194.78707885742188, 107.21919250488281, 286.29119873046875, 0.03200000151991844, -0.01600000075995922, 1.055999994277954, 0.0, 0.0, 0.0, 0.0, 0.0, 1.6212573726468604E9, 2021-05-17 15:16:12.646
49.0, -33.004615783691406, 200.17626953125, 104.36564636230469, 281.33209228515625, 0.03200000151991844, -0.01600000075995922, 1.055999994277954, 0.0, 0.0, 0.0, 0.0, 0.0, 1.6212573726468604E9, 2021-05-17 15:16:12.646
50.0, -49.46017837524414, 185.41488647460938, 82.93975830078125, 257.8941650390625, 0.03200000151991844, -0.01600000075995922, 1.055999994277954, 0.0, 0.0, 0.0, 0.0, 0.0, 1.6212573726622968E9, 2021-05-17 15:16:12.662
50.0, -50.78036117553711, 189.78683471679688, 82.99960327148438, 256.0952453613281, 0.03200000151991844, -0.01600000075995922, 1.055999994277954, 0.0, 0.0, 0.0, 0.0, 0.0, 1.6212573726622968E9, 2021-05-17 15:16:12.662
51.0, -30.936452865600586, 203.16445922851562, 98.78197479248047, 269.77581787109375, 0.03200000151991844, -0.01600000075995922, 1.055999994277954, 0.0, 0.0, 0.0, 0.0, 0.0, 1.6212573726630263E9, 2021-05-17 15:16:12.663
51.0, -41.67744445800781, 203.40380859375, 91.60511016845703, 268.19384765625, 0.03200000151991844, -0.01600000075995922, 1.055999994277954, 0.0, 0.0, 0.0, 0.0, 0.0, 1.6212573726630263E9, 2021-05-17 15:16:12.663
52.0, -54.69229507446289, 194.7683868408203, 83.94953155517578, 263.18609619140625, 0.04800000041723251, -0.01600000075995922, 1.055999994277954, 0.0, 0.0, 0.0, 0.0, 0.0, 1.6212573726767347E9, 2021-05-17 15:16:12.676
52.0, -55.4066162109375, 195.6360321044922, 86.10371398925781, 277.5211486816406, 0.04800000041723251, -0.01600000075995922, 1.055999994277954, 0.0, 0.0, 0.0, 0.0, 0.0, 1.6212573726767347E9, 2021-05-17 15:16:12.676
53.0, -44.86383819580078, 204.32382202148438, 99.86654663085938, 294.58258056640625, 0.04800000041723251, -0.01600000075995922, 1.055999994277954, 0.0, 0.0, 0.0, 0.0, 0.0, 1.6212573727234251E9, 2021-05-17 15:16:12.723
53.0, -43.68577194213867, 204.64170837402344, 100.58834838867188, 301.6995849609375, 0.04800000041723251, -0.01600000075995922, 1.055999994277954, 0.0, 0.0, 0.0, 0.0, 0.0, 1.6212573727234251E9, 2021-05-17 15:16:12.723
54.0, -56.1583366394043, 189.48016357421875, 90.88330841064453, 294.5975341796875, 0.04800000041723251, -0.01600000075995922, 1.055999994277954, 0.0, 0.0, 0.0, 0.0, 0.0, 1.6212573727241569E9, 2021-05-17 15:16:12.724
54.0, -61.68217086791992, 183.92640686035156, 92.83927917480469, 290.8576354980469, 0.04800000041723251, -0.01600000075995922, 1.055999994277954, 0.0, 0.0, 0.0, 0.0, 0.0, 1.6212573727241569E9, 2021-05-17 15:16:12.724
55.0, -44.990997314453125, 200.3969268798828, 102.7836685180664, 302.8253173828125, 0.04800000041723251, -0.01600000075995922, 1.055999994277954, 0.0, 0.0, 0.0, 0.0, 0.0, 1.621257372724907E9, 2021-05-17 15:16:12.724
55.0, -48.20357131958008, 194.07275390625, 96.88958740234375, 294.15997314453125, 0.04800000041723251, -0.01600000075995922, 1.055999994277954, 0.0, 0.0, 0.0, 0.0, 0.0, 1.621257372724907E9, 2021-05-17 15:16:12.724
56.0, -64.2963638305664, 180.44456481933594, 85.84192657470703, 279.8810119628906, 0.04800000041723251, -0.01600000075995922, 1.055999994277954, 0.0, 0.0, 0.0, 0.0, 0.0, 1.6212573727386632E9, 2021-05-17 15:16:12.738
56.0, -61.00150680541992, 186.4807586669922, 86.46648406982422, 270.43402099609375, 0.04800000041723251, -0.01600000075995922, 1.055999994277954, 0.0, 0.0, 0.0, 0.0, 0.0, 1.6212573727386632E9, 2021-05-17 15:16:12.738
57.0, -33.16917419433594, 203.08592224121094, 107.02845764160156, 282.32318115234375, 0.04800000041723251, -0.01600000075995922, 1.055999994277954, 0.0, 0.0, 0.0, 0.0, 0.0, 1.6212573727394333E9, 2021-05-17 15:16:12.739
57.0, -34.94188690185547, 198.66909790039062, 101.07453918457031, 277.5660400390625, 0.04800000041723251, -0.01600000075995922, 1.055999994277954, 0.0, 0.0, 0.0, 0.0, 0.0, 1.6212573727394333E9, 2021-05-17 15:16:12.739
58.0, -40.637752532958984, 189.0313720703125, 99.44020080566406, 268.7922058105469, 0.04800000041723251, -0.01600000075995922, 1.055999994277954, 0.0, 0.0, 0.0, 0.0, 0.0, 1.6212573727401545E9, 2021-05-17 15:16:12.740
58.0, -29.436752319335938, 187.87948608398438, 113.9996337890625, 272.62188720703125, 0.04800000041723251, -0.01600000075995922, 1.055999994277954, 0.0, 0.0, 0.0, 0.0, 0.0, 1.6212573727401545E9, 2021-05-17 15:16:12.740
59.0, -17.977699279785156, 199.5105743408203, 117.52635955810547, 286.8260192871094, 0.04800000041723251, -0.01600000075995922, 1.055999994277954, 0.0, 0.0, 0.0, 0.0, 0.0, 1.621257372740868E9, 2021-05-17 15:16:12.740
59.0, -29.829442977905273, 198.88601684570312, 117.20846557617188, 278.6393737792969, 0.04800000041723251, -0.01600000075995922, 1.055999994277954, 0.0, 0.0, 0.0, 0.0, 0.0, 1.621257372740868E9, 2021-05-17 15:16:12.740
60.0, -49.179683685302734, 188.5713653564453, 102.84725189208984, 257.7183837890625, 0.04800000041723251, -0.01600000075995922, 1.055999994277954, 0.0, 0.0, 0.0, 0.0, 0.0, 1.6212573727673333E9, 2021-05-17 15:16:12.767
60.0, -36.8080940246582, 196.58596801757812, 114.33621978759766, 266.19671630859375, 0.04800000041723251, -0.01600000075995922, 1.055999994277954, 0.0, 0.0, 0.0, 0.0, 0.0, 1.6212573727673333E9, 2021-05-17 15:16:12.767
61.0, -35.35701370239258, 201.74703979492188, 116.19121551513672, 276.7918701171875, 0.04800000041723251, -0.03200000151991844, 1.055999994277954, 0.0, 0.0, 0.0, 0.0, 0.0, 1.621257372767998E9, 2021-05-17 15:16:12.767
61.0, -32.1893196105957, 208.20957946777344, 113.69295501708984, 282.6822204589844, 0.04800000041723251, -0.03200000151991844, 1.055999994277954, 0.0, 0.0, 0.0, 0.0, 0.0, 1.621257372767998E9, 2021-05-17 15:16:12.767
62.0, -63.750335693359375, 190.29171752929688, 93.32172393798828, 273.6241760253906, 0.03200000151991844, -0.03200000151991844, 1.055999994277954, 0.0, 0.0, 0.0, 0.0, 0.0, 1.6212573727824175E9, 2021-05-17 15:16:12.782
62.0, -60.27596664428711, 191.80638122558594, 93.00382995605469, 284.1744384765625, 0.03200000151991844, -0.03200000151991844, 1.055999994277954, 0.0, 0.0, 0.0, 0.0, 0.0, 1.6212573727824175E9, 2021-05-17 15:16:12.782
63.0, -56.34159469604492, 199.61529541015625, 102.54431915283203, 300.75341796875, 0.03200000151991844, -0.03200000151991844, 1.055999994277954, 0.0, 0.0, 0.0, 0.0, 0.0, 1.6212573727831452E9, 2021-05-17 15:16:12.783
63.0, -51.150611877441406, 194.81700134277344, 105.23704528808594, 301.3330993652344, 0.03200000151991844, -0.03200000151991844, 1.055999994277954, 0.0, 0.0, 0.0, 0.0, 0.0, 1.6212573727831452E9, 2021-05-17 15:16:12.783
64.0, -61.177284240722656, 187.22500610351562, 92.25959014892578, 291.3512878417969, 0.03200000151991844, -0.03200000151991844, 1.055999994277954, 0.0, 0.0, 0.0, 0.0, 0.0, 1.621257372796624E9, 2021-05-17 15:16:12.796
64.0, -51.92477035522461, 180.19398498535156, 92.57748413085938, 284.0098876953125, 0.03200000151991844, -0.03200000151991844, 1.055999994277954, 0.0, 0.0, 0.0, 0.0, 0.0, 1.621257372796624E9, 2021-05-17 15:16:12.796
65.0, -22.865747451782227, 196.33914184570312, 117.257080078125, 301.6622009277344, 0.03200000151991844, -0.03200000151991844, 1.055999994277954, 0.0, 0.0, 0.0, 0.0, 0.0, 1.6212573728287544E9, 2021-05-17 15:16:12.828
65.0, -40.10294723510742, 187.35963439941406, 107.98960876464844, 294.39556884765625, 0.03200000151991844, -0.03200000151991844, 1.055999994277954, 0.0, 0.0, 0.0, 0.0, 0.0, 1.6212573728287544E9, 2021-05-17 15:16:12.828
66.0, -47.48550796508789, 176.51393127441406, 99.23824310302734, 276.80682373046875, 0.03200000151991844, -0.03200000151991844, 1.055999994277954, 0.0, 0.0, 0.0, 0.0, 0.0, 1.621257372829518E9, 2021-05-17 15:16:12.829
66.0, -42.99763107299805, 180.4669952392578, 110.09517669677734, 274.38336181640625, 0.03200000151991844, -0.03200000151991844, 1.055999994277954, 0.0, 0.0, 0.0, 0.0, 0.0, 1.621257372829518E9, 2021-05-17 15:16:12.829
67.0, -25.031150817871094, 195.63229370117188, 120.18168640136719, 284.9149169921875, 0.03200000151991844, -0.03200000151991844, 1.055999994277954, 0.0, 0.0, 0.0, 0.0, 0.0, 1.621257372830227E9, 2021-05-17 15:16:12.830
67.0, -23.778284072875977, 193.93812561035156, 120.87730407714844, 281.05535888671875, 0.03200000151991844, -0.03200000151991844, 1.055999994277954, 0.0, 0.0, 0.0, 0.0, 0.0, 1.621257372830227E9, 2021-05-17 15:16:12.830
68.0, -40.89580535888672, 183.11859130859375, 107.75399780273438, 263.2870788574219, 0.03200000151991844, -0.03200000151991844, 1.055999994277954, 0.0, 0.0, 0.0, 0.0, 0.0, 1.6212573728310149E9, 2021-05-17 15:16:12.831
68.0, -40.24506378173828, 186.25636291503906, 108.8236083984375, 265.01116943359375, 0.03200000151991844, -0.03200000151991844, 1.055999994277954, 0.0, 0.0, 0.0, 0.0, 0.0, 1.6212573728310149E9, 2021-05-17 15:16:12.831
69.0, -34.208866119384766, 193.8109588623047, 113.0796127319336, 268.80718994140625, 0.03200000151991844, -0.03200000151991844, 1.055999994277954, 0.0, 0.0, 0.0, 0.0, 0.0, 1.62125737284181E9, 2021-05-17 15:16:12.841
69.0, -25.805309295654297, 202.95501708984375, 123.77947235107422, 278.957275390625, 0.03200000151991844, -0.03200000151991844, 1.055999994277954, 0.0, 0.0, 0.0, 0.0, 0.0, 1.62125737284181E9, 2021-05-17 15:16:12.841
70.0, -48.940330505371094, 187.6663055419922, 104.69850158691406, 262.73358154296875, 0.03200000151991844, -0.03200000151991844, 1.055999994277954, 0.0, 0.0, 0.0, 0.0, 0.0, 1.621257372856678E9, 2021-05-17 15:16:12.856
70.0, -53.390811920166016, 192.73387145996094, 100.04606628417969, 268.0143127441406, 0.03200000151991844, -0.03200000151991844, 1.055999994277954, 0.0, 0.0, 0.0, 0.0, 0.0, 1.621257372856678E9, 2021-05-17 15:16:12.856
71.0, -31.684432983398438, 201.51141357421875, 117.36927795410156, 293.31475830078125, 0.03200000151991844, -0.01600000075995922, 1.055999994277954, 0.0, 0.0, 0.0, 0.0, 0.0, 1.6212573728887088E9, 2021-05-17 15:16:12.888
71.0, -35.81328201293945, 205.187744140625, 108.26636505126953, 291.3475646972656, 0.03200000151991844, -0.01600000075995922, 1.055999994277954, 0.0, 0.0, 0.0, 0.0, 0.0, 1.6212573728887088E9, 2021-05-17 15:16:12.888
72.0, -57.205509185791016, 188.4890899658203, 89.7725601196289, 281.504150390625, 0.04800000041723251, -0.01600000075995922, 1.055999994277954, 0.0, 0.0, 0.0, 0.0, 0.0, 1.6212573728894339E9, 2021-05-17 15:16:12.889
72.0, -46.30744171142578, 183.6122589111328, 95.34127044677734, 288.68475341796875, 0.04800000041723251, -0.01600000075995922, 1.055999994277954, 0.0, 0.0, 0.0, 0.0, 0.0, 1.6212573728894339E9, 2021-05-17 15:16:12.889
73.0, -41.060359954833984, 195.20594787597656, 105.31184387207031, 303.7602844238281, 0.04800000041723251, -0.01600000075995922, 1.055999994277954, 0.0, 0.0, 0.0, 0.0, 0.0, 1.621257372890155E9, 2021-05-17 15:16:12.890
73.0, -45.084495544433594, 196.55979919433594, 100.97355651855469, 297.8998718261719, 0.04800000041723251, -0.01600000075995922, 1.055999994277954, 0.0, 0.0, 0.0, 0.0, 0.0, 1.621257372890155E9, 2021-05-17 15:16:12.890
74.0, -51.913551330566406, 185.8000946044922, 90.35224151611328, 294.7171936035156, 0.04800000041723251, -0.01600000075995922, 1.055999994277954, 0.0, 0.0, 0.0, 0.0, 0.0, 1.621257372890869E9, 2021-05-17 15:16:12.890
74.0, -51.079551696777344, 179.752685546875, 97.04666137695312, 293.1240234375, 0.04800000041723251, -0.01600000075995922, 1.055999994277954, 0.0, 0.0, 0.0, 0.0, 0.0, 1.621257372890869E9, 2021-05-17 15:16:12.890
75.0, -35.65994644165039, 189.5399932861328, 110.6898193359375, 301.47894287109375, 0.04800000041723251, -0.01600000075995922, 1.055999994277954, 0.0, 0.0, 0.0, 0.0, 0.0, 1.621257372901638E9, 2021-05-17 15:16:12.901
75.0, -35.2410774230957, 190.16830444335938, 105.92892456054688, 297.52587890625, 0.04800000041723251, -0.01600000075995922, 1.055999994277954, 0.0, 0.0, 0.0, 0.0, 0.0, 1.621257372901638E9, 2021-05-17 15:16:12.901
76.0, -55.017669677734375, 181.3197021484375, 94.93736267089844, 281.5415344238281, 0.04800000041723251, -0.01600000075995922, 1.055999994277954, 0.0, 0.0, 0.0, 0.0, 0.0, 1.621257372916729E9, 2021-05-17 15:16:12.916
76.0, -57.08583450317383, 179.04957580566406, 92.44658660888672, 273.9495544433594, 0.04800000041723251, -0.01600000075995922, 1.055999994277954, 0.0, 0.0, 0.0, 0.0, 0.0, 1.621257372916729E9, 2021-05-17 15:16:12.916
77.0, -32.858760833740234, 197.61817932128906, 113.94727325439453, 283.1459655761719, 0.04800000041723251, -0.01600000075995922, 1.055999994277954, 0.0, 0.0, 0.0, 0.0, 0.0, 1.621257372932998E9, 2021-05-17 15:16:12.932
77.0, -43.491294860839844, 191.80264282226562, 111.87910461425781, 280.3298034667969, 0.04800000041723251, -0.01600000075995922, 1.055999994277954, 0.0, 0.0, 0.0, 0.0, 0.0, 1.621257372932998E9, 2021-05-17 15:16:12.932
78.0, -51.285247802734375, 181.5216522216797, 99.06246948242188, 262.1912841796875, 0.04800000041723251, -0.01600000075995922, 1.055999994277954, 0.0, 0.0, 0.0, 0.0, 0.0, 1.62125737293379E9, 2021-05-17 15:16:12.933
78.0, -44.63570785522461, 181.2635955810547, 104.76581573486328, 264.88775634765625, 0.04800000041723251, -0.01600000075995922, 1.055999994277954, 0.0, 0.0, 0.0, 0.0, 0.0, 1.62125737293379E9, 2021-05-17 15:16:12.933
79.0, -28.281124114990234, 196.03994750976562, 120.72770690917969, 268.4331970214844, 0.04800000041723251, -0.01600000075995922, 1.055999994277954, 0.0, 0.0, 0.0, 0.0, 0.0, 1.6212573729466984E9, 2021-05-17 15:16:12.946
79.0, -35.56270980834961, 195.06382751464844, 115.37965393066406, 266.0658264160156, 0.04800000041723251, -0.01600000075995922, 1.055999994277954, 0.0, 0.0, 0.0, 0.0, 0.0, 1.6212573729466984E9, 2021-05-17 15:16:12.946
80.0, -45.75767517089844, 189.01641845703125, 105.35298156738281, 255.5380096435547, 0.04800000041723251, -0.01600000075995922, 1.055999994277954, 0.0, 0.0, 0.0, 0.0, 0.0, 1.621257372962309E9, 2021-05-17 15:16:12.962
80.0, -40.88832473754883, 188.72096252441406, 104.63117980957031, 259.45367431640625, 0.04800000041723251, -0.01600000075995922, 1.055999994277954, 0.0, 0.0, 0.0, 0.0, 0.0, 1.621257372962309E9, 2021-05-17 15:16:12.962
81.0, -33.78251647949219, 198.17543029785156, 112.16333770751953, 285.46844482421875, 0.04800000041723251, -0.01600000075995922, 1.055999994277954, 0.0, 0.0, 0.0, 0.0, 0.0, 1.6212573729630525E9, 2021-05-17 15:16:12.963
81.0, -43.07242965698242, 190.57220458984375, 100.8725814819336, 289.38409423828125, 0.04800000041723251, -0.01600000075995922, 1.055999994277954, 0.0, 0.0, 0.0, 0.0, 0.0, 1.6212573729630525E9, 2021-05-17 15:16:12.963
82.0, -52.6951904296875, 183.04379272460938, 87.55105590820312, 285.29266357421875, 0.03200000151991844, -0.01600000075995922, 1.055999994277954, 0.0, 0.0, 0.0, 0.0, 0.0, 1.6212573729767249E9, 2021-05-17 15:16:12.976
82.0, -49.54245376586914, 184.5921173095703, 88.88619995117188, 288.441650390625, 0.03200000151991844, -0.01600000075995922, 1.055999994277954, 0.0, 0.0, 0.0, 0.0, 0.0, 1.6212573729767249E9, 2021-05-17 15:16:12.976
83.0, -42.129974365234375, 186.4171905517578, 97.1812973022461, 301.1236572265625, 0.03200000151991844, -0.01600000075995922, 1.055999994277954, 0.0, 0.0, 0.0, 0.0, 0.0, 1.6212573729924045E9, 2021-05-17 15:16:12.992
83.0, -42.57501983642578, 190.2730255126953, 99.44767761230469, 302.6682434082031, 0.03200000151991844, -0.01600000075995922, 1.055999994277954, 0.0, 0.0, 0.0, 0.0, 0.0, 1.6212573729924045E9, 2021-05-17 15:16:12.992
84.0, -48.035274505615234, 182.3294677734375, 97.67496490478516, 302.185791015625, 0.03200000151991844, -0.01600000075995922, 1.055999994277954, 0.0, 0.0, 0.0, 0.0, 0.0, 1.621257372993168E9, 2021-05-17 15:16:12.993
84.0, -53.51049041748047, 181.00555419921875, 93.87896728515625, 295.9513854980469, 0.03200000151991844, -0.01600000075995922, 1.055999994277954, 0.0, 0.0, 0.0, 0.0, 0.0, 1.621257372993168E9, 2021-05-17 15:16:12.993
85.0, -38.31527328491211, 188.76583862304688, 108.442138671875, 310.7202453613281, 0.03200000151991844, -0.01600000075995922, 1.055999994277954, 0.0, 0.0, 0.0, 0.0, 0.0, 1.621257373006628E9, 2021-05-17 15:16:13.006
85.0, -43.753089904785156, 188.9116973876953, 103.22872161865234, 295.96258544921875, 0.03200000151991844, -0.01600000075995922, 1.055999994277954, 0.0, 0.0, 0.0, 0.0, 0.0, 1.621257373006628E9, 2021-05-17 15:16:13.006
86.0, -53.12154006958008, 177.89768981933594, 97.27479553222656, 280.11663818359375, 0.03200000151991844, -0.01600000075995922, 1.055999994277954, 0.0, 0.0, 0.0, 0.0, 0.0, 1.6212573730223212E9, 2021-05-17 15:16:13.022
86.0, -56.487449645996094, 176.6522979736328, 98.47904205322266, 275.2323303222656, 0.03200000151991844, -0.01600000075995922, 1.055999994277954, 0.0, 0.0, 0.0, 0.0, 0.0, 1.6212573730223212E9, 2021-05-17 15:16:13.022
87.0, -31.987363815307617, 191.16311645507812, 121.61406707763672, 291.5943908691406, 0.03200000151991844, -0.01600000075995922, 1.055999994277954, 0.0, 0.0, 0.0, 0.0, 0.0, 1.6212573730230467E9, 2021-05-17 15:16:13.023
87.0, -36.71833801269531, 191.89613342285156, 117.08879089355469, 284.64190673828125, 0.03200000151991844, -0.01600000075995922, 1.055999994277954, 0.0, 0.0, 0.0, 0.0, 0.0, 1.6212573730230467E9, 2021-05-17 15:16:13.023
88.0, -50.41385269165039, 182.804443359375, 108.17286682128906, 264.01263427734375, 0.03200000151991844, -0.01600000075995922, 1.055999994277954, 0.0, 0.0, 0.0, 0.0, 0.0, 1.6212573730366638E9, 2021-05-17 15:16:13.036
88.0, -46.53931427001953, 188.72470092773438, 104.99394989013672, 266.9259948730469, 0.03200000151991844, -0.01600000075995922, 1.055999994277954, 0.0, 0.0, 0.0, 0.0, 0.0, 1.6212573730366638E9, 2021-05-17 15:16:13.036
89.0, -29.582609176635742, 201.63858032226562, 122.04415893554688, 280.5055847167969, 0.03200000151991844, -0.01600000075995922, 1.055999994277954, 0.0, 0.0, 0.0, 0.0, 0.0, 1.6212573730523558E9, 2021-05-17 15:16:13.052
89.0, -39.27642822265625, 195.3966827392578, 112.48123168945312, 281.9117736816406, 0.03200000151991844, -0.01600000075995922, 1.055999994277954, 0.0, 0.0, 0.0, 0.0, 0.0, 1.6212573730523558E9, 2021-05-17 15:16:13.052
90.0, -51.2216682434082, 183.84786987304688, 101.19047546386719, 275.729736328125, 0.03200000151991844, -0.01600000075995922, 1.055999994277954, 0.0, 0.0, 0.0, 0.0, 0.0, 1.6212573730530264E9, 2021-05-17 15:16:13.053
90.0, -49.20586395263672, 180.773681640625, 99.93013000488281, 280.82720947265625, 0.03200000151991844, -0.01600000075995922, 1.055999994277954, 0.0, 0.0, 0.0, 0.0, 0.0, 1.6212573730530264E9, 2021-05-17 15:16:13.053
91.0, -28.913166046142578, 192.8423309326172, 119.0821533203125, 307.6834411621094, 0.03200000151991844, -0.01600000075995922, 1.055999994277954, 0.0, 0.0, 0.0, 0.0, 0.0, 1.6212573730666926E9, 2021-05-17 15:16:13.066
91.0, -32.59322738647461, 182.64736938476562, 107.52212524414062, 301.60235595703125, 0.03200000151991844, -0.01600000075995922, 1.055999994277954, 0.0, 0.0, 0.0, 0.0, 0.0, 1.6212573730666926E9, 2021-05-17 15:16:13.066
92.0, -44.343994140625, 174.94317626953125, 94.40255737304688, 291.0782775878906, 0.03200000151991844, -0.01600000075995922, 1.055999994277954, 0.0, 0.0, 0.0, 0.0, 0.0, 1.6212573730825348E9, 2021-05-17 15:16:13.082
92.0, -45.35002517700195, 178.58956909179688, 99.78427124023438, 292.6415710449219, 0.03200000151991844, -0.01600000075995922, 1.055999994277954, 0.0, 0.0, 0.0, 0.0, 0.0, 1.6212573730825348E9, 2021-05-17 15:16:13.082
93.0, -31.90134620666504, 181.607666015625, 111.41909790039062, 298.11676025390625, 0.03200000151991844, -0.01600000075995922, 1.055999994277954, 0.0, 0.0, 0.0, 0.0, 0.0, 1.6212573730831275E9, 2021-05-17 15:16:13.083
93.0, -31.998584747314453, 185.71408081054688, 107.79887390136719, 298.1055603027344, 0.03200000151991844, -0.01600000075995922, 1.055999994277954, 0.0, 0.0, 0.0, 0.0, 0.0, 1.6212573730831275E9, 2021-05-17 15:16:13.083
94.0, -44.25797653198242, 176.0052947998047, 100.42378997802734, 282.6410827636719, 0.03200000151991844, -0.01600000075995922, 1.055999994277954, 0.0, 0.0, 0.0, 0.0, 0.0, 1.6212573730967753E9, 2021-05-17 15:16:13.096
94.0, -48.9104118347168, 176.6485595703125, 99.51873779296875, 280.96185302734375, 0.03200000151991844, -0.01600000075995922, 1.055999994277954, 0.0, 0.0, 0.0, 0.0, 0.0, 1.6212573730967753E9, 2021-05-17 15:16:13.096
95.0, -37.75429153442383, 190.48619079589844, 117.38423919677734, 293.206298828125, 0.03200000151991844, -0.01600000075995922, 1.055999994277954, 0.0, 0.0, 0.0, 0.0, 0.0, 1.6212573731123517E9, 2021-05-17 15:16:13.112
95.0, -43.225765228271484, 195.70709228515625, 112.75050354003906, 282.5737609863281, 0.03200000151991844, -0.01600000075995922, 1.055999994277954, 0.0, 0.0, 0.0, 0.0, 0.0, 1.6212573731123517E9, 2021-05-17 15:16:13.112
96.0, -53.70122528076172, 184.43128967285156, 101.25031280517578, 266.2303771972656, 0.03200000151991844, -0.01600000075995922, 1.055999994277954, 0.0, 0.0, 0.0, 0.0, 0.0, 1.6212573731131172E9, 2021-05-17 15:16:13.113
96.0, -54.580101013183594, 187.9243621826172, 104.63491821289062, 267.5430908203125, 0.03200000151991844, -0.01600000075995922, 1.055999994277954, 0.0, 0.0, 0.0, 0.0, 0.0, 1.6212573731131172E9, 2021-05-17 15:16:13.113
97.0, -40.34230041503906, 197.5172119140625, 110.70104217529297, 281.58642578125, 0.03200000151991844, -0.01600000075995922, 1.055999994277954, 0.0, 0.0, 0.0, 0.0, 0.0, 1.6212573731267505E9, 2021-05-17 15:16:13.126
97.0, -43.689510345458984, 191.85873413085938, 108.18408966064453, 279.0732116699219, 0.03200000151991844, -0.01600000075995922, 1.055999994277954, 0.0, 0.0, 0.0, 0.0, 0.0, 1.6212573731267505E9, 2021-05-17 15:16:13.126
98.0, -53.667564392089844, 184.1508026123047, 95.04207611083984, 266.5108947753906, 0.03200000151991844, -0.01600000075995922, 1.055999994277954, 0.0, 0.0, 0.0, 0.0, 0.0, 1.62125737314231E9, 2021-05-17 15:16:13.142
98.0, -50.8289794921875, 184.4986114501953, 95.0719985961914, 265.377685546875, 0.03200000151991844, -0.01600000075995922, 1.055999994277954, 0.0, 0.0, 0.0, 0.0, 0.0, 1.62125737314231E9, 2021-05-17 15:16:13.142
99.0, -43.023807525634766, 196.2344207763672, 99.54117584228516, 282.4241638183594, 0.03200000151991844, -0.01600000075995922, 1.055999994277954, 0.0, 0.0, 0.0, 0.0, 0.0, 1.6212573731430256E9, 2021-05-17 15:16:13.143
99.0, -45.181732177734375, 205.63653564453125, 106.38893127441406, 289.2457275390625, 0.03200000151991844, -0.01600000075995922, 1.055999994277954, 0.0, 0.0, 0.0, 0.0, 0.0, 1.6212573731430256E9, 2021-05-17 15:16:13.143
100.0, -54.42676544189453, 190.9835968017578, 91.42933654785156, 280.7374572753906, 0.03200000151991844, -0.01600000075995922, 1.055999994277954, 0.0, 0.0, 0.0, 0.0, 0.0, 1.6212573731574252E9, 2021-05-17 15:16:13.157
100.0, -50.466209411621094, 189.05007934570312, 97.45431518554688, 289.54119873046875, 0.03200000151991844, -0.01600000075995922, 1.055999994277954, 0.0, 0.0, 0.0, 0.0, 0.0, 1.6212573731574252E9, 2021-05-17 15:16:13.157
0.0, -33.937721252441406, 200.62506103515625, 114.80184173583984, 311.4345703125, 0.03200000151991844, -0.01600000075995922, 1.055999994277954, 0.0, 0.0, 0.0, 0.0, 0.0, 1.6212573731581194E9, 2021-05-17 15:16:13.158
1.0, -35.68799591064453, 192.9246063232422, 119.34581756591797, 315.1482849121094, 0.03200000151991844, -0.01600000075995922, 1.055999994277954, 0.0, 0.0, 0.0, 0.0, 0.0, 1.6212573731716323E9, 2021-05-17 15:16:13.171
1.0, -41.94858932495117, 185.32139587402344, 106.43568420410156, 301.58740234375, 0.03200000151991844, -0.01600000075995922, 1.055999994277954, 0.0, 0.0, 0.0, 0.0, 0.0, 1.6212573731716323E9, 2021-05-17 15:16:13.171
2.0, -50.5653190612793, 175.28724670410156, 105.1977767944336, 299.1003723144531, 0.04800000041723251, -0.01600000075995922, 1.055999994277954, 0.0, 0.0, 0.0, 0.0, 0.0, 1.621257373187324E9, 2021-05-17 15:16:13.187
2.0, -37.26249313354492, 190.70684814453125, 118.15278625488281, 310.1069030761719, 0.04800000041723251, -0.01600000075995922, 1.055999994277954, 0.0, 0.0, 0.0, 0.0, 0.0, 1.621257373187324E9, 2021-05-17 15:16:13.187
3.0, -36.230281829833984, 189.02389526367188, 113.91921997070312, 303.4311828613281, 0.04800000041723251, -0.01600000075995922, 1.055999994277954, 0.0, 0.0, 0.0, 0.0, 0.0, 1.6212573731880596E9, 2021-05-17 15:16:13.188
3.0, -59.22318649291992, 174.1577911376953, 99.69264221191406, 282.6448059082031, 0.04800000041723251, -0.01600000075995922, 1.055999994277954, 0.0, 0.0, 0.0, 0.0, 0.0, 1.6212573731880596E9, 2021-05-17 15:16:13.188
4.0, -59.19700622558594, 173.9333953857422, 98.82124328613281, 277.86895751953125, 0.04800000041723251, -0.01600000075995922, 1.055999994277954, 0.0, 0.0, 0.0, 0.0, 0.0, 1.621257373201804E9, 2021-05-17 15:16:13.201
4.0, -52.48762512207031, 180.8596954345703, 113.2086410522461, 282.8355407714844, 0.04800000041723251, -0.01600000075995922, 1.055999994277954, 0.0, 0.0, 0.0, 0.0, 0.0, 1.621257373201804E9, 2021-05-17 15:16:13.201
5.0, -51.38809585571289, 192.19906616210938, 114.42784881591797, 279.1180725097656, 0.04800000041723251, -0.01600000075995922, 1.055999994277954, 0.0, 0.0, 0.0, 0.0, 0.0, 1.6212573732173283E9, 2021-05-17 15:16:13.217
5.0, -66.01484680175781, 188.08517456054688, 102.55740356445312, 273.15667724609375, 0.04800000041723251, -0.01600000075995922, 1.055999994277954, 0.0, 0.0, 0.0, 0.0, 0.0, 1.6212573732173283E9, 2021-05-17 15:16:13.217
6.0, -62.3721809387207, 191.97467041015625, 100.29103088378906, 277.09478759765625, 0.04800000041723251, -0.01600000075995922, 1.055999994277954, 0.0, 0.0, 0.0, 0.0, 0.0, 1.62125737321812E9, 2021-05-17 15:16:13.218
6.0, -44.46928024291992, 208.4003143310547, 115.28054809570312, 291.8113098144531, 0.04800000041723251, -0.01600000075995922, 1.055999994277954, 0.0, 0.0, 0.0, 0.0, 0.0, 1.62125737321812E9, 2021-05-17 15:16:13.218
7.0, -47.9473876953125, 208.6995086669922, 114.51760864257812, 290.06103515625, 0.04800000041723251, -0.01600000075995922, 1.055999994277954, 0.0, 0.0, 0.0, 0.0, 0.0, 1.6212573732318535E9, 2021-05-17 15:16:13.231
7.0, -63.16130065917969, 195.84173583984375, 99.31117248535156, 273.7214050292969, 0.04800000041723251, -0.01600000075995922, 1.055999994277954, 0.0, 0.0, 0.0, 0.0, 0.0, 1.6212573732318535E9, 2021-05-17 15:16:13.231
8.0, -64.08131408691406, 198.37738037109375, 93.40586853027344, 277.81658935546875, 0.04800000041723251, -0.01600000075995922, 1.055999994277954, 0.0, 0.0, 0.0, 0.0, 0.0, 1.6212573732473705E9, 2021-05-17 15:16:13.247
8.0, -46.88525390625, 196.76922607421875, 102.9500961303711, 288.4640808105469, 0.04800000041723251, -0.01600000075995922, 1.055999994277954, 0.0, 0.0, 0.0, 0.0, 0.0, 1.6212573732473705E9, 2021-05-17 15:16:13.247
9.0, -47.67063522338867, 196.84776306152344, 102.30309295654297, 291.7290344238281, 0.04800000041723251, -0.01600000075995922, 1.055999994277954, 0.0, 0.0, 0.0, 0.0, 0.0, 1.6212573732481165E9, 2021-05-17 15:16:13.248
9.0, -53.6282958984375, 190.08602905273438, 95.806884765625, 282.4278869628906, 0.04800000041723251, -0.01600000075995922, 1.055999994277954, 0.0, 0.0, 0.0, 0.0, 0.0, 1.6212573732481165E9, 2021-05-17 15:16:13.248
10.0, -51.462894439697266, 190.48992919921875, 101.82064819335938, 288.9989013671875, 0.04800000041723251, -0.01600000075995922, 1.055999994277954, 0.0, 0.0, 0.0, 0.0, 0.0, 1.6212573732780037E9, 2021-05-17 15:16:13.278
10.0, -37.11289596557617, 191.84378051757812, 114.54378509521484, 303.206787109375, 0.04800000041723251, -0.01600000075995922, 1.055999994277954, 0.0, 0.0, 0.0, 0.0, 0.0, 1.6212573732780037E9, 2021-05-17 15:16:13.278
11.0, -39.92530059814453, 184.90252685546875, 110.08582305908203, 301.8155212402344, 0.04800000041723251, -0.01600000075995922, 1.055999994277954, 0.0, 0.0, 0.0, 0.0, 0.0, 1.6212573732787187E9, 2021-05-17 15:16:13.278
11.0, -54.215457916259766, 169.89430236816406, 98.57067108154297, 292.3049621582031, 0.04800000041723251, -0.01600000075995922, 1.055999994277954, 0.0, 0.0, 0.0, 0.0, 0.0, 1.6212573732787187E9, 2021-05-17 15:16:13.278
12.0, -50.75231170654297, 173.88478088378906, 96.15095520019531, 291.7028503417969, 0.03200000151991844, -0.01600000075995922, 1.055999994277954, 0.0, 0.0, 0.0, 0.0, 0.0, 1.621257373279458E9, 2021-05-17 15:16:13.279
12.0, -37.034358978271484, 189.46519470214844, 110.12322235107422, 307.62359619140625, 0.03200000151991844, -0.01600000075995922, 1.055999994277954, 0.0, 0.0, 0.0, 0.0, 0.0, 1.621257373279458E9, 2021-05-17 15:16:13.279
13.0, -47.9473876953125, 183.08119201660156, 102.0450439453125, 295.15478515625, 0.03200000151991844, -0.01600000075995922, 1.055999994277954, 0.0, 0.0, 0.0, 0.0, 0.0, 1.6212573732916625E9, 2021-05-17 15:16:13.291
13.0, -65.54361724853516, 175.20870971679688, 92.7775650024414, 279.51824951171875, 0.03200000151991844, -0.01600000075995922, 1.055999994277954, 0.0, 0.0, 0.0, 0.0, 0.0, 1.6212573732916625E9, 2021-05-17 15:16:13.291
14.0, -64.15985107421875, 176.6560516357422, 92.04454803466797, 274.203857421875, 0.03200000151991844, -0.01600000075995922, 1.055999994277954, 0.0, 0.0, 0.0, 0.0, 0.0, 1.6212573733074217E9, 2021-05-17 15:16:13.307
14.0, -50.47555923461914, 188.67982482910156, 106.58528137207031, 284.2529602050781, 0.03200000151991844, -0.01600000075995922, 1.055999994277954, 0.0, 0.0, 0.0, 0.0, 0.0, 1.6212573733074217E9, 2021-05-17 15:16:13.307
15.0, -49.62286376953125, 190.71058654785156, 105.50444793701172, 277.162109375, 0.03200000151991844, -0.01600000075995922, 1.055999994277954, 0.0, 0.0, 0.0, 0.0, 0.0, 1.621257373308043E9, 2021-05-17 15:16:13.308
15.0, -57.858123779296875, 181.1962890625, 103.09969329833984, 274.80596923828125, 0.03200000151991844, -0.01600000075995922, 1.055999994277954, 0.0, 0.0, 0.0, 0.0, 0.0, 1.621257373308043E9, 2021-05-17 15:16:13.308
16.0, -59.31294250488281, 177.8004608154297, 97.83765411376953, 272.1656188964844, 0.03200000151991844, -0.01600000075995922, 1.055999994277954, 0.0, 0.0, 0.0, 0.0, 0.0, 1.6212573733216228E9, 2021-05-17 15:16:13.321
16.0, -43.79609680175781, 197.64810180664062, 113.42555236816406, 288.8455505371094, 0.03200000151991844, -0.01600000075995922, 1.055999994277954, 0.0, 0.0, 0.0, 0.0, 0.0, 1.6212573733216228E9, 2021-05-17 15:16:13.321
17.0, -41.96354675292969, 200.84571838378906, 112.18016815185547, 291.0595703125, 0.03200000151991844, -0.01600000075995922, 1.055999994277954, 0.0, 0.0, 0.0, 0.0, 0.0, 1.6212573733373091E9, 2021-05-17 15:16:13.337
17.0, -54.10700225830078, 186.55181884765625, 98.18172454833984, 272.161865234375, 0.03200000151991844, -0.01600000075995922, 1.055999994277954, 0.0, 0.0, 0.0, 0.0, 0.0, 1.6212573733373091E9, 2021-05-17 15:16:13.337
18.0, -53.123409271240234, 189.99252319335938, 97.32902526855469, 277.8016357421875, 0.03200000151991844, -0.01600000075995922, 1.055999994277954, 0.0, 0.0, 0.0, 0.0, 0.0, 1.6212573733380435E9, 2021-05-17 15:16:13.338
18.0, -43.874637603759766, 197.85379028320312, 106.57032012939453, 289.58233642578125, 0.03200000151991844, -0.01600000075995922, 1.055999994277954, 0.0, 0.0, 0.0, 0.0, 0.0, 1.6212573733380435E9, 2021-05-17 15:16:13.338
19.0, -39.846763610839844, 194.01292419433594, 101.23348236083984, 288.1723937988281, 0.03200000151991844, -0.01600000075995922, 1.055999994277954, 0.0, 0.0, 0.0, 0.0, 0.0, 1.6212573733516705E9, 2021-05-17 15:16:13.351
19.0, -53.744232177734375, 187.17637634277344, 96.5062484741211, 288.58001708984375, 0.03200000151991844, -0.01600000075995922, 1.055999994277954, 0.0, 0.0, 0.0, 0.0, 0.0, 1.6212573733516705E9, 2021-05-17 15:16:13.351
20.0, -52.5250244140625, 185.96092224121094, 87.16024017333984, 283.5049743652344, 0.03200000151991844, -0.01600000075995922, 1.055999994277954, 0.0, 0.0, 0.0, 0.0, 0.0, 1.6212573733678324E9, 2021-05-17 15:16:13.367
20.0, -40.190834045410156, 190.84523010253906, 99.74500274658203, 294.4292297363281, 0.03200000151991844, -0.01600000075995922, 1.055999994277954, 0.0, 0.0, 0.0, 0.0, 0.0, 1.6212573733678324E9, 2021-05-17 15:16:13.367
21.0, -43.56048583984375, 202.33045959472656, 105.21273803710938, 298.87969970703125, 0.03200000151991844, -0.01600000075995922, 1.055999994277954, 0.0, 0.0, 0.0, 0.0, 0.0, 1.6212573733824143E9, 2021-05-17 15:16:13.382
21.0, -49.08805847167969, 191.89613342285156, 98.55945587158203, 296.8788757324219, 0.03200000151991844, -0.01600000075995922, 1.055999994277954, 0.0, 0.0, 0.0, 0.0, 0.0, 1.6212573733824143E9, 2021-05-17 15:16:13.382
22.0, -56.13776779174805, 188.3095703125, 94.25482940673828, 291.2241516113281, 0.04800000041723251, -0.01600000075995922, 1.055999994277954, 0.0, 0.0, 0.0, 0.0, 0.0, 1.6212573733831823E9, 2021-05-17 15:16:13.383
22.0, -48.826263427734375, 196.25686645507812, 99.84223937988281, 292.78369140625, 0.04800000041723251, -0.01600000075995922, 1.055999994277954, 0.0, 0.0, 0.0, 0.0, 0.0, 1.6212573733831823E9, 2021-05-17 15:16:13.383
23.0, -43.94569396972656, 198.5419464111328, 102.74813842773438, 288.6884765625, 0.04800000041723251, -0.01600000075995922, 1.055999994277954, 0.0, 0.0, 0.0, 0.0, 0.0, 1.621257373397394E9, 2021-05-17 15:16:13.397
23.0, -56.23500442504883, 190.80409240722656, 98.81002807617188, 273.2875671386719, 0.04800000041723251, -0.01600000075995922, 1.055999994277954, 0.0, 0.0, 0.0, 0.0, 0.0, 1.621257373397394E9, 2021-05-17 15:16:13.397
24.0, -61.02581787109375, 195.2732696533203, 93.93319702148438, 273.25390625, 0.04800000041723251, -0.01600000075995922, 1.055999994277954, 0.0, 0.0, 0.0, 0.0, 0.0, 1.6212573733981376E9, 2021-05-17 15:16:13.398
24.0, -51.971519470214844, 204.22283935546875, 105.00704193115234, 284.7017517089844, 0.04800000041723251, -0.01600000075995922, 1.055999994277954, 0.0, 0.0, 0.0, 0.0, 0.0, 1.6212573733981376E9, 2021-05-17 15:16:13.398
25.0, -46.4327278137207, 212.00184631347656, 111.97447204589844, 295.4389953613281, 0.04800000041723251, -0.01600000075995922, 1.055999994277954, 0.0, 0.0, 0.0, 0.0, 0.0, 1.621257373411837E9, 2021-05-17 15:16:13.411
25.0, -62.46567916870117, 195.75946044921875, 95.642333984375, 271.9486999511719, 0.04800000041723251, -0.01600000075995922, 1.055999994277954, 0.0, 0.0, 0.0, 0.0, 0.0, 1.621257373411837E9, 2021-05-17 15:16:13.411
26.0, -54.133182525634766, 198.80746459960938, 95.25711822509766, 272.689208984375, 0.04800000041723251, -0.01600000075995922, 1.055999994277954, 0.0, 0.0, 0.0, 0.0, 0.0, 1.621257373443766E9, 2021-05-17 15:16:13.443
26.0, -46.83663558959961, 203.4823455810547, 111.3424301147461, 285.1206359863281, 0.04800000041723251, -0.01600000075995922, 1.055999994277954, 0.0, 0.0, 0.0, 0.0, 0.0, 1.621257373443766E9, 2021-05-17 15:16:13.443
27.0, -42.85364532470703, 200.45303344726562, 108.89653778076172, 283.8153991699219, 0.04800000041723251, -0.01600000075995922, 1.055999994277954, 0.0, 0.0, 0.0, 0.0, 0.0, 1.6212573734445586E9, 2021-05-17 15:16:13.444
27.0, -48.54951095581055, 187.86077880859375, 97.60578155517578, 271.7018737792969, 0.04800000041723251, -0.01600000075995922, 1.055999994277954, 0.0, 0.0, 0.0, 0.0, 0.0, 1.6212573734445586E9, 2021-05-17 15:16:13.444
28.0, -46.98623275756836, 186.29750061035156, 96.28559112548828, 277.3790283203125, 0.04800000041723251, -0.01600000075995922, 1.055999994277954, 0.0, 0.0, 0.0, 0.0, 0.0, 1.6212573734452572E9, 2021-05-17 15:16:13.445
28.0, -31.55540657043457, 191.29026794433594, 108.05506134033203, 290.16949462890625, 0.04800000041723251, -0.01600000075995922, 1.055999994277954, 0.0, 0.0, 0.0, 0.0, 0.0, 1.6212573734452572E9, 2021-05-17 15:16:13.445
29.0, -31.353450775146484, 185.5944061279297, 106.73113250732422, 289.7543640136719, 0.04800000041723251, -0.01600000075995922, 1.055999994277954, 0.0, 0.0, 0.0, 0.0, 0.0, 1.6212573734459875E9, 2021-05-17 15:16:13.445
29.0, -46.29435348510742, 179.9957733154297, 101.20355987548828, 288.1873474121094, 0.04800000041723251, -0.01600000075995922, 1.055999994277954, 0.0, 0.0, 0.0, 0.0, 0.0, 1.6212573734459875E9, 2021-05-17 15:16:13.445
30.0, -47.206886291503906, 178.9411163330078, 102.45642852783203, 290.7903137207031, 0.04800000041723251, -0.01600000075995922, 1.055999994277954, 0.0, 0.0, 0.0, 0.0, 0.0, 1.621257373472744E9, 2021-05-17 15:16:13.472
30.0, -29.229188919067383, 195.2994384765625, 119.97412109375, 307.97515869140625, 0.04800000041723251, -0.01600000075995922, 1.055999994277954, 0.0, 0.0, 0.0, 0.0, 0.0, 1.621257373472744E9, 2021-05-17 15:16:13.472
31.0, -33.78064727783203, 193.04054260253906, 116.81390380859375, 301.493896484375, 0.04800000041723251, -0.01600000075995922, 1.055999994277954, 0.0, 0.0, 0.0, 0.0, 0.0, 1.6212573734871314E9, 2021-05-17 15:16:13.487
31.0, -51.986480712890625, 188.65737915039062, 107.27342224121094, 290.21435546875, 0.04800000041723251, -0.01600000075995922, 1.055999994277954, 0.0, 0.0, 0.0, 0.0, 0.0, 1.6212573734871314E9, 2021-05-17 15:16:13.487
32.0, -51.53769302368164, 187.87574768066406, 105.6615219116211, 295.0575256347656, 0.04800000041723251, -0.01600000075995922, 1.055999994277954, 0.0, 0.0, 0.0, 0.0, 0.0, 1.62125737350349E9, 2021-05-17 15:16:13.503
32.0, -47.1545295715332, 196.22694396972656, 114.25955200195312, 299.88201904296875, 0.04800000041723251, -0.01600000075995922, 1.055999994277954, 0.0, 0.0, 0.0, 0.0, 0.0, 1.62125737350349E9, 2021-05-17 15:16:13.503
33.0, -48.029666900634766, 203.37388610839844, 109.41264343261719, 289.9750061035156, 0.04800000041723251, -0.01600000075995922, 1.055999994277954, 0.0, 0.0, 0.0, 0.0, 0.0, 1.6212573735042038E9, 2021-05-17 15:16:13.504
33.0, -63.531551361083984, 195.5574951171875, 94.05287170410156, 271.94122314453125, 0.04800000041723251, -0.01600000075995922, 1.055999994277954, 0.0, 0.0, 0.0, 0.0, 0.0, 1.6212573735042038E9, 2021-05-17 15:16:13.504
34.0, -63.34455490112305, 191.3164520263672, 88.31961059570312, 268.9941711425781, 0.04800000041723251, -0.01600000075995922, 1.055999994277954, 0.0, 0.0, 0.0, 0.0, 0.0, 1.6212573735050173E9, 2021-05-17 15:16:13.505
34.0, -51.89672088623047, 206.7510223388672, 105.87095642089844, 284.9336242675781, 0.04800000041723251, -0.01600000075995922, 1.055999994277954, 0.0, 0.0, 0.0, 0.0, 0.0, 1.6212573735050173E9, 2021-05-17 15:16:13.505
35.0, -53.6993522644043, 212.21127319335938, 97.74415588378906, 275.1014404296875, 0.04800000041723251, -0.01600000075995922, 1.055999994277954, 0.0, 0.0, 0.0, 0.0, 0.0, 1.621257373532709E9, 2021-05-17 15:16:13.532
35.0, -56.324764251708984, 206.65003967285156, 95.38801574707031, 266.49591064453125, 0.04800000041723251, -0.01600000075995922, 1.055999994277954, 0.0, 0.0, 0.0, 0.0, 0.0, 1.621257373532709E9, 2021-05-17 15:16:13.532
36.0, -57.68982696533203, 201.7993927001953, 90.92257690429688, 270.59112548828125, 0.04800000041723251, -0.01600000075995922, 1.055999994277954, 0.0, 0.0, 0.0, 0.0, 0.0, 1.6212573735334337E9, 2021-05-17 15:16:13.533
36.0, -44.41318130493164, 211.33987426757812, 100.84827423095703, 287.67498779296875, 0.04800000041723251, -0.01600000075995922, 1.055999994277954, 0.0, 0.0, 0.0, 0.0, 0.0, 1.6212573735334337E9, 2021-05-17 15:16:13.533
37.0, -41.25670623779297, 205.87588500976562, 103.48863983154297, 285.378662109375, 0.04800000041723251, -0.01600000075995922, 1.055999994277954, 0.0, 0.0, 0.0, 0.0, 0.0, 1.6212573735479732E9, 2021-05-17 15:16:13.547
37.0, -48.34381866455078, 193.8109588623047, 96.13600158691406, 282.59619140625, 0.04800000041723251, -0.01600000075995922, 1.055999994277954, 0.0, 0.0, 0.0, 0.0, 0.0, 1.6212573735479732E9, 2021-05-17 15:16:13.547
38.0, -47.244285583496094, 187.26988220214844, 87.56788635253906, 280.658935546875, 0.04800000041723251, -0.01600000075995922, 1.055999994277954, 0.0, 0.0, 0.0, 0.0, 0.0, 1.6212573735486917E9, 2021-05-17 15:16:13.548
38.0, -26.592557907104492, 198.41104125976562, 105.27257537841797, 301.7108154296875, 0.04800000041723251, -0.01600000075995922, 1.055999994277954, 0.0, 0.0, 0.0, 0.0, 0.0, 1.6212573735486917E9, 2021-05-17 15:16:13.548
39.0, -30.639129638671875, 196.60841369628906, 103.45872497558594, 304.205322265625, 0.04800000041723251, -0.01600000075995922, 1.055999994277954, 0.0, 0.0, 0.0, 0.0, 0.0, 1.621257373549452E9, 2021-05-17 15:16:13.549
39.0, -46.488826751708984, 185.02967834472656, 96.2481918334961, 291.5682067871094, 0.04800000041723251, -0.01600000075995922, 1.055999994277954, 0.0, 0.0, 0.0, 0.0, 0.0, 1.621257373549452E9, 2021-05-17 15:16:13.549
40.0, -53.53479766845703, 170.83302307128906, 87.71000671386719, 279.70526123046875, 0.04800000041723251, -0.01600000075995922, 1.055999994277954, 0.0, 0.0, 0.0, 0.0, 0.0, 1.6212573735617409E9, 2021-05-17 15:16:13.561
40.0, -36.86606216430664, 201.22718811035156, 108.87409973144531, 301.6472473144531, 0.04800000041723251, -0.01600000075995922, 1.055999994277954, 0.0, 0.0, 0.0, 0.0, 0.0, 1.6212573735617409E9, 2021-05-17 15:16:13.561
41.0, -46.07369613647461, 203.6468963623047, 100.2798080444336, 303.13946533203125, 0.04800000041723251, -0.01600000075995922, 1.055999994277954, 0.0, 0.0, 0.0, 0.0, 0.0, 1.6212573735780735E9, 2021-05-17 15:16:13.578
41.0, -58.82301712036133, 189.69708251953125, 89.34808349609375, 286.8821105957031, 0.04800000041723251, -0.01600000075995922, 1.055999994277954, 0.0, 0.0, 0.0, 0.0, 0.0, 1.6212573735780735E9, 2021-05-17 15:16:13.578
42.0, -66.75908660888672, 182.98394775390625, 83.259521484375, 281.2760009765625, 0.04800000041723251, -0.01600000075995922, 1.055999994277954, 0.0, 0.0, 0.0, 0.0, 0.0, 1.6212573735786564E9, 2021-05-17 15:16:13.578
42.0, -54.63058853149414, 201.290771484375, 91.98097229003906, 297.8961181640625, 0.04800000041723251, -0.01600000075995922, 1.055999994277954, 0.0, 0.0, 0.0, 0.0, 0.0, 1.6212573735786564E9, 2021-05-17 15:16:13.578
43.0, -48.47845458984375, 204.3874053955078, 99.198974609375, 294.874267578125, 0.04800000041723251, -0.01600000075995922, 1.055999994277954, 0.0, 0.0, 0.0, 0.0, 0.0, 1.6212573736079345E9, 2021-05-17 15:16:13.607
43.0, -60.535892486572266, 195.42660522460938, 84.43759155273438, 275.6063232421875, 0.04800000041723251, -0.01600000075995922, 1.055999994277954, 0.0, 0.0, 0.0, 0.0, 0.0, 1.6212573736079345E9, 2021-05-17 15:16:13.607
44.0, -57.63372802734375, 200.78961181640625, 89.99134063720703, 275.4791564941406, 0.04800000041723251, -0.01600000075995922, 1.055999994277954, 0.0, 0.0, 0.0, 0.0, 0.0, 1.62125737360866E9, 2021-05-17 15:16:13.608
44.0, -42.475914001464844, 210.07205200195312, 101.36064147949219, 287.7909240722656, 0.04800000041723251, -0.01600000075995922, 1.055999994277954, 0.0, 0.0, 0.0, 0.0, 0.0, 1.62125737360866E9, 2021-05-17 15:16:13.608
45.0, -45.916622161865234, 210.7452392578125, 97.60203552246094, 284.9261474609375, 0.04800000041723251, -0.01600000075995922, 1.055999994277954, 0.0, 0.0, 0.0, 0.0, 0.0, 1.6212573736094487E9, 2021-05-17 15:16:13.609
45.0, -52.43900680541992, 203.4000701904297, 89.3817367553711, 282.52886962890625, 0.04800000041723251, -0.01600000075995922, 1.055999994277954, 0.0, 0.0, 0.0, 0.0, 0.0, 1.6212573736094487E9, 2021-05-17 15:16:13.609
46.0, -57.82820129394531, 199.40585327148438, 86.53567504882812, 282.4615478515625, 0.04800000041723251, -0.01600000075995922, 1.055999994277954, 0.0, 0.0, 0.0, 0.0, 0.0, 1.6212573736217048E9, 2021-05-17 15:16:13.621
46.0, -35.25042724609375, 209.33154296875, 102.0450439453125, 296.98358154296875, 0.04800000041723251, -0.01600000075995922, 1.055999994277954, 0.0, 0.0, 0.0, 0.0, 0.0, 1.6212573736217048E9, 2021-05-17 15:16:13.621
47.0, -38.051612854003906, 210.86117553710938, 101.79446411132812, 299.7286682128906, 0.04800000041723251, -0.01600000075995922, 1.055999994277954, 0.0, 0.0, 0.0, 0.0, 0.0, 1.6212573736379557E9, 2021-05-17 15:16:13.637
47.0, -45.26961898803711, 198.7850341796875, 96.31925201416016, 291.26153564453125, 0.04800000041723251, -0.01600000075995922, 1.055999994277954, 0.0, 0.0, 0.0, 0.0, 0.0, 1.6212573736379557E9, 2021-05-17 15:16:13.637
48.0, -49.854736328125, 189.07998657226562, 93.55546569824219, 292.1329345703125, 0.04800000041723251, -0.01600000075995922, 1.055999994277954, 0.0, 0.0, 0.0, 0.0, 0.0, 1.6212573736387553E9, 2021-05-17 15:16:13.638
48.0, -37.87583541870117, 203.01486206054688, 105.6241226196289, 306.7334899902344, 0.04800000041723251, -0.01600000075995922, 1.055999994277954, 0.0, 0.0, 0.0, 0.0, 0.0, 1.6212573736387553E9, 2021-05-17 15:16:13.638
49.0, -47.04233169555664, 196.63833618164062, 92.56065368652344, 293.8009338378906, 0.04800000041723251, -0.01600000075995922, 1.055999994277954, 0.0, 0.0, 0.0, 0.0, 0.0, 1.6212573736679957E9, 2021-05-17 15:16:13.667
49.0, -51.34695816040039, 187.92062377929688, 85.87371063232422, 281.7060852050781, 0.04800000041723251, -0.01600000075995922, 1.055999994277954, 0.0, 0.0, 0.0, 0.0, 0.0, 1.6212573736679957E9, 2021-05-17 15:16:13.667
50.0, -58.527565002441406, 182.38931274414062, 81.34095764160156, 284.60076904296875, 0.04800000041723251, -0.01600000075995922, 1.055999994277954, 0.0, 0.0, 0.0, 0.0, 0.0, 1.6212573736687074E9, 2021-05-17 15:16:13.668
50.0, -50.61767578125, 189.74569702148438, 93.7349853515625, 303.85003662109375, 0.04800000041723251, -0.01600000075995922, 1.055999994277954, 0.0, 0.0, 0.0, 0.0, 0.0, 1.6212573736687074E9, 2021-05-17 15:16:13.668
51.0, -47.266727447509766, 195.74075317382812, 97.18316650390625, 306.8008117675781, 0.04800000041723251, -0.01600000075995922, 1.055999994277954, 0.0, 0.0, 0.0, 0.0, 0.0, 1.6212573736694603E9, 2021-05-17 15:16:13.669
51.0, -67.8025131225586, 185.2540740966797, 84.71808624267578, 290.5210266113281, 0.04800000041723251, -0.01600000075995922, 1.055999994277954, 0.0, 0.0, 0.0, 0.0, 0.0, 1.6212573736694603E9, 2021-05-17 15:16:13.669
52.0, -66.02232360839844, 189.08372497558594, 83.27074432373047, 289.13726806640625, 0.04800000041723251, -0.01600000075995922, 1.055999994277954, 0.0, 0.0, 0.0, 0.0, 0.0, 1.6212573736817796E9, 2021-05-17 15:16:13.681
52.0, -51.89672088623047, 206.17881774902344, 97.5309829711914, 297.0135192871094, 0.04800000041723251, -0.01600000075995922, 1.055999994277954, 0.0, 0.0, 0.0, 0.0, 0.0, 1.6212573736817796E9, 2021-05-17 15:16:13.681
53.0, -52.311851501464844, 207.12127685546875, 98.50709533691406, 289.2158203125, 0.04800000041723251, -0.01600000075995922, 1.055999994277954, 0.0, 0.0, 0.0, 0.0, 0.0, 1.62125737371272E9, 2021-05-17 15:16:13.712
53.0, -55.08311462402344, 196.95248413085938, 89.40043640136719, 274.8770446777344, 0.04800000041723251, -0.01600000075995922, 1.055999994277954, 0.0, 0.0, 0.0, 0.0, 0.0, 1.62125737371272E9, 2021-05-17 15:16:13.712
54.0, -50.834590911865234, 193.20884704589844, 96.35291290283203, 278.3364562988281, 0.04800000041723251, -0.01600000075995922, 1.055999994277954, 0.0, 0.0, 0.0, 0.0, 0.0, 1.621257373713491E9, 2021-05-17 15:16:13.713
54.0, -39.289520263671875, 211.0743408203125, 101.06144714355469, 287.5515441894531, 0.04800000041723251, -0.01600000075995922, 1.055999994277954, 0.0, 0.0, 0.0, 0.0, 0.0, 1.621257373713491E9, 2021-05-17 15:16:13.713
55.0, -34.2967529296875, 216.62062072753906, 105.983154296875, 290.1657409667969, 0.04800000041723251, -0.01600000075995922, 1.055999994277954, 0.0, 0.0, 0.0, 0.0, 0.0, 1.6212573737284572E9, 2021-05-17 15:16:13.728
55.0, -45.815643310546875, 203.7478790283203, 94.71857452392578, 274.5928039550781, 0.04800000041723251, -0.01600000075995922, 1.055999994277954, 0.0, 0.0, 0.0, 0.0, 0.0, 1.6212573737284572E9, 2021-05-17 15:16:13.728
56.0, -48.14186096191406, 201.1561279296875, 93.095458984375, 278.9647521972656, 0.04800000041723251, -0.01600000075995922, 1.055999994277954, 0.0, 0.0, 0.0, 0.0, 0.0, 1.6212573737291932E9, 2021-05-17 15:16:13.729
56.0, -38.35828399658203, 208.50877380371094, 101.75706481933594, 288.7445983886719, 0.04800000041723251, -0.01600000075995922, 1.055999994277954, 0.0, 0.0, 0.0, 0.0, 0.0, 1.6212573737291932E9, 2021-05-17 15:16:13.729
57.0, -37.082977294921875, 213.51275634765625, 105.302490234375, 301.505126953125, 0.04800000041723251, -0.01600000075995922, 1.055999994277954, 0.0, 0.0, 0.0, 0.0, 0.0, 1.6212573737423368E9, 2021-05-17 15:16:13.742
57.0, -49.99311447143555, 201.08132934570312, 95.29826354980469, 288.07513427734375, 0.04800000041723251, -0.01600000075995922, 1.055999994277954, 0.0, 0.0, 0.0, 0.0, 0.0, 1.6212573737423368E9, 2021-05-17 15:16:13.742
58.0, -56.48183822631836, 196.60093688964844, 89.9801254272461, 286.97186279296875, 0.04800000041723251, -0.01600000075995922, 1.055999994277954, 0.0, 0.0, 0.0, 0.0, 0.0, 1.6212573737430444E9, 2021-05-17 15:16:13.743
58.0, -45.490272521972656, 207.50648498535156, 98.0732650756836, 302.8215637207031, 0.04800000041723251, -0.01600000075995922, 1.055999994277954, 0.0, 0.0, 0.0, 0.0, 0.0, 1.6212573737430444E9, 2021-05-17 15:16:13.743
59.0, -48.20917892456055, 201.0738525390625, 94.55027770996094, 301.576171875, 0.04800000041723251, -0.01600000075995922, 1.055999994277954, 0.0, 0.0, 0.0, 0.0, 0.0, 1.6212573737573743E9, 2021-05-17 15:16:13.757
59.0, -63.12763977050781, 187.21377563476562, 85.36134338378906, 291.47845458984375, 0.04800000041723251, -0.01600000075995922, 1.055999994277954, 0.0, 0.0, 0.0, 0.0, 0.0, 1.6212573737573743E9, 2021-05-17 15:16:13.757
60.0, -61.33622741699219, 182.23597717285156, 77.5150375366211, 289.720703125, 0.04800000041723251, -0.01600000075995922, 1.055999994277954, 0.0, 0.0, 0.0, 0.0, 0.0, 1.6212573737580888E9, 2021-05-17 15:16:13.758
60.0, -52.34925079345703, 193.90072631835938, 88.02415466308594, 297.4622802734375, 0.04800000041723251, -0.01600000075995922, 1.055999994277954, 0.0, 0.0, 0.0, 0.0, 0.0, 1.6212573737580888E9, 2021-05-17 15:16:13.758
61.0, -54.93352127075195, 202.48753356933594, 87.92691802978516, 299.1976013183594, 0.04800000041723251, -0.01600000075995922, 1.055999994277954, 0.0, 0.0, 0.0, 0.0, 0.0, 1.6212573737717383E9, 2021-05-17 15:16:13.771
61.0, -70.19231414794922, 191.8250732421875, 78.67440795898438, 279.6902770996094, 0.04800000041723251, -0.01600000075995922, 1.055999994277954, 0.0, 0.0, 0.0, 0.0, 0.0, 1.6212573737717383E9, 2021-05-17 15:16:13.771
62.0, -72.18942260742188, 190.86392211914062, 69.3096923828125, 273.0706787109375, 0.04800000041723251, -0.01600000075995922, 1.055999994277954, 0.0, 0.0, 0.0, 0.0, 0.0, 1.6212573737873154E9, 2021-05-17 15:16:13.787
62.0, -54.084564208984375, 207.2147674560547, 88.18871307373047, 290.1021728515625, 0.04800000041723251, -0.01600000075995922, 1.055999994277954, 0.0, 0.0, 0.0, 0.0, 0.0, 1.6212573737873154E9, 2021-05-17 15:16:13.787
63.0, -52.03135681152344, 200.02293395996094, 88.19245147705078, 286.070556640625, 0.04800000041723251, -0.01600000075995922, 1.055999994277954, 0.0, 0.0, 0.0, 0.0, 0.0, 1.621257373788077E9, 2021-05-17 15:16:13.788
63.0, -54.7427864074707, 195.32188415527344, 77.8591079711914, 272.2890319824219, 0.04800000041723251, -0.01600000075995922, 1.055999994277954, 0.0, 0.0, 0.0, 0.0, 0.0, 1.621257373788077E9, 2021-05-17 15:16:13.788
64.0, -55.39726638793945, 196.3690643310547, 79.60189819335938, 274.92938232421875, 0.04800000041723251, -0.01600000075995922, 1.055999994277954, 0.0, 0.0, 0.0, 0.0, 0.0, 1.6212573738016806E9, 2021-05-17 15:16:13.801
64.0, -39.65229034423828, 210.11318969726562, 93.91075897216797, 289.814208984375, 0.04800000041723251, -0.01600000075995922, 1.055999994277954, 0.0, 0.0, 0.0, 0.0, 0.0, 1.6212573738016806E9, 2021-05-17 15:16:13.801
65.0, -38.35454559326172, 210.6517333984375, 108.49636840820312, 297.33514404296875, 0.04800000041723251, -0.01600000075995922, 1.055999994277954, 0.0, 0.0, 0.0, 0.0, 0.0, 1.6212573738172216E9, 2021-05-17 15:16:13.817
65.0, -52.06501770019531, 202.35289001464844, 86.40477752685547, 287.7497863769531, 0.04800000041723251, -0.01600000075995922, 1.055999994277954, 0.0, 0.0, 0.0, 0.0, 0.0, 1.6212573738172216E9, 2021-05-17 15:16:13.817
66.0, -53.44504165649414, 194.2111358642578, 83.00147247314453, 294.5863037109375, 0.04800000041723251, -0.01600000075995922, 1.055999994277954, 0.0, 0.0, 0.0, 0.0, 0.0, 1.6212573738323224E9, 2021-05-17 15:16:13.832
66.0, -40.0487174987793, 203.46739196777344, 96.83161926269531, 299.122802734375, 0.04800000041723251, -0.01600000075995922, 1.055999994277954, 0.0, 0.0, 0.0, 0.0, 0.0, 1.6212573738323224E9, 2021-05-17 15:16:13.832
67.0, -43.12291717529297, 204.55943298339844, 96.73438262939453, 300.472900390625, 0.04800000041723251, -0.01600000075995922, 1.055999994277954, 0.0, 0.0, 0.0, 0.0, 0.0, 1.6212573738330424E9, 2021-05-17 15:16:13.833
67.0, -49.18155288696289, 196.4176788330078, 90.8702163696289, 301.6098327636719, 0.04800000041723251, -0.01600000075995922, 1.055999994277954, 0.0, 0.0, 0.0, 0.0, 0.0, 1.6212573738330424E9, 2021-05-17 15:16:13.833
68.0, -52.47640609741211, 188.2310333251953, 88.7571792602539, 296.0486145019531, 0.04800000041723251, -0.01600000075995922, 1.055999994277954, 0.0, 0.0, 0.0, 0.0, 0.0, 1.6212573738472612E9, 2021-05-17 15:16:13.847
68.0, -37.2961540222168, 188.67608642578125, 100.09281158447266, 312.06658935546875, 0.04800000041723251, -0.01600000075995922, 1.055999994277954, 0.0, 0.0, 0.0, 0.0, 0.0, 1.6212573738472612E9, 2021-05-17 15:16:13.847
69.0, -43.717559814453125, 196.197021484375, 99.66646575927734, 309.58331298828125, 0.04800000041723251, -0.01600000075995922, 1.055999994277954, 0.0, 0.0, 0.0, 0.0, 0.0, 1.6212573738479984E9, 2021-05-17 15:16:13.847
69.0, -56.795989990234375, 181.66751098632812, 83.80554962158203, 291.9459533691406, 0.04800000041723251, -0.01600000075995922, 1.055999994277954, 0.0, 0.0, 0.0, 0.0, 0.0, 1.6212573738479984E9, 2021-05-17 15:16:13.847
70.0, -57.11762237548828, 189.412841796875, 91.49104309082031, 291.5121154785156, 0.04800000041723251, -0.01600000075995922, 1.055999994277954, 0.0, 0.0, 0.0, 0.0, 0.0, 1.6212573738616495E9, 2021-05-17 15:16:13.861
70.0, -55.34864807128906, 190.28424072265625, 94.10523223876953, 295.6708679199219, 0.04800000041723251, -0.01600000075995922, 1.055999994277954, 0.0, 0.0, 0.0, 0.0, 0.0, 1.6212573738616495E9, 2021-05-17 15:16:13.861
71.0, -48.841224670410156, 200.12017822265625, 98.3761978149414, 291.42608642578125, 0.04800000041723251, -0.01600000075995922, 1.055999994277954, 0.0, 0.0, 0.0, 0.0, 0.0, 1.6212573738772588E9, 2021-05-17 15:16:13.877
71.0, -61.332489013671875, 192.87225341796875, 86.68527221679688, 271.9112854003906, 0.04800000041723251, -0.01600000075995922, 1.055999994277954, 0.0, 0.0, 0.0, 0.0, 0.0, 1.6212573738772588E9, 2021-05-17 15:16:13.877
72.0, -63.1126823425293, 191.23043823242188, 87.3734130859375, 274.0766906738281, 0.04800000041723251, -0.01600000075995922, 1.055999994277954, 0.0, 0.0, 0.0, 0.0, 0.0, 1.6212573738779893E9, 2021-05-17 15:16:13.877
72.0, -46.122314453125, 210.270263671875, 102.77432250976562, 295.25201416015625, 0.04800000041723251, -0.01600000075995922, 1.055999994277954, 0.0, 0.0, 0.0, 0.0, 0.0, 1.6212573738779893E9, 2021-05-17 15:16:13.877
73.0, -41.64939498901367, 211.8522491455078, 103.27920532226562, 298.63287353515625, 0.04800000041723251, -0.01600000075995922, 1.055999994277954, 0.0, 0.0, 0.0, 0.0, 0.0, 1.6212573738916636E9, 2021-05-17 15:16:13.891
73.0, -51.33573532104492, 203.35519409179688, 95.12248229980469, 296.246826171875, 0.04800000041723251, -0.01600000075995922, 1.055999994277954, 0.0, 0.0, 0.0, 0.0, 0.0, 1.6212573738916636E9, 2021-05-17 15:16:13.891
74.0, -59.42887878417969, 199.86585998535156, 90.15963745117188, 301.3742370605469, 0.04800000041723251, -0.01600000075995922, 1.055999994277954, 0.0, 0.0, 0.0, 0.0, 0.0, 1.621257373907302E9, 2021-05-17 15:16:13.907
74.0, -45.07888412475586, 210.42359924316406, 99.42710876464844, 315.98974609375, 0.04800000041723251, -0.01600000075995922, 1.055999994277954, 0.0, 0.0, 0.0, 0.0, 0.0, 1.621257373907302E9, 2021-05-17 15:16:13.907
75.0, -45.542633056640625, 211.38101196289062, 95.24964141845703, 309.10833740234375, 0.04800000041723251, -0.01600000075995922, 1.055999994277954, 0.0, 0.0, 0.0, 0.0, 0.0, 1.6212573739080727E9, 2021-05-17 15:16:13.908
75.0, -56.17890548706055, 199.1627655029297, 91.32274627685547, 302.4924621582031, 0.04800000041723251, -0.01600000075995922, 1.055999994277954, 0.0, 0.0, 0.0, 0.0, 0.0, 1.6212573739080727E9, 2021-05-17 15:16:13.908
76.0, -61.93461227416992, 198.37738037109375, 90.27557373046875, 296.938720703125, 0.04800000041723251, -0.01600000075995922, 1.055999994277954, 0.0, 0.0, 0.0, 0.0, 0.0, 1.6212573739370255E9, 2021-05-17 15:16:13.937
76.0, -49.263832092285156, 208.89772033691406, 98.86238861083984, 312.3321228027344, 0.04800000041723251, -0.01600000075995922, 1.055999994277954, 0.0, 0.0, 0.0, 0.0, 0.0, 1.6212573739370255E9, 2021-05-17 15:16:13.937
77.0, -51.18988037109375, 206.42938232421875, 102.80423736572266, 315.08843994140625, 0.04800000041723251, -0.01600000075995922, 1.055999994277954, 0.0, 0.0, 0.0, 0.0, 0.0, 1.621257373953749E9, 2021-05-17 15:16:13.953
77.0, -60.93980026245117, 195.65847778320312, 92.17544555664062, 302.0549011230469, 0.04800000041723251, -0.01600000075995922, 1.055999994277954, 0.0, 0.0, 0.0, 0.0, 0.0, 1.621257373953749E9, 2021-05-17 15:16:13.953
78.0, -60.38255310058594, 184.2106475830078, 88.14009094238281, 295.1846923828125, 0.04800000041723251, -0.01600000075995922, 1.055999994277954, 0.0, 0.0, 0.0, 0.0, 0.0, 1.6212573739544826E9, 2021-05-17 15:16:13.954
78.0, -48.74398422241211, 195.83050537109375, 98.40985870361328, 301.1722717285156, 0.04800000041723251, -0.01600000075995922, 1.055999994277954, 0.0, 0.0, 0.0, 0.0, 0.0, 1.6212573739544826E9, 2021-05-17 15:16:13.954
79.0, -46.66834259033203, 200.44554138183594, 104.12816619873047, 306.3782043457031, 0.04800000041723251, -0.01600000075995922, 1.055999994277954, 0.0, 0.0, 0.0, 0.0, 0.0, 1.6212573739679916E9, 2021-05-17 15:16:13.967
79.0, -57.517791748046875, 186.1516571044922, 90.61216735839844, 286.17901611328125, 0.04800000041723251, -0.01600000075995922, 1.055999994277954, 0.0, 0.0, 0.0, 0.0, 0.0, 1.6212573739679916E9, 2021-05-17 15:16:13.967
80.0, -54.323917388916016, 181.1551513671875, 86.72640991210938, 281.8033447265625, 0.04800000041723251, -0.01600000075995922, 1.055999994277954, 0.0, 0.0, 0.0, 0.0, 0.0, 1.6212573739686987E9, 2021-05-17 15:16:13.968
80.0, -41.61573791503906, 186.5293731689453, 99.55052947998047, 294.6461486816406, 0.04800000041723251, -0.01600000075995922, 1.055999994277954, 0.0, 0.0, 0.0, 0.0, 0.0, 1.6212573739686987E9, 2021-05-17 15:16:13.968
81.0, -38.30218505859375, 197.5209503173828, 102.9538345336914, 290.1134033203125, 0.04800000041723251, -0.01600000075995922, 1.055999994277954, 0.0, 0.0, 0.0, 0.0, 0.0, 1.6212573739694426E9, 2021-05-17 15:16:13.969
81.0, -55.98069381713867, 182.21353149414062, 86.27388000488281, 276.0214538574219, 0.04800000041723251, -0.01600000075995922, 1.055999994277954, 0.0, 0.0, 0.0, 0.0, 0.0, 1.6212573739694426E9, 2021-05-17 15:16:13.969
82.0, -46.50004577636719, 188.33575439453125, 94.6849136352539, 285.5207824707031, 0.03200000151991844, -0.01600000075995922, 1.055999994277954, 0.0, 0.0, 0.0, 0.0, 0.0, 1.6212573739815886E9, 2021-05-17 15:16:13.981
82.0, -43.37348937988281, 200.57644653320312, 100.62761688232422, 300.68609619140625, 0.03200000151991844, -0.01600000075995922, 1.055999994277954, 0.0, 0.0, 0.0, 0.0, 0.0, 1.6212573739815886E9, 2021-05-17 15:16:13.981
83.0, -40.96499252319336, 202.4725799560547, 101.73088836669922, 311.23260498046875, 0.03200000151991844, -0.01600000075995922, 1.055999994277954, 0.0, 0.0, 0.0, 0.0, 0.0, 1.6212573739969976E9, 2021-05-17 15:16:13.996
83.0, -49.1329345703125, 195.12741088867188, 92.7738265991211, 306.2286071777344, 0.03200000151991844, -0.01600000075995922, 1.055999994277954, 0.0, 0.0, 0.0, 0.0, 0.0, 1.6212573739969976E9, 2021-05-17 15:16:13.996
84.0, -52.790557861328125, 191.30897521972656, 88.30464935302734, 307.5226135253906, 0.03200000151991844, -0.01600000075995922, 1.055999994277954, 0.0, 0.0, 0.0, 0.0, 0.0, 1.621257374012386E9, 2021-05-17 15:16:14.012
84.0, -40.374088287353516, 202.476318359375, 100.60517883300781, 317.6427917480469, 0.03200000151991844, -0.01600000075995922, 1.055999994277954, 0.0, 0.0, 0.0, 0.0, 0.0, 1.621257374012386E9, 2021-05-17 15:16:14.012
85.0, -48.47097396850586, 206.0366973876953, 98.26026153564453, 319.4529113769531, 0.03200000151991844, -0.01600000075995922, 1.055999994277954, 0.0, 0.0, 0.0, 0.0, 0.0, 1.621257374013165E9, 2021-05-17 15:16:14.013
85.0, -60.8238639831543, 203.21307373046875, 87.70252227783203, 308.04620361328125, 0.03200000151991844, -0.01600000075995922, 1.055999994277954, 0.0, 0.0, 0.0, 0.0, 0.0, 1.621257374013165E9, 2021-05-17 15:16:14.013
86.0, -59.23814392089844, 200.6362762451172, 87.4332504272461, 304.0108642578125, 0.03200000151991844, -0.01600000075995922, 1.055999994277954, 0.0, 0.0, 0.0, 0.0, 0.0, 1.6212573740273545E9, 2021-05-17 15:16:14.027
86.0, -51.53021240234375, 210.67417907714844, 94.98784637451172, 313.4316711425781, 0.03200000151991844, -0.01600000075995922, 1.055999994277954, 0.0, 0.0, 0.0, 0.0, 0.0, 1.6212573740273545E9, 2021-05-17 15:16:14.027
87.0, -57.71226501464844, 212.42445373535156, 93.06179809570312, 305.59283447265625, 0.03200000151991844, -0.01600000075995922, 1.055999994277954, 0.0, 0.0, 0.0, 0.0, 0.0, 1.6212573740281558E9, 2021-05-17 15:16:14.028
87.0, -68.70008850097656, 200.75596618652344, 80.37606048583984, 295.7232360839844, 0.03200000151991844, -0.01600000075995922, 1.055999994277954, 0.0, 0.0, 0.0, 0.0, 0.0, 1.6212573740281558E9, 2021-05-17 15:16:14.028
88.0, -64.56376647949219, 193.02932739257812, 81.16517639160156, 291.6654357910156, 0.03200000151991844, -0.01600000075995922, 1.055999994277954, 0.0, 0.0, 0.0, 0.0, 0.0, 1.6212573740415938E9, 2021-05-17 15:16:14.041
88.0, -51.60126876831055, 197.6032257080078, 95.2608642578125, 303.0497131347656, 0.03200000151991844, -0.01600000075995922, 1.055999994277954, 0.0, 0.0, 0.0, 0.0, 0.0, 1.6212573740415938E9, 2021-05-17 15:16:14.041
89.0, -43.55300521850586, 212.4207000732422, 107.80448913574219, 310.4547119140625, 0.03200000151991844, -0.01600000075995922, 1.055999994277954, 0.0, 0.0, 0.0, 0.0, 0.0, 1.621257374057191E9, 2021-05-17 15:16:14.057
89.0, -56.55289840698242, 193.7361602783203, 92.40731811523438, 285.718994140625, 0.03200000151991844, -0.01600000075995922, 1.055999994277954, 0.0, 0.0, 0.0, 0.0, 0.0, 1.621257374057191E9, 2021-05-17 15:16:14.057
90.0, -48.58317184448242, 190.6881561279297, 93.24879455566406, 282.48773193359375, 0.03200000151991844, -0.01600000075995922, 1.055999994277954, 0.0, 0.0, 0.0, 0.0, 0.0, 1.6212573740723016E9, 2021-05-17 15:16:14.072
90.0, -37.26249313354492, 192.88720703125, 96.84284210205078, 288.1723937988281, 0.03200000151991844, -0.01600000075995922, 1.055999994277954, 0.0, 0.0, 0.0, 0.0, 0.0, 1.6212573740723016E9, 2021-05-17 15:16:14.072
91.0, -38.96040725708008, 202.23321533203125, 96.52120971679688, 290.91748046875, 0.03200000151991844, -0.01600000075995922, 1.055999994277954, 0.0, 0.0, 0.0, 0.0, 0.0, 1.62125737407303E9, 2021-05-17 15:16:14.073
91.0, -54.77644348144531, 193.1490020751953, 87.02186584472656, 276.71331787109375, 0.03200000151991844, -0.01600000075995922, 1.055999994277954, 0.0, 0.0, 0.0, 0.0, 0.0, 1.62125737407303E9, 2021-05-17 15:16:14.073
92.0, -45.32571792602539, 197.4237060546875, 89.83052825927734, 282.52886962890625, 0.03200000151991844, -0.01600000075995922, 1.055999994277954, 0.0, 0.0, 0.0, 0.0, 0.0, 1.6212573740874028E9, 2021-05-17 15:16:14.087
92.0, -41.712974548339844, 200.28472900390625, 96.24445343017578, 296.7030944824219, 0.03200000151991844, -0.01600000075995922, 1.055999994277954, 0.0, 0.0, 0.0, 0.0, 0.0, 1.6212573740874028E9, 2021-05-17 15:16:14.087
93.0, -36.72768783569336, 206.48175048828125, 104.7377700805664, 303.524658203125, 0.03200000151991844, -0.01600000075995922, 1.055999994277954, 0.0, 0.0, 0.0, 0.0, 0.0, 1.6212573740880537E9, 2021-05-17 15:16:14.088
93.0, -51.223541259765625, 191.67922973632812, 91.9697494506836, 288.97271728515625, 0.03200000151991844, -0.01600000075995922, 1.055999994277954, 0.0, 0.0, 0.0, 0.0, 0.0, 1.6212573740880537E9, 2021-05-17 15:16:14.088
94.0, -45.7296257019043, 188.2646942138672, 95.05142974853516, 295.7531433105469, 0.03200000151991844, -0.01600000075995922, 1.055999994277954, 0.0, 0.0, 0.0, 0.0, 0.0, 1.6212573741016138E9, 2021-05-17 15:16:14.101
94.0, -35.66929626464844, 207.48777770996094, 110.63185119628906, 306.8980712890625, 0.03200000151991844, -0.01600000075995922, 1.055999994277954, 0.0, 0.0, 0.0, 0.0, 0.0, 1.6212573741016138E9, 2021-05-17 15:16:14.101
95.0, -34.513668060302734, 208.93138122558594, 109.38272094726562, 310.7912902832031, 0.03200000151991844, -0.01600000075995922, 1.055999994277954, 0.0, 0.0, 0.0, 0.0, 0.0, 1.621257374117896E9, 2021-05-17 15:16:14.117
95.0, -45.38929748535156, 199.5030975341797, 102.69578552246094, 300.9478759765625, 0.03200000151991844, -0.01600000075995922, 1.055999994277954, 0.0, 0.0, 0.0, 0.0, 0.0, 1.621257374117896E9, 2021-05-17 15:16:14.117
96.0, -53.54227828979492, 197.19931030273438, 100.44062042236328, 296.51611328125, 0.03200000151991844, -0.01600000075995922, 1.055999994277954, 0.0, 0.0, 0.0, 0.0, 0.0, 1.6212573741323082E9, 2021-05-17 15:16:14.132
96.0, -41.095890045166016, 201.56378173828125, 114.39044952392578, 311.4869079589844, 0.03200000151991844, -0.01600000075995922, 1.055999994277954, 0.0, 0.0, 0.0, 0.0, 0.0, 1.6212573741323082E9, 2021-05-17 15:16:14.132
97.0, -47.008670806884766, 204.54074096679688, 109.36028289794922, 307.3954772949219, 0.03200000151991844, -0.01600000075995922, 1.055999994277954, 0.0, 0.0, 0.0, 0.0, 0.0, 1.621257374133046E9, 2021-05-17 15:16:14.133
97.0, -68.96562194824219, 191.8737030029297, 94.58393859863281, 287.4617919921875, 0.03200000151991844, -0.01600000075995922, 1.055999994277954, 0.0, 0.0, 0.0, 0.0, 0.0, 1.621257374133046E9, 2021-05-17 15:16:14.133
98.0, -64.17481231689453, 193.9119415283203, 94.85694885253906, 289.69451904296875, 0.03200000151991844, -0.01600000075995922, 1.055999994277954, 0.0, 0.0, 0.0, 0.0, 0.0, 1.6212573741472824E9, 2021-05-17 15:16:14.147
98.0, -56.05175018310547, 205.0979766845703, 104.3974380493164, 298.101806640625, 0.03200000151991844, -0.01600000075995922, 1.055999994277954, 0.0, 0.0, 0.0, 0.0, 0.0, 1.6212573741472824E9, 2021-05-17 15:16:14.147
99.0, -41.29784393310547, 212.90689086914062, 111.82862091064453, 300.66363525390625, 0.03200000151991844, -0.01600000075995922, 1.055999994277954, 0.0, 0.0, 0.0, 0.0, 0.0, 1.6212573741480157E9, 2021-05-17 15:16:14.148
99.0, -58.463985443115234, 200.84197998046875, 91.09461212158203, 274.532958984375, 0.03200000151991844, -0.01600000075995922, 1.055999994277954, 0.0, 0.0, 0.0, 0.0, 0.0, 1.6212573741480157E9, 2021-05-17 15:16:14.148
100.0, -52.697059631347656, 198.38111877441406, 94.18750762939453, 272.8126220703125, 0.03200000151991844, -0.01600000075995922, 1.055999994277954, 0.0, 0.0, 0.0, 0.0, 0.0, 1.621257374162286E9, 2021-05-17 15:16:14.162
100.0, -35.47481918334961, 202.78298950195312, 104.76020812988281, 279.7426452636719, 0.03200000151991844, -0.01600000075995922, 1.055999994277954, 0.0, 0.0, 0.0, 0.0, 0.0, 1.621257374162286E9, 2021-05-17 15:16:14.162
0.0, -39.050167083740234, 202.66143798828125, 100.33590698242188, 282.35870361328125, 0.03200000151991844, -0.01600000075995922, 1.055999994277954, 0.0, 0.0, 0.0, 0.0, 0.0, 1.62125737416301E9, 2021-05-17 15:16:14.163
1.0, -51.167442321777344, 196.8459014892578, 81.32225799560547, 269.1531066894531, 0.03200000151991844, -0.01600000075995922, 1.055999994277954, 0.0, 0.0, 0.0, 0.0, 0.0, 1.6212573741766522E9, 2021-05-17 15:16:14.176
1.0, -48.97959899902344, 200.59327697753906, 81.91690063476562, 279.890380859375, 0.03200000151991844, -0.01600000075995922, 1.055999994277954, 0.0, 0.0, 0.0, 0.0, 0.0, 1.6212573741766522E9, 2021-05-17 15:16:14.176
2.0, -37.44574737548828, 207.65420532226562, 94.68865966796875, 298.4515075683594, 0.03200000151991844, -0.01600000075995922, 1.055999994277954, 0.0, 0.0, 0.0, 0.0, 0.0, 1.6212573741923625E9, 2021-05-17 15:16:14.192
2.0, -44.1326904296875, 212.0448455810547, 96.74934387207031, 303.47418212890625, 0.03200000151991844, -0.01600000075995922, 1.055999994277954, 0.0, 0.0, 0.0, 0.0, 0.0, 1.6212573741923625E9, 2021-05-17 15:16:14.192
3.0, -58.987571716308594, 199.93130493164062, 83.22212219238281, 290.4593200683594, 0.03200000151991844, -0.01600000075995922, 1.055999994277954, 0.0, 0.0, 0.0, 0.0, 0.0, 1.6212573741930819E9, 2021-05-17 15:16:14.193
3.0, -55.9058952331543, 195.20782470703125, 81.17639923095703, 295.4707946777344, 0.03200000151991844, -0.01600000075995922, 1.055999994277954, 0.0, 0.0, 0.0, 0.0, 0.0, 1.6212573741930819E9, 2021-05-17 15:16:14.193
4.0, -48.85618209838867, 202.19769287109375, 98.23782348632812, 304.1099548339844, 0.03200000151991844, -0.01600000075995922, 1.055999994277954, 0.0, 0.0, 0.0, 0.0, 0.0, 1.6212573742066085E9, 2021-05-17 15:16:14.206
4.0, -43.07429885864258, 209.853271484375, 104.97711944580078, 304.6522521972656, 0.03200000151991844, -0.01600000075995922, 1.055999994277954, 0.0, 0.0, 0.0, 0.0, 0.0, 1.6212573742066085E9, 2021-05-17 15:16:14.206
5.0, -54.87742233276367, 196.47938537597656, 91.91365051269531, 288.9035339355469, 0.03200000151991844, -0.01600000075995922, 1.055999994277954, 0.0, 0.0, 0.0, 0.0, 0.0, 1.6212573742376823E9, 2021-05-17 15:16:14.237
5.0, -62.87706756591797, 192.892822265625, 91.1656723022461, 284.86444091796875, 0.03200000151991844, -0.01600000075995922, 1.055999994277954, 0.0, 0.0, 0.0, 0.0, 0.0, 1.6212573742376823E9, 2021-05-17 15:16:14.237
6.0, -46.933876037597656, 210.9976806640625, 108.9713363647461, 294.75274658203125, 0.03200000151991844, -0.01600000075995922, 1.055999994277954, 0.0, 0.0, 0.0, 0.0, 0.0, 1.6212573742534752E9, 2021-05-17 15:16:14.253
6.0, -44.61139678955078, 218.4886932373047, 112.8907470703125, 296.3309631347656, 0.03200000151991844, -0.01600000075995922, 1.055999994277954, 0.0, 0.0, 0.0, 0.0, 0.0, 1.6212573742534752E9, 2021-05-17 15:16:14.253
7.0, -58.09373474121094, 210.13375854492188, 98.55945587158203, 282.8187255859375, 0.03200000151991844, -0.01600000075995922, 1.055999994277954, 0.0, 0.0, 0.0, 0.0, 0.0, 1.6212573742541828E9, 2021-05-17 15:16:14.254
7.0, -67.02462005615234, 202.73623657226562, 94.94670867919922, 282.2203369140625, 0.03200000151991844, -0.01600000075995922, 1.055999994277954, 0.0, 0.0, 0.0, 0.0, 0.0, 1.6212573742541828E9, 2021-05-17 15:16:14.254
8.0, -50.89442825317383, 213.5333251953125, 111.25641632080078, 287.3888854980469, 0.03200000151991844, -0.01600000075995922, 1.055999994277954, 0.0, 0.0, 0.0, 0.0, 0.0, 1.6212573742549973E9, 2021-05-17 15:16:14.254
8.0, -43.90455627441406, 218.2904815673828, 111.97821807861328, 286.9026794433594, 0.03200000151991844, -0.01600000075995922, 1.055999994277954, 0.0, 0.0, 0.0, 0.0, 0.0, 1.6212573742549973E9, 2021-05-17 15:16:14.254
9.0, -55.86849594116211, 200.62693786621094, 96.7643051147461, 268.0760192871094, 0.03200000151991844, -0.01600000075995922, 1.055999994277954, 0.0, 0.0, 0.0, 0.0, 0.0, 1.6212573742673268E9, 2021-05-17 15:16:14.267
9.0, -54.308956146240234, 197.32460021972656, 91.93982696533203, 262.7092590332031, 0.03200000151991844, -0.01600000075995922, 1.055999994277954, 0.0, 0.0, 0.0, 0.0, 0.0, 1.6212573742673268E9, 2021-05-17 15:16:14.267
10.0, -40.56108474731445, 205.62718200683594, 107.0228500366211, 277.8932800292969, 0.03200000151991844, -0.01600000075995922, 1.055999994277954, 0.0, 0.0, 0.0, 0.0, 0.0, 1.6212573742680006E9, 2021-05-17 15:16:14.268
10.0, -33.23836135864258, 212.4038848876953, 111.22649383544922, 288.2079162597656, 0.03200000151991844, -0.01600000075995922, 1.055999994277954, 0.0, 0.0, 0.0, 0.0, 0.0, 1.6212573742680006E9, 2021-05-17 15:16:14.268
11.0, -45.75580596923828, 202.01817321777344, 96.32299041748047, 279.890380859375, 0.03200000151991844, -0.01600000075995922, 1.055999994277954, 0.0, 0.0, 0.0, 0.0, 0.0, 1.6212573742986689E9, 2021-05-17 15:16:14.298
11.0, -56.21256637573242, 196.05677795410156, 89.32563781738281, 282.8673400878906, 0.03200000151991844, -0.01600000075995922, 1.055999994277954, 0.0, 0.0, 0.0, 0.0, 0.0, 1.6212573742986689E9, 2021-05-17 15:16:14.298
12.0, -47.85015106201172, 209.0753631591797, 98.28643798828125, 298.3056335449219, 0.03200000151991844, -0.01600000075995922, 1.055999994277954, 0.0, 0.0, 0.0, 0.0, 0.0, 1.6212573742993631E9, 2021-05-17 15:16:14.299
12.0, -43.859676361083984, 208.316162109375, 104.8985824584961, 302.2848815917969, 0.03200000151991844, -0.01600000075995922, 1.055999994277954, 0.0, 0.0, 0.0, 0.0, 0.0, 1.6212573742993631E9, 2021-05-17 15:16:14.299
13.0, -57.97779846191406, 200.54466247558594, 91.70795440673828, 297.95782470703125, 0.03200000151991844, -0.01600000075995922, 1.055999994277954, 0.0, 0.0, 0.0, 0.0, 0.0, 1.6212573743001225E9, 2021-05-17 15:16:14.300
13.0, -61.721439361572266, 190.52920532226562, 85.9522476196289, 290.4181823730469, 0.03200000151991844, -0.01600000075995922, 1.055999994277954, 0.0, 0.0, 0.0, 0.0, 0.0, 1.6212573743001225E9, 2021-05-17 15:16:14.300
14.0, -44.5440788269043, 206.77159118652344, 103.36148834228516, 306.8101806640625, 0.03200000151991844, -0.01600000075995922, 1.055999994277954, 0.0, 0.0, 0.0, 0.0, 0.0, 1.6212573743008633E9, 2021-05-17 15:16:14.300
14.0, -47.60331726074219, 199.17959594726562, 99.06807708740234, 306.66058349609375, 0.03200000151991844, -0.01600000075995922, 1.055999994277954, 0.0, 0.0, 0.0, 0.0, 0.0, 1.6212573743008633E9, 2021-05-17 15:16:14.300
15.0, -61.897212982177734, 193.42762756347656, 87.51927185058594, 286.9139099121094, 0.03200000151991844, -0.01600000075995922, 1.055999994277954, 0.0, 0.0, 0.0, 0.0, 0.0, 1.621257374311602E9, 2021-05-17 15:16:14.311
15.0, -66.05598449707031, 193.9549560546875, 80.97444152832031, 285.3768005371094, 0.03200000151991844, -0.01600000075995922, 1.055999994277954, 0.0, 0.0, 0.0, 0.0, 0.0, 1.621257374311602E9, 2021-05-17 15:16:14.311
16.0, -52.82047653198242, 198.7831573486328, 100.69120025634766, 294.6741943359375, 0.03200000151991844, -0.01600000075995922, 1.055999994277954, 0.0, 0.0, 0.0, 0.0, 0.0, 1.6212573743266556E9, 2021-05-17 15:16:14.326
16.0, -53.69187545776367, 204.62863159179688, 100.58647918701172, 287.9909973144531, 0.03200000151991844, -0.01600000075995922, 1.055999994277954, 0.0, 0.0, 0.0, 0.0, 0.0, 1.6212573743266556E9, 2021-05-17 15:16:14.326
17.0, -65.64833068847656, 203.13641357421875, 94.84573364257812, 276.064453125, 0.03200000151991844, -0.01600000075995922, 1.055999994277954, 0.0, 0.0, 0.0, 0.0, 0.0, 1.6212573743430603E9, 2021-05-17 15:16:14.343
17.0, -58.295692443847656, 197.28346252441406, 93.09172058105469, 274.6283264160156, 0.03200000151991844, -0.01600000075995922, 1.055999994277954, 0.0, 0.0, 0.0, 0.0, 0.0, 1.6212573743430603E9, 2021-05-17 15:16:14.343
18.0, -49.4620475769043, 213.3538055419922, 102.9089584350586, 276.1542053222656, 0.03200000151991844, -0.01600000075995922, 1.055999994277954, 0.0, 0.0, 0.0, 0.0, 0.0, 1.6212573743437052E9, 2021-05-17 15:16:14.343
18.0, -44.955467224121094, 213.9671630859375, 102.59480285644531, 280.1970520019531, 0.03200000151991844, -0.01600000075995922, 1.055999994277954, 0.0, 0.0, 0.0, 0.0, 0.0, 1.6212573743437052E9, 2021-05-17 15:16:14.343
19.0, -56.141510009765625, 198.88787841796875, 88.19245147705078, 268.4013977050781, 0.03200000151991844, -0.01600000075995922, 1.055999994277954, 0.0, 0.0, 0.0, 0.0, 0.0, 1.6212573743566327E9, 2021-05-17 15:16:14.356
19.0, -70.02401733398438, 190.7274169921875, 79.04839324951172, 271.32598876953125, 0.03200000151991844, -0.01600000075995922, 1.055999994277954, 0.0, 0.0, 0.0, 0.0, 0.0, 1.6212573743566327E9, 2021-05-17 15:16:14.356
20.0, -50.15766906738281, 207.7252655029297, 96.827880859375, 294.0533752441406, 0.03200000151991844, -0.01600000075995922, 1.055999994277954, 0.0, 0.0, 0.0, 0.0, 0.0, 1.6212573743888104E9, 2021-05-17 15:16:14.388
20.0, -52.076236724853516, 208.51063537597656, 99.20271301269531, 303.3058776855469, 0.03200000151991844, -0.01600000075995922, 1.055999994277954, 0.0, 0.0, 0.0, 0.0, 0.0, 1.6212573743888104E9, 2021-05-17 15:16:14.388
21.0, -68.72627258300781, 196.06051635742188, 81.68502807617188, 292.4714050292969, 0.03200000151991844, -0.01600000075995922, 1.055999994277954, 0.0, 0.0, 0.0, 0.0, 0.0, 1.6212573743894656E9, 2021-05-17 15:16:14.389
21.0, -69.1638412475586, 193.40518188476562, 73.8648910522461, 294.292724609375, 0.03200000151991844, -0.01600000075995922, 1.055999994277954, 0.0, 0.0, 0.0, 0.0, 0.0, 1.6212573743894656E9, 2021-05-17 15:16:14.389
22.0, -62.24876403808594, 203.48048400878906, 85.69046020507812, 311.7655334472656, 0.03200000151991844, -0.01600000075995922, 1.055999994277954, 0.0, 0.0, 0.0, 0.0, 0.0, 1.6212573743902054E9, 2021-05-17 15:16:14.390
22.0, -49.450828552246094, 209.80838012695312, 94.52783966064453, 318.5235290527344, 0.03200000151991844, -0.01600000075995922, 1.055999994277954, 0.0, 0.0, 0.0, 0.0, 0.0, 1.6212573743902054E9, 2021-05-17 15:16:14.390
23.0, -63.93172073364258, 199.56106567382812, 83.2408218383789, 298.9302062988281, 0.03200000151991844, -0.01600000075995922, 1.055999994277954, 0.0, 0.0, 0.0, 0.0, 0.0, 1.6212573743909545E9, 2021-05-17 15:16:14.390
23.0, -65.55857849121094, 198.1062469482422, 79.16807556152344, 298.3692321777344, 0.03200000151991844, -0.01600000075995922, 1.055999994277954, 0.0, 0.0, 0.0, 0.0, 0.0, 1.6212573743909545E9, 2021-05-17 15:16:14.390
24.0, -57.29713821411133, 202.86338806152344, 92.2091064453125, 305.0636291503906, 0.03200000151991844, -0.01600000075995922, 1.055999994277954, 0.0, 0.0, 0.0, 0.0, 0.0, 1.6212573744173071E9, 2021-05-17 15:16:14.417
24.0, -57.91796112060547, 211.719482421875, 102.8678207397461, 309.4168701171875, 0.03200000151991844, -0.01600000075995922, 1.055999994277954, 0.0, 0.0, 0.0, 0.0, 0.0, 1.6212573744173071E9, 2021-05-17 15:16:14.417
25.0, -71.81169128417969, 203.914306640625, 86.2888412475586, 289.0119934082031, 0.03200000151991844, -0.01600000075995922, 1.055999994277954, 0.0, 0.0, 0.0, 0.0, 0.0, 1.621257374417981E9, 2021-05-17 15:16:14.417
25.0, -72.35023498535156, 199.98367309570312, 82.28714752197266, 286.8166809082031, 0.03200000151991844, -0.01600000075995922, 1.055999994277954, 0.0, 0.0, 0.0, 0.0, 0.0, 1.621257374417981E9, 2021-05-17 15:16:14.417
26.0, -60.40873336791992, 212.29168701171875, 101.22974395751953, 294.5993957519531, 0.03200000151991844, -0.01600000075995922, 1.055999994277954, 0.0, 0.0, 0.0, 0.0, 0.0, 1.6212573744323227E9, 2021-05-17 15:16:14.432
26.0, -50.41197967529297, 216.10264587402344, 103.76165771484375, 291.82440185546875, 0.03200000151991844, -0.01600000075995922, 1.055999994277954, 0.0, 0.0, 0.0, 0.0, 0.0, 1.6212573744323227E9, 2021-05-17 15:16:14.432
27.0, -71.1759033203125, 196.27743530273438, 84.59092712402344, 270.1890869140625, 0.03200000151991844, -0.01600000075995922, 1.055999994277954, 0.0, 0.0, 0.0, 0.0, 0.0, 1.6212573744330473E9, 2021-05-17 15:16:14.433
27.0, -65.62589263916016, 201.70028686523438, 90.0661392211914, 269.37750244140625, 0.03200000151991844, -0.01600000075995922, 1.055999994277954, 0.0, 0.0, 0.0, 0.0, 0.0, 1.6212573744330473E9, 2021-05-17 15:16:14.433
28.0, -53.14958953857422, 213.63804626464844, 103.8177490234375, 288.4173583984375, 0.03200000151991844, -0.01600000075995922, 1.055999994277954, 0.0, 0.0, 0.0, 0.0, 0.0, 1.6212573744465747E9, 2021-05-17 15:16:14.446
28.0, -52.23705291748047, 213.3538055419922, 100.10403442382812, 288.6305236816406, 0.03200000151991844, -0.01600000075995922, 1.055999994277954, 0.0, 0.0, 0.0, 0.0, 0.0, 1.6212573744465747E9, 2021-05-17 15:16:14.446
29.0, -60.816383361816406, 201.71897888183594, 84.23189544677734, 286.1958312988281, 0.03200000151991844, -0.01600000075995922, 1.055999994277954, 0.0, 0.0, 0.0, 0.0, 0.0, 1.6212573744629583E9, 2021-05-17 15:16:14.462
29.0, -64.7918930053711, 190.2599334716797, 79.05587768554688, 278.7235107421875, 0.03200000151991844, -0.01600000075995922, 1.055999994277954, 0.0, 0.0, 0.0, 0.0, 0.0, 1.6212573744629583E9, 2021-05-17 15:16:14.462
30.0, -55.24393081665039, 203.7086181640625, 86.10932922363281, 306.59326171875, 0.03200000151991844, -0.01600000075995922, 1.055999994277954, 0.0, 0.0, 0.0, 0.0, 0.0, 1.621257374463676E9, 2021-05-17 15:16:14.463
30.0, -51.25345993041992, 207.5158233642578, 87.46691131591797, 309.5141296386719, 0.03200000151991844, -0.01600000075995922, 1.055999994277954, 0.0, 0.0, 0.0, 0.0, 0.0, 1.621257374463676E9, 2021-05-17 15:16:14.463
31.0, -54.10700225830078, 201.0719757080078, 91.24420928955078, 302.7486267089844, 0.03200000151991844, -0.01600000075995922, 1.055999994277954, 0.0, 0.0, 0.0, 0.0, 0.0, 1.6212573744766104E9, 2021-05-17 15:16:14.476
31.0, -62.06924819946289, 189.42967224121094, 94.80459594726562, 296.8695068359375, 0.03200000151991844, -0.01600000075995922, 1.055999994277954, 0.0, 0.0, 0.0, 0.0, 0.0, 1.6212573744766104E9, 2021-05-17 15:16:14.476
32.0, -39.68968963623047, 205.4813232421875, 110.0970458984375, 310.75201416015625, 0.03200000151991844, -0.01600000075995922, 1.055999994277954, 0.0, 0.0, 0.0, 0.0, 0.0, 1.6212573745086696E9, 2021-05-17 15:16:14.508
32.0, -30.246440887451172, 206.64817810058594, 118.1490478515625, 314.3909606933594, 0.03200000151991844, -0.01600000075995922, 1.055999994277954, 0.0, 0.0, 0.0, 0.0, 0.0, 1.6212573745086696E9, 2021-05-17 15:16:14.508
33.0, -48.347557067871094, 189.95326232910156, 101.12128448486328, 294.457275390625, 0.03200000151991844, -0.01600000075995922, 1.055999994277954, 0.0, 0.0, 0.0, 0.0, 0.0, 1.6212573745093505E9, 2021-05-17 15:16:14.509
33.0, -54.084564208984375, 189.4446258544922, 99.66272735595703, 294.30767822265625, 0.03200000151991844, -0.01600000075995922, 1.055999994277954, 0.0, 0.0, 0.0, 0.0, 0.0, 1.6212573745093505E9, 2021-05-17 15:16:14.509
34.0, -40.7518196105957, 204.0825958251953, 109.61833953857422, 301.3424377441406, 0.03200000151991844, -0.01600000075995922, 1.055999994277954, 0.0, 0.0, 0.0, 0.0, 0.0, 1.6212573745101216E9, 2021-05-17 15:16:14.510
34.0, -50.39328384399414, 202.66891479492188, 105.46331024169922, 294.36004638671875, 0.03200000151991844, -0.01600000075995922, 1.055999994277954, 0.0, 0.0, 0.0, 0.0, 0.0, 1.6212573745101216E9, 2021-05-17 15:16:14.510
35.0, -67.2602310180664, 191.01539611816406, 91.60697937011719, 277.7474060058594, 0.03200000151991844, -0.01600000075995922, 1.055999994277954, 0.0, 0.0, 0.0, 0.0, 0.0, 1.621257374510898E9, 2021-05-17 15:16:14.510
35.0, -73.7452163696289, 199.73309326171875, 94.02669525146484, 270.3236999511719, 0.03200000151991844, -0.01600000075995922, 1.055999994277954, 0.0, 0.0, 0.0, 0.0, 0.0, 1.621257374510898E9, 2021-05-17 15:16:14.510
36.0, -70.06141662597656, 212.32908630371094, 106.43568420410156, 275.7016906738281, 0.03200000151991844, -0.01600000075995922, 1.055999994277954, 0.0, 0.0, 0.0, 0.0, 0.0, 1.621257374524423E9, 2021-05-17 15:16:14.524
36.0, -66.63566589355469, 212.07476806640625, 105.37355041503906, 270.1554260253906, 0.03200000151991844, -0.01600000075995922, 1.055999994277954, 0.0, 0.0, 0.0, 0.0, 0.0, 1.621257374524423E9, 2021-05-17 15:16:14.524
37.0, -77.48511505126953, 204.40797424316406, 95.26460266113281, 258.9319763183594, 0.03200000151991844, -0.01600000075995922, 1.055999994277954, 0.0, 0.0, 0.0, 0.0, 0.0, 1.6212573745366137E9, 2021-05-17 15:16:14.536
37.0, -81.65884399414062, 205.0961151123047, 92.86732482910156, 261.5349426269531, 0.03200000151991844, -0.01600000075995922, 1.055999994277954, 0.0, 0.0, 0.0, 0.0, 0.0, 1.6212573745366137E9, 2021-05-17 15:16:14.536
38.0, -63.206180572509766, 213.39120483398438, 103.04733276367188, 285.83306884765625, 0.03200000151991844, -0.01600000075995922, 1.055999994277954, 0.0, 0.0, 0.0, 0.0, 0.0, 1.6212573745523725E9, 2021-05-17 15:16:14.552
38.0, -53.179508209228516, 214.88343811035156, 108.94141387939453, 297.1163635253906, 0.03200000151991844, -0.01600000075995922, 1.055999994277954, 0.0, 0.0, 0.0, 0.0, 0.0, 1.6212573745523725E9, 2021-05-17 15:16:14.552
39.0, -56.82965087890625, 198.0950164794922, 94.46800231933594, 289.4084167480469, 0.03200000151991844, -0.01600000075995922, 1.055999994277954, 0.0, 0.0, 0.0, 0.0, 0.0, 1.621257374553084E9, 2021-05-17 15:16:14.553
39.0, -50.03425216674805, 192.12240600585938, 91.05721282958984, 296.9630126953125, 0.03200000151991844, -0.01600000075995922, 1.055999994277954, 0.0, 0.0, 0.0, 0.0, 0.0, 1.621257374553084E9, 2021-05-17 15:16:14.553
40.0, -37.647701263427734, 192.728271484375, 101.45039367675781, 311.2569274902344, 0.03200000151991844, -0.01600000075995922, 1.055999994277954, 0.0, 0.0, 0.0, 0.0, 0.0, 1.6212573745666368E9, 2021-05-17 15:16:14.566
40.0, -35.358882904052734, 200.017333984375, 100.50045776367188, 320.3186950683594, 0.03200000151991844, -0.01600000075995922, 1.055999994277954, 0.0, 0.0, 0.0, 0.0, 0.0, 1.6212573745666368E9, 2021-05-17 15:16:14.566
41.0, -54.15936279296875, 188.42738342285156, 89.33686065673828, 309.04290771484375, 0.03200000151991844, -0.01600000075995922, 1.055999994277954, 0.0, 0.0, 0.0, 0.0, 0.0, 1.6212573745823717E9, 2021-05-17 15:16:14.582
41.0, -56.23500442504883, 179.50772094726562, 80.67899322509766, 299.1097106933594, 0.03200000151991844, -0.01600000075995922, 1.055999994277954, 0.0, 0.0, 0.0, 0.0, 0.0, 1.6212573745823717E9, 2021-05-17 15:16:14.582
42.0, -52.71950149536133, 188.03843688964844, 93.54425048828125, 300.747802734375, 0.03200000151991844, -0.01600000075995922, 1.055999994277954, 0.0, 0.0, 0.0, 0.0, 0.0, 1.6212573745830529E9, 2021-05-17 15:16:14.583
42.0, -43.07803726196289, 193.11721801757812, 100.25363159179688, 302.7149963378906, 0.03200000151991844, -0.01600000075995922, 1.055999994277954, 0.0, 0.0, 0.0, 0.0, 0.0, 1.6212573745830529E9, 2021-05-17 15:16:14.583
43.0, -59.04740905761719, 188.1132354736328, 93.38716888427734, 285.0102844238281, 0.03200000151991844, -0.01600000075995922, 1.055999994277954, 0.0, 0.0, 0.0, 0.0, 0.0, 1.621257374596609E9, 2021-05-17 15:16:14.596
43.0, -58.53130340576172, 193.3603057861328, 96.05371856689453, 283.6340026855469, 0.03200000151991844, -0.01600000075995922, 1.055999994277954, 0.0, 0.0, 0.0, 0.0, 0.0, 1.621257374596609E9, 2021-05-17 15:16:14.596
44.0, -49.405948638916016, 210.29083251953125, 106.7647933959961, 291.8804931640625, 0.03200000151991844, -0.01600000075995922, 1.055999994277954, 0.0, 0.0, 0.0, 0.0, 0.0, 1.6212573746286716E9, 2021-05-17 15:16:14.628
44.0, -57.69730758666992, 212.8638916015625, 106.85829162597656, 291.4653625488281, 0.03200000151991844, -0.01600000075995922, 1.055999994277954, 0.0, 0.0, 0.0, 0.0, 0.0, 1.6212573746286716E9, 2021-05-17 15:16:14.628
45.0, -75.56280517578125, 205.73190307617188, 96.55487060546875, 280.5373840332031, 0.03200000151991844, -0.01600000075995922, 1.055999994277954, 0.0, 0.0, 0.0, 0.0, 0.0, 1.6212573746293993E9, 2021-05-17 15:16:14.629
45.0, -74.27254486083984, 206.49484252929688, 93.80603790283203, 279.82305908203125, 0.03200000151991844, -0.01600000075995922, 1.055999994277954, 0.0, 0.0, 0.0, 0.0, 0.0, 1.6212573746293993E9, 2021-05-17 15:16:14.629
46.0, -67.6417007446289, 214.9395294189453, 98.62677001953125, 287.1981506347656, 0.03200000151991844, -0.01600000075995922, 1.055999994277954, 0.0, 0.0, 0.0, 0.0, 0.0, 1.6212573746301272E9, 2021-05-17 15:16:14.630
46.0, -61.298831939697266, 221.73492431640625, 105.28753662109375, 290.8707275390625, 0.03200000151991844, -0.01600000075995922, 1.055999994277954, 0.0, 0.0, 0.0, 0.0, 0.0, 1.6212573746301272E9, 2021-05-17 15:16:14.630
47.0, -74.32490539550781, 209.3820343017578, 88.57392120361328, 276.4010314941406, 0.03200000151991844, -0.01600000075995922, 1.055999994277954, 0.0, 0.0, 0.0, 0.0, 0.0, 1.6212573746308765E9, 2021-05-17 15:16:14.630
47.0, -71.17964935302734, 205.3205108642578, 87.99049377441406, 274.9387512207031, 0.03200000151991844, -0.01600000075995922, 1.055999994277954, 0.0, 0.0, 0.0, 0.0, 0.0, 1.6212573746308765E9, 2021-05-17 15:16:14.630
48.0, -43.0593376159668, 208.6938934326172, 108.32807159423828, 295.0145263671875, 0.03200000151991844, -0.01600000075995922, 1.055999994277954, 0.0, 0.0, 0.0, 0.0, 0.0, 1.6212573746416192E9, 2021-05-17 15:16:14.641
48.0, -32.63249588012695, 204.7146453857422, 107.14252471923828, 295.3436279296875, 0.03200000151991844, -0.01600000075995922, 1.055999994277954, 0.0, 0.0, 0.0, 0.0, 0.0, 1.6212573746416192E9, 2021-05-17 15:16:14.641
49.0, -37.131595611572266, 198.20347595214844, 100.69867706298828, 290.27606201171875, 0.03200000151991844, -0.01600000075995922, 1.055999994277954, 0.0, 0.0, 0.0, 0.0, 0.0, 1.6212573746565697E9, 2021-05-17 15:16:14.656
49.0, -40.467586517333984, 189.7176513671875, 95.53013610839844, 289.4271240234375, 0.03200000151991844, -0.01600000075995922, 1.055999994277954, 0.0, 0.0, 0.0, 0.0, 0.0, 1.6212573746565697E9, 2021-05-17 15:16:14.656
50.0, -27.262001037597656, 195.80245971679688, 106.18885040283203, 302.1689453125, 0.03200000151991844, -0.01600000075995922, 1.055999994277954, 0.0, 0.0, 0.0, 0.0, 0.0, 1.621257374672408E9, 2021-05-17 15:16:14.672
50.0, -28.705602645874023, 205.4364471435547, 113.37319946289062, 306.66058349609375, 0.03200000151991844, -0.01600000075995922, 1.055999994277954, 0.0, 0.0, 0.0, 0.0, 0.0, 1.621257374672408E9, 2021-05-17 15:16:14.672
51.0, -52.97755432128906, 189.63536071777344, 97.20561218261719, 290.79217529296875, 0.03200000151991844, -0.01600000075995922, 1.055999994277954, 0.0, 0.0, 0.0, 0.0, 0.0, 1.6212573746731205E9, 2021-05-17 15:16:14.673
51.0, -50.550357818603516, 185.16244506835938, 94.42312622070312, 286.51373291015625, 0.03200000151991844, -0.01600000075995922, 1.055999994277954, 0.0, 0.0, 0.0, 0.0, 0.0, 1.6212573746731205E9, 2021-05-17 15:16:14.673
52.0, -38.35828399658203, 194.3775634765625, 103.30912780761719, 295.6091613769531, 0.03200000151991844, -0.01600000075995922, 1.055999994277954, 0.0, 0.0, 0.0, 0.0, 0.0, 1.6212573746865633E9, 2021-05-17 15:16:14.686
52.0, -42.06078338623047, 203.7834014892578, 111.05072021484375, 295.91583251953125, 0.03200000151991844, -0.01600000075995922, 1.055999994277954, 0.0, 0.0, 0.0, 0.0, 0.0, 1.6212573746865633E9, 2021-05-17 15:16:14.686
53.0, -54.05838394165039, 187.05484008789062, 101.70096588134766, 284.3333740234375, 0.03200000151991844, -0.01600000075995922, 1.055999994277954, 0.0, 0.0, 0.0, 0.0, 0.0, 1.621257374702341E9, 2021-05-17 15:16:14.702
53.0, -54.85872268676758, 190.8545684814453, 98.90726470947266, 281.20306396484375, 0.03200000151991844, -0.01600000075995922, 1.055999994277954, 0.0, 0.0, 0.0, 0.0, 0.0, 1.621257374702341E9, 2021-05-17 15:16:14.702
54.0, -47.84640884399414, 198.28575134277344, 109.03117370605469, 282.1492614746094, 0.03200000151991844, -0.01600000075995922, 1.055999994277954, 0.0, 0.0, 0.0, 0.0, 0.0, 1.6212573747031598E9, 2021-05-17 15:16:14.703
54.0, -49.447086334228516, 209.2922821044922, 111.23771667480469, 283.5517272949219, 0.03200000151991844, -0.01600000075995922, 1.055999994277954, 0.0, 0.0, 0.0, 0.0, 0.0, 1.6212573747031598E9, 2021-05-17 15:16:14.703
55.0, -67.28266906738281, 199.08609008789062, 101.11006164550781, 275.6904602050781, 0.03200000151991844, -0.01600000075995922, 1.055999994277954, 0.0, 0.0, 0.0, 0.0, 0.0, 1.6212573747165675E9, 2021-05-17 15:16:14.716
55.0, -73.25528717041016, 205.06619262695312, 95.75078582763672, 275.1332092285156, 0.03200000151991844, -0.01600000075995922, 1.055999994277954, 0.0, 0.0, 0.0, 0.0, 0.0, 1.6212573747165675E9, 2021-05-17 15:16:14.716
56.0, -55.64036178588867, 217.91275024414062, 110.07086181640625, 287.2691955566406, 0.03200000151991844, -0.01600000075995922, 1.055999994277954, 0.0, 0.0, 0.0, 0.0, 0.0, 1.6212573747323675E9, 2021-05-17 15:16:14.732
56.0, -55.59174346923828, 216.65988159179688, 113.13758087158203, 284.890625, 0.03200000151991844, -0.01600000075995922, 1.055999994277954, 0.0, 0.0, 0.0, 0.0, 0.0, 1.6212573747323675E9, 2021-05-17 15:16:14.732
57.0, -60.180599212646484, 205.71693420410156, 100.57151794433594, 276.3449401855469, 0.03200000151991844, -0.01600000075995922, 1.055999994277954, 0.0, 0.0, 0.0, 0.0, 0.0, 1.6212573747330365E9, 2021-05-17 15:16:14.733
57.0, -61.332489013671875, 198.62608337402344, 99.9394760131836, 272.1487731933594, 0.03200000151991844, -0.01600000075995922, 1.055999994277954, 0.0, 0.0, 0.0, 0.0, 0.0, 1.6212573747330365E9, 2021-05-17 15:16:14.733
58.0, -46.7917594909668, 195.88099670410156, 106.58528137207031, 279.2695617675781, 0.03200000151991844, -0.01600000075995922, 1.055999994277954, 0.0, 0.0, 0.0, 0.0, 0.0, 1.6212573747466333E9, 2021-05-17 15:16:14.746
58.0, -42.45721435546875, 204.9764404296875, 116.33893585205078, 297.5277404785156, 0.03200000151991844, -0.01600000075995922, 1.055999994277954, 0.0, 0.0, 0.0, 0.0, 0.0, 1.6212573747466333E9, 2021-05-17 15:16:14.746
59.0, -59.6794548034668, 189.3399200439453, 93.51432800292969, 282.0557861328125, 0.03200000151991844, -0.01600000075995922, 1.055999994277954, 0.0, 0.0, 0.0, 0.0, 0.0, 1.621257374777978E9, 2021-05-17 15:16:14.777
59.0, -70.85801696777344, 184.35462951660156, 76.43046569824219, 284.00799560546875, 0.03200000151991844, -0.01600000075995922, 1.055999994277954, 0.0, 0.0, 0.0, 0.0, 0.0, 1.621257374777978E9, 2021-05-17 15:16:14.777
60.0, -44.66749572753906, 203.4019317626953, 92.83366394042969, 308.552978515625, 0.03200000151991844, -0.01600000075995922, 1.055999994277954, 0.0, 0.0, 0.0, 0.0, 0.0, 1.621257374794103E9, 2021-05-17 15:16:14.794
60.0, -46.53370666503906, 202.10794067382812, 94.26604461669922, 308.1004333496094, 0.03200000151991844, -0.01600000075995922, 1.055999994277954, 0.0, 0.0, 0.0, 0.0, 0.0, 1.621257374794103E9, 2021-05-17 15:16:14.794
61.0, -60.07588195800781, 190.63766479492188, 78.55098724365234, 292.766845703125, 0.03200000151991844, -0.01600000075995922, 1.055999994277954, 0.0, 0.0, 0.0, 0.0, 0.0, 1.6212573747948456E9, 2021-05-17 15:16:14.794
61.0, -62.27494430541992, 187.40638732910156, 82.64244079589844, 291.8917236328125, 0.03200000151991844, -0.01600000075995922, 1.055999994277954, 0.0, 0.0, 0.0, 0.0, 0.0, 1.6212573747948456E9, 2021-05-17 15:16:14.794
62.0, -47.666893005371094, 197.70233154296875, 102.12358093261719, 301.5705871582031, 0.03200000151991844, -0.01600000075995922, 1.055999994277954, 0.0, 0.0, 0.0, 0.0, 0.0, 1.6212573747955785E9, 2021-05-17 15:16:14.795
62.0, -54.91107940673828, 196.00067138671875, 103.26799011230469, 295.0145263671875, 0.03200000151991844, -0.01600000075995922, 1.055999994277954, 0.0, 0.0, 0.0, 0.0, 0.0, 1.6212573747955785E9, 2021-05-17 15:16:14.795
63.0, -64.69091796875, 187.27174377441406, 95.42915344238281, 279.9950866699219, 0.03200000151991844, -0.01600000075995922, 1.055999994277954, 0.0, 0.0, 0.0, 0.0, 0.0, 1.6212573748075888E9, 2021-05-17 15:16:14.807
63.0, -64.87043762207031, 189.25015258789062, 92.62049102783203, 273.9888000488281, 0.03200000151991844, -0.01600000075995922, 1.055999994277954, 0.0, 0.0, 0.0, 0.0, 0.0, 1.6212573748075888E9, 2021-05-17 15:16:14.807
64.0, -46.006378173828125, 198.3717803955078, 108.55620574951172, 287.52349853515625, 0.03200000151991844, -0.01600000075995922, 1.055999994277954, 0.0, 0.0, 0.0, 0.0, 0.0, 1.6212573748082128E9, 2021-05-17 15:16:14.808
64.0, -48.310157775878906, 197.2535400390625, 112.8084716796875, 292.7892761230469, 0.03200000151991844, -0.01600000075995922, 1.055999994277954, 0.0, 0.0, 0.0, 0.0, 0.0, 1.6212573748082128E9, 2021-05-17 15:16:14.808
65.0, -59.86644744873047, 196.61776733398438, 108.49636840820312, 285.59747314453125, 0.03200000151991844, -0.01600000075995922, 1.055999994277954, 0.0, 0.0, 0.0, 0.0, 0.0, 1.621257374822713E9, 2021-05-17 15:16:14.822
65.0, -57.83194351196289, 193.9923553466797, 105.13045501708984, 281.9435729980469, 0.03200000151991844, -0.01600000075995922, 1.055999994277954, 0.0, 0.0, 0.0, 0.0, 0.0, 1.621257374822713E9, 2021-05-17 15:16:14.822
66.0, -57.76836395263672, 198.34185791015625, 109.21068572998047, 287.179443359375, 0.03200000151991844, -0.01600000075995922, 1.055999994277954, 0.0, 0.0, 0.0, 0.0, 0.0, 1.6212573748373053E9, 2021-05-17 15:16:14.837
66.0, -48.355037689208984, 205.3616485595703, 116.71666717529297, 294.36004638671875, 0.03200000151991844, -0.01600000075995922, 1.055999994277954, 0.0, 0.0, 0.0, 0.0, 0.0, 1.6212573748373053E9, 2021-05-17 15:16:14.837
67.0, -71.68453216552734, 197.51907348632812, 105.59046173095703, 284.6250915527344, 0.03200000151991844, -0.01600000075995922, 1.055999994277954, 0.0, 0.0, 0.0, 0.0, 0.0, 1.6212573748380597E9, 2021-05-17 15:16:14.838
67.0, -70.24467468261719, 201.00466918945312, 100.72859191894531, 283.3722229003906, 0.03200000151991844, -0.01600000075995922, 1.055999994277954, 0.0, 0.0, 0.0, 0.0, 0.0, 1.6212573748380597E9, 2021-05-17 15:16:14.838
68.0, -59.92628860473633, 201.027099609375, 105.76250457763672, 294.5545349121094, 0.03200000151991844, -0.01600000075995922, 1.055999994277954, 0.0, 0.0, 0.0, 0.0, 0.0, 1.62125737485229E9, 2021-05-17 15:16:14.852
68.0, -52.99999237060547, 210.25717163085938, 111.81365966796875, 304.71209716796875, 0.03200000151991844, -0.01600000075995922, 1.055999994277954, 0.0, 0.0, 0.0, 0.0, 0.0, 1.62125737485229E9, 2021-05-17 15:16:14.852
69.0, -63.90180206298828, 193.50616455078125, 97.32528686523438, 285.0252685546875, 0.03200000151991844, -0.01600000075995922, 1.055999994277954, 0.0, 0.0, 0.0, 0.0, 0.0, 1.6212573748530052E9, 2021-05-17 15:16:14.853
69.0, -63.565208435058594, 196.9169464111328, 96.52120971679688, 289.2475891113281, 0.03200000151991844, -0.01600000075995922, 1.055999994277954, 0.0, 0.0, 0.0, 0.0, 0.0, 1.6212573748530052E9, 2021-05-17 15:16:14.853
70.0, -51.979000091552734, 193.10598754882812, 102.42276763916016, 297.83441162109375, 0.03200000151991844, -0.01600000075995922, 1.055999994277954, 0.0, 0.0, 0.0, 0.0, 0.0, 1.6212573748666117E9, 2021-05-17 15:16:14.866
70.0, -35.0297737121582, 197.8070526123047, 110.31769561767578, 309.8170471191406, 0.03200000151991844, -0.01600000075995922, 1.055999994277954, 0.0, 0.0, 0.0, 0.0, 0.0, 1.6212573748666117E9, 2021-05-17 15:16:14.866
71.0, -48.88984298706055, 186.67337036132812, 102.35545349121094, 296.47308349609375, 0.03200000151991844, -0.01600000075995922, 1.055999994277954, 0.0, 0.0, 0.0, 0.0, 0.0, 1.6212573748986893E9, 2021-05-17 15:16:14.898
71.0, -51.07768249511719, 182.78387451171875, 91.19558715820312, 294.7864074707031, 0.03200000151991844, -0.01600000075995922, 1.055999994277954, 0.0, 0.0, 0.0, 0.0, 0.0, 1.6212573748986893E9, 2021-05-17 15:16:14.898
72.0, -42.2664794921875, 189.7176513671875, 101.67852783203125, 299.5697326660156, 0.03200000151991844, -0.01600000075995922, 1.055999994277954, 0.0, 0.0, 0.0, 0.0, 0.0, 1.6212573748994439E9, 2021-05-17 15:16:14.899
72.0, -44.1439094543457, 194.63186645507812, 102.73318481445312, 297.6623840332031, 0.03200000151991844, -0.01600000075995922, 1.055999994277954, 0.0, 0.0, 0.0, 0.0, 0.0, 1.6212573748994439E9, 2021-05-17 15:16:14.899
73.0, -46.60476303100586, 191.18368530273438, 93.97807312011719, 283.4544982910156, 0.03200000151991844, -0.01600000075995922, 1.055999994277954, 0.0, 0.0, 0.0, 0.0, 0.0, 1.621257374900162E9, 2021-05-17 15:16:14.900
73.0, -53.833988189697266, 188.59567260742188, 95.97518157958984, 273.7382507324219, 0.03200000151991844, -0.01600000075995922, 1.055999994277954, 0.0, 0.0, 0.0, 0.0, 0.0, 1.621257374900162E9, 2021-05-17 15:16:14.900
74.0, -43.26129150390625, 200.6456298828125, 101.79072570800781, 284.9504699707031, 0.03200000151991844, -0.01600000075995922, 1.055999994277954, 0.0, 0.0, 0.0, 0.0, 0.0, 1.6212573749009068E9, 2021-05-17 15:16:14.900
74.0, -44.35708236694336, 206.4237823486328, 106.52918243408203, 291.076416015625, 0.03200000151991844, -0.01600000075995922, 1.055999994277954, 0.0, 0.0, 0.0, 0.0, 0.0, 1.6212573749009068E9, 2021-05-17 15:16:14.900
75.0, -59.40644073486328, 196.21759033203125, 94.00051879882812, 275.1332092285156, 0.03200000151991844, -0.01600000075995922, 1.055999994277954, 0.0, 0.0, 0.0, 0.0, 0.0, 1.6212573749115987E9, 2021-05-17 15:16:14.911
75.0, -70.40922546386719, 195.1666717529297, 93.96311950683594, 272.36944580078125, 0.03200000151991844, -0.01600000075995922, 1.055999994277954, 0.0, 0.0, 0.0, 0.0, 0.0, 1.6212573749115987E9, 2021-05-17 15:16:14.911
76.0, -64.5488052368164, 203.1887664794922, 104.70784759521484, 282.755126953125, 0.03200000151991844, -0.01600000075995922, 1.055999994277954, 0.0, 0.0, 0.0, 0.0, 0.0, 1.6212573749437268E9, 2021-05-17 15:16:14.943
