Sample Index, EXG Channel 0, EXG Channel 1, EXG Channel 2, EXG Channel 3, Accel Channel 0, Accel Channel 1, Accel Channel 2, Other, Other, Other, Other, Other, Timestamp, Timestamp (Formatted)
0.0, -46.249473571777344, -210.54327392578125, -115.37030029296875, 338.45721435546875, 0.0, 0.0, 0.0, 0.0, 0.0, 0.0, 0.0, 0.0, 1.621268774971164E9, 2021-05-17 18:26:14.971
1.0, -30.50823402404785, -191.3201904296875, -115.09355163574219, 348.9251708984375, 0.0, 0.0, 0.0, 0.0, 0.0, 0.0, 0.0, 0.0, 1.6212687749845927E9, 2021-05-17 18:26:14.984
1.0, -20.90791130065918, -180.8447265625, -106.2599105834961, 361.46881103515625, 0.0, 0.0, 0.0, 0.0, 0.0, 0.0, 0.0, 0.0, 1.6212687749845927E9, 2021-05-17 18:26:14.984
2.0, -33.9265022277832, -195.11245727539062, -108.36547088623047, 342.1297912597656, -0.06400000303983688, 0.0, 0.0, 0.0, 0.0, 0.0, 0.0, 0.0, 1.6212687750012653E9, 2021-05-17 18:26:15.001
2.0, -43.12665557861328, -201.2945098876953, -108.21961212158203, 337.81768798828125, -0.06400000303983688, 0.0, 0.0, 0.0, 0.0, 0.0, 0.0, 0.0, 1.6212687750012653E9, 2021-05-17 18:26:15.001
3.0, -32.647457122802734, -194.31211853027344, -109.44630432128906, 353.73095703125, -0.06400000303983688, 0.0, 0.0, 0.0, 0.0, 0.0, 0.0, 0.0, 1.6212687750020585E9, 2021-05-17 18:26:15.002
3.0, -27.957622528076172, -186.51068115234375, -103.52603912353516, 365.1788024902344, -0.06400000303983688, 0.0, 0.0, 0.0, 0.0, 0.0, 0.0, 0.0, 1.6212687750020585E9, 2021-05-17 18:26:15.002
4.0, -38.12641143798828, -205.58416748046875, -105.32867431640625, 350.2491149902344, -0.06400000303983688, 0.0, 0.0, 0.0, 0.0, 0.0, 0.0, 0.0, 1.621268775014464E9, 2021-05-17 18:26:15.014
4.0, -37.06053924560547, -204.26773071289062, -99.70012664794922, 346.59149169921875, -0.06400000303983688, 0.0, 0.0, 0.0, 0.0, 0.0, 0.0, 0.0, 1.621268775014464E9, 2021-05-17 18:26:15.014
5.0, -35.441162109375, -194.82821655273438, -102.24325561523438, 360.926513671875, -0.06400000303983688, 0.0, 0.0, 0.0, 0.0, 0.0, 0.0, 0.0, 1.6212687750301309E9, 2021-05-17 18:26:15.030
5.0, -30.50075340270996, -187.13523864746094, -103.51107788085938, 370.5567626953125, -0.06400000303983688, 0.0, 0.0, 0.0, 0.0, 0.0, 0.0, 0.0, 1.6212687750301309E9, 2021-05-17 18:26:15.030
6.0, -37.905757904052734, -195.75196838378906, -100.45184326171875, 356.4012451171875, -0.06400000303983688, 0.0, 0.0, 0.0, 0.0, 0.0, 0.0, 0.0, 1.6212687750309095E9, 2021-05-17 18:26:15.030
6.0, -38.477962493896484, -202.92135620117188, -98.88108825683594, 351.3822937011719, -0.06400000303983688, 0.0, 0.0, 0.0, 0.0, 0.0, 0.0, 0.0, 1.6212687750309095E9, 2021-05-17 18:26:15.030
7.0, -20.44790267944336, -190.64700317382812, -100.03297424316406, 365.20123291015625, -0.06400000303983688, 0.0, 0.0, 0.0, 0.0, 0.0, 0.0, 0.0, 1.6212687750443716E9, 2021-05-17 18:26:15.044
7.0, -9.160884857177734, -181.42816162109375, -95.08882904052734, 379.4951171875, -0.06400000303983688, 0.0, 0.0, 0.0, 0.0, 0.0, 0.0, 0.0, 1.6212687750443716E9, 2021-05-17 18:26:15.044
8.0, -28.02120018005371, -189.2744598388672, -88.09521484375, 365.9267578125, -0.06400000303983688, 0.0, 0.0, 0.0, 0.0, 0.0, 0.0, 0.0, 1.6212687750612223E9, 2021-05-17 18:26:15.061
8.0, -38.324623107910156, -200.06407165527344, -95.43289947509766, 353.62249755859375, -0.06400000303983688, 0.0, 0.0, 0.0, 0.0, 0.0, 0.0, 0.0, 1.6212687750612223E9, 2021-05-17 18:26:15.061
9.0, -25.751081466674805, -187.9729766845703, -97.1083755493164, 362.1569519042969, -0.06400000303983688, 0.0, 0.0, 0.0, 0.0, 0.0, 0.0, 0.0, 1.621268775075097E9, 2021-05-17 18:26:15.075
9.0, -25.01058006286621, -187.02679443359375, -105.27257537841797, 366.80938720703125, -0.06400000303983688, 0.0, 0.0, 0.0, 0.0, 0.0, 0.0, 0.0, 1.621268775075097E9, 2021-05-17 18:26:15.075
10.0, -31.592803955078125, -194.76463317871094, -95.61241149902344, 354.7444763183594, -0.06400000303983688, 0.0, 1.055999994277954, 0.0, 0.0, 0.0, 0.0, 0.0, 1.6212687750758677E9, 2021-05-17 18:26:15.075
10.0, -40.13847732543945, -203.38511657714844, -94.54653930664062, 345.3760070800781, -0.06400000303983688, 0.0, 1.055999994277954, 0.0, 0.0, 0.0, 0.0, 0.0, 1.6212687750758677E9, 2021-05-17 18:26:15.075
11.0, -28.499908447265625, -189.5100860595703, -93.42831420898438, 356.0721435546875, -0.06400000303983688, 0.0, 1.055999994277954, 0.0, 0.0, 0.0, 0.0, 0.0, 1.6212687750902383E9, 2021-05-17 18:26:15.090
11.0, -25.35091209411621, -184.8913116455078, -95.88168334960938, 367.7817687988281, -0.06400000303983688, 0.0, 1.055999994277954, 0.0, 0.0, 0.0, 0.0, 0.0, 1.6212687750902383E9, 2021-05-17 18:26:15.090
12.0, -31.125316619873047, -193.8296661376953, -89.37799835205078, 356.7191467285156, -0.06400000303983688, 0.0, 1.055999994277954, 0.0, 0.0, 0.0, 0.0, 0.0, 1.6212687750910027E9, 2021-05-17 18:26:15.091
12.0, -35.747833251953125, -203.4412078857422, -92.2315444946289, 353.9254455566406, -0.06400000303983688, 0.0, 1.055999994277954, 0.0, 0.0, 0.0, 0.0, 0.0, 1.6212687750910027E9, 2021-05-17 18:26:15.091
13.0, -36.00962829589844, -195.45652770996094, -95.51891326904297, 366.6672668457031, -0.06400000303983688, 0.0, 1.055999994277954, 0.0, 0.0, 0.0, 0.0, 0.0, 1.6212687751044352E9, 2021-05-17 18:26:15.104
13.0, -30.478315353393555, -176.12872314453125, -90.94127655029297, 377.3409423828125, -0.06400000303983688, 0.0, 1.055999994277954, 0.0, 0.0, 0.0, 0.0, 0.0, 1.6212687751044352E9, 2021-05-17 18:26:15.104
14.0, -43.80731964111328, -195.2620391845703, -92.54569244384766, 358.5142822265625, -0.06400000303983688, 0.0, 1.055999994277954, 0.0, 0.0, 0.0, 0.0, 0.0, 1.621268775120811E9, 2021-05-17 18:26:15.120
14.0, -46.066219329833984, -205.2139129638672, -95.19728088378906, 347.21978759765625, -0.06400000303983688, 0.0, 1.055999994277954, 0.0, 0.0, 0.0, 0.0, 0.0, 1.621268775120811E9, 2021-05-17 18:26:15.120
15.0, -32.67363739013672, -186.4807586669922, -93.36473083496094, 364.9506530761719, -0.06400000303983688, 0.0, 1.055999994277954, 0.0, 0.0, 0.0, 0.0, 0.0, 1.6212687751216514E9, 2021-05-17 18:26:15.121
15.0, -22.938676834106445, -179.46470642089844, -89.9427261352539, 376.5967102050781, -0.06400000303983688, 0.0, 1.055999994277954, 0.0, 0.0, 0.0, 0.0, 0.0, 1.6212687751216514E9, 2021-05-17 18:26:15.121
16.0, -36.14052200317383, -194.1625213623047, -83.05008697509766, 366.86175537109375, -0.06400000303983688, 0.0, 1.055999994277954, 0.0, 0.0, 0.0, 0.0, 0.0, 1.6212687751344624E9, 2021-05-17 18:26:15.134
16.0, -39.70090866088867, -199.248779296875, -86.3337173461914, 354.5163269042969, -0.06400000303983688, 0.0, 1.055999994277954, 0.0, 0.0, 0.0, 0.0, 0.0, 1.6212687751344624E9, 2021-05-17 18:26:15.134
17.0, -23.26778793334961, -187.06793212890625, -89.27328491210938, 362.2093200683594, -0.06400000303983688, 0.0, 1.055999994277954, 0.0, 0.0, 0.0, 0.0, 0.0, 1.6212687751502845E9, 2021-05-17 18:26:15.150
17.0, -16.32279396057129, -170.35057067871094, -86.07192993164062, 377.0006103515625, -0.06400000303983688, 0.0, 1.055999994277954, 0.0, 0.0, 0.0, 0.0, 0.0, 1.6212687751502845E9, 2021-05-17 18:26:15.150
18.0, -27.785587310791016, -193.64266967773438, -83.01268768310547, 362.01483154296875, -0.06400000303983688, 0.0, 1.055999994277954, 0.0, 0.0, 0.0, 0.0, 0.0, 1.6212687751509311E9, 2021-05-17 18:26:15.150
18.0, -35.8338508605957, -195.3069305419922, -88.31586456298828, 346.7111511230469, -0.06400000303983688, 0.0, 1.055999994277954, 0.0, 0.0, 0.0, 0.0, 0.0, 1.6212687751509311E9, 2021-05-17 18:26:15.150
19.0, -32.075252532958984, -185.0521240234375, -96.41648864746094, 354.4565124511719, -0.06400000303983688, 0.0, 1.055999994277954, 0.0, 0.0, 0.0, 0.0, 0.0, 1.6212687751644225E9, 2021-05-17 18:26:15.164
19.0, -25.062938690185547, -176.43539428710938, -88.0353775024414, 367.6471252441406, -0.06400000303983688, 0.0, 1.055999994277954, 0.0, 0.0, 0.0, 0.0, 0.0, 1.6212687751644225E9, 2021-05-17 18:26:15.164
20.0, -38.82577133178711, -197.2217559814453, -89.26580047607422, 346.853271484375, -0.06400000303983688, 0.0, 1.055999994277954, 0.0, 0.0, 0.0, 0.0, 0.0, 1.6212687751800869E9, 2021-05-17 18:26:15.180
20.0, -48.254058837890625, -200.5315704345703, -89.10872650146484, 345.4433288574219, -0.06400000303983688, 0.0, 1.055999994277954, 0.0, 0.0, 0.0, 0.0, 0.0, 1.6212687751800869E9, 2021-05-17 18:26:15.180
21.0, -37.26249313354492, -194.58139038085938, -84.19823455810547, 359.9578857421875, -0.06400000303983688, 0.0, 1.055999994277954, 0.0, 0.0, 0.0, 0.0, 0.0, 1.6212687751808507E9, 2021-05-17 18:26:15.180
21.0, -27.0899658203125, -187.2624053955078, -83.48017883300781, 371.1738586425781, -0.06400000303983688, 0.0, 1.055999994277954, 0.0, 0.0, 0.0, 0.0, 0.0, 1.6212687751808507E9, 2021-05-17 18:26:15.180
22.0, -35.332706451416016, -198.9944610595703, -87.64642333984375, 359.17999267578125, -0.06400000303983688, 0.0, 1.055999994277954, 0.0, 0.0, 0.0, 0.0, 0.0, 1.6212687751945224E9, 2021-05-17 18:26:15.194
22.0, -40.25441360473633, -206.1189727783203, -88.177490234375, 349.5684509277344, -0.06400000303983688, 0.0, 1.055999994277954, 0.0, 0.0, 0.0, 0.0, 0.0, 1.6212687751945224E9, 2021-05-17 18:26:15.194
23.0, -31.622724533081055, -194.77586364746094, -93.7985610961914, 358.8658447265625, -0.06400000303983688, 0.0, 1.055999994277954, 0.0, 0.0, 0.0, 0.0, 0.0, 1.6212687752101111E9, 2021-05-17 18:26:15.210
23.0, -24.939523696899414, -190.06358337402344, -88.2784652709961, 373.9787902832031, -0.06400000303983688, 0.0, 1.055999994277954, 0.0, 0.0, 0.0, 0.0, 0.0, 1.6212687752101111E9, 2021-05-17 18:26:15.210
24.0, -29.240407943725586, -197.96224975585938, -86.49079895019531, 360.33563232421875, -0.06400000303983688, 0.0, 1.055999994277954, 0.0, 0.0, 0.0, 0.0, 0.0, 1.6212687752107716E9, 2021-05-17 18:26:15.210
24.0, -32.23232650756836, -206.6276092529297, -85.63062286376953, 347.533935546875, -0.06400000303983688, 0.0, 1.055999994277954, 0.0, 0.0, 0.0, 0.0, 0.0, 1.6212687752107716E9, 2021-05-17 18:26:15.210
25.0, -24.696430206298828, -194.10267639160156, -91.42372131347656, 360.0588684082031, -0.06400000303983688, 0.0, 1.055999994277954, 0.0, 0.0, 0.0, 0.0, 0.0, 1.6212687752244072E9, 2021-05-17 18:26:15.224
25.0, -19.856998443603516, -183.3542022705078, -79.60564422607422, 373.9189453125, -0.06400000303983688, 0.0, 1.055999994277954, 0.0, 0.0, 0.0, 0.0, 0.0, 1.6212687752244072E9, 2021-05-17 18:26:15.224
26.0, -30.695228576660156, -197.5882568359375, -84.48246765136719, 358.59283447265625, -0.06400000303983688, 0.0, 1.055999994277954, 0.0, 0.0, 0.0, 0.0, 0.0, 1.6212687752401543E9, 2021-05-17 18:26:15.240
26.0, -43.40340805053711, -205.44580078125, -86.26640319824219, 348.3604736328125, -0.06400000303983688, 0.0, 1.055999994277954, 0.0, 0.0, 0.0, 0.0, 0.0, 1.6212687752401543E9, 2021-05-17 18:26:15.240
27.0, -37.99925231933594, -194.31585693359375, -83.75318908691406, 356.864990234375, -0.06400000303983688, 0.0, 1.055999994277954, 0.0, 0.0, 0.0, 0.0, 0.0, 1.6212687752408073E9, 2021-05-17 18:26:15.240
27.0, -25.47058868408203, -191.5782470703125, -85.5670394897461, 363.0133972167969, -0.06400000303983688, 0.0, 1.055999994277954, 0.0, 0.0, 0.0, 0.0, 0.0, 1.6212687752408073E9, 2021-05-17 18:26:15.240
28.0, -34.48374938964844, -202.5211944580078, -88.74221801757812, 343.2218322753906, -0.06400000303983688, 0.0, 1.055999994277954, 0.0, 0.0, 0.0, 0.0, 0.0, 1.6212687752544456E9, 2021-05-17 18:26:15.254
28.0, -52.00518035888672, -213.0340576171875, -90.43264770507812, 335.3867492675781, -0.06400000303983688, 0.0, 1.055999994277954, 0.0, 0.0, 0.0, 0.0, 0.0, 1.6212687752544456E9, 2021-05-17 18:26:15.254
29.0, -37.92071533203125, -198.6541290283203, -90.11476135253906, 347.874267578125, -0.06400000303983688, 0.0, 1.055999994277954, 0.0, 0.0, 0.0, 0.0, 0.0, 1.621268775270146E9, 2021-05-17 18:26:15.270
29.0, -39.69342803955078, -195.65847778320312, -95.75827026367188, 357.0183410644531, -0.06400000303983688, 0.0, 1.055999994277954, 0.0, 0.0, 0.0, 0.0, 0.0, 1.621268775270146E9, 2021-05-17 18:26:15.270
30.0, -42.83494567871094, -206.8332977294922, -97.53845977783203, 344.79632568359375, -0.06400000303983688, 0.0, 1.055999994277954, 0.0, 0.0, 0.0, 0.0, 0.0, 1.6212687752708468E9, 2021-05-17 18:26:15.270
30.0, -44.98164749145508, -209.30911254882812, -93.06179809570312, 340.7796936035156, -0.06400000303983688, 0.0, 1.055999994277954, 0.0, 0.0, 0.0, 0.0, 0.0, 1.6212687752708468E9, 2021-05-17 18:26:15.270
31.0, -30.49701499938965, -203.94235229492188, -98.40985870361328, 352.46685791015625, -0.06400000303983688, 0.0, 1.055999994277954, 0.0, 0.0, 0.0, 0.0, 0.0, 1.6212687752845795E9, 2021-05-17 18:26:15.284
31.0, -23.043394088745117, -191.09205627441406, -92.20162200927734, 363.7389221191406, -0.06400000303983688, 0.0, 1.055999994277954, 0.0, 0.0, 0.0, 0.0, 0.0, 1.6212687752845795E9, 2021-05-17 18:26:15.284
32.0, -34.461307525634766, -200.9803466796875, -94.08653259277344, 354.8716125488281, -0.06400000303983688, 0.0, 1.055999994277954, 0.0, 0.0, 0.0, 0.0, 0.0, 1.6212687752998629E9, 2021-05-17 18:26:15.299
32.0, -36.86980438232422, -208.16844177246094, -91.51348114013672, 341.781982421875, -0.06400000303983688, 0.0, 1.055999994277954, 0.0, 0.0, 0.0, 0.0, 0.0, 1.6212687752998629E9, 2021-05-17 18:26:15.299
33.0, -33.889102935791016, -199.00942993164062, -90.07362365722656, 355.2568359375, -0.06400000303983688, 0.0, 1.055999994277954, 0.0, 0.0, 0.0, 0.0, 0.0, 1.6212687753150697E9, 2021-05-17 18:26:15.315
33.0, -20.94904899597168, -187.2212677001953, -85.85875701904297, 369.7863464355469, -0.06400000303983688, 0.0, 1.055999994277954, 0.0, 0.0, 0.0, 0.0, 0.0, 1.6212687753150697E9, 2021-05-17 18:26:15.315
34.0, -29.274066925048828, -203.20933532714844, -84.09352111816406, 356.4012451171875, -0.06400000303983688, 0.0, 1.055999994277954, 0.0, 0.0, 0.0, 0.0, 0.0, 1.6212687753157864E9, 2021-05-17 18:26:15.315
34.0, -40.87523651123047, -209.40634155273438, -83.23334503173828, 344.60186767578125, -0.06400000303983688, 0.0, 1.055999994277954, 0.0, 0.0, 0.0, 0.0, 0.0, 1.6212687753157864E9, 2021-05-17 18:26:15.315
35.0, -31.458168029785156, -201.0289764404297, -83.81676483154297, 353.1213684082031, -0.06400000303983688, 0.0, 1.055999994277954, 0.0, 0.0, 0.0, 0.0, 0.0, 1.62126877533009E9, 2021-05-17 18:26:15.330
35.0, -37.49436569213867, -186.96694946289062, -82.00665283203125, 361.7231140136719, -0.06400000303983688, 0.0, 1.055999994277954, 0.0, 0.0, 0.0, 0.0, 0.0, 1.62126877533009E9, 2021-05-17 18:26:15.330
36.0, -41.68305587768555, -198.15672302246094, -78.85765838623047, 350.91107177734375, -0.06400000303983688, 0.0, 1.055999994277954, 0.0, 0.0, 0.0, 0.0, 0.0, 1.6212687753308883E9, 2021-05-17 18:26:15.330
36.0, -47.70055389404297, -203.1494903564453, -90.4887466430664, 344.07080078125, -0.06400000303983688, 0.0, 1.055999994277954, 0.0, 0.0, 0.0, 0.0, 0.0, 1.6212687753308883E9, 2021-05-17 18:26:15.330
37.0, -44.9779052734375, -196.05116271972656, -89.47523498535156, 357.7850036621094, -0.06400000303983688, 0.0, 1.055999994277954, 0.0, 0.0, 0.0, 0.0, 0.0, 1.6212687753443696E9, 2021-05-17 18:26:15.344
37.0, -27.108665466308594, -194.90675354003906, -84.79662322998047, 361.9063720703125, -0.06400000303983688, 0.0, 1.055999994277954, 0.0, 0.0, 0.0, 0.0, 0.0, 1.6212687753443696E9, 2021-05-17 18:26:15.344
38.0, -44.40196228027344, -211.91207885742188, -80.79119110107422, 353.9142150878906, -0.06400000303983688, 0.0, 1.055999994277954, 0.0, 0.0, 0.0, 0.0, 0.0, 1.62126877536015E9, 2021-05-17 18:26:15.360
38.0, -50.87947082519531, -211.74752807617188, -89.363037109375, 340.0317077636719, -0.06400000303983688, 0.0, 1.055999994277954, 0.0, 0.0, 0.0, 0.0, 0.0, 1.62126877536015E9, 2021-05-17 18:26:15.360
39.0, -37.943153381347656, -202.7381134033203, -81.75982666015625, 352.3995666503906, -0.06400000303983688, 0.0, 1.055999994277954, 0.0, 0.0, 0.0, 0.0, 0.0, 1.6212687753608572E9, 2021-05-17 18:26:15.360
39.0, -32.24354934692383, -196.94500732421875, -80.07312774658203, 363.45843505859375, -0.06400000303983688, 0.0, 1.055999994277954, 0.0, 0.0, 0.0, 0.0, 0.0, 1.6212687753608572E9, 2021-05-17 18:26:15.360
40.0, -43.8222770690918, -200.02293395996094, -79.01847839355469, 349.14208984375, -0.06400000303983688, 0.0, 1.055999994277954, 0.0, 0.0, 0.0, 0.0, 0.0, 1.6212687753743732E9, 2021-05-17 18:26:15.374
40.0, -42.38615798950195, -206.36207580566406, -78.27049255371094, 344.8674011230469, -0.06400000303983688, 0.0, 1.055999994277954, 0.0, 0.0, 0.0, 0.0, 0.0, 1.6212687753743732E9, 2021-05-17 18:26:15.374
41.0, -32.034114837646484, -195.3069305419922, -76.21729278564453, 352.01434326171875, -0.06400000303983688, 0.0, 1.055999994277954, 0.0, 0.0, 0.0, 0.0, 0.0, 1.6212687753901653E9, 2021-05-17 18:26:15.390
41.0, -22.718021392822266, -187.47183227539062, -75.2673568725586, 364.5018615722656, -0.06400000303983688, 0.0, 1.055999994277954, 0.0, 0.0, 0.0, 0.0, 0.0, 1.6212687753901653E9, 2021-05-17 18:26:15.390
42.0, -28.612104415893555, -198.51950073242188, -72.9785385131836, 353.0278625488281, -0.06400000303983688, 0.0, 1.055999994277954, 0.0, 0.0, 0.0, 0.0, 0.0, 1.621268775390777E9, 2021-05-17 18:26:15.390
42.0, -36.944602966308594, -199.94065856933594, -70.01654052734375, 351.53936767578125, -0.06400000303983688, 0.0, 1.055999994277954, 0.0, 0.0, 0.0, 0.0, 0.0, 1.621268775390777E9, 2021-05-17 18:26:15.390
43.0, -35.56084060668945, -200.6475067138672, -76.41924285888672, 353.3681945800781, -0.06400000303983688, 0.0, 1.055999994277954, 0.0, 0.0, 0.0, 0.0, 0.0, 1.6212687754043663E9, 2021-05-17 18:26:15.404
43.0, -28.159576416015625, -189.9663543701172, -69.25733947753906, 370.70263671875, -0.06400000303983688, 0.0, 1.055999994277954, 0.0, 0.0, 0.0, 0.0, 0.0, 1.6212687754043663E9, 2021-05-17 18:26:15.404
44.0, -39.82806396484375, -197.05345153808594, -65.86524963378906, 360.1299133300781, -0.06400000303983688, 0.0, 1.055999994277954, 0.0, 0.0, 0.0, 0.0, 0.0, 1.6212687754201975E9, 2021-05-17 18:26:15.420
44.0, -39.30447769165039, -204.28268432617188, -68.81603240966797, 353.5476989746094, -0.06400000303983688, 0.0, 1.055999994277954, 0.0, 0.0, 0.0, 0.0, 0.0, 1.6212687754201975E9, 2021-05-17 18:26:15.420
45.0, -31.521747589111328, -194.9553680419922, -75.21125793457031, 362.01483154296875, -0.06400000303983688, 0.0, 1.055999994277954, 0.0, 0.0, 0.0, 0.0, 0.0, 1.6212687754208226E9, 2021-05-17 18:26:15.420
45.0, -25.885717391967773, -184.84642028808594, -73.4422836303711, 370.5455627441406, -0.06400000303983688, 0.0, 1.055999994277954, 0.0, 0.0, 0.0, 0.0, 0.0, 1.6212687754208226E9, 2021-05-17 18:26:15.420
46.0, -32.71477508544922, -201.4179229736328, -73.15057373046875, 357.2389831542969, -0.06400000303983688, 0.0, 1.055999994277954, 0.0, 0.0, 0.0, 0.0, 0.0, 1.6212687754344504E9, 2021-05-17 18:26:15.434
46.0, -37.96559524536133, -200.59140014648438, -72.93366241455078, 346.21002197265625, -0.06400000303983688, 0.0, 1.055999994277954, 0.0, 0.0, 0.0, 0.0, 0.0, 1.6212687754344504E9, 2021-05-17 18:26:15.434
47.0, -31.60402488708496, -192.5019989013672, -76.09761810302734, 359.2660217285156, -0.06400000303983688, 0.0, 1.055999994277954, 0.0, 0.0, 0.0, 0.0, 0.0, 1.6212687754500904E9, 2021-05-17 18:26:15.450
47.0, -17.24654769897461, -188.62745666503906, -78.07975769042969, 369.072021484375, -0.06400000303983688, 0.0, 1.055999994277954, 0.0, 0.0, 0.0, 0.0, 0.0, 1.6212687754500904E9, 2021-05-17 18:26:15.450
48.0, -30.493274688720703, -201.02523803710938, -73.41984558105469, 353.6262512207031, -0.06400000303983688, 0.0, 1.055999994277954, 0.0, 0.0, 0.0, 0.0, 0.0, 1.6212687754507663E9, 2021-05-17 18:26:15.450
48.0, -44.854488372802734, -211.09304809570312, -79.8075942993164, 339.17901611328125, -0.06400000303983688, 0.0, 1.055999994277954, 0.0, 0.0, 0.0, 0.0, 0.0, 1.6212687754507663E9, 2021-05-17 18:26:15.450
49.0, -28.06608009338379, -203.90869140625, -85.32769012451172, 346.03424072265625, -0.06400000303983688, 0.0, 1.055999994277954, 0.0, 0.0, 0.0, 0.0, 0.0, 1.6212687754644835E9, 2021-05-17 18:26:15.464
49.0, -21.693288803100586, -190.7779083251953, -81.13899993896484, 358.03558349609375, -0.06400000303983688, 0.0, 1.055999994277954, 0.0, 0.0, 0.0, 0.0, 0.0, 1.6212687754644835E9, 2021-05-17 18:26:15.464
50.0, -32.497859954833984, -205.95816040039062, -79.16807556152344, 344.2391052246094, -0.06400000303983688, 0.0, 1.055999994277954, 0.0, 0.0, 0.0, 0.0, 0.0, 1.621268775480467E9, 2021-05-17 18:26:15.480
50.0, -42.3188362121582, -210.786376953125, -75.82086181640625, 337.5858154296875, -0.06400000303983688, 0.0, 1.055999994277954, 0.0, 0.0, 0.0, 0.0, 0.0, 1.621268775480467E9, 2021-05-17 18:26:15.480
51.0, -31.76110076904297, -205.08302307128906, -82.20113372802734, 346.53912353515625, -0.06400000303983688, 0.0, 1.055999994277954, 0.0, 0.0, 0.0, 0.0, 0.0, 1.6212687754951737E9, 2021-05-17 18:26:15.495
51.0, -17.164270401000977, -188.96778869628906, -72.78406524658203, 361.21075439453125, -0.06400000303983688, 0.0, 1.055999994277954, 0.0, 0.0, 0.0, 0.0, 0.0, 1.6212687754951737E9, 2021-05-17 18:26:15.495
52.0, -34.07609939575195, -203.03355407714844, -70.28206634521484, 351.1504211425781, -0.06400000303983688, 0.0, 1.055999994277954, 0.0, 0.0, 0.0, 0.0, 0.0, 1.6212687754958122E9, 2021-05-17 18:26:15.495
52.0, -37.72624206542969, -207.9777069091797, -65.22198486328125, 343.6182556152344, -0.06400000303983688, 0.0, 1.055999994277954, 0.0, 0.0, 0.0, 0.0, 0.0, 1.6212687754958122E9, 2021-05-17 18:26:15.495
53.0, -31.514266967773438, -194.67861938476562, -73.18797302246094, 362.2242736816406, -0.06400000303983688, 0.0, 1.055999994277954, 0.0, 0.0, 0.0, 0.0, 0.0, 1.6212687755101109E9, 2021-05-17 18:26:15.510
53.0, -21.04254722595215, -187.22874450683594, -72.80650329589844, 368.4736328125, -0.06400000303983688, 0.0, 1.055999994277954, 0.0, 0.0, 0.0, 0.0, 0.0, 1.6212687755101109E9, 2021-05-17 18:26:15.510
54.0, -35.29904556274414, -199.2076416015625, -73.6405029296875, 356.50970458984375, -0.06400000303983688, 0.0, 1.055999994277954, 0.0, 0.0, 0.0, 0.0, 0.0, 1.6212687755107706E9, 2021-05-17 18:26:15.510
54.0, -38.93048858642578, -204.18170166015625, -70.88793182373047, 352.3733825683594, -0.06400000303983688, 0.0, 1.055999994277954, 0.0, 0.0, 0.0, 0.0, 0.0, 1.6212687755107706E9, 2021-05-17 18:26:15.510
55.0, -32.131351470947266, -192.45338439941406, -72.26421356201172, 368.4923400878906, -0.06400000303983688, 0.0, 1.055999994277954, 0.0, 0.0, 0.0, 0.0, 0.0, 1.6212687755244257E9, 2021-05-17 18:26:15.524
55.0, -16.494829177856445, -188.9042205810547, -71.39656066894531, 370.8260498046875, -0.06400000303983688, 0.0, 1.055999994277954, 0.0, 0.0, 0.0, 0.0, 0.0, 1.6212687755244257E9, 2021-05-17 18:26:15.524
56.0, -32.213626861572266, -200.5577392578125, -66.57209014892578, 359.8756103515625, -0.06400000303983688, 0.0, 1.055999994277954, 0.0, 0.0, 0.0, 0.0, 0.0, 1.6212687755401735E9, 2021-05-17 18:26:15.540
56.0, -40.28059387207031, -203.2392578125, -68.33731842041016, 350.3201599121094, -0.06400000303983688, 0.0, 1.055999994277954, 0.0, 0.0, 0.0, 0.0, 0.0, 1.6212687755401735E9, 2021-05-17 18:26:15.540
57.0, -29.876190185546875, -194.32333374023438, -74.8260498046875, 357.721435546875, -0.06400000303983688, 0.0, 1.055999994277954, 0.0, 0.0, 0.0, 0.0, 0.0, 1.6212687755407825E9, 2021-05-17 18:26:15.540
57.0, -23.57819938659668, -187.19134521484375, -75.2710952758789, 362.44866943359375, -0.06400000303983688, 0.0, 1.055999994277954, 0.0, 0.0, 0.0, 0.0, 0.0, 1.6212687755407825E9, 2021-05-17 18:26:15.540
58.0, -37.647701263427734, -199.3460235595703, -74.63157653808594, 349.9200134277344, -0.06400000303983688, 0.0, 1.055999994277954, 0.0, 0.0, 0.0, 0.0, 0.0, 1.6212687755545616E9, 2021-05-17 18:26:15.554
58.0, -42.057044982910156, -201.3992156982422, -73.89855194091797, 341.1611633300781, -0.06400000303983688, 0.0, 1.055999994277954, 0.0, 0.0, 0.0, 0.0, 0.0, 1.6212687755545616E9, 2021-05-17 18:26:15.554
59.0, -37.16151428222656, -195.5313262939453, -77.82918548583984, 350.85498046875, -0.06400000303983688, 0.0, 1.055999994277954, 0.0, 0.0, 0.0, 0.0, 0.0, 1.6212687755702517E9, 2021-05-17 18:26:15.570
59.0, -26.67857551574707, -187.56533813476562, -71.8154296875, 360.10748291015625, -0.06400000303983688, 0.0, 1.055999994277954, 0.0, 0.0, 0.0, 0.0, 0.0, 1.6212687755702517E9, 2021-05-17 18:26:15.570
60.0, -41.245487213134766, -196.3166961669922, -71.62469482421875, 351.4870300292969, -0.06400000303983688, 0.0, 1.040000081062317, 0.0, 0.0, 0.0, 0.0, 0.0, 1.6212687755709565E9, 2021-05-17 18:26:15.570
60.0, -47.05729293823242, -205.4906768798828, -70.77947998046875, 338.6030578613281, -0.06400000303983688, 0.0, 1.040000081062317, 0.0, 0.0, 0.0, 0.0, 0.0, 1.6212687755709565E9, 2021-05-17 18:26:15.570
61.0, -36.907203674316406, -197.12451171875, -72.93366241455078, 351.0494384765625, -0.06400000303983688, 0.0, 1.040000081062317, 0.0, 0.0, 0.0, 0.0, 0.0, 1.621268775600844E9, 2021-05-17 18:26:15.600
61.0, -26.562639236450195, -185.9796142578125, -77.30186462402344, 356.008544921875, -0.06400000303983688, 0.0, 1.040000081062317, 0.0, 0.0, 0.0, 0.0, 0.0, 1.621268775600844E9, 2021-05-17 18:26:15.600
62.0, -35.45612335205078, -200.14260864257812, -74.47449493408203, 342.5374450683594, -0.06400000303983688, 0.0, 1.040000081062317, 0.0, 0.0, 0.0, 0.0, 0.0, 1.6212687756015587E9, 2021-05-17 18:26:15.601
62.0, -43.197715759277344, -213.42300415039062, -77.23454284667969, 330.0199890136719, -0.06400000303983688, 0.0, 1.040000081062317, 0.0, 0.0, 0.0, 0.0, 0.0, 1.6212687756015587E9, 2021-05-17 18:26:15.601
63.0, -31.192636489868164, -200.9878387451172, -79.83751678466797, 347.0477600097656, -0.06400000303983688, 0.0, 1.040000081062317, 0.0, 0.0, 0.0, 0.0, 0.0, 1.6212687756022708E9, 2021-05-17 18:26:15.602
63.0, -17.84867286682129, -190.58717346191406, -71.49005889892578, 361.9101257324219, -0.06400000303983688, 0.0, 1.040000081062317, 0.0, 0.0, 0.0, 0.0, 0.0, 1.6212687756022708E9, 2021-05-17 18:26:15.602
64.0, -31.35719108581543, -205.76742553710938, -72.80276489257812, 348.3006286621094, -0.06400000303983688, 0.0, 1.040000081062317, 0.0, 0.0, 0.0, 0.0, 0.0, 1.621268775614404E9, 2021-05-17 18:26:15.614
64.0, -36.59305191040039, -212.53665161132812, -72.87007904052734, 344.6055908203125, -0.06400000303983688, 0.0, 1.040000081062317, 0.0, 0.0, 0.0, 0.0, 0.0, 1.621268775614404E9, 2021-05-17 18:26:15.614
65.0, -29.390003204345703, -203.9236602783203, -73.77139282226562, 352.7735290527344, -0.06400000303983688, 0.0, 1.040000081062317, 0.0, 0.0, 0.0, 0.0, 0.0, 1.621268775630158E9, 2021-05-17 18:26:15.630
65.0, -20.747095108032227, -193.43698120117188, -75.25988006591797, 365.021728515625, -0.06400000303983688, 0.0, 1.040000081062317, 0.0, 0.0, 0.0, 0.0, 0.0, 1.621268775630158E9, 2021-05-17 18:26:15.630
66.0, -27.83794593811035, -200.75596618652344, -65.6932144165039, 351.2887878417969, -0.06400000303983688, 0.0, 1.040000081062317, 0.0, 0.0, 0.0, 0.0, 0.0, 1.621268775630921E9, 2021-05-17 18:26:15.630
66.0, -39.59992980957031, -208.404052734375, -67.93341064453125, 342.81793212890625, -0.06400000303983688, 0.0, 1.040000081062317, 0.0, 0.0, 0.0, 0.0, 0.0, 1.621268775630921E9, 2021-05-17 18:26:15.630
67.0, -33.37299728393555, -198.4447021484375, -72.86634063720703, 346.4830322265625, -0.06400000303983688, 0.0, 1.040000081062317, 0.0, 0.0, 0.0, 0.0, 0.0, 1.621268775660836E9, 2021-05-17 18:26:15.660
67.0, -25.41448974609375, -185.5121307373047, -69.11148071289062, 358.5628967285156, -0.06400000303983688, 0.0, 1.040000081062317, 0.0, 0.0, 0.0, 0.0, 0.0, 1.621268775660836E9, 2021-05-17 18:26:15.660
68.0, -44.33464431762695, -200.28099060058594, -71.65460968017578, 342.6084899902344, -0.06400000303983688, 0.0, 1.040000081062317, 0.0, 0.0, 0.0, 0.0, 0.0, 1.621268775661524E9, 2021-05-17 18:26:15.661
68.0, -50.10905075073242, -211.63906860351562, -78.681884765625, 327.6488952636719, -0.06400000303983688, 0.0, 1.040000081062317, 0.0, 0.0, 0.0, 0.0, 0.0, 1.621268775661524E9, 2021-05-17 18:26:15.661
69.0, -32.729736328125, -196.38401794433594, -73.0421142578125, 337.0884094238281, -0.06400000303983688, 0.0, 1.040000081062317, 0.0, 0.0, 0.0, 0.0, 0.0, 1.621268775662299E9, 2021-05-17 18:26:15.662
69.0, -27.134843826293945, -193.61648559570312, -73.11317443847656, 348.8765563964844, -0.06400000303983688, 0.0, 1.040000081062317, 0.0, 0.0, 0.0, 0.0, 0.0, 1.621268775662299E9, 2021-05-17 18:26:15.662
70.0, -35.4523811340332, -206.19003295898438, -71.70697021484375, 337.8139343261719, -0.06400000303983688, 0.0, 1.040000081062317, 0.0, 0.0, 0.0, 0.0, 0.0, 1.6212687756744556E9, 2021-05-17 18:26:15.674
70.0, -37.96559524536133, -212.40200805664062, -69.69864654541016, 333.471923828125, -0.06400000303983688, 0.0, 1.040000081062317, 0.0, 0.0, 0.0, 0.0, 0.0, 1.6212687756744556E9, 2021-05-17 18:26:15.674
71.0, -28.17827606201172, -197.57704162597656, -73.34878540039062, 340.89935302734375, -0.06400000303983688, 0.0, 1.040000081062317, 0.0, 0.0, 0.0, 0.0, 0.0, 1.6212687756901848E9, 2021-05-17 18:26:15.690
71.0, -23.537059783935547, -187.79347229003906, -67.91471099853516, 356.8014221191406, -0.06400000303983688, 0.0, 1.040000081062317, 0.0, 0.0, 0.0, 0.0, 0.0, 1.6212687756901848E9, 2021-05-17 18:26:15.690
72.0, -26.413043975830078, -198.07818603515625, -66.47111511230469, 348.0837097167969, -0.06400000303983688, 0.0, 1.040000081062317, 0.0, 0.0, 0.0, 0.0, 0.0, 1.6212687756908033E9, 2021-05-17 18:26:15.690
72.0, -37.77486038208008, -207.6373748779297, -64.31693267822266, 339.3510437011719, -0.06400000303983688, 0.0, 1.040000081062317, 0.0, 0.0, 0.0, 0.0, 0.0, 1.6212687756908033E9, 2021-05-17 18:26:15.690
73.0, -33.39917755126953, -197.24794006347656, -65.70817565917969, 353.2223205566406, -0.06400000303983688, 0.0, 1.040000081062317, 0.0, 0.0, 0.0, 0.0, 0.0, 1.6212687757044845E9, 2021-05-17 18:26:15.704
73.0, -17.736474990844727, -190.18325805664062, -64.89287567138672, 369.0944519042969, -0.06400000303983688, 0.0, 1.040000081062317, 0.0, 0.0, 0.0, 0.0, 0.0, 1.6212687757044845E9, 2021-05-17 18:26:15.704
74.0, -29.057151794433594, -201.7432861328125, -63.673667907714844, 354.9090270996094, -0.06400000303983688, 0.0, 1.040000081062317, 0.0, 0.0, 0.0, 0.0, 0.0, 1.6212687757358365E9, 2021-05-17 18:26:15.735
74.0, -37.82347869873047, -211.00328063964844, -68.4046401977539, 340.6300964355469, -0.06400000303983688, 0.0, 1.040000081062317, 0.0, 0.0, 0.0, 0.0, 0.0, 1.6212687757358365E9, 2021-05-17 18:26:15.735
75.0, -32.4193229675293, -204.86236572265625, -69.00676727294922, 352.70623779296875, -0.06400000303983688, 0.0, 1.040000081062317, 0.0, 0.0, 0.0, 0.0, 0.0, 1.6212687757365053E9, 2021-05-17 18:26:15.736
75.0, -36.136783599853516, -192.3374481201172, -60.78272247314453, 361.9363098144531, -0.06400000303983688, 0.0, 1.040000081062317, 0.0, 0.0, 0.0, 0.0, 0.0, 1.6212687757365053E9, 2021-05-17 18:26:15.736
76.0, -42.54323196411133, -202.4276885986328, -69.09651947021484, 350.4847106933594, -0.06400000303983688, 0.0, 1.040000081062317, 0.0, 0.0, 0.0, 0.0, 0.0, 1.6212687757372568E9, 2021-05-17 18:26:15.737
76.0, -42.13184356689453, -208.0599822998047, -66.93112182617188, 342.70947265625, -0.06400000303983688, 0.0, 1.040000081062317, 0.0, 0.0, 0.0, 0.0, 0.0, 1.6212687757372568E9, 2021-05-17 18:26:15.737
77.0, -40.291812896728516, -201.3169403076172, -70.56629943847656, 350.9783935546875, -0.06400000303983688, 0.0, 1.040000081062317, 0.0, 0.0, 0.0, 0.0, 0.0, 1.6212687757821305E9, 2021-05-17 18:26:15.782
77.0, -33.743247985839844, -190.72555541992188, -64.57872009277344, 362.0447692871094, -0.06400000303983688, 0.0, 1.040000081062317, 0.0, 0.0, 0.0, 0.0, 0.0, 1.6212687757821305E9, 2021-05-17 18:26:15.782
78.0, -36.9782600402832, -202.22573852539062, -64.5488052368164, 346.7597961425781, -0.06400000303983688, 0.0, 1.040000081062317, 0.0, 0.0, 0.0, 0.0, 0.0, 1.621268775782859E9, 2021-05-17 18:26:15.782
78.0, -43.852195739746094, -212.6899871826172, -60.386295318603516, 338.6292419433594, -0.06400000303983688, 0.0, 1.040000081062317, 0.0, 0.0, 0.0, 0.0, 0.0, 1.621268775782859E9, 2021-05-17 18:26:15.782
79.0, -32.69981384277344, -204.6043243408203, -65.8353271484375, 346.38580322265625, -0.06400000303983688, 0.0, 1.040000081062317, 0.0, 0.0, 0.0, 0.0, 0.0, 1.6212687757836275E9, 2021-05-17 18:26:15.783
79.0, -26.528980255126953, -197.79396057128906, -67.52202606201172, 352.30230712890625, -0.06400000303983688, 0.0, 1.040000081062317, 0.0, 0.0, 0.0, 0.0, 0.0, 1.6212687757836275E9, 2021-05-17 18:26:15.783
80.0, -36.73516845703125, -205.83474731445312, -61.20159149169922, 338.66290283203125, -0.06400000303983688, 0.0, 1.040000081062317, 0.0, 0.0, 0.0, 0.0, 0.0, 1.621268775784381E9, 2021-05-17 18:26:15.784
80.0, -44.861968994140625, -216.27655029296875, -64.27204895019531, 333.636474609375, -0.06400000303983688, 0.0, 1.040000081062317, 0.0, 0.0, 0.0, 0.0, 0.0, 1.621268775784381E9, 2021-05-17 18:26:15.784
81.0, -37.03062057495117, -199.0879669189453, -62.78731155395508, 351.947021484375, -0.06400000303983688, 0.0, 1.040000081062317, 0.0, 0.0, 0.0, 0.0, 0.0, 1.6212687757951453E9, 2021-05-17 18:26:15.795
81.0, -27.419076919555664, -190.2169189453125, -63.1650390625, 360.8928527832031, -0.06400000303983688, 0.0, 1.040000081062317, 0.0, 0.0, 0.0, 0.0, 0.0, 1.6212687757951453E9, 2021-05-17 18:26:15.795
82.0, -37.95811462402344, -202.23321533203125, -58.837974548339844, 352.8558349609375, -0.06400000303983688, 0.0, 1.040000081062317, 0.0, 0.0, 0.0, 0.0, 0.0, 1.621268775795871E9, 2021-05-17 18:26:15.795
82.0, -46.16719436645508, -210.3525390625, -59.791648864746094, 341.75579833984375, -0.06400000303983688, 0.0, 1.040000081062317, 0.0, 0.0, 0.0, 0.0, 0.0, 1.621268775795871E9, 2021-05-17 18:26:15.795
83.0, -44.55903625488281, -197.29281616210938, -59.97490692138672, 348.46142578125, -0.06400000303983688, 0.0, 1.040000081062317, 0.0, 0.0, 0.0, 0.0, 0.0, 1.6212687758101325E9, 2021-05-17 18:26:15.810
83.0, -28.59340476989746, -192.8423309326172, -59.69441223144531, 361.6520690917969, -0.06400000303983688, 0.0, 1.040000081062317, 0.0, 0.0, 0.0, 0.0, 0.0, 1.6212687758101325E9, 2021-05-17 18:26:15.810
84.0, -39.289520263671875, -198.33998107910156, -55.5468635559082, 351.6964416503906, -0.06400000303983688, 0.0, 1.040000081062317, 0.0, 0.0, 0.0, 0.0, 0.0, 1.6212687758108528E9, 2021-05-17 18:26:15.810
84.0, -49.09553527832031, -208.46389770507812, -60.36011505126953, 341.9390563964844, -0.06400000303983688, 0.0, 1.040000081062317, 0.0, 0.0, 0.0, 0.0, 0.0, 1.6212687758108528E9, 2021-05-17 18:26:15.810
85.0, -38.41438293457031, -199.83969116210938, -60.850040435791016, 349.59088134765625, -0.06400000303983688, 0.0, 1.040000081062317, 0.0, 0.0, 0.0, 0.0, 0.0, 1.621268775824452E9, 2021-05-17 18:26:15.824
85.0, -28.0286808013916, -183.989990234375, -56.47809982299805, 364.42706298828125, -0.06400000303983688, 0.0, 1.040000081062317, 0.0, 0.0, 0.0, 0.0, 0.0, 1.621268775824452E9, 2021-05-17 18:26:15.824
86.0, -33.35055923461914, -202.5959930419922, -53.47121810913086, 348.3155822753906, -0.06400000303983688, 0.0, 1.040000081062317, 0.0, 0.0, 0.0, 0.0, 0.0, 1.621268775839841E9, 2021-05-17 18:26:15.839
86.0, -42.6778678894043, -209.9748077392578, -58.1760139465332, 332.4958190917969, -0.06400000303983688, 0.0, 1.040000081062317, 0.0, 0.0, 0.0, 0.0, 0.0, 1.621268775839841E9, 2021-05-17 18:26:15.839
87.0, -23.787633895874023, -196.10726928710938, -58.29195022583008, 342.4177551269531, -0.06400000303983688, 0.0, 1.040000081062317, 0.0, 0.0, 0.0, 0.0, 0.0, 1.6212687758552275E9, 2021-05-17 18:26:15.855
87.0, -21.554912567138672, -191.91110229492188, -57.87308120727539, 356.0796203613281, -0.06400000303983688, 0.0, 1.040000081062317, 0.0, 0.0, 0.0, 0.0, 0.0, 1.6212687758552275E9, 2021-05-17 18:26:15.855
88.0, -35.190589904785156, -203.6468963623047, -58.647239685058594, 335.00152587890625, -0.06400000303983688, 0.0, 1.040000081062317, 0.0, 0.0, 0.0, 0.0, 0.0, 1.6212687758558767E9, 2021-05-17 18:26:15.855
88.0, -44.30846405029297, -210.7826385498047, -60.513450622558594, 326.4745788574219, -0.06400000303983688, 0.0, 1.040000081062317, 0.0, 0.0, 0.0, 0.0, 0.0, 1.6212687758558767E9, 2021-05-17 18:26:15.855
89.0, -39.39423751831055, -201.34312438964844, -59.39896011352539, 341.5688171386719, -0.06400000303983688, 0.0, 1.040000081062317, 0.0, 0.0, 0.0, 0.0, 0.0, 1.6212687758857758E9, 2021-05-17 18:26:15.885
89.0, -29.73781394958496, -194.14007568359375, -64.34310913085938, 348.3829040527344, -0.06400000303983688, 0.0, 1.040000081062317, 0.0, 0.0, 0.0, 0.0, 0.0, 1.6212687758857758E9, 2021-05-17 18:26:15.885
90.0, -37.232574462890625, -204.35374450683594, -62.06550979614258, 338.86859130859375, -0.06400000303983688, 0.0, 1.055999994277954, 0.0, 0.0, 0.0, 0.0, 0.0, 1.6212687758865368E9, 2021-05-17 18:26:15.886
90.0, -49.27879333496094, -212.6151885986328, -62.29738235473633, 329.2645263671875, -0.06400000303983688, 0.0, 1.055999994277954, 0.0, 0.0, 0.0, 0.0, 0.0, 1.6212687758865368E9, 2021-05-17 18:26:15.886
91.0, -50.453121185302734, -201.47027587890625, -68.59163665771484, 340.72357177734375, -0.06400000303983688, 0.0, 1.055999994277954, 0.0, 0.0, 0.0, 0.0, 0.0, 1.6212687758873005E9, 2021-05-17 18:26:15.887
91.0, -46.911434173583984, -189.32308959960938, -61.11931610107422, 352.5155029296875, -0.06400000303983688, 0.0, 1.055999994277954, 0.0, 0.0, 0.0, 0.0, 0.0, 1.6212687758873005E9, 2021-05-17 18:26:15.887
92.0, -53.34406280517578, -199.90699768066406, -62.68633270263672, 337.8438720703125, -0.06400000303983688, 0.0, 1.055999994277954, 0.0, 0.0, 0.0, 0.0, 0.0, 1.6212687759000795E9, 2021-05-17 18:26:15.900
92.0, -57.0615234375, -204.6043243408203, -55.80491638183594, 330.5435791015625, -0.06400000303983688, 0.0, 1.055999994277954, 0.0, 0.0, 0.0, 0.0, 0.0, 1.6212687759000795E9, 2021-05-17 18:26:15.900
93.0, -46.8328971862793, -195.18350219726562, -59.335384368896484, 346.1875915527344, -0.06400000303983688, 0.0, 1.055999994277954, 0.0, 0.0, 0.0, 0.0, 0.0, 1.6212687759008157E9, 2021-05-17 18:26:15.900
93.0, -39.255859375, -187.041748046875, -52.749420166015625, 355.57098388671875, -0.06400000303983688, 0.0, 1.055999994277954, 0.0, 0.0, 0.0, 0.0, 0.0, 1.6212687759008157E9, 2021-05-17 18:26:15.900
94.0, -48.19047927856445, -195.97262573242188, -56.38460159301758, 343.0198974609375, -0.06400000303983688, 0.0, 1.055999994277954, 0.0, 0.0, 0.0, 0.0, 0.0, 1.6212687759145565E9, 2021-05-17 18:26:15.914
94.0, -54.75774383544922, -204.78756713867188, -53.47496032714844, 338.7377014160156, -0.06400000303983688, 0.0, 1.055999994277954, 0.0, 0.0, 0.0, 0.0, 0.0, 1.6212687759145565E9, 2021-05-17 18:26:15.914
95.0, -41.83639144897461, -199.05804443359375, -53.87512969970703, 343.32281494140625, -0.06400000303983688, 0.0, 1.055999994277954, 0.0, 0.0, 0.0, 0.0, 0.0, 1.6212687759301023E9, 2021-05-17 18:26:15.930
95.0, -28.387710571289062, -193.1041259765625, -55.77125930786133, 348.9364013671875, -0.06400000303983688, 0.0, 1.055999994277954, 0.0, 0.0, 0.0, 0.0, 0.0, 1.6212687759301023E9, 2021-05-17 18:26:15.930
96.0, -37.93193435668945, -197.8089141845703, -44.921810150146484, 340.1027526855469, -0.06400000303983688, 0.0, 1.055999994277954, 0.0, 0.0, 0.0, 0.0, 0.0, 1.6212687759309225E9, 2021-05-17 18:26:15.930
96.0, -49.222694396972656, -212.8021697998047, -46.03629684448242, 331.1531677246094, -0.06400000303983688, 0.0, 1.055999994277954, 0.0, 0.0, 0.0, 0.0, 0.0, 1.6212687759309225E9, 2021-05-17 18:26:15.930
97.0, -47.016151428222656, -201.6685028076172, -45.378074645996094, 344.5981140136719, -0.06400000303983688, 0.0, 1.055999994277954, 0.0, 0.0, 0.0, 0.0, 0.0, 1.6212687759444203E9, 2021-05-17 18:26:15.944
97.0, -38.560237884521484, -190.50489807128906, -37.3784294128418, 360.7320556640625, -0.06400000303983688, 0.0, 1.055999994277954, 0.0, 0.0, 0.0, 0.0, 0.0, 1.6212687759444203E9, 2021-05-17 18:26:15.944
98.0, -41.64191436767578, -199.413330078125, -41.64191436767578, 351.0232849121094, -0.06400000303983688, 0.0, 1.055999994277954, 0.0, 0.0, 0.0, 0.0, 0.0, 1.6212687759601011E9, 2021-05-17 18:26:15.960
98.0, -69.60140991210938, -213.04527282714844, -55.03449630737305, 336.79669189453125, -0.06400000303983688, 0.0, 1.055999994277954, 0.0, 0.0, 0.0, 0.0, 0.0, 1.6212687759601011E9, 2021-05-17 18:26:15.960
99.0, -53.071048736572266, -204.21536254882812, -54.45481491088867, 348.4389953613281, -0.06400000303983688, 0.0, 1.055999994277954, 0.0, 0.0, 0.0, 0.0, 0.0, 1.6212687759608152E9, 2021-05-17 18:26:15.960
99.0, -53.62455368041992, -193.9456024169922, -56.414520263671875, 357.1043395996094, -0.06400000303983688, 0.0, 1.055999994277954, 0.0, 0.0, 0.0, 0.0, 0.0, 1.6212687759608152E9, 2021-05-17 18:26:15.960
100.0, -59.11472702026367, -201.05889892578125, -54.45481491088867, 342.5374450683594, -0.06400000303983688, 0.0, 1.040000081062317, 0.0, 0.0, 0.0, 0.0, 0.0, 1.6212687759750772E9, 2021-05-17 18:26:15.975
100.0, -59.63831329345703, -215.45750427246094, -57.77584457397461, 336.96124267578125, -0.06400000303983688, 0.0, 1.040000081062317, 0.0, 0.0, 0.0, 0.0, 0.0, 1.6212687759750772E9, 2021-05-17 18:26:15.975
0.0, -44.452449798583984, -200.3875732421875, -59.88701629638672, 340.7160949707031, -0.06400000303983688, 0.0, 1.040000081062317, 0.0, 0.0, 0.0, 0.0, 0.0, 1.6212687759757893E9, 2021-05-17 18:26:15.975
1.0, -31.998584747314453, -194.30650329589844, -55.42157745361328, 351.6553039550781, -0.06400000303983688, 0.0, 1.040000081062317, 0.0, 0.0, 0.0, 0.0, 0.0, 1.6212687759894843E9, 2021-05-17 18:26:15.989
1.0, -45.09197235107422, -204.35935974121094, -53.480567932128906, 337.1033630371094, -0.06400000303983688, 0.0, 1.040000081062317, 0.0, 0.0, 0.0, 0.0, 0.0, 1.6212687759894843E9, 2021-05-17 18:26:15.989
2.0, -55.86662673950195, -208.18153381347656, -51.04215621948242, 328.6736145019531, -0.06400000303983688, 0.0, 1.040000081062317, 0.0, 0.0, 0.0, 0.0, 0.0, 1.621268776005522E9, 2021-05-17 18:26:16.005
2.0, -41.27727508544922, -199.07113647460938, -53.64512634277344, 339.6950988769531, -0.06400000303983688, 0.0, 1.040000081062317, 0.0, 0.0, 0.0, 0.0, 0.0, 1.621268776005522E9, 2021-05-17 18:26:16.005
3.0, -31.51239776611328, -188.3114471435547, -46.228904724121094, 344.8674011230469, -0.06400000303983688, 0.0, 1.040000081062317, 0.0, 0.0, 0.0, 0.0, 0.0, 1.621268776019922E9, 2021-05-17 18:26:16.019
3.0, -41.613868713378906, -196.71873474121094, -43.1883659362793, 335.6971740722656, -0.06400000303983688, 0.0, 1.040000081062317, 0.0, 0.0, 0.0, 0.0, 0.0, 1.621268776019922E9, 2021-05-17 18:26:16.019
4.0, -51.93973159790039, -204.8829345703125, -47.231197357177734, 325.25537109375, -0.06400000303983688, 0.0, 1.040000081062317, 0.0, 0.0, 0.0, 0.0, 0.0, 1.621268776035789E9, 2021-05-17 18:26:16.035
4.0, -41.82704162597656, -202.74745178222656, -49.01886749267578, 336.5760498046875, -0.06400000303983688, 0.0, 1.040000081062317, 0.0, 0.0, 0.0, 0.0, 0.0, 1.621268776035789E9, 2021-05-17 18:26:16.035
5.0, -37.01752853393555, -189.47828674316406, -42.56380081176758, 349.16455078125, -0.06400000303983688, 0.0, 1.040000081062317, 0.0, 0.0, 0.0, 0.0, 0.0, 1.6212687760364742E9, 2021-05-17 18:26:16.036
5.0, -56.37525177001953, -201.8424072265625, -44.06724166870117, 338.5320129394531, -0.06400000303983688, 0.0, 1.040000081062317, 0.0, 0.0, 0.0, 0.0, 0.0, 1.6212687760364742E9, 2021-05-17 18:26:16.036
6.0, -64.74140930175781, -209.0005645751953, -49.6135139465332, 332.4471740722656, -0.06400000303983688, 0.0, 1.040000081062317, 0.0, 0.0, 0.0, 0.0, 0.0, 1.6212687760372403E9, 2021-05-17 18:26:16.037
6.0, -53.8695182800293, -197.79957580566406, -49.35546112060547, 348.5474548339844, -0.06400000303983688, 0.0, 1.040000081062317, 0.0, 0.0, 0.0, 0.0, 0.0, 1.6212687760372403E9, 2021-05-17 18:26:16.037
7.0, -40.2001838684082, -188.63307189941406, -48.581298828125, 359.2136535644531, -0.06400000303983688, 0.0, 1.040000081062317, 0.0, 0.0, 0.0, 0.0, 0.0, 1.6212687760664487E9, 2021-05-17 18:26:16.066
7.0, -45.28644943237305, -191.11636352539062, -38.06096267700195, 353.1549987792969, -0.06400000303983688, 0.0, 1.040000081062317, 0.0, 0.0, 0.0, 0.0, 0.0, 1.6212687760664487E9, 2021-05-17 18:26:16.066
8.0, -52.25014114379883, -206.7865447998047, -42.39924621582031, 338.24029541015625, -0.06400000303983688, 0.0, 1.040000081062317, 0.0, 0.0, 0.0, 0.0, 0.0, 1.6212687760671654E9, 2021-05-17 18:26:16.067
8.0, -36.968910217285156, -198.33811950683594, -44.15325927734375, 346.0155334472656, -0.06400000303983688, 0.0, 1.040000081062317, 0.0, 0.0, 0.0, 0.0, 0.0, 1.6212687760671654E9, 2021-05-17 18:26:16.067
9.0, -33.337467193603516, -188.7340545654297, -41.21369934082031, 360.18603515625, -0.06400000303983688, 0.0, 1.040000081062317, 0.0, 0.0, 0.0, 0.0, 0.0, 1.621268776067902E9, 2021-05-17 18:26:16.067
9.0, -48.599998474121094, -204.04893493652344, -44.25049591064453, 343.483642578125, -0.06400000303983688, 0.0, 1.040000081062317, 0.0, 0.0, 0.0, 0.0, 0.0, 1.621268776067902E9, 2021-05-17 18:26:16.067
10.0, -52.530635833740234, -208.60414123535156, -42.13371276855469, 331.8749694824219, -0.06400000303983688, 0.0, 1.040000081062317, 0.0, 0.0, 0.0, 0.0, 0.0, 1.621268776112154E9, 2021-05-17 18:26:16.112
10.0, -42.77323532104492, -198.996337890625, -44.71050262451172, 341.2882995605469, -0.06400000303983688, 0.0, 1.040000081062317, 0.0, 0.0, 0.0, 0.0, 0.0, 1.621268776112154E9, 2021-05-17 18:26:16.112
11.0, -29.657405853271484, -195.71644592285156, -46.04564666748047, 349.4076232910156, -0.06400000303983688, 0.0, 1.040000081062317, 0.0, 0.0, 0.0, 0.0, 0.0, 1.6212687761129136E9, 2021-05-17 18:26:16.112
11.0, -44.501068115234375, -206.26670837402344, -42.500221252441406, 336.54986572265625, -0.06400000303983688, 0.0, 1.040000081062317, 0.0, 0.0, 0.0, 0.0, 0.0, 1.6212687761129136E9, 2021-05-17 18:26:16.112
12.0, -48.4691047668457, -217.0039520263672, -43.02006912231445, 327.97052001953125, -0.06400000303983688, 0.0, 1.040000081062317, 0.0, 0.0, 0.0, 0.0, 0.0, 1.6212687761136303E9, 2021-05-17 18:26:16.113
12.0, -48.1886100769043, -208.39845275878906, -50.372711181640625, 333.0007019042969, -0.06400000303983688, 0.0, 1.040000081062317, 0.0, 0.0, 0.0, 0.0, 0.0, 1.6212687761136303E9, 2021-05-17 18:26:16.113
13.0, -42.29079055786133, -196.6701202392578, -48.839351654052734, 345.8921203613281, -0.06400000303983688, 0.0, 1.040000081062317, 0.0, 0.0, 0.0, 0.0, 0.0, 1.621268776114385E9, 2021-05-17 18:26:16.114
13.0, -48.749595642089844, -204.0339813232422, -43.86902618408203, 338.5357360839844, -0.06400000303983688, 0.0, 1.040000081062317, 0.0, 0.0, 0.0, 0.0, 0.0, 1.621268776114385E9, 2021-05-17 18:26:16.114
14.0, -59.90945816040039, -216.83566284179688, -40.81726837158203, 333.26995849609375, -0.06400000303983688, 0.0, 1.040000081062317, 0.0, 0.0, 0.0, 0.0, 0.0, 1.6212687761251268E9, 2021-05-17 18:26:16.125
14.0, -50.59336471557617, -202.96063232421875, -43.56609344482422, 338.6068115234375, -0.06400000303983688, 0.0, 1.040000081062317, 0.0, 0.0, 0.0, 0.0, 0.0, 1.6212687761251268E9, 2021-05-17 18:26:16.125
15.0, -39.541961669921875, -192.4963836669922, -44.39261245727539, 348.8316955566406, -0.06400000303983688, 0.0, 1.040000081062317, 0.0, 0.0, 0.0, 0.0, 0.0, 1.6212687761258981E9, 2021-05-17 18:26:16.125
15.0, -53.491790771484375, -201.63670349121094, -41.81956100463867, 337.18939208984375, -0.06400000303983688, 0.0, 1.040000081062317, 0.0, 0.0, 0.0, 0.0, 0.0, 1.6212687761258981E9, 2021-05-17 18:26:16.125
16.0, -59.628963470458984, -208.09925842285156, -48.44292449951172, 332.03955078125, -0.06400000303983688, 0.0, 1.040000081062317, 0.0, 0.0, 0.0, 0.0, 0.0, 1.6212687761393905E9, 2021-05-17 18:26:16.139
16.0, -47.15266036987305, -194.84130859375, -41.546546936035156, 342.3055725097656, -0.06400000303983688, 0.0, 1.040000081062317, 0.0, 0.0, 0.0, 0.0, 0.0, 1.6212687761393905E9, 2021-05-17 18:26:16.139
17.0, -38.81268310546875, -184.13023376464844, -40.37221908569336, 355.8514709472656, -0.06400000303983688, 0.0, 1.040000081062317, 0.0, 0.0, 0.0, 0.0, 0.0, 1.621268776155164E9, 2021-05-17 18:26:16.155
17.0, -49.131065368652344, -201.64044189453125, -34.51179504394531, 343.97357177734375, -0.06400000303983688, 0.0, 1.040000081062317, 0.0, 0.0, 0.0, 0.0, 0.0, 1.621268776155164E9, 2021-05-17 18:26:16.155
18.0, -49.63595199584961, -205.61221313476562, -31.36280059814453, 340.60015869140625, -0.06400000303983688, 0.0, 1.040000081062317, 0.0, 0.0, 0.0, 0.0, 0.0, 1.6212687761559284E9, 2021-05-17 18:26:16.155
18.0, -50.41011047363281, -195.2601776123047, -36.30320739746094, 343.9473876953125, -0.06400000303983688, 0.0, 1.040000081062317, 0.0, 0.0, 0.0, 0.0, 0.0, 1.6212687761559284E9, 2021-05-17 18:26:16.155
19.0, -40.50685501098633, -185.0465087890625, -32.709163665771484, 351.2962951660156, -0.06400000303983688, 0.0, 1.040000081062317, 0.0, 0.0, 0.0, 0.0, 0.0, 1.6212687761854737E9, 2021-05-17 18:26:16.185
19.0, -42.31696701049805, -200.36888122558594, -32.851280212402344, 340.3346252441406, -0.06400000303983688, 0.0, 1.040000081062317, 0.0, 0.0, 0.0, 0.0, 0.0, 1.6212687761854737E9, 2021-05-17 18:26:16.185
20.0, -48.5700798034668, -203.52162170410156, -36.482723236083984, 331.11578369140625, -0.06400000303983688, 0.0, 1.040000081062317, 0.0, 0.0, 0.0, 0.0, 0.0, 1.6212687761861887E9, 2021-05-17 18:26:16.186
20.0, -52.51193618774414, -198.54006958007812, -37.74306869506836, 337.6680908203125, -0.06400000303983688, 0.0, 1.040000081062317, 0.0, 0.0, 0.0, 0.0, 0.0, 1.6212687761861887E9, 2021-05-17 18:26:16.186
21.0, -44.362693786621094, -190.18887329101562, -35.630027770996094, 348.5212707519531, -0.06400000303983688, 0.0, 1.040000081062317, 0.0, 0.0, 0.0, 0.0, 0.0, 1.6212687762001133E9, 2021-05-17 18:26:16.200
21.0, -58.90716552734375, -198.0725860595703, -37.23070526123047, 340.5253601074219, -0.06400000303983688, 0.0, 1.040000081062317, 0.0, 0.0, 0.0, 0.0, 0.0, 1.6212687762001133E9, 2021-05-17 18:26:16.200
22.0, -64.90596008300781, -208.01698303222656, -40.45075607299805, 324.36151123046875, -0.06400000303983688, 0.0, 1.040000081062317, 0.0, 0.0, 0.0, 0.0, 0.0, 1.6212687762010076E9, 2021-05-17 18:26:16.201
22.0, -50.82149887084961, -197.31338500976562, -44.16447830200195, 335.01275634765625, -0.06400000303983688, 0.0, 1.040000081062317, 0.0, 0.0, 0.0, 0.0, 0.0, 1.6212687762010076E9, 2021-05-17 18:26:16.201
23.0, -47.91185760498047, -196.1652374267578, -43.09112548828125, 350.3313903808594, -0.06400000303983688, 0.0, 1.040000081062317, 0.0, 0.0, 0.0, 0.0, 0.0, 1.6212687762151048E9, 2021-05-17 18:26:16.215
23.0, -49.3143196105957, -203.2747802734375, -37.80290985107422, 334.47796630859375, -0.06400000303983688, 0.0, 1.040000081062317, 0.0, 0.0, 0.0, 0.0, 0.0, 1.6212687762151048E9, 2021-05-17 18:26:16.215
24.0, -57.93852996826172, -212.39639282226562, -37.982425689697266, 320.9208068847656, -0.06400000303983688, 0.0, 1.040000081062317, 0.0, 0.0, 0.0, 0.0, 0.0, 1.6212687762157712E9, 2021-05-17 18:26:16.215
24.0, -49.07870864868164, -209.41943359375, -39.76261520385742, 333.14654541015625, -0.06400000303983688, 0.0, 1.040000081062317, 0.0, 0.0, 0.0, 0.0, 0.0, 1.6212687762157712E9, 2021-05-17 18:26:16.215
25.0, -35.11766052246094, -199.2095184326172, -40.170265197753906, 341.7520446777344, -0.06400000303983688, 0.0, 1.040000081062317, 0.0, 0.0, 0.0, 0.0, 0.0, 1.6212687762294776E9, 2021-05-17 18:26:16.229
25.0, -44.24301528930664, -207.65420532226562, -36.250850677490234, 336.2618713378906, -0.06400000303983688, 0.0, 1.040000081062317, 0.0, 0.0, 0.0, 0.0, 0.0, 1.6212687762294776E9, 2021-05-17 18:26:16.229
26.0, -49.07496643066406, -218.85147094726562, -33.01957702636719, 325.6443176269531, -0.06400000303983688, 0.0, 1.040000081062317, 0.0, 0.0, 0.0, 0.0, 0.0, 1.6212687762451456E9, 2021-05-17 18:26:16.245
26.0, -44.50481033325195, -209.6326141357422, -37.25688171386719, 332.1704406738281, -0.06400000303983688, 0.0, 1.040000081062317, 0.0, 0.0, 0.0, 0.0, 0.0, 1.6212687762451456E9, 2021-05-17 18:26:16.245
27.0, -29.47789192199707, -195.79124450683594, -31.340362548828125, 351.11676025390625, -0.06400000303983688, 0.0, 1.040000081062317, 0.0, 0.0, 0.0, 0.0, 0.0, 1.6212687762458014E9, 2021-05-17 18:26:16.245
27.0, -38.173160552978516, -197.6088409423828, -28.7860107421875, 344.6130676269531, -0.06400000303983688, 0.0, 1.040000081062317, 0.0, 0.0, 0.0, 0.0, 0.0, 1.6212687762458014E9, 2021-05-17 18:26:16.245
28.0, -53.435691833496094, -208.3199005126953, -31.078569412231445, 331.4822998046875, -0.06400000303983688, 0.0, 1.040000081062317, 0.0, 0.0, 0.0, 0.0, 0.0, 1.6212687762594285E9, 2021-05-17 18:26:16.259
28.0, -48.72341537475586, -190.61895751953125, -28.7860107421875, 349.79656982421875, -0.06400000303983688, 0.0, 1.040000081062317, 0.0, 0.0, 0.0, 0.0, 0.0, 1.6212687762594285E9, 2021-05-17 18:26:16.259
29.0, -41.501670837402344, -180.1248016357422, -25.162046432495117, 364.07177734375, -0.06400000303983688, 0.0, 1.040000081062317, 0.0, 0.0, 0.0, 0.0, 0.0, 1.621268776275141E9, 2021-05-17 18:26:16.275
29.0, -50.372711181640625, -196.75613403320312, -29.952857971191406, 345.1516418457031, -0.06400000303983688, 0.0, 1.040000081062317, 0.0, 0.0, 0.0, 0.0, 0.0, 1.621268776275141E9, 2021-05-17 18:26:16.275
30.0, -56.66322326660156, -208.29747009277344, -34.03308868408203, 337.4175109863281, -0.06400000303983688, 0.0, 1.055999994277954, 0.0, 0.0, 0.0, 0.0, 0.0, 1.6212687762759068E9, 2021-05-17 18:26:16.275
30.0, -46.30744171142578, -200.06968688964844, -39.62424087524414, 340.58148193359375, -0.06400000303983688, 0.0, 1.055999994277954, 0.0, 0.0, 0.0, 0.0, 0.0, 1.6212687762759068E9, 2021-05-17 18:26:16.275
31.0, -40.08798599243164, -198.6934051513672, -36.55378341674805, 356.7640075683594, -0.06400000303983688, 0.01600000075995922, 1.055999994277954, 0.0, 0.0, 0.0, 0.0, 0.0, 1.6212687762894735E9, 2021-05-17 18:26:16.289
31.0, -49.62847137451172, -203.37950134277344, -31.6619930267334, 342.68328857421875, -0.06400000303983688, 0.01600000075995922, 1.055999994277954, 0.0, 0.0, 0.0, 0.0, 0.0, 1.6212687762894735E9, 2021-05-17 18:26:16.289
32.0, -56.1583366394043, -210.30953979492188, -36.47898483276367, 328.96160888671875, -0.06400000303983688, 0.01600000075995922, 1.055999994277954, 0.0, 0.0, 0.0, 0.0, 0.0, 1.6212687763052592E9, 2021-05-17 18:26:16.305
32.0, -57.26534652709961, -201.707763671875, -43.498775482177734, 338.8087463378906, -0.06400000303983688, 0.01600000075995922, 1.055999994277954, 0.0, 0.0, 0.0, 0.0, 0.0, 1.6212687763052592E9, 2021-05-17 18:26:16.305
33.0, -52.63909149169922, -193.56600952148438, -37.72063064575195, 344.8038024902344, -0.06400000303983688, 0.01600000075995922, 1.055999994277954, 0.0, 0.0, 0.0, 0.0, 0.0, 1.6212687763059075E9, 2021-05-17 18:26:16.305
33.0, -64.59928894042969, -207.5494842529297, -36.93151092529297, 330.18829345703125, -0.06400000303983688, 0.01600000075995922, 1.055999994277954, 0.0, 0.0, 0.0, 0.0, 0.0, 1.6212687763059075E9, 2021-05-17 18:26:16.305
34.0, -66.50289916992188, -211.64842224121094, -36.4266242980957, 315.6475524902344, -0.06400000303983688, 0.01600000075995922, 1.055999994277954, 0.0, 0.0, 0.0, 0.0, 0.0, 1.6212687763359556E9, 2021-05-17 18:26:16.335
34.0, -59.685062408447266, -205.08489990234375, -37.791690826416016, 326.69146728515625, -0.06400000303983688, 0.01600000075995922, 1.055999994277954, 0.0, 0.0, 0.0, 0.0, 0.0, 1.6212687763359556E9, 2021-05-17 18:26:16.335
35.0, -40.08798599243164, -200.08090209960938, -37.93380355834961, 333.636474609375, -0.06400000303983688, 0.01600000075995922, 1.055999994277954, 0.0, 0.0, 0.0, 0.0, 0.0, 1.6212687763366213E9, 2021-05-17 18:26:16.336
35.0, -46.78614807128906, -201.39361572265625, -32.35761260986328, 330.78668212890625, -0.06400000303983688, 0.01600000075995922, 1.055999994277954, 0.0, 0.0, 0.0, 0.0, 0.0, 1.6212687763366213E9, 2021-05-17 18:26:16.336
36.0, -56.147117614746094, -215.17514038085938, -29.94537925720215, 318.68060302734375, -0.06400000303983688, 0.01600000075995922, 1.055999994277954, 0.0, 0.0, 0.0, 0.0, 0.0, 1.6212687763372328E9, 2021-05-17 18:26:16.337
36.0, -53.74236297607422, -203.6525115966797, -26.067102432250977, 336.2244873046875, -0.06400000303983688, 0.01600000075995922, 1.055999994277954, 0.0, 0.0, 0.0, 0.0, 0.0, 1.6212687763372328E9, 2021-05-17 18:26:16.337
37.0, -40.353519439697266, -195.0432586669922, -24.75065803527832, 353.390625, -0.06400000303983688, 0.01600000075995922, 1.055999994277954, 0.0, 0.0, 0.0, 0.0, 0.0, 1.621268776349375E9, 2021-05-17 18:26:16.349
37.0, -45.66417694091797, -199.923828125, -25.670673370361328, 343.88006591796875, -0.06400000303983688, 0.01600000075995922, 1.055999994277954, 0.0, 0.0, 0.0, 0.0, 0.0, 1.621268776349375E9, 2021-05-17 18:26:16.349
38.0, -43.57731246948242, -216.39060974121094, -24.339269638061523, 329.892822265625, -0.06400000303983688, 0.01600000075995922, 1.055999994277954, 0.0, 0.0, 0.0, 0.0, 0.0, 1.6212687763651361E9, 2021-05-17 18:26:16.365
38.0, -37.01005172729492, -204.77073669433594, -25.431320190429688, 341.85302734375, -0.06400000303983688, 0.01600000075995922, 1.055999994277954, 0.0, 0.0, 0.0, 0.0, 0.0, 1.6212687763651361E9, 2021-05-17 18:26:16.365
39.0, -25.876367568969727, -190.83961486816406, -25.289203643798828, 357.040771484375, -0.06400000303983688, 0.01600000075995922, 1.055999994277954, 0.0, 0.0, 0.0, 0.0, 0.0, 1.6212687763657897E9, 2021-05-17 18:26:16.365
39.0, -37.23070526123047, -197.91551208496094, -17.110042572021484, 347.0328063964844, -0.06400000303983688, 0.01600000075995922, 1.055999994277954, 0.0, 0.0, 0.0, 0.0, 0.0, 1.6212687763657897E9, 2021-05-17 18:26:16.365
40.0, -44.990997314453125, -213.12567138671875, -21.822317123413086, 336.7705078125, -0.06400000303983688, 0.01600000075995922, 1.055999994277954, 0.0, 0.0, 0.0, 0.0, 0.0, 1.6212687763793476E9, 2021-05-17 18:26:16.379
40.0, -41.987857818603516, -205.5635986328125, -25.502378463745117, 339.91949462890625, -0.06400000303983688, 0.01600000075995922, 1.055999994277954, 0.0, 0.0, 0.0, 0.0, 0.0, 1.6212687763793476E9, 2021-05-17 18:26:16.379
41.0, -36.84549331665039, -199.02252197265625, -29.01788330078125, 350.7951354980469, -0.06400000303983688, 0.0, 1.055999994277954, 0.0, 0.0, 0.0, 0.0, 0.0, 1.6212687763950903E9, 2021-05-17 18:26:16.395
41.0, -44.15699768066406, -204.28456115722656, -22.31972312927246, 346.4381408691406, -0.06400000303983688, 0.0, 1.055999994277954, 0.0, 0.0, 0.0, 0.0, 0.0, 1.6212687763950903E9, 2021-05-17 18:26:16.395
42.0, -59.4905891418457, -214.3897705078125, -23.920400619506836, 333.02313232421875, -0.08000000566244125, 0.0, 1.055999994277954, 0.0, 0.0, 0.0, 0.0, 0.0, 1.6212687763957791E9, 2021-05-17 18:26:16.395
42.0, -49.744407653808594, -212.27671813964844, -28.662593841552734, 338.9396667480469, -0.08000000566244125, 0.0, 1.055999994277954, 0.0, 0.0, 0.0, 0.0, 0.0, 1.6212687763957791E9, 2021-05-17 18:26:16.395
43.0, -50.56718826293945, -197.7958221435547, -26.392473220825195, 348.554931640625, -0.08000000566244125, 0.0, 1.055999994277954, 0.0, 0.0, 0.0, 0.0, 0.0, 1.6212687764094102E9, 2021-05-17 18:26:16.409
43.0, -59.737422943115234, -203.76844787597656, -25.614574432373047, 337.3277587890625, -0.08000000566244125, 0.0, 1.055999994277954, 0.0, 0.0, 0.0, 0.0, 0.0, 1.6212687764094102E9, 2021-05-17 18:26:16.409
44.0, -73.66481018066406, -217.647216796875, -28.363401412963867, 324.7055969238281, -0.08000000566244125, 0.0, 1.055999994277954, 0.0, 0.0, 0.0, 0.0, 0.0, 1.6212687764250937E9, 2021-05-17 18:26:16.425
44.0, -63.226749420166016, -204.95773315429688, -36.475242614746094, 329.3131408691406, -0.08000000566244125, 0.0, 1.055999994277954, 0.0, 0.0, 0.0, 0.0, 0.0, 1.6212687764250937E9, 2021-05-17 18:26:16.425
45.0, -46.9843635559082, -196.13531494140625, -33.18413162231445, 344.54949951171875, -0.08000000566244125, 0.0, 1.055999994277954, 0.0, 0.0, 0.0, 0.0, 0.0, 1.6212687764258227E9, 2021-05-17 18:26:16.425
45.0, -57.826332092285156, -217.29566955566406, -29.863101959228516, 331.9984130859375, -0.08000000566244125, 0.0, 1.055999994277954, 0.0, 0.0, 0.0, 0.0, 0.0, 1.6212687764258227E9, 2021-05-17 18:26:16.425
46.0, -57.90113067626953, -225.4785614013672, -33.812435150146484, 320.3710632324219, -0.08000000566244125, 0.0, 1.055999994277954, 0.0, 0.0, 0.0, 0.0, 0.0, 1.6212687764395363E9, 2021-05-17 18:26:16.439
46.0, -43.696990966796875, -212.0972137451172, -26.695405960083008, 335.7607421875, -0.08000000566244125, 0.0, 1.055999994277954, 0.0, 0.0, 0.0, 0.0, 0.0, 1.6212687764395363E9, 2021-05-17 18:26:16.439
47.0, -39.725215911865234, -204.3369140625, -24.86285400390625, 340.8096008300781, -0.08000000566244125, 0.0, 1.055999994277954, 0.0, 0.0, 0.0, 0.0, 0.0, 1.62126877645509E9, 2021-05-17 18:26:16.455
47.0, -41.591426849365234, -211.7232208251953, -17.730865478515625, 336.2581481933594, -0.08000000566244125, 0.0, 1.055999994277954, 0.0, 0.0, 0.0, 0.0, 0.0, 1.62126877645509E9, 2021-05-17 18:26:16.455
48.0, -45.1779899597168, -212.49363708496094, -14.600569725036621, 327.5292053222656, -0.08000000566244125, 0.0, 1.055999994277954, 0.0, 0.0, 0.0, 0.0, 0.0, 1.621268776455854E9, 2021-05-17 18:26:16.455
48.0, -34.85586929321289, -200.06968688964844, -16.219945907592773, 343.25177001953125, -0.08000000566244125, 0.0, 1.055999994277954, 0.0, 0.0, 0.0, 0.0, 0.0, 1.621268776455854E9, 2021-05-17 18:26:16.455
49.0, -29.44797134399414, -186.72198486328125, -14.140562057495117, 358.37591552734375, -0.08000000566244125, 0.0, 1.055999994277954, 0.0, 0.0, 0.0, 0.0, 0.0, 1.6212687764694972E9, 2021-05-17 18:26:16.469
49.0, -40.72377014160156, -188.19924926757812, -11.129941940307617, 351.5468444824219, -0.08000000566244125, 0.0, 1.055999994277954, 0.0, 0.0, 0.0, 0.0, 0.0, 1.6212687764694972E9, 2021-05-17 18:26:16.469
50.0, -45.10693359375, -195.67904663085938, -6.799138069152832, 343.812744140625, -0.08000000566244125, 0.0, 1.055999994277954, 0.0, 0.0, 0.0, 0.0, 0.0, 1.6212687764850664E9, 2021-05-17 18:26:16.485
50.0, -43.20332336425781, -193.59217834472656, -13.00737190246582, 348.1846923828125, -0.08000000566244125, 0.0, 1.055999994277954, 0.0, 0.0, 0.0, 0.0, 0.0, 1.6212687764850664E9, 2021-05-17 18:26:16.485
51.0, -33.44966506958008, -178.7672119140625, -10.512858390808105, 361.4351501464844, -0.08000000566244125, 0.0, 1.055999994277954, 0.0, 0.0, 0.0, 0.0, 0.0, 1.6212687764857948E9, 2021-05-17 18:26:16.485
51.0, -48.64113998413086, -192.6908721923828, -13.96104621887207, 344.24658203125, -0.08000000566244125, 0.0, 1.055999994277954, 0.0, 0.0, 0.0, 0.0, 0.0, 1.6212687764857948E9, 2021-05-17 18:26:16.485
52.0, -61.603633880615234, -207.24655151367188, -18.983732223510742, 332.5668640136719, -0.06400000303983688, 0.0, 1.055999994277954, 0.0, 0.0, 0.0, 0.0, 0.0, 1.621268776499524E9, 2021-05-17 18:26:16.499
52.0, -54.13131332397461, -197.23484802246094, -17.719646453857422, 342.61224365234375, -0.06400000303983688, 0.0, 1.055999994277954, 0.0, 0.0, 0.0, 0.0, 0.0, 1.621268776499524E9, 2021-05-17 18:26:16.499
53.0, -51.524600982666016, -191.01913452148438, -17.99639892578125, 352.792236328125, -0.06400000303983688, 0.0, 1.055999994277954, 0.0, 0.0, 0.0, 0.0, 0.0, 1.6212687765321565E9, 2021-05-17 18:26:16.532
53.0, -53.35341262817383, -204.13870239257812, -19.06974983215332, 348.7232360839844, -0.06400000303983688, 0.0, 1.055999994277954, 0.0, 0.0, 0.0, 0.0, 0.0, 1.6212687765321565E9, 2021-05-17 18:26:16.532
54.0, -64.40481567382812, -219.7340850830078, -27.787456512451172, 337.039794921875, -0.06400000303983688, 0.0, 1.055999994277954, 0.0, 0.0, 0.0, 0.0, 0.0, 1.6212687765328681E9, 2021-05-17 18:26:16.532
54.0, -49.9949836730957, -208.67520141601562, -29.881799697875977, 344.2764892578125, -0.06400000303983688, 0.0, 1.055999994277954, 0.0, 0.0, 0.0, 0.0, 0.0, 1.6212687765328681E9, 2021-05-17 18:26:16.532
55.0, -44.897499084472656, -196.67759704589844, -23.553890228271484, 352.8670349121094, -0.06400000303983688, 0.0, 1.055999994277954, 0.0, 0.0, 0.0, 0.0, 0.0, 1.6212687765336075E9, 2021-05-17 18:26:16.533
55.0, -51.64801788330078, -210.64987182617188, -24.507564544677734, 340.8769226074219, -0.06400000303983688, 0.0, 1.055999994277954, 0.0, 0.0, 0.0, 0.0, 0.0, 1.6212687765336075E9, 2021-05-17 18:26:16.533
56.0, -60.57516098022461, -215.21627807617188, -25.102209091186523, 328.6661376953125, -0.06400000303983688, 0.0, 1.055999994277954, 0.0, 0.0, 0.0, 0.0, 0.0, 1.6212687765343614E9, 2021-05-17 18:26:16.534
56.0, -51.85371398925781, -204.00405883789062, -20.670427322387695, 338.7526550292969, -0.06400000303983688, 0.0, 1.055999994277954, 0.0, 0.0, 0.0, 0.0, 0.0, 1.6212687765343614E9, 2021-05-17 18:26:16.534
57.0, -48.921630859375, -199.2057647705078, -14.585609436035156, 346.11651611328125, -0.06400000303983688, 0.0, 1.055999994277954, 0.0, 0.0, 0.0, 0.0, 0.0, 1.6212687765443916E9, 2021-05-17 18:26:16.544
57.0, -49.807987213134766, -203.32339477539062, -8.250219345092773, 341.9016418457031, -0.06400000303983688, 0.0, 1.055999994277954, 0.0, 0.0, 0.0, 0.0, 0.0, 1.6212687765443916E9, 2021-05-17 18:26:16.544
58.0, -61.13614273071289, -220.20530700683594, -14.443493843078613, 326.03326416015625, -0.06400000303983688, 0.0, 1.055999994277954, 0.0, 0.0, 0.0, 0.0, 0.0, 1.6212687765594687E9, 2021-05-17 18:26:16.559
58.0, -54.06773376464844, -206.56964111328125, -6.440107822418213, 338.6778564453125, -0.06400000303983688, 0.0, 1.055999994277954, 0.0, 0.0, 0.0, 0.0, 0.0, 1.6212687765594687E9, 2021-05-17 18:26:16.559
59.0, -45.701576232910156, -191.4940948486328, -4.162508487701416, 346.5466003417969, -0.06400000303983688, 0.0, 1.055999994277954, 0.0, 0.0, 0.0, 0.0, 0.0, 1.6212687765752115E9, 2021-05-17 18:26:16.575
59.0, -60.597599029541016, -203.68991088867188, -3.0405385494232178, 337.357666015625, -0.06400000303983688, 0.0, 1.055999994277954, 0.0, 0.0, 0.0, 0.0, 0.0, 1.6212687765752115E9, 2021-05-17 18:26:16.575
60.0, -64.8835220336914, -205.45513916015625, -4.495359897613525, 333.9992370605469, -0.06400000303983688, 0.0, 1.055999994277954, 0.0, 0.0, 0.0, 0.0, 0.0, 1.6212687765759227E9, 2021-05-17 18:26:16.575
60.0, -64.30384063720703, -199.07861328125, -7.838830471038818, 339.5305480957031, -0.06400000303983688, 0.0, 1.055999994277954, 0.0, 0.0, 0.0, 0.0, 0.0, 1.6212687765759227E9, 2021-05-17 18:26:16.575
61.0, -50.324092864990234, -195.11058044433594, -9.274951934814453, 350.8325500488281, -0.06400000303983688, 0.0, 1.055999994277954, 0.0, 0.0, 0.0, 0.0, 0.0, 1.621268776589533E9, 2021-05-17 18:26:16.589
61.0, -44.90497970581055, -194.4224395751953, -3.8707964420318604, 346.58026123046875, -0.06400000303983688, 0.0, 1.055999994277954, 0.0, 0.0, 0.0, 0.0, 0.0, 1.621268776589533E9, 2021-05-17 18:26:16.589
62.0, -57.960968017578125, -208.2376251220703, -14.04332447052002, 331.7515563964844, -0.08000000566244125, 0.0, 1.055999994277954, 0.0, 0.0, 0.0, 0.0, 0.0, 1.621268776605153E9, 2021-05-17 18:26:16.605
62.0, -43.82788848876953, -199.0748748779297, -11.384255409240723, 343.96234130859375, -0.08000000566244125, 0.0, 1.055999994277954, 0.0, 0.0, 0.0, 0.0, 0.0, 1.621268776605153E9, 2021-05-17 18:26:16.605
63.0, -32.469810485839844, -191.2734375, -10.729772567749023, 357.17913818359375, -0.08000000566244125, 0.0, 1.055999994277954, 0.0, 0.0, 0.0, 0.0, 0.0, 1.6212687766058495E9, 2021-05-17 18:26:16.605
63.0, -41.91679763793945, -200.08090209960938, -12.472566604614258, 343.3677062988281, -0.08000000566244125, 0.0, 1.055999994277954, 0.0, 0.0, 0.0, 0.0, 0.0, 1.6212687766058495E9, 2021-05-17 18:26:16.605
64.0, -50.0772590637207, -210.7845001220703, -12.652081489562988, 332.5743408203125, -0.08000000566244125, 0.0, 1.055999994277954, 0.0, 0.0, 0.0, 0.0, 0.0, 1.6212687766193724E9, 2021-05-17 18:26:16.619
64.0, -52.0033073425293, -205.87400817871094, -12.719399452209473, 343.2218322753906, -0.08000000566244125, 0.0, 1.055999994277954, 0.0, 0.0, 0.0, 0.0, 0.0, 1.6212687766193724E9, 2021-05-17 18:26:16.619
65.0, -31.014989852905273, -193.5323486328125, -12.139715194702148, 355.0287170410156, -0.08000000566244125, 0.0, 1.055999994277954, 0.0, 0.0, 0.0, 0.0, 0.0, 1.6212687766358087E9, 2021-05-17 18:26:16.635
65.0, -49.852867126464844, -202.75868225097656, -13.504778861999512, 340.4543151855469, -0.08000000566244125, 0.0, 1.055999994277954, 0.0, 0.0, 0.0, 0.0, 0.0, 1.6212687766358087E9, 2021-05-17 18:26:16.635
66.0, -59.69628143310547, -213.9970703125, -11.339376449584961, 329.37298583984375, -0.08000000566244125, 0.0, 1.055999994277954, 0.0, 0.0, 0.0, 0.0, 0.0, 1.6212687766365638E9, 2021-05-17 18:26:16.636
66.0, -54.65863800048828, -205.29432678222656, -12.69696044921875, 332.7052307128906, -0.08000000566244125, 0.0, 1.055999994277954, 0.0, 0.0, 0.0, 0.0, 0.0, 1.6212687766365638E9, 2021-05-17 18:26:16.636
67.0, -49.037567138671875, -195.9408416748047, -13.512258529663086, 342.08489990234375, -0.08000000566244125, 0.0, 1.055999994277954, 0.0, 0.0, 0.0, 0.0, 0.0, 1.6212687766493907E9, 2021-05-17 18:26:16.649
67.0, -57.968448638916016, -210.07391357421875, -12.824116706848145, 334.4293212890625, -0.08000000566244125, 0.0, 1.055999994277954, 0.0, 0.0, 0.0, 0.0, 0.0, 1.6212687766493907E9, 2021-05-17 18:26:16.649
68.0, -67.05640411376953, -216.26345825195312, -15.210172653198242, 319.398681640625, -0.08000000566244125, 0.0, 1.055999994277954, 0.0, 0.0, 0.0, 0.0, 0.0, 1.62126877666516E9, 2021-05-17 18:26:16.665
68.0, -61.03890609741211, -213.89236450195312, -23.052743911743164, 325.7901611328125, -0.08000000566244125, 0.0, 1.055999994277954, 0.0, 0.0, 0.0, 0.0, 0.0, 1.62126877666516E9, 2021-05-17 18:26:16.665
69.0, -49.23952102661133, -198.6111297607422, -17.125001907348633, 340.5627746582031, -0.08000000566244125, 0.0, 1.055999994277954, 0.0, 0.0, 0.0, 0.0, 0.0, 1.6212687766657472E9, 2021-05-17 18:26:16.665
69.0, -46.45703887939453, -212.5123291015625, -19.04730987548828, 333.2437744140625, -0.08000000566244125, 0.0, 1.055999994277954, 0.0, 0.0, 0.0, 0.0, 0.0, 1.6212687766657472E9, 2021-05-17 18:26:16.665
70.0, -57.830074310302734, -221.2075958251953, -21.941993713378906, 320.2513732910156, -0.08000000566244125, 0.0, 1.055999994277954, 0.0, 0.0, 0.0, 0.0, 0.0, 1.6212687766794543E9, 2021-05-17 18:26:16.679
70.0, -49.29936218261719, -212.6020965576172, -20.86490249633789, 332.37237548828125, -0.08000000566244125, 0.0, 1.055999994277954, 0.0, 0.0, 0.0, 0.0, 0.0, 1.6212687766794543E9, 2021-05-17 18:26:16.679
71.0, -43.6109733581543, -205.70945739746094, -22.746070861816406, 337.2230529785156, -0.08000000566244125, 0.0, 1.055999994277954, 0.0, 0.0, 0.0, 0.0, 0.0, 1.6212687766951957E9, 2021-05-17 18:26:16.695
71.0, -54.55392074584961, -211.49508666992188, -15.131635665893555, 335.8392639160156, -0.08000000566244125, 0.0, 1.055999994277954, 0.0, 0.0, 0.0, 0.0, 0.0, 1.6212687766951957E9, 2021-05-17 18:26:16.695
72.0, -59.71498107910156, -218.0847930908203, -16.90060806274414, 325.6330871582031, -0.06400000303983688, 0.0, 1.055999994277954, 0.0, 0.0, 0.0, 0.0, 0.0, 1.6212687766958635E9, 2021-05-17 18:26:16.695
72.0, -55.249542236328125, -210.36563110351562, -22.076629638671875, 332.533203125, -0.06400000303983688, 0.0, 1.055999994277954, 0.0, 0.0, 0.0, 0.0, 0.0, 1.6212687766958635E9, 2021-05-17 18:26:16.695
73.0, -41.060359954833984, -193.1022491455078, -13.134529113769531, 354.9688720703125, -0.06400000303983688, 0.0, 1.055999994277954, 0.0, 0.0, 0.0, 0.0, 0.0, 1.62126877670943E9, 2021-05-17 18:26:16.709
73.0, -46.217681884765625, -201.04954528808594, -2.7376067638397217, 340.57025146484375, -0.06400000303983688, 0.0, 1.055999994277954, 0.0, 0.0, 0.0, 0.0, 0.0, 1.62126877670943E9, 2021-05-17 18:26:16.709
74.0, -59.61026382446289, -208.1142120361328, -4.558938026428223, 332.30133056640625, -0.06400000303983688, 0.0, 1.055999994277954, 0.0, 0.0, 0.0, 0.0, 0.0, 1.621268776725165E9, 2021-05-17 18:26:16.725
74.0, -50.68686294555664, -198.7008819580078, -7.307764530181885, 340.6974182128906, -0.06400000303983688, 0.0, 1.055999994277954, 0.0, 0.0, 0.0, 0.0, 0.0, 1.621268776725165E9, 2021-05-17 18:26:16.725
75.0, -42.264610290527344, -185.48782348632812, -4.858129978179932, 353.6785888671875, -0.06400000303983688, 0.0, 1.055999994277954, 0.0, 0.0, 0.0, 0.0, 0.0, 1.6212687767258356E9, 2021-05-17 18:26:16.725
75.0, -44.235538482666016, -193.63331604003906, -0.8003385663032532, 346.59521484375, -0.06400000303983688, 0.0, 1.055999994277954, 0.0, 0.0, 0.0, 0.0, 0.0, 1.6212687767258356E9, 2021-05-17 18:26:16.725
76.0, -67.67349243164062, -204.2957763671875, -5.392935752868652, 324.2942199707031, -0.06400000303983688, 0.0, 1.055999994277954, 0.0, 0.0, 0.0, 0.0, 0.0, 1.6212687767395084E9, 2021-05-17 18:26:16.739
76.0, -52.953243255615234, -197.20118713378906, -2.943301200866699, 340.4281311035156, -0.06400000303983688, 0.0, 1.055999994277954, 0.0, 0.0, 0.0, 0.0, 0.0, 1.6212687767395084E9, 2021-05-17 18:26:16.739
77.0, -39.72895812988281, -191.6212615966797, -6.556044578552246, 346.6101989746094, -0.06400000303983688, 0.0, 1.055999994277954, 0.0, 0.0, 0.0, 0.0, 0.0, 1.621268776755122E9, 2021-05-17 18:26:16.755
77.0, -35.75718307495117, -202.223876953125, -2.5356521606445312, 339.4445495605469, -0.06400000303983688, 0.0, 1.055999994277954, 0.0, 0.0, 0.0, 0.0, 0.0, 1.621268776755122E9, 2021-05-17 18:26:16.755
78.0, -44.310333251953125, -217.74072265625, -9.50308609008789, 324.98236083984375, -0.06400000303983688, 0.0, 1.055999994277954, 0.0, 0.0, 0.0, 0.0, 0.0, 1.6212687767559147E9, 2021-05-17 18:26:16.755
78.0, -45.8997917175293, -212.37770080566406, -12.790457725524902, 332.79498291015625, -0.06400000303983688, 0.0, 1.055999994277954, 0.0, 0.0, 0.0, 0.0, 0.0, 1.6212687767559147E9, 2021-05-17 18:26:16.755
79.0, -32.16313934326172, -202.86338806152344, -8.616729736328125, 351.94329833984375, -0.06400000303983688, 0.0, 1.055999994277954, 0.0, 0.0, 0.0, 0.0, 0.0, 1.6212687767694373E9, 2021-05-17 18:26:16.769
79.0, -35.869380950927734, -210.16368103027344, -0.2954520881175995, 345.5892028808594, -0.06400000303983688, 0.0, 1.055999994277954, 0.0, 0.0, 0.0, 0.0, 0.0, 1.6212687767694373E9, 2021-05-17 18:26:16.769
80.0, -55.025146484375, -219.74156188964844, -4.203647613525391, 328.22857666015625, -0.06400000303983688, 0.0, 1.055999994277954, 0.0, 0.0, 0.0, 0.0, 0.0, 1.6212687767851007E9, 2021-05-17 18:26:16.785
80.0, -50.944915771484375, -215.97547912597656, -6.103516578674316, 336.2057800292969, -0.06400000303983688, 0.0, 1.055999994277954, 0.0, 0.0, 0.0, 0.0, 0.0, 1.6212687767851007E9, 2021-05-17 18:26:16.785
81.0, -35.87311935424805, -201.35995483398438, -0.15333589911460876, 349.7442321777344, -0.06400000303983688, 0.0, 1.055999994277954, 0.0, 0.0, 0.0, 0.0, 0.0, 1.62126877678582E9, 2021-05-17 18:26:16.785
81.0, -42.081356048583984, -206.8837890625, 1.3089649677276611, 338.1131286621094, -0.06400000303983688, 0.0, 1.055999994277954, 0.0, 0.0, 0.0, 0.0, 0.0, 1.62126877678582E9, 2021-05-17 18:26:16.785
82.0, -63.884971618652344, -224.73806762695312, -10.539037704467773, 318.5085754394531, -0.06400000303983688, 0.0, 1.055999994277954, 0.0, 0.0, 0.0, 0.0, 0.0, 1.6212687767995188E9, 2021-05-17 18:26:16.799
82.0, -57.56079864501953, -214.72634887695312, -7.715413570404053, 329.1224060058594, -0.06400000303983688, 0.0, 1.055999994277954, 0.0, 0.0, 0.0, 0.0, 0.0, 1.6212687767995188E9, 2021-05-17 18:26:16.799
83.0, -49.35546112060547, -202.16403198242188, -7.704194068908691, 343.120849609375, -0.06400000303983688, 0.0, 1.055999994277954, 0.0, 0.0, 0.0, 0.0, 0.0, 1.6212687768151503E9, 2021-05-17 18:26:16.815
83.0, -64.87230682373047, -216.82069396972656, -8.826164245605469, 328.02288818359375, -0.06400000303983688, 0.0, 1.055999994277954, 0.0, 0.0, 0.0, 0.0, 0.0, 1.6212687768151503E9, 2021-05-17 18:26:16.815
84.0, -65.45198822021484, -219.06837463378906, -6.604663372039795, 315.1950378417969, -0.06400000303983688, 0.0, 1.055999994277954, 0.0, 0.0, 0.0, 0.0, 0.0, 1.621268776815873E9, 2021-05-17 18:26:16.815
84.0, -49.561153411865234, -215.1826171875, -12.214512825012207, 325.0870666503906, -0.06400000303983688, 0.0, 1.055999994277954, 0.0, 0.0, 0.0, 0.0, 0.0, 1.621268776815873E9, 2021-05-17 18:26:16.815
85.0, -37.33916091918945, -205.29806518554688, -11.604909896850586, 341.34442138671875, -0.06400000303983688, 0.0, 1.055999994277954, 0.0, 0.0, 0.0, 0.0, 0.0, 1.6212687768294473E9, 2021-05-17 18:26:16.829
85.0, -46.142887115478516, -213.6717071533203, -6.387749195098877, 331.078369140625, -0.06400000303983688, 0.0, 1.055999994277954, 0.0, 0.0, 0.0, 0.0, 0.0, 1.6212687768294473E9, 2021-05-17 18:26:16.829
86.0, -60.04035568237305, -224.03121948242188, -7.3002848625183105, 315.9542236328125, -0.06400000303983688, 0.0, 1.055999994277954, 0.0, 0.0, 0.0, 0.0, 0.0, 1.621268776845188E9, 2021-05-17 18:26:16.845
86.0, -53.74236297607422, -218.5298309326172, -12.109796524047852, 328.5838623046875, -0.06400000303983688, 0.0, 1.055999994277954, 0.0, 0.0, 0.0, 0.0, 0.0, 1.621268776845188E9, 2021-05-17 18:26:16.845
87.0, -34.94188690185547, -207.7252655029297, -3.7324202060699463, 349.3253479003906, -0.06400000303983688, 0.0, 1.055999994277954, 0.0, 0.0, 0.0, 0.0, 0.0, 1.6212687768458052E9, 2021-05-17 18:26:16.845
87.0, -45.851173400878906, -215.59774780273438, -4.207387447357178, 336.7069396972656, -0.06400000303983688, 0.0, 1.055999994277954, 0.0, 0.0, 0.0, 0.0, 0.0, 1.6212687768458052E9, 2021-05-17 18:26:16.845
88.0, -56.4276123046875, -227.3560028076172, -5.067564487457275, 326.14544677734375, -0.06400000303983688, 0.0, 1.055999994277954, 0.0, 0.0, 0.0, 0.0, 0.0, 1.6212687768595436E9, 2021-05-17 18:26:16.859
88.0, -45.70905685424805, -214.94326782226562, -7.666794776916504, 334.4891662597656, -0.06400000303983688, 0.0, 1.055999994277954, 0.0, 0.0, 0.0, 0.0, 0.0, 1.6212687768595436E9, 2021-05-17 18:26:16.859
89.0, -41.266056060791016, -197.92672729492188, -2.580530881881714, 350.3313903808594, -0.06400000303983688, 0.0, 1.055999994277954, 0.0, 0.0, 0.0, 0.0, 0.0, 1.6212687768922052E9, 2021-05-17 18:26:16.892
89.0, -49.10488510131836, -205.67953491210938, 1.1855483055114746, 338.060791015625, -0.06400000303983688, 0.0, 1.055999994277954, 0.0, 0.0, 0.0, 0.0, 0.0, 1.6212687768922052E9, 2021-05-17 18:26:16.892
90.0, -61.637290954589844, -214.3486328125, 2.6777684688568115, 334.2311096191406, -0.06400000303983688, 0.0, 1.055999994277954, 0.0, 0.0, 0.0, 0.0, 0.0, 1.6212687768929293E9, 2021-05-17 18:26:16.892
90.0, -53.14023971557617, -204.62489318847656, 8.055744171142578, 338.3450012207031, -0.06400000303983688, 0.0, 1.055999994277954, 0.0, 0.0, 0.0, 0.0, 0.0, 1.6212687768929293E9, 2021-05-17 18:26:16.892
91.0, -38.58454895019531, -192.17849731445312, 8.306317329406738, 354.1011962890625, -0.06400000303983688, 0.0, 1.055999994277954, 0.0, 0.0, 0.0, 0.0, 0.0, 1.621268776893678E9, 2021-05-17 18:26:16.893
91.0, -58.308780670166016, -201.99574279785156, 7.01605224609375, 341.4229431152344, -0.06400000303983688, 0.0, 1.055999994277954, 0.0, 0.0, 0.0, 0.0, 0.0, 1.621268776893678E9, 2021-05-17 18:26:16.893
92.0, -59.296112060546875, -216.95533752441406, 5.422854900360107, 325.2030029296875, -0.06400000303983688, 0.0, 1.055999994277954, 0.0, 0.0, 0.0, 0.0, 0.0, 1.621268776894384E9, 2021-05-17 18:26:16.894
92.0, -48.027793884277344, -214.62164306640625, -2.367356777191162, 325.84625244140625, -0.06400000303983688, 0.0, 1.055999994277954, 0.0, 0.0, 0.0, 0.0, 0.0, 1.621268776894384E9, 2021-05-17 18:26:16.894
93.0, -34.1265869140625, -207.87486267089844, 0.3777298927307129, 335.8841552734375, -0.06400000303983688, 0.0, 1.055999994277954, 0.0, 0.0, 0.0, 0.0, 0.0, 1.6212687769044409E9, 2021-05-17 18:26:16.904
93.0, -41.11272048950195, -211.7980194091797, 4.457960605621338, 329.5038757324219, -0.06400000303983688, 0.0, 1.055999994277954, 0.0, 0.0, 0.0, 0.0, 0.0, 1.6212687769044409E9, 2021-05-17 18:26:16.904
94.0, -53.480567932128906, -225.8338623046875, -3.8146979808807373, 310.2097473144531, -0.06400000303983688, 0.0, 1.055999994277954, 0.0, 0.0, 0.0, 0.0, 0.0, 1.6212687769193923E9, 2021-05-17 18:26:16.919
94.0, -49.54245376586914, -220.59799194335938, -3.0068795680999756, 322.9254150390625, -0.06400000303983688, 0.0, 1.055999994277954, 0.0, 0.0, 0.0, 0.0, 0.0, 1.6212687769193923E9, 2021-05-17 18:26:16.919
95.0, -41.176300048828125, -208.17031860351562, 0.13837629556655884, 335.6859436035156, -0.06400000303983688, 0.0, 1.055999994277954, 0.0, 0.0, 0.0, 0.0, 0.0, 1.6212687769350913E9, 2021-05-17 18:26:16.935
95.0, -52.867225646972656, -218.07730102539062, 3.7885186672210693, 334.2273864746094, -0.06400000303983688, 0.0, 1.055999994277954, 0.0, 0.0, 0.0, 0.0, 0.0, 1.6212687769350913E9, 2021-05-17 18:26:16.935
96.0, -64.35993957519531, -229.45782470703125, 2.228980302810669, 322.3681640625, -0.06400000303983688, 0.0, 1.055999994277954, 0.0, 0.0, 0.0, 0.0, 0.0, 1.6212687769359128E9, 2021-05-17 18:26:16.935
96.0, -65.16401672363281, -220.4035186767578, -3.0891573429107666, 334.97161865234375, -0.06400000303983688, 0.0, 1.055999994277954, 0.0, 0.0, 0.0, 0.0, 0.0, 1.6212687769359128E9, 2021-05-17 18:26:16.935
97.0, -47.994136810302734, -205.9488067626953, 1.6380761861801147, 347.1562194824219, -0.06400000303983688, 0.0, 1.055999994277954, 0.0, 0.0, 0.0, 0.0, 0.0, 1.621268776949465E9, 2021-05-17 18:26:16.949
97.0, -60.15629196166992, -208.7911376953125, 1.8998692035675049, 336.5049743652344, -0.06400000303983688, 0.0, 1.055999994277954, 0.0, 0.0, 0.0, 0.0, 0.0, 1.621268776949465E9, 2021-05-17 18:26:16.949
98.0, -68.67578125, -223.13739013671875, 0.3777298927307129, 326.28009033203125, -0.06400000303983688, 0.0, 1.055999994277954, 0.0, 0.0, 0.0, 0.0, 0.0, 1.6212687769650877E9, 2021-05-17 18:26:16.965
98.0, -57.26908874511719, -215.7024688720703, 4.001692771911621, 334.3956604003906, -0.06400000303983688, 0.0, 1.055999994277954, 0.0, 0.0, 0.0, 0.0, 0.0, 1.6212687769650877E9, 2021-05-17 18:26:16.965
99.0, -40.884586334228516, -199.8826904296875, 3.9007155895233154, 347.9677734375, -0.06400000303983688, 0.0, 1.055999994277954, 0.0, 0.0, 0.0, 0.0, 0.0, 1.6212687769658303E9, 2021-05-17 18:26:16.965
99.0, -36.54256057739258, -213.0658416748047, 6.541085243225098, 338.1019287109375, -0.06400000303983688, 0.0, 1.055999994277954, 0.0, 0.0, 0.0, 0.0, 0.0, 1.6212687769658303E9, 2021-05-17 18:26:16.965
100.0, -47.05168151855469, -224.2518768310547, 9.951873779296875, 329.387939453125, -0.06400000303983688, 0.0, 1.040000081062317, 0.0, 0.0, 0.0, 0.0, 0.0, 1.62126877698011E9, 2021-05-17 18:26:16.980
100.0, -38.02730178833008, -213.4136505126953, 9.424548149108887, 335.6260986328125, -0.06400000303983688, 0.0, 1.040000081062317, 0.0, 0.0, 0.0, 0.0, 0.0, 1.62126877698011E9, 2021-05-17 18:26:16.980
0.0, -21.268810272216797, -202.82972717285156, 15.632781982421875, 345.2806396484375, -0.06400000303983688, 0.0, 1.040000081062317, 0.0, 0.0, 0.0, 0.0, 0.0, 1.621268776980864E9, 2021-05-17 18:26:16.980
1.0, -31.25808334350586, -215.2312469482422, 16.889389038085938, 333.48126220703125, -0.06400000303983688, 0.0, 1.040000081062317, 0.0, 0.0, 0.0, 0.0, 0.0, 1.6212687769944797E9, 2021-05-17 18:26:16.994
1.0, -38.80146026611328, -212.6918487548828, 17.001585006713867, 323.46954345703125, -0.06400000303983688, 0.0, 1.040000081062317, 0.0, 0.0, 0.0, 0.0, 0.0, 1.6212687769944797E9, 2021-05-17 18:26:16.994
2.0, -42.21599197387695, -210.2796173095703, 9.450727462768555, 329.21405029296875, -0.06400000303983688, 0.0, 1.040000081062317, 0.0, 0.0, 0.0, 0.0, 0.0, 1.6212687770101595E9, 2021-05-17 18:26:17.010
2.0, -37.08484649658203, -202.87088012695312, 7.558337688446045, 341.2116394042969, -0.06400000303983688, 0.0, 1.040000081062317, 0.0, 0.0, 0.0, 0.0, 0.0, 1.6212687770101595E9, 2021-05-17 18:26:17.010
3.0, -46.09800720214844, -213.9970703125, 7.558337688446045, 336.0992126464844, -0.06400000303983688, 0.0, 1.040000081062317, 0.0, 0.0, 0.0, 0.0, 0.0, 1.6212687770107803E9, 2021-05-17 18:26:17.010
3.0, -57.80389404296875, -223.74325561523438, 2.169142007827759, 325.2572326660156, -0.06400000303983688, 0.0, 1.040000081062317, 0.0, 0.0, 0.0, 0.0, 0.0, 1.6212687770107803E9, 2021-05-17 18:26:17.010
4.0, -57.007293701171875, -219.8500213623047, -1.2341669797897339, 331.9067687988281, -0.06400000303983688, 0.0, 1.040000081062317, 0.0, 0.0, 0.0, 0.0, 0.0, 1.6212687770244863E9, 2021-05-17 18:26:17.024
4.0, -55.86662673950195, -204.72959899902344, -2.090604066848755, 344.84307861328125, -0.06400000303983688, 0.0, 1.040000081062317, 0.0, 0.0, 0.0, 0.0, 0.0, 1.6212687770244863E9, 2021-05-17 18:26:17.024
5.0, -64.93214416503906, -213.5482940673828, -0.4637475907802582, 331.80206298828125, -0.06400000303983688, 0.0, 1.040000081062317, 0.0, 0.0, 0.0, 0.0, 0.0, 1.6212687770400667E9, 2021-05-17 18:26:17.040
5.0, -68.55984497070312, -224.67074584960938, -2.39353609085083, 318.289794921875, -0.06400000303983688, 0.0, 1.040000081062317, 0.0, 0.0, 0.0, 0.0, 0.0, 1.6212687770400667E9, 2021-05-17 18:26:17.040
6.0, -59.071720123291016, -223.85171508789062, -1.1331896781921387, 330.5679016113281, -0.06400000303983688, 0.0, 1.040000081062317, 0.0, 0.0, 0.0, 0.0, 0.0, 1.6212687770407608E9, 2021-05-17 18:26:17.040
6.0, -43.76057052612305, -208.96690368652344, -0.0411388985812664, 345.1460266113281, -0.06400000303983688, 0.0, 1.040000081062317, 0.0, 0.0, 0.0, 0.0, 0.0, 1.6212687770407608E9, 2021-05-17 18:26:17.040
7.0, -49.06748580932617, -217.91648864746094, 1.765232801437378, 332.3443298339844, -0.06400000303983688, 0.0, 1.040000081062317, 0.0, 0.0, 0.0, 0.0, 0.0, 1.6212687770543542E9, 2021-05-17 18:26:17.054
7.0, -58.054466247558594, -228.7883758544922, 2.748826503753662, 317.0631103515625, -0.06400000303983688, 0.0, 1.040000081062317, 0.0, 0.0, 0.0, 0.0, 0.0, 1.6212687770543542E9, 2021-05-17 18:26:17.054
8.0, -53.80594253540039, -226.9371337890625, 2.281338930130005, 325.7882995605469, -0.06400000303983688, 0.0, 1.040000081062317, 0.0, 0.0, 0.0, 0.0, 0.0, 1.6212687770701413E9, 2021-05-17 18:26:17.070
8.0, -45.073272705078125, -212.1719970703125, 1.4847402572631836, 338.48150634765625, -0.06400000303983688, 0.0, 1.040000081062317, 0.0, 0.0, 0.0, 0.0, 0.0, 1.6212687770701413E9, 2021-05-17 18:26:17.070
9.0, -49.10862731933594, -214.5991973876953, 6.406448841094971, 332.86419677734375, -0.06400000303983688, 0.0, 1.040000081062317, 0.0, 0.0, 0.0, 0.0, 0.0, 1.6212687770708911E9, 2021-05-17 18:26:17.070
9.0, -55.496376037597656, -224.607177734375, 7.08711051940918, 321.8277282714844, -0.06400000303983688, 0.0, 1.040000081062317, 0.0, 0.0, 0.0, 0.0, 0.0, 1.6212687770708911E9, 2021-05-17 18:26:17.070
10.0, -51.128173828125, -219.01602172851562, 4.947887420654297, 324.4793395996094, -0.06400000303983688, 0.0, 1.040000081062317, 0.0, 0.0, 0.0, 0.0, 0.0, 1.6212687770843527E9, 2021-05-17 18:26:17.084
10.0, -40.693851470947266, -204.5800018310547, 7.692974090576172, 342.3111877441406, -0.06400000303983688, 0.0, 1.040000081062317, 0.0, 0.0, 0.0, 0.0, 0.0, 1.6212687770843527E9, 2021-05-17 18:26:17.084
11.0, -38.93983840942383, -208.24136352539062, 12.05369758605957, 338.2608642578125, -0.06400000303983688, 0.0, 1.040000081062317, 0.0, 0.0, 0.0, 0.0, 0.0, 1.6212687771008315E9, 2021-05-17 18:26:17.100
11.0, -60.10767364501953, -221.36468505859375, 13.889988899230957, 330.0106506347656, -0.06400000303983688, 0.0, 1.040000081062317, 0.0, 0.0, 0.0, 0.0, 0.0, 1.6212687771008315E9, 2021-05-17 18:26:17.100
12.0, -56.22191619873047, -211.60728454589844, 14.241539001464844, 339.2593994140625, -0.08000000566244125, 0.0, 1.040000081062317, 0.0, 0.0, 0.0, 0.0, 0.0, 1.6212687771015356E9, 2021-05-17 18:26:17.101
12.0, -39.0146369934082, -199.36659240722656, 15.670181274414062, 349.323486328125, -0.08000000566244125, 0.0, 1.040000081062317, 0.0, 0.0, 0.0, 0.0, 0.0, 1.6212687771015356E9, 2021-05-17 18:26:17.101
13.0, -45.93345260620117, -205.89645385742188, 19.297883987426758, 342.80108642578125, -0.08000000566244125, 0.0, 1.040000081062317, 0.0, 0.0, 0.0, 0.0, 0.0, 1.6212687771305935E9, 2021-05-17 18:26:17.130
13.0, -52.579254150390625, -218.13340759277344, 16.085309982299805, 324.32598876953125, -0.08000000566244125, 0.0, 1.040000081062317, 0.0, 0.0, 0.0, 0.0, 0.0, 1.6212687771305935E9, 2021-05-17 18:26:17.130
14.0, -49.003910064697266, -205.85157775878906, 11.144902229309082, 330.2312927246094, -0.08000000566244125, 0.0, 1.040000081062317, 0.0, 0.0, 0.0, 0.0, 0.0, 1.62126877713134E9, 2021-05-17 18:26:17.131
14.0, -42.646080017089844, -195.71270751953125, 10.318384170532227, 340.2579650878906, -0.08000000566244125, 0.0, 1.040000081062317, 0.0, 0.0, 0.0, 0.0, 0.0, 1.62126877713134E9, 2021-05-17 18:26:17.131
15.0, -44.403831481933594, -209.35960388183594, 8.186640739440918, 332.9689025878906, -0.08000000566244125, 0.0, 1.040000081062317, 0.0, 0.0, 0.0, 0.0, 0.0, 1.6212687771451547E9, 2021-05-17 18:26:17.145
15.0, -55.55621337890625, -221.9742889404297, 7.636875629425049, 314.3292541503906, -0.08000000566244125, 0.0, 1.040000081062317, 0.0, 0.0, 0.0, 0.0, 0.0, 1.6212687771451547E9, 2021-05-17 18:26:17.145
16.0, -53.671302795410156, -222.1463165283203, 0.3365910053253174, 322.7365417480469, -0.08000000566244125, 0.0, 1.040000081062317, 0.0, 0.0, 0.0, 0.0, 0.0, 1.6212687771458864E9, 2021-05-17 18:26:17.145
16.0, -43.928863525390625, -207.5607147216797, 1.2753058671951294, 331.32708740234375, -0.08000000566244125, 0.0, 1.040000081062317, 0.0, 0.0, 0.0, 0.0, 0.0, 1.6212687771458864E9, 2021-05-17 18:26:17.145
17.0, -52.713890075683594, -216.11386108398438, 1.5408388376235962, 322.30645751953125, -0.08000000566244125, 0.0, 1.040000081062317, 0.0, 0.0, 0.0, 0.0, 0.0, 1.6212687771608956E9, 2021-05-17 18:26:17.160
17.0, -63.78025436401367, -225.7889862060547, 5.138622760772705, 316.2964172363281, -0.08000000566244125, 0.0, 1.040000081062317, 0.0, 0.0, 0.0, 0.0, 0.0, 1.6212687771608956E9, 2021-05-17 18:26:17.160
18.0, -52.2725830078125, -222.03785705566406, 6.440107822418213, 326.9327087402344, -0.08000000566244125, 0.0, 1.040000081062317, 0.0, 0.0, 0.0, 0.0, 0.0, 1.621268777161485E9, 2021-05-17 18:26:17.161
18.0, -42.601200103759766, -210.03651428222656, 5.392935752868652, 340.343994140625, -0.08000000566244125, 0.0, 1.040000081062317, 0.0, 0.0, 0.0, 0.0, 0.0, 1.621268777161485E9, 2021-05-17 18:26:17.161
19.0, -57.018516540527344, -218.5896759033203, 9.259992599487305, 334.5994873046875, -0.08000000566244125, 0.0, 1.040000081062317, 0.0, 0.0, 0.0, 0.0, 0.0, 1.6212687771744285E9, 2021-05-17 18:26:17.174
19.0, -79.9328842163086, -231.6419219970703, 1.0434321165084839, 314.733154296875, -0.08000000566244125, 0.0, 1.040000081062317, 0.0, 0.0, 0.0, 0.0, 0.0, 1.6212687771744285E9, 2021-05-17 18:26:17.174
20.0, -66.64127349853516, -221.65638732910156, 3.9268949031829834, 324.9879455566406, -0.08000000566244125, 0.0, 1.040000081062317, 0.0, 0.0, 0.0, 0.0, 0.0, 1.6212687771900644E9, 2021-05-17 18:26:17.190
20.0, -53.33097457885742, -208.98561096191406, 9.820977210998535, 343.3471374511719, -0.08000000566244125, 0.0, 1.040000081062317, 0.0, 0.0, 0.0, 0.0, 0.0, 1.6212687771900644E9, 2021-05-17 18:26:17.190
21.0, -58.86228561401367, -210.83311462402344, 10.352043151855469, 339.70819091796875, -0.08000000566244125, 0.0, 1.040000081062317, 0.0, 0.0, 0.0, 0.0, 0.0, 1.621268777190838E9, 2021-05-17 18:26:17.190
21.0, -65.51556396484375, -221.48062133789062, 10.26976490020752, 323.4957275390625, -0.08000000566244125, 0.0, 1.040000081062317, 0.0, 0.0, 0.0, 0.0, 0.0, 1.621268777190838E9, 2021-05-17 18:26:17.190
22.0, -57.75901412963867, -208.316162109375, 6.428887844085693, 331.8544006347656, -0.08000000566244125, 0.0, 1.040000081062317, 0.0, 0.0, 0.0, 0.0, 0.0, 1.621268777204372E9, 2021-05-17 18:26:17.204
22.0, -40.929466247558594, -199.85650634765625, 17.513952255249023, 347.67791748046875, -0.08000000566244125, 0.0, 1.040000081062317, 0.0, 0.0, 0.0, 0.0, 0.0, 1.621268777204372E9, 2021-05-17 18:26:17.204
23.0, -43.19210433959961, -210.1150665283203, 22.301023483276367, 341.08074951171875, -0.08000000566244125, 0.0, 1.040000081062317, 0.0, 0.0, 0.0, 0.0, 0.0, 1.6212687772200892E9, 2021-05-17 18:26:17.220
23.0, -55.7469482421875, -220.99069213867188, 19.873828887939453, 325.9715576171875, -0.08000000566244125, 0.0, 1.040000081062317, 0.0, 0.0, 0.0, 0.0, 0.0, 1.6212687772200892E9, 2021-05-17 18:26:17.220
24.0, -49.06000900268555, -209.74855041503906, 22.114028930664062, 330.25, -0.08000000566244125, 0.0, 1.040000081062317, 0.0, 0.0, 0.0, 0.0, 0.0, 1.6212687772207966E9, 2021-05-17 18:26:17.220
24.0, -38.51723098754883, -195.8884735107422, 25.13212776184082, 350.004150390625, -0.08000000566244125, 0.0, 1.040000081062317, 0.0, 0.0, 0.0, 0.0, 0.0, 1.6212687772207966E9, 2021-05-17 18:26:17.220
25.0, -39.201629638671875, -206.0834503173828, 28.04176902770996, 334.3863220214844, -0.08000000566244125, 0.0, 1.040000081062317, 0.0, 0.0, 0.0, 0.0, 0.0, 1.6212687772344575E9, 2021-05-17 18:26:17.234
25.0, -54.146270751953125, -222.6025848388672, 23.538930892944336, 316.40863037109375, -0.08000000566244125, 0.0, 1.040000081062317, 0.0, 0.0, 0.0, 0.0, 0.0, 1.6212687772344575E9, 2021-05-17 18:26:17.234
26.0, -42.313228607177734, -218.6308135986328, 22.24118423461914, 325.0290832519531, -0.08000000566244125, 0.0, 1.040000081062317, 0.0, 0.0, 0.0, 0.0, 0.0, 1.621268777250095E9, 2021-05-17 18:26:17.250
26.0, -42.646080017089844, -206.09092712402344, 19.305362701416016, 339.74932861328125, -0.08000000566244125, 0.0, 1.040000081062317, 0.0, 0.0, 0.0, 0.0, 0.0, 1.621268777250095E9, 2021-05-17 18:26:17.250
27.0, -57.11201095581055, -215.5266876220703, 19.97480583190918, 337.5390625, -0.08000000566244125, 0.0, 1.040000081062317, 0.0, 0.0, 0.0, 0.0, 0.0, 1.621268777250872E9, 2021-05-17 18:26:17.250
27.0, -67.78194427490234, -228.23487854003906, 13.452420234680176, 319.7296447753906, -0.08000000566244125, 0.0, 1.040000081062317, 0.0, 0.0, 0.0, 0.0, 0.0, 1.621268777250872E9, 2021-05-17 18:26:17.250
28.0, -68.76927947998047, -224.50245666503906, 7.8724894523620605, 323.207763671875, -0.08000000566244125, 0.0, 1.040000081062317, 0.0, 0.0, 0.0, 0.0, 0.0, 1.621268777264583E9, 2021-05-17 18:26:17.264
28.0, -54.72969436645508, -208.7462615966797, 5.415375232696533, 340.3402404785156, -0.08000000566244125, 0.0, 1.040000081062317, 0.0, 0.0, 0.0, 0.0, 0.0, 1.621268777264583E9, 2021-05-17 18:26:17.264
29.0, -56.528587341308594, -219.40496826171875, 9.809757232666016, 335.0146179199219, -0.08000000566244125, 0.0, 1.040000081062317, 0.0, 0.0, 0.0, 0.0, 0.0, 1.6212687772808015E9, 2021-05-17 18:26:17.280
29.0, -71.05062103271484, -238.24658203125, 6.178314685821533, 315.2679443359375, -0.08000000566244125, 0.0, 1.040000081062317, 0.0, 0.0, 0.0, 0.0, 0.0, 1.6212687772808015E9, 2021-05-17 18:26:17.280
30.0, -61.551273345947266, -222.32957458496094, 11.425394058227539, 330.2163391113281, -0.08000000566244125, 0.0, 1.040000081062317, 0.0, 0.0, 0.0, 0.0, 0.0, 1.621268777281524E9, 2021-05-17 18:26:17.281
30.0, -40.33481979370117, -214.04196166992188, 9.327310562133789, 337.64752197265625, -0.08000000566244125, 0.0, 1.040000081062317, 0.0, 0.0, 0.0, 0.0, 0.0, 1.621268777281524E9, 2021-05-17 18:26:17.281
31.0, -56.35655212402344, -220.25392150878906, 14.200400352478027, 331.7571716308594, -0.08000000566244125, 0.0, 1.040000081062317, 0.0, 0.0, 0.0, 0.0, 0.0, 1.6212687772944455E9, 2021-05-17 18:26:17.294
31.0, -65.07425689697266, -227.96560668945312, 14.450973510742188, 315.8588562011719, -0.08000000566244125, 0.0, 1.040000081062317, 0.0, 0.0, 0.0, 0.0, 0.0, 1.6212687772944455E9, 2021-05-17 18:26:17.294
32.0, -54.69229507446289, -220.2801055908203, 16.859468460083008, 323.4882507324219, -0.06400000303983688, 0.0, 1.040000081062317, 0.0, 0.0, 0.0, 0.0, 0.0, 1.6212687773107743E9, 2021-05-17 18:26:17.310
32.0, -41.19873809814453, -201.33750915527344, 21.36604881286621, 338.6610412597656, -0.06400000303983688, 0.0, 1.040000081062317, 0.0, 0.0, 0.0, 0.0, 0.0, 1.6212687773107743E9, 2021-05-17 18:26:17.310
33.0, -53.476829528808594, -214.61041259765625, 28.101608276367188, 330.18267822265625, -0.06400000303983688, 0.0, 1.040000081062317, 0.0, 0.0, 0.0, 0.0, 0.0, 1.6212687773114536E9, 2021-05-17 18:26:17.311
33.0, -59.064239501953125, -220.5381622314453, 22.78721046447754, 321.43505859375, -0.06400000303983688, 0.0, 1.040000081062317, 0.0, 0.0, 0.0, 0.0, 0.0, 1.6212687773114536E9, 2021-05-17 18:26:17.311
34.0, -60.47792053222656, -215.04051208496094, 17.970218658447266, 325.0216064453125, -0.06400000303983688, 0.0, 1.040000081062317, 0.0, 0.0, 0.0, 0.0, 0.0, 1.6212687773243773E9, 2021-05-17 18:26:17.324
34.0, -41.019222259521484, -204.18731689453125, 21.81857681274414, 341.5108337402344, -0.06400000303983688, 0.0, 1.040000081062317, 0.0, 0.0, 0.0, 0.0, 0.0, 1.6212687773243773E9, 2021-05-17 18:26:17.324
35.0, -53.63390350341797, -215.5379180908203, 24.76561737060547, 333.73931884765625, -0.06400000303983688, 0.0, 1.040000081062317, 0.0, 0.0, 0.0, 0.0, 0.0, 1.6212687773401508E9, 2021-05-17 18:26:17.340
35.0, -66.80583190917969, -225.1980743408203, 14.536991119384766, 320.5412292480469, -0.06400000303983688, 0.0, 1.040000081062317, 0.0, 0.0, 0.0, 0.0, 0.0, 1.6212687773401508E9, 2021-05-17 18:26:17.340
36.0, -58.17040252685547, -216.5850830078125, 15.767417907714844, 329.3524169921875, -0.06400000303983688, 0.0, 1.040000081062317, 0.0, 0.0, 0.0, 0.0, 0.0, 1.6212687773408988E9, 2021-05-17 18:26:17.340
36.0, -43.450157165527344, -203.057861328125, 16.410680770874023, 343.14141845703125, -0.06400000303983688, 0.0, 1.040000081062317, 0.0, 0.0, 0.0, 0.0, 0.0, 1.6212687773408988E9, 2021-05-17 18:26:17.340
37.0, -43.48007583618164, -216.121337890625, 15.479445457458496, 334.77154541015625, -0.06400000303983688, 0.0, 1.040000081062317, 0.0, 0.0, 0.0, 0.0, 0.0, 1.6212687773544393E9, 2021-05-17 18:26:17.354
37.0, -58.31251907348633, -226.27142333984375, 20.64424705505371, 324.84210205078125, -0.06400000303983688, 0.0, 1.040000081062317, 0.0, 0.0, 0.0, 0.0, 0.0, 1.6212687773544393E9, 2021-05-17 18:26:17.354
38.0, -50.96361541748047, -217.3218536376953, 13.108349800109863, 324.1390075683594, -0.06400000303983688, 0.0, 1.040000081062317, 0.0, 0.0, 0.0, 0.0, 0.0, 1.6212687773701136E9, 2021-05-17 18:26:17.370
38.0, -42.4254264831543, -204.82684326171875, 12.667040824890137, 341.8175048828125, -0.06400000303983688, 0.0, 1.040000081062317, 0.0, 0.0, 0.0, 0.0, 0.0, 1.6212687773701136E9, 2021-05-17 18:26:17.370
39.0, -43.84284591674805, -216.4654083251953, 19.365201950073242, 332.9315185546875, -0.06400000303983688, 0.0, 1.040000081062317, 0.0, 0.0, 0.0, 0.0, 0.0, 1.6212687773708224E9, 2021-05-17 18:26:17.370
39.0, -66.54403686523438, -235.01531982421875, 13.856328964233398, 322.43359375, -0.06400000303983688, 0.0, 1.040000081062317, 0.0, 0.0, 0.0, 0.0, 0.0, 1.6212687773708224E9, 2021-05-17 18:26:17.370
40.0, -62.082340240478516, -223.6721954345703, 6.731820106506348, 322.5570068359375, -0.06400000303983688, 0.0, 1.040000081062317, 0.0, 0.0, 0.0, 0.0, 0.0, 1.621268777384501E9, 2021-05-17 18:26:17.384
40.0, -47.45185089111328, -211.25198364257812, 8.706486701965332, 337.6923828125, -0.06400000303983688, 0.0, 1.040000081062317, 0.0, 0.0, 0.0, 0.0, 0.0, 1.621268777384501E9, 2021-05-17 18:26:17.384
41.0, -50.15205764770508, -220.97946166992188, 11.690927505493164, 329.4646301269531, -0.06400000303983688, 0.0, 1.040000081062317, 0.0, 0.0, 0.0, 0.0, 0.0, 1.6212687774000945E9, 2021-05-17 18:26:17.400
41.0, -67.05640411376953, -230.84158325195312, 11.178561210632324, 314.10858154296875, -0.06400000303983688, 0.0, 1.040000081062317, 0.0, 0.0, 0.0, 0.0, 0.0, 1.6212687774000945E9, 2021-05-17 18:26:17.400
42.0, -67.30323791503906, -220.08189392089844, -0.5497652888298035, 325.6499328613281, -0.06400000303983688, 0.0, 1.040000081062317, 0.0, 0.0, 0.0, 0.0, 0.0, 1.6212687774008276E9, 2021-05-17 18:26:17.400
42.0, -58.84358596801758, -209.0865936279297, 4.551458358764648, 340.07098388671875, -0.06400000303983688, 0.0, 1.040000081062317, 0.0, 0.0, 0.0, 0.0, 0.0, 1.6212687774008276E9, 2021-05-17 18:26:17.400
43.0, -65.93817901611328, -219.99961853027344, 5.793105125427246, 328.0845947265625, -0.06400000303983688, 0.0, 1.040000081062317, 0.0, 0.0, 0.0, 0.0, 0.0, 1.6212687774145086E9, 2021-05-17 18:26:17.414
43.0, -71.6041259765625, -231.94485473632812, 13.452420234680176, 320.5599060058594, -0.06400000303983688, 0.0, 1.040000081062317, 0.0, 0.0, 0.0, 0.0, 0.0, 1.6212687774145086E9, 2021-05-17 18:26:17.414
44.0, -56.625823974609375, -223.48146057128906, 12.723139762878418, 329.58056640625, -0.06400000303983688, 0.0, 1.040000081062317, 0.0, 0.0, 0.0, 0.0, 0.0, 1.6212687774299672E9, 2021-05-17 18:26:17.429
44.0, -47.55656814575195, -209.99911499023438, 18.961292266845703, 346.3764343261719, -0.06400000303983688, 0.0, 1.040000081062317, 0.0, 0.0, 0.0, 0.0, 0.0, 1.6212687774299672E9, 2021-05-17 18:26:17.429
45.0, -51.341346740722656, -218.76170349121094, 20.692867279052734, 340.2280578613281, -0.06400000303983688, 0.0, 1.040000081062317, 0.0, 0.0, 0.0, 0.0, 0.0, 1.621268777477183E9, 2021-05-17 18:26:17.477
45.0, -68.32797241210938, -224.76425170898438, 21.538084030151367, 322.714111328125, -0.06400000303983688, 0.0, 1.040000081062317, 0.0, 0.0, 0.0, 0.0, 0.0, 1.621268777477183E9, 2021-05-17 18:26:17.477
46.0, -66.95542907714844, -222.78958129882812, 15.546764373779297, 327.6021423339844, -0.06400000303983688, 0.0, 1.040000081062317, 0.0, 0.0, 0.0, 0.0, 0.0, 1.6212687774779048E9, 2021-05-17 18:26:17.477
46.0, -43.23698425292969, -207.74021911621094, 20.315135955810547, 350.7969970703125, -0.06400000303983688, 0.0, 1.040000081062317, 0.0, 0.0, 0.0, 0.0, 0.0, 1.6212687774779048E9, 2021-05-17 18:26:17.477
47.0, -47.82958221435547, -214.12423706054688, 26.53084945678711, 344.7869873046875, -0.06400000303983688, 0.0, 1.040000081062317, 0.0, 0.0, 0.0, 0.0, 0.0, 1.621268777478628E9, 2021-05-17 18:26:17.478
47.0, -59.89449691772461, -224.23318481445312, 26.295236587524414, 326.4278259277344, -0.06400000303983688, 0.0, 1.040000081062317, 0.0, 0.0, 0.0, 0.0, 0.0, 1.621268777478628E9, 2021-05-17 18:26:17.478
48.0, -63.933589935302734, -220.5194549560547, 20.876121520996094, 330.94561767578125, -0.06400000303983688, 0.0, 1.040000081062317, 0.0, 0.0, 0.0, 0.0, 0.0, 1.6212687774793737E9, 2021-05-17 18:26:17.479
48.0, -47.44437026977539, -204.6361083984375, 19.99724578857422, 346.05108642578125, -0.06400000303983688, 0.0, 1.040000081062317, 0.0, 0.0, 0.0, 0.0, 0.0, 1.6212687774793737E9, 2021-05-17 18:26:17.479
49.0, -56.625823974609375, -209.58773803710938, 29.537729263305664, 335.239013671875, -0.06400000303983688, 0.0, 1.040000081062317, 0.0, 0.0, 0.0, 0.0, 0.0, 1.6212687774907491E9, 2021-05-17 18:26:17.490
49.0, -67.0264892578125, -227.12413024902344, 19.376420974731445, 323.7837219238281, -0.06400000303983688, 0.0, 1.040000081062317, 0.0, 0.0, 0.0, 0.0, 0.0, 1.6212687774907491E9, 2021-05-17 18:26:17.490
50.0, -63.23048782348633, -223.51138305664062, 13.452420234680176, 326.6036071777344, -0.06400000303983688, 0.0, 1.040000081062317, 0.0, 0.0, 0.0, 0.0, 0.0, 1.6212687774915285E9, 2021-05-17 18:26:17.491
50.0, -55.23084259033203, -212.83770751953125, 10.576436996459961, 339.498779296875, -0.06400000303983688, 0.0, 1.040000081062317, 0.0, 0.0, 0.0, 0.0, 0.0, 1.6212687774915285E9, 2021-05-17 18:26:17.491
51.0, -62.42266845703125, -225.89369201660156, 11.201000213623047, 332.29571533203125, -0.06400000303983688, 0.0, 1.040000081062317, 0.0, 0.0, 0.0, 0.0, 0.0, 1.6212687774922516E9, 2021-05-17 18:26:17.492
51.0, -66.222412109375, -236.40655517578125, 12.854036331176758, 319.5800476074219, -0.06400000303983688, 0.0, 1.040000081062317, 0.0, 0.0, 0.0, 0.0, 0.0, 1.6212687774922516E9, 2021-05-17 18:26:17.492
52.0, -55.50385665893555, -232.741455078125, 8.717706680297852, 325.0515441894531, -0.06400000303983688, 0.0, 1.040000081062317, 0.0, 0.0, 0.0, 0.0, 0.0, 1.6212687775045447E9, 2021-05-17 18:26:17.504
52.0, -43.2108039855957, -223.05137634277344, 12.981192588806152, 336.2001647949219, -0.06400000303983688, 0.0, 1.040000081062317, 0.0, 0.0, 0.0, 0.0, 0.0, 1.6212687775045447E9, 2021-05-17 18:26:17.504
53.0, -44.044803619384766, -231.23052978515625, 15.18399429321289, 332.1124572753906, -0.06400000303983688, 0.0, 1.040000081062317, 0.0, 0.0, 0.0, 0.0, 0.0, 1.6212687775201905E9, 2021-05-17 18:26:17.520
53.0, -60.9940299987793, -237.64071655273438, 12.607202529907227, 317.3024597167969, -0.06400000303983688, 0.0, 1.040000081062317, 0.0, 0.0, 0.0, 0.0, 0.0, 1.6212687775201905E9, 2021-05-17 18:26:17.520
54.0, -56.67070388793945, -239.85848999023438, 12.988672256469727, 324.569091796875, -0.06400000303983688, 0.0, 1.040000081062317, 0.0, 0.0, 0.0, 0.0, 0.0, 1.6212687775208144E9, 2021-05-17 18:26:17.520
54.0, -41.789642333984375, -217.88656616210938, 15.457006454467773, 338.6385803222656, -0.06400000303983688, 0.0, 1.040000081062317, 0.0, 0.0, 0.0, 0.0, 0.0, 1.6212687775208144E9, 2021-05-17 18:26:17.520
55.0, -48.895450592041016, -225.50474548339844, 18.056236267089844, 326.86163330078125, -0.06400000303983688, 0.0, 1.040000081062317, 0.0, 0.0, 0.0, 0.0, 0.0, 1.6212687775344088E9, 2021-05-17 18:26:17.534
55.0, -58.970741271972656, -233.6427764892578, 15.546764373779297, 316.0421142578125, -0.06400000303983688, 0.0, 1.040000081062317, 0.0, 0.0, 0.0, 0.0, 0.0, 1.6212687775344088E9, 2021-05-17 18:26:17.534
56.0, -54.9316520690918, -227.2624969482422, 15.176513671875, 323.6341247558594, -0.06400000303983688, 0.0, 1.040000081062317, 0.0, 0.0, 0.0, 0.0, 0.0, 1.6212687775501025E9, 2021-05-17 18:26:17.550
56.0, -46.80858612060547, -213.17430114746094, 10.168787956237793, 336.3722229003906, -0.06400000303983688, 0.0, 1.040000081062317, 0.0, 0.0, 0.0, 0.0, 0.0, 1.6212687775501025E9, 2021-05-17 18:26:17.550
57.0, -55.47767639160156, -221.80224609375, 15.04561710357666, 327.87890625, -0.06400000303983688, 0.0, 1.040000081062317, 0.0, 0.0, 0.0, 0.0, 0.0, 1.621268777550816E9, 2021-05-17 18:26:17.550
57.0, -75.70679473876953, -228.19000244140625, 17.20353889465332, 317.64654541015625, -0.06400000303983688, 0.0, 1.040000081062317, 0.0, 0.0, 0.0, 0.0, 0.0, 1.621268777550816E9, 2021-05-17 18:26:17.550
58.0, -69.63319396972656, -233.410888671875, 9.880815505981445, 321.1283874511719, -0.06400000303983688, 0.0, 1.040000081062317, 0.0, 0.0, 0.0, 0.0, 0.0, 1.6212687775808067E9, 2021-05-17 18:26:17.580
58.0, -41.408172607421875, -210.63116455078125, 16.20124626159668, 336.2824401855469, -0.06400000303983688, 0.0, 1.040000081062317, 0.0, 0.0, 0.0, 0.0, 0.0, 1.6212687775808067E9, 2021-05-17 18:26:17.580
59.0, -50.08848190307617, -219.14691162109375, 19.645694732666016, 331.6748962402344, -0.06400000303983688, 0.0, 1.040000081062317, 0.0, 0.0, 0.0, 0.0, 0.0, 1.6212687775815735E9, 2021-05-17 18:26:17.581
59.0, -61.96640396118164, -238.53456115722656, 17.581270217895508, 313.44287109375, -0.06400000303983688, 0.0, 1.040000081062317, 0.0, 0.0, 0.0, 0.0, 0.0, 1.6212687775815735E9, 2021-05-17 18:26:17.581
60.0, -56.01622009277344, -227.77113342285156, 14.993258476257324, 323.12548828125, -0.06400000303983688, 0.0, 1.055999994277954, 0.0, 0.0, 0.0, 0.0, 0.0, 1.6212687775823212E9, 2021-05-17 18:26:17.582
60.0, -48.622440338134766, -222.0977020263672, 10.999045372009277, 334.7752685546875, -0.06400000303983688, 0.0, 1.055999994277954, 0.0, 0.0, 0.0, 0.0, 0.0, 1.6212687775823212E9, 2021-05-17 18:26:17.582
61.0, -56.12841796875, -224.95872497558594, 20.775144577026367, 330.51177978515625, -0.06400000303983688, 0.0, 1.055999994277954, 0.0, 0.0, 0.0, 0.0, 0.0, 1.6212687775944014E9, 2021-05-17 18:26:17.594
61.0, -60.44052505493164, -234.7759552001953, 17.67850685119629, 320.8291931152344, -0.06400000303983688, 0.0, 1.055999994277954, 0.0, 0.0, 0.0, 0.0, 0.0, 1.6212687775944014E9, 2021-05-17 18:26:17.594
62.0, -63.694236755371094, -229.0950469970703, 17.390535354614258, 321.61456298828125, -0.06400000303983688, 0.0, 1.055999994277954, 0.0, 0.0, 0.0, 0.0, 0.0, 1.6212687776101813E9, 2021-05-17 18:26:17.610
62.0, -46.31492233276367, -209.18382263183594, 16.492958068847656, 337.8494873046875, -0.06400000303983688, 0.0, 1.055999994277954, 0.0, 0.0, 0.0, 0.0, 0.0, 1.6212687776101813E9, 2021-05-17 18:26:17.610
63.0, -49.78554916381836, -216.18865966796875, 21.841014862060547, 329.1018371582031, -0.06400000303983688, 0.0, 1.055999994277954, 0.0, 0.0, 0.0, 0.0, 0.0, 1.621268777610888E9, 2021-05-17 18:26:17.610
63.0, -63.13698959350586, -229.24090576171875, 15.614082336425781, 312.7248229980469, -0.06400000303983688, 0.0, 1.055999994277954, 0.0, 0.0, 0.0, 0.0, 0.0, 1.621268777610888E9, 2021-05-17 18:26:17.610
64.0, -58.42097854614258, -224.92506408691406, 17.2185001373291, 317.9906005859375, -0.06400000303983688, 0.0, 1.055999994277954, 0.0, 0.0, 0.0, 0.0, 0.0, 1.6212687776244185E9, 2021-05-17 18:26:17.624
64.0, -45.06205368041992, -208.25259399414062, 21.695159912109375, 335.2988586425781, -0.06400000303983688, 0.0, 1.055999994277954, 0.0, 0.0, 0.0, 0.0, 0.0, 1.6212687776244185E9, 2021-05-17 18:26:17.624
65.0, -48.74585723876953, -213.08828735351562, 24.066255569458008, 329.91339111328125, -0.06400000303983688, 0.0, 1.055999994277954, 0.0, 0.0, 0.0, 0.0, 0.0, 1.6212687776558084E9, 2021-05-17 18:26:17.655
65.0, -57.108272552490234, -226.8436279296875, 23.3519344329834, 314.6059875488281, -0.06400000303983688, 0.0, 1.055999994277954, 0.0, 0.0, 0.0, 0.0, 0.0, 1.6212687776558084E9, 2021-05-17 18:26:17.655
66.0, -54.44920349121094, -219.66302490234375, 20.154321670532227, 323.877197265625, -0.06400000303983688, 0.0, 1.055999994277954, 0.0, 0.0, 0.0, 0.0, 0.0, 1.6212687776564932E9, 2021-05-17 18:26:17.656
66.0, -42.28704833984375, -206.77159118652344, 23.81942367553711, 340.11212158203125, -0.06400000303983688, 0.0, 1.055999994277954, 0.0, 0.0, 0.0, 0.0, 0.0, 1.6212687776564932E9, 2021-05-17 18:26:17.656
67.0, -48.326988220214844, -213.66796875, 28.46811866760254, 335.7476501464844, -0.06400000303983688, 0.0, 1.055999994277954, 0.0, 0.0, 0.0, 0.0, 0.0, 1.6212687776572535E9, 2021-05-17 18:26:17.657
67.0, -62.70690155029297, -222.7334747314453, 25.939945220947266, 327.4488220214844, -0.06400000303983688, 0.0, 1.055999994277954, 0.0, 0.0, 0.0, 0.0, 0.0, 1.6212687776572535E9, 2021-05-17 18:26:17.657
68.0, -56.14337921142578, -218.68690490722656, 23.707225799560547, 332.2770080566406, -0.06400000303983688, 0.0, 1.055999994277954, 0.0, 0.0, 0.0, 0.0, 0.0, 1.621268777670191E9, 2021-05-17 18:26:17.670
68.0, -45.30888748168945, -210.3170166015625, 23.969018936157227, 341.353759765625, -0.06400000303983688, 0.0, 1.055999994277954, 0.0, 0.0, 0.0, 0.0, 0.0, 1.621268777670191E9, 2021-05-17 18:26:17.670
69.0, -52.83730697631836, -219.2292022705078, 21.250110626220703, 333.372802734375, -0.06400000303983688, 0.0, 1.055999994277954, 0.0, 0.0, 0.0, 0.0, 0.0, 1.6212687776709063E9, 2021-05-17 18:26:17.670
69.0, -65.24629211425781, -226.76882934570312, 19.686832427978516, 318.2374267578125, -0.06400000303983688, 0.0, 1.055999994277954, 0.0, 0.0, 0.0, 0.0, 0.0, 1.6212687776709063E9, 2021-05-17 18:26:17.670
70.0, -56.162078857421875, -226.2527313232422, 16.24986457824707, 325.754638671875, -0.06400000303983688, 0.0, 1.055999994277954, 0.0, 0.0, 0.0, 0.0, 0.0, 1.6212687777006152E9, 2021-05-17 18:26:17.700
70.0, -42.73957824707031, -212.84144592285156, 26.34759521484375, 343.49298095703125, -0.06400000303983688, 0.0, 1.055999994277954, 0.0, 0.0, 0.0, 0.0, 0.0, 1.6212687777006152E9, 2021-05-17 18:26:17.700
71.0, -46.07182693481445, -222.8606414794922, 27.413467407226562, 332.5201110839844, -0.06400000303983688, 0.0, 1.055999994277954, 0.0, 0.0, 0.0, 0.0, 0.0, 1.6212687777012205E9, 2021-05-17 18:26:17.701
71.0, -62.15713882446289, -232.47218322753906, 25.554737091064453, 318.00555419921875, -0.06400000303983688, 0.0, 1.055999994277954, 0.0, 0.0, 0.0, 0.0, 0.0, 1.6212687777012205E9, 2021-05-17 18:26:17.701
72.0, -62.20575714111328, -219.66676330566406, 27.484525680541992, 329.0158386230469, -0.06400000303983688, 0.0, 1.055999994277954, 0.0, 0.0, 0.0, 0.0, 0.0, 1.621268777715104E9, 2021-05-17 18:26:17.715
72.0, -46.9619255065918, -207.10069274902344, 25.03862953186035, 344.2596740722656, -0.06400000303983688, 0.0, 1.055999994277954, 0.0, 0.0, 0.0, 0.0, 0.0, 1.621268777715104E9, 2021-05-17 18:26:17.715
73.0, -47.59022521972656, -215.1153106689453, 23.21729850769043, 334.640625, -0.06400000303983688, 0.0, 1.055999994277954, 0.0, 0.0, 0.0, 0.0, 0.0, 1.6212687777158766E9, 2021-05-17 18:26:17.715
73.0, -64.52449035644531, -229.61489868164062, 24.99001121520996, 311.9169921875, -0.06400000303983688, 0.0, 1.055999994277954, 0.0, 0.0, 0.0, 0.0, 0.0, 1.6212687777158766E9, 2021-05-17 18:26:17.715
74.0, -51.00849533081055, -220.98695373535156, 26.295236587524414, 317.444580078125, -0.06400000303983688, 0.0, 1.055999994277954, 0.0, 0.0, 0.0, 0.0, 0.0, 1.6212687777301433E9, 2021-05-17 18:26:17.730
74.0, -40.503116607666016, -209.34837341308594, 27.319969177246094, 339.4389343261719, -0.06400000303983688, 0.0, 1.055999994277954, 0.0, 0.0, 0.0, 0.0, 0.0, 1.6212687777301433E9, 2021-05-17 18:26:17.730
75.0, -45.62303924560547, -214.4608154296875, 30.61482048034668, 330.0256042480469, -0.06400000303983688, 0.0, 1.055999994277954, 0.0, 0.0, 0.0, 0.0, 0.0, 1.6212687777308397E9, 2021-05-17 18:26:17.730
75.0, -53.25243377685547, -223.9676513671875, 30.053836822509766, 322.2877502441406, -0.06400000303983688, 0.0, 1.055999994277954, 0.0, 0.0, 0.0, 0.0, 0.0, 1.6212687777308397E9, 2021-05-17 18:26:17.730
76.0, -46.83476638793945, -219.22544860839844, 25.356521606445312, 323.5181884765625, -0.06400000303983688, 0.0, 1.055999994277954, 0.0, 0.0, 0.0, 0.0, 0.0, 1.6212687777444742E9, 2021-05-17 18:26:17.744
76.0, -40.44327926635742, -204.9727020263672, 31.706871032714844, 339.91015625, -0.06400000303983688, 0.0, 1.055999994277954, 0.0, 0.0, 0.0, 0.0, 0.0, 1.6212687777444742E9, 2021-05-17 18:26:17.744
77.0, -46.3223991394043, -210.10757446289062, 31.561016082763672, 332.0451354980469, -0.06400000303983688, 0.0, 1.055999994277954, 0.0, 0.0, 0.0, 0.0, 0.0, 1.6212687777600691E9, 2021-05-17 18:26:17.760
77.0, -64.01960754394531, -227.67388916015625, 27.959491729736328, 317.96441650390625, -0.06400000303983688, 0.0, 1.055999994277954, 0.0, 0.0, 0.0, 0.0, 0.0, 1.6212687777600691E9, 2021-05-17 18:26:17.760
78.0, -55.339298248291016, -222.15379333496094, 26.302717208862305, 327.1346740722656, -0.06400000303983688, 0.0, 1.055999994277954, 0.0, 0.0, 0.0, 0.0, 0.0, 1.6212687777608116E9, 2021-05-17 18:26:17.760
78.0, -40.66767120361328, -210.6012420654297, 21.620361328125, 334.66680908203125, -0.06400000303983688, 0.0, 1.055999994277954, 0.0, 0.0, 0.0, 0.0, 0.0, 1.6212687777608116E9, 2021-05-17 18:26:17.760
79.0, -54.430503845214844, -220.17164611816406, 25.94368553161621, 326.5699462890625, -0.06400000303983688, 0.0, 1.055999994277954, 0.0, 0.0, 0.0, 0.0, 0.0, 1.621268777774438E9, 2021-05-17 18:26:17.774
79.0, -61.28573989868164, -225.50474548339844, 29.825702667236328, 318.6226501464844, -0.06400000303983688, 0.0, 1.055999994277954, 0.0, 0.0, 0.0, 0.0, 0.0, 1.621268777774438E9, 2021-05-17 18:26:17.774
80.0, -56.61834716796875, -228.2086944580078, 25.008710861206055, 324.7298889160156, -0.06400000303983688, 0.0, 1.055999994277954, 0.0, 0.0, 0.0, 0.0, 0.0, 1.621268777790041E9, 2021-05-17 18:26:17.790
80.0, -51.419883728027344, -213.77642822265625, 20.2702579498291, 336.9705810546875, -0.06400000303983688, 0.0, 1.055999994277954, 0.0, 0.0, 0.0, 0.0, 0.0, 1.621268777790041E9, 2021-05-17 18:26:17.790
81.0, -48.181129455566406, -221.87330627441406, 19.383901596069336, 328.2977600097656, -0.06400000303983688, 0.0, 1.055999994277954, 0.0, 0.0, 0.0, 0.0, 0.0, 1.6212687777907631E9, 2021-05-17 18:26:17.790
81.0, -57.02599334716797, -228.26104736328125, 21.646541595458984, 320.1747131347656, -0.06400000303983688, 0.0, 1.055999994277954, 0.0, 0.0, 0.0, 0.0, 0.0, 1.6212687777907631E9, 2021-05-17 18:26:17.790
82.0, -62.744300842285156, -231.36517333984375, 15.05309772491455, 317.5492858886719, -0.06400000303983688, 0.0, 1.055999994277954, 0.0, 0.0, 0.0, 0.0, 0.0, 1.621268777804491E9, 2021-05-17 18:26:17.804
82.0, -45.8586540222168, -215.21253967285156, 18.748119354248047, 330.485595703125, -0.06400000303983688, 0.0, 1.055999994277954, 0.0, 0.0, 0.0, 0.0, 0.0, 1.621268777804491E9, 2021-05-17 18:26:17.804
83.0, -52.100547790527344, -225.12327575683594, 27.525663375854492, 327.93499755859375, -0.06400000303983688, 0.0, 1.055999994277954, 0.0, 0.0, 0.0, 0.0, 0.0, 1.6212687778201935E9, 2021-05-17 18:26:17.820
83.0, -61.37923812866211, -232.71153259277344, 25.206926345825195, 314.0038757324219, -0.06400000303983688, 0.0, 1.055999994277954, 0.0, 0.0, 0.0, 0.0, 0.0, 1.6212687778201935E9, 2021-05-17 18:26:17.820
84.0, -55.242061614990234, -228.76968383789062, 26.209218978881836, 317.38848876953125, -0.06400000303983688, 0.0, 1.055999994277954, 0.0, 0.0, 0.0, 0.0, 0.0, 1.6212687778208587E9, 2021-05-17 18:26:17.820
84.0, -42.8891716003418, -208.1104736328125, 26.3737735748291, 333.05865478515625, -0.06400000303983688, 0.0, 1.055999994277954, 0.0, 0.0, 0.0, 0.0, 0.0, 1.6212687778208587E9, 2021-05-17 18:26:17.820
85.0, -51.55078125, -214.16163635253906, 30.031396865844727, 328.0621643066406, -0.06400000303983688, 0.0, 1.055999994277954, 0.0, 0.0, 0.0, 0.0, 0.0, 1.621268777834515E9, 2021-05-17 18:26:17.834
85.0, -58.95578384399414, -227.11289978027344, 33.01957702636719, 313.5251770019531, -0.06400000303983688, 0.0, 1.055999994277954, 0.0, 0.0, 0.0, 0.0, 0.0, 1.621268777834515E9, 2021-05-17 18:26:17.834
86.0, -53.17015838623047, -216.47662353515625, 32.682987213134766, 323.2040100097656, -0.06400000303983688, 0.0, 1.055999994277954, 0.0, 0.0, 0.0, 0.0, 0.0, 1.62126877785016E9, 2021-05-17 18:26:17.850
86.0, -53.17015838623047, -207.63925170898438, 32.477291107177734, 340.1383056640625, -0.06400000303983688, 0.0, 1.055999994277954, 0.0, 0.0, 0.0, 0.0, 0.0, 1.62126877785016E9, 2021-05-17 18:26:17.850
87.0, -47.55282974243164, -211.04629516601562, 41.19873809814453, 336.63775634765625, -0.06400000303983688, 0.0, 1.055999994277954, 0.0, 0.0, 0.0, 0.0, 0.0, 1.621268777850819E9, 2021-05-17 18:26:17.850
87.0, -53.813419342041016, -226.44346618652344, 31.983623504638672, 318.5478515625, -0.06400000303983688, 0.0, 1.055999994277954, 0.0, 0.0, 0.0, 0.0, 0.0, 1.621268777850819E9, 2021-05-17 18:26:17.850
88.0, -56.824039459228516, -219.348876953125, 30.928972244262695, 321.09844970703125, -0.06400000303983688, 0.0, 1.055999994277954, 0.0, 0.0, 0.0, 0.0, 0.0, 1.6212687778644443E9, 2021-05-17 18:26:17.864
88.0, -48.139991760253906, -206.1171112060547, 28.711212158203125, 335.89349365234375, -0.06400000303983688, 0.0, 1.055999994277954, 0.0, 0.0, 0.0, 0.0, 0.0, 1.6212687778644443E9, 2021-05-17 18:26:17.864
89.0, -51.45354461669922, -211.8802947998047, 27.73135757446289, 332.85296630859375, -0.06400000303983688, 0.0, 1.055999994277954, 0.0, 0.0, 0.0, 0.0, 0.0, 1.6212687778801289E9, 2021-05-17 18:26:17.880
89.0, -56.26305389404297, -228.26853942871094, 28.00811004638672, 320.2008972167969, -0.06400000303983688, 0.0, 1.055999994277954, 0.0, 0.0, 0.0, 0.0, 0.0, 1.6212687778801289E9, 2021-05-17 18:26:17.880
90.0, -52.530635833740234, -225.1569366455078, 26.351335525512695, 322.71783447265625, -0.06400000303983688, 0.0, 1.055999994277954, 0.0, 0.0, 0.0, 0.0, 0.0, 1.6212687778808491E9, 2021-05-17 18:26:17.880
90.0, -48.65235900878906, -210.1973419189453, 23.50153160095215, 337.70361328125, -0.06400000303983688, 0.0, 1.055999994277954, 0.0, 0.0, 0.0, 0.0, 0.0, 1.6212687778808491E9, 2021-05-17 18:26:17.880
91.0, -50.959877014160156, -214.83480834960938, 26.422393798828125, 332.2508544921875, -0.06400000303983688, 0.0, 1.055999994277954, 0.0, 0.0, 0.0, 0.0, 0.0, 1.6212687778943863E9, 2021-05-17 18:26:17.894
91.0, -58.731388092041016, -226.2115936279297, 29.627487182617188, 329.0233154296875, -0.06400000303983688, 0.0, 1.055999994277954, 0.0, 0.0, 0.0, 0.0, 0.0, 1.6212687778943863E9, 2021-05-17 18:26:17.894
92.0, -62.471290588378906, -220.20904541015625, 27.865995407104492, 326.2632751464844, -0.06400000303983688, 0.0, 1.055999994277954, 0.0, 0.0, 0.0, 0.0, 0.0, 1.6212687779101467E9, 2021-05-17 18:26:17.910
92.0, -45.20791244506836, -215.2349853515625, 25.786609649658203, 340.34771728515625, -0.06400000303983688, 0.0, 1.055999994277954, 0.0, 0.0, 0.0, 0.0, 0.0, 1.6212687779101467E9, 2021-05-17 18:26:17.910
93.0, -43.00136947631836, -219.0908203125, 32.959739685058594, 338.8255920410156, -0.06400000303983688, 0.0, 1.055999994277954, 0.0, 0.0, 0.0, 0.0, 0.0, 1.621268777910847E9, 2021-05-17 18:26:17.910
93.0, -60.455482482910156, -235.5501251220703, 32.050941467285156, 319.1051025390625, -0.06400000303983688, 0.0, 1.055999994277954, 0.0, 0.0, 0.0, 0.0, 0.0, 1.621268777910847E9, 2021-05-17 18:26:17.910
94.0, -60.14881134033203, -231.6755828857422, 23.6922664642334, 322.6318054199219, -0.06400000303983688, 0.0, 1.055999994277954, 0.0, 0.0, 0.0, 0.0, 0.0, 1.6212687779243784E9, 2021-05-17 18:26:17.924
94.0, -43.274383544921875, -210.9490509033203, 29.747163772583008, 341.06951904296875, -0.06400000303983688, 0.0, 1.055999994277954, 0.0, 0.0, 0.0, 0.0, 0.0, 1.6212687779243784E9, 2021-05-17 18:26:17.924
95.0, -50.537269592285156, -219.72286987304688, 31.699392318725586, 330.7249755859375, -0.06400000303983688, 0.0, 1.055999994277954, 0.0, 0.0, 0.0, 0.0, 0.0, 1.6212687779400845E9, 2021-05-17 18:26:17.940
