Sample Index, EXG Channel 0, EXG Channel 1, EXG Channel 2, EXG Channel 3, Accel Channel 0, Accel Channel 1, Accel Channel 2, Other, Other, Other, Other, Other, Timestamp, Timestamp (Formatted)
0.0, 11.455313682556152, -99.91890716552734, 118.190185546875, 197.1394805908203, 0.0, 0.0, 0.0, 0.0, 0.0, 0.0, 0.0, 0.0, 1.621265010432938E9, 2021-05-17 17:23:30.432
1.0, 35.45051193237305, -75.22808837890625, 132.9403533935547, 219.5452117919922, 0.0, 0.0, 0.0, 0.0, 0.0, 0.0, 0.0, 0.0, 1.6212650104334686E9, 2021-05-17 17:23:30.433
1.0, 33.78251647949219, -68.29057312011719, 133.3704376220703, 221.85647583007812, 0.0, 0.0, 0.0, 0.0, 0.0, 0.0, 0.0, 0.0, 1.6212650104334686E9, 2021-05-17 17:23:30.433
2.0, 24.38414764404297, -74.15099334716797, 130.4009552001953, 214.09243774414062, -0.08000000566244125, 0.0, 0.0, 0.0, 0.0, 0.0, 0.0, 0.0, 1.6212650104463305E9, 2021-05-17 17:23:30.446
2.0, 12.072397232055664, -84.4918212890625, 119.58891296386719, 203.3177947998047, -0.08000000566244125, 0.0, 0.0, 0.0, 0.0, 0.0, 0.0, 0.0, 1.6212650104463305E9, 2021-05-17 17:23:30.446
3.0, 18.318029403686523, -75.68809509277344, 117.93213653564453, 207.30078125, -0.08000000566244125, 0.0, 0.0, 0.0, 0.0, 0.0, 0.0, 0.0, 1.6212650104469976E9, 2021-05-17 17:23:30.446
3.0, 36.164833068847656, -63.94480895996094, 134.61582946777344, 229.1343231201172, -0.08000000566244125, 0.0, 0.0, 0.0, 0.0, 0.0, 0.0, 0.0, 1.6212650104469976E9, 2021-05-17 17:23:30.446
4.0, 27.480785369873047, -78.5304183959961, 133.15353393554688, 217.70518493652344, -0.08000000566244125, 0.0, 0.0, 0.0, 0.0, 0.0, 0.0, 0.0, 1.62126501046159E9, 2021-05-17 17:23:30.461
4.0, 27.73135757446289, -76.53705596923828, 134.47744750976562, 214.15228271484375, -0.08000000566244125, 0.0, 0.0, 0.0, 0.0, 0.0, 0.0, 0.0, 1.62126501046159E9, 2021-05-17 17:23:30.461
5.0, 23.389333724975586, -66.64875793457031, 136.51943969726562, 221.972412109375, -0.08000000566244125, 0.0, 0.0, 0.0, 0.0, 0.0, 0.0, 0.0, 1.621265010476751E9, 2021-05-17 17:23:30.476
5.0, 41.273536682128906, -56.9025764465332, 148.43475341796875, 235.4958953857422, -0.08000000566244125, 0.0, 0.0, 0.0, 0.0, 0.0, 0.0, 0.0, 1.621265010476751E9, 2021-05-17 17:23:30.476
6.0, 27.338668823242188, -64.08692932128906, 144.2236328125, 226.0301971435547, -0.08000000566244125, 0.0, 0.0, 0.0, 0.0, 0.0, 0.0, 0.0, 1.6212650104773853E9, 2021-05-17 17:23:30.477
6.0, 16.1451473236084, -71.71632385253906, 139.61981201171875, 218.22877502441406, -0.08000000566244125, 0.0, 0.0, 0.0, 0.0, 0.0, 0.0, 0.0, 1.6212650104773853E9, 2021-05-17 17:23:30.477
7.0, 40.016929626464844, -61.940223693847656, 144.53778076171875, 236.24386596679688, -0.08000000566244125, 0.0, 0.0, 0.0, 0.0, 0.0, 0.0, 0.0, 1.6212650104904592E9, 2021-05-17 17:23:30.490
7.0, 38.880001068115234, -58.682769775390625, 146.0487060546875, 241.23663330078125, -0.08000000566244125, 0.0, 0.0, 0.0, 0.0, 0.0, 0.0, 0.0, 1.6212650104904592E9, 2021-05-17 17:23:30.490
8.0, 34.23878479003906, -60.54523849487305, 149.03314208984375, 231.39695739746094, -0.08000000566244125, 0.0, 0.0, 0.0, 0.0, 0.0, 0.0, 0.0, 1.6212650105060875E9, 2021-05-17 17:23:30.506
8.0, 22.663793563842773, -74.95881652832031, 136.42593383789062, 218.3596649169922, -0.08000000566244125, 0.0, 0.0, 0.0, 0.0, 0.0, 0.0, 0.0, 1.6212650105060875E9, 2021-05-17 17:23:30.506
9.0, 26.773942947387695, -73.32073974609375, 131.8856964111328, 222.58949279785156, -0.08000000566244125, 0.0, 0.0, 0.0, 0.0, 0.0, 0.0, 0.0, 1.621265010506824E9, 2021-05-17 17:23:30.506
9.0, 30.865394592285156, -75.18695068359375, 135.50965881347656, 222.7764892578125, -0.08000000566244125, 0.0, 0.0, 0.0, 0.0, 0.0, 0.0, 0.0, 1.621265010506824E9, 2021-05-17 17:23:30.506
10.0, 33.718936920166016, -75.09345245361328, 140.6968994140625, 215.50238037109375, -0.08000000566244125, 0.0, 1.040000081062317, 0.0, 0.0, 0.0, 0.0, 0.0, 1.6212650105204337E9, 2021-05-17 17:23:30.520
10.0, 23.21729850769043, -88.72164916992188, 130.38226318359375, 209.55593872070312, -0.08000000566244125, 0.0, 1.040000081062317, 0.0, 0.0, 0.0, 0.0, 0.0, 1.6212650105204337E9, 2021-05-17 17:23:30.520
11.0, 30.8691349029541, -87.8240737915039, 129.95965576171875, 214.7693634033203, -0.08000000566244125, 0.0, 1.040000081062317, 0.0, 0.0, 0.0, 0.0, 0.0, 1.6212650105368493E9, 2021-05-17 17:23:30.536
11.0, 35.83946228027344, -75.55345916748047, 136.9794464111328, 221.73306274414062, -0.08000000566244125, 0.0, 1.040000081062317, 0.0, 0.0, 0.0, 0.0, 0.0, 1.6212650105368493E9, 2021-05-17 17:23:30.536
12.0, 25.090988159179688, -77.56926727294922, 136.92333984375, 218.2848663330078, -0.08000000566244125, 0.0, 1.040000081062317, 0.0, 0.0, 0.0, 0.0, 0.0, 1.6212650105375926E9, 2021-05-17 17:23:30.537
12.0, 15.232612609863281, -88.01106262207031, 128.0298614501953, 200.87937927246094, -0.08000000566244125, 0.0, 1.040000081062317, 0.0, 0.0, 0.0, 0.0, 0.0, 1.6212650105375926E9, 2021-05-17 17:23:30.537
13.0, 21.803617477416992, -80.89029693603516, 132.12506103515625, 214.0400848388672, -0.08000000566244125, 0.0, 1.040000081062317, 0.0, 0.0, 0.0, 0.0, 0.0, 1.621265010566769E9, 2021-05-17 17:23:30.566
13.0, 25.105947494506836, -75.22434997558594, 133.38914489746094, 217.054443359375, -0.08000000566244125, 0.0, 1.040000081062317, 0.0, 0.0, 0.0, 0.0, 0.0, 1.621265010566769E9, 2021-05-17 17:23:30.566
14.0, 25.663192749023438, -71.52932739257812, 140.55105590820312, 215.92498779296875, -0.08000000566244125, 0.0, 1.040000081062317, 0.0, 0.0, 0.0, 0.0, 0.0, 1.621265010567542E9, 2021-05-17 17:23:30.567
14.0, 8.882262229919434, -87.16958618164062, 131.35838317871094, 207.3157501220703, -0.08000000566244125, 0.0, 1.040000081062317, 0.0, 0.0, 0.0, 0.0, 0.0, 1.621265010567542E9, 2021-05-17 17:23:30.567
15.0, 20.838722229003906, -71.98185729980469, 133.0712432861328, 214.87034606933594, -0.08000000566244125, 0.0, 1.040000081062317, 0.0, 0.0, 0.0, 0.0, 0.0, 1.6212650105683494E9, 2021-05-17 17:23:30.568
15.0, 34.08544921875, -64.34497833251953, 144.3844451904297, 230.08425903320312, -0.08000000566244125, 0.0, 1.040000081062317, 0.0, 0.0, 0.0, 0.0, 0.0, 1.6212650105683494E9, 2021-05-17 17:23:30.568
16.0, 32.69046401977539, -63.219268798828125, 152.3541717529297, 230.282470703125, -0.08000000566244125, 0.0, 1.040000081062317, 0.0, 0.0, 0.0, 0.0, 0.0, 1.6212650105803592E9, 2021-05-17 17:23:30.580
16.0, 20.887340545654297, -83.07439422607422, 143.7860565185547, 219.8855438232422, -0.08000000566244125, 0.0, 1.040000081062317, 0.0, 0.0, 0.0, 0.0, 0.0, 1.6212650105803592E9, 2021-05-17 17:23:30.580
17.0, 36.3331298828125, -75.0784912109375, 150.1064910888672, 229.8149871826172, -0.08000000566244125, 0.0, 1.040000081062317, 0.0, 0.0, 0.0, 0.0, 0.0, 1.621265010596727E9, 2021-05-17 17:23:30.596
17.0, 32.963478088378906, -69.93987274169922, 152.9974365234375, 233.79049682617188, -0.08000000566244125, 0.0, 1.040000081062317, 0.0, 0.0, 0.0, 0.0, 0.0, 1.621265010596727E9, 2021-05-17 17:23:30.596
18.0, 29.260976791381836, -76.38745880126953, 151.594970703125, 225.9890594482422, -0.08000000566244125, 0.0, 1.040000081062317, 0.0, 0.0, 0.0, 0.0, 0.0, 1.621265010597427E9, 2021-05-17 17:23:30.597
18.0, 29.459192276000977, -79.26344299316406, 144.93795776367188, 217.16290283203125, -0.08000000566244125, 0.0, 1.040000081062317, 0.0, 0.0, 0.0, 0.0, 0.0, 1.621265010597427E9, 2021-05-17 17:23:30.597
19.0, 30.28196907043457, -71.9668960571289, 140.46128845214844, 219.5639190673828, -0.08000000566244125, 0.0, 1.040000081062317, 0.0, 0.0, 0.0, 0.0, 0.0, 1.6212650106103165E9, 2021-05-17 17:23:30.610
19.0, 37.74681091308594, -63.73911666870117, 143.4644317626953, 225.81329345703125, -0.08000000566244125, 0.0, 1.040000081062317, 0.0, 0.0, 0.0, 0.0, 0.0, 1.6212650106103165E9, 2021-05-17 17:23:30.610
20.0, 27.95201301574707, -75.05231475830078, 141.77774047851562, 214.44024658203125, -0.08000000566244125, 0.0, 1.055999994277954, 0.0, 0.0, 0.0, 0.0, 0.0, 1.6212650106260374E9, 2021-05-17 17:23:30.626
20.0, 21.336130142211914, -88.53839111328125, 127.80547332763672, 204.17422485351562, -0.08000000566244125, 0.0, 1.055999994277954, 0.0, 0.0, 0.0, 0.0, 0.0, 1.6212650106260374E9, 2021-05-17 17:23:30.626
21.0, 28.965524673461914, -75.83020782470703, 129.7651824951172, 216.34759521484375, -0.08000000566244125, 0.0, 1.055999994277954, 0.0, 0.0, 0.0, 0.0, 0.0, 1.6212650106267376E9, 2021-05-17 17:23:30.626
21.0, 20.057083129882812, -81.76917266845703, 131.09658813476562, 219.4217987060547, -0.08000000566244125, 0.0, 1.055999994277954, 0.0, 0.0, 0.0, 0.0, 0.0, 1.6212650106267376E9, 2021-05-17 17:23:30.626
22.0, 19.91122817993164, -84.52548217773438, 128.65817260742188, 211.18653869628906, -0.08000000566244125, 0.0, 1.055999994277954, 0.0, 0.0, 0.0, 0.0, 0.0, 1.621265010640296E9, 2021-05-17 17:23:30.640
22.0, 9.570404052734375, -86.07006072998047, 123.39238739013672, 205.12789916992188, -0.08000000566244125, 0.0, 1.055999994277954, 0.0, 0.0, 0.0, 0.0, 0.0, 1.621265010640296E9, 2021-05-17 17:23:30.640
23.0, 15.943193435668945, -78.58651733398438, 128.40011596679688, 215.6145782470703, -0.08000000566244125, 0.0, 1.055999994277954, 0.0, 0.0, 0.0, 0.0, 0.0, 1.6212650106567647E9, 2021-05-17 17:23:30.656
23.0, 27.23769187927246, -66.88810729980469, 137.2225341796875, 225.1849822998047, -0.08000000566244125, 0.0, 1.055999994277954, 0.0, 0.0, 0.0, 0.0, 0.0, 1.6212650106567647E9, 2021-05-17 17:23:30.656
24.0, 22.783470153808594, -73.171142578125, 134.6906280517578, 216.44483947753906, -0.08000000566244125, 0.0, 1.055999994277954, 0.0, 0.0, 0.0, 0.0, 0.0, 1.6212650106574457E9, 2021-05-17 17:23:30.657
24.0, 14.428533554077148, -81.06607055664062, 130.8310546875, 207.95526123046875, -0.08000000566244125, 0.0, 1.055999994277954, 0.0, 0.0, 0.0, 0.0, 0.0, 1.6212650106574457E9, 2021-05-17 17:23:30.657
25.0, 21.186532974243164, -71.45452880859375, 133.3255615234375, 215.96987915039062, -0.08000000566244125, 0.0, 1.055999994277954, 0.0, 0.0, 0.0, 0.0, 0.0, 1.62126501067032E9, 2021-05-17 17:23:30.670
25.0, 30.902793884277344, -62.01502227783203, 137.17391967773438, 225.8432159423828, -0.08000000566244125, 0.0, 1.055999994277954, 0.0, 0.0, 0.0, 0.0, 0.0, 1.62126501067032E9, 2021-05-17 17:23:30.670
26.0, 29.773344039916992, -69.15823364257812, 142.46961975097656, 222.5146942138672, -0.08000000566244125, 0.0, 1.055999994277954, 0.0, 0.0, 0.0, 0.0, 0.0, 1.6212650106865427E9, 2021-05-17 17:23:30.686
26.0, 3.448187828063965, -89.51824188232422, 128.366455078125, 207.4241943359375, -0.08000000566244125, 0.0, 1.055999994277954, 0.0, 0.0, 0.0, 0.0, 0.0, 1.6212650106865427E9, 2021-05-17 17:23:30.686
27.0, 24.952611923217773, -68.32049560546875, 141.05593872070312, 224.24627685546875, -0.08000000566244125, 0.0, 1.055999994277954, 0.0, 0.0, 0.0, 0.0, 0.0, 1.6212650107010071E9, 2021-05-17 17:23:30.701
27.0, 41.606388092041016, -59.247493743896484, 150.7946319580078, 233.66708374023438, -0.08000000566244125, 0.0, 1.055999994277954, 0.0, 0.0, 0.0, 0.0, 0.0, 1.6212650107010071E9, 2021-05-17 17:23:30.701
28.0, 31.179546356201172, -65.47442626953125, 144.48916625976562, 229.79627990722656, -0.08000000566244125, 0.0, 1.055999994277954, 0.0, 0.0, 0.0, 0.0, 0.0, 1.62126501070171E9, 2021-05-17 17:23:30.701
28.0, 17.28955841064453, -78.6126937866211, 140.94000244140625, 220.8317413330078, -0.08000000566244125, 0.0, 1.055999994277954, 0.0, 0.0, 0.0, 0.0, 0.0, 1.62126501070171E9, 2021-05-17 17:23:30.701
29.0, 29.100162506103516, -73.41797637939453, 143.8421630859375, 225.12889099121094, -0.08000000566244125, 0.0, 1.055999994277954, 0.0, 0.0, 0.0, 0.0, 0.0, 1.6212650107160428E9, 2021-05-17 17:23:30.716
29.0, 42.73957824707031, -68.48504638671875, 150.0653533935547, 230.787353515625, -0.08000000566244125, 0.0, 1.055999994277954, 0.0, 0.0, 0.0, 0.0, 0.0, 1.6212650107160428E9, 2021-05-17 17:23:30.716
30.0, 25.883848190307617, -82.19926452636719, 136.0743865966797, 217.47705078125, -0.08000000566244125, 0.0, 1.055999994277954, 0.0, 0.0, 0.0, 0.0, 0.0, 1.6212650107167645E9, 2021-05-17 17:23:30.716
30.0, 13.18688678741455, -97.02796173095703, 121.76179504394531, 199.753662109375, -0.08000000566244125, 0.0, 1.055999994277954, 0.0, 0.0, 0.0, 0.0, 0.0, 1.6212650107167645E9, 2021-05-17 17:23:30.716
31.0, 26.48971176147461, -86.7993392944336, 124.48444366455078, 207.96275329589844, -0.08000000566244125, 0.0, 1.055999994277954, 0.0, 0.0, 0.0, 0.0, 0.0, 1.6212650107304606E9, 2021-05-17 17:23:30.730
31.0, 28.20632553100586, -81.44380187988281, 125.41193389892578, 210.7078399658203, -0.08000000566244125, 0.0, 1.055999994277954, 0.0, 0.0, 0.0, 0.0, 0.0, 1.6212650107304606E9, 2021-05-17 17:23:30.730
32.0, 20.457252502441406, -81.2418441772461, 128.9237060546875, 210.83499145507812, -0.08000000566244125, 0.0, 1.055999994277954, 0.0, 0.0, 0.0, 0.0, 0.0, 1.62126501074577E9, 2021-05-17 17:23:30.745
32.0, 10.082770347595215, -84.77979278564453, 117.0457763671875, 202.12850952148438, -0.08000000566244125, 0.0, 1.055999994277954, 0.0, 0.0, 0.0, 0.0, 0.0, 1.62126501074577E9, 2021-05-17 17:23:30.745
33.0, 24.421546936035156, -78.56034088134766, 122.0235824584961, 211.93826293945312, -0.08000000566244125, 0.0, 1.055999994277954, 0.0, 0.0, 0.0, 0.0, 0.0, 1.6212650107611969E9, 2021-05-17 17:23:30.761
33.0, 34.13406753540039, -70.41109466552734, 133.34426879882812, 227.16712951660156, -0.08000000566244125, 0.0, 1.055999994277954, 0.0, 0.0, 0.0, 0.0, 0.0, 1.6212650107611969E9, 2021-05-17 17:23:30.761
34.0, 16.545316696166992, -79.50653076171875, 121.0960922241211, 207.66355895996094, -0.08000000566244125, 0.0, 1.055999994277954, 0.0, 0.0, 0.0, 0.0, 0.0, 1.621265010761752E9, 2021-05-17 17:23:30.761
34.0, 2.8909425735473633, -79.88800048828125, 119.10646057128906, 206.032958984375, -0.08000000566244125, 0.0, 1.055999994277954, 0.0, 0.0, 0.0, 0.0, 0.0, 1.621265010761752E9, 2021-05-17 17:23:30.761
35.0, 11.971419334411621, -76.31639862060547, 121.49252319335938, 212.8582763671875, -0.08000000566244125, 0.0, 1.055999994277954, 0.0, 0.0, 0.0, 0.0, 0.0, 1.621265010776105E9, 2021-05-17 17:23:30.776
35.0, 24.20089340209961, -68.3167495727539, 135.25909423828125, 223.77503967285156, -0.08000000566244125, 0.0, 1.055999994277954, 0.0, 0.0, 0.0, 0.0, 0.0, 1.621265010776105E9, 2021-05-17 17:23:30.776
36.0, 13.239245414733887, -76.97462463378906, 123.31758880615234, 207.02403259277344, -0.08000000566244125, 0.0, 1.055999994277954, 0.0, 0.0, 0.0, 0.0, 0.0, 1.6212650107768047E9, 2021-05-17 17:23:30.776
36.0, 18.478845596313477, -79.80198669433594, 134.09971618652344, 212.7198944091797, -0.08000000566244125, 0.0, 1.055999994277954, 0.0, 0.0, 0.0, 0.0, 0.0, 1.6212650107768047E9, 2021-05-17 17:23:30.776
37.0, 28.404541015625, -72.6849594116211, 133.3218231201172, 217.0095672607422, -0.08000000566244125, 0.0, 1.055999994277954, 0.0, 0.0, 0.0, 0.0, 0.0, 1.621265010790454E9, 2021-05-17 17:23:30.790
37.0, 39.52700424194336, -61.86168670654297, 146.32919311523438, 230.9070281982422, -0.08000000566244125, 0.0, 1.055999994277954, 0.0, 0.0, 0.0, 0.0, 0.0, 1.621265010790454E9, 2021-05-17 17:23:30.790
38.0, 34.60903549194336, -69.59579467773438, 148.1654815673828, 224.66140747070312, -0.08000000566244125, 0.0, 1.055999994277954, 0.0, 0.0, 0.0, 0.0, 0.0, 1.6212650108060267E9, 2021-05-17 17:23:30.806
38.0, 31.235645294189453, -75.16825103759766, 142.19287109375, 222.312744140625, -0.08000000566244125, 0.0, 1.055999994277954, 0.0, 0.0, 0.0, 0.0, 0.0, 1.6212650108060267E9, 2021-05-17 17:23:30.806
39.0, 30.427825927734375, -73.28707885742188, 138.2884063720703, 221.94248962402344, -0.08000000566244125, 0.0, 1.055999994277954, 0.0, 0.0, 0.0, 0.0, 0.0, 1.621265010806858E9, 2021-05-17 17:23:30.806
39.0, 33.528202056884766, -64.64791107177734, 150.45803833007812, 231.5914306640625, -0.08000000566244125, 0.0, 1.055999994277954, 0.0, 0.0, 0.0, 0.0, 0.0, 1.621265010806858E9, 2021-05-17 17:23:30.806
40.0, 32.51469039916992, -69.96978759765625, 141.95726013183594, 227.3503875732422, -0.08000000566244125, 0.0, 1.040000081062317, 0.0, 0.0, 0.0, 0.0, 0.0, 1.6212650108204103E9, 2021-05-17 17:23:30.820
40.0, 18.25819206237793, -83.7887191772461, 133.39662170410156, 210.82003784179688, -0.08000000566244125, 0.0, 1.040000081062317, 0.0, 0.0, 0.0, 0.0, 0.0, 1.6212650108204103E9, 2021-05-17 17:23:30.820
41.0, 18.20209312438965, -84.88825225830078, 129.30517578125, 214.99749755859375, -0.08000000566244125, 0.0, 1.040000081062317, 0.0, 0.0, 0.0, 0.0, 0.0, 1.6212650108360803E9, 2021-05-17 17:23:30.836
41.0, 32.200538635253906, -70.29889678955078, 136.65406799316406, 225.85069274902344, -0.08000000566244125, 0.0, 1.040000081062317, 0.0, 0.0, 0.0, 0.0, 0.0, 1.6212650108360803E9, 2021-05-17 17:23:30.836
42.0, 25.25180435180664, -77.84227752685547, 135.10202026367188, 216.39248657226562, -0.08000000566244125, 0.0, 1.040000081062317, 0.0, 0.0, 0.0, 0.0, 0.0, 1.6212650108367105E9, 2021-05-17 17:23:30.836
42.0, 7.838830471038818, -87.78292846679688, 119.20744323730469, 203.55340576171875, -0.08000000566244125, 0.0, 1.040000081062317, 0.0, 0.0, 0.0, 0.0, 0.0, 1.6212650108367105E9, 2021-05-17 17:23:30.836
43.0, 5.2620391845703125, -86.89657592773438, 117.7488784790039, 206.94175720214844, -0.08000000566244125, 0.0, 1.040000081062317, 0.0, 0.0, 0.0, 0.0, 0.0, 1.6212650108503158E9, 2021-05-17 17:23:30.850
43.0, 21.93825340270996, -75.23182678222656, 125.87942504882812, 221.8003692626953, -0.08000000566244125, 0.0, 1.040000081062317, 0.0, 0.0, 0.0, 0.0, 0.0, 1.6212650108503158E9, 2021-05-17 17:23:30.850
44.0, 25.397661209106445, -72.31470489501953, 132.11383056640625, 218.498046875, -0.08000000566244125, 0.0, 1.040000081062317, 0.0, 0.0, 0.0, 0.0, 0.0, 1.6212650108662517E9, 2021-05-17 17:23:30.866
44.0, 8.657868385314941, -83.62789916992188, 119.79460906982422, 207.8617706298828, -0.08000000566244125, 0.0, 1.040000081062317, 0.0, 0.0, 0.0, 0.0, 0.0, 1.6212650108662517E9, 2021-05-17 17:23:30.866
45.0, 21.107995986938477, -75.24678802490234, 128.4861297607422, 217.83609008789062, -0.08000000566244125, 0.0, 1.040000081062317, 0.0, 0.0, 0.0, 0.0, 0.0, 1.621265010866879E9, 2021-05-17 17:23:30.866
45.0, 25.76791000366211, -73.57878875732422, 138.38565063476562, 222.7802276611328, -0.08000000566244125, 0.0, 1.040000081062317, 0.0, 0.0, 0.0, 0.0, 0.0, 1.621265010866879E9, 2021-05-17 17:23:30.866
46.0, 18.770557403564453, -78.6126937866211, 135.3638153076172, 218.10536193847656, -0.08000000566244125, 0.0, 1.040000081062317, 0.0, 0.0, 0.0, 0.0, 0.0, 1.6212650108802824E9, 2021-05-17 17:23:30.880
46.0, 10.007972717285156, -88.51595306396484, 125.53535461425781, 204.17796325683594, -0.08000000566244125, 0.0, 1.040000081062317, 0.0, 0.0, 0.0, 0.0, 0.0, 1.6212650108802824E9, 2021-05-17 17:23:30.880
47.0, 18.041276931762695, -80.26199340820312, 127.59603881835938, 210.37124633789062, -0.08000000566244125, 0.0, 1.040000081062317, 0.0, 0.0, 0.0, 0.0, 0.0, 1.6212650108958373E9, 2021-05-17 17:23:30.895
47.0, 31.897605895996094, -69.77157592773438, 133.4115753173828, 224.91197204589844, -0.08000000566244125, 0.0, 1.040000081062317, 0.0, 0.0, 0.0, 0.0, 0.0, 1.6212650108958373E9, 2021-05-17 17:23:30.895
48.0, 27.80241584777832, -78.78099060058594, 136.22024536132812, 220.16604614257812, -0.08000000566244125, 0.0, 1.040000081062317, 0.0, 0.0, 0.0, 0.0, 0.0, 1.6212650109114697E9, 2021-05-17 17:23:30.911
48.0, 19.653173446655273, -86.17103576660156, 129.75770568847656, 213.0228271484375, -0.08000000566244125, 0.0, 1.040000081062317, 0.0, 0.0, 0.0, 0.0, 0.0, 1.6212650109114697E9, 2021-05-17 17:23:30.911
49.0, 35.592628479003906, -80.38540649414062, 136.7999267578125, 220.02392578125, -0.08000000566244125, 0.0, 1.040000081062317, 0.0, 0.0, 0.0, 0.0, 0.0, 1.6212650109267538E9, 2021-05-17 17:23:30.926
49.0, 43.02006912231445, -72.33340454101562, 144.12265014648438, 224.94937133789062, -0.08000000566244125, 0.0, 1.040000081062317, 0.0, 0.0, 0.0, 0.0, 0.0, 1.6212650109267538E9, 2021-05-17 17:23:30.926
50.0, 40.37969970703125, -74.3342514038086, 148.74142456054688, 223.50950622558594, -0.08000000566244125, 0.0, 1.040000081062317, 0.0, 0.0, 0.0, 0.0, 0.0, 1.621265010927482E9, 2021-05-17 17:23:30.927
50.0, 31.848987579345703, -81.46997833251953, 143.1577606201172, 209.75416564941406, -0.08000000566244125, 0.0, 1.040000081062317, 0.0, 0.0, 0.0, 0.0, 0.0, 1.621265010927482E9, 2021-05-17 17:23:30.927
51.0, 45.39864730834961, -74.31181335449219, 147.08091735839844, 222.26039123535156, -0.08000000566244125, 0.0, 1.040000081062317, 0.0, 0.0, 0.0, 0.0, 0.0, 1.6212650109282308E9, 2021-05-17 17:23:30.928
51.0, 47.047943115234375, -69.51351928710938, 148.44972229003906, 230.38719177246094, -0.08000000566244125, 0.0, 1.040000081062317, 0.0, 0.0, 0.0, 0.0, 0.0, 1.6212650109282308E9, 2021-05-17 17:23:30.928
52.0, 39.63172149658203, -79.13628387451172, 144.69859313964844, 219.8930206298828, -0.08000000566244125, 0.0, 1.040000081062317, 0.0, 0.0, 0.0, 0.0, 0.0, 1.6212650109404037E9, 2021-05-17 17:23:30.940
52.0, 26.845001220703125, -89.30880737304688, 136.91212463378906, 211.30621337890625, -0.08000000566244125, 0.0, 1.040000081062317, 0.0, 0.0, 0.0, 0.0, 0.0, 1.6212650109404037E9, 2021-05-17 17:23:30.940
53.0, 25.63327407836914, -81.03240966796875, 130.66275024414062, 216.05589294433594, -0.08000000566244125, 0.0, 1.040000081062317, 0.0, 0.0, 0.0, 0.0, 0.0, 1.6212650109560578E9, 2021-05-17 17:23:30.956
53.0, 35.12887954711914, -69.61824035644531, 134.17825317382812, 226.13865661621094, -0.08000000566244125, 0.0, 1.040000081062317, 0.0, 0.0, 0.0, 0.0, 0.0, 1.6212650109560578E9, 2021-05-17 17:23:30.956
54.0, 12.102315902709961, -85.19117736816406, 128.2804412841797, 216.1232147216797, -0.08000000566244125, 0.0, 1.040000081062317, 0.0, 0.0, 0.0, 0.0, 0.0, 1.621265010956777E9, 2021-05-17 17:23:30.956
54.0, 8.758845329284668, -89.63792419433594, 124.37972259521484, 210.7489776611328, -0.08000000566244125, 0.0, 1.040000081062317, 0.0, 0.0, 0.0, 0.0, 0.0, 1.621265010956777E9, 2021-05-17 17:23:30.956
55.0, 7.247926235198975, -94.54840850830078, 114.45402526855469, 208.08990478515625, -0.08000000566244125, 0.0, 1.040000081062317, 0.0, 0.0, 0.0, 0.0, 0.0, 1.6212650109705389E9, 2021-05-17 17:23:30.970
55.0, 28.628934860229492, -74.19587707519531, 129.88111877441406, 226.2134552001953, -0.08000000566244125, 0.0, 1.040000081062317, 0.0, 0.0, 0.0, 0.0, 0.0, 1.6212650109705389E9, 2021-05-17 17:23:30.970
56.0, 17.887941360473633, -83.007080078125, 129.27899169921875, 213.92788696289062, -0.08000000566244125, 0.0, 1.040000081062317, 0.0, 0.0, 0.0, 0.0, 0.0, 1.621265010986019E9, 2021-05-17 17:23:30.986
56.0, 8.149242401123047, -87.62959289550781, 122.39383697509766, 208.7855224609375, -0.08000000566244125, 0.0, 1.040000081062317, 0.0, 0.0, 0.0, 0.0, 0.0, 1.621265010986019E9, 2021-05-17 17:23:30.986
57.0, 20.00098419189453, -81.24932861328125, 118.95687103271484, 220.7831268310547, -0.08000000566244125, 0.0, 1.040000081062317, 0.0, 0.0, 0.0, 0.0, 0.0, 1.6212650109867857E9, 2021-05-17 17:23:30.986
57.0, 33.771297454833984, -71.55550384521484, 134.9449462890625, 230.43206787109375, -0.08000000566244125, 0.0, 1.040000081062317, 0.0, 0.0, 0.0, 0.0, 0.0, 1.6212650109867857E9, 2021-05-17 17:23:30.986
58.0, 25.730512619018555, -79.14749908447266, 127.86531066894531, 218.60276794433594, -0.08000000566244125, 0.0, 1.040000081062317, 0.0, 0.0, 0.0, 0.0, 0.0, 1.6212650110004833E9, 2021-05-17 17:23:31.000
58.0, 14.660408020019531, -80.18345642089844, 123.8897933959961, 208.1198272705078, -0.08000000566244125, 0.0, 1.040000081062317, 0.0, 0.0, 0.0, 0.0, 0.0, 1.6212650110004833E9, 2021-05-17 17:23:31.000
59.0, 28.064208984375, -76.57445526123047, 128.84890747070312, 217.8585205078125, -0.08000000566244125, 0.0, 1.040000081062317, 0.0, 0.0, 0.0, 0.0, 0.0, 1.6212650110163927E9, 2021-05-17 17:23:31.016
59.0, 39.366188049316406, -64.96954345703125, 141.01480102539062, 232.1075439453125, -0.08000000566244125, 0.0, 1.040000081062317, 0.0, 0.0, 0.0, 0.0, 0.0, 1.6212650110163927E9, 2021-05-17 17:23:31.016
60.0, 26.3326358795166, -68.24195098876953, 141.7216339111328, 221.52362060546875, -0.08000000566244125, 0.0, 1.055999994277954, 0.0, 0.0, 0.0, 0.0, 0.0, 1.6212650110310757E9, 2021-05-17 17:23:31.031
60.0, 25.311643600463867, -79.06148529052734, 136.1230010986328, 213.61000061035156, -0.08000000566244125, 0.0, 1.055999994277954, 0.0, 0.0, 0.0, 0.0, 0.0, 1.6212650110310757E9, 2021-05-17 17:23:31.031
61.0, 35.162540435791016, -71.45826721191406, 140.92503356933594, 222.96348571777344, -0.08000000566244125, 0.0, 1.055999994277954, 0.0, 0.0, 0.0, 0.0, 0.0, 1.6212650110318055E9, 2021-05-17 17:23:31.031
61.0, 38.41999053955078, -66.23362731933594, 141.01853942871094, 228.30780029296875, -0.08000000566244125, 0.0, 1.055999994277954, 0.0, 0.0, 0.0, 0.0, 0.0, 1.6212650110318055E9, 2021-05-17 17:23:31.031
62.0, 34.4968376159668, -70.84866333007812, 144.11517333984375, 224.10415649414062, -0.08000000566244125, 0.0, 1.055999994277954, 0.0, 0.0, 0.0, 0.0, 0.0, 1.62126501104611E9, 2021-05-17 17:23:31.046
62.0, 24.212112426757812, -80.03385925292969, 137.3197784423828, 216.52711486816406, -0.08000000566244125, 0.0, 1.055999994277954, 0.0, 0.0, 0.0, 0.0, 0.0, 1.62126501104611E9, 2021-05-17 17:23:31.046
63.0, 28.49429702758789, -71.03939819335938, 135.1880340576172, 226.24337768554688, -0.08000000566244125, 0.0, 1.055999994277954, 0.0, 0.0, 0.0, 0.0, 0.0, 1.6212650110467365E9, 2021-05-17 17:23:31.046
63.0, 44.699283599853516, -66.09525299072266, 144.1002197265625, 230.65646362304688, -0.08000000566244125, 0.0, 1.055999994277954, 0.0, 0.0, 0.0, 0.0, 0.0, 1.6212650110467365E9, 2021-05-17 17:23:31.046
64.0, 30.67840003967285, -78.03675079345703, 136.4969940185547, 220.7008514404297, -0.08000000566244125, 0.0, 1.055999994277954, 0.0, 0.0, 0.0, 0.0, 0.0, 1.6212650110603924E9, 2021-05-17 17:23:31.060
64.0, 18.579822540283203, -83.59798431396484, 125.85698699951172, 213.14999389648438, -0.08000000566244125, 0.0, 1.055999994277954, 0.0, 0.0, 0.0, 0.0, 0.0, 1.6212650110603924E9, 2021-05-17 17:23:31.060
65.0, 26.231658935546875, -74.46141052246094, 133.95387268066406, 221.1122283935547, -0.08000000566244125, 0.0, 1.055999994277954, 0.0, 0.0, 0.0, 0.0, 0.0, 1.6212650110761237E9, 2021-05-17 17:23:31.076
65.0, 37.728111267089844, -67.31819915771484, 138.87184143066406, 229.1343231201172, -0.08000000566244125, 0.0, 1.055999994277954, 0.0, 0.0, 0.0, 0.0, 0.0, 1.6212650110761237E9, 2021-05-17 17:23:31.076
66.0, 24.791797637939453, -76.11070251464844, 138.27719116210938, 224.20138549804688, -0.08000000566244125, 0.0, 1.055999994277954, 0.0, 0.0, 0.0, 0.0, 0.0, 1.621265011076898E9, 2021-05-17 17:23:31.076
66.0, 14.21161937713623, -82.92105865478516, 127.16594696044922, 214.52627563476562, -0.08000000566244125, 0.0, 1.055999994277954, 0.0, 0.0, 0.0, 0.0, 0.0, 1.621265011076898E9, 2021-05-17 17:23:31.076
67.0, 31.564756393432617, -72.28104400634766, 130.04193115234375, 227.4102325439453, -0.08000000566244125, 0.0, 1.055999994277954, 0.0, 0.0, 0.0, 0.0, 0.0, 1.6212650110904715E9, 2021-05-17 17:23:31.090
67.0, 29.3432559967041, -77.61414337158203, 127.97002410888672, 220.26327514648438, -0.08000000566244125, 0.0, 1.055999994277954, 0.0, 0.0, 0.0, 0.0, 0.0, 1.6212650110904715E9, 2021-05-17 17:23:31.090
68.0, 34.23130416870117, -67.1910400390625, 142.4958038330078, 227.16339111328125, -0.08000000566244125, 0.0, 1.055999994277954, 0.0, 0.0, 0.0, 0.0, 0.0, 1.6212650111058588E9, 2021-05-17 17:23:31.105
68.0, 13.942346572875977, -86.23461151123047, 127.86531066894531, 209.35772705078125, -0.08000000566244125, 0.0, 1.055999994277954, 0.0, 0.0, 0.0, 0.0, 0.0, 1.6212650111058588E9, 2021-05-17 17:23:31.105
69.0, 33.008358001708984, -78.76229095458984, 127.25944519042969, 214.07374572753906, -0.08000000566244125, 0.0, 1.055999994277954, 0.0, 0.0, 0.0, 0.0, 0.0, 1.6212650111223989E9, 2021-05-17 17:23:31.122
69.0, 38.28535461425781, -67.61365509033203, 135.64430236816406, 224.47067260742188, -0.08000000566244125, 0.0, 1.055999994277954, 0.0, 0.0, 0.0, 0.0, 0.0, 1.6212650111223989E9, 2021-05-17 17:23:31.122
70.0, 36.856712341308594, -68.25691223144531, 142.1779022216797, 224.7212371826172, -0.08000000566244125, 0.0, 1.055999994277954, 0.0, 0.0, 0.0, 0.0, 0.0, 1.621265011123253E9, 2021-05-17 17:23:31.123
70.0, 34.336021423339844, -67.56877136230469, 138.3370361328125, 210.79385375976562, -0.08000000566244125, 0.0, 1.055999994277954, 0.0, 0.0, 0.0, 0.0, 0.0, 1.621265011123253E9, 2021-05-17 17:23:31.123
71.0, 36.400447845458984, -68.82164001464844, 138.3706817626953, 217.88844299316406, -0.08000000566244125, 0.0, 1.055999994277954, 0.0, 0.0, 0.0, 0.0, 0.0, 1.6212650111239908E9, 2021-05-17 17:23:31.123
71.0, 37.86274719238281, -65.23133850097656, 141.02227783203125, 222.9111328125, -0.08000000566244125, 0.0, 1.055999994277954, 0.0, 0.0, 0.0, 0.0, 0.0, 1.6212650111239908E9, 2021-05-17 17:23:31.123
72.0, 34.4669189453125, -68.24943542480469, 143.64768981933594, 221.50119018554688, -0.08000000566244125, 0.0, 1.055999994277954, 0.0, 0.0, 0.0, 0.0, 0.0, 1.621265011135411E9, 2021-05-17 17:23:31.135
72.0, 19.054790496826172, -82.56951141357422, 128.4225616455078, 205.4495391845703, -0.08000000566244125, 0.0, 1.055999994277954, 0.0, 0.0, 0.0, 0.0, 0.0, 1.621265011135411E9, 2021-05-17 17:23:31.135
73.0, 23.710966110229492, -80.91647338867188, 126.22349548339844, 213.93536376953125, -0.08000000566244125, 0.0, 1.055999994277954, 0.0, 0.0, 0.0, 0.0, 0.0, 1.6212650111503253E9, 2021-05-17 17:23:31.150
73.0, 29.11138153076172, -72.490478515625, 127.01261138916016, 223.73390197753906, -0.08000000566244125, 0.0, 1.055999994277954, 0.0, 0.0, 0.0, 0.0, 0.0, 1.6212650111503253E9, 2021-05-17 17:23:31.150
74.0, 21.078075408935547, -82.43113708496094, 123.8112564086914, 215.30416870117188, -0.08000000566244125, 0.0, 1.055999994277954, 0.0, 0.0, 0.0, 0.0, 0.0, 1.6212650111660905E9, 2021-05-17 17:23:31.166
74.0, 22.170127868652344, -85.98777770996094, 124.42459869384766, 212.59274291992188, -0.08000000566244125, 0.0, 1.055999994277954, 0.0, 0.0, 0.0, 0.0, 0.0, 1.6212650111660905E9, 2021-05-17 17:23:31.166
75.0, 17.835582733154297, -85.5352554321289, 121.44390106201172, 216.90484619140625, -0.08000000566244125, 0.0, 1.055999994277954, 0.0, 0.0, 0.0, 0.0, 0.0, 1.621265011166754E9, 2021-05-17 17:23:31.166
75.0, 26.34759521484375, -79.16246032714844, 130.0307159423828, 227.3503875732422, -0.08000000566244125, 0.0, 1.055999994277954, 0.0, 0.0, 0.0, 0.0, 0.0, 1.621265011166754E9, 2021-05-17 17:23:31.166
76.0, 26.29897689819336, -85.44923400878906, 128.0709991455078, 218.94683837890625, -0.08000000566244125, 0.0, 1.055999994277954, 0.0, 0.0, 0.0, 0.0, 0.0, 1.6212650111803913E9, 2021-05-17 17:23:31.180
76.0, 20.898561477661133, -91.18250274658203, 120.69218444824219, 207.20355224609375, -0.08000000566244125, 0.0, 1.055999994277954, 0.0, 0.0, 0.0, 0.0, 0.0, 1.6212650111803913E9, 2021-05-17 17:23:31.180
77.0, 27.727619171142578, -81.30168151855469, 129.21914672851562, 218.17266845703125, -0.08000000566244125, 0.0, 1.055999994277954, 0.0, 0.0, 0.0, 0.0, 0.0, 1.6212650111961145E9, 2021-05-17 17:23:31.196
77.0, 30.38294792175293, -77.66650390625, 136.94578552246094, 226.7931365966797, -0.08000000566244125, 0.0, 1.055999994277954, 0.0, 0.0, 0.0, 0.0, 0.0, 1.6212650111961145E9, 2021-05-17 17:23:31.196
78.0, 30.98133087158203, -80.55370330810547, 133.94264221191406, 225.2822265625, -0.08000000566244125, 0.0, 1.055999994277954, 0.0, 0.0, 0.0, 0.0, 0.0, 1.621265011196792E9, 2021-05-17 17:23:31.196
78.0, 27.806156158447266, -83.19033813476562, 133.70703125, 215.7342529296875, -0.08000000566244125, 0.0, 1.055999994277954, 0.0, 0.0, 0.0, 0.0, 0.0, 1.621265011196792E9, 2021-05-17 17:23:31.196
79.0, 27.686479568481445, -74.88027954101562, 131.65382385253906, 216.63931274414062, -0.08000000566244125, 0.0, 1.055999994277954, 0.0, 0.0, 0.0, 0.0, 0.0, 1.6212650112103915E9, 2021-05-17 17:23:31.210
79.0, 42.934051513671875, -64.4609146118164, 141.15316772460938, 228.1208038330078, -0.08000000566244125, 0.0, 1.055999994277954, 0.0, 0.0, 0.0, 0.0, 0.0, 1.6212650112103915E9, 2021-05-17 17:23:31.210
80.0, 42.48526382446289, -64.77880859375, 147.93360900878906, 229.0595245361328, -0.08000000566244125, 0.0, 1.040000081062317, 0.0, 0.0, 0.0, 0.0, 0.0, 1.6212650112260249E9, 2021-05-17 17:23:31.226
80.0, 27.73883819580078, -71.42460632324219, 138.3370361328125, 220.35678100585938, -0.08000000566244125, 0.0, 1.040000081062317, 0.0, 0.0, 0.0, 0.0, 0.0, 1.6212650112260249E9, 2021-05-17 17:23:31.226
81.0, 29.07398223876953, -71.3460693359375, 143.86834716796875, 228.66683959960938, -0.08000000566244125, 0.0, 1.040000081062317, 0.0, 0.0, 0.0, 0.0, 0.0, 1.6212650112267272E9, 2021-05-17 17:23:31.226
81.0, 41.217437744140625, -64.39360046386719, 148.5955810546875, 232.68722534179688, -0.08000000566244125, 0.0, 1.040000081062317, 0.0, 0.0, 0.0, 0.0, 0.0, 1.6212650112267272E9, 2021-05-17 17:23:31.226
82.0, 36.29573059082031, -66.05411529541016, 143.7037811279297, 224.07423400878906, -0.08000000566244125, 0.0, 1.040000081062317, 0.0, 0.0, 0.0, 0.0, 0.0, 1.6212650112565403E9, 2021-05-17 17:23:31.256
82.0, 16.679954528808594, -83.23521423339844, 124.67891693115234, 202.4202117919922, -0.08000000566244125, 0.0, 1.040000081062317, 0.0, 0.0, 0.0, 0.0, 0.0, 1.6212650112565403E9, 2021-05-17 17:23:31.256
83.0, 25.592134475708008, -77.48698425292969, 125.42689514160156, 202.8428192138672, -0.08000000566244125, 0.0, 1.040000081062317, 0.0, 0.0, 0.0, 0.0, 0.0, 1.6212650112572613E9, 2021-05-17 17:23:31.257
83.0, 31.415159225463867, -70.35499572753906, 127.94758605957031, 217.66778564453125, -0.08000000566244125, 0.0, 1.040000081062317, 0.0, 0.0, 0.0, 0.0, 0.0, 1.6212650112572613E9, 2021-05-17 17:23:31.257
84.0, 18.75933837890625, -77.60292053222656, 123.0483169555664, 209.87757873535156, -0.08000000566244125, 0.0, 1.040000081062317, 0.0, 0.0, 0.0, 0.0, 0.0, 1.6212650112712107E9, 2021-05-17 17:23:31.271
84.0, 19.06974983215332, -81.28672790527344, 119.40191650390625, 206.98663330078125, -0.08000000566244125, 0.0, 1.040000081062317, 0.0, 0.0, 0.0, 0.0, 0.0, 1.6212650112712107E9, 2021-05-17 17:23:31.271
85.0, 17.446632385253906, -84.37588500976562, 119.21865844726562, 216.5046844482422, -0.08000000566244125, 0.0, 1.040000081062317, 0.0, 0.0, 0.0, 0.0, 0.0, 1.6212650112718484E9, 2021-05-17 17:23:31.271
85.0, 20.891080856323242, -80.295654296875, 121.18584442138672, 223.06820678710938, -0.08000000566244125, 0.0, 1.040000081062317, 0.0, 0.0, 0.0, 0.0, 0.0, 1.6212650112718484E9, 2021-05-17 17:23:31.271
86.0, 15.89083480834961, -79.97028350830078, 126.06641387939453, 223.32626342773438, -0.08000000566244125, 0.0, 1.040000081062317, 0.0, 0.0, 0.0, 0.0, 0.0, 1.621265011286046E9, 2021-05-17 17:23:31.286
86.0, 16.620115280151367, -92.44658660888672, 121.85154724121094, 214.78057861328125, -0.08000000566244125, 0.0, 1.040000081062317, 0.0, 0.0, 0.0, 0.0, 0.0, 1.621265011286046E9, 2021-05-17 17:23:31.286
87.0, 24.791797637939453, -79.6561279296875, 124.17402648925781, 221.44134521484375, -0.08000000566244125, 0.0, 1.040000081062317, 0.0, 0.0, 0.0, 0.0, 0.0, 1.621265011286748E9, 2021-05-17 17:23:31.286
87.0, 36.50890350341797, -74.74564361572266, 134.79534912109375, 230.22262573242188, -0.08000000566244125, 0.0, 1.040000081062317, 0.0, 0.0, 0.0, 0.0, 0.0, 1.621265011286748E9, 2021-05-17 17:23:31.286
88.0, 22.768510818481445, -79.96279907226562, 131.48927307128906, 219.18992614746094, -0.08000000566244125, 0.0, 1.040000081062317, 0.0, 0.0, 0.0, 0.0, 0.0, 1.6212650113003836E9, 2021-05-17 17:23:31.300
88.0, 24.271949768066406, -87.66325378417969, 123.97207641601562, 208.55738830566406, -0.08000000566244125, 0.0, 1.040000081062317, 0.0, 0.0, 0.0, 0.0, 0.0, 1.6212650113003836E9, 2021-05-17 17:23:31.300
89.0, 29.833181381225586, -73.90415954589844, 129.03964233398438, 218.08665466308594, -0.08000000566244125, 0.0, 1.040000081062317, 0.0, 0.0, 0.0, 0.0, 0.0, 1.621265011316075E9, 2021-05-17 17:23:31.316
89.0, 30.816776275634766, -71.78363800048828, 140.26681518554688, 229.17172241210938, -0.08000000566244125, 0.0, 1.040000081062317, 0.0, 0.0, 0.0, 0.0, 0.0, 1.621265011316075E9, 2021-05-17 17:23:31.316
90.0, 31.635814666748047, -70.74768829345703, 139.9003143310547, 221.972412109375, -0.08000000566244125, 0.0, 1.040000081062317, 0.0, 0.0, 0.0, 0.0, 0.0, 1.62126501131674E9, 2021-05-17 17:23:31.316
90.0, 28.554136276245117, -71.15159606933594, 134.140869140625, 209.4213104248047, -0.08000000566244125, 0.0, 1.040000081062317, 0.0, 0.0, 0.0, 0.0, 0.0, 1.62126501131674E9, 2021-05-17 17:23:31.316
91.0, 36.64727783203125, -64.82368469238281, 136.62416076660156, 223.2813720703125, -0.08000000566244125, 0.0, 1.040000081062317, 0.0, 0.0, 0.0, 0.0, 0.0, 1.6212650113303876E9, 2021-05-17 17:23:31.330
91.0, 42.129974365234375, -60.032875061035156, 146.74806213378906, 230.30865478515625, -0.08000000566244125, 0.0, 1.040000081062317, 0.0, 0.0, 0.0, 0.0, 0.0, 1.6212650113303876E9, 2021-05-17 17:23:31.330
92.0, 28.569095611572266, -61.58493423461914, 141.6917266845703, 223.19161987304688, -0.08000000566244125, 0.0, 1.040000081062317, 0.0, 0.0, 0.0, 0.0, 0.0, 1.6212650113460617E9, 2021-05-17 17:23:31.346
92.0, 18.478845596313477, -67.30323791503906, 133.77809143066406, 216.1232147216797, -0.08000000566244125, 0.0, 1.040000081062317, 0.0, 0.0, 0.0, 0.0, 0.0, 1.6212650113460617E9, 2021-05-17 17:23:31.346
93.0, 28.677553176879883, -61.18102264404297, 135.45730590820312, 217.0993194580078, -0.08000000566244125, 0.0, 1.040000081062317, 0.0, 0.0, 0.0, 0.0, 0.0, 1.621265011346778E9, 2021-05-17 17:23:31.346
93.0, 37.44013977050781, -54.65863800048828, 138.4080810546875, 224.23504638671875, -0.08000000566244125, 0.0, 1.040000081062317, 0.0, 0.0, 0.0, 0.0, 0.0, 1.621265011346778E9, 2021-05-17 17:23:31.346
94.0, 32.641845703125, -65.38841247558594, 140.13218688964844, 218.7598419189453, -0.08000000566244125, 0.0, 1.040000081062317, 0.0, 0.0, 0.0, 0.0, 0.0, 1.6212650113603845E9, 2021-05-17 17:23:31.360
94.0, 22.9405460357666, -78.64635467529297, 123.36994934082031, 207.32322692871094, -0.08000000566244125, 0.0, 1.040000081062317, 0.0, 0.0, 0.0, 0.0, 0.0, 1.6212650113603845E9, 2021-05-17 17:23:31.360
95.0, 27.260129928588867, -76.26777648925781, 127.75685119628906, 213.92788696289062, -0.08000000566244125, 0.0, 1.040000081062317, 0.0, 0.0, 0.0, 0.0, 0.0, 1.6212650113762772E9, 2021-05-17 17:23:31.376
95.0, 35.35701370239258, -79.69352722167969, 123.1679916381836, 220.51011657714844, -0.08000000566244125, 0.0, 1.040000081062317, 0.0, 0.0, 0.0, 0.0, 0.0, 1.6212650113762772E9, 2021-05-17 17:23:31.376
96.0, 25.397661209106445, -81.06607055664062, 128.9124755859375, 221.5124053955078, -0.08000000566244125, 0.0, 1.040000081062317, 0.0, 0.0, 0.0, 0.0, 0.0, 1.6212650113769357E9, 2021-05-17 17:23:31.376
96.0, 5.254559516906738, -91.30965423583984, 118.16027069091797, 204.43601989746094, -0.08000000566244125, 0.0, 1.040000081062317, 0.0, 0.0, 0.0, 0.0, 0.0, 1.6212650113769357E9, 2021-05-17 17:23:31.376
97.0, 16.418161392211914, -77.58422088623047, 119.70484924316406, 214.5038299560547, -0.08000000566244125, 0.0, 1.040000081062317, 0.0, 0.0, 0.0, 0.0, 0.0, 1.6212650113903227E9, 2021-05-17 17:23:31.390
97.0, 26.508411407470703, -72.52787780761719, 122.71920776367188, 219.39561462402344, -0.08000000566244125, 0.0, 1.040000081062317, 0.0, 0.0, 0.0, 0.0, 0.0, 1.6212650113903227E9, 2021-05-17 17:23:31.390
98.0, 21.347349166870117, -70.94963836669922, 127.31928253173828, 216.81883239746094, -0.08000000566244125, 0.0, 1.040000081062317, 0.0, 0.0, 0.0, 0.0, 0.0, 1.6212650114060285E9, 2021-05-17 17:23:31.406
98.0, 15.494405746459961, -80.50882720947266, 128.41506958007812, 212.3047637939453, -0.08000000566244125, 0.0, 1.040000081062317, 0.0, 0.0, 0.0, 0.0, 0.0, 1.6212650114060285E9, 2021-05-17 17:23:31.406
99.0, 20.891080856323242, -79.5102767944336, 122.50977325439453, 216.22044372558594, -0.08000000566244125, 0.0, 1.040000081062317, 0.0, 0.0, 0.0, 0.0, 0.0, 1.621265011406797E9, 2021-05-17 17:23:31.406
99.0, 31.676952362060547, -77.01576232910156, 135.2890167236328, 229.12310791015625, -0.08000000566244125, 0.0, 1.040000081062317, 0.0, 0.0, 0.0, 0.0, 0.0, 1.621265011406797E9, 2021-05-17 17:23:31.406
100.0, 27.765016555786133, -75.25800323486328, 136.500732421875, 220.23709106445312, -0.08000000566244125, 0.0, 1.055999994277954, 0.0, 0.0, 0.0, 0.0, 0.0, 1.621265011421007E9, 2021-05-17 17:23:31.421
100.0, 23.6623477935791, -79.40181732177734, 137.2225341796875, 218.86080932617188, -0.08000000566244125, 0.0, 1.055999994277954, 0.0, 0.0, 0.0, 0.0, 0.0, 1.621265011421007E9, 2021-05-17 17:23:31.421
0.0, 27.355497360229492, -74.6371841430664, 136.0052032470703, 219.941650390625, -0.08000000566244125, 0.0, 1.055999994277954, 0.0, 0.0, 0.0, 0.0, 0.0, 1.6212650114217372E9, 2021-05-17 17:23:31.421
1.0, 25.291072845458984, -68.74684143066406, 141.19992065429688, 228.92861938476562, -0.08000000566244125, 0.0, 1.055999994277954, 0.0, 0.0, 0.0, 0.0, 0.0, 1.6212650114354095E9, 2021-05-17 17:23:31.435
1.0, 30.362377166748047, -64.4571762084961, 140.36965942382812, 220.1847381591797, -0.08000000566244125, 0.0, 1.055999994277954, 0.0, 0.0, 0.0, 0.0, 0.0, 1.6212650114354095E9, 2021-05-17 17:23:31.435
2.0, 20.414243698120117, -68.03626251220703, 133.6752471923828, 209.32032775878906, -0.08000000566244125, 0.0, 1.055999994277954, 0.0, 0.0, 0.0, 0.0, 0.0, 1.6212650114507668E9, 2021-05-17 17:23:31.450
2.0, 16.36393165588379, -72.11274719238281, 129.9390869140625, 206.18629455566406, -0.08000000566244125, 0.0, 1.055999994277954, 0.0, 0.0, 0.0, 0.0, 0.0, 1.6212650114507668E9, 2021-05-17 17:23:31.450
3.0, 30.167903900146484, -68.2307357788086, 136.99627685546875, 219.84814453125, -0.08000000566244125, 0.0, 1.055999994277954, 0.0, 0.0, 0.0, 0.0, 0.0, 1.6212650114660392E9, 2021-05-17 17:23:31.466
3.0, 33.021446228027344, -68.81415557861328, 142.5687255859375, 220.61856079101562, -0.08000000566244125, 0.0, 1.055999994277954, 0.0, 0.0, 0.0, 0.0, 0.0, 1.6212650114660392E9, 2021-05-17 17:23:31.466
4.0, 14.198530197143555, -77.65528106689453, 128.81336975097656, 207.91412353515625, -0.08000000566244125, 0.0, 1.055999994277954, 0.0, 0.0, 0.0, 0.0, 0.0, 1.6212650114667795E9, 2021-05-17 17:23:31.466
4.0, 37.281192779541016, -64.7189712524414, 133.77247619628906, 224.859619140625, -0.08000000566244125, 0.0, 1.055999994277954, 0.0, 0.0, 0.0, 0.0, 0.0, 1.6212650114667795E9, 2021-05-17 17:23:31.466
5.0, 45.90166091918945, -61.48395538330078, 144.90989685058594, 237.8333282470703, -0.08000000566244125, 0.0, 1.055999994277954, 0.0, 0.0, 0.0, 0.0, 0.0, 1.6212650114814224E9, 2021-05-17 17:23:31.481
5.0, 42.16550064086914, -69.40880584716797, 144.5321807861328, 235.97459411621094, -0.08000000566244125, 0.0, 1.055999994277954, 0.0, 0.0, 0.0, 0.0, 0.0, 1.6212650114814224E9, 2021-05-17 17:23:31.481
6.0, 19.258615493774414, -73.1075668334961, 135.50405883789062, 224.0555419921875, -0.08000000566244125, 0.0, 1.055999994277954, 0.0, 0.0, 0.0, 0.0, 0.0, 1.621265011496055E9, 2021-05-17 17:23:31.496
6.0, 30.822385787963867, -72.0080337524414, 132.7327880859375, 229.7364501953125, -0.08000000566244125, 0.0, 1.055999994277954, 0.0, 0.0, 0.0, 0.0, 0.0, 1.621265011496055E9, 2021-05-17 17:23:31.496
7.0, 46.103614807128906, -66.99656677246094, 142.41539001464844, 242.00704956054688, -0.08000000566244125, 0.0, 1.055999994277954, 0.0, 0.0, 0.0, 0.0, 0.0, 1.6212650114967284E9, 2021-05-17 17:23:31.496
7.0, 31.016860961914062, -82.71537017822266, 138.00230407714844, 224.6389617919922, -0.08000000566244125, 0.0, 1.055999994277954, 0.0, 0.0, 0.0, 0.0, 0.0, 1.6212650114967284E9, 2021-05-17 17:23:31.496
8.0, 29.614397048950195, -86.08501434326172, 136.2071533203125, 218.8234100341797, -0.08000000566244125, 0.0, 1.055999994277954, 0.0, 0.0, 0.0, 0.0, 0.0, 1.6212650115110843E9, 2021-05-17 17:23:31.511
8.0, 30.590511322021484, -82.77146911621094, 130.22705078125, 222.3501434326172, -0.08000000566244125, 0.0, 1.055999994277954, 0.0, 0.0, 0.0, 0.0, 0.0, 1.6212650115110843E9, 2021-05-17 17:23:31.511
9.0, 42.73396682739258, -70.23532104492188, 136.52505493164062, 230.20767211914062, -0.08000000566244125, 0.0, 1.055999994277954, 0.0, 0.0, 0.0, 0.0, 0.0, 1.6212650115118291E9, 2021-05-17 17:23:31.511
9.0, 32.95412826538086, -78.32098388671875, 133.42092895507812, 219.91546630859375, -0.08000000566244125, 0.0, 1.055999994277954, 0.0, 0.0, 0.0, 0.0, 0.0, 1.6212650115118291E9, 2021-05-17 17:23:31.511
10.0, 30.39603614807129, -72.80463409423828, 133.46580505371094, 220.05010986328125, -0.08000000566244125, 0.0, 1.055999994277954, 0.0, 0.0, 0.0, 0.0, 0.0, 1.6212650115253615E9, 2021-05-17 17:23:31.525
10.0, 16.412551879882812, -80.38540649414062, 127.90831756591797, 213.18739318847656, -0.08000000566244125, 0.0, 1.055999994277954, 0.0, 0.0, 0.0, 0.0, 0.0, 1.6212650115253615E9, 2021-05-17 17:23:31.525
11.0, 30.990680694580078, -68.8740005493164, 133.68272399902344, 225.05035400390625, -0.08000000566244125, 0.0, 1.055999994277954, 0.0, 0.0, 0.0, 0.0, 0.0, 1.621265011541084E9, 2021-05-17 17:23:31.541
11.0, 24.879684448242188, -73.5301742553711, 135.88552856445312, 219.5564422607422, -0.08000000566244125, 0.0, 1.055999994277954, 0.0, 0.0, 0.0, 0.0, 0.0, 1.621265011541084E9, 2021-05-17 17:23:31.541
12.0, 16.77532196044922, -78.4518814086914, 132.25408935546875, 204.83619689941406, -0.08000000566244125, 0.0, 1.055999994277954, 0.0, 0.0, 0.0, 0.0, 0.0, 1.6212650115418265E9, 2021-05-17 17:23:31.541
12.0, 22.56094741821289, -66.1064682006836, 133.05816650390625, 206.48548889160156, -0.08000000566244125, 0.0, 1.055999994277954, 0.0, 0.0, 0.0, 0.0, 0.0, 1.6212650115418265E9, 2021-05-17 17:23:31.541
13.0, 26.394344329833984, -57.2017707824707, 130.07371520996094, 218.61398315429688, -0.08000000566244125, 0.0, 1.055999994277954, 0.0, 0.0, 0.0, 0.0, 0.0, 1.6212650115553555E9, 2021-05-17 17:23:31.555
13.0, 16.524747848510742, -66.05411529541016, 126.43853759765625, 204.13308715820312, -0.08000000566244125, 0.0, 1.055999994277954, 0.0, 0.0, 0.0, 0.0, 0.0, 1.6212650115553555E9, 2021-05-17 17:23:31.555
14.0, 14.70341682434082, -66.41688537597656, 128.0728759765625, 199.86212158203125, -0.08000000566244125, 0.0, 1.055999994277954, 0.0, 0.0, 0.0, 0.0, 0.0, 1.6212650115711195E9, 2021-05-17 17:23:31.571
14.0, 9.205763816833496, -63.81391143798828, 123.77572631835938, 209.3053741455078, -0.08000000566244125, 0.0, 1.055999994277954, 0.0, 0.0, 0.0, 0.0, 0.0, 1.6212650115711195E9, 2021-05-17 17:23:31.571
15.0, 28.4512882232666, -57.2017707824707, 139.49827575683594, 221.01499938964844, -0.08000000566244125, 0.0, 1.055999994277954, 0.0, 0.0, 0.0, 0.0, 0.0, 1.6212650115718243E9, 2021-05-17 17:23:31.571
15.0, 28.144617080688477, -62.8714599609375, 138.8737030029297, 223.1205596923828, -0.08000000566244125, 0.0, 1.055999994277954, 0.0, 0.0, 0.0, 0.0, 0.0, 1.6212650115718243E9, 2021-05-17 17:23:31.571
16.0, 20.986448287963867, -69.74165344238281, 140.54544067382812, 226.17979431152344, -0.08000000566244125, 0.0, 1.055999994277954, 0.0, 0.0, 0.0, 0.0, 0.0, 1.621265011601863E9, 2021-05-17 17:23:31.601
16.0, 26.20734977722168, -70.34378051757812, 130.85536193847656, 224.63522338867188, -0.08000000566244125, 0.0, 1.055999994277954, 0.0, 0.0, 0.0, 0.0, 0.0, 1.621265011601863E9, 2021-05-17 17:23:31.601
17.0, 40.25815200805664, -66.8507080078125, 145.84487915039062, 237.11526489257812, -0.08000000566244125, 0.0, 1.055999994277954, 0.0, 0.0, 0.0, 0.0, 0.0, 1.6212650116025789E9, 2021-05-17 17:23:31.602
17.0, 30.49701499938965, -65.81849670410156, 141.1400909423828, 238.90667724609375, -0.08000000566244125, 0.0, 1.055999994277954, 0.0, 0.0, 0.0, 0.0, 0.0, 1.6212650116025789E9, 2021-05-17 17:23:31.602
18.0, 18.147865295410156, -75.86760711669922, 133.95199584960938, 223.0195770263672, -0.08000000566244125, 0.0, 1.055999994277954, 0.0, 0.0, 0.0, 0.0, 0.0, 1.6212650116032336E9, 2021-05-17 17:23:31.603
18.0, 25.03302001953125, -75.9050064086914, 132.54953002929688, 227.76177978515625, -0.08000000566244125, 0.0, 1.055999994277954, 0.0, 0.0, 0.0, 0.0, 0.0, 1.6212650116032336E9, 2021-05-17 17:23:31.603
19.0, 42.150543212890625, -63.260406494140625, 142.1498565673828, 235.35003662109375, -0.08000000566244125, 0.0, 1.055999994277954, 0.0, 0.0, 0.0, 0.0, 0.0, 1.6212650116152742E9, 2021-05-17 17:23:31.615
19.0, 35.07465362548828, -71.06932067871094, 138.290283203125, 222.0958251953125, -0.08000000566244125, 0.0, 1.055999994277954, 0.0, 0.0, 0.0, 0.0, 0.0, 1.6212650116152742E9, 2021-05-17 17:23:31.615
20.0, 27.991281509399414, -75.68435668945312, 132.4298553466797, 212.52542114257812, -0.08000000566244125, 0.0, 1.055999994277954, 0.0, 0.0, 0.0, 0.0, 0.0, 1.6212650116310053E9, 2021-05-17 17:23:31.631
20.0, 31.734920501708984, -68.81415557861328, 136.22586059570312, 221.68443298339844, -0.08000000566244125, 0.0, 1.055999994277954, 0.0, 0.0, 0.0, 0.0, 0.0, 1.6212650116310053E9, 2021-05-17 17:23:31.631
21.0, 39.618629455566406, -58.417236328125, 143.6719970703125, 232.6124267578125, -0.08000000566244125, 0.0, 1.055999994277954, 0.0, 0.0, 0.0, 0.0, 0.0, 1.6212650116317732E9, 2021-05-17 17:23:31.631
21.0, 23.37250518798828, -66.65997314453125, 135.5638885498047, 220.38668823242188, -0.08000000566244125, 0.0, 1.055999994277954, 0.0, 0.0, 0.0, 0.0, 0.0, 1.6212650116317732E9, 2021-05-17 17:23:31.631
22.0, 18.615352630615234, -75.69557189941406, 129.52769470214844, 210.8649139404297, -0.08000000566244125, 0.0, 1.055999994277954, 0.0, 0.0, 0.0, 0.0, 0.0, 1.621265011645394E9, 2021-05-17 17:23:31.645
22.0, 24.4608154296875, -77.67024230957031, 126.03462982177734, 213.94284057617188, -0.08000000566244125, 0.0, 1.055999994277954, 0.0, 0.0, 0.0, 0.0, 0.0, 1.621265011645394E9, 2021-05-17 17:23:31.645
23.0, 34.14341735839844, -63.353904724121094, 133.27133178710938, 218.3783721923828, -0.08000000566244125, 0.0, 1.055999994277954, 0.0, 0.0, 0.0, 0.0, 0.0, 1.621265011660977E9, 2021-05-17 17:23:31.660
23.0, 23.376245498657227, -63.79521179199219, 131.3789520263672, 216.54208374023438, -0.08000000566244125, 0.0, 1.055999994277954, 0.0, 0.0, 0.0, 0.0, 0.0, 1.621265011660977E9, 2021-05-17 17:23:31.660
24.0, 12.485655784606934, -64.92840576171875, 121.59910583496094, 209.23431396484375, -0.08000000566244125, 0.0, 1.055999994277954, 0.0, 0.0, 0.0, 0.0, 0.0, 1.621265011661709E9, 2021-05-17 17:23:31.661
24.0, 19.916837692260742, -59.10163879394531, 127.68392181396484, 213.7072296142578, -0.08000000566244125, 0.0, 1.055999994277954, 0.0, 0.0, 0.0, 0.0, 0.0, 1.621265011661709E9, 2021-05-17 17:23:31.661
25.0, 34.20325469970703, -55.107425689697266, 140.6202392578125, 230.17401123046875, -0.08000000566244125, 0.0, 1.055999994277954, 0.0, 0.0, 0.0, 0.0, 0.0, 1.6212650116753094E9, 2021-05-17 17:23:31.675
25.0, 34.270572662353516, -57.672996520996094, 142.16856384277344, 225.68612670898438, -0.08000000566244125, 0.0, 1.055999994277954, 0.0, 0.0, 0.0, 0.0, 0.0, 1.6212650116753094E9, 2021-05-17 17:23:31.675
26.0, 19.711143493652344, -70.2427978515625, 131.77911376953125, 210.7340087890625, -0.08000000566244125, 0.0, 1.055999994277954, 0.0, 0.0, 0.0, 0.0, 0.0, 1.6212650116909816E9, 2021-05-17 17:23:31.690
26.0, 34.655784606933594, -65.72126007080078, 141.69732666015625, 220.89158630371094, -0.08000000566244125, 0.0, 1.055999994277954, 0.0, 0.0, 0.0, 0.0, 0.0, 1.6212650116909816E9, 2021-05-17 17:23:31.690
27.0, 32.58761978149414, -63.08089065551758, 140.81845092773438, 225.73475646972656, -0.08000000566244125, 0.0, 1.055999994277954, 0.0, 0.0, 0.0, 0.0, 0.0, 1.6212650116917064E9, 2021-05-17 17:23:31.691
27.0, 27.6472110748291, -71.33485412597656, 146.764892578125, 227.76177978515625, -0.08000000566244125, 0.0, 1.055999994277954, 0.0, 0.0, 0.0, 0.0, 0.0, 1.6212650116917064E9, 2021-05-17 17:23:31.691
28.0, 16.199377059936523, -80.73322296142578, 131.69683837890625, 213.1948699951172, -0.08000000566244125, 0.0, 1.055999994277954, 0.0, 0.0, 0.0, 0.0, 0.0, 1.621265011721424E9, 2021-05-17 17:23:31.721
28.0, 13.203717231750488, -84.42076110839844, 124.06744384765625, 213.4491729736328, -0.08000000566244125, 0.0, 1.055999994277954, 0.0, 0.0, 0.0, 0.0, 0.0, 1.621265011721424E9, 2021-05-17 17:23:31.721
29.0, 43.3398323059082, -71.42086791992188, 141.92172241210938, 228.81642150878906, -0.08000000566244125, 0.0, 1.055999994277954, 0.0, 0.0, 0.0, 0.0, 0.0, 1.6212650117222662E9, 2021-05-17 17:23:31.722
29.0, 38.384464263916016, -75.037353515625, 137.9873504638672, 219.1001739501953, -0.08000000566244125, 0.0, 1.055999994277954, 0.0, 0.0, 0.0, 0.0, 0.0, 1.6212650117222662E9, 2021-05-17 17:23:31.722
30.0, 23.376245498657227, -90.67013549804688, 121.72252655029297, 205.71507263183594, -0.08000000566244125, 0.0, 1.040000081062317, 0.0, 0.0, 0.0, 0.0, 0.0, 1.6212650117360985E9, 2021-05-17 17:23:31.736
30.0, 29.610658645629883, -80.34426879882812, 125.24176788330078, 213.31080627441406, -0.08000000566244125, 0.0, 1.040000081062317, 0.0, 0.0, 0.0, 0.0, 0.0, 1.6212650117360985E9, 2021-05-17 17:23:31.736
31.0, 31.424509048461914, -69.92117309570312, 130.36917114257812, 219.0889434814453, -0.08000000566244125, 0.0, 1.040000081062317, 0.0, 0.0, 0.0, 0.0, 0.0, 1.6212650117368336E9, 2021-05-17 17:23:31.736
31.0, 33.892845153808594, -71.49566650390625, 139.61795043945312, 224.25001525878906, -0.08000000566244125, 0.0, 1.040000081062317, 0.0, 0.0, 0.0, 0.0, 0.0, 1.6212650117368336E9, 2021-05-17 17:23:31.736
32.0, 22.19443702697754, -80.3966293334961, 134.8533172607422, 220.1922149658203, -0.08000000566244125, 0.0, 1.040000081062317, 0.0, 0.0, 0.0, 0.0, 0.0, 1.6212650117510312E9, 2021-05-17 17:23:31.751
32.0, 28.660722732543945, -70.26524353027344, 132.54205322265625, 223.90594482421875, -0.08000000566244125, 0.0, 1.040000081062317, 0.0, 0.0, 0.0, 0.0, 0.0, 1.6212650117510312E9, 2021-05-17 17:23:31.751
33.0, 32.10143280029297, -66.57395935058594, 134.86827087402344, 230.7910919189453, -0.08000000566244125, 0.0, 1.040000081062317, 0.0, 0.0, 0.0, 0.0, 0.0, 1.6212650117517116E9, 2021-05-17 17:23:31.751
33.0, 19.93927574157715, -71.08802032470703, 132.80010986328125, 218.00811767578125, -0.08000000566244125, 0.0, 1.040000081062317, 0.0, 0.0, 0.0, 0.0, 0.0, 1.6212650117517116E9, 2021-05-17 17:23:31.751
34.0, 10.122038841247559, -85.97281646728516, 122.01423645019531, 202.8129119873047, -0.08000000566244125, 0.0, 1.040000081062317, 0.0, 0.0, 0.0, 0.0, 0.0, 1.6212650117654247E9, 2021-05-17 17:23:31.765
34.0, 24.400978088378906, -75.11962890625, 129.67355346679688, 218.73739624023438, -0.08000000566244125, 0.0, 1.040000081062317, 0.0, 0.0, 0.0, 0.0, 0.0, 1.6212650117654247E9, 2021-05-17 17:23:31.765
35.0, 29.31520652770996, -68.04373931884766, 133.4957275390625, 225.22238159179688, -0.08000000566244125, 0.0, 1.040000081062317, 0.0, 0.0, 0.0, 0.0, 0.0, 1.6212650117810197E9, 2021-05-17 17:23:31.781
35.0, 26.790773391723633, -75.80029296875, 132.609375, 214.85537719726562, -0.08000000566244125, 0.0, 1.040000081062317, 0.0, 0.0, 0.0, 0.0, 0.0, 1.6212650117810197E9, 2021-05-17 17:23:31.781
36.0, 11.71523666381836, -83.50074768066406, 123.79442596435547, 202.57728576660156, -0.08000000566244125, 0.0, 1.040000081062317, 0.0, 0.0, 0.0, 0.0, 0.0, 1.6212650117817392E9, 2021-05-17 17:23:31.781
36.0, 28.264293670654297, -77.66650390625, 128.52540588378906, 215.7492218017578, -0.08000000566244125, 0.0, 1.040000081062317, 0.0, 0.0, 0.0, 0.0, 0.0, 1.6212650117817392E9, 2021-05-17 17:23:31.781
37.0, 42.285179138183594, -63.2828483581543, 135.6573944091797, 227.1072998046875, -0.08000000566244125, 0.0, 1.040000081062317, 0.0, 0.0, 0.0, 0.0, 0.0, 1.621265011795362E9, 2021-05-17 17:23:31.795
37.0, 24.797407150268555, -73.24967956542969, 137.4488067626953, 216.22792053222656, -0.08000000566244125, 0.0, 1.040000081062317, 0.0, 0.0, 0.0, 0.0, 0.0, 1.621265011795362E9, 2021-05-17 17:23:31.795
38.0, 16.270435333251953, -83.42594909667969, 127.60912322998047, 205.28871154785156, -0.08000000566244125, 0.0, 1.040000081062317, 0.0, 0.0, 0.0, 0.0, 0.0, 1.6212650118111277E9, 2021-05-17 17:23:31.811
38.0, 28.110958099365234, -76.58940887451172, 135.6461639404297, 218.77105712890625, -0.08000000566244125, 0.0, 1.040000081062317, 0.0, 0.0, 0.0, 0.0, 0.0, 1.6212650118111277E9, 2021-05-17 17:23:31.811
39.0, 41.77281188964844, -70.95712280273438, 139.99942016601562, 233.4726104736328, -0.08000000566244125, 0.0, 1.040000081062317, 0.0, 0.0, 0.0, 0.0, 0.0, 1.6212650118118768E9, 2021-05-17 17:23:31.811
39.0, 34.29301452636719, -76.30892181396484, 141.2186279296875, 228.44618225097656, -0.08000000566244125, 0.0, 1.040000081062317, 0.0, 0.0, 0.0, 0.0, 0.0, 1.6212650118118768E9, 2021-05-17 17:23:31.811
40.0, 22.56094741821289, -88.86376190185547, 126.4871597290039, 213.84934997558594, -0.08000000566244125, 0.0, 1.040000081062317, 0.0, 0.0, 0.0, 0.0, 0.0, 1.6212650118253596E9, 2021-05-17 17:23:31.825
40.0, 24.146663665771484, -82.71910858154297, 125.51852416992188, 221.84152221679688, -0.08000000566244125, 0.0, 1.040000081062317, 0.0, 0.0, 0.0, 0.0, 0.0, 1.6212650118253596E9, 2021-05-17 17:23:31.825
41.0, 44.61139678955078, -72.66999816894531, 138.2454071044922, 233.91390991210938, -0.08000000566244125, 0.0, 1.040000081062317, 0.0, 0.0, 0.0, 0.0, 0.0, 1.6212650118411093E9, 2021-05-17 17:23:31.841
41.0, 38.219905853271484, -70.28394317626953, 136.01268005371094, 225.42059326171875, -0.08000000566244125, 0.0, 1.040000081062317, 0.0, 0.0, 0.0, 0.0, 0.0, 1.6212650118411093E9, 2021-05-17 17:23:31.841
42.0, 19.355852127075195, -87.45755767822266, 119.99468994140625, 211.65028381347656, -0.08000000566244125, 0.0, 1.040000081062317, 0.0, 0.0, 0.0, 0.0, 0.0, 1.6212650118418386E9, 2021-05-17 17:23:31.841
42.0, 27.482654571533203, -66.15135192871094, 134.9842071533203, 232.2683563232422, -0.08000000566244125, 0.0, 1.040000081062317, 0.0, 0.0, 0.0, 0.0, 0.0, 1.6212650118418386E9, 2021-05-17 17:23:31.841
43.0, 32.23980712890625, -55.30937957763672, 139.92835998535156, 237.93057250976562, -0.08000000566244125, 0.0, 1.040000081062317, 0.0, 0.0, 0.0, 0.0, 0.0, 1.6212650118553553E9, 2021-05-17 17:23:31.855
43.0, 25.35091209411621, -66.25232696533203, 135.2834014892578, 225.4916534423828, -0.08000000566244125, 0.0, 1.040000081062317, 0.0, 0.0, 0.0, 0.0, 0.0, 1.6212650118553553E9, 2021-05-17 17:23:31.855
44.0, 25.66132354736328, -74.50254821777344, 131.4649658203125, 216.5121612548828, -0.08000000566244125, 0.0, 1.040000081062317, 0.0, 0.0, 0.0, 0.0, 0.0, 1.6212650118710513E9, 2021-05-17 17:23:31.871
44.0, 20.204809188842773, -74.7157211303711, 122.74725341796875, 221.14215087890625, -0.08000000566244125, 0.0, 1.040000081062317, 0.0, 0.0, 0.0, 0.0, 0.0, 1.6212650118710513E9, 2021-05-17 17:23:31.871
45.0, 26.72345542907715, -66.48046112060547, 129.475341796875, 234.63197326660156, -0.08000000566244125, 0.0, 1.040000081062317, 0.0, 0.0, 0.0, 0.0, 0.0, 1.6212650118718593E9, 2021-05-17 17:23:31.871
45.0, 16.693042755126953, -81.23436737060547, 121.55796813964844, 217.9969024658203, -0.08000000566244125, 0.0, 1.040000081062317, 0.0, 0.0, 0.0, 0.0, 0.0, 1.6212650118718593E9, 2021-05-17 17:23:31.871
46.0, 23.52958106994629, -78.8707504272461, 125.71299743652344, 218.35592651367188, -0.08000000566244125, 0.0, 1.040000081062317, 0.0, 0.0, 0.0, 0.0, 0.0, 1.6212650118854952E9, 2021-05-17 17:23:31.885
46.0, 13.68990421295166, -86.3804702758789, 117.85546875, 212.11402893066406, -0.08000000566244125, 0.0, 1.040000081062317, 0.0, 0.0, 0.0, 0.0, 0.0, 1.6212650118854952E9, 2021-05-17 17:23:31.885
47.0, 30.257659912109375, -70.29889678955078, 127.61286926269531, 231.71859741210938, -0.08000000566244125, 0.0, 1.040000081062317, 0.0, 0.0, 0.0, 0.0, 0.0, 1.621265011901131E9, 2021-05-17 17:23:31.901
47.0, 28.769180297851562, -75.02613067626953, 128.67874145507812, 220.31564331054688, -0.08000000566244125, 0.0, 1.040000081062317, 0.0, 0.0, 0.0, 0.0, 0.0, 1.621265011901131E9, 2021-05-17 17:23:31.901
48.0, 19.714881896972656, -90.55046081542969, 119.5458984375, 203.86007690429688, -0.08000000566244125, 0.0, 1.040000081062317, 0.0, 0.0, 0.0, 0.0, 0.0, 1.6212650119019184E9, 2021-05-17 17:23:31.901
48.0, 32.553958892822266, -78.84457397460938, 129.91664123535156, 218.7187042236328, -0.08000000566244125, 0.0, 1.040000081062317, 0.0, 0.0, 0.0, 0.0, 0.0, 1.6212650119019184E9, 2021-05-17 17:23:31.901
49.0, 35.90116882324219, -82.10950469970703, 131.0386199951172, 219.27220153808594, -0.08000000566244125, 0.0, 1.040000081062317, 0.0, 0.0, 0.0, 0.0, 0.0, 1.6212650119155293E9, 2021-05-17 17:23:31.915
49.0, 37.93567657470703, -79.37937927246094, 135.12258911132812, 220.2445831298828, -0.08000000566244125, 0.0, 1.040000081062317, 0.0, 0.0, 0.0, 0.0, 0.0, 1.6212650119155293E9, 2021-05-17 17:23:31.915
50.0, 25.526687622070312, -85.47541046142578, 127.32115173339844, 207.394287109375, -0.08000000566244125, 0.0, 1.055999994277954, 0.0, 0.0, 0.0, 0.0, 0.0, 1.621265011931116E9, 2021-05-17 17:23:31.931
50.0, 34.046180725097656, -82.12446594238281, 132.4822235107422, 219.0178985595703, -0.08000000566244125, 0.0, 1.055999994277954, 0.0, 0.0, 0.0, 0.0, 0.0, 1.621265011931116E9, 2021-05-17 17:23:31.931
51.0, 41.60077667236328, -66.52159881591797, 147.9130401611328, 231.69615173339844, -0.08000000566244125, 0.0, 1.055999994277954, 0.0, 0.0, 0.0, 0.0, 0.0, 1.621265011931877E9, 2021-05-17 17:23:31.931
51.0, 30.224000930786133, -72.62511444091797, 145.65040588378906, 228.18438720703125, -0.08000000566244125, 0.0, 1.055999994277954, 0.0, 0.0, 0.0, 0.0, 0.0, 1.621265011931877E9, 2021-05-17 17:23:31.931
52.0, 22.00370216369629, -74.22953796386719, 137.16456604003906, 224.47067260742188, -0.08000000566244125, 0.0, 1.055999994277954, 0.0, 0.0, 0.0, 0.0, 0.0, 1.6212650119455557E9, 2021-05-17 17:23:31.945
52.0, 33.04388427734375, -62.280555725097656, 139.32623291015625, 225.73475646972656, -0.08000000566244125, 0.0, 1.055999994277954, 0.0, 0.0, 0.0, 0.0, 0.0, 1.6212650119455557E9, 2021-05-17 17:23:31.945
53.0, 41.40630340576172, -54.774574279785156, 145.0707244873047, 241.44981384277344, -0.08000000566244125, 0.0, 1.055999994277954, 0.0, 0.0, 0.0, 0.0, 0.0, 1.6212650119610016E9, 2021-05-17 17:23:31.961
53.0, 32.24728775024414, -57.27656936645508, 143.52239990234375, 229.19789123535156, -0.08000000566244125, 0.0, 1.055999994277954, 0.0, 0.0, 0.0, 0.0, 0.0, 1.6212650119610016E9, 2021-05-17 17:23:31.961
54.0, 16.80150032043457, -71.08428192138672, 133.5331268310547, 224.73619079589844, -0.08000000566244125, 0.0, 1.055999994277954, 0.0, 0.0, 0.0, 0.0, 0.0, 1.6212650119617293E9, 2021-05-17 17:23:31.961
54.0, 23.95966911315918, -71.45826721191406, 130.59730529785156, 223.09812927246094, -0.08000000566244125, 0.0, 1.055999994277954, 0.0, 0.0, 0.0, 0.0, 0.0, 1.6212650119617293E9, 2021-05-17 17:23:31.961
55.0, 29.719114303588867, -62.34039306640625, 134.3147735595703, 229.41481018066406, -0.08000000566244125, 0.0, 1.055999994277954, 0.0, 0.0, 0.0, 0.0, 0.0, 1.621265011975327E9, 2021-05-17 17:23:31.975
55.0, 25.418230056762695, -71.69013977050781, 131.47618103027344, 221.73306274414062, -0.08000000566244125, 0.0, 1.055999994277954, 0.0, 0.0, 0.0, 0.0, 0.0, 1.621265011975327E9, 2021-05-17 17:23:31.975
56.0, 21.884023666381836, -81.5410385131836, 130.73194885253906, 211.1566162109375, -0.08000000566244125, 0.0, 1.055999994277954, 0.0, 0.0, 0.0, 0.0, 0.0, 1.6212650119911983E9, 2021-05-17 17:23:31.991
56.0, 26.888010025024414, -75.03361511230469, 128.48800659179688, 218.61398315429688, -0.08000000566244125, 0.0, 1.055999994277954, 0.0, 0.0, 0.0, 0.0, 0.0, 1.6212650119911983E9, 2021-05-17 17:23:31.991
57.0, 32.984046936035156, -69.50230407714844, 133.65280151367188, 226.5126495361328, -0.08000000566244125, 0.0, 1.055999994277954, 0.0, 0.0, 0.0, 0.0, 0.0, 1.6212650119917915E9, 2021-05-17 17:23:31.991
57.0, 29.191789627075195, -82.24787902832031, 131.61456298828125, 216.28402709960938, -0.08000000566244125, 0.0, 1.055999994277954, 0.0, 0.0, 0.0, 0.0, 0.0, 1.6212650119917915E9, 2021-05-17 17:23:31.991
58.0, 25.48554801940918, -86.58990478515625, 129.28460693359375, 213.00787353515625, -0.08000000566244125, 0.0, 1.055999994277954, 0.0, 0.0, 0.0, 0.0, 0.0, 1.621265012005483E9, 2021-05-17 17:23:32.005
58.0, 22.42630958557129, -83.68025970458984, 127.5343246459961, 215.65945434570312, -0.08000000566244125, 0.0, 1.055999994277954, 0.0, 0.0, 0.0, 0.0, 0.0, 1.621265012005483E9, 2021-05-17 17:23:32.005
59.0, 33.664710998535156, -71.27127075195312, 134.3858184814453, 218.97300720214844, -0.08000000566244125, 0.0, 1.055999994277954, 0.0, 0.0, 0.0, 0.0, 0.0, 1.6212650120209856E9, 2021-05-17 17:23:32.020
59.0, 26.992727279663086, -75.4599609375, 133.09181213378906, 214.87782287597656, -0.08000000566244125, 0.0, 1.055999994277954, 0.0, 0.0, 0.0, 0.0, 0.0, 1.6212650120209856E9, 2021-05-17 17:23:32.020
60.0, 21.356698989868164, -85.6137924194336, 127.60538482666016, 206.713623046875, -0.08000000566244125, 0.0, 1.055999994277954, 0.0, 0.0, 0.0, 0.0, 0.0, 1.6212650120216992E9, 2021-05-17 17:23:32.021
60.0, 18.26380157470703, -79.53271484375, 122.21993255615234, 214.2644805908203, -0.08000000566244125, 0.0, 1.055999994277954, 0.0, 0.0, 0.0, 0.0, 0.0, 1.6212650120216992E9, 2021-05-17 17:23:32.021
61.0, 37.797298431396484, -67.15738677978516, 129.78201293945312, 225.6487274169922, -0.08000000566244125, 0.0, 1.055999994277954, 0.0, 0.0, 0.0, 0.0, 0.0, 1.6212650120353787E9, 2021-05-17 17:23:32.035
61.0, 31.798500061035156, -79.3756332397461, 137.92376708984375, 218.26617431640625, -0.08000000566244125, 0.0, 1.055999994277954, 0.0, 0.0, 0.0, 0.0, 0.0, 1.6212650120353787E9, 2021-05-17 17:23:32.035
62.0, 24.73008918762207, -81.46997833251953, 137.433837890625, 216.14938354492188, -0.08000000566244125, 0.0, 1.055999994277954, 0.0, 0.0, 0.0, 0.0, 0.0, 1.621265012068132E9, 2021-05-17 17:23:32.068
62.0, 28.458768844604492, -81.65323638916016, 135.41055297851562, 219.75091552734375, -0.08000000566244125, 0.0, 1.055999994277954, 0.0, 0.0, 0.0, 0.0, 0.0, 1.621265012068132E9, 2021-05-17 17:23:32.068
63.0, 39.528873443603516, -65.22759246826172, 148.98265075683594, 234.9872589111328, -0.08000000566244125, 0.0, 1.055999994277954, 0.0, 0.0, 0.0, 0.0, 0.0, 1.6212650120687745E9, 2021-05-17 17:23:32.068
63.0, 38.35080337524414, -69.81645202636719, 153.95672607421875, 225.95166015625, -0.08000000566244125, 0.0, 1.055999994277954, 0.0, 0.0, 0.0, 0.0, 0.0, 1.6212650120687745E9, 2021-05-17 17:23:32.068
64.0, 17.83371353149414, -73.82562255859375, 132.175537109375, 214.79554748535156, -0.08000000566244125, 0.0, 1.055999994277954, 0.0, 0.0, 0.0, 0.0, 0.0, 1.621265012069594E9, 2021-05-17 17:23:32.069
64.0, 35.99840545654297, -59.161476135253906, 146.5554656982422, 228.00486755371094, -0.08000000566244125, 0.0, 1.055999994277954, 0.0, 0.0, 0.0, 0.0, 0.0, 1.621265012069594E9, 2021-05-17 17:23:32.069
65.0, 38.60511779785156, -65.2649917602539, 145.30259704589844, 231.5241241455078, -0.08000000566244125, 0.0, 1.055999994277954, 0.0, 0.0, 0.0, 0.0, 0.0, 1.6212650120702472E9, 2021-05-17 17:23:32.070
65.0, 24.752527236938477, -71.83973693847656, 137.37400817871094, 219.32456970214844, -0.08000000566244125, 0.0, 1.055999994277954, 0.0, 0.0, 0.0, 0.0, 0.0, 1.6212650120702472E9, 2021-05-17 17:23:32.070
66.0, 6.086687088012695, -77.84601593017578, 126.6928482055664, 210.50587463378906, -0.08000000566244125, 0.0, 1.055999994277954, 0.0, 0.0, 0.0, 0.0, 0.0, 1.621265012080286E9, 2021-05-17 17:23:32.080
66.0, 15.103586196899414, -79.16619873046875, 117.92278289794922, 207.86550903320312, -0.08000000566244125, 0.0, 1.055999994277954, 0.0, 0.0, 0.0, 0.0, 0.0, 1.621265012080286E9, 2021-05-17 17:23:32.080
67.0, 35.68051528930664, -70.6429672241211, 139.45338439941406, 227.7917022705078, -0.08000000566244125, 0.0, 1.055999994277954, 0.0, 0.0, 0.0, 0.0, 0.0, 1.6212650120954163E9, 2021-05-17 17:23:32.095
67.0, 24.17658233642578, -80.64346313476562, 132.37002563476562, 214.36544799804688, -0.08000000566244125, 0.0, 1.055999994277954, 0.0, 0.0, 0.0, 0.0, 0.0, 1.6212650120954163E9, 2021-05-17 17:23:32.095
68.0, 12.72500991821289, -88.68424987792969, 128.3346710205078, 211.4595489501953, -0.08000000566244125, 0.0, 1.055999994277954, 0.0, 0.0, 0.0, 0.0, 0.0, 1.6212650121111257E9, 2021-05-17 17:23:32.111
68.0, 22.594606399536133, -85.20240020751953, 125.58209991455078, 213.09388732910156, -0.08000000566244125, 0.0, 1.055999994277954, 0.0, 0.0, 0.0, 0.0, 0.0, 1.6212650121111257E9, 2021-05-17 17:23:32.111
69.0, 30.081884384155273, -84.6750717163086, 122.78091430664062, 219.9827880859375, -0.08000000566244125, 0.0, 1.055999994277954, 0.0, 0.0, 0.0, 0.0, 0.0, 1.6212650121118715E9, 2021-05-17 17:23:32.111
69.0, 31.03182029724121, -93.0262680053711, 130.51502990722656, 210.3899383544922, -0.08000000566244125, 0.0, 1.055999994277954, 0.0, 0.0, 0.0, 0.0, 0.0, 1.6212650121118715E9, 2021-05-17 17:23:32.111
70.0, 27.434036254882812, -103.68498992919922, 129.72964477539062, 205.83474731445312, -0.08000000566244125, 0.0, 1.055999994277954, 0.0, 0.0, 0.0, 0.0, 0.0, 1.6212650121253037E9, 2021-05-17 17:23:32.125
70.0, 28.518606185913086, -101.85243225097656, 127.3099365234375, 207.91412353515625, -0.08000000566244125, 0.0, 1.055999994277954, 0.0, 0.0, 0.0, 0.0, 0.0, 1.6212650121253037E9, 2021-05-17 17:23:32.125
71.0, 47.33404541015625, -84.72369384765625, 140.23129272460938, 217.88096618652344, -0.08000000566244125, 0.0, 1.055999994277954, 0.0, 0.0, 0.0, 0.0, 0.0, 1.621265012141075E9, 2021-05-17 17:23:32.141
71.0, 34.94749450683594, -80.34426879882812, 143.57101440429688, 216.36630249023438, -0.08000000566244125, 0.0, 1.055999994277954, 0.0, 0.0, 0.0, 0.0, 0.0, 1.621265012141075E9, 2021-05-17 17:23:32.141
72.0, 29.01227378845215, -77.76374053955078, 140.28738403320312, 208.75933837890625, -0.08000000566244125, 0.0, 1.055999994277954, 0.0, 0.0, 0.0, 0.0, 0.0, 1.6212650121418376E9, 2021-05-17 17:23:32.141
72.0, 41.716712951660156, -66.8507080078125, 149.80543518066406, 221.6881866455078, -0.08000000566244125, 0.0, 1.055999994277954, 0.0, 0.0, 0.0, 0.0, 0.0, 1.6212650121418376E9, 2021-05-17 17:23:32.141
73.0, 51.39557647705078, -59.74864196777344, 151.5968475341797, 234.9797821044922, -0.08000000566244125, 0.0, 1.055999994277954, 0.0, 0.0, 0.0, 0.0, 0.0, 1.6212650121553156E9, 2021-05-17 17:23:32.155
73.0, 44.79091262817383, -63.260406494140625, 156.425048828125, 234.25050354003906, -0.08000000566244125, 0.0, 1.055999994277954, 0.0, 0.0, 0.0, 0.0, 0.0, 1.6212650121553156E9, 2021-05-17 17:23:32.155
74.0, 37.92071533203125, -71.42835235595703, 154.78323364257812, 231.0491485595703, -0.08000000566244125, 0.0, 1.055999994277954, 0.0, 0.0, 0.0, 0.0, 0.0, 1.621265012171684E9, 2021-05-17 17:23:32.171
74.0, 40.0075798034668, -70.119384765625, 153.13394165039062, 233.05374145507812, -0.08000000566244125, 0.0, 1.055999994277954, 0.0, 0.0, 0.0, 0.0, 0.0, 1.621265012171684E9, 2021-05-17 17:23:32.171
75.0, 44.1626091003418, -65.3061294555664, 154.1100616455078, 242.22023010253906, -0.08000000566244125, 0.0, 1.055999994277954, 0.0, 0.0, 0.0, 0.0, 0.0, 1.6212650121724174E9, 2021-05-17 17:23:32.172
75.0, 30.54563331604004, -71.94819641113281, 143.9300537109375, 226.045166015625, -0.08000000566244125, 0.0, 1.055999994277954, 0.0, 0.0, 0.0, 0.0, 0.0, 1.6212650121724174E9, 2021-05-17 17:23:32.172
76.0, 6.50929594039917, -83.08561706542969, 122.64627838134766, 206.88938903808594, -0.08000000566244125, 0.0, 1.055999994277954, 0.0, 0.0, 0.0, 0.0, 0.0, 1.6212650121852844E9, 2021-05-17 17:23:32.185
76.0, 11.236529350280762, -80.93517303466797, 115.80226135253906, 206.8931427001953, -0.08000000566244125, 0.0, 1.055999994277954, 0.0, 0.0, 0.0, 0.0, 0.0, 1.6212650121852844E9, 2021-05-17 17:23:32.185
77.0, 23.75397491455078, -61.3979377746582, 124.8640365600586, 220.68588256835938, -0.08000000566244125, 0.0, 1.055999994277954, 0.0, 0.0, 0.0, 0.0, 0.0, 1.6212650122012863E9, 2021-05-17 17:23:32.201
77.0, 15.672050476074219, -73.54887390136719, 118.22945404052734, 211.0706024169922, -0.08000000566244125, 0.0, 1.055999994277954, 0.0, 0.0, 0.0, 0.0, 0.0, 1.6212650122012863E9, 2021-05-17 17:23:32.201
78.0, 5.144232273101807, -88.3065185546875, 113.58824157714844, 199.36097717285156, -0.08000000566244125, 0.0, 1.055999994277954, 0.0, 0.0, 0.0, 0.0, 0.0, 1.6212650122018805E9, 2021-05-17 17:23:32.201
78.0, 18.948204040527344, -88.68051147460938, 121.31487274169922, 211.5904541015625, -0.08000000566244125, 0.0, 1.055999994277954, 0.0, 0.0, 0.0, 0.0, 0.0, 1.6212650122018805E9, 2021-05-17 17:23:32.201
79.0, 38.492919921875, -83.77749633789062, 134.40078735351562, 226.6360626220703, -0.08000000566244125, 0.0, 1.055999994277954, 0.0, 0.0, 0.0, 0.0, 0.0, 1.6212650122153153E9, 2021-05-17 17:23:32.215
79.0, 29.909849166870117, -89.24149322509766, 140.68008422851562, 221.31419372558594, -0.08000000566244125, 0.0, 1.055999994277954, 0.0, 0.0, 0.0, 0.0, 0.0, 1.6212650122153153E9, 2021-05-17 17:23:32.215
80.0, 22.811519622802734, -98.33692932128906, 136.83172607421875, 213.35194396972656, -0.08000000566244125, 0.0, 1.055999994277954, 0.0, 0.0, 0.0, 0.0, 0.0, 1.6212650122310627E9, 2021-05-17 17:23:32.231
80.0, 32.4193229675293, -94.90370178222656, 136.40536499023438, 216.0745849609375, -0.08000000566244125, 0.0, 1.055999994277954, 0.0, 0.0, 0.0, 0.0, 0.0, 1.6212650122310627E9, 2021-05-17 17:23:32.231
81.0, 39.48773193359375, -84.74987030029297, 136.53627014160156, 222.80641174316406, -0.08000000566244125, 0.0, 1.055999994277954, 0.0, 0.0, 0.0, 0.0, 0.0, 1.6212650122318037E9, 2021-05-17 17:23:32.231
81.0, 37.60282516479492, -73.36187744140625, 149.63339233398438, 217.5181884765625, -0.08000000566244125, 0.0, 1.055999994277954, 0.0, 0.0, 0.0, 0.0, 0.0, 1.6212650122318037E9, 2021-05-17 17:23:32.231
82.0, 19.38203239440918, -81.36900329589844, 138.36134338378906, 207.57379150390625, -0.08000000566244125, 0.0, 1.055999994277954, 0.0, 0.0, 0.0, 0.0, 0.0, 1.6212650122453556E9, 2021-05-17 17:23:32.245
82.0, 37.18769454956055, -75.42256164550781, 144.14695739746094, 217.49575805664062, -0.08000000566244125, 0.0, 1.055999994277954, 0.0, 0.0, 0.0, 0.0, 0.0, 1.6212650122453556E9, 2021-05-17 17:23:32.245
83.0, 58.07877731323242, -60.17873001098633, 155.98374938964844, 238.25967407226562, -0.08000000566244125, 0.0, 1.055999994277954, 0.0, 0.0, 0.0, 0.0, 0.0, 1.6212650122610135E9, 2021-05-17 17:23:32.261
83.0, 41.279144287109375, -64.89848327636719, 159.41323852539062, 234.46742248535156, -0.08000000566244125, 0.0, 1.055999994277954, 0.0, 0.0, 0.0, 0.0, 0.0, 1.6212650122610135E9, 2021-05-17 17:23:32.261
84.0, 30.003347396850586, -70.33629608154297, 150.0335693359375, 231.75973510742188, -0.08000000566244125, 0.0, 1.055999994277954, 0.0, 0.0, 0.0, 0.0, 0.0, 1.6212650122617526E9, 2021-05-17 17:23:32.261
84.0, 37.25127410888672, -68.39903259277344, 149.32298278808594, 234.3926239013672, -0.08000000566244125, 0.0, 1.055999994277954, 0.0, 0.0, 0.0, 0.0, 0.0, 1.6212650122617526E9, 2021-05-17 17:23:32.261
85.0, 54.548309326171875, -56.23687744140625, 158.49696350097656, 252.39649963378906, -0.08000000566244125, 0.0, 1.055999994277954, 0.0, 0.0, 0.0, 0.0, 0.0, 1.6212650122755115E9, 2021-05-17 17:23:32.275
85.0, 34.82033920288086, -65.6651611328125, 152.6103515625, 237.42193603515625, -0.08000000566244125, 0.0, 1.055999994277954, 0.0, 0.0, 0.0, 0.0, 0.0, 1.6212650122755115E9, 2021-05-17 17:23:32.275
86.0, 15.365379333496094, -85.90176391601562, 129.2958221435547, 218.26617431640625, -0.08000000566244125, 0.0, 1.055999994277954, 0.0, 0.0, 0.0, 0.0, 0.0, 1.6212650122910028E9, 2021-05-17 17:23:32.291
86.0, 20.986448287963867, -82.47975158691406, 120.144287109375, 215.78662109375, -0.08000000566244125, 0.0, 1.055999994277954, 0.0, 0.0, 0.0, 0.0, 0.0, 1.6212650122910028E9, 2021-05-17 17:23:32.291
87.0, 33.9265022277832, -74.43897247314453, 130.06997680664062, 228.7117156982422, -0.08000000566244125, 0.0, 1.055999994277954, 0.0, 0.0, 0.0, 0.0, 0.0, 1.6212650122917268E9, 2021-05-17 17:23:32.291
87.0, 19.48674964904785, -79.28588104248047, 125.47364044189453, 220.281982421875, -0.08000000566244125, 0.0, 1.055999994277954, 0.0, 0.0, 0.0, 0.0, 0.0, 1.6212650122917268E9, 2021-05-17 17:23:32.291
88.0, 7.107679843902588, -100.43501281738281, 114.65037536621094, 203.61325073242188, -0.08000000566244125, 0.0, 1.055999994277954, 0.0, 0.0, 0.0, 0.0, 0.0, 1.6212650123054037E9, 2021-05-17 17:23:32.305
88.0, 15.391558647155762, -97.41691589355469, 112.18577575683594, 211.99061584472656, -0.08000000566244125, 0.0, 1.055999994277954, 0.0, 0.0, 0.0, 0.0, 0.0, 1.6212650123054037E9, 2021-05-17 17:23:32.305
89.0, 26.450443267822266, -86.94145202636719, 120.86982727050781, 221.291748046875, -0.08000000566244125, 0.0, 1.055999994277954, 0.0, 0.0, 0.0, 0.0, 0.0, 1.6212650123374588E9, 2021-05-17 17:23:32.337
89.0, 19.984155654907227, -93.86775207519531, 125.73169708251953, 211.68020629882812, -0.08000000566244125, 0.0, 1.055999994277954, 0.0, 0.0, 0.0, 0.0, 0.0, 1.6212650123374588E9, 2021-05-17 17:23:32.337
90.0, 10.697983741760254, -100.27793884277344, 117.66473388671875, 200.86441040039062, -0.08000000566244125, 0.0, 1.055999994277954, 0.0, 0.0, 0.0, 0.0, 0.0, 1.6212650123381748E9, 2021-05-17 17:23:32.338
90.0, 23.667957305908203, -94.4736099243164, 122.30594635009766, 205.29620361328125, -0.08000000566244125, 0.0, 1.055999994277954, 0.0, 0.0, 0.0, 0.0, 0.0, 1.6212650123381748E9, 2021-05-17 17:23:32.338
91.0, 31.772319793701172, -84.05425262451172, 132.27651977539062, 211.7550048828125, -0.08000000566244125, 0.0, 1.055999994277954, 0.0, 0.0, 0.0, 0.0, 0.0, 1.6212650123388908E9, 2021-05-17 17:23:32.338
91.0, 25.298553466796875, -89.21531677246094, 131.95863342285156, 213.2360076904297, -0.08000000566244125, 0.0, 1.055999994277954, 0.0, 0.0, 0.0, 0.0, 0.0, 1.6212650123388908E9, 2021-05-17 17:23:32.338
92.0, 18.80234718322754, -88.90116119384766, 134.26614379882812, 198.85235595703125, -0.08000000566244125, 0.0, 1.055999994277954, 0.0, 0.0, 0.0, 0.0, 0.0, 1.6212650123396208E9, 2021-05-17 17:23:32.339
92.0, 33.6048698425293, -78.29106903076172, 135.35072326660156, 211.62037658691406, -0.08000000566244125, 0.0, 1.055999994277954, 0.0, 0.0, 0.0, 0.0, 0.0, 1.6212650123396208E9, 2021-05-17 17:23:32.339
93.0, 38.848209381103516, -61.360538482666016, 140.6202392578125, 224.9044952392578, -0.08000000566244125, 0.0, 1.055999994277954, 0.0, 0.0, 0.0, 0.0, 0.0, 1.6212650123504193E9, 2021-05-17 17:23:32.350
93.0, 37.21013641357422, -54.89425277709961, 145.35494995117188, 228.83139038085938, -0.08000000566244125, 0.0, 1.055999994277954, 0.0, 0.0, 0.0, 0.0, 0.0, 1.6212650123504193E9, 2021-05-17 17:23:32.350
94.0, 30.50075340270996, -60.33580780029297, 143.6757354736328, 217.29379272460938, -0.08000000566244125, 0.0, 1.055999994277954, 0.0, 0.0, 0.0, 0.0, 0.0, 1.6212650123654368E9, 2021-05-17 17:23:32.365
94.0, 47.117130279541016, -53.41324996948242, 147.81581115722656, 235.6604461669922, -0.08000000566244125, 0.0, 1.055999994277954, 0.0, 0.0, 0.0, 0.0, 0.0, 1.6212650123654368E9, 2021-05-17 17:23:32.365
95.0, 54.323917388916016, -48.573822021484375, 159.88072204589844, 249.4008331298828, -0.08000000566244125, 0.0, 1.055999994277954, 0.0, 0.0, 0.0, 0.0, 0.0, 1.62126501238109E9, 2021-05-17 17:23:32.381
95.0, 45.576290130615234, -50.96735763549805, 166.72848510742188, 246.06484985351562, -0.08000000566244125, 0.0, 1.055999994277954, 0.0, 0.0, 0.0, 0.0, 0.0, 1.62126501238109E9, 2021-05-17 17:23:32.381
96.0, 20.975229263305664, -69.74913787841797, 143.76174926757812, 229.8561248779297, -0.08000000566244125, 0.0, 1.055999994277954, 0.0, 0.0, 0.0, 0.0, 0.0, 1.6212650123818188E9, 2021-05-17 17:23:32.381
96.0, 19.785940170288086, -69.861328125, 138.18182373046875, 228.16567993164062, -0.08000000566244125, 0.0, 1.055999994277954, 0.0, 0.0, 0.0, 0.0, 0.0, 1.6212650123818188E9, 2021-05-17 17:23:32.381
97.0, 26.394344329833984, -66.99282836914062, 137.49742126464844, 234.4337615966797, -0.08000000566244125, 0.0, 1.055999994277954, 0.0, 0.0, 0.0, 0.0, 0.0, 1.621265012395323E9, 2021-05-17 17:23:32.395
97.0, 18.27128028869629, -75.45622253417969, 133.372314453125, 223.6778106689453, -0.08000000566244125, 0.0, 1.055999994277954, 0.0, 0.0, 0.0, 0.0, 0.0, 1.621265012395323E9, 2021-05-17 17:23:32.395
98.0, 7.709803581237793, -88.50473022460938, 121.40837097167969, 210.3151397705078, -0.08000000566244125, 0.0, 1.055999994277954, 0.0, 0.0, 0.0, 0.0, 0.0, 1.621265012410784E9, 2021-05-17 17:23:32.410
98.0, 12.773628234863281, -78.81838989257812, 118.12100219726562, 208.41152954101562, -0.08000000566244125, 0.0, 1.055999994277954, 0.0, 0.0, 0.0, 0.0, 0.0, 1.621265012410784E9, 2021-05-17 17:23:32.410
99.0, 22.085979461669922, -71.77242279052734, 122.62010192871094, 217.08810424804688, -0.08000000566244125, 0.0, 1.055999994277954, 0.0, 0.0, 0.0, 0.0, 0.0, 1.6212650124273703E9, 2021-05-17 17:23:32.427
99.0, 16.023601531982422, -80.2732162475586, 123.49149322509766, 206.42938232421875, -0.08000000566244125, 0.0, 1.055999994277954, 0.0, 0.0, 0.0, 0.0, 0.0, 1.6212650124273703E9, 2021-05-17 17:23:32.427
100.0, -0.08788765221834183, -87.68943786621094, 112.54480743408203, 189.6260223388672, -0.08000000566244125, 0.0, 1.055999994277954, 0.0, 0.0, 0.0, 0.0, 0.0, 1.6212650124280922E9, 2021-05-17 17:23:32.428
100.0, 10.279114723205566, -81.03240966796875, 111.8978042602539, 201.0177459716797, -0.08000000566244125, 0.0, 1.055999994277954, 0.0, 0.0, 0.0, 0.0, 0.0, 1.6212650124280922E9, 2021-05-17 17:23:32.428
0.0, 25.756690979003906, -74.90645599365234, 125.4156723022461, 209.27919006347656, -0.08000000566244125, 0.0, 1.055999994277954, 0.0, 0.0, 0.0, 0.0, 0.0, 1.6212650124289327E9, 2021-05-17 17:23:32.428
1.0, 26.194259643554688, -74.697021484375, 128.1869354248047, 209.15203857421875, -0.08000000566244125, 0.0, 1.055999994277954, 0.0, 0.0, 0.0, 0.0, 0.0, 1.6212650124404278E9, 2021-05-17 17:23:32.440
1.0, 14.619269371032715, -81.84770965576172, 121.5598373413086, 200.24732971191406, -0.08000000566244125, 0.0, 1.055999994277954, 0.0, 0.0, 0.0, 0.0, 0.0, 1.6212650124404278E9, 2021-05-17 17:23:32.440
2.0, 25.15456771850586, -77.0456771850586, 122.97725677490234, 205.7898712158203, -0.09600000083446503, 0.0, 1.055999994277954, 0.0, 0.0, 0.0, 0.0, 0.0, 1.6212650124559672E9, 2021-05-17 17:23:32.455
2.0, 40.263763427734375, -58.85480499267578, 133.85662841796875, 220.76815795898438, -0.09600000083446503, 0.0, 1.055999994277954, 0.0, 0.0, 0.0, 0.0, 0.0, 1.6212650124559672E9, 2021-05-17 17:23:32.455
3.0, 32.668025970458984, -58.03202819824219, 141.2167510986328, 216.5084228515625, -0.09600000083446503, 0.0, 1.055999994277954, 0.0, 0.0, 0.0, 0.0, 0.0, 1.6212650124566917E9, 2021-05-17 17:23:32.456
3.0, 29.02536392211914, -56.726802825927734, 135.97341918945312, 219.26846313476562, -0.09600000083446503, 0.0, 1.055999994277954, 0.0, 0.0, 0.0, 0.0, 0.0, 1.6212650124566917E9, 2021-05-17 17:23:32.456
4.0, 38.21055603027344, -47.77348327636719, 146.91261291503906, 228.1956024169922, -0.09600000083446503, 0.0, 1.055999994277954, 0.0, 0.0, 0.0, 0.0, 0.0, 1.6212650124704545E9, 2021-05-17 17:23:32.470
4.0, 46.041908264160156, -39.47090530395508, 156.62887573242188, 236.87965393066406, -0.09600000083446503, 0.0, 1.055999994277954, 0.0, 0.0, 0.0, 0.0, 0.0, 1.6212650124704545E9, 2021-05-17 17:23:32.470
5.0, 42.5077018737793, -47.7473030090332, 158.1697235107422, 236.28500366210938, -0.09600000083446503, 0.0, 1.055999994277954, 0.0, 0.0, 0.0, 0.0, 0.0, 1.6212650124861777E9, 2021-05-17 17:23:32.486
5.0, 25.51359748840332, -57.23542785644531, 147.60076904296875, 225.5327911376953, -0.09600000083446503, 0.0, 1.055999994277954, 0.0, 0.0, 0.0, 0.0, 0.0, 1.6212650124861777E9, 2021-05-17 17:23:32.486
6.0, 26.669225692749023, -65.77362060546875, 133.31434631347656, 231.03793334960938, -0.09600000083446503, 0.0, 1.055999994277954, 0.0, 0.0, 0.0, 0.0, 0.0, 1.6212650124868953E9, 2021-05-17 17:23:32.486
6.0, 29.578868865966797, -63.7166748046875, 142.0544891357422, 236.8534698486328, -0.09600000083446503, 0.0, 1.055999994277954, 0.0, 0.0, 0.0, 0.0, 0.0, 1.6212650124868953E9, 2021-05-17 17:23:32.486
7.0, 10.767171859741211, -78.72489166259766, 130.54307556152344, 214.9002685546875, -0.09600000083446503, 0.0, 1.055999994277954, 0.0, 0.0, 0.0, 0.0, 0.0, 1.62126501250039E9, 2021-05-17 17:23:32.500
7.0, 2.008326292037964, -80.8192367553711, 122.85010528564453, 206.94923400878906, -0.09600000083446503, 0.0, 1.055999994277954, 0.0, 0.0, 0.0, 0.0, 0.0, 1.62126501250039E9, 2021-05-17 17:23:32.500
8.0, 12.917613983154297, -80.13109588623047, 120.4378662109375, 206.50418090820312, -0.09600000083446503, 0.0, 1.055999994277954, 0.0, 0.0, 0.0, 0.0, 0.0, 1.6212650125162513E9, 2021-05-17 17:23:32.516
8.0, 26.55328941345215, -71.67892456054688, 124.69761657714844, 221.74053955078125, -0.09600000083446503, 0.0, 1.055999994277954, 0.0, 0.0, 0.0, 0.0, 0.0, 1.6212650125162513E9, 2021-05-17 17:23:32.516
9.0, 15.191473960876465, -71.81729888916016, 119.1924819946289, 212.652587890625, -0.09600000083446503, 0.0, 1.055999994277954, 0.0, 0.0, 0.0, 0.0, 0.0, 1.6212650125169065E9, 2021-05-17 17:23:32.516
9.0, 9.690080642700195, -80.56118774414062, 117.16919708251953, 206.9155731201172, -0.09600000083446503, 0.0, 1.055999994277954, 0.0, 0.0, 0.0, 0.0, 0.0, 1.6212650125169065E9, 2021-05-17 17:23:32.516
10.0, 6.772958755493164, -81.50737762451172, 111.51820373535156, 200.1875, -0.09600000083446503, 0.0, 1.040000081062317, 0.0, 0.0, 0.0, 0.0, 0.0, 1.621265012530338E9, 2021-05-17 17:23:32.530
10.0, 22.847049713134766, -68.58602905273438, 118.18644714355469, 211.8933868408203, -0.09600000083446503, 0.0, 1.040000081062317, 0.0, 0.0, 0.0, 0.0, 0.0, 1.621265012530338E9, 2021-05-17 17:23:32.530
11.0, 20.371234893798828, -66.95916748046875, 120.19103240966797, 208.93511962890625, -0.09600000083446503, 0.0, 1.040000081062317, 0.0, 0.0, 0.0, 0.0, 0.0, 1.6212650125460477E9, 2021-05-17 17:23:32.546
11.0, 9.925694465637207, -81.0174560546875, 118.1677474975586, 199.78732299804688, -0.09600000083446503, 0.0, 1.040000081062317, 0.0, 0.0, 0.0, 0.0, 0.0, 1.6212650125460477E9, 2021-05-17 17:23:32.546
12.0, 15.43830680847168, -71.85095977783203, 120.2546157836914, 205.78237915039062, -0.09600000083446503, 0.0, 1.040000081062317, 0.0, 0.0, 0.0, 0.0, 0.0, 1.6212650125468087E9, 2021-05-17 17:23:32.546
12.0, 30.745718002319336, -69.49108123779297, 138.3295440673828, 217.21151733398438, -0.09600000083446503, 0.0, 1.040000081062317, 0.0, 0.0, 0.0, 0.0, 0.0, 1.6212650125468087E9, 2021-05-17 17:23:32.546
13.0, 29.62000846862793, -68.35789489746094, 140.00128173828125, 211.2463836669922, -0.09600000083446503, 0.0, 1.040000081062317, 0.0, 0.0, 0.0, 0.0, 0.0, 1.6212650125602872E9, 2021-05-17 17:23:32.560
13.0, 14.54447078704834, -82.91732025146484, 133.8828125, 203.76658630371094, -0.09600000083446503, 0.0, 1.040000081062317, 0.0, 0.0, 0.0, 0.0, 0.0, 1.6212650125602872E9, 2021-05-17 17:23:32.560
14.0, 33.7151985168457, -67.1686019897461, 138.08645629882812, 221.15711975097656, -0.09600000083446503, 0.0, 1.040000081062317, 0.0, 0.0, 0.0, 0.0, 0.0, 1.6212650125761075E9, 2021-05-17 17:23:32.576
14.0, 40.39091873168945, -55.69084930419922, 150.8357696533203, 228.6256866455078, -0.09600000083446503, 0.0, 1.040000081062317, 0.0, 0.0, 0.0, 0.0, 0.0, 1.6212650125761075E9, 2021-05-17 17:23:32.576
15.0, 35.47669219970703, -55.98256301879883, 151.52764892578125, 226.19102478027344, -0.09600000083446503, 0.0, 1.040000081062317, 0.0, 0.0, 0.0, 0.0, 0.0, 1.621265012576775E9, 2021-05-17 17:23:32.576
15.0, 24.4552059173584, -62.42641067504883, 143.06800842285156, 215.63702392578125, -0.09600000083446503, 0.0, 1.040000081062317, 0.0, 0.0, 0.0, 0.0, 0.0, 1.621265012576775E9, 2021-05-17 17:23:32.576
16.0, 25.150827407836914, -61.977622985839844, 140.00875854492188, 216.26531982421875, -0.09600000083446503, 0.0, 1.040000081062317, 0.0, 0.0, 0.0, 0.0, 0.0, 1.6212650125905333E9, 2021-05-17 17:23:32.590
16.0, 27.910873413085938, -59.56538772583008, 143.50930786132812, 223.8797607421875, -0.09600000083446503, 0.0, 1.040000081062317, 0.0, 0.0, 0.0, 0.0, 0.0, 1.6212650125905333E9, 2021-05-17 17:23:32.590
17.0, 16.287263870239258, -64.87604522705078, 142.37986755371094, 213.1200714111328, -0.09600000083446503, 0.0, 1.040000081062317, 0.0, 0.0, 0.0, 0.0, 0.0, 1.6212650126061656E9, 2021-05-17 17:23:32.606
17.0, 10.318384170532227, -72.70365142822266, 135.2890167236328, 207.99639892578125, -0.09600000083446503, 0.0, 1.040000081062317, 0.0, 0.0, 0.0, 0.0, 0.0, 1.6212650126061656E9, 2021-05-17 17:23:32.606
18.0, 13.2691650390625, -65.21263885498047, 129.9783477783203, 213.09014892578125, -0.09600000083446503, 0.0, 1.040000081062317, 0.0, 0.0, 0.0, 0.0, 0.0, 1.621265012606844E9, 2021-05-17 17:23:32.606
18.0, 23.07518196105957, -55.814266204833984, 134.4737091064453, 230.55548095703125, -0.09600000083446503, 0.0, 1.040000081062317, 0.0, 0.0, 0.0, 0.0, 0.0, 1.621265012606844E9, 2021-05-17 17:23:32.606
19.0, 19.559677124023438, -63.62317657470703, 137.33099365234375, 223.26641845703125, -0.09600000083446503, 0.0, 1.040000081062317, 0.0, 0.0, 0.0, 0.0, 0.0, 1.6212650126204033E9, 2021-05-17 17:23:32.620
19.0, 9.144055366516113, -76.79510498046875, 122.9249038696289, 208.67706298828125, -0.09600000083446503, 0.0, 1.040000081062317, 0.0, 0.0, 0.0, 0.0, 0.0, 1.6212650126204033E9, 2021-05-17 17:23:32.620
20.0, 18.082416534423828, -66.55899810791016, 117.94335174560547, 209.589599609375, -0.09600000083446503, 0.0, 1.055999994277954, 0.0, 0.0, 0.0, 0.0, 0.0, 1.621265012636822E9, 2021-05-17 17:23:32.636
20.0, 28.056730270385742, -54.76335525512695, 124.8285140991211, 223.46836853027344, -0.09600000083446503, 0.0, 1.055999994277954, 0.0, 0.0, 0.0, 0.0, 0.0, 1.621265012636822E9, 2021-05-17 17:23:32.636
21.0, 13.987225532531738, -68.47383117675781, 124.5517578125, 212.3384246826172, -0.09600000083446503, 0.0, 1.055999994277954, 0.0, 0.0, 0.0, 0.0, 0.0, 1.6212650126374953E9, 2021-05-17 17:23:32.637
21.0, 11.16360092163086, -70.63175201416016, 126.24219512939453, 196.31295776367188, -0.09600000083446503, 0.0, 1.055999994277954, 0.0, 0.0, 0.0, 0.0, 0.0, 1.6212650126374953E9, 2021-05-17 17:23:32.637
22.0, 18.127294540405273, -70.53825378417969, 128.64320373535156, 204.7090301513672, -0.08000000566244125, 0.0, 1.055999994277954, 0.0, 0.0, 0.0, 0.0, 0.0, 1.6212650126505105E9, 2021-05-17 17:23:32.650
22.0, 37.28680419921875, -56.32289505004883, 138.87184143066406, 223.4010467529297, -0.08000000566244125, 0.0, 1.055999994277954, 0.0, 0.0, 0.0, 0.0, 0.0, 1.6212650126505105E9, 2021-05-17 17:23:32.650
23.0, 29.35073471069336, -67.56877136230469, 138.98028564453125, 219.62001037597656, -0.08000000566244125, 0.0, 1.055999994277954, 0.0, 0.0, 0.0, 0.0, 0.0, 1.6212650126660233E9, 2021-05-17 17:23:32.666
23.0, 29.339515686035156, -76.03964233398438, 135.20672607421875, 210.34506225585938, -0.08000000566244125, 0.0, 1.055999994277954, 0.0, 0.0, 0.0, 0.0, 0.0, 1.6212650126660233E9, 2021-05-17 17:23:32.666
24.0, 30.902793884277344, -68.15593719482422, 139.70208740234375, 220.2258758544922, -0.08000000566244125, 0.0, 1.055999994277954, 0.0, 0.0, 0.0, 0.0, 0.0, 1.621265012666836E9, 2021-05-17 17:23:32.666
24.0, 41.28475570678711, -66.45802307128906, 146.51992797851562, 232.42169189453125, -0.08000000566244125, 0.0, 1.055999994277954, 0.0, 0.0, 0.0, 0.0, 0.0, 1.621265012666836E9, 2021-05-17 17:23:32.666
25.0, 34.59407424926758, -72.01925659179688, 140.6108856201172, 219.7247314453125, -0.08000000566244125, 0.0, 1.055999994277954, 0.0, 0.0, 0.0, 0.0, 0.0, 1.621265012680432E9, 2021-05-17 17:23:32.680
25.0, 20.707826614379883, -77.88715362548828, 128.55718994140625, 210.76393127441406, -0.08000000566244125, 0.0, 1.055999994277954, 0.0, 0.0, 0.0, 0.0, 0.0, 1.621265012680432E9, 2021-05-17 17:23:32.680
26.0, 25.25180435180664, -70.31759643554688, 127.93637084960938, 212.38705444335938, -0.08000000566244125, 0.0, 1.055999994277954, 0.0, 0.0, 0.0, 0.0, 0.0, 1.6212650126960125E9, 2021-05-17 17:23:32.696
26.0, 27.604202270507812, -60.780853271484375, 133.01515197753906, 223.47584533691406, -0.08000000566244125, 0.0, 1.055999994277954, 0.0, 0.0, 0.0, 0.0, 0.0, 1.6212650126960125E9, 2021-05-17 17:23:32.696
27.0, 23.81194305419922, -67.53885650634766, 132.74961853027344, 212.3571319580078, -0.08000000566244125, 0.0, 1.055999994277954, 0.0, 0.0, 0.0, 0.0, 0.0, 1.6212650126967392E9, 2021-05-17 17:23:32.696
27.0, 17.173620223999023, -67.83804321289062, 134.88510131835938, 208.7855224609375, -0.08000000566244125, 0.0, 1.055999994277954, 0.0, 0.0, 0.0, 0.0, 0.0, 1.6212650126967392E9, 2021-05-17 17:23:32.696
28.0, 17.40923500061035, -67.29576110839844, 127.1584701538086, 210.6143341064453, -0.08000000566244125, 0.0, 1.055999994277954, 0.0, 0.0, 0.0, 0.0, 0.0, 1.621265012710367E9, 2021-05-17 17:23:32.710
28.0, 27.8884334564209, -55.60483169555664, 132.83937072753906, 227.70567321777344, -0.08000000566244125, 0.0, 1.055999994277954, 0.0, 0.0, 0.0, 0.0, 0.0, 1.621265012710367E9, 2021-05-17 17:23:32.710
29.0, 23.441692352294922, -62.893898010253906, 135.8350372314453, 221.05239868164062, -0.08000000566244125, 0.0, 1.055999994277954, 0.0, 0.0, 0.0, 0.0, 0.0, 1.6212650127260103E9, 2021-05-17 17:23:32.726
29.0, 14.716506004333496, -72.5129165649414, 125.995361328125, 210.7452392578125, -0.08000000566244125, 0.0, 1.055999994277954, 0.0, 0.0, 0.0, 0.0, 0.0, 1.6212650127260103E9, 2021-05-17 17:23:32.726
30.0, 17.47281265258789, -70.23905944824219, 126.29829406738281, 216.09703063964844, -0.08000000566244125, 0.0, 1.055999994277954, 0.0, 0.0, 0.0, 0.0, 0.0, 1.6212650127267308E9, 2021-05-17 17:23:32.726
30.0, 24.174713134765625, -68.34293365478516, 132.8580780029297, 224.1639862060547, -0.08000000566244125, 0.0, 1.055999994277954, 0.0, 0.0, 0.0, 0.0, 0.0, 1.6212650127267308E9, 2021-05-17 17:23:32.726
31.0, 22.499238967895508, -66.96290588378906, 136.0743865966797, 222.41372680664062, -0.08000000566244125, 0.0, 1.055999994277954, 0.0, 0.0, 0.0, 0.0, 0.0, 1.621265012740383E9, 2021-05-17 17:23:32.740
31.0, 8.665348052978516, -76.34257507324219, 121.8590316772461, 206.06661987304688, -0.08000000566244125, 0.0, 1.055999994277954, 0.0, 0.0, 0.0, 0.0, 0.0, 1.621265012740383E9, 2021-05-17 17:23:32.740
32.0, 19.436260223388672, -70.04458618164062, 126.47032928466797, 215.28921508789062, -0.08000000566244125, 0.0, 1.055999994277954, 0.0, 0.0, 0.0, 0.0, 0.0, 1.6212650127560644E9, 2021-05-17 17:23:32.756
32.0, 30.203432083129883, -61.06134796142578, 132.54393005371094, 221.47874450683594, -0.08000000566244125, 0.0, 1.055999994277954, 0.0, 0.0, 0.0, 0.0, 0.0, 1.6212650127560644E9, 2021-05-17 17:23:32.756
33.0, 25.932466506958008, -68.9749755859375, 133.68084716796875, 218.09413146972656, -0.08000000566244125, 0.0, 1.055999994277954, 0.0, 0.0, 0.0, 0.0, 0.0, 1.6212650127568076E9, 2021-05-17 17:23:32.756
33.0, 22.420700073242188, -71.304931640625, 132.06895446777344, 212.3159942626953, -0.08000000566244125, 0.0, 1.055999994277954, 0.0, 0.0, 0.0, 0.0, 0.0, 1.6212650127568076E9, 2021-05-17 17:23:32.756
34.0, 25.08350944519043, -70.67288970947266, 129.4323272705078, 221.10101318359375, -0.08000000566244125, 0.0, 1.055999994277954, 0.0, 0.0, 0.0, 0.0, 0.0, 1.621265012770367E9, 2021-05-17 17:23:32.770
34.0, 29.403093338012695, -67.86048126220703, 139.02891540527344, 228.12454223632812, -0.08000000566244125, 0.0, 1.055999994277954, 0.0, 0.0, 0.0, 0.0, 0.0, 1.621265012770367E9, 2021-05-17 17:23:32.770
35.0, 30.958890914916992, -65.1004409790039, 141.86749267578125, 227.84405517578125, -0.08000000566244125, 0.0, 1.055999994277954, 0.0, 0.0, 0.0, 0.0, 0.0, 1.6212650127860534E9, 2021-05-17 17:23:32.786
35.0, 9.043078422546387, -79.1923828125, 126.75456237792969, 208.7855224609375, -0.08000000566244125, 0.0, 1.055999994277954, 0.0, 0.0, 0.0, 0.0, 0.0, 1.6212650127860534E9, 2021-05-17 17:23:32.786
36.0, 18.452667236328125, -75.18321228027344, 125.77096557617188, 212.38331604003906, -0.08000000566244125, 0.0, 1.055999994277954, 0.0, 0.0, 0.0, 0.0, 0.0, 1.621265012786833E9, 2021-05-17 17:23:32.786
36.0, 23.314537048339844, -68.48504638671875, 129.44354248046875, 221.70687866210938, -0.08000000566244125, 0.0, 1.055999994277954, 0.0, 0.0, 0.0, 0.0, 0.0, 1.621265012786833E9, 2021-05-17 17:23:32.786
37.0, 18.366649627685547, -64.98075866699219, 132.46163940429688, 214.683349609375, -0.08000000566244125, 0.0, 1.055999994277954, 0.0, 0.0, 0.0, 0.0, 0.0, 1.621265012800396E9, 2021-05-17 17:23:32.800
37.0, 13.856328964233398, -73.33195495605469, 124.72753143310547, 205.2662811279297, -0.08000000566244125, 0.0, 1.055999994277954, 0.0, 0.0, 0.0, 0.0, 0.0, 1.621265012800396E9, 2021-05-17 17:23:32.800
38.0, 21.066856384277344, -70.5831298828125, 127.07618713378906, 209.48487854003906, -0.08000000566244125, 0.0, 1.055999994277954, 0.0, 0.0, 0.0, 0.0, 0.0, 1.621265012816034E9, 2021-05-17 17:23:32.816
38.0, 29.006664276123047, -66.71233367919922, 132.2185516357422, 219.63124084472656, -0.08000000566244125, 0.0, 1.055999994277954, 0.0, 0.0, 0.0, 0.0, 0.0, 1.621265012816034E9, 2021-05-17 17:23:32.816
39.0, 27.832334518432617, -72.65877532958984, 134.6494903564453, 214.70578002929688, -0.08000000566244125, 0.0, 1.055999994277954, 0.0, 0.0, 0.0, 0.0, 0.0, 1.6212650128169231E9, 2021-05-17 17:23:32.816
39.0, 11.619869232177734, -86.40290832519531, 128.8302001953125, 203.5421905517578, -0.08000000566244125, 0.0, 1.055999994277954, 0.0, 0.0, 0.0, 0.0, 0.0, 1.6212650128169231E9, 2021-05-17 17:23:32.816
40.0, 28.030550003051758, -76.76144409179688, 125.72234344482422, 207.15492248535156, -0.08000000566244125, 0.0, 1.055999994277954, 0.0, 0.0, 0.0, 0.0, 0.0, 1.6212650128303387E9, 2021-05-17 17:23:32.830
40.0, 40.41709899902344, -61.30070114135742, 140.068603515625, 230.97808837890625, -0.08000000566244125, 0.0, 1.055999994277954, 0.0, 0.0, 0.0, 0.0, 0.0, 1.6212650128303387E9, 2021-05-17 17:23:32.830
41.0, 21.50816535949707, -72.71861267089844, 138.93914794921875, 219.11886596679688, -0.08000000566244125, 0.0, 1.055999994277954, 0.0, 0.0, 0.0, 0.0, 0.0, 1.621265012846002E9, 2021-05-17 17:23:32.846
41.0, 11.533851623535156, -80.56118774414062, 127.8840103149414, 213.60626220703125, -0.08000000566244125, 0.0, 1.055999994277954, 0.0, 0.0, 0.0, 0.0, 0.0, 1.621265012846002E9, 2021-05-17 17:23:32.846
42.0, 29.97903823852539, -63.86252975463867, 137.03929138183594, 223.44219970703125, -0.08000000566244125, 0.0, 1.055999994277954, 0.0, 0.0, 0.0, 0.0, 0.0, 1.6212650128468223E9, 2021-05-17 17:23:32.846
42.0, 31.183286666870117, -58.3349609375, 144.97535705566406, 231.9878692626953, -0.08000000566244125, 0.0, 1.055999994277954, 0.0, 0.0, 0.0, 0.0, 0.0, 1.6212650128468223E9, 2021-05-17 17:23:32.846
43.0, 34.76237106323242, -63.09585189819336, 148.2178497314453, 231.8457489013672, -0.08000000566244125, 0.0, 1.055999994277954, 0.0, 0.0, 0.0, 0.0, 0.0, 1.6212650128603325E9, 2021-05-17 17:23:32.860
43.0, 27.836074829101562, -67.28079986572266, 145.2296600341797, 226.35183715820312, -0.08000000566244125, 0.0, 1.055999994277954, 0.0, 0.0, 0.0, 0.0, 0.0, 1.6212650128603325E9, 2021-05-17 17:23:32.860
44.0, 27.282569885253906, -75.04109191894531, 136.3922882080078, 223.1990966796875, -0.08000000566244125, 0.0, 1.055999994277954, 0.0, 0.0, 0.0, 0.0, 0.0, 1.6212650128758726E9, 2021-05-17 17:23:32.875
44.0, 41.95045852661133, -51.43858337402344, 149.93446350097656, 236.1017608642578, -0.08000000566244125, 0.0, 1.055999994277954, 0.0, 0.0, 0.0, 0.0, 0.0, 1.6212650128758726E9, 2021-05-17 17:23:32.875
45.0, 23.060222625732422, -57.45234298706055, 143.01190185546875, 226.9763946533203, -0.08000000566244125, 0.0, 1.055999994277954, 0.0, 0.0, 0.0, 0.0, 0.0, 1.6212650128910213E9, 2021-05-17 17:23:32.891
45.0, 9.820977210998535, -67.7669906616211, 133.47142028808594, 214.07374572753906, -0.08000000566244125, 0.0, 1.055999994277954, 0.0, 0.0, 0.0, 0.0, 0.0, 1.6212650128910213E9, 2021-05-17 17:23:32.891
46.0, 10.524078369140625, -68.1110610961914, 129.05459594726562, 212.53665161132812, -0.08000000566244125, 0.0, 1.055999994277954, 0.0, 0.0, 0.0, 0.0, 0.0, 1.6212650128917384E9, 2021-05-17 17:23:32.891
46.0, 26.845001220703125, -58.12926483154297, 134.9785919189453, 225.5253143310547, -0.08000000566244125, 0.0, 1.055999994277954, 0.0, 0.0, 0.0, 0.0, 0.0, 1.6212650128917384E9, 2021-05-17 17:23:32.891
47.0, 19.993505477905273, -65.53800964355469, 130.87966918945312, 213.23974609375, -0.08000000566244125, 0.0, 1.055999994277954, 0.0, 0.0, 0.0, 0.0, 0.0, 1.6212650129062269E9, 2021-05-17 17:23:32.906
47.0, 5.897822380065918, -78.62765502929688, 125.24363708496094, 207.7196502685547, -0.08000000566244125, 0.0, 1.055999994277954, 0.0, 0.0, 0.0, 0.0, 0.0, 1.6212650129062269E9, 2021-05-17 17:23:32.906
48.0, 16.51165771484375, -74.26692962646484, 127.685791015625, 214.91522216796875, -0.08000000566244125, 0.0, 1.055999994277954, 0.0, 0.0, 0.0, 0.0, 0.0, 1.621265012906865E9, 2021-05-17 17:23:32.906
48.0, 38.547149658203125, -63.884971618652344, 141.91236877441406, 228.90618896484375, -0.08000000566244125, 0.0, 1.055999994277954, 0.0, 0.0, 0.0, 0.0, 0.0, 1.621265012906865E9, 2021-05-17 17:23:32.906
49.0, 25.37148094177246, -72.18006896972656, 134.91502380371094, 219.2983856201172, -0.08000000566244125, 0.0, 1.055999994277954, 0.0, 0.0, 0.0, 0.0, 0.0, 1.621265012920483E9, 2021-05-17 17:23:32.920
49.0, 15.457006454467773, -78.93806457519531, 130.45706176757812, 209.2230987548828, -0.08000000566244125, 0.0, 1.055999994277954, 0.0, 0.0, 0.0, 0.0, 0.0, 1.621265012920483E9, 2021-05-17 17:23:32.920
50.0, 21.05563735961914, -73.47781372070312, 123.62425994873047, 210.6517333984375, -0.08000000566244125, 0.0, 1.055999994277954, 0.0, 0.0, 0.0, 0.0, 0.0, 1.6212650129359796E9, 2021-05-17 17:23:32.935
50.0, 34.21260452270508, -66.78339385986328, 131.01055908203125, 221.54232788085938, -0.08000000566244125, 0.0, 1.055999994277954, 0.0, 0.0, 0.0, 0.0, 0.0, 1.6212650129359796E9, 2021-05-17 17:23:32.935
51.0, 26.89362144470215, -67.54633331298828, 136.36984252929688, 213.838134765625, -0.08000000566244125, 0.0, 1.055999994277954, 0.0, 0.0, 0.0, 0.0, 0.0, 1.621265012936733E9, 2021-05-17 17:23:32.936
51.0, 16.01051139831543, -72.33714294433594, 131.2910614013672, 209.22683715820312, -0.08000000566244125, 0.0, 1.055999994277954, 0.0, 0.0, 0.0, 0.0, 0.0, 1.621265012936733E9, 2021-05-17 17:23:32.936
52.0, 23.482831954956055, -69.71173858642578, 130.98065185546875, 212.5142059326172, -0.08000000566244125, 0.0, 1.055999994277954, 0.0, 0.0, 0.0, 0.0, 0.0, 1.6212650129503207E9, 2021-05-17 17:23:32.950
52.0, 40.1777458190918, -56.57346725463867, 140.31918334960938, 232.51144409179688, -0.08000000566244125, 0.0, 1.055999994277954, 0.0, 0.0, 0.0, 0.0, 0.0, 1.6212650129503207E9, 2021-05-17 17:23:32.950
53.0, 31.403940200805664, -63.234230041503906, 141.7178955078125, 223.7451171875, -0.08000000566244125, 0.0, 1.055999994277954, 0.0, 0.0, 0.0, 0.0, 0.0, 1.6212650129662807E9, 2021-05-17 17:23:32.966
53.0, 25.87262725830078, -72.56901550292969, 134.82525634765625, 220.50637817382812, -0.08000000566244125, 0.0, 1.055999994277954, 0.0, 0.0, 0.0, 0.0, 0.0, 1.6212650129662807E9, 2021-05-17 17:23:32.966
54.0, 32.02850341796875, -65.1378402709961, 142.59677124023438, 226.77444458007812, -0.08000000566244125, 0.0, 1.055999994277954, 0.0, 0.0, 0.0, 0.0, 0.0, 1.621265012966818E9, 2021-05-17 17:23:32.966
54.0, 38.12453842163086, -54.82319259643555, 147.3165283203125, 237.89317321777344, -0.08000000566244125, 0.0, 1.055999994277954, 0.0, 0.0, 0.0, 0.0, 0.0, 1.621265012966818E9, 2021-05-17 17:23:32.966
55.0, 35.51782989501953, -56.0573616027832, 149.48193359375, 236.52810668945312, -0.08000000566244125, 0.0, 1.055999994277954, 0.0, 0.0, 0.0, 0.0, 0.0, 1.6212650129804535E9, 2021-05-17 17:23:32.980
55.0, 20.094482421875, -75.51232147216797, 139.1672821044922, 221.3441162109375, -0.08000000566244125, 0.0, 1.055999994277954, 0.0, 0.0, 0.0, 0.0, 0.0, 1.6212650129804535E9, 2021-05-17 17:23:32.980
56.0, 16.938007354736328, -69.14327239990234, 131.6313934326172, 217.42843627929688, -0.08000000566244125, 0.0, 1.055999994277954, 0.0, 0.0, 0.0, 0.0, 0.0, 1.6212650129963953E9, 2021-05-17 17:23:32.996
56.0, 31.64703369140625, -63.170650482177734, 140.75674438476562, 227.11851501464844, -0.08000000566244125, 0.0, 1.055999994277954, 0.0, 0.0, 0.0, 0.0, 0.0, 1.6212650129963953E9, 2021-05-17 17:23:32.996
57.0, 26.224178314208984, -70.0969467163086, 134.84022521972656, 218.7523651123047, -0.08000000566244125, 0.0, 1.055999994277954, 0.0, 0.0, 0.0, 0.0, 0.0, 1.6212650130111525E9, 2021-05-17 17:23:33.011
57.0, 10.251066207885742, -78.9118881225586, 125.995361328125, 203.2429962158203, -0.08000000566244125, 0.0, 1.055999994277954, 0.0, 0.0, 0.0, 0.0, 0.0, 1.6212650130111525E9, 2021-05-17 17:23:33.011
58.0, 19.342761993408203, -70.9047622680664, 121.9413070678711, 214.71327209472656, -0.08000000566244125, 0.0, 1.055999994277954, 0.0, 0.0, 0.0, 0.0, 0.0, 1.6212650130118177E9, 2021-05-17 17:23:33.011
58.0, 28.50177764892578, -67.69219207763672, 133.93890380859375, 228.98846435546875, -0.08000000566244125, 0.0, 1.055999994277954, 0.0, 0.0, 0.0, 0.0, 0.0, 1.6212650130118177E9, 2021-05-17 17:23:33.011
59.0, 25.65571403503418, -67.45283508300781, 138.13507080078125, 224.23504638671875, -0.08000000566244125, 0.0, 1.055999994277954, 0.0, 0.0, 0.0, 0.0, 0.0, 1.621265013025824E9, 2021-05-17 17:23:33.025
59.0, 17.240938186645508, -82.06462097167969, 124.21142578125, 212.24119567871094, -0.08000000566244125, 0.0, 1.055999994277954, 0.0, 0.0, 0.0, 0.0, 0.0, 1.621265013025824E9, 2021-05-17 17:23:33.025
60.0, 22.353382110595703, -77.41967010498047, 128.5272674560547, 218.04177856445312, -0.08000000566244125, 0.0, 1.055999994277954, 0.0, 0.0, 0.0, 0.0, 0.0, 1.6212650130411024E9, 2021-05-17 17:23:33.041
60.0, 36.583702087402344, -67.54259490966797, 131.75106811523438, 226.10499572753906, -0.08000000566244125, 0.0, 1.055999994277954, 0.0, 0.0, 0.0, 0.0, 0.0, 1.6212650130411024E9, 2021-05-17 17:23:33.041
61.0, 29.22357749938965, -71.33859252929688, 138.81947326660156, 221.3478546142578, -0.08000000566244125, 0.0, 1.055999994277954, 0.0, 0.0, 0.0, 0.0, 0.0, 1.621265013041886E9, 2021-05-17 17:23:33.041
61.0, 17.031503677368164, -76.6230697631836, 129.3911895751953, 210.1094512939453, -0.08000000566244125, 0.0, 1.055999994277954, 0.0, 0.0, 0.0, 0.0, 0.0, 1.621265013041886E9, 2021-05-17 17:23:33.041
62.0, 23.12006187438965, -71.985595703125, 130.3673095703125, 217.30126953125, -0.08000000566244125, 0.0, 1.055999994277954, 0.0, 0.0, 0.0, 0.0, 0.0, 1.6212650130560815E9, 2021-05-17 17:23:33.056
62.0, 35.42059326171875, -59.27741241455078, 140.59593200683594, 231.20248413085938, -0.08000000566244125, 0.0, 1.055999994277954, 0.0, 0.0, 0.0, 0.0, 0.0, 1.6212650130560815E9, 2021-05-17 17:23:33.056
63.0, 34.534236907958984, -59.99173355102539, 144.74722290039062, 232.71714782714844, -0.08000000566244125, 0.0, 1.055999994277954, 0.0, 0.0, 0.0, 0.0, 0.0, 1.6212650130568328E9, 2021-05-17 17:23:33.056
63.0, 23.258438110351562, -69.94361114501953, 137.77230834960938, 224.92318725585938, -0.08000000566244125, 0.0, 1.055999994277954, 0.0, 0.0, 0.0, 0.0, 0.0, 1.6212650130568328E9, 2021-05-17 17:23:33.056
64.0, 18.05997657775879, -66.94420623779297, 140.06112670898438, 222.75779724121094, -0.08000000566244125, 0.0, 1.055999994277954, 0.0, 0.0, 0.0, 0.0, 0.0, 1.62126501307034E9, 2021-05-17 17:23:33.070
64.0, 38.32649612426758, -54.39684295654297, 141.5570831298828, 238.01658630371094, -0.08000000566244125, 0.0, 1.055999994277954, 0.0, 0.0, 0.0, 0.0, 0.0, 1.62126501307034E9, 2021-05-17 17:23:33.070
65.0, 22.74981117248535, -61.8504638671875, 141.57577514648438, 234.41505432128906, -0.08000000566244125, 0.0, 1.055999994277954, 0.0, 0.0, 0.0, 0.0, 0.0, 1.6212650130861232E9, 2021-05-17 17:23:33.086
65.0, 2.1841015815734863, -77.84227752685547, 124.69761657714844, 210.95840454101562, -0.08000000566244125, 0.0, 1.055999994277954, 0.0, 0.0, 0.0, 0.0, 0.0, 1.6212650130861232E9, 2021-05-17 17:23:33.086
66.0, 18.549903869628906, -71.16655731201172, 127.61473846435547, 216.25784301757812, -0.08000000566244125, 0.0, 1.055999994277954, 0.0, 0.0, 0.0, 0.0, 0.0, 1.6212650130869763E9, 2021-05-17 17:23:33.086
66.0, 30.498884201049805, -64.68904876708984, 132.49530029296875, 224.63148498535156, -0.08000000566244125, 0.0, 1.055999994277954, 0.0, 0.0, 0.0, 0.0, 0.0, 1.6212650130869763E9, 2021-05-17 17:23:33.086
67.0, 23.045263290405273, -71.60038757324219, 135.23291015625, 216.9571990966797, -0.08000000566244125, 0.0, 1.055999994277954, 0.0, 0.0, 0.0, 0.0, 0.0, 1.6212650131157596E9, 2021-05-17 17:23:33.115
67.0, 13.863809585571289, -78.49675750732422, 123.73645782470703, 204.19293212890625, -0.08000000566244125, 0.0, 1.055999994277954, 0.0, 0.0, 0.0, 0.0, 0.0, 1.6212650131157596E9, 2021-05-17 17:23:33.115
68.0, 21.777437210083008, -74.74564361572266, 126.87049865722656, 210.37872314453125, -0.08000000566244125, 0.0, 1.055999994277954, 0.0, 0.0, 0.0, 0.0, 0.0, 1.621265013132105E9, 2021-05-17 17:23:33.132
68.0, 36.17605209350586, -61.4390754699707, 135.89112854003906, 225.82077026367188, -0.08000000566244125, 0.0, 1.055999994277954, 0.0, 0.0, 0.0, 0.0, 0.0, 1.621265013132105E9, 2021-05-17 17:23:33.132
69.0, 24.526264190673828, -73.75830841064453, 138.86434936523438, 222.29403686523438, -0.08000000566244125, 0.0, 1.055999994277954, 0.0, 0.0, 0.0, 0.0, 0.0, 1.6212650131328416E9, 2021-05-17 17:23:33.132
69.0, 11.960200309753418, -79.88426208496094, 131.22000122070312, 211.73631286621094, -0.08000000566244125, 0.0, 1.055999994277954, 0.0, 0.0, 0.0, 0.0, 0.0, 1.6212650131328416E9, 2021-05-17 17:23:33.132
70.0, 23.063962936401367, -69.7603530883789, 133.0637664794922, 219.02911376953125, -0.08000000566244125, 0.0, 1.055999994277954, 0.0, 0.0, 0.0, 0.0, 0.0, 1.6212650131337192E9, 2021-05-17 17:23:33.133
70.0, 30.99629020690918, -63.81017303466797, 137.615234375, 226.3406219482422, -0.08000000566244125, 0.0, 1.055999994277954, 0.0, 0.0, 0.0, 0.0, 0.0, 1.6212650131337192E9, 2021-05-17 17:23:33.133
71.0, 19.058530807495117, -69.99596405029297, 138.4193115234375, 219.84066772460938, -0.08000000566244125, 0.0, 1.055999994277954, 0.0, 0.0, 0.0, 0.0, 0.0, 1.621265013146138E9, 2021-05-17 17:23:33.146
71.0, 11.990118980407715, -76.45851135253906, 131.6351318359375, 218.0791778564453, -0.08000000566244125, 0.0, 1.055999994277954, 0.0, 0.0, 0.0, 0.0, 0.0, 1.621265013146138E9, 2021-05-17 17:23:33.146
72.0, 15.722538948059082, -73.0290298461914, 129.43606567382812, 219.8967742919922, -0.08000000566244125, 0.0, 1.055999994277954, 0.0, 0.0, 0.0, 0.0, 0.0, 1.6212650131468163E9, 2021-05-17 17:23:33.146
72.0, 34.46317672729492, -61.67095184326172, 145.00901794433594, 234.2355499267578, -0.08000000566244125, 0.0, 1.055999994277954, 0.0, 0.0, 0.0, 0.0, 0.0, 1.6212650131468163E9, 2021-05-17 17:23:33.146
73.0, 28.097867965698242, -62.8826789855957, 146.512451171875, 227.52243041992188, -0.08000000566244125, 0.0, 1.055999994277954, 0.0, 0.0, 0.0, 0.0, 0.0, 1.6212650131602905E9, 2021-05-17 17:23:33.160
73.0, 23.303316116333008, -72.60267639160156, 141.51220703125, 215.83523559570312, -0.08000000566244125, 0.0, 1.055999994277954, 0.0, 0.0, 0.0, 0.0, 0.0, 1.6212650131602905E9, 2021-05-17 17:23:33.160
74.0, 22.618915557861328, -70.82996368408203, 138.9204559326172, 219.05154418945312, -0.08000000566244125, 0.0, 1.055999994277954, 0.0, 0.0, 0.0, 0.0, 0.0, 1.6212650131760676E9, 2021-05-17 17:23:33.176
74.0, 35.92921829223633, -61.39419937133789, 143.9693145751953, 238.757080078125, -0.08000000566244125, 0.0, 1.055999994277954, 0.0, 0.0, 0.0, 0.0, 0.0, 1.6212650131760676E9, 2021-05-17 17:23:33.176
75.0, 27.578022003173828, -69.24798583984375, 145.5475616455078, 226.3480987548828, -0.08000000566244125, 0.0, 1.055999994277954, 0.0, 0.0, 0.0, 0.0, 0.0, 1.6212650131767762E9, 2021-05-17 17:23:33.176
75.0, 20.015945434570312, -69.26668548583984, 136.841064453125, 217.6116943359375, -0.08000000566244125, 0.0, 1.055999994277954, 0.0, 0.0, 0.0, 0.0, 0.0, 1.6212650131767762E9, 2021-05-17 17:23:33.176
76.0, 14.327556610107422, -70.92720031738281, 130.33738708496094, 212.88072204589844, -0.08000000566244125, 0.0, 1.055999994277954, 0.0, 0.0, 0.0, 0.0, 0.0, 1.6212650131904037E9, 2021-05-17 17:23:33.190
76.0, 32.71290588378906, -60.24604797363281, 143.8047637939453, 232.28330993652344, -0.08000000566244125, 0.0, 1.055999994277954, 0.0, 0.0, 0.0, 0.0, 0.0, 1.6212650131904037E9, 2021-05-17 17:23:33.190
77.0, 27.607940673828125, -68.79545593261719, 136.66903686523438, 220.91775512695312, -0.08000000566244125, 0.0, 1.055999994277954, 0.0, 0.0, 0.0, 0.0, 0.0, 1.6212650132061963E9, 2021-05-17 17:23:33.206
77.0, 21.553043365478516, -71.10671997070312, 135.25535583496094, 214.0438232421875, -0.08000000566244125, 0.0, 1.055999994277954, 0.0, 0.0, 0.0, 0.0, 0.0, 1.6212650132061963E9, 2021-05-17 17:23:33.206
78.0, 14.28267765045166, -80.54248809814453, 121.35040283203125, 208.5312042236328, -0.08000000566244125, 0.0, 1.055999994277954, 0.0, 0.0, 0.0, 0.0, 0.0, 1.6212650132068057E9, 2021-05-17 17:23:33.206
78.0, 29.80326271057129, -65.75865936279297, 138.03036499023438, 227.70567321777344, -0.08000000566244125, 0.0, 1.055999994277954, 0.0, 0.0, 0.0, 0.0, 0.0, 1.6212650132068057E9, 2021-05-17 17:23:33.206
79.0, 27.069395065307617, -71.15159606933594, 142.9932098388672, 224.28367614746094, -0.08000000566244125, 0.0, 1.055999994277954, 0.0, 0.0, 0.0, 0.0, 0.0, 1.6212650132364354E9, 2021-05-17 17:23:33.236
79.0, 9.749918937683105, -88.6468505859375, 125.42689514160156, 207.54013061523438, -0.08000000566244125, 0.0, 1.055999994277954, 0.0, 0.0, 0.0, 0.0, 0.0, 1.6212650132364354E9, 2021-05-17 17:23:33.236
80.0, 16.283523559570312, -78.2125244140625, 128.5871124267578, 211.84849548339844, -0.08000000566244125, 0.0, 1.055999994277954, 0.0, 0.0, 0.0, 0.0, 0.0, 1.6212650132372923E9, 2021-05-17 17:23:33.237
80.0, 23.47161293029785, -66.8507080078125, 140.35658264160156, 227.98617553710938, -0.08000000566244125, 0.0, 1.055999994277954, 0.0, 0.0, 0.0, 0.0, 0.0, 1.6212650132372923E9, 2021-05-17 17:23:33.237
81.0, 21.369789123535156, -64.10562133789062, 141.20553588867188, 229.23529052734375, -0.08000000566244125, 0.0, 1.055999994277954, 0.0, 0.0, 0.0, 0.0, 0.0, 1.621265013251093E9, 2021-05-17 17:23:33.251
81.0, 21.665241241455078, -73.60123443603516, 135.25909423828125, 217.06192016601562, -0.08000000566244125, 0.0, 1.055999994277954, 0.0, 0.0, 0.0, 0.0, 0.0, 1.621265013251093E9, 2021-05-17 17:23:33.251
82.0, 23.232257843017578, -74.62970733642578, 132.03903198242188, 218.25120544433594, -0.08000000566244125, 0.0, 1.055999994277954, 0.0, 0.0, 0.0, 0.0, 0.0, 1.6212650132518291E9, 2021-05-17 17:23:33.251
82.0, 37.840309143066406, -64.32254028320312, 143.71875, 231.8046112060547, -0.08000000566244125, 0.0, 1.055999994277954, 0.0, 0.0, 0.0, 0.0, 0.0, 1.6212650132518291E9, 2021-05-17 17:23:33.251
83.0, 26.59442901611328, -67.5500717163086, 141.96473693847656, 222.10330200195312, -0.08000000566244125, 0.0, 1.055999994277954, 0.0, 0.0, 0.0, 0.0, 0.0, 1.6212650132660232E9, 2021-05-17 17:23:33.266
83.0, 22.768510818481445, -78.39578247070312, 131.08909606933594, 215.25181579589844, -0.08000000566244125, 0.0, 1.055999994277954, 0.0, 0.0, 0.0, 0.0, 0.0, 1.6212650132660232E9, 2021-05-17 17:23:33.266
84.0, 26.123201370239258, -65.49686431884766, 138.13133239746094, 221.5535430908203, -0.08000000566244125, 0.0, 1.055999994277954, 0.0, 0.0, 0.0, 0.0, 0.0, 1.621265013266744E9, 2021-05-17 17:23:33.266
84.0, 36.91655349731445, -59.84587860107422, 143.30361938476562, 231.51663208007812, -0.08000000566244125, 0.0, 1.055999994277954, 0.0, 0.0, 0.0, 0.0, 0.0, 1.621265013266744E9, 2021-05-17 17:23:33.266
85.0, 35.693603515625, -59.221317291259766, 151.9727020263672, 230.27125549316406, -0.08000000566244125, 0.0, 1.055999994277954, 0.0, 0.0, 0.0, 0.0, 0.0, 1.6212650132803936E9, 2021-05-17 17:23:33.280
85.0, 17.839323043823242, -75.08971405029297, 130.14291381835938, 218.52423095703125, -0.08000000566244125, 0.0, 1.055999994277954, 0.0, 0.0, 0.0, 0.0, 0.0, 1.6212650132803936E9, 2021-05-17 17:23:33.280
86.0, 22.60395622253418, -72.50170135498047, 126.8218765258789, 213.84561157226562, -0.08000000566244125, 0.0, 1.055999994277954, 0.0, 0.0, 0.0, 0.0, 0.0, 1.6212650132960298E9, 2021-05-17 17:23:33.296
86.0, 44.7142448425293, -57.198028564453125, 138.47166442871094, 233.52870178222656, -0.08000000566244125, 0.0, 1.055999994277954, 0.0, 0.0, 0.0, 0.0, 0.0, 1.6212650132960298E9, 2021-05-17 17:23:33.296
87.0, 26.02222442626953, -68.49626922607422, 135.24412536621094, 217.34616088867188, -0.08000000566244125, 0.0, 1.055999994277954, 0.0, 0.0, 0.0, 0.0, 0.0, 1.621265013296713E9, 2021-05-17 17:23:33.296
87.0, 19.956106185913086, -82.92105865478516, 124.75371551513672, 203.76658630371094, -0.08000000566244125, 0.0, 1.055999994277954, 0.0, 0.0, 0.0, 0.0, 0.0, 1.621265013296713E9, 2021-05-17 17:23:33.296
88.0, 29.45545196533203, -74.0574951171875, 125.96543884277344, 214.8852996826172, -0.08000000566244125, 0.0, 1.055999994277954, 0.0, 0.0, 0.0, 0.0, 0.0, 1.621265013310516E9, 2021-05-17 17:23:33.310
88.0, 29.163740158081055, -68.93757629394531, 127.51750183105469, 222.16314697265625, -0.08000000566244125, 0.0, 1.055999994277954, 0.0, 0.0, 0.0, 0.0, 0.0, 1.621265013310516E9, 2021-05-17 17:23:33.310
89.0, 18.796737670898438, -74.6558837890625, 131.94180297851562, 217.38729858398438, -0.08000000566244125, 0.0, 1.055999994277954, 0.0, 0.0, 0.0, 0.0, 0.0, 1.6212650133260708E9, 2021-05-17 17:23:33.326
89.0, 17.700946807861328, -80.71452331542969, 126.11129760742188, 214.87782287597656, -0.08000000566244125, 0.0, 1.055999994277954, 0.0, 0.0, 0.0, 0.0, 0.0, 1.6212650133260708E9, 2021-05-17 17:23:33.326
90.0, 18.849096298217773, -79.21855926513672, 125.20249938964844, 216.93850708007812, -0.08000000566244125, 0.0, 1.055999994277954, 0.0, 0.0, 0.0, 0.0, 0.0, 1.6212650133267145E9, 2021-05-17 17:23:33.326
90.0, 33.41974639892578, -71.23387145996094, 135.3563232421875, 225.5440216064453, -0.08000000566244125, 0.0, 1.055999994277954, 0.0, 0.0, 0.0, 0.0, 0.0, 1.6212650133267145E9, 2021-05-17 17:23:33.326
91.0, 27.821115493774414, -74.88027954101562, 136.336181640625, 219.8219757080078, -0.08000000566244125, 0.0, 1.055999994277954, 0.0, 0.0, 0.0, 0.0, 0.0, 1.621265013340514E9, 2021-05-17 17:23:33.340
91.0, 17.895421981811523, -79.84686279296875, 133.55369567871094, 216.1531219482422, -0.08000000566244125, 0.0, 1.055999994277954, 0.0, 0.0, 0.0, 0.0, 0.0, 1.621265013340514E9, 2021-05-17 17:23:33.340
92.0, 23.486572265625, -84.26742553710938, 124.20394897460938, 211.8372802734375, -0.08000000566244125, 0.0, 1.055999994277954, 0.0, 0.0, 0.0, 0.0, 0.0, 1.6212650133561022E9, 2021-05-17 17:23:33.356
92.0, 42.0439567565918, -64.77880859375, 141.82635498046875, 229.0183868408203, -0.08000000566244125, 0.0, 1.055999994277954, 0.0, 0.0, 0.0, 0.0, 0.0, 1.6212650133561022E9, 2021-05-17 17:23:33.356
93.0, 33.7338981628418, -65.75492095947266, 142.83238220214844, 221.8938751220703, -0.08000000566244125, 0.0, 1.055999994277954, 0.0, 0.0, 0.0, 0.0, 0.0, 1.621265013356804E9, 2021-05-17 17:23:33.356
93.0, 29.309595108032227, -69.84637451171875, 137.5254669189453, 213.6212158203125, -0.08000000566244125, 0.0, 1.055999994277954, 0.0, 0.0, 0.0, 0.0, 0.0, 1.621265013356804E9, 2021-05-17 17:23:33.356
94.0, 25.0535888671875, -76.42111206054688, 130.85348510742188, 209.18569946289062, -0.08000000566244125, 0.0, 1.055999994277954, 0.0, 0.0, 0.0, 0.0, 0.0, 1.6212650133704236E9, 2021-05-17 17:23:33.370
94.0, 36.83427429199219, -59.81595993041992, 148.05702209472656, 226.374267578125, -0.08000000566244125, 0.0, 1.055999994277954, 0.0, 0.0, 0.0, 0.0, 0.0, 1.6212650133704236E9, 2021-05-17 17:23:33.370
95.0, 22.996644973754883, -71.00948333740234, 146.7705078125, 219.99774169921875, -0.08000000566244125, 0.0, 1.055999994277954, 0.0, 0.0, 0.0, 0.0, 0.0, 1.6212650133860989E9, 2021-05-17 17:23:33.386
95.0, 19.301624298095703, -73.59375, 139.24208068847656, 210.59938049316406, -0.08000000566244125, 0.0, 1.055999994277954, 0.0, 0.0, 0.0, 0.0, 0.0, 1.6212650133860989E9, 2021-05-17 17:23:33.386
96.0, 24.395366668701172, -64.32254028320312, 134.48867797851562, 221.23939514160156, -0.08000000566244125, 0.0, 1.055999994277954, 0.0, 0.0, 0.0, 0.0, 0.0, 1.6212650133868473E9, 2021-05-17 17:23:33.386
96.0, 42.5077018737793, -55.27198028564453, 142.49954223632812, 234.24302673339844, -0.08000000566244125, 0.0, 1.055999994277954, 0.0, 0.0, 0.0, 0.0, 0.0, 1.6212650133868473E9, 2021-05-17 17:23:33.386
97.0, 31.21694564819336, -66.01671600341797, 138.10890197753906, 217.03199768066406, -0.08000000566244125, 0.0, 1.055999994277954, 0.0, 0.0, 0.0, 0.0, 0.0, 1.6212650134003096E9, 2021-05-17 17:23:33.400
97.0, 25.281723022460938, -75.67313385009766, 133.789306640625, 211.82980346679688, -0.08000000566244125, 0.0, 1.055999994277954, 0.0, 0.0, 0.0, 0.0, 0.0, 1.6212650134003096E9, 2021-05-17 17:23:33.400
