Sample Index, EXG Channel 0, EXG Channel 1, EXG Channel 2, EXG Channel 3, Accel Channel 0, Accel Channel 1, Accel Channel 2, Other, Other, Other, Other, Other, Timestamp, Timestamp (Formatted)
0.0, 26.60190773010254, -132.63368225097656, 129.7184295654297, 217.20030212402344, 0.0, 0.0, 0.0, 0.0, 0.0, 0.0, 0.0, 0.0, 1.621265801690853E9, 2021-05-17 17:36:41.690
1.0, 25.401399612426758, -136.02203369140625, 135.8780517578125, 210.17677307128906, 0.0, 0.0, 0.0, 0.0, 0.0, 0.0, 0.0, 0.0, 1.621265801721043E9, 2021-05-17 17:36:41.721
1.0, 11.79190444946289, -143.82345581054688, 125.05851745605469, 201.64231872558594, 0.0, 0.0, 0.0, 0.0, 0.0, 0.0, 0.0, 0.0, 1.621265801721043E9, 2021-05-17 17:36:41.721
2.0, 23.523971557617188, -137.16270446777344, 126.19544219970703, 211.7924041748047, -0.06400000303983688, 0.0, 0.0, 0.0, 0.0, 0.0, 0.0, 0.0, 1.6212658017225122E9, 2021-05-17 17:36:41.722
2.0, 28.72991180419922, -127.55490112304688, 130.47763061523438, 222.46607971191406, -0.06400000303983688, 0.0, 0.0, 0.0, 0.0, 0.0, 0.0, 0.0, 1.6212658017225122E9, 2021-05-17 17:36:41.722
3.0, 18.9500732421875, -138.21360778808594, 133.50320434570312, 209.7691192626953, -0.06400000303983688, 0.0, 0.0, 0.0, 0.0, 0.0, 0.0, 0.0, 1.6212658017341864E9, 2021-05-17 17:36:41.734
3.0, 15.614082336425781, -145.5438232421875, 129.03028869628906, 209.3876495361328, -0.06400000303983688, 0.0, 0.0, 0.0, 0.0, 0.0, 0.0, 0.0, 1.6212658017341864E9, 2021-05-17 17:36:41.734
4.0, 26.837522506713867, -135.00477600097656, 126.61431121826172, 217.3498992919922, -0.06400000303983688, 0.0, 0.0, 0.0, 0.0, 0.0, 0.0, 0.0, 1.6212658017349443E9, 2021-05-17 17:36:41.734
4.0, 26.811342239379883, -128.5347442626953, 132.87490844726562, 227.0586700439453, -0.06400000303983688, 0.0, 0.0, 0.0, 0.0, 0.0, 0.0, 0.0, 1.6212658017349443E9, 2021-05-17 17:36:41.734
5.0, 16.212467193603516, -135.7938995361328, 130.5711212158203, 212.08038330078125, -0.06400000303983688, 0.0, 0.0, 0.0, 0.0, 0.0, 0.0, 0.0, 1.62126580175011E9, 2021-05-17 17:36:41.750
5.0, 11.047664642333984, -139.41038513183594, 125.75039672851562, 206.38824462890625, -0.06400000303983688, 0.0, 0.0, 0.0, 0.0, 0.0, 0.0, 0.0, 1.62126580175011E9, 2021-05-17 17:36:41.750
6.0, 20.812543869018555, -130.55429077148438, 118.92134094238281, 211.84475708007812, -0.06400000303983688, 0.0, 0.0, 0.0, 0.0, 0.0, 0.0, 0.0, 1.62126580175061E9, 2021-05-17 17:36:41.750
6.0, 22.989164352416992, -118.09294891357422, 126.09820556640625, 225.2298583984375, -0.06400000303983688, 0.0, 0.0, 0.0, 0.0, 0.0, 0.0, 0.0, 1.62126580175061E9, 2021-05-17 17:36:41.750
7.0, 11.649787902832031, -129.14060974121094, 126.9920425415039, 208.63592529296875, -0.06400000303983688, 0.0, 0.0, 0.0, 0.0, 0.0, 0.0, 0.0, 1.6212658017637012E9, 2021-05-17 17:36:41.763
7.0, 4.233566761016846, -135.67422485351562, 120.60429382324219, 198.69528198242188, -0.06400000303983688, 0.0, 0.0, 0.0, 0.0, 0.0, 0.0, 0.0, 1.6212658017637012E9, 2021-05-17 17:36:41.763
8.0, 24.791797637939453, -129.12191772460938, 115.84713745117188, 208.25819396972656, -0.06400000303983688, 0.0, 0.0, 0.0, 0.0, 0.0, 0.0, 0.0, 1.6212658017795093E9, 2021-05-17 17:36:41.779
8.0, 26.175559997558594, -123.76264190673828, 125.52973937988281, 215.94369506835938, -0.06400000303983688, 0.0, 0.0, 0.0, 0.0, 0.0, 0.0, 0.0, 1.6212658017795093E9, 2021-05-17 17:36:41.779
9.0, 18.890233993530273, -130.81234741210938, 125.61576080322266, 209.2978973388672, -0.06400000303983688, 0.0, 0.0, 0.0, 0.0, 0.0, 0.0, 0.0, 1.6212658017800784E9, 2021-05-17 17:36:41.780
9.0, 14.974559783935547, -137.5254669189453, 120.40608215332031, 202.8876953125, -0.06400000303983688, 0.0, 0.0, 0.0, 0.0, 0.0, 0.0, 0.0, 1.6212658017800784E9, 2021-05-17 17:36:41.780
10.0, 22.226224899291992, -132.37562561035156, 117.39920043945312, 209.57838439941406, -0.06400000303983688, 0.0, 1.040000081062317, 0.0, 0.0, 0.0, 0.0, 0.0, 1.6212658017935736E9, 2021-05-17 17:36:41.793
10.0, 26.837522506713867, -124.60785675048828, 120.0844497680664, 215.4500274658203, -0.06400000303983688, 0.0, 1.040000081062317, 0.0, 0.0, 0.0, 0.0, 0.0, 1.6212658017935736E9, 2021-05-17 17:36:41.793
11.0, 17.517690658569336, -133.0263671875, 121.20267486572266, 205.72628784179688, -0.06400000303983688, 0.0, 1.040000081062317, 0.0, 0.0, 0.0, 0.0, 0.0, 1.6212658018099341E9, 2021-05-17 17:36:41.809
11.0, 14.421053886413574, -134.9823455810547, 120.18168640136719, 202.39404296875, -0.06400000303983688, 0.0, 1.040000081062317, 0.0, 0.0, 0.0, 0.0, 0.0, 1.6212658018099341E9, 2021-05-17 17:36:41.809
12.0, 22.31972312927246, -126.99017333984375, 117.86294555664062, 214.9339141845703, -0.06400000303983688, 0.0, 1.040000081062317, 0.0, 0.0, 0.0, 0.0, 0.0, 1.6212658018105948E9, 2021-05-17 17:36:41.810
12.0, 28.25494384765625, -121.39154052734375, 124.8266372680664, 222.23794555664062, -0.06400000303983688, 0.0, 1.040000081062317, 0.0, 0.0, 0.0, 0.0, 0.0, 1.6212658018105948E9, 2021-05-17 17:36:41.810
13.0, 9.3871488571167, -139.53379821777344, 118.28929901123047, 207.0165557861328, -0.06400000303983688, 0.0, 1.040000081062317, 0.0, 0.0, 0.0, 0.0, 0.0, 1.6212658018235419E9, 2021-05-17 17:36:41.823
13.0, 12.020038604736328, -145.1473846435547, 122.02171325683594, 205.38595581054688, -0.06400000303983688, 0.0, 1.040000081062317, 0.0, 0.0, 0.0, 0.0, 0.0, 1.6212658018235419E9, 2021-05-17 17:36:41.823
14.0, 18.12355613708496, -130.29624938964844, 120.42852020263672, 210.53579711914062, -0.06400000303983688, 0.0, 1.040000081062317, 0.0, 0.0, 0.0, 0.0, 0.0, 1.6212658018556373E9, 2021-05-17 17:36:41.855
14.0, 22.170127868652344, -127.43895721435547, 127.98685455322266, 219.73968505859375, -0.06400000303983688, 0.0, 1.040000081062317, 0.0, 0.0, 0.0, 0.0, 0.0, 1.6212658018556373E9, 2021-05-17 17:36:41.855
15.0, 16.339622497558594, -134.810302734375, 124.30305480957031, 206.1563720703125, -0.06400000303983688, 0.0, 1.040000081062317, 0.0, 0.0, 0.0, 0.0, 0.0, 1.6212658018563552E9, 2021-05-17 17:36:41.856
15.0, 9.263731956481934, -145.4054412841797, 119.77777862548828, 201.17857360839844, -0.06400000303983688, 0.0, 1.040000081062317, 0.0, 0.0, 0.0, 0.0, 0.0, 1.6212658018563552E9, 2021-05-17 17:36:41.856
16.0, 18.706979751586914, -132.37188720703125, 121.16902160644531, 209.13706970214844, -0.06400000303983688, 0.0, 1.040000081062317, 0.0, 0.0, 0.0, 0.0, 0.0, 1.621265801857119E9, 2021-05-17 17:36:41.857
16.0, 17.813142776489258, -126.04023742675781, 129.72216796875, 221.69940185546875, -0.06400000303983688, 0.0, 1.040000081062317, 0.0, 0.0, 0.0, 0.0, 0.0, 1.621265801857119E9, 2021-05-17 17:36:41.857
17.0, 9.596583366394043, -134.2493133544922, 128.05043029785156, 208.9613037109375, -0.06400000303983688, 0.0, 1.040000081062317, 0.0, 0.0, 0.0, 0.0, 0.0, 1.6212658018579593E9, 2021-05-17 17:36:41.857
17.0, 13.381361961364746, -133.21336364746094, 126.81626892089844, 209.7279815673828, -0.06400000303983688, 0.0, 1.040000081062317, 0.0, 0.0, 0.0, 0.0, 0.0, 1.6212658018579593E9, 2021-05-17 17:36:41.857
18.0, 19.26048469543457, -133.624755859375, 120.8436508178711, 213.1051025390625, -0.06400000303983688, 0.0, 1.040000081062317, 0.0, 0.0, 0.0, 0.0, 0.0, 1.621265801868574E9, 2021-05-17 17:36:41.868
18.0, 25.016191482543945, -125.44185638427734, 125.57088470458984, 217.30502319335938, -0.06400000303983688, 0.0, 1.040000081062317, 0.0, 0.0, 0.0, 0.0, 0.0, 1.621265801868574E9, 2021-05-17 17:36:41.868
19.0, 13.50851821899414, -135.7003936767578, 124.83786010742188, 207.57379150390625, -0.06400000303983688, 0.0, 1.040000081062317, 0.0, 0.0, 0.0, 0.0, 0.0, 1.6212658018835945E9, 2021-05-17 17:36:41.883
19.0, 7.322724342346191, -135.08331298828125, 123.2558822631836, 203.2766571044922, -0.06400000303983688, 0.0, 1.040000081062317, 0.0, 0.0, 0.0, 0.0, 0.0, 1.6212658018835945E9, 2021-05-17 17:36:41.883
20.0, 17.21101951599121, -131.39202880859375, 121.01942443847656, 215.33035278320312, -0.06400000303983688, 0.0, 1.040000081062317, 0.0, 0.0, 0.0, 0.0, 0.0, 1.6212658018992584E9, 2021-05-17 17:36:41.899
20.0, 22.757291793823242, -126.47032928466797, 123.48775482177734, 219.96408081054688, -0.06400000303983688, 0.0, 1.040000081062317, 0.0, 0.0, 0.0, 0.0, 0.0, 1.6212658018992584E9, 2021-05-17 17:36:41.899
21.0, 19.152027130126953, -138.13507080078125, 127.1528549194336, 204.7165069580078, -0.06400000303983688, 0.0, 1.040000081062317, 0.0, 0.0, 0.0, 0.0, 0.0, 1.6212658018999128E9, 2021-05-17 17:36:41.899
21.0, 6.933774471282959, -146.04122924804688, 117.69091033935547, 201.47027587890625, -0.06400000303983688, 0.0, 1.040000081062317, 0.0, 0.0, 0.0, 0.0, 0.0, 1.6212658018999128E9, 2021-05-17 17:36:41.899
22.0, 17.921600341796875, -135.6592559814453, 117.07756805419922, 212.8021697998047, -0.06400000303983688, 0.0, 1.040000081062317, 0.0, 0.0, 0.0, 0.0, 0.0, 1.6212658019135973E9, 2021-05-17 17:36:41.913
22.0, 27.862255096435547, -126.97147369384766, 120.48088073730469, 216.29150390625, -0.06400000303983688, 0.0, 1.040000081062317, 0.0, 0.0, 0.0, 0.0, 0.0, 1.6212658019135973E9, 2021-05-17 17:36:41.913
23.0, 11.114982604980469, -139.4328155517578, 124.64338684082031, 205.71507263183594, -0.06400000303983688, 0.0, 1.040000081062317, 0.0, 0.0, 0.0, 0.0, 0.0, 1.6212658019292402E9, 2021-05-17 17:36:41.929
23.0, 16.41442108154297, -142.49954223632812, 121.33357238769531, 203.83763122558594, -0.06400000303983688, 0.0, 1.040000081062317, 0.0, 0.0, 0.0, 0.0, 0.0, 1.6212658019292402E9, 2021-05-17 17:36:41.929
24.0, 20.042123794555664, -134.77664184570312, 121.74122619628906, 211.81484985351562, -0.06400000303983688, 0.0, 1.040000081062317, 0.0, 0.0, 0.0, 0.0, 0.0, 1.6212658019300125E9, 2021-05-17 17:36:41.930
24.0, 28.00063133239746, -129.48841857910156, 126.5694351196289, 221.05613708496094, -0.06400000303983688, 0.0, 1.040000081062317, 0.0, 0.0, 0.0, 0.0, 0.0, 1.6212658019300125E9, 2021-05-17 17:36:41.930
25.0, 16.51913833618164, -136.94204711914062, 126.70407104492188, 214.75440979003906, -0.06400000303983688, 0.0, 1.040000081062317, 0.0, 0.0, 0.0, 0.0, 0.0, 1.621265801943513E9, 2021-05-17 17:36:41.943
25.0, 1.9148287773132324, -142.03579711914062, 123.09880828857422, 203.31031799316406, -0.06400000303983688, 0.0, 1.040000081062317, 0.0, 0.0, 0.0, 0.0, 0.0, 1.621265801943513E9, 2021-05-17 17:36:41.943
26.0, 13.441200256347656, -126.44789123535156, 124.20207977294922, 220.00897216796875, -0.06400000303983688, 0.0, 1.040000081062317, 0.0, 0.0, 0.0, 0.0, 0.0, 1.6212658019593697E9, 2021-05-17 17:36:41.959
26.0, 27.750057220458984, -123.23157501220703, 126.74520874023438, 225.1849822998047, -0.06400000303983688, 0.0, 1.040000081062317, 0.0, 0.0, 0.0, 0.0, 0.0, 1.6212658019593697E9, 2021-05-17 17:36:41.959
27.0, 13.13826847076416, -131.9193572998047, 131.81651306152344, 210.3525390625, -0.06400000303983688, 0.0, 1.040000081062317, 0.0, 0.0, 0.0, 0.0, 0.0, 1.621265801960121E9, 2021-05-17 17:36:41.960
27.0, 9.338530540466309, -136.511962890625, 129.75582885742188, 207.3980255126953, -0.06400000303983688, 0.0, 1.040000081062317, 0.0, 0.0, 0.0, 0.0, 0.0, 1.621265801960121E9, 2021-05-17 17:36:41.960
28.0, 23.778284072875977, -128.31036376953125, 131.77537536621094, 216.14938354492188, -0.06400000303983688, 0.0, 1.040000081062317, 0.0, 0.0, 0.0, 0.0, 0.0, 1.621265801973541E9, 2021-05-17 17:36:41.973
28.0, 32.196800231933594, -122.7266845703125, 130.46267700195312, 216.878662109375, -0.06400000303983688, 0.0, 1.040000081062317, 0.0, 0.0, 0.0, 0.0, 0.0, 1.621265801973541E9, 2021-05-17 17:36:41.973
29.0, 18.47510528564453, -130.7899169921875, 133.46206665039062, 212.1327362060547, -0.06400000303983688, 0.0, 1.040000081062317, 0.0, 0.0, 0.0, 0.0, 0.0, 1.621265801989195E9, 2021-05-17 17:36:41.989
29.0, 6.571004390716553, -142.08441162109375, 123.39051818847656, 199.73497009277344, -0.06400000303983688, 0.0, 1.040000081062317, 0.0, 0.0, 0.0, 0.0, 0.0, 1.621265801989195E9, 2021-05-17 17:36:41.989
30.0, 12.408987998962402, -136.96449279785156, 118.77922058105469, 209.05105590820312, -0.06400000303983688, 0.0, 1.055999994277954, 0.0, 0.0, 0.0, 0.0, 0.0, 1.6212658019899616E9, 2021-05-17 17:36:41.989
30.0, 24.911474227905273, -124.469482421875, 122.08903503417969, 218.415771484375, -0.06400000303983688, 0.0, 1.055999994277954, 0.0, 0.0, 0.0, 0.0, 0.0, 1.6212658019899616E9, 2021-05-17 17:36:41.989
31.0, 11.758245468139648, -138.5876007080078, 122.73977661132812, 209.83644104003906, -0.06400000303983688, 0.0, 1.055999994277954, 0.0, 0.0, 0.0, 0.0, 0.0, 1.6212658020035317E9, 2021-05-17 17:36:42.003
31.0, 6.279292106628418, -151.44163513183594, 118.10230255126953, 202.19207763671875, -0.06400000303983688, 0.0, 1.055999994277954, 0.0, 0.0, 0.0, 0.0, 0.0, 1.6212658020035317E9, 2021-05-17 17:36:42.003
32.0, 19.305362701416016, -137.11782836914062, 115.66388702392578, 214.49635314941406, -0.08000000566244125, 0.0, 1.055999994277954, 0.0, 0.0, 0.0, 0.0, 0.0, 1.621265802019164E9, 2021-05-17 17:36:42.019
32.0, 32.08086013793945, -130.72259521484375, 125.4212875366211, 218.59153747558594, -0.08000000566244125, 0.0, 1.055999994277954, 0.0, 0.0, 0.0, 0.0, 0.0, 1.621265802019164E9, 2021-05-17 17:36:42.019
33.0, 9.44324779510498, -142.01708984375, 125.15201568603516, 209.26797485351562, -0.08000000566244125, 0.0, 1.055999994277954, 0.0, 0.0, 0.0, 0.0, 0.0, 1.6212658020198925E9, 2021-05-17 17:36:42.019
33.0, 11.556290626525879, -148.76760864257812, 119.00735473632812, 201.76947021484375, -0.08000000566244125, 0.0, 1.055999994277954, 0.0, 0.0, 0.0, 0.0, 0.0, 1.6212658020198925E9, 2021-05-17 17:36:42.019
34.0, 21.09677505493164, -140.1060028076172, 116.95789337158203, 213.09014892578125, -0.08000000566244125, 0.0, 1.055999994277954, 0.0, 0.0, 0.0, 0.0, 0.0, 1.6212658020335636E9, 2021-05-17 17:36:42.033
34.0, 26.85622215270996, -128.95361328125, 125.88129425048828, 222.20802307128906, -0.08000000566244125, 0.0, 1.055999994277954, 0.0, 0.0, 0.0, 0.0, 0.0, 1.6212658020335636E9, 2021-05-17 17:36:42.033
35.0, 17.59248924255371, -136.48577880859375, 123.11750793457031, 209.86636352539062, -0.08000000566244125, 0.0, 1.055999994277954, 0.0, 0.0, 0.0, 0.0, 0.0, 1.6212658020494149E9, 2021-05-17 17:36:42.049
35.0, 7.879969120025635, -139.84046936035156, 122.29098510742188, 200.3969268798828, -0.08000000566244125, 0.0, 1.055999994277954, 0.0, 0.0, 0.0, 0.0, 0.0, 1.6212658020494149E9, 2021-05-17 17:36:42.049
36.0, 18.729419708251953, -131.90440368652344, 120.42103576660156, 210.1094512939453, -0.08000000566244125, 0.0, 1.055999994277954, 0.0, 0.0, 0.0, 0.0, 0.0, 1.6212658020499525E9, 2021-05-17 17:36:42.049
36.0, 22.62265396118164, -127.94010925292969, 125.35396575927734, 218.65512084960938, -0.08000000566244125, 0.0, 1.055999994277954, 0.0, 0.0, 0.0, 0.0, 0.0, 1.6212658020499525E9, 2021-05-17 17:36:42.049
37.0, 16.85198974609375, -129.9372100830078, 122.4555435180664, 210.65921020507812, -0.08000000566244125, 0.0, 1.055999994277954, 0.0, 0.0, 0.0, 0.0, 0.0, 1.6212658020637097E9, 2021-05-17 17:36:42.063
37.0, 11.043924331665039, -142.92214965820312, 117.90408325195312, 204.69781494140625, -0.08000000566244125, 0.0, 1.055999994277954, 0.0, 0.0, 0.0, 0.0, 0.0, 1.6212658020637097E9, 2021-05-17 17:36:42.063
38.0, 18.531204223632812, -130.96942138671875, 113.4835205078125, 212.45436096191406, -0.08000000566244125, 0.0, 1.055999994277954, 0.0, 0.0, 0.0, 0.0, 0.0, 1.6212658020791917E9, 2021-05-17 17:36:42.079
38.0, 30.87661361694336, -132.84310913085938, 127.81855773925781, 219.20863342285156, -0.08000000566244125, 0.0, 1.055999994277954, 0.0, 0.0, 0.0, 0.0, 0.0, 1.6212658020791917E9, 2021-05-17 17:36:42.079
39.0, 16.122709274291992, -143.3223114013672, 122.8332748413086, 210.4871826171875, -0.08000000566244125, 0.0, 1.055999994277954, 0.0, 0.0, 0.0, 0.0, 0.0, 1.6212658020799654E9, 2021-05-17 17:36:42.079
39.0, 12.117276191711426, -149.1790008544922, 123.18856811523438, 204.9259490966797, -0.08000000566244125, 0.0, 1.055999994277954, 0.0, 0.0, 0.0, 0.0, 0.0, 1.6212658020799654E9, 2021-05-17 17:36:42.079
40.0, 24.642200469970703, -142.615478515625, 119.803955078125, 217.52940368652344, -0.08000000566244125, 0.0, 1.055999994277954, 0.0, 0.0, 0.0, 0.0, 0.0, 1.621265802093557E9, 2021-05-17 17:36:42.093
40.0, 30.93271255493164, -132.54019165039062, 126.42731475830078, 225.540283203125, -0.08000000566244125, 0.0, 1.055999994277954, 0.0, 0.0, 0.0, 0.0, 0.0, 1.621265802093557E9, 2021-05-17 17:36:42.093
41.0, 13.605755805969238, -142.26766967773438, 121.10917663574219, 208.75559997558594, -0.08000000566244125, 0.01600000075995922, 1.055999994277954, 0.0, 0.0, 0.0, 0.0, 0.0, 1.6212658021089852E9, 2021-05-17 17:36:42.108
41.0, 14.118122100830078, -146.5573272705078, 116.35950469970703, 210.1094512939453, -0.08000000566244125, 0.01600000075995922, 1.055999994277954, 0.0, 0.0, 0.0, 0.0, 0.0, 1.6212658021089852E9, 2021-05-17 17:36:42.108
42.0, 20.457252502441406, -139.41412353515625, 117.42911529541016, 217.65283203125, -0.06400000303983688, 0.01600000075995922, 1.055999994277954, 0.0, 0.0, 0.0, 0.0, 0.0, 1.6212658021241603E9, 2021-05-17 17:36:42.124
42.0, 20.225378036499023, -130.90211486816406, 120.18916320800781, 227.80665588378906, -0.06400000303983688, 0.01600000075995922, 1.055999994277954, 0.0, 0.0, 0.0, 0.0, 0.0, 1.6212658021241603E9, 2021-05-17 17:36:42.124
43.0, 13.213066101074219, -139.47769165039062, 121.88333892822266, 211.27255249023438, -0.06400000303983688, 0.01600000075995922, 1.055999994277954, 0.0, 0.0, 0.0, 0.0, 0.0, 1.6212658021248715E9, 2021-05-17 17:36:42.124
43.0, 1.5034397840499878, -149.51185607910156, 112.41017150878906, 203.29161071777344, -0.06400000303983688, 0.01600000075995922, 1.055999994277954, 0.0, 0.0, 0.0, 0.0, 0.0, 1.6212658021248715E9, 2021-05-17 17:36:42.124
44.0, 17.82810401916504, -135.655517578125, 116.97285461425781, 213.09388732910156, -0.06400000303983688, 0.01600000075995922, 1.055999994277954, 0.0, 0.0, 0.0, 0.0, 0.0, 1.6212658021393209E9, 2021-05-17 17:36:42.139
44.0, 17.132482528686523, -125.92803955078125, 127.62034606933594, 223.49081420898438, -0.06400000303983688, 0.01600000075995922, 1.055999994277954, 0.0, 0.0, 0.0, 0.0, 0.0, 1.6212658021393209E9, 2021-05-17 17:36:42.139
45.0, 9.596583366394043, -136.68399047851562, 124.0823974609375, 210.84620666503906, -0.06400000303983688, 0.01600000075995922, 1.055999994277954, 0.0, 0.0, 0.0, 0.0, 0.0, 1.621265802139964E9, 2021-05-17 17:36:42.139
45.0, 2.9545209407806396, -139.92648315429688, 128.10653686523438, 204.70529174804688, -0.06400000303983688, 0.01600000075995922, 1.055999994277954, 0.0, 0.0, 0.0, 0.0, 0.0, 1.621265802139964E9, 2021-05-17 17:36:42.139
46.0, 20.08700180053711, -129.98583984375, 126.19918060302734, 216.4298858642578, -0.06400000303983688, 0.01600000075995922, 1.055999994277954, 0.0, 0.0, 0.0, 0.0, 0.0, 1.6212658021535437E9, 2021-05-17 17:36:42.153
46.0, 23.452913284301758, -128.47491455078125, 129.93161010742188, 222.17062377929688, -0.06400000303983688, 0.01600000075995922, 1.055999994277954, 0.0, 0.0, 0.0, 0.0, 0.0, 1.6212658021535437E9, 2021-05-17 17:36:42.153
47.0, 17.005325317382812, -140.12844848632812, 129.6361541748047, 204.82122802734375, -0.06400000303983688, 0.01600000075995922, 1.055999994277954, 0.0, 0.0, 0.0, 0.0, 0.0, 1.6212658021696205E9, 2021-05-17 17:36:42.169
47.0, 10.827010154724121, -143.9244384765625, 130.89649963378906, 203.15322875976562, -0.06400000303983688, 0.01600000075995922, 1.055999994277954, 0.0, 0.0, 0.0, 0.0, 0.0, 1.6212658021696205E9, 2021-05-17 17:36:42.169
48.0, 28.744871139526367, -134.49615478515625, 131.10592651367188, 208.46763610839844, -0.06400000303983688, 0.01600000075995922, 1.055999994277954, 0.0, 0.0, 0.0, 0.0, 0.0, 1.621265802184307E9, 2021-05-17 17:36:42.184
48.0, 30.143592834472656, -130.07933044433594, 131.27796936035156, 220.4502716064453, -0.06400000303983688, 0.01600000075995922, 1.055999994277954, 0.0, 0.0, 0.0, 0.0, 0.0, 1.621265802184307E9, 2021-05-17 17:36:42.184
49.0, 13.20932674407959, -134.90005493164062, 132.24659729003906, 211.19027709960938, -0.06400000303983688, 0.01600000075995922, 1.055999994277954, 0.0, 0.0, 0.0, 0.0, 0.0, 1.621265802184909E9, 2021-05-17 17:36:42.184
49.0, 8.018345832824707, -139.3430633544922, 122.515380859375, 206.21621704101562, -0.06400000303983688, 0.01600000075995922, 1.055999994277954, 0.0, 0.0, 0.0, 0.0, 0.0, 1.621265802184909E9, 2021-05-17 17:36:42.184
50.0, 22.114028930664062, -137.41700744628906, 121.93943786621094, 212.15142822265625, -0.06400000303983688, 0.01600000075995922, 1.055999994277954, 0.0, 0.0, 0.0, 0.0, 0.0, 1.6212658022156053E9, 2021-05-17 17:36:42.215
50.0, 28.438199996948242, -129.69412231445312, 126.247802734375, 225.51409912109375, -0.06400000303983688, 0.01600000075995922, 1.055999994277954, 0.0, 0.0, 0.0, 0.0, 0.0, 1.6212658022156053E9, 2021-05-17 17:36:42.215
51.0, 12.962492942810059, -143.43077087402344, 125.75039672851562, 211.6764678955078, -0.06400000303983688, 0.01600000075995922, 1.055999994277954, 0.0, 0.0, 0.0, 0.0, 0.0, 1.621265802216336E9, 2021-05-17 17:36:42.216
51.0, 10.890588760375977, -146.4563446044922, 124.18338012695312, 209.83270263671875, -0.06400000303983688, 0.01600000075995922, 1.055999994277954, 0.0, 0.0, 0.0, 0.0, 0.0, 1.621265802216336E9, 2021-05-17 17:36:42.216
52.0, 16.44808006286621, -136.96449279785156, 120.81372833251953, 217.2751007080078, -0.06400000303983688, 0.01600000075995922, 1.055999994277954, 0.0, 0.0, 0.0, 0.0, 0.0, 1.6212658022170863E9, 2021-05-17 17:36:42.217
52.0, 29.735944747924805, -133.1161346435547, 121.7113037109375, 227.0960693359375, -0.06400000303983688, 0.01600000075995922, 1.055999994277954, 0.0, 0.0, 0.0, 0.0, 0.0, 1.6212658022170863E9, 2021-05-17 17:36:42.217
53.0, 13.097129821777344, -140.1658477783203, 124.2768783569336, 214.24951171875, -0.06400000303983688, 0.01600000075995922, 1.055999994277954, 0.0, 0.0, 0.0, 0.0, 0.0, 1.621265802217863E9, 2021-05-17 17:36:42.217
53.0, 8.972020149230957, -141.7740020751953, 121.3896713256836, 207.58876037597656, -0.06400000303983688, 0.01600000075995922, 1.055999994277954, 0.0, 0.0, 0.0, 0.0, 0.0, 1.621265802217863E9, 2021-05-17 17:36:42.217
54.0, 19.9187068939209, -129.46224975585938, 118.9400405883789, 216.29150390625, -0.06400000303983688, 0.01600000075995922, 1.055999994277954, 0.0, 0.0, 0.0, 0.0, 0.0, 1.6212658022285335E9, 2021-05-17 17:36:42.228
54.0, 30.278230667114258, -122.16570281982422, 124.14224243164062, 227.72811889648438, -0.06400000303983688, 0.01600000075995922, 1.055999994277954, 0.0, 0.0, 0.0, 0.0, 0.0, 1.6212658022285335E9, 2021-05-17 17:36:42.228
55.0, 17.181100845336914, -134.0099639892578, 127.15660095214844, 212.84706115722656, -0.06400000303983688, 0.01600000075995922, 1.055999994277954, 0.0, 0.0, 0.0, 0.0, 0.0, 1.6212658022434888E9, 2021-05-17 17:36:42.243
55.0, 13.96104621887207, -138.1238555908203, 128.50296020507812, 211.28378295898438, -0.06400000303983688, 0.01600000075995922, 1.055999994277954, 0.0, 0.0, 0.0, 0.0, 0.0, 1.6212658022434888E9, 2021-05-17 17:36:42.243
56.0, 23.116321563720703, -128.4038543701172, 125.63819885253906, 219.74717712402344, -0.06400000303983688, 0.01600000075995922, 1.055999994277954, 0.0, 0.0, 0.0, 0.0, 0.0, 1.6212658022592185E9, 2021-05-17 17:36:42.259
56.0, 32.858760833740234, -123.108154296875, 130.30934143066406, 228.22552490234375, -0.06400000303983688, 0.01600000075995922, 1.055999994277954, 0.0, 0.0, 0.0, 0.0, 0.0, 1.6212658022592185E9, 2021-05-17 17:36:42.259
57.0, 18.280630111694336, -131.84829711914062, 129.07516479492188, 217.4359130859375, -0.06400000303983688, 0.01600000075995922, 1.055999994277954, 0.0, 0.0, 0.0, 0.0, 0.0, 1.6212658022599225E9, 2021-05-17 17:36:42.259
57.0, 13.96104621887207, -131.8034210205078, 130.8291778564453, 210.6068572998047, -0.06400000303983688, 0.01600000075995922, 1.055999994277954, 0.0, 0.0, 0.0, 0.0, 0.0, 1.6212658022599225E9, 2021-05-17 17:36:42.259
58.0, 11.952720642089844, -130.0194854736328, 125.742919921875, 213.8231658935547, -0.06400000303983688, 0.01600000075995922, 1.055999994277954, 0.0, 0.0, 0.0, 0.0, 0.0, 1.6212658022906005E9, 2021-05-17 17:36:42.290
58.0, 25.745471954345703, -120.14989471435547, 126.3487777709961, 221.61712646484375, -0.06400000303983688, 0.01600000075995922, 1.055999994277954, 0.0, 0.0, 0.0, 0.0, 0.0, 1.6212658022906005E9, 2021-05-17 17:36:42.290
59.0, 7.5171990394592285, -136.18284606933594, 129.9764862060547, 212.71615600585938, -0.06400000303983688, 0.01600000075995922, 1.055999994277954, 0.0, 0.0, 0.0, 0.0, 0.0, 1.621265802291312E9, 2021-05-17 17:36:42.291
59.0, 10.007972717285156, -136.28009033203125, 120.72396850585938, 205.55050659179688, -0.06400000303983688, 0.01600000075995922, 1.055999994277954, 0.0, 0.0, 0.0, 0.0, 0.0, 1.621265802291312E9, 2021-05-17 17:36:42.291
60.0, 10.097729682922363, -133.9089813232422, 117.27952575683594, 211.4296417236328, -0.06400000303983688, 0.01600000075995922, 1.055999994277954, 0.0, 0.0, 0.0, 0.0, 0.0, 1.6212658022920537E9, 2021-05-17 17:36:42.292
60.0, 24.343008041381836, -121.6234130859375, 128.289794921875, 220.1473388671875, -0.06400000303983688, 0.01600000075995922, 1.055999994277954, 0.0, 0.0, 0.0, 0.0, 0.0, 1.6212658022920537E9, 2021-05-17 17:36:42.292
61.0, 9.686341285705566, -140.6108856201172, 128.85824584960938, 207.57379150390625, -0.06400000303983688, 0.01600000075995922, 1.055999994277954, 0.0, 0.0, 0.0, 0.0, 0.0, 1.6212658023035607E9, 2021-05-17 17:36:42.303
61.0, 4.652435779571533, -144.9416961669922, 122.90433502197266, 202.1210174560547, -0.06400000303983688, 0.01600000075995922, 1.055999994277954, 0.0, 0.0, 0.0, 0.0, 0.0, 1.6212658023035607E9, 2021-05-17 17:36:42.303
62.0, 19.72049331665039, -133.6658935546875, 125.30535125732422, 214.77684020996094, -0.06400000303983688, 0.01600000075995922, 1.055999994277954, 0.0, 0.0, 0.0, 0.0, 0.0, 1.6212658023192368E9, 2021-05-17 17:36:42.319
62.0, 27.248910903930664, -126.63114166259766, 127.73628234863281, 218.83090209960938, -0.06400000303983688, 0.01600000075995922, 1.055999994277954, 0.0, 0.0, 0.0, 0.0, 0.0, 1.6212658023192368E9, 2021-05-17 17:36:42.319
63.0, 12.629642486572266, -134.11842346191406, 129.0564727783203, 210.21043395996094, -0.06400000303983688, 0.01600000075995922, 1.055999994277954, 0.0, 0.0, 0.0, 0.0, 0.0, 1.6212658023198805E9, 2021-05-17 17:36:42.319
63.0, 7.419961452484131, -142.46214294433594, 122.21993255615234, 204.54074096679688, -0.06400000303983688, 0.01600000075995922, 1.055999994277954, 0.0, 0.0, 0.0, 0.0, 0.0, 1.6212658023198805E9, 2021-05-17 17:36:42.319
64.0, 15.352289199829102, -130.42713928222656, 125.27542877197266, 212.86949157714844, -0.06400000303983688, 0.01600000075995922, 1.055999994277954, 0.0, 0.0, 0.0, 0.0, 0.0, 1.6212658023500056E9, 2021-05-17 17:36:42.350
64.0, 21.418407440185547, -128.29913330078125, 129.58004760742188, 221.14962768554688, -0.06400000303983688, 0.01600000075995922, 1.055999994277954, 0.0, 0.0, 0.0, 0.0, 0.0, 1.6212658023500056E9, 2021-05-17 17:36:42.350
65.0, 15.015698432922363, -140.58096313476562, 129.639892578125, 212.54786682128906, -0.06400000303983688, 0.01600000075995922, 1.055999994277954, 0.0, 0.0, 0.0, 0.0, 0.0, 1.621265802350612E9, 2021-05-17 17:36:42.350
65.0, 6.623363018035889, -148.85736083984375, 117.33187866210938, 203.66934204101562, -0.06400000303983688, 0.01600000075995922, 1.055999994277954, 0.0, 0.0, 0.0, 0.0, 0.0, 1.621265802350612E9, 2021-05-17 17:36:42.350
66.0, 21.927034378051758, -137.1552276611328, 117.05886840820312, 218.47933959960938, -0.06400000303983688, 0.01600000075995922, 1.055999994277954, 0.0, 0.0, 0.0, 0.0, 0.0, 1.6212658023514583E9, 2021-05-17 17:36:42.351
66.0, 27.42842674255371, -135.64804077148438, 128.43190002441406, 226.70338439941406, -0.06400000303983688, 0.01600000075995922, 1.055999994277954, 0.0, 0.0, 0.0, 0.0, 0.0, 1.6212658023514583E9, 2021-05-17 17:36:42.351
67.0, 14.548211097717285, -143.57662963867188, 130.47763061523438, 214.3804168701172, -0.06400000303983688, 0.01600000075995922, 1.055999994277954, 0.0, 0.0, 0.0, 0.0, 0.0, 1.6212658023635452E9, 2021-05-17 17:36:42.363
67.0, 6.799138069152832, -144.54525756835938, 125.26046752929688, 205.3111572265625, -0.06400000303983688, 0.01600000075995922, 1.055999994277954, 0.0, 0.0, 0.0, 0.0, 0.0, 1.6212658023635452E9, 2021-05-17 17:36:42.363
68.0, 15.666440963745117, -135.10202026367188, 120.51827239990234, 210.6891326904297, -0.06400000303983688, 0.01600000075995922, 1.055999994277954, 0.0, 0.0, 0.0, 0.0, 0.0, 1.6212658023793943E9, 2021-05-17 17:36:42.379
68.0, 25.865148544311523, -129.27525329589844, 127.12294006347656, 223.6591033935547, -0.06400000303983688, 0.01600000075995922, 1.055999994277954, 0.0, 0.0, 0.0, 0.0, 0.0, 1.6212658023793943E9, 2021-05-17 17:36:42.379
69.0, 12.42394733428955, -143.90574645996094, 127.78864288330078, 206.28353881835938, -0.06400000303983688, 0.01600000075995922, 1.055999994277954, 0.0, 0.0, 0.0, 0.0, 0.0, 1.6212658023800182E9, 2021-05-17 17:36:42.380
69.0, 8.29135799407959, -147.21554565429688, 120.0807113647461, 199.34226989746094, -0.06400000303983688, 0.01600000075995922, 1.055999994277954, 0.0, 0.0, 0.0, 0.0, 0.0, 1.6212658023800182E9, 2021-05-17 17:36:42.380
70.0, 16.025470733642578, -143.51304626464844, 117.44781494140625, 207.54388427734375, -0.06400000303983688, 0.01600000075995922, 1.055999994277954, 0.0, 0.0, 0.0, 0.0, 0.0, 1.621265802409901E9, 2021-05-17 17:36:42.409
70.0, 30.465225219726562, -133.93890380859375, 124.8640365600586, 219.67237854003906, -0.06400000303983688, 0.01600000075995922, 1.055999994277954, 0.0, 0.0, 0.0, 0.0, 0.0, 1.621265802409901E9, 2021-05-17 17:36:42.409
71.0, 14.271458625793457, -142.30506896972656, 128.04669189453125, 212.5142059326172, -0.06400000303983688, 0.0, 1.055999994277954, 0.0, 0.0, 0.0, 0.0, 0.0, 1.62126580241059E9, 2021-05-17 17:36:42.410
71.0, 13.744132041931152, -146.44886779785156, 126.0084457397461, 204.6865997314453, -0.06400000303983688, 0.0, 1.055999994277954, 0.0, 0.0, 0.0, 0.0, 0.0, 1.62126580241059E9, 2021-05-17 17:36:42.410
72.0, 19.52975845336914, -139.32061767578125, 118.8989028930664, 211.13792419433594, -0.06400000303983688, 0.0, 1.055999994277954, 0.0, 0.0, 0.0, 0.0, 0.0, 1.6212658024113529E9, 2021-05-17 17:36:42.411
72.0, 30.252050399780273, -133.77809143066406, 120.6304702758789, 223.95082092285156, -0.06400000303983688, 0.0, 1.055999994277954, 0.0, 0.0, 0.0, 0.0, 0.0, 1.6212658024113529E9, 2021-05-17 17:36:42.411
73.0, 18.0113582611084, -140.46128845214844, 129.89047241210938, 215.20318603515625, -0.06400000303983688, 0.0, 1.055999994277954, 0.0, 0.0, 0.0, 0.0, 0.0, 1.621265802423587E9, 2021-05-17 17:36:42.423
73.0, 10.45676040649414, -148.2552490234375, 124.53118896484375, 207.44290161132812, -0.06400000303983688, 0.0, 1.055999994277954, 0.0, 0.0, 0.0, 0.0, 0.0, 1.621265802423587E9, 2021-05-17 17:36:42.423
74.0, 21.16783332824707, -133.4115753173828, 126.01219177246094, 216.28028869628906, -0.06400000303983688, 0.0, 1.055999994277954, 0.0, 0.0, 0.0, 0.0, 0.0, 1.6212658024391856E9, 2021-05-17 17:36:42.439
74.0, 28.34844207763672, -125.7560043334961, 135.0664825439453, 223.12803649902344, -0.06400000303983688, 0.0, 1.055999994277954, 0.0, 0.0, 0.0, 0.0, 0.0, 1.6212658024391856E9, 2021-05-17 17:36:42.439
75.0, 13.673073768615723, -129.3911895751953, 130.0662384033203, 211.98687744140625, -0.06400000303983688, 0.0, 1.055999994277954, 0.0, 0.0, 0.0, 0.0, 0.0, 1.6212658024398968E9, 2021-05-17 17:36:42.439
75.0, 8.844862937927246, -139.41412353515625, 125.9299087524414, 213.57260131835938, -0.06400000303983688, 0.0, 1.055999994277954, 0.0, 0.0, 0.0, 0.0, 0.0, 1.6212658024398968E9, 2021-05-17 17:36:42.439
76.0, 16.560277938842773, -133.2432861328125, 123.58873748779297, 220.59239196777344, -0.06400000303983688, 0.0, 1.055999994277954, 0.0, 0.0, 0.0, 0.0, 0.0, 1.6212658024699028E9, 2021-05-17 17:36:42.469
76.0, 30.42408561706543, -121.89269256591797, 130.46641540527344, 229.8224639892578, -0.06400000303983688, 0.0, 1.055999994277954, 0.0, 0.0, 0.0, 0.0, 0.0, 1.6212658024699028E9, 2021-05-17 17:36:42.469
77.0, 14.8623628616333, -134.19696044921875, 133.2414093017578, 215.11717224121094, -0.06400000303983688, 0.0, 1.055999994277954, 0.0, 0.0, 0.0, 0.0, 0.0, 1.6212658024706736E9, 2021-05-17 17:36:42.470
77.0, 6.256852626800537, -146.19456481933594, 123.25214385986328, 207.0801239013672, -0.06400000303983688, 0.0, 1.055999994277954, 0.0, 0.0, 0.0, 0.0, 0.0, 1.6212658024706736E9, 2021-05-17 17:36:42.470
78.0, 21.003278732299805, -133.1647491455078, 125.2043685913086, 220.76815795898438, -0.06400000303983688, 0.0, 1.055999994277954, 0.0, 0.0, 0.0, 0.0, 0.0, 1.621265802471404E9, 2021-05-17 17:36:42.471
78.0, 16.092788696289062, -129.16305541992188, 132.5532684326172, 229.02960205078125, -0.06400000303983688, 0.0, 1.055999994277954, 0.0, 0.0, 0.0, 0.0, 0.0, 1.621265802471404E9, 2021-05-17 17:36:42.471
79.0, 4.4168219566345215, -143.00442504882812, 130.69081115722656, 212.7236328125, -0.06400000303983688, 0.0, 1.055999994277954, 0.0, 0.0, 0.0, 0.0, 0.0, 1.6212658024836147E9, 2021-05-17 17:36:42.483
79.0, -0.06731820106506348, -143.7860565185547, 125.09591674804688, 202.0537109375, -0.06400000303983688, 0.0, 1.055999994277954, 0.0, 0.0, 0.0, 0.0, 0.0, 1.6212658024836147E9, 2021-05-17 17:36:42.483
80.0, 7.764032363891602, -141.05593872070312, 122.1526107788086, 208.08242797851562, -0.06400000303983688, 0.0, 1.055999994277954, 0.0, 0.0, 0.0, 0.0, 0.0, 1.621265802499241E9, 2021-05-17 17:36:42.499
80.0, 19.208126068115234, -138.7222442626953, 129.1724090576172, 216.97216796875, -0.06400000303983688, 0.0, 1.055999994277954, 0.0, 0.0, 0.0, 0.0, 0.0, 1.621265802499241E9, 2021-05-17 17:36:42.499
81.0, 17.59248924255371, -146.1309814453125, 124.0001220703125, 207.18484497070312, -0.06400000303983688, 0.0, 1.055999994277954, 0.0, 0.0, 0.0, 0.0, 0.0, 1.621265802499982E9, 2021-05-17 17:36:42.499
81.0, 6.197014331817627, -150.8470001220703, 121.06803894042969, 202.36412048339844, -0.06400000303983688, 0.0, 1.055999994277954, 0.0, 0.0, 0.0, 0.0, 0.0, 1.621265802499982E9, 2021-05-17 17:36:42.499
82.0, 16.608896255493164, -142.6566162109375, 121.63276672363281, 213.85308837890625, -0.06400000303983688, 0.0, 1.055999994277954, 0.0, 0.0, 0.0, 0.0, 0.0, 1.6212658025296652E9, 2021-05-17 17:36:42.529
82.0, 30.031396865844727, -131.73609924316406, 130.90771484375, 219.3395233154297, -0.06400000303983688, 0.0, 1.055999994277954, 0.0, 0.0, 0.0, 0.0, 0.0, 1.6212658025296652E9, 2021-05-17 17:36:42.529
83.0, 14.765125274658203, -140.64828491210938, 127.95319366455078, 207.68972778320312, -0.06400000303983688, 0.0, 1.055999994277954, 0.0, 0.0, 0.0, 0.0, 0.0, 1.62126580253038E9, 2021-05-17 17:36:42.530
83.0, 10.475460052490234, -146.3852996826172, 121.95439910888672, 203.72918701171875, -0.06400000303983688, 0.0, 1.055999994277954, 0.0, 0.0, 0.0, 0.0, 0.0, 1.62126580253038E9, 2021-05-17 17:36:42.530
84.0, 20.28521728515625, -139.85916137695312, 122.59017944335938, 211.5455780029297, -0.06400000303983688, 0.0, 1.055999994277954, 0.0, 0.0, 0.0, 0.0, 0.0, 1.6212658025442405E9, 2021-05-17 17:36:42.544
84.0, 27.768756866455078, -129.9372100830078, 125.63819885253906, 221.6694793701172, -0.06400000303983688, 0.0, 1.055999994277954, 0.0, 0.0, 0.0, 0.0, 0.0, 1.6212658025442405E9, 2021-05-17 17:36:42.544
85.0, 18.389087677001953, -139.9451904296875, 136.49139404296875, 216.6767120361328, -0.06400000303983688, 0.0, 1.055999994277954, 0.0, 0.0, 0.0, 0.0, 0.0, 1.6212658025449424E9, 2021-05-17 17:36:42.544
85.0, 14.361215591430664, -147.00238037109375, 124.8640365600586, 203.9573211669922, -0.06400000303983688, 0.0, 1.055999994277954, 0.0, 0.0, 0.0, 0.0, 0.0, 1.6212658025449424E9, 2021-05-17 17:36:42.544
86.0, 24.87781524658203, -131.1302490234375, 125.08843231201172, 215.3228759765625, -0.06400000303983688, 0.0, 1.055999994277954, 0.0, 0.0, 0.0, 0.0, 0.0, 1.6212658025592785E9, 2021-05-17 17:36:42.559
86.0, 35.09522247314453, -121.4588623046875, 133.44711303710938, 227.53738403320312, -0.06400000303983688, 0.0, 1.055999994277954, 0.0, 0.0, 0.0, 0.0, 0.0, 1.6212658025592785E9, 2021-05-17 17:36:42.559
87.0, 18.119815826416016, -137.9480743408203, 128.09906005859375, 215.3939208984375, -0.06400000303983688, 0.0, 1.055999994277954, 0.0, 0.0, 0.0, 0.0, 0.0, 1.621265802560018E9, 2021-05-17 17:36:42.560
87.0, 10.064070701599121, -142.75384521484375, 132.0670928955078, 209.1819610595703, -0.06400000303983688, 0.0, 1.055999994277954, 0.0, 0.0, 0.0, 0.0, 0.0, 1.621265802560018E9, 2021-05-17 17:36:42.560
88.0, 25.913766860961914, -132.0614776611328, 127.65774536132812, 219.95660400390625, -0.06400000303983688, 0.0, 1.055999994277954, 0.0, 0.0, 0.0, 0.0, 0.0, 1.6212658025735023E9, 2021-05-17 17:36:42.573
88.0, 38.37137222290039, -125.38201904296875, 133.43589782714844, 227.81039428710938, -0.06400000303983688, 0.0, 1.055999994277954, 0.0, 0.0, 0.0, 0.0, 0.0, 1.6212658025735023E9, 2021-05-17 17:36:42.573
89.0, 12.913874626159668, -139.0438690185547, 127.13041687011719, 205.24383544921875, -0.06400000303983688, 0.0, 1.055999994277954, 0.0, 0.0, 0.0, 0.0, 0.0, 1.6212658025892568E9, 2021-05-17 17:36:42.589
89.0, 11.017745018005371, -141.46359252929688, 123.6784896850586, 202.6446075439453, -0.06400000303983688, 0.0, 1.055999994277954, 0.0, 0.0, 0.0, 0.0, 0.0, 1.6212658025892568E9, 2021-05-17 17:36:42.589
90.0, 11.690927505493164, -132.5663604736328, 120.68656921386719, 208.38162231445312, -0.06400000303983688, 0.0, 1.055999994277954, 0.0, 0.0, 0.0, 0.0, 0.0, 1.6212658025899494E9, 2021-05-17 17:36:42.589
90.0, 23.62868881225586, -121.74309539794922, 127.0705795288086, 223.98822021484375, -0.06400000303983688, 0.0, 1.055999994277954, 0.0, 0.0, 0.0, 0.0, 0.0, 1.6212658025899494E9, 2021-05-17 17:36:42.589
91.0, 4.742193222045898, -132.4242401123047, 125.26046752929688, 213.04527282714844, -0.06400000303983688, 0.0, 1.055999994277954, 0.0, 0.0, 0.0, 0.0, 0.0, 1.621265802603446E9, 2021-05-17 17:36:42.603
91.0, -0.7591996788978577, -138.42678833007812, 118.6819839477539, 196.52613830566406, -0.06400000303983688, 0.0, 1.055999994277954, 0.0, 0.0, 0.0, 0.0, 0.0, 1.621265802603446E9, 2021-05-17 17:36:42.603
92.0, 15.423347473144531, -133.7855682373047, 119.26167297363281, 205.516845703125, -0.06400000303983688, 0.0, 1.055999994277954, 0.0, 0.0, 0.0, 0.0, 0.0, 1.621265802652037E9, 2021-05-17 17:36:42.652
92.0, 21.766218185424805, -125.01924896240234, 127.60538482666016, 216.98338317871094, -0.06400000303983688, 0.0, 1.055999994277954, 0.0, 0.0, 0.0, 0.0, 0.0, 1.621265802652037E9, 2021-05-17 17:36:42.652
93.0, 15.74871826171875, -136.27635192871094, 125.8064956665039, 204.8025360107422, -0.06400000303983688, 0.0, 1.055999994277954, 0.0, 0.0, 0.0, 0.0, 0.0, 1.621265802652714E9, 2021-05-17 17:36:42.652
93.0, 7.995905876159668, -141.7216339111328, 119.56085968017578, 204.18919372558594, -0.06400000303983688, 0.0, 1.055999994277954, 0.0, 0.0, 0.0, 0.0, 0.0, 1.621265802652714E9, 2021-05-17 17:36:42.652
94.0, 15.049357414245605, -137.24871826171875, 116.03787231445312, 211.46328735351562, -0.06400000303983688, 0.0, 1.055999994277954, 0.0, 0.0, 0.0, 0.0, 0.0, 1.6212658026534312E9, 2021-05-17 17:36:42.653
94.0, 25.524816513061523, -129.20045471191406, 127.46701049804688, 223.00088500976562, -0.06400000303983688, 0.0, 1.055999994277954, 0.0, 0.0, 0.0, 0.0, 0.0, 1.6212658026534312E9, 2021-05-17 17:36:42.653
95.0, 15.808557510375977, -137.92190551757812, 132.74400329589844, 212.32347106933594, -0.06400000303983688, 0.0, 1.055999994277954, 0.0, 0.0, 0.0, 0.0, 0.0, 1.6212658026541839E9, 2021-05-17 17:36:42.654
95.0, 19.327802658081055, -145.98138427734375, 124.42646789550781, 208.063720703125, -0.06400000303983688, 0.0, 1.055999994277954, 0.0, 0.0, 0.0, 0.0, 0.0, 1.6212658026541839E9, 2021-05-17 17:36:42.654
96.0, 27.073135375976562, -143.18768310546875, 123.77572631835938, 210.8723907470703, -0.06400000303983688, 0.0, 1.055999994277954, 0.0, 0.0, 0.0, 0.0, 0.0, 1.621265802664205E9, 2021-05-17 17:36:42.664
96.0, 42.115013122558594, -136.2950439453125, 128.42816162109375, 226.25833129882812, -0.06400000303983688, 0.0, 1.055999994277954, 0.0, 0.0, 0.0, 0.0, 0.0, 1.621265802664205E9, 2021-05-17 17:36:42.664
97.0, 20.360015869140625, -138.47166442871094, 129.04150390625, 207.4803009033203, -0.06400000303983688, 0.0, 1.055999994277954, 0.0, 0.0, 0.0, 0.0, 0.0, 1.6212658026649623E9, 2021-05-17 17:36:42.664
97.0, 16.698654174804688, -147.09213256835938, 128.99288940429688, 197.8201446533203, -0.06400000303983688, 0.0, 1.055999994277954, 0.0, 0.0, 0.0, 0.0, 0.0, 1.6212658026649623E9, 2021-05-17 17:36:42.664
98.0, 32.376312255859375, -134.5223388671875, 126.9060287475586, 209.93740844726562, -0.06400000303983688, 0.0, 1.055999994277954, 0.0, 0.0, 0.0, 0.0, 0.0, 1.6212658026791954E9, 2021-05-17 17:36:42.679
98.0, 38.00486373901367, -120.09379577636719, 138.05093383789062, 219.45919799804688, -0.06400000303983688, 0.0, 1.055999994277954, 0.0, 0.0, 0.0, 0.0, 0.0, 1.6212658026791954E9, 2021-05-17 17:36:42.679
99.0, 26.620607376098633, -130.54681396484375, 135.907958984375, 210.67417907714844, -0.06400000303983688, 0.0, 1.055999994277954, 0.0, 0.0, 0.0, 0.0, 0.0, 1.6212658026799192E9, 2021-05-17 17:36:42.679
99.0, 12.330450057983398, -135.3937225341797, 125.87380981445312, 203.34022521972656, -0.06400000303983688, 0.0, 1.055999994277954, 0.0, 0.0, 0.0, 0.0, 0.0, 1.6212658026799192E9, 2021-05-17 17:36:42.679
100.0, 27.376068115234375, -129.15184020996094, 122.17879486083984, 207.64859008789062, -0.06400000303983688, 0.0, 1.040000081062317, 0.0, 0.0, 0.0, 0.0, 0.0, 1.6212658026942108E9, 2021-05-17 17:36:42.694
100.0, 27.765016555786133, -124.66769409179688, 128.55157470703125, 218.9580535888672, -0.06400000303983688, 0.0, 1.040000081062317, 0.0, 0.0, 0.0, 0.0, 0.0, 1.6212658026942108E9, 2021-05-17 17:36:42.694
0.0, 14.088203430175781, -135.33949279785156, 125.5858383178711, 206.9249267578125, -0.06400000303983688, 0.0, 1.040000081062317, 0.0, 0.0, 0.0, 0.0, 0.0, 1.6212658026949072E9, 2021-05-17 17:36:42.694
1.0, 1.469780683517456, -143.64955139160156, 118.83905792236328, 194.2990264892578, -0.06400000303983688, 0.0, 1.040000081062317, 0.0, 0.0, 0.0, 0.0, 0.0, 1.6212658027084744E9, 2021-05-17 17:36:42.708
1.0, 14.421053886413574, -142.84547424316406, 116.98033142089844, 201.17669677734375, -0.06400000303983688, 0.0, 1.040000081062317, 0.0, 0.0, 0.0, 0.0, 0.0, 1.6212658027084744E9, 2021-05-17 17:36:42.708
2.0, 20.176759719848633, -136.40162658691406, 119.94981384277344, 209.7971649169922, -0.06400000303983688, 0.0, 1.040000081062317, 0.0, 0.0, 0.0, 0.0, 0.0, 1.6212658027243023E9, 2021-05-17 17:36:42.724
2.0, 8.336236953735352, -143.86647033691406, 119.77777862548828, 200.92987060546875, -0.06400000303983688, 0.0, 1.040000081062317, 0.0, 0.0, 0.0, 0.0, 0.0, 1.6212658027243023E9, 2021-05-17 17:36:42.724
3.0, 3.212574005126953, -153.6762237548828, 113.79393768310547, 193.93624877929688, -0.06400000303983688, 0.0, 1.040000081062317, 0.0, 0.0, 0.0, 0.0, 0.0, 1.6212658027250164E9, 2021-05-17 17:36:42.725
3.0, 11.582469940185547, -146.56668090820312, 117.9975814819336, 206.3302764892578, -0.06400000303983688, 0.0, 1.040000081062317, 0.0, 0.0, 0.0, 0.0, 0.0, 1.6212658027250164E9, 2021-05-17 17:36:42.725
4.0, 21.22393226623535, -136.9326934814453, 123.38677978515625, 216.80947875976562, -0.06400000303983688, 0.0, 1.040000081062317, 0.0, 0.0, 0.0, 0.0, 0.0, 1.6212658027385018E9, 2021-05-17 17:36:42.738
4.0, 13.242985725402832, -145.32876586914062, 125.63819885253906, 202.61282348632812, -0.06400000303983688, 0.0, 1.040000081062317, 0.0, 0.0, 0.0, 0.0, 0.0, 1.6212658027385018E9, 2021-05-17 17:36:42.738
5.0, 10.557737350463867, -150.8750457763672, 124.46761322021484, 198.54380798339844, -0.06400000303983688, 0.0, 1.040000081062317, 0.0, 0.0, 0.0, 0.0, 0.0, 1.6212658027541428E9, 2021-05-17 17:36:42.754
5.0, 23.348196029663086, -140.5828399658203, 122.13764953613281, 206.7229766845703, -0.06400000303983688, 0.0, 1.040000081062317, 0.0, 0.0, 0.0, 0.0, 0.0, 1.6212658027541428E9, 2021-05-17 17:36:42.754
6.0, 33.64039993286133, -137.97613525390625, 125.45120239257812, 220.7438507080078, -0.06400000303983688, 0.0, 1.040000081062317, 0.0, 0.0, 0.0, 0.0, 0.0, 1.621265802769487E9, 2021-05-17 17:36:42.769
6.0, 20.849943161010742, -144.3975372314453, 125.52226257324219, 204.32569885253906, -0.06400000303983688, 0.0, 1.040000081062317, 0.0, 0.0, 0.0, 0.0, 0.0, 1.621265802769487E9, 2021-05-17 17:36:42.769
7.0, 12.031258583068848, -154.1474609375, 121.01568603515625, 198.80934143066406, -0.06400000303983688, 0.0, 1.040000081062317, 0.0, 0.0, 0.0, 0.0, 0.0, 1.6212658027848904E9, 2021-05-17 17:36:42.784
7.0, 29.09642219543457, -142.66970825195312, 121.69634246826172, 205.02879333496094, -0.06400000303983688, 0.0, 1.040000081062317, 0.0, 0.0, 0.0, 0.0, 0.0, 1.6212658027848904E9, 2021-05-17 17:36:42.784
8.0, 38.18811798095703, -131.63699340820312, 125.68307495117188, 215.76979064941406, -0.06400000303983688, 0.0, 1.040000081062317, 0.0, 0.0, 0.0, 0.0, 0.0, 1.6212658027856233E9, 2021-05-17 17:36:42.785
8.0, 22.330942153930664, -139.01956176757812, 129.01907348632812, 211.21832275390625, -0.06400000303983688, 0.0, 1.040000081062317, 0.0, 0.0, 0.0, 0.0, 0.0, 1.6212658027856233E9, 2021-05-17 17:36:42.785
9.0, 16.44808006286621, -140.05551147460938, 125.14826965332031, 206.01612854003906, -0.06400000303983688, 0.0, 1.040000081062317, 0.0, 0.0, 0.0, 0.0, 0.0, 1.6212658027863748E9, 2021-05-17 17:36:42.786
9.0, 26.56077003479004, -129.67355346679688, 126.11690521240234, 217.96136474609375, -0.06400000303983688, 0.0, 1.040000081062317, 0.0, 0.0, 0.0, 0.0, 0.0, 1.6212658027863748E9, 2021-05-17 17:36:42.786
10.0, 29.60504722595215, -122.88188934326172, 125.94113159179688, 219.4348907470703, -0.06400000303983688, 0.0, 1.040000081062317, 0.0, 0.0, 0.0, 0.0, 0.0, 1.6212658027984726E9, 2021-05-17 17:36:42.798
10.0, 14.955860137939453, -133.1553955078125, 128.16636657714844, 208.94821166992188, -0.06400000303983688, 0.0, 1.040000081062317, 0.0, 0.0, 0.0, 0.0, 0.0, 1.6212658027984726E9, 2021-05-17 17:36:42.798
11.0, 2.640369415283203, -141.3270721435547, 121.89456176757812, 203.8282928466797, -0.06400000303983688, 0.01600000075995922, 1.040000081062317, 0.0, 0.0, 0.0, 0.0, 0.0, 1.6212658028143137E9, 2021-05-17 17:36:42.814
11.0, 3.231273651123047, -132.71034240722656, 119.97225189208984, 210.08140563964844, -0.06400000303983688, 0.01600000075995922, 1.040000081062317, 0.0, 0.0, 0.0, 0.0, 0.0, 1.6212658028143137E9, 2021-05-17 17:36:42.814
12.0, 13.332743644714355, -122.26854705810547, 123.24840545654297, 223.41787719726562, -0.06400000303983688, 0.01600000075995922, 1.040000081062317, 0.0, 0.0, 0.0, 0.0, 0.0, 1.6212658028149438E9, 2021-05-17 17:36:42.814
12.0, 3.863316535949707, -129.24720764160156, 123.65231323242188, 209.0117950439453, -0.06400000303983688, 0.01600000075995922, 1.040000081062317, 0.0, 0.0, 0.0, 0.0, 0.0, 1.6212658028149438E9, 2021-05-17 17:36:42.814
13.0, -6.264332294464111, -141.74220275878906, 119.06719207763672, 195.62294006347656, -0.06400000303983688, 0.01600000075995922, 1.040000081062317, 0.0, 0.0, 0.0, 0.0, 0.0, 1.6212658028286233E9, 2021-05-17 17:36:42.828
13.0, 8.268918991088867, -136.56619262695312, 121.34479522705078, 208.94821166992188, -0.06400000303983688, 0.01600000075995922, 1.040000081062317, 0.0, 0.0, 0.0, 0.0, 0.0, 1.6212658028286233E9, 2021-05-17 17:36:42.828
14.0, 12.764278411865234, -133.44337463378906, 122.7322998046875, 216.03158569335938, -0.06400000303983688, 0.01600000075995922, 1.040000081062317, 0.0, 0.0, 0.0, 0.0, 0.0, 1.6212658028441944E9, 2021-05-17 17:36:42.844
14.0, 7.449880599975586, -147.26229858398438, 120.29014587402344, 199.6620330810547, -0.06400000303983688, 0.01600000075995922, 1.040000081062317, 0.0, 0.0, 0.0, 0.0, 0.0, 1.6212658028441944E9, 2021-05-17 17:36:42.844
15.0, 1.6156368255615234, -154.98146057128906, 115.99673461914062, 193.9998321533203, -0.06400000303983688, 0.01600000075995922, 1.040000081062317, 0.0, 0.0, 0.0, 0.0, 0.0, 1.6212658028449073E9, 2021-05-17 17:36:42.844
15.0, 18.63966178894043, -142.95767211914062, 112.30919647216797, 202.388427734375, -0.06400000303983688, 0.01600000075995922, 1.040000081062317, 0.0, 0.0, 0.0, 0.0, 0.0, 1.6212658028449073E9, 2021-05-17 17:36:42.844
16.0, 26.994598388671875, -138.02474975585938, 118.73434448242188, 212.9087677001953, -0.06400000303983688, 0.01600000075995922, 1.040000081062317, 0.0, 0.0, 0.0, 0.0, 0.0, 1.6212658028585515E9, 2021-05-17 17:36:42.858
16.0, 16.006771087646484, -146.70130920410156, 120.69031524658203, 202.44451904296875, -0.06400000303983688, 0.01600000075995922, 1.040000081062317, 0.0, 0.0, 0.0, 0.0, 0.0, 1.6212658028585515E9, 2021-05-17 17:36:42.858
17.0, 15.008218765258789, -151.29017639160156, 115.6077880859375, 192.4215850830078, -0.06400000303983688, 0.01600000075995922, 1.040000081062317, 0.0, 0.0, 0.0, 0.0, 0.0, 1.621265802874473E9, 2021-05-17 17:36:42.874
17.0, 28.531696319580078, -144.38258361816406, 120.02835083007812, 203.46177673339844, -0.06400000303983688, 0.01600000075995922, 1.040000081062317, 0.0, 0.0, 0.0, 0.0, 0.0, 1.621265802874473E9, 2021-05-17 17:36:42.874
18.0, 39.351226806640625, -135.69105529785156, 129.815673828125, 218.27552795410156, -0.06400000303983688, 0.01600000075995922, 1.040000081062317, 0.0, 0.0, 0.0, 0.0, 0.0, 1.6212658028892636E9, 2021-05-17 17:36:42.889
18.0, 28.830888748168945, -147.96165466308594, 132.88986206054688, 210.95654296875, -0.06400000303983688, 0.01600000075995922, 1.040000081062317, 0.0, 0.0, 0.0, 0.0, 0.0, 1.6212658028892636E9, 2021-05-17 17:36:42.889
19.0, 17.255897521972656, -155.89024353027344, 125.58209991455078, 203.66746520996094, -0.06400000303983688, 0.01600000075995922, 1.040000081062317, 0.0, 0.0, 0.0, 0.0, 0.0, 1.6212658028899372E9, 2021-05-17 17:36:42.889
19.0, 22.7647705078125, -141.7272491455078, 127.13041687011719, 210.67977905273438, -0.06400000303983688, 0.01600000075995922, 1.040000081062317, 0.0, 0.0, 0.0, 0.0, 0.0, 1.6212658028899372E9, 2021-05-17 17:36:42.889
20.0, 28.46063804626465, -130.59356689453125, 128.89939880371094, 224.255615234375, -0.06400000303983688, 0.01600000075995922, 1.040000081062317, 0.0, 0.0, 0.0, 0.0, 0.0, 1.6212658029042723E9, 2021-05-17 17:36:42.904
20.0, 8.646648406982422, -135.6237335205078, 126.10194396972656, 213.17430114746094, -0.06400000303983688, 0.01600000075995922, 1.040000081062317, 0.0, 0.0, 0.0, 0.0, 0.0, 1.6212658029042723E9, 2021-05-17 17:36:42.904
21.0, -2.3187379837036133, -135.85934448242188, 118.44637298583984, 203.2373809814453, -0.06400000303983688, 0.0, 1.040000081062317, 0.0, 0.0, 0.0, 0.0, 0.0, 1.6212658029049203E9, 2021-05-17 17:36:42.904
21.0, 2.969480514526367, -127.15660095214844, 120.91470336914062, 216.09515380859375, -0.06400000303983688, 0.0, 1.040000081062317, 0.0, 0.0, 0.0, 0.0, 0.0, 1.6212658029049203E9, 2021-05-17 17:36:42.904
22.0, 21.179054260253906, -120.1031494140625, 127.17155456542969, 226.9259033203125, -0.06400000303983688, 0.0, 1.040000081062317, 0.0, 0.0, 0.0, 0.0, 0.0, 1.6212658029186957E9, 2021-05-17 17:36:42.918
22.0, 6.137176036834717, -132.70660400390625, 124.85655975341797, 212.16452026367188, -0.06400000303983688, 0.0, 1.040000081062317, 0.0, 0.0, 0.0, 0.0, 0.0, 1.6212658029186957E9, 2021-05-17 17:36:42.918
23.0, -2.9246017932891846, -141.99652099609375, 118.7605209350586, 203.34584045410156, -0.06400000303983688, 0.0, 1.040000081062317, 0.0, 0.0, 0.0, 0.0, 0.0, 1.621265802934693E9, 2021-05-17 17:36:42.934
23.0, 12.992412567138672, -134.69248962402344, 121.43829345703125, 210.95278930664062, -0.06400000303983688, 0.0, 1.040000081062317, 0.0, 0.0, 0.0, 0.0, 0.0, 1.621265802934693E9, 2021-05-17 17:36:42.934
24.0, 18.837875366210938, -126.73399353027344, 125.01363372802734, 223.26080322265625, -0.06400000303983688, 0.0, 1.040000081062317, 0.0, 0.0, 0.0, 0.0, 0.0, 1.6212658029493985E9, 2021-05-17 17:36:42.949
24.0, 11.257099151611328, -138.0696258544922, 128.30474853515625, 212.9910430908203, -0.06400000303983688, 0.0, 1.040000081062317, 0.0, 0.0, 0.0, 0.0, 0.0, 1.6212658029493985E9, 2021-05-17 17:36:42.949
25.0, 6.615882873535156, -148.78070068359375, 123.196044921875, 202.8559112548828, -0.06400000303983688, 0.0, 1.040000081062317, 0.0, 0.0, 0.0, 0.0, 0.0, 1.62126580295011E9, 2021-05-17 17:36:42.950
25.0, 18.845355987548828, -138.52215576171875, 119.91615295410156, 210.2310028076172, -0.06400000303983688, 0.0, 1.040000081062317, 0.0, 0.0, 0.0, 0.0, 0.0, 1.62126580295011E9, 2021-05-17 17:36:42.950
26.0, 31.24312400817871, -129.4342041015625, 124.60598754882812, 217.31436157226562, -0.06400000303983688, 0.0, 1.040000081062317, 0.0, 0.0, 0.0, 0.0, 0.0, 1.6212658029642658E9, 2021-05-17 17:36:42.964
26.0, 19.645694732666016, -138.1668701171875, 124.86029815673828, 199.58349609375, -0.06400000303983688, 0.0, 1.040000081062317, 0.0, 0.0, 0.0, 0.0, 0.0, 1.6212658029642658E9, 2021-05-17 17:36:42.964
27.0, 13.91242790222168, -146.5479736328125, 121.07926177978516, 193.45005798339844, -0.06400000303983688, 0.0, 1.040000081062317, 0.0, 0.0, 0.0, 0.0, 0.0, 1.621265802965053E9, 2021-05-17 17:36:42.965
27.0, 24.4552059173584, -135.71348571777344, 118.68946838378906, 204.79318237304688, -0.06400000303983688, 0.0, 1.040000081062317, 0.0, 0.0, 0.0, 0.0, 0.0, 1.621265802965053E9, 2021-05-17 17:36:42.965
28.0, 28.531696319580078, -126.9471664428711, 126.43479919433594, 214.15040588378906, -0.06400000303983688, 0.0, 1.040000081062317, 0.0, 0.0, 0.0, 0.0, 0.0, 1.6212658030103505E9, 2021-05-17 17:36:43.010
28.0, 9.424548149108887, -137.0897674560547, 130.03631591796875, 204.0339813232422, -0.06400000303983688, 0.0, 1.040000081062317, 0.0, 0.0, 0.0, 0.0, 0.0, 1.6212658030103505E9, 2021-05-17 17:36:43.010
29.0, 4.1213698387146, -145.60552978515625, 122.1526107788086, 202.47817993164062, -0.06400000303983688, 0.0, 1.040000081062317, 0.0, 0.0, 0.0, 0.0, 0.0, 1.6212658030110211E9, 2021-05-17 17:36:43.011
29.0, 9.454466819763184, -139.19158935546875, 116.4754409790039, 215.4444122314453, -0.06400000303983688, 0.0, 1.040000081062317, 0.0, 0.0, 0.0, 0.0, 0.0, 1.6212658030110211E9, 2021-05-17 17:36:43.011
30.0, 23.198598861694336, -131.11341857910156, 122.1526107788086, 222.19866943359375, -0.06400000303983688, 0.0, 1.055999994277954, 0.0, 0.0, 0.0, 0.0, 0.0, 1.6212658030118291E9, 2021-05-17 17:36:43.011
30.0, 4.27470588684082, -146.5218048095703, 118.39027404785156, 206.13206481933594, -0.06400000303983688, 0.0, 1.055999994277954, 0.0, 0.0, 0.0, 0.0, 0.0, 1.6212658030118291E9, 2021-05-17 17:36:43.011
31.0, -1.017252802848816, -159.3085174560547, 107.8213119506836, 200.12953186035156, -0.06400000303983688, 0.0, 1.055999994277954, 0.0, 0.0, 0.0, 0.0, 0.0, 1.6212658030249093E9, 2021-05-17 17:36:43.024
31.0, 11.892881393432617, -148.3281707763672, 113.73035430908203, 207.0932159423828, -0.06400000303983688, 0.0, 1.055999994277954, 0.0, 0.0, 0.0, 0.0, 0.0, 1.6212658030249093E9, 2021-05-17 17:36:43.024
32.0, 15.086756706237793, -140.00315856933594, 113.58450317382812, 216.36817932128906, -0.08000000566244125, 0.0, 1.055999994277954, 0.0, 0.0, 0.0, 0.0, 0.0, 1.621265803025598E9, 2021-05-17 17:36:43.025
32.0, 5.142362594604492, -145.54568481445312, 119.3402099609375, 204.69219970703125, -0.08000000566244125, 0.0, 1.055999994277954, 0.0, 0.0, 0.0, 0.0, 0.0, 1.621265803025598E9, 2021-05-17 17:36:43.025
33.0, 1.4024624824523926, -153.384521484375, 119.97599029541016, 188.2179412841797, -0.08000000566244125, 0.0, 1.055999994277954, 0.0, 0.0, 0.0, 0.0, 0.0, 1.6212658030263917E9, 2021-05-17 17:36:43.026
33.0, 19.72797203063965, -140.30609130859375, 114.6466293334961, 198.1885223388672, -0.08000000566244125, 0.0, 1.055999994277954, 0.0, 0.0, 0.0, 0.0, 0.0, 1.6212658030263917E9, 2021-05-17 17:36:43.026
34.0, 31.071088790893555, -122.12643432617188, 123.2147445678711, 209.62513732910156, -0.08000000566244125, 0.0, 1.055999994277954, 0.0, 0.0, 0.0, 0.0, 0.0, 1.621265803055586E9, 2021-05-17 17:36:43.055
34.0, 18.542423248291016, -129.27711486816406, 124.93509674072266, 202.54550170898438, -0.08000000566244125, 0.0, 1.055999994277954, 0.0, 0.0, 0.0, 0.0, 0.0, 1.621265803055586E9, 2021-05-17 17:36:43.055
35.0, 15.677660942077637, -136.4689483642578, 129.9428253173828, 202.4333038330078, -0.08000000566244125, 0.0, 1.055999994277954, 0.0, 0.0, 0.0, 0.0, 0.0, 1.6212658030563555E9, 2021-05-17 17:36:43.056
35.0, 20.03090476989746, -121.65894317626953, 127.14163970947266, 218.21568298339844, -0.08000000566244125, 0.0, 1.055999994277954, 0.0, 0.0, 0.0, 0.0, 0.0, 1.6212658030563555E9, 2021-05-17 17:36:43.056
36.0, 32.383792877197266, -113.1207504272461, 125.47738647460938, 229.6859588623047, -0.08000000566244125, 0.0, 1.055999994277954, 0.0, 0.0, 0.0, 0.0, 0.0, 1.621265803057042E9, 2021-05-17 17:36:43.057
36.0, 11.986379623413086, -125.9299087524414, 128.89939880371094, 216.85809326171875, -0.08000000566244125, 0.0, 1.055999994277954, 0.0, 0.0, 0.0, 0.0, 0.0, 1.621265803057042E9, 2021-05-17 17:36:43.057
37.0, 8.055744171142578, -139.7189178466797, 121.40837097167969, 209.2100067138672, -0.08000000566244125, 0.0, 1.055999994277954, 0.0, 0.0, 0.0, 0.0, 0.0, 1.6212658030686052E9, 2021-05-17 17:36:43.068
37.0, 18.97251319885254, -134.90940856933594, 124.87152099609375, 216.02784729003906, -0.08000000566244125, 0.0, 1.055999994277954, 0.0, 0.0, 0.0, 0.0, 0.0, 1.6212658030686052E9, 2021-05-17 17:36:43.068
38.0, 31.104747772216797, -133.90338134765625, 123.46157836914062, 223.7058563232422, -0.08000000566244125, 0.0, 1.055999994277954, 0.0, 0.0, 0.0, 0.0, 0.0, 1.621265803084174E9, 2021-05-17 17:36:43.084
38.0, 14.260238647460938, -150.59829711914062, 118.53238677978516, 198.1548614501953, -0.08000000566244125, 0.0, 1.055999994277954, 0.0, 0.0, 0.0, 0.0, 0.0, 1.621265803084174E9, 2021-05-17 17:36:43.084
39.0, 6.57474422454834, -162.91004943847656, 115.566650390625, 190.03553771972656, -0.08000000566244125, 0.0, 1.055999994277954, 0.0, 0.0, 0.0, 0.0, 0.0, 1.621265803084954E9, 2021-05-17 17:36:43.084
39.0, 25.236845016479492, -161.8217315673828, 115.9705581665039, 194.3625946044922, -0.08000000566244125, 0.0, 1.055999994277954, 0.0, 0.0, 0.0, 0.0, 0.0, 1.621265803084954E9, 2021-05-17 17:36:43.084
40.0, 34.758628845214844, -155.4526824951172, 123.46531677246094, 204.6809844970703, -0.08000000566244125, 0.0, 1.055999994277954, 0.0, 0.0, 0.0, 0.0, 0.0, 1.6212658031303678E9, 2021-05-17 17:36:43.130
40.0, 18.96503257751465, -158.48948669433594, 127.12667846679688, 194.82635498046875, -0.08000000566244125, 0.0, 1.055999994277954, 0.0, 0.0, 0.0, 0.0, 0.0, 1.6212658031303678E9, 2021-05-17 17:36:43.130
41.0, 13.325263977050781, -153.95672607421875, 120.59307098388672, 183.9806365966797, -0.08000000566244125, 0.0, 1.055999994277954, 0.0, 0.0, 0.0, 0.0, 0.0, 1.6212658031311052E9, 2021-05-17 17:36:43.131
41.0, 14.970819473266602, -136.8092803955078, 121.48690795898438, 187.9374542236328, -0.08000000566244125, 0.0, 1.055999994277954, 0.0, 0.0, 0.0, 0.0, 0.0, 1.6212658031311052E9, 2021-05-17 17:36:43.131
42.0, 18.456405639648438, -121.97683715820312, 121.12787628173828, 191.29962158203125, -0.06400000303983688, 0.0, 1.055999994277954, 0.0, 0.0, 0.0, 0.0, 0.0, 1.621265803131837E9, 2021-05-17 17:36:43.131
42.0, -1.0135128498077393, -129.82315063476562, 119.72915649414062, 186.2357940673828, -0.06400000303983688, 0.0, 1.055999994277954, 0.0, 0.0, 0.0, 0.0, 0.0, 1.621265803131837E9, 2021-05-17 17:36:43.131
43.0, -12.472566604614258, -134.19134521484375, 116.63626098632812, 169.83633422851562, -0.06400000303983688, 0.0, 1.055999994277954, 0.0, 0.0, 0.0, 0.0, 0.0, 1.6212658031448517E9, 2021-05-17 17:36:43.144
43.0, -6.735559940338135, -126.8873291015625, 120.76136779785156, 180.96627807617188, -0.06400000303983688, 0.0, 1.055999994277954, 0.0, 0.0, 0.0, 0.0, 0.0, 1.6212658031448517E9, 2021-05-17 17:36:43.144
44.0, 11.201000213623047, -119.13451385498047, 130.7057647705078, 192.62728881835938, -0.06400000303983688, 0.0, 1.055999994277954, 0.0, 0.0, 0.0, 0.0, 0.0, 1.6212658031455903E9, 2021-05-17 17:36:43.145
44.0, -4.401862144470215, -128.20376586914062, 137.79661560058594, 181.45620727539062, -0.06400000303983688, 0.0, 1.055999994277954, 0.0, 0.0, 0.0, 0.0, 0.0, 1.6212658031455903E9, 2021-05-17 17:36:43.145
45.0, -7.745332717895508, -138.1593780517578, 129.9839630126953, 182.18548583984375, -0.06400000303983688, 0.0, 1.055999994277954, 0.0, 0.0, 0.0, 0.0, 0.0, 1.6212658031463387E9, 2021-05-17 17:36:43.146
45.0, 9.95935344696045, -128.8732147216797, 133.39849853515625, 199.94627380371094, -0.06400000303983688, 0.0, 1.055999994277954, 0.0, 0.0, 0.0, 0.0, 0.0, 1.6212658031463387E9, 2021-05-17 17:36:43.146
46.0, 25.48741912841797, -127.55677032470703, 138.12197875976562, 218.97862243652344, -0.06400000303983688, 0.0, 1.055999994277954, 0.0, 0.0, 0.0, 0.0, 0.0, 1.6212658031748903E9, 2021-05-17 17:36:43.174
46.0, 8.23151969909668, -142.68466186523438, 131.8875732421875, 208.01698303222656, -0.06400000303983688, 0.0, 1.055999994277954, 0.0, 0.0, 0.0, 0.0, 0.0, 1.6212658031748903E9, 2021-05-17 17:36:43.174
47.0, 5.284478664398193, -155.2469940185547, 126.67041015625, 202.57168579101562, -0.06400000303983688, 0.0, 1.055999994277954, 0.0, 0.0, 0.0, 0.0, 0.0, 1.6212658031755621E9, 2021-05-17 17:36:43.175
47.0, 20.962139129638672, -153.0067901611328, 121.72252655029297, 215.93434143066406, -0.06400000303983688, 0.0, 1.055999994277954, 0.0, 0.0, 0.0, 0.0, 0.0, 1.6212658031755621E9, 2021-05-17 17:36:43.175
48.0, 33.92463302612305, -154.0165557861328, 126.64423370361328, 229.58123779296875, -0.06400000303983688, 0.0, 1.055999994277954, 0.0, 0.0, 0.0, 0.0, 0.0, 1.6212658031763604E9, 2021-05-17 17:36:43.176
48.0, 28.124048233032227, -157.68165588378906, 130.72071838378906, 219.52090454101562, -0.06400000303983688, 0.0, 1.055999994277954, 0.0, 0.0, 0.0, 0.0, 0.0, 1.6212658031763604E9, 2021-05-17 17:36:43.176
49.0, 19.731712341308594, -173.91282653808594, 122.12269592285156, 206.70053100585938, -0.06400000303983688, 0.0, 1.055999994277954, 0.0, 0.0, 0.0, 0.0, 0.0, 1.6212658032048812E9, 2021-05-17 17:36:43.204
49.0, 34.377159118652344, -154.67852783203125, 119.31402587890625, 212.67315673828125, -0.06400000303983688, 0.0, 1.055999994277954, 0.0, 0.0, 0.0, 0.0, 0.0, 1.6212658032048812E9, 2021-05-17 17:36:43.204
50.0, 35.46921157836914, -142.15733337402344, 119.60199737548828, 213.43983459472656, -0.06400000303983688, 0.0, 1.055999994277954, 0.0, 0.0, 0.0, 0.0, 0.0, 1.6212658032056189E9, 2021-05-17 17:36:43.205
50.0, 24.810495376586914, -141.177490234375, 114.08564758300781, 203.16632080078125, -0.06400000303983688, 0.0, 1.055999994277954, 0.0, 0.0, 0.0, 0.0, 0.0, 1.6212658032056189E9, 2021-05-17 17:36:43.205
51.0, 15.6253023147583, -144.36013793945312, 110.61502075195312, 193.46128845214844, -0.06400000303983688, 0.0, 1.055999994277954, 0.0, 0.0, 0.0, 0.0, 0.0, 1.6212658032063773E9, 2021-05-17 17:36:43.206
51.0, 18.003877639770508, -133.56304931640625, 104.40304565429688, 198.1922607421875, -0.06400000303983688, 0.0, 1.055999994277954, 0.0, 0.0, 0.0, 0.0, 0.0, 1.6212658032063773E9, 2021-05-17 17:36:43.206
52.0, 27.641599655151367, -115.52176666259766, 114.9495620727539, 213.18551635742188, -0.06400000303983688, 0.0, 1.055999994277954, 0.0, 0.0, 0.0, 0.0, 0.0, 1.6212658032348857E9, 2021-05-17 17:36:43.234
52.0, 10.273505210876465, -125.11087036132812, 111.37422180175781, 199.2955322265625, -0.06400000303983688, 0.0, 1.055999994277954, 0.0, 0.0, 0.0, 0.0, 0.0, 1.6212658032348857E9, 2021-05-17 17:36:43.234
53.0, 4.356983661651611, -134.04550170898438, 104.69850158691406, 195.09188842773438, -0.06400000303983688, 0.0, 1.055999994277954, 0.0, 0.0, 0.0, 0.0, 0.0, 1.6212658032356064E9, 2021-05-17 17:36:43.235
53.0, 8.02956485748291, -127.6727066040039, 104.66484069824219, 206.95484924316406, -0.06400000303983688, 0.0, 1.055999994277954, 0.0, 0.0, 0.0, 0.0, 0.0, 1.6212658032356064E9, 2021-05-17 17:36:43.235
54.0, 16.657514572143555, -123.2970199584961, 115.45445251464844, 221.26370239257812, -0.06400000303983688, 0.0, 1.055999994277954, 0.0, 0.0, 0.0, 0.0, 0.0, 1.6212658032363544E9, 2021-05-17 17:36:43.236
54.0, -2.6553289890289307, -132.40367126464844, 112.11846160888672, 207.1343536376953, -0.06400000303983688, 0.0, 1.055999994277954, 0.0, 0.0, 0.0, 0.0, 0.0, 1.6212658032363544E9, 2021-05-17 17:36:43.236
55.0, -4.8805694580078125, -148.7283477783203, 109.54541015625, 198.0314483642578, -0.06400000303983688, 0.0, 1.055999994277954, 0.0, 0.0, 0.0, 0.0, 0.0, 1.6212658032484965E9, 2021-05-17 17:36:43.248
55.0, 11.10376262664795, -147.6662139892578, 114.4222412109375, 205.6982421875, -0.06400000303983688, 0.0, 1.055999994277954, 0.0, 0.0, 0.0, 0.0, 0.0, 1.6212658032484965E9, 2021-05-17 17:36:43.248
56.0, 25.734251022338867, -136.97756958007812, 128.20376586914062, 226.22654724121094, -0.06400000303983688, 0.0, 1.055999994277954, 0.0, 0.0, 0.0, 0.0, 0.0, 1.621265803264188E9, 2021-05-17 17:36:43.264
56.0, 14.159261703491211, -146.37220764160156, 133.2526397705078, 221.04678344726562, -0.06400000303983688, 0.0, 1.055999994277954, 0.0, 0.0, 0.0, 0.0, 0.0, 1.621265803264188E9, 2021-05-17 17:36:43.264
57.0, 12.44638729095459, -161.99002075195312, 130.2756805419922, 210.88548278808594, -0.06400000303983688, 0.0, 1.055999994277954, 0.0, 0.0, 0.0, 0.0, 0.0, 1.6212658032649295E9, 2021-05-17 17:36:43.264
57.0, 27.17411231994629, -159.11404418945312, 136.14358520507812, 226.978271484375, -0.06400000303983688, 0.0, 1.055999994277954, 0.0, 0.0, 0.0, 0.0, 0.0, 1.6212658032649295E9, 2021-05-17 17:36:43.264
58.0, 42.56380081176758, -163.1830596923828, 148.3880157470703, 244.89613342285156, -0.06400000303983688, 0.0, 1.055999994277954, 0.0, 0.0, 0.0, 0.0, 0.0, 1.6212658032946289E9, 2021-05-17 17:36:43.294
58.0, 31.09726905822754, -182.4734649658203, 149.1322479248047, 233.49691772460938, -0.06400000303983688, 0.0, 1.055999994277954, 0.0, 0.0, 0.0, 0.0, 0.0, 1.6212658032946289E9, 2021-05-17 17:36:43.294
59.0, 22.480539321899414, -198.55502319335938, 145.39234924316406, 224.46505737304688, -0.06400000303983688, 0.0, 1.055999994277954, 0.0, 0.0, 0.0, 0.0, 0.0, 1.6212658032953072E9, 2021-05-17 17:36:43.295
59.0, 38.42373275756836, -187.129638671875, 145.13803100585938, 233.11170959472656, -0.06400000303983688, 0.0, 1.055999994277954, 0.0, 0.0, 0.0, 0.0, 0.0, 1.6212658032953072E9, 2021-05-17 17:36:43.295
60.0, 47.511688232421875, -173.30322265625, 146.11415100097656, 244.12196350097656, -0.06400000303983688, 0.0, 1.055999994277954, 0.0, 0.0, 0.0, 0.0, 0.0, 1.6212658033091764E9, 2021-05-17 17:36:43.309
60.0, 36.3854866027832, -175.46115112304688, 151.02838134765625, 238.49716186523438, -0.06400000303983688, 0.0, 1.055999994277954, 0.0, 0.0, 0.0, 0.0, 0.0, 1.6212658033091764E9, 2021-05-17 17:36:43.309
61.0, 24.664640426635742, -169.5334014892578, 147.16506958007812, 232.59185791015625, -0.06400000303983688, 0.01600000075995922, 1.055999994277954, 0.0, 0.0, 0.0, 0.0, 0.0, 1.6212658033098717E9, 2021-05-17 17:36:43.309
61.0, 37.03997039794922, -144.44989013671875, 143.60467529296875, 244.79888916015625, -0.06400000303983688, 0.01600000075995922, 1.055999994277954, 0.0, 0.0, 0.0, 0.0, 0.0, 1.6212658033098717E9, 2021-05-17 17:36:43.309
62.0, 37.97868347167969, -121.84220123291016, 143.208251953125, 250.64810180664062, -0.06400000303983688, 0.01600000075995922, 1.055999994277954, 0.0, 0.0, 0.0, 0.0, 0.0, 1.6212658033241932E9, 2021-05-17 17:36:43.324
62.0, 16.003032684326172, -127.14537811279297, 137.71807861328125, 235.04522705078125, -0.06400000303983688, 0.01600000075995922, 1.055999994277954, 0.0, 0.0, 0.0, 0.0, 0.0, 1.6212658033241932E9, 2021-05-17 17:36:43.324
63.0, 4.843170642852783, -124.97623443603516, 127.80360412597656, 223.55999755859375, -0.06400000303983688, 0.01600000075995922, 1.055999994277954, 0.0, 0.0, 0.0, 0.0, 0.0, 1.621265803324901E9, 2021-05-17 17:36:43.324
63.0, 7.891189098358154, -117.51139831542969, 122.21244812011719, 226.1180877685547, -0.06400000303983688, 0.01600000075995922, 1.055999994277954, 0.0, 0.0, 0.0, 0.0, 0.0, 1.621265803324901E9, 2021-05-17 17:36:43.324
64.0, 15.64026165008545, -110.51030731201172, 126.00096893310547, 233.7923583984375, -0.06400000303983688, 0.01600000075995922, 1.055999994277954, 0.0, 0.0, 0.0, 0.0, 0.0, 1.6212658033384738E9, 2021-05-17 17:36:43.338
64.0, 2.8124048709869385, -120.26022338867188, 119.8637924194336, 214.3935089111328, -0.06400000303983688, 0.01600000075995922, 1.055999994277954, 0.0, 0.0, 0.0, 0.0, 0.0, 1.6212658033384738E9, 2021-05-17 17:36:43.338
65.0, -3.474367141723633, -126.68163299560547, 118.28181457519531, 204.24716186523438, -0.06400000303983688, 0.01600000075995922, 1.055999994277954, 0.0, 0.0, 0.0, 0.0, 0.0, 1.6212658033542504E9, 2021-05-17 17:36:43.354
65.0, 2.225240468978882, -129.11630249023438, 112.31293487548828, 206.57711791992188, -0.06400000303983688, 0.01600000075995922, 1.055999994277954, 0.0, 0.0, 0.0, 0.0, 0.0, 1.6212658033542504E9, 2021-05-17 17:36:43.354
66.0, 15.539284706115723, -125.46990203857422, 117.65351104736328, 209.39700317382812, -0.06400000303983688, 0.01600000075995922, 1.055999994277954, 0.0, 0.0, 0.0, 0.0, 0.0, 1.6212658033549426E9, 2021-05-17 17:36:43.354
66.0, 8.852343559265137, -142.9127960205078, 115.15899658203125, 199.90887451171875, -0.06400000303983688, 0.01600000075995922, 1.055999994277954, 0.0, 0.0, 0.0, 0.0, 0.0, 1.6212658033549426E9, 2021-05-17 17:36:43.354
67.0, 10.123908996582031, -158.36605834960938, 111.10868835449219, 184.63137817382812, -0.06400000303983688, 0.01600000075995922, 1.055999994277954, 0.0, 0.0, 0.0, 0.0, 0.0, 1.6212658033684838E9, 2021-05-17 17:36:43.368
67.0, 15.692620277404785, -152.0194549560547, 111.61357116699219, 191.3706817626953, -0.06400000303983688, 0.01600000075995922, 1.055999994277954, 0.0, 0.0, 0.0, 0.0, 0.0, 1.6212658033684838E9, 2021-05-17 17:36:43.368
68.0, 33.64413833618164, -156.44375610351562, 117.03643035888672, 204.86798095703125, -0.06400000303983688, 0.01600000075995922, 1.055999994277954, 0.0, 0.0, 0.0, 0.0, 0.0, 1.6212658033841674E9, 2021-05-17 17:36:43.384
68.0, 21.837276458740234, -159.13648986816406, 116.60260009765625, 193.73056030273438, -0.06400000303983688, 0.01600000075995922, 1.055999994277954, 0.0, 0.0, 0.0, 0.0, 0.0, 1.6212658033841674E9, 2021-05-17 17:36:43.384
69.0, 20.614328384399414, -171.59408569335938, 116.669921875, 190.24122619628906, -0.06400000303983688, 0.01600000075995922, 1.055999994277954, 0.0, 0.0, 0.0, 0.0, 0.0, 1.621265803384901E9, 2021-05-17 17:36:43.384
69.0, 28.281124114990234, -162.7978515625, 116.02291870117188, 197.7210235595703, -0.06400000303983688, 0.01600000075995922, 1.055999994277954, 0.0, 0.0, 0.0, 0.0, 0.0, 1.621265803384901E9, 2021-05-17 17:36:43.384
70.0, 32.540870666503906, -148.32443237304688, 118.30425262451172, 214.595458984375, -0.06400000303983688, 0.01600000075995922, 1.040000081062317, 0.0, 0.0, 0.0, 0.0, 0.0, 1.62126580339851E9, 2021-05-17 17:36:43.398
70.0, 26.945980072021484, -157.47596740722656, 120.4621810913086, 203.55526733398438, -0.06400000303983688, 0.01600000075995922, 1.040000081062317, 0.0, 0.0, 0.0, 0.0, 0.0, 1.62126580339851E9, 2021-05-17 17:36:43.398
71.0, 14.712766647338867, -169.50347900390625, 117.72830963134766, 198.3942108154297, -0.06400000303983688, 0.0, 1.040000081062317, 0.0, 0.0, 0.0, 0.0, 0.0, 1.6212658034141867E9, 2021-05-17 17:36:43.414
71.0, 25.779130935668945, -155.6247100830078, 123.90662384033203, 209.8046417236328, -0.06400000303983688, 0.0, 1.040000081062317, 0.0, 0.0, 0.0, 0.0, 0.0, 1.6212658034141867E9, 2021-05-17 17:36:43.414
72.0, 41.00052261352539, -139.6142120361328, 130.3990936279297, 230.5386505126953, -0.06400000303983688, 0.0, 1.040000081062317, 0.0, 0.0, 0.0, 0.0, 0.0, 1.6212658034148989E9, 2021-05-17 17:36:43.414
72.0, 19.42877960205078, -145.00714111328125, 127.48197174072266, 215.6538543701172, -0.06400000303983688, 0.0, 1.040000081062317, 0.0, 0.0, 0.0, 0.0, 0.0, 1.6212658034148989E9, 2021-05-17 17:36:43.414
73.0, 19.559677124023438, -139.70396423339844, 123.15864562988281, 217.84169006347656, -0.06400000303983688, 0.0, 1.040000081062317, 0.0, 0.0, 0.0, 0.0, 0.0, 1.6212658034285116E9, 2021-05-17 17:36:43.428
73.0, 26.067102432250977, -129.72964477539062, 124.03752136230469, 232.85739135742188, -0.06400000303983688, 0.0, 1.040000081062317, 0.0, 0.0, 0.0, 0.0, 0.0, 1.6212658034285116E9, 2021-05-17 17:36:43.428
74.0, 34.34724044799805, -107.2378921508789, 134.75233459472656, 246.9007110595703, -0.06400000303983688, 0.0, 1.040000081062317, 0.0, 0.0, 0.0, 0.0, 0.0, 1.6212658034441557E9, 2021-05-17 17:36:43.444
74.0, 21.706378936767578, -122.1937484741211, 133.37979125976562, 230.7069549560547, -0.06400000303983688, 0.0, 1.040000081062317, 0.0, 0.0, 0.0, 0.0, 0.0, 1.6212658034441557E9, 2021-05-17 17:36:43.444
75.0, 6.167095184326172, -130.80299377441406, 124.71070098876953, 221.33102416992188, -0.06400000303983688, 0.0, 1.040000081062317, 0.0, 0.0, 0.0, 0.0, 0.0, 1.6212658034448843E9, 2021-05-17 17:36:43.444
75.0, 23.00412368774414, -123.34564208984375, 119.96851348876953, 225.76654052734375, -0.06400000303983688, 0.0, 1.040000081062317, 0.0, 0.0, 0.0, 0.0, 0.0, 1.6212658034448843E9, 2021-05-17 17:36:43.444
76.0, 30.40912628173828, -120.69405364990234, 126.10194396972656, 233.94944763183594, -0.06400000303983688, 0.0, 1.040000081062317, 0.0, 0.0, 0.0, 0.0, 0.0, 1.6212658034585147E9, 2021-05-17 17:36:43.458
76.0, 22.936805725097656, -135.26095581054688, 130.2831573486328, 223.2495880126953, -0.06400000303983688, 0.0, 1.040000081062317, 0.0, 0.0, 0.0, 0.0, 0.0, 1.6212658034585147E9, 2021-05-17 17:36:43.458
77.0, 16.627595901489258, -143.1110076904297, 129.35191345214844, 217.5200653076172, -0.06400000303983688, 0.0, 1.040000081062317, 0.0, 0.0, 0.0, 0.0, 0.0, 1.6212658034741597E9, 2021-05-17 17:36:43.474
77.0, 28.64389419555664, -142.9501953125, 131.55845642089844, 224.84652709960938, -0.06400000303983688, 0.0, 1.040000081062317, 0.0, 0.0, 0.0, 0.0, 0.0, 1.6212658034741597E9, 2021-05-17 17:36:43.474
78.0, 49.50505447387695, -139.99942016601562, 130.76934814453125, 224.7156219482422, -0.06400000303983688, 0.0, 1.040000081062317, 0.0, 0.0, 0.0, 0.0, 0.0, 1.6212658034749005E9, 2021-05-17 17:36:43.474
78.0, 29.04780387878418, -150.7927703857422, 130.660888671875, 210.017822265625, -0.06400000303983688, 0.0, 1.040000081062317, 0.0, 0.0, 0.0, 0.0, 0.0, 1.6212658034749005E9, 2021-05-17 17:36:43.474
79.0, 22.155166625976562, -161.2981414794922, 117.67969512939453, 200.17440795898438, -0.06400000303983688, 0.0, 1.040000081062317, 0.0, 0.0, 0.0, 0.0, 0.0, 1.6212658034885533E9, 2021-05-17 17:36:43.488
79.0, 33.47584533691406, -145.43722534179688, 111.06006622314453, 203.17755126953125, -0.06400000303983688, 0.0, 1.040000081062317, 0.0, 0.0, 0.0, 0.0, 0.0, 1.6212658034885533E9, 2021-05-17 17:36:43.488
80.0, 42.96397018432617, -142.93898010253906, 116.44926452636719, 214.01577758789062, -0.06400000303983688, 0.0, 1.040000081062317, 0.0, 0.0, 0.0, 0.0, 0.0, 1.6212658035206387E9, 2021-05-17 17:36:43.520
80.0, 26.56077003479004, -155.99122619628906, 117.98636627197266, 197.47793579101562, -0.06400000303983688, 0.0, 1.040000081062317, 0.0, 0.0, 0.0, 0.0, 0.0, 1.6212658035206387E9, 2021-05-17 17:36:43.520
81.0, 20.360015869140625, -167.7083282470703, 113.41246795654297, 184.7996826171875, -0.06400000303983688, 0.0, 1.040000081062317, 0.0, 0.0, 0.0, 0.0, 0.0, 1.6212658035213683E9, 2021-05-17 17:36:43.521
81.0, 27.073135375976562, -159.4506378173828, 112.47000885009766, 196.84963989257812, -0.06400000303983688, 0.0, 1.040000081062317, 0.0, 0.0, 0.0, 0.0, 0.0, 1.6212658035213683E9, 2021-05-17 17:36:43.521
82.0, 47.272335052490234, -147.610107421875, 119.07093811035156, 207.69908142089844, -0.06400000303983688, 0.0, 1.040000081062317, 0.0, 0.0, 0.0, 0.0, 0.0, 1.6212658035221052E9, 2021-05-17 17:36:43.522
82.0, 32.07338333129883, -146.7611541748047, 123.22596740722656, 202.54176330566406, -0.06400000303983688, 0.0, 1.040000081062317, 0.0, 0.0, 0.0, 0.0, 0.0, 1.6212658035221052E9, 2021-05-17 17:36:43.522
83.0, 26.414913177490234, -155.99496459960938, 118.24815368652344, 193.4949493408203, -0.06400000303983688, 0.0, 1.040000081062317, 0.0, 0.0, 0.0, 0.0, 0.0, 1.6212658035228977E9, 2021-05-17 17:36:43.522
83.0, 33.487064361572266, -134.8009490966797, 117.79936981201172, 208.64154052734375, -0.06400000303983688, 0.0, 1.040000081062317, 0.0, 0.0, 0.0, 0.0, 0.0, 1.6212658035228977E9, 2021-05-17 17:36:43.522
84.0, 44.44123077392578, -120.6080322265625, 131.05731201171875, 221.5479278564453, -0.06400000303983688, 0.0, 1.040000081062317, 0.0, 0.0, 0.0, 0.0, 0.0, 1.621265803533559E9, 2021-05-17 17:36:43.533
84.0, 34.02560806274414, -127.86344146728516, 133.54434204101562, 214.1765899658203, -0.06400000303983688, 0.0, 1.040000081062317, 0.0, 0.0, 0.0, 0.0, 0.0, 1.621265803533559E9, 2021-05-17 17:36:43.533
85.0, 26.175559997558594, -135.43673706054688, 130.6085205078125, 208.93325805664062, -0.06400000303983688, 0.0, 1.040000081062317, 0.0, 0.0, 0.0, 0.0, 0.0, 1.621265803548466E9, 2021-05-17 17:36:43.548
85.0, 29.246017456054688, -123.5176773071289, 126.42731475830078, 220.22775268554688, -0.06400000303983688, 0.0, 1.040000081062317, 0.0, 0.0, 0.0, 0.0, 0.0, 1.621265803548466E9, 2021-05-17 17:36:43.548
86.0, 39.583099365234375, -117.50017547607422, 135.57138061523438, 234.3084716796875, -0.06400000303983688, 0.0, 1.040000081062317, 0.0, 0.0, 0.0, 0.0, 0.0, 1.6212658035642052E9, 2021-05-17 17:36:43.564
86.0, 32.899898529052734, -122.61261749267578, 135.0590057373047, 223.97512817382812, -0.06400000303983688, 0.0, 1.040000081062317, 0.0, 0.0, 0.0, 0.0, 0.0, 1.6212658035642052E9, 2021-05-17 17:36:43.564
87.0, 21.474506378173828, -128.82833862304688, 130.4813690185547, 219.58822631835938, -0.06400000303983688, 0.0, 1.040000081062317, 0.0, 0.0, 0.0, 0.0, 0.0, 1.6212658035650115E9, 2021-05-17 17:36:43.565
87.0, 30.09123420715332, -128.38328552246094, 128.7909393310547, 226.3013458251953, -0.06400000303983688, 0.0, 1.040000081062317, 0.0, 0.0, 0.0, 0.0, 0.0, 1.6212658035650115E9, 2021-05-17 17:36:43.565
88.0, 41.63630676269531, -118.16961669921875, 137.1009979248047, 235.85305786132812, -0.06400000303983688, 0.0, 1.040000081062317, 0.0, 0.0, 0.0, 0.0, 0.0, 1.621265803578508E9, 2021-05-17 17:36:43.578
88.0, 25.031150817871094, -124.57606506347656, 133.34613037109375, 219.19554138183594, -0.06400000303983688, 0.0, 1.040000081062317, 0.0, 0.0, 0.0, 0.0, 0.0, 1.621265803578508E9, 2021-05-17 17:36:43.578
89.0, 20.6405086517334, -139.5207061767578, 126.74894714355469, 207.8673858642578, -0.06400000303983688, 0.0, 1.040000081062317, 0.0, 0.0, 0.0, 0.0, 0.0, 1.621265803594616E9, 2021-05-17 17:36:43.594
89.0, 31.370281219482422, -134.49427795410156, 128.50669860839844, 216.14004516601562, -0.06400000303983688, 0.0, 1.040000081062317, 0.0, 0.0, 0.0, 0.0, 0.0, 1.621265803594616E9, 2021-05-17 17:36:43.594
90.0, 36.83427429199219, -122.56400299072266, 133.5817413330078, 226.9371337890625, -0.06400000303983688, 0.0, 1.040000081062317, 0.0, 0.0, 0.0, 0.0, 0.0, 1.6212658036092715E9, 2021-05-17 17:36:43.609
90.0, 23.568849563598633, -129.3855743408203, 124.6620864868164, 206.21807861328125, -0.06400000303983688, 0.0, 1.040000081062317, 0.0, 0.0, 0.0, 0.0, 0.0, 1.6212658036092715E9, 2021-05-17 17:36:43.609
91.0, 9.458207130432129, -134.8607940673828, 114.38858032226562, 196.0717315673828, -0.06400000303983688, 0.0, 1.040000081062317, 0.0, 0.0, 0.0, 0.0, 0.0, 1.6212658036099422E9, 2021-05-17 17:36:43.609
91.0, 19.32406234741211, -128.92930603027344, 116.63626098632812, 205.9824676513672, -0.06400000303983688, 0.0, 1.040000081062317, 0.0, 0.0, 0.0, 0.0, 0.0, 1.6212658036099422E9, 2021-05-17 17:36:43.609
92.0, 36.64353942871094, -113.55084228515625, 123.02774810791016, 213.03591918945312, -0.06400000303983688, 0.0, 1.040000081062317, 0.0, 0.0, 0.0, 0.0, 0.0, 1.6212658036243155E9, 2021-05-17 17:36:43.624
92.0, 21.410926818847656, -124.29557800292969, 122.0516357421875, 201.64791870117188, -0.06400000303983688, 0.0, 1.040000081062317, 0.0, 0.0, 0.0, 0.0, 0.0, 1.6212658036243155E9, 2021-05-17 17:36:43.624
93.0, 11.212220191955566, -131.47991943359375, 118.618408203125, 192.0775146484375, -0.06400000303983688, 0.0, 1.040000081062317, 0.0, 0.0, 0.0, 0.0, 0.0, 1.6212658036250172E9, 2021-05-17 17:36:43.625
93.0, 23.722185134887695, -124.3404541015625, 122.88937377929688, 208.3647918701172, -0.06400000303983688, 0.0, 1.040000081062317, 0.0, 0.0, 0.0, 0.0, 0.0, 1.6212658036250172E9, 2021-05-17 17:36:43.625
94.0, 37.9712028503418, -114.24272155761719, 127.19773864746094, 219.99588012695312, -0.06400000303983688, 0.0, 1.040000081062317, 0.0, 0.0, 0.0, 0.0, 0.0, 1.6212658036549904E9, 2021-05-17 17:36:43.654
94.0, 17.682247161865234, -127.7549819946289, 120.5855941772461, 205.3616485595703, -0.06400000303983688, 0.0, 1.040000081062317, 0.0, 0.0, 0.0, 0.0, 0.0, 1.6212658036549904E9, 2021-05-17 17:36:43.654
95.0, 13.28038501739502, -125.74665832519531, 119.39256286621094, 207.04086303710938, -0.06400000303983688, 0.0, 1.040000081062317, 0.0, 0.0, 0.0, 0.0, 0.0, 1.621265803655632E9, 2021-05-17 17:36:43.655
95.0, 18.987472534179688, -122.24984741210938, 120.22282409667969, 215.25741577148438, -0.06400000303983688, 0.0, 1.040000081062317, 0.0, 0.0, 0.0, 0.0, 0.0, 1.621265803655632E9, 2021-05-17 17:36:43.655
96.0, 33.27762985229492, -111.62479400634766, 128.8395538330078, 231.27166748046875, -0.06400000303983688, 0.0, 1.040000081062317, 0.0, 0.0, 0.0, 0.0, 0.0, 1.6212658036563911E9, 2021-05-17 17:36:43.656
96.0, 18.422746658325195, -118.91385650634766, 122.93051147460938, 222.0977020263672, -0.06400000303983688, 0.0, 1.040000081062317, 0.0, 0.0, 0.0, 0.0, 0.0, 1.6212658036563911E9, 2021-05-17 17:36:43.656
97.0, 14.525771141052246, -127.88961791992188, 117.61237335205078, 214.5991973876953, -0.06400000303983688, 0.0, 1.040000081062317, 0.0, 0.0, 0.0, 0.0, 0.0, 1.621265803668637E9, 2021-05-17 17:36:43.668
97.0, 21.448326110839844, -122.44806671142578, 119.51972198486328, 222.46420288085938, -0.06400000303983688, 0.0, 1.040000081062317, 0.0, 0.0, 0.0, 0.0, 0.0, 1.621265803668637E9, 2021-05-17 17:36:43.668
98.0, 28.456899642944336, -111.41535949707031, 122.81083679199219, 230.04872131347656, -0.06400000303983688, 0.0, 1.040000081062317, 0.0, 0.0, 0.0, 0.0, 0.0, 1.6212658037006772E9, 2021-05-17 17:36:43.700
98.0, 16.418161392211914, -126.44227600097656, 120.06201171875, 213.76519775390625, -0.06400000303983688, 0.0, 1.040000081062317, 0.0, 0.0, 0.0, 0.0, 0.0, 1.6212658037006772E9, 2021-05-17 17:36:43.700
99.0, 0.8863562941551208, -135.1038818359375, 113.9809341430664, 205.5673370361328, -0.06400000303983688, 0.0, 1.040000081062317, 0.0, 0.0, 0.0, 0.0, 0.0, 1.6212658037014031E9, 2021-05-17 17:36:43.701
99.0, 17.02028465270996, -129.32574462890625, 112.38773345947266, 213.7128448486328, -0.06400000303983688, 0.0, 1.040000081062317, 0.0, 0.0, 0.0, 0.0, 0.0, 1.6212658037014031E9, 2021-05-17 17:36:43.701
100.0, 29.64618682861328, -124.49378967285156, 114.09687042236328, 222.1051788330078, -0.06400000303983688, 0.0, 1.055999994277954, 0.0, 0.0, 0.0, 0.0, 0.0, 1.6212658037020884E9, 2021-05-17 17:36:43.702
100.0, 19.563417434692383, -136.59983825683594, 116.25105285644531, 210.84808349609375, -0.06400000303983688, 0.0, 1.055999994277954, 0.0, 0.0, 0.0, 0.0, 0.0, 1.6212658037020884E9, 2021-05-17 17:36:43.702
0.0, 14.065763473510742, -144.6929931640625, 115.43201446533203, 193.88201904296875, -0.06400000303983688, 0.0, 1.055999994277954, 0.0, 0.0, 0.0, 0.0, 0.0, 1.6212658037029233E9, 2021-05-17 17:36:43.702
1.0, 24.092435836791992, -146.8209991455078, 111.4303207397461, 204.11065673828125, -0.06400000303983688, 0.0, 1.055999994277954, 0.0, 0.0, 0.0, 0.0, 0.0, 1.6212658037134616E9, 2021-05-17 17:36:43.713
1.0, 37.75429153442383, -138.35011291503906, 120.26022338867188, 212.46185302734375, -0.06400000303983688, 0.0, 1.055999994277954, 0.0, 0.0, 0.0, 0.0, 0.0, 1.6212658037134616E9, 2021-05-17 17:36:43.713
2.0, 27.267610549926758, -144.86875915527344, 122.19749450683594, 205.68515014648438, -0.06400000303983688, 0.0, 1.055999994277954, 0.0, 0.0, 0.0, 0.0, 0.0, 1.6212658037292013E9, 2021-05-17 17:36:43.729
2.0, 17.30451774597168, -148.03271484375, 116.0116958618164, 198.6877899169922, -0.06400000303983688, 0.0, 1.055999994277954, 0.0, 0.0, 0.0, 0.0, 0.0, 1.6212658037292013E9, 2021-05-17 17:36:43.729
3.0, 22.229965209960938, -134.07167053222656, 121.01568603515625, 207.83558654785156, -0.06400000303983688, 0.0, 1.055999994277954, 0.0, 0.0, 0.0, 0.0, 0.0, 1.6212658037299385E9, 2021-05-17 17:36:43.729
3.0, 27.11053466796875, -121.74122619628906, 123.34938049316406, 222.4735565185547, -0.06400000303983688, 0.0, 1.055999994277954, 0.0, 0.0, 0.0, 0.0, 0.0, 1.6212658037299385E9, 2021-05-17 17:36:43.729
4.0, 16.904348373413086, -128.50669860839844, 118.85028076171875, 214.62350463867188, -0.06400000303983688, 0.0, 1.055999994277954, 0.0, 0.0, 0.0, 0.0, 0.0, 1.621265803743495E9, 2021-05-17 17:36:43.743
4.0, 5.93148136138916, -131.91749572753906, 116.36698913574219, 205.50563049316406, -0.06400000303983688, 0.0, 1.055999994277954, 0.0, 0.0, 0.0, 0.0, 0.0, 1.621265803743495E9, 2021-05-17 17:36:43.743
5.0, 18.7443790435791, -122.010498046875, 118.40897369384766, 213.3257598876953, -0.06400000303983688, 0.0, 1.055999994277954, 0.0, 0.0, 0.0, 0.0, 0.0, 1.6212658037593527E9, 2021-05-17 17:36:43.759
5.0, 28.471858978271484, -113.47978210449219, 122.36204528808594, 223.7039794921875, -0.06400000303983688, 0.0, 1.055999994277954, 0.0, 0.0, 0.0, 0.0, 0.0, 1.6212658037593527E9, 2021-05-17 17:36:43.759
6.0, 10.011712074279785, -120.61925506591797, 121.44203186035156, 215.21441650390625, -0.06400000303983688, 0.0, 1.055999994277954, 0.0, 0.0, 0.0, 0.0, 0.0, 1.6212658037599556E9, 2021-05-17 17:36:43.759
6.0, 4.218606948852539, -130.39535522460938, 113.2965316772461, 201.1561279296875, -0.06400000303983688, 0.0, 1.055999994277954, 0.0, 0.0, 0.0, 0.0, 0.0, 1.6212658037599556E9, 2021-05-17 17:36:43.759
7.0, 16.298484802246094, -126.43479919433594, 110.73844146728516, 204.7688751220703, -0.06400000303983688, 0.0, 1.055999994277954, 0.0, 0.0, 0.0, 0.0, 0.0, 1.6212658037735248E9, 2021-05-17 17:36:43.773
7.0, 28.340961456298828, -119.58329772949219, 118.9998779296875, 220.16978454589844, -0.06400000303983688, 0.0, 1.055999994277954, 0.0, 0.0, 0.0, 0.0, 0.0, 1.6212658037735248E9, 2021-05-17 17:36:43.773
8.0, 12.794198036193848, -129.70347595214844, 124.17215728759766, 214.2158660888672, -0.06400000303983688, 0.0, 1.055999994277954, 0.0, 0.0, 0.0, 0.0, 0.0, 1.6212658037892191E9, 2021-05-17 17:36:43.789
8.0, 10.950427055358887, -140.7473907470703, 117.70960998535156, 201.4515838623047, -0.06400000303983688, 0.0, 1.055999994277954, 0.0, 0.0, 0.0, 0.0, 0.0, 1.6212658037892191E9, 2021-05-17 17:36:43.789
9.0, 27.005817413330078, -138.7577667236328, 117.75074768066406, 210.24034118652344, -0.06400000303983688, 0.0, 1.055999994277954, 0.0, 0.0, 0.0, 0.0, 0.0, 1.621265803790009E9, 2021-05-17 17:36:43.790
9.0, 33.90219497680664, -129.62118530273438, 126.02714538574219, 224.44822692871094, -0.06400000303983688, 0.0, 1.055999994277954, 0.0, 0.0, 0.0, 0.0, 0.0, 1.621265803790009E9, 2021-05-17 17:36:43.790
10.0, 20.535791397094727, -142.54254150390625, 128.80589294433594, 213.35568237304688, -0.06400000303983688, 0.0, 1.055999994277954, 0.0, 0.0, 0.0, 0.0, 0.0, 1.6212658038197339E9, 2021-05-17 17:36:43.819
10.0, 15.326109886169434, -145.97950744628906, 125.85885620117188, 201.81434631347656, -0.06400000303983688, 0.0, 1.055999994277954, 0.0, 0.0, 0.0, 0.0, 0.0, 1.6212658038197339E9, 2021-05-17 17:36:43.819
11.0, 26.033443450927734, -140.4182891845703, 121.71878051757812, 210.3974151611328, -0.06400000303983688, 0.0, 1.055999994277954, 0.0, 0.0, 0.0, 0.0, 0.0, 1.62126580382042E9, 2021-05-17 17:36:43.820
11.0, 35.34205627441406, -127.12294006347656, 125.2081069946289, 220.8280029296875, -0.06400000303983688, 0.0, 1.055999994277954, 0.0, 0.0, 0.0, 0.0, 0.0, 1.62126580382042E9, 2021-05-17 17:36:43.820
12.0, 16.006771087646484, -142.93524169921875, 124.14224243164062, 207.92909240722656, -0.06400000303983688, 0.0, 1.055999994277954, 0.0, 0.0, 0.0, 0.0, 0.0, 1.62126580383418E9, 2021-05-17 17:36:43.834
12.0, 9.207633972167969, -148.7919158935547, 125.2081069946289, 195.1797637939453, -0.06400000303983688, 0.0, 1.055999994277954, 0.0, 0.0, 0.0, 0.0, 0.0, 1.62126580383418E9, 2021-05-17 17:36:43.834
13.0, 22.069149017333984, -137.4375762939453, 118.9176025390625, 203.34396362304688, -0.06400000303983688, 0.0, 1.055999994277954, 0.0, 0.0, 0.0, 0.0, 0.0, 1.621265803834916E9, 2021-05-17 17:36:43.834
13.0, 35.09522247314453, -128.3571014404297, 122.85197448730469, 218.9580535888672, -0.06400000303983688, 0.0, 1.055999994277954, 0.0, 0.0, 0.0, 0.0, 0.0, 1.621265803834916E9, 2021-05-17 17:36:43.834
14.0, 19.791549682617188, -134.96551513671875, 129.83436584472656, 212.75355529785156, -0.06400000303983688, 0.0, 1.055999994277954, 0.0, 0.0, 0.0, 0.0, 0.0, 1.6212658038491528E9, 2021-05-17 17:36:43.849
14.0, 11.42165470123291, -142.7445068359375, 124.6994857788086, 206.32467651367188, -0.06400000303983688, 0.0, 1.055999994277954, 0.0, 0.0, 0.0, 0.0, 0.0, 1.6212658038491528E9, 2021-05-17 17:36:43.849
15.0, 23.88300132751465, -132.95718383789062, 118.98865509033203, 211.10052490234375, -0.06400000303983688, 0.0, 1.055999994277954, 0.0, 0.0, 0.0, 0.0, 0.0, 1.6212658038498917E9, 2021-05-17 17:36:43.849
15.0, 34.4370002746582, -124.09362030029297, 124.22077941894531, 220.55125427246094, -0.06400000303983688, 0.0, 1.055999994277954, 0.0, 0.0, 0.0, 0.0, 0.0, 1.6212658038498917E9, 2021-05-17 17:36:43.849
16.0, 18.692020416259766, -136.3380584716797, 127.99059295654297, 217.37982177734375, -0.06400000303983688, 0.0, 1.055999994277954, 0.0, 0.0, 0.0, 0.0, 0.0, 1.6212658038635457E9, 2021-05-17 17:36:43.863
16.0, 12.072397232055664, -143.1222381591797, 121.97309875488281, 202.41273498535156, -0.06400000303983688, 0.0, 1.055999994277954, 0.0, 0.0, 0.0, 0.0, 0.0, 1.6212658038635457E9, 2021-05-17 17:36:43.863
17.0, 20.464733123779297, -145.34747314453125, 117.25334167480469, 207.9365692138672, -0.06400000303983688, 0.0, 1.055999994277954, 0.0, 0.0, 0.0, 0.0, 0.0, 1.6212658038791573E9, 2021-05-17 17:36:43.879
17.0, 34.773590087890625, -129.804443359375, 127.93075561523438, 222.83633422851562, -0.06400000303983688, 0.0, 1.055999994277954, 0.0, 0.0, 0.0, 0.0, 0.0, 1.6212658038791573E9, 2021-05-17 17:36:43.879
18.0, 25.453758239746094, -142.2433624267578, 123.03523254394531, 211.85598754882812, -0.06400000303983688, 0.0, 1.055999994277954, 0.0, 0.0, 0.0, 0.0, 0.0, 1.6212658038798862E9, 2021-05-17 17:36:43.879
18.0, 14.118122100830078, -155.68081665039062, 120.55193328857422, 201.6984100341797, -0.06400000303983688, 0.0, 1.055999994277954, 0.0, 0.0, 0.0, 0.0, 0.0, 1.6212658038798862E9, 2021-05-17 17:36:43.879
19.0, 24.95635223388672, -143.10353088378906, 121.78236389160156, 209.82896423339844, -0.06400000303983688, 0.0, 1.055999994277954, 0.0, 0.0, 0.0, 0.0, 0.0, 1.6212658038935256E9, 2021-05-17 17:36:43.893
19.0, 39.51204299926758, -137.5647430419922, 130.79177856445312, 221.06361389160156, -0.06400000303983688, 0.0, 1.055999994277954, 0.0, 0.0, 0.0, 0.0, 0.0, 1.6212658038935256E9, 2021-05-17 17:36:43.893
20.0, 22.63013458251953, -142.46026611328125, 130.59730529785156, 211.85598754882812, -0.06400000303983688, 0.0, 1.055999994277954, 0.0, 0.0, 0.0, 0.0, 0.0, 1.6212658039092467E9, 2021-05-17 17:36:43.909
20.0, 9.091696739196777, -146.45074462890625, 122.08529663085938, 194.1176300048828, -0.06400000303983688, 0.0, 1.055999994277954, 0.0, 0.0, 0.0, 0.0, 0.0, 1.6212658039092467E9, 2021-05-17 17:36:43.909
21.0, 22.491758346557617, -134.75233459472656, 120.64543151855469, 205.92823791503906, -0.06400000303983688, 0.0, 1.055999994277954, 0.0, 0.0, 0.0, 0.0, 0.0, 1.6212658039099555E9, 2021-05-17 17:36:43.909
21.0, 31.119707107543945, -126.94342041015625, 122.60140228271484, 216.42239379882812, -0.06400000303983688, 0.0, 1.055999994277954, 0.0, 0.0, 0.0, 0.0, 0.0, 1.6212658039099555E9, 2021-05-17 17:36:43.909
22.0, 26.224178314208984, -132.26156616210938, 123.68597412109375, 211.80735778808594, -0.08000000566244125, 0.0, 1.055999994277954, 0.0, 0.0, 0.0, 0.0, 0.0, 1.6212658039236462E9, 2021-05-17 17:36:43.923
22.0, 14.181700706481934, -137.07481384277344, 117.44781494140625, 206.6238555908203, -0.08000000566244125, 0.0, 1.055999994277954, 0.0, 0.0, 0.0, 0.0, 0.0, 1.6212658039236462E9, 2021-05-17 17:36:43.923
23.0, 22.158906936645508, -133.39849853515625, 117.597412109375, 217.44338989257812, -0.08000000566244125, 0.0, 1.055999994277954, 0.0, 0.0, 0.0, 0.0, 0.0, 1.6212658039392316E9, 2021-05-17 17:36:43.939
23.0, 37.05867004394531, -121.63650512695312, 129.56509399414062, 224.91197204589844, -0.08000000566244125, 0.0, 1.055999994277954, 0.0, 0.0, 0.0, 0.0, 0.0, 1.6212658039392316E9, 2021-05-17 17:36:43.939
24.0, 17.65606689453125, -131.22561645507812, 126.06454467773438, 215.38644409179688, -0.08000000566244125, 0.0, 1.055999994277954, 0.0, 0.0, 0.0, 0.0, 0.0, 1.6212658039399457E9, 2021-05-17 17:36:43.939
24.0, 13.14948844909668, -138.57077026367188, 125.06599426269531, 203.9573211669922, -0.08000000566244125, 0.0, 1.055999994277954, 0.0, 0.0, 0.0, 0.0, 0.0, 1.6212658039399457E9, 2021-05-17 17:36:43.939
25.0, 19.623254776000977, -129.62118530273438, 121.87211608886719, 212.89193725585938, -0.08000000566244125, 0.0, 1.055999994277954, 0.0, 0.0, 0.0, 0.0, 0.0, 1.6212658039535635E9, 2021-05-17 17:36:43.953
25.0, 30.386686325073242, -128.14393615722656, 123.08384704589844, 216.65052795410156, -0.08000000566244125, 0.0, 1.055999994277954, 0.0, 0.0, 0.0, 0.0, 0.0, 1.6212658039535635E9, 2021-05-17 17:36:43.953
26.0, 20.74522590637207, -130.41778564453125, 127.7101058959961, 213.43421936035156, -0.08000000566244125, 0.0, 1.055999994277954, 0.0, 0.0, 0.0, 0.0, 0.0, 1.6212658039691596E9, 2021-05-17 17:36:43.969
26.0, 7.9510273933410645, -138.2753143310547, 124.57232666015625, 205.96563720703125, -0.08000000566244125, 0.0, 1.055999994277954, 0.0, 0.0, 0.0, 0.0, 0.0, 1.6212658039691596E9, 2021-05-17 17:36:43.969
27.0, 17.49525260925293, -134.62518310546875, 121.22137451171875, 214.41407775878906, -0.08000000566244125, 0.0, 1.055999994277954, 0.0, 0.0, 0.0, 0.0, 0.0, 1.621265803969879E9, 2021-05-17 17:36:43.969
27.0, 26.414913177490234, -121.9880599975586, 123.93280792236328, 226.7557373046875, -0.08000000566244125, 0.0, 1.055999994277954, 0.0, 0.0, 0.0, 0.0, 0.0, 1.621265803969879E9, 2021-05-17 17:36:43.969
28.0, 16.747272491455078, -132.2129364013672, 126.11316680908203, 216.1306915283203, -0.08000000566244125, 0.0, 1.055999994277954, 0.0, 0.0, 0.0, 0.0, 0.0, 1.6212658039835057E9, 2021-05-17 17:36:43.983
28.0, 8.328757286071777, -139.8572998046875, 119.67305755615234, 203.37388610839844, -0.08000000566244125, 0.0, 1.055999994277954, 0.0, 0.0, 0.0, 0.0, 0.0, 1.6212658039835057E9, 2021-05-17 17:36:43.983
29.0, 19.144548416137695, -131.43130493164062, 119.16069030761719, 212.16639709472656, -0.08000000566244125, 0.0, 1.055999994277954, 0.0, 0.0, 0.0, 0.0, 0.0, 1.621265803999195E9, 2021-05-17 17:36:43.999
29.0, 27.536884307861328, -118.48751068115234, 124.6807861328125, 223.05697631835938, -0.08000000566244125, 0.0, 1.055999994277954, 0.0, 0.0, 0.0, 0.0, 0.0, 1.621265803999195E9, 2021-05-17 17:36:43.999
30.0, 20.34879493713379, -131.65943908691406, 126.67041015625, 216.7926483154297, -0.08000000566244125, 0.0, 1.055999994277954, 0.0, 0.0, 0.0, 0.0, 0.0, 1.6212658039999273E9, 2021-05-17 17:36:43.999
30.0, 8.598030090332031, -139.06443786621094, 120.57437133789062, 204.63796997070312, -0.08000000566244125, 0.0, 1.055999994277954, 0.0, 0.0, 0.0, 0.0, 0.0, 1.6212658039999273E9, 2021-05-17 17:36:43.999
31.0, 23.08266258239746, -126.43853759765625, 123.2970199584961, 213.23226928710938, -0.08000000566244125, 0.0, 1.055999994277954, 0.0, 0.0, 0.0, 0.0, 0.0, 1.6212658040134797E9, 2021-05-17 17:36:44.013
31.0, 26.818822860717773, -119.35516357421875, 123.6822280883789, 221.8751678466797, -0.08000000566244125, 0.0, 1.055999994277954, 0.0, 0.0, 0.0, 0.0, 0.0, 1.6212658040134797E9, 2021-05-17 17:36:44.013
32.0, 23.666086196899414, -126.39366149902344, 129.06021118164062, 215.2854766845703, -0.08000000566244125, 0.0, 1.055999994277954, 0.0, 0.0, 0.0, 0.0, 0.0, 1.621265804029216E9, 2021-05-17 17:36:44.029
32.0, 15.737499237060547, -137.23562622070312, 124.22077941894531, 205.3074188232422, -0.08000000566244125, 0.0, 1.055999994277954, 0.0, 0.0, 0.0, 0.0, 0.0, 1.621265804029216E9, 2021-05-17 17:36:44.029
33.0, 22.43939971923828, -129.5426483154297, 129.0452423095703, 217.054443359375, -0.08000000566244125, 0.0, 1.055999994277954, 0.0, 0.0, 0.0, 0.0, 0.0, 1.6212658040299418E9, 2021-05-17 17:36:44.029
33.0, 27.720138549804688, -114.57183837890625, 127.79985809326172, 227.81039428710938, -0.08000000566244125, 0.0, 1.055999994277954, 0.0, 0.0, 0.0, 0.0, 0.0, 1.6212658040299418E9, 2021-05-17 17:36:44.029
34.0, 11.503931999206543, -127.96441650390625, 122.99034881591797, 212.46932983398438, -0.08000000566244125, 0.0, 1.055999994277954, 0.0, 0.0, 0.0, 0.0, 0.0, 1.6212658040435488E9, 2021-05-17 17:36:44.043
34.0, 3.2985918521881104, -134.5129852294922, 123.46157836914062, 208.2357635498047, -0.08000000566244125, 0.0, 1.055999994277954, 0.0, 0.0, 0.0, 0.0, 0.0, 1.6212658040435488E9, 2021-05-17 17:36:44.043
35.0, 10.65871524810791, -128.96670532226562, 121.38219451904297, 210.33010864257812, -0.08000000566244125, 0.0, 1.055999994277954, 0.0, 0.0, 0.0, 0.0, 0.0, 1.6212658040593276E9, 2021-05-17 17:36:44.059
35.0, 24.746917724609375, -121.85716247558594, 124.59850311279297, 223.498291015625, -0.08000000566244125, 0.0, 1.055999994277954, 0.0, 0.0, 0.0, 0.0, 0.0, 1.6212658040593276E9, 2021-05-17 17:36:44.059
36.0, 18.931373596191406, -125.17071533203125, 131.330322265625, 212.08412170410156, -0.08000000566244125, 0.0, 1.055999994277954, 0.0, 0.0, 0.0, 0.0, 0.0, 1.621265804059968E9, 2021-05-17 17:36:44.059
36.0, 2.943301200866699, -137.1009979248047, 119.24671173095703, 207.3793182373047, -0.08000000566244125, 0.0, 1.055999994277954, 0.0, 0.0, 0.0, 0.0, 0.0, 1.621265804059968E9, 2021-05-17 17:36:44.059
37.0, 15.419607162475586, -129.07516479492188, 118.41271209716797, 210.36001586914062, -0.08000000566244125, 0.0, 1.055999994277954, 0.0, 0.0, 0.0, 0.0, 0.0, 1.6212658040735147E9, 2021-05-17 17:36:44.073
37.0, 25.41636085510254, -119.11207580566406, 128.78346252441406, 221.65826416015625, -0.08000000566244125, 0.0, 1.055999994277954, 0.0, 0.0, 0.0, 0.0, 0.0, 1.6212658040735147E9, 2021-05-17 17:36:44.073
38.0, 14.892281532287598, -134.57281494140625, 125.71673583984375, 209.260498046875, -0.08000000566244125, 0.0, 1.055999994277954, 0.0, 0.0, 0.0, 0.0, 0.0, 1.6212658041056333E9, 2021-05-17 17:36:44.105
38.0, 8.478353500366211, -138.9223175048828, 120.05826568603516, 203.4000701904297, -0.08000000566244125, 0.0, 1.055999994277954, 0.0, 0.0, 0.0, 0.0, 0.0, 1.6212658041056333E9, 2021-05-17 17:36:44.105
39.0, 18.11607551574707, -136.61854553222656, 118.54360961914062, 208.8677978515625, -0.08000000566244125, 0.0, 1.055999994277954, 0.0, 0.0, 0.0, 0.0, 0.0, 1.621265804106339E9, 2021-05-17 17:36:44.106
39.0, 27.076875686645508, -129.11630249023438, 119.54216003417969, 214.39537048339844, -0.08000000566244125, 0.0, 1.055999994277954, 0.0, 0.0, 0.0, 0.0, 0.0, 1.621265804106339E9, 2021-05-17 17:36:44.106
40.0, 19.518537521362305, -135.71348571777344, 121.22137451171875, 204.45846557617188, -0.08000000566244125, 0.0, 1.055999994277954, 0.0, 0.0, 0.0, 0.0, 0.0, 1.6212658041070468E9, 2021-05-17 17:36:44.107
40.0, 8.55315113067627, -148.3880157470703, 117.24960327148438, 194.8917999267578, -0.08000000566244125, 0.0, 1.055999994277954, 0.0, 0.0, 0.0, 0.0, 0.0, 1.6212658041070468E9, 2021-05-17 17:36:44.107
41.0, 24.761877059936523, -136.8840789794922, 120.75389099121094, 208.59104919433594, -0.08000000566244125, 0.0, 1.055999994277954, 0.0, 0.0, 0.0, 0.0, 0.0, 1.621265804107852E9, 2021-05-17 17:36:44.107
41.0, 38.07592010498047, -123.88792419433594, 125.23802947998047, 215.19944763183594, -0.08000000566244125, 0.0, 1.055999994277954, 0.0, 0.0, 0.0, 0.0, 0.0, 1.621265804107852E9, 2021-05-17 17:36:44.107
42.0, 19.312843322753906, -127.45953369140625, 129.23971557617188, 215.55474853515625, -0.06400000303983688, 0.0, 1.055999994277954, 0.0, 0.0, 0.0, 0.0, 0.0, 1.621265804118549E9, 2021-05-17 17:36:44.118
42.0, 5.755705833435059, -139.2738800048828, 121.31487274169922, 201.47027587890625, -0.06400000303983688, 0.0, 1.055999994277954, 0.0, 0.0, 0.0, 0.0, 0.0, 1.621265804118549E9, 2021-05-17 17:36:44.118
43.0, 20.505870819091797, -138.2454071044922, 117.87042999267578, 211.38101196289062, -0.06400000303983688, 0.0, 1.055999994277954, 0.0, 0.0, 0.0, 0.0, 0.0, 1.6212658041335647E9, 2021-05-17 17:36:44.133
43.0, 31.74427032470703, -126.73399353027344, 123.91036224365234, 222.6156768798828, -0.06400000303983688, 0.0, 1.055999994277954, 0.0, 0.0, 0.0, 0.0, 0.0, 1.6212658041335647E9, 2021-05-17 17:36:44.133
44.0, 24.903993606567383, -131.330322265625, 125.77657318115234, 220.9476776123047, -0.06400000303983688, 0.0, 1.055999994277954, 0.0, 0.0, 0.0, 0.0, 0.0, 1.6212658041803885E9, 2021-05-17 17:36:44.180
44.0, 8.325016975402832, -136.94017028808594, 122.72855377197266, 208.4489288330078, -0.06400000303983688, 0.0, 1.055999994277954, 0.0, 0.0, 0.0, 0.0, 0.0, 1.6212658041803885E9, 2021-05-17 17:36:44.180
45.0, 18.119815826416016, -130.8628387451172, 118.66328430175781, 212.59274291992188, -0.06400000303983688, 0.0, 1.055999994277954, 0.0, 0.0, 0.0, 0.0, 0.0, 1.6212658041810708E9, 2021-05-17 17:36:44.181
45.0, 21.425886154174805, -127.25757598876953, 118.45384979248047, 219.9379119873047, -0.06400000303983688, 0.0, 1.055999994277954, 0.0, 0.0, 0.0, 0.0, 0.0, 1.6212658041810708E9, 2021-05-17 17:36:44.181
46.0, 11.268318176269531, -130.69081115722656, 121.16902160644531, 213.69601440429688, -0.06400000303983688, 0.0, 1.055999994277954, 0.0, 0.0, 0.0, 0.0, 0.0, 1.6212658041818097E9, 2021-05-17 17:36:44.181
46.0, 8.126802444458008, -138.26783752441406, 111.98382568359375, 204.70155334472656, -0.06400000303983688, 0.0, 1.055999994277954, 0.0, 0.0, 0.0, 0.0, 0.0, 1.6212658041818097E9, 2021-05-17 17:36:44.181
47.0, 6.735559940338135, -135.5414581298828, 111.68463134765625, 212.2636260986328, -0.06400000303983688, 0.0, 1.055999994277954, 0.0, 0.0, 0.0, 0.0, 0.0, 1.6212658041962478E9, 2021-05-17 17:36:44.196
47.0, 27.6827392578125, -122.3919677734375, 123.73832702636719, 225.95166015625, -0.06400000303983688, 0.0, 1.055999994277954, 0.0, 0.0, 0.0, 0.0, 0.0, 1.6212658041962478E9, 2021-05-17 17:36:44.196
48.0, 13.658114433288574, -132.4485626220703, 123.88044738769531, 212.54786682128906, -0.06400000303983688, 0.0, 1.055999994277954, 0.0, 0.0, 0.0, 0.0, 0.0, 1.621265804197022E9, 2021-05-17 17:36:44.197
48.0, 10.961647033691406, -136.259521484375, 120.77259063720703, 204.3013916015625, -0.06400000303983688, 0.0, 1.055999994277954, 0.0, 0.0, 0.0, 0.0, 0.0, 1.621265804197022E9, 2021-05-17 17:36:44.197
49.0, 15.408388137817383, -133.36483764648438, 123.57377624511719, 208.5760955810547, -0.06400000303983688, 0.0, 1.055999994277954, 0.0, 0.0, 0.0, 0.0, 0.0, 1.6212658041978216E9, 2021-05-17 17:36:44.197
49.0, 32.25289535522461, -122.59017944335938, 128.36459350585938, 223.82366943359375, -0.06400000303983688, 0.0, 1.055999994277954, 0.0, 0.0, 0.0, 0.0, 0.0, 1.6212658041978216E9, 2021-05-17 17:36:44.197
50.0, 11.215959548950195, -132.15684509277344, 125.21559143066406, 214.01763916015625, -0.06400000303983688, 0.0, 1.055999994277954, 0.0, 0.0, 0.0, 0.0, 0.0, 1.6212658041984649E9, 2021-05-17 17:36:44.198
50.0, 12.057437896728516, -140.67633056640625, 123.49149322509766, 204.21536254882812, -0.06400000303983688, 0.0, 1.055999994277954, 0.0, 0.0, 0.0, 0.0, 0.0, 1.6212658041984649E9, 2021-05-17 17:36:44.198
51.0, 20.734004974365234, -130.97877502441406, 118.64832305908203, 215.94369506835938, -0.06400000303983688, 0.0, 1.055999994277954, 0.0, 0.0, 0.0, 0.0, 0.0, 1.6212658042085624E9, 2021-05-17 17:36:44.208
51.0, 37.52241516113281, -115.40957641601562, 134.63265991210938, 234.87132263183594, -0.06400000303983688, 0.0, 1.055999994277954, 0.0, 0.0, 0.0, 0.0, 0.0, 1.6212658042085624E9, 2021-05-17 17:36:44.208
52.0, 13.979745864868164, -128.98541259765625, 130.75437927246094, 220.12115478515625, -0.06400000303983688, 0.0, 1.055999994277954, 0.0, 0.0, 0.0, 0.0, 0.0, 1.6212658042235863E9, 2021-05-17 17:36:44.223
52.0, 4.674874782562256, -140.91195678710938, 123.4765396118164, 215.33782958984375, -0.06400000303983688, 0.0, 1.055999994277954, 0.0, 0.0, 0.0, 0.0, 0.0, 1.6212658042235863E9, 2021-05-17 17:36:44.223
53.0, 15.359768867492676, -131.32284545898438, 123.02774810791016, 221.25808715820312, -0.06400000303983688, 0.0, 1.055999994277954, 0.0, 0.0, 0.0, 0.0, 0.0, 1.6212658042392368E9, 2021-05-17 17:36:44.239
53.0, 27.96697235107422, -116.91300964355469, 128.13270568847656, 235.12564086914062, -0.06400000303983688, 0.0, 1.055999994277954, 0.0, 0.0, 0.0, 0.0, 0.0, 1.6212658042392368E9, 2021-05-17 17:36:44.239
54.0, 12.940053939819336, -125.29039001464844, 128.84703063964844, 222.02102661132812, -0.06400000303983688, 0.0, 1.055999994277954, 0.0, 0.0, 0.0, 0.0, 0.0, 1.6212658042400932E9, 2021-05-17 17:36:44.240
54.0, 5.067564487457275, -135.4591827392578, 120.79876708984375, 214.91522216796875, -0.06400000303983688, 0.0, 1.055999994277954, 0.0, 0.0, 0.0, 0.0, 0.0, 1.6212658042400932E9, 2021-05-17 17:36:44.240
55.0, 15.812296867370605, -133.21897888183594, 121.39715576171875, 219.7247314453125, -0.06400000303983688, 0.0, 1.055999994277954, 0.0, 0.0, 0.0, 0.0, 0.0, 1.6212658042535312E9, 2021-05-17 17:36:44.253
55.0, 22.58151626586914, -127.433349609375, 124.50875091552734, 223.2963409423828, -0.06400000303983688, 0.0, 1.055999994277954, 0.0, 0.0, 0.0, 0.0, 0.0, 1.6212658042535312E9, 2021-05-17 17:36:44.253
56.0, 18.62470245361328, -132.5719757080078, 130.96755981445312, 218.4943084716797, -0.06400000303983688, 0.0, 1.055999994277954, 0.0, 0.0, 0.0, 0.0, 0.0, 1.621265804270002E9, 2021-05-17 17:36:44.270
56.0, 4.9890265464782715, -145.88975524902344, 120.97828674316406, 205.70758056640625, -0.06400000303983688, 0.0, 1.055999994277954, 0.0, 0.0, 0.0, 0.0, 0.0, 1.621265804270002E9, 2021-05-17 17:36:44.270
57.0, 17.2596378326416, -135.7060089111328, 121.70382690429688, 210.6891326904297, -0.06400000303983688, 0.0, 1.055999994277954, 0.0, 0.0, 0.0, 0.0, 0.0, 1.6212658042707045E9, 2021-05-17 17:36:44.270
57.0, 33.84235382080078, -122.74725341796875, 130.73194885253906, 229.7289581298828, -0.06400000303983688, 0.0, 1.055999994277954, 0.0, 0.0, 0.0, 0.0, 0.0, 1.6212658042707045E9, 2021-05-17 17:36:44.270
58.0, 17.05768394470215, -127.58668518066406, 129.9428253173828, 224.14529418945312, -0.06400000303983688, 0.0, 1.055999994277954, 0.0, 0.0, 0.0, 0.0, 0.0, 1.6212658042834916E9, 2021-05-17 17:36:44.283
58.0, 14.260238647460938, -130.825439453125, 129.79322814941406, 207.24468994140625, -0.06400000303983688, 0.0, 1.055999994277954, 0.0, 0.0, 0.0, 0.0, 0.0, 1.6212658042834916E9, 2021-05-17 17:36:44.283
59.0, 18.43396759033203, -124.69200134277344, 128.14767456054688, 219.36196899414062, -0.06400000303983688, 0.0, 1.055999994277954, 0.0, 0.0, 0.0, 0.0, 0.0, 1.621265804299234E9, 2021-05-17 17:36:44.299
59.0, 35.31587600708008, -112.88887786865234, 129.0452423095703, 230.09921264648438, -0.06400000303983688, 0.0, 1.055999994277954, 0.0, 0.0, 0.0, 0.0, 0.0, 1.621265804299234E9, 2021-05-17 17:36:44.299
60.0, 17.573789596557617, -126.30016326904297, 133.8397979736328, 217.93331909179688, -0.06400000303983688, 0.0, 1.055999994277954, 0.0, 0.0, 0.0, 0.0, 0.0, 1.6212658042999418E9, 2021-05-17 17:36:44.299
60.0, 14.518291473388672, -128.94801330566406, 123.69718933105469, 209.10340881347656, -0.06400000303983688, 0.0, 1.055999994277954, 0.0, 0.0, 0.0, 0.0, 0.0, 1.6212658042999418E9, 2021-05-17 17:36:44.299
61.0, 19.88130760192871, -127.19025421142578, 125.06599426269531, 217.54063415527344, -0.06400000303983688, 0.01600000075995922, 1.055999994277954, 0.0, 0.0, 0.0, 0.0, 0.0, 1.621265804313468E9, 2021-05-17 17:36:44.313
61.0, 34.582855224609375, -121.05308532714844, 124.17589569091797, 228.42747497558594, -0.06400000303983688, 0.01600000075995922, 1.055999994277954, 0.0, 0.0, 0.0, 0.0, 0.0, 1.621265804313468E9, 2021-05-17 17:36:44.313
62.0, 15.195213317871094, -126.2253646850586, 121.23259735107422, 213.68479919433594, -0.06400000303983688, 0.01600000075995922, 1.055999994277954, 0.0, 0.0, 0.0, 0.0, 0.0, 1.6212658043292437E9, 2021-05-17 17:36:44.329
62.0, 11.657268524169922, -131.43878173828125, 117.57123565673828, 206.2461395263672, -0.06400000303983688, 0.01600000075995922, 1.055999994277954, 0.0, 0.0, 0.0, 0.0, 0.0, 1.6212658043292437E9, 2021-05-17 17:36:44.329
63.0, 16.698654174804688, -124.05248260498047, 113.5022201538086, 213.42674255371094, -0.06400000303983688, 0.01600000075995922, 1.055999994277954, 0.0, 0.0, 0.0, 0.0, 0.0, 1.621265804329945E9, 2021-05-17 17:36:44.329
63.0, 29.840662002563477, -119.0597152709961, 123.97394561767578, 224.11537170410156, -0.06400000303983688, 0.01600000075995922, 1.055999994277954, 0.0, 0.0, 0.0, 0.0, 0.0, 1.621265804329945E9, 2021-05-17 17:36:44.329
64.0, 18.7742977142334, -129.10134887695312, 125.39510345458984, 215.04611206054688, -0.06400000303983688, 0.01600000075995922, 1.055999994277954, 0.0, 0.0, 0.0, 0.0, 0.0, 1.6212658043434565E9, 2021-05-17 17:36:44.343
64.0, 10.7073335647583, -133.4919891357422, 118.56978607177734, 199.47317504882812, -0.06400000303983688, 0.01600000075995922, 1.055999994277954, 0.0, 0.0, 0.0, 0.0, 0.0, 1.6212658043434565E9, 2021-05-17 17:36:44.343
65.0, 20.18798065185547, -129.2621612548828, 118.62214660644531, 216.24288940429688, -0.06400000303983688, 0.01600000075995922, 1.055999994277954, 0.0, 0.0, 0.0, 0.0, 0.0, 1.6212658043592796E9, 2021-05-17 17:36:44.359
65.0, 24.088695526123047, -122.64627838134766, 121.97683715820312, 224.31358337402344, -0.06400000303983688, 0.01600000075995922, 1.055999994277954, 0.0, 0.0, 0.0, 0.0, 0.0, 1.6212658043592796E9, 2021-05-17 17:36:44.359
66.0, 12.670781135559082, -131.18072509765625, 120.15176391601562, 214.31683349609375, -0.06400000303983688, 0.01600000075995922, 1.055999994277954, 0.0, 0.0, 0.0, 0.0, 0.0, 1.621265804359996E9, 2021-05-17 17:36:44.359
66.0, 5.299437999725342, -145.14178466796875, 123.55133819580078, 204.6043243408203, -0.06400000303983688, 0.01600000075995922, 1.055999994277954, 0.0, 0.0, 0.0, 0.0, 0.0, 1.621265804359996E9, 2021-05-17 17:36:44.359
67.0, 10.26602554321289, -132.45977783203125, 119.9273681640625, 212.1738739013672, -0.06400000303983688, 0.01600000075995922, 1.055999994277954, 0.0, 0.0, 0.0, 0.0, 0.0, 1.6212658043735287E9, 2021-05-17 17:36:44.373
67.0, 31.486217498779297, -123.54759216308594, 123.90288543701172, 227.11477661132812, -0.06400000303983688, 0.01600000075995922, 1.055999994277954, 0.0, 0.0, 0.0, 0.0, 0.0, 1.6212658043735287E9, 2021-05-17 17:36:44.373
68.0, 13.254205703735352, -129.66607666015625, 126.96212005615234, 215.50238037109375, -0.06400000303983688, 0.01600000075995922, 1.055999994277954, 0.0, 0.0, 0.0, 0.0, 0.0, 1.6212658043892417E9, 2021-05-17 17:36:44.389
68.0, 12.883955001831055, -139.28883361816406, 116.55023956298828, 202.40525817871094, -0.06400000303983688, 0.01600000075995922, 1.055999994277954, 0.0, 0.0, 0.0, 0.0, 0.0, 1.6212658043892417E9, 2021-05-17 17:36:44.389
69.0, 14.447233200073242, -131.3265838623047, 115.64518737792969, 207.4728240966797, -0.06400000303983688, 0.01600000075995922, 1.055999994277954, 0.0, 0.0, 0.0, 0.0, 0.0, 1.6212658043899877E9, 2021-05-17 17:36:44.389
69.0, 30.173513412475586, -123.39051818847656, 122.57896423339844, 220.68214416503906, -0.06400000303983688, 0.01600000075995922, 1.055999994277954, 0.0, 0.0, 0.0, 0.0, 0.0, 1.6212658043899877E9, 2021-05-17 17:36:44.389
70.0, 17.54387092590332, -126.23657989501953, 126.47219848632812, 210.71157836914062, -0.06400000303983688, 0.01600000075995922, 1.055999994277954, 0.0, 0.0, 0.0, 0.0, 0.0, 1.621265804403485E9, 2021-05-17 17:36:44.403
70.0, 8.699007034301758, -137.59840393066406, 121.58414459228516, 196.877685546875, -0.06400000303983688, 0.01600000075995922, 1.055999994277954, 0.0, 0.0, 0.0, 0.0, 0.0, 1.621265804403485E9, 2021-05-17 17:36:44.403
71.0, 22.869487762451172, -131.36398315429688, 119.91989135742188, 208.3591766357422, -0.06400000303983688, 0.0, 1.055999994277954, 0.0, 0.0, 0.0, 0.0, 0.0, 1.6212658044191897E9, 2021-05-17 17:36:44.419
71.0, 24.93391227722168, -123.45783996582031, 121.21389770507812, 219.6424560546875, -0.06400000303983688, 0.0, 1.055999994277954, 0.0, 0.0, 0.0, 0.0, 0.0, 1.6212658044191897E9, 2021-05-17 17:36:44.419
72.0, 21.612882614135742, -128.1925506591797, 128.6712646484375, 210.7826385498047, -0.06400000303983688, 0.0, 1.055999994277954, 0.0, 0.0, 0.0, 0.0, 0.0, 1.621265804419906E9, 2021-05-17 17:36:44.419
72.0, 5.598630428314209, -135.99024963378906, 119.85631561279297, 202.67453002929688, -0.06400000303983688, 0.0, 1.055999994277954, 0.0, 0.0, 0.0, 0.0, 0.0, 1.621265804419906E9, 2021-05-17 17:36:44.419
73.0, 11.545071601867676, -129.18362426757812, 123.70467376708984, 212.3795623779297, -0.06400000303983688, 0.0, 1.055999994277954, 0.0, 0.0, 0.0, 0.0, 0.0, 1.621265804433663E9, 2021-05-17 17:36:44.433
73.0, 23.538930892944336, -121.74870300292969, 124.6994857788086, 222.6568145751953, -0.06400000303983688, 0.0, 1.055999994277954, 0.0, 0.0, 0.0, 0.0, 0.0, 1.621265804433663E9, 2021-05-17 17:36:44.433
74.0, 10.703593254089355, -131.3677215576172, 127.38847351074219, 214.5113067626953, -0.06400000303983688, 0.0, 1.055999994277954, 0.0, 0.0, 0.0, 0.0, 0.0, 1.6212658044491832E9, 2021-05-17 17:36:44.449
74.0, 6.776698589324951, -143.22694396972656, 121.74870300292969, 200.2136688232422, -0.06400000303983688, 0.0, 1.055999994277954, 0.0, 0.0, 0.0, 0.0, 0.0, 1.6212658044491832E9, 2021-05-17 17:36:44.449
75.0, 14.836183547973633, -132.609375, 120.42103576660156, 209.2567596435547, -0.06400000303983688, 0.0, 1.055999994277954, 0.0, 0.0, 0.0, 0.0, 0.0, 1.6212658044499407E9, 2021-05-17 17:36:44.449
75.0, 33.909671783447266, -125.64567565917969, 123.71588897705078, 223.01210021972656, -0.06400000303983688, 0.0, 1.055999994277954, 0.0, 0.0, 0.0, 0.0, 0.0, 1.6212658044499407E9, 2021-05-17 17:36:44.449
76.0, 20.805063247680664, -134.14273071289062, 119.24671173095703, 209.74293518066406, -0.06400000303983688, 0.0, 1.055999994277954, 0.0, 0.0, 0.0, 0.0, 0.0, 1.62126580446352E9, 2021-05-17 17:36:44.463
76.0, 3.5155060291290283, -141.77960205078125, 120.34623718261719, 203.93861389160156, -0.06400000303983688, 0.0, 1.055999994277954, 0.0, 0.0, 0.0, 0.0, 0.0, 1.62126580446352E9, 2021-05-17 17:36:44.463
77.0, 14.409834861755371, -135.51901245117188, 122.51164245605469, 207.82810974121094, -0.06400000303983688, 0.0, 1.055999994277954, 0.0, 0.0, 0.0, 0.0, 0.0, 1.6212658044791918E9, 2021-05-17 17:36:44.479
77.0, 31.493698120117188, -128.14767456054688, 128.92556762695312, 221.05239868164062, -0.06400000303983688, 0.0, 1.055999994277954, 0.0, 0.0, 0.0, 0.0, 0.0, 1.6212658044791918E9, 2021-05-17 17:36:44.479
78.0, 13.07843017578125, -137.67320251464844, 132.1456298828125, 217.02825927734375, -0.06400000303983688, 0.0, 1.055999994277954, 0.0, 0.0, 0.0, 0.0, 0.0, 1.6212658044799075E9, 2021-05-17 17:36:44.479
78.0, 11.859222412109375, -142.527587890625, 127.57546997070312, 205.41213989257812, -0.06400000303983688, 0.0, 1.055999994277954, 0.0, 0.0, 0.0, 0.0, 0.0, 1.6212658044799075E9, 2021-05-17 17:36:44.479
79.0, 14.656667709350586, -138.38003540039062, 121.44203186035156, 208.6209716796875, -0.06400000303983688, 0.0, 1.055999994277954, 0.0, 0.0, 0.0, 0.0, 0.0, 1.6212658044936805E9, 2021-05-17 17:36:44.493
79.0, 26.328895568847656, -125.61202239990234, 126.39366149902344, 218.15023803710938, -0.06400000303983688, 0.0, 1.055999994277954, 0.0, 0.0, 0.0, 0.0, 0.0, 1.6212658044936805E9, 2021-05-17 17:36:44.493
80.0, 9.929434776306152, -128.94427490234375, 127.96815490722656, 207.23345947265625, -0.06400000303983688, 0.0, 1.055999994277954, 0.0, 0.0, 0.0, 0.0, 0.0, 1.6212658045090785E9, 2021-05-17 17:36:44.509
80.0, 9.424548149108887, -130.6234893798828, 125.8850326538086, 200.84197998046875, -0.06400000303983688, 0.0, 1.055999994277954, 0.0, 0.0, 0.0, 0.0, 0.0, 1.6212658045090785E9, 2021-05-17 17:36:44.509
81.0, 13.407541275024414, -133.9744415283203, 118.82784271240234, 207.73086547851562, -0.06400000303983688, 0.0, 1.055999994277954, 0.0, 0.0, 0.0, 0.0, 0.0, 1.6212658045243726E9, 2021-05-17 17:36:44.524
81.0, 24.88529396057129, -125.26420593261719, 120.80250549316406, 214.06253051757812, -0.06400000303983688, 0.0, 1.055999994277954, 0.0, 0.0, 0.0, 0.0, 0.0, 1.6212658045243726E9, 2021-05-17 17:36:44.524
82.0, 13.44867992401123, -132.88238525390625, 125.91869354248047, 207.1736297607422, -0.06400000303983688, 0.0, 1.055999994277954, 0.0, 0.0, 0.0, 0.0, 0.0, 1.6212658045251088E9, 2021-05-17 17:36:44.525
82.0, 6.006279468536377, -141.89553833007812, 118.82035827636719, 200.26229858398438, -0.06400000303983688, 0.0, 1.055999994277954, 0.0, 0.0, 0.0, 0.0, 0.0, 1.6212658045251088E9, 2021-05-17 17:36:44.525
83.0, 11.444093704223633, -141.41683959960938, 118.56230926513672, 213.61373901367188, -0.06400000303983688, 0.0, 1.055999994277954, 0.0, 0.0, 0.0, 0.0, 0.0, 1.6212658045393014E9, 2021-05-17 17:36:44.539
83.0, 21.900854110717773, -126.90228271484375, 125.13331604003906, 223.5768280029297, -0.06400000303983688, 0.0, 1.055999994277954, 0.0, 0.0, 0.0, 0.0, 0.0, 1.6212658045393014E9, 2021-05-17 17:36:44.539
84.0, 10.026671409606934, -126.26276397705078, 124.11979675292969, 214.06253051757812, -0.06400000303983688, 0.0, 1.055999994277954, 0.0, 0.0, 0.0, 0.0, 0.0, 1.62126580453995E9, 2021-05-17 17:36:44.539
84.0, -0.8339976668357849, -137.07107543945312, 118.7231216430664, 202.6446075439453, -0.06400000303983688, 0.0, 1.055999994277954, 0.0, 0.0, 0.0, 0.0, 0.0, 1.62126580453995E9, 2021-05-17 17:36:44.539
85.0, 5.093743801116943, -133.67898559570312, 112.06610107421875, 209.084716796875, -0.06400000303983688, 0.0, 1.055999994277954, 0.0, 0.0, 0.0, 0.0, 0.0, 1.621265804553574E9, 2021-05-17 17:36:44.553
85.0, 15.935713768005371, -126.49089813232422, 114.19036865234375, 215.56222534179688, -0.06400000303983688, 0.0, 1.055999994277954, 0.0, 0.0, 0.0, 0.0, 0.0, 1.621265804553574E9, 2021-05-17 17:36:44.553
86.0, 10.883109092712402, -134.217529296875, 120.11062622070312, 208.77804565429688, -0.06400000303983688, 0.0, 1.055999994277954, 0.0, 0.0, 0.0, 0.0, 0.0, 1.6212658045692103E9, 2021-05-17 17:36:44.569
86.0, 7.988426208496094, -141.0802459716797, 116.22486877441406, 199.8845672607422, -0.06400000303983688, 0.0, 1.055999994277954, 0.0, 0.0, 0.0, 0.0, 0.0, 1.6212658045692103E9, 2021-05-17 17:36:44.569
87.0, 16.728572845458984, -135.26844787597656, 113.52466583251953, 208.4938201904297, -0.06400000303983688, 0.0, 1.055999994277954, 0.0, 0.0, 0.0, 0.0, 0.0, 1.6212658045700216E9, 2021-05-17 17:36:44.570
87.0, 25.102209091186523, -127.77742004394531, 115.01688385009766, 217.96324157714844, -0.06400000303983688, 0.0, 1.055999994277954, 0.0, 0.0, 0.0, 0.0, 0.0, 1.6212658045700216E9, 2021-05-17 17:36:44.570
88.0, 12.408987998962402, -136.7270050048828, 122.43310546875, 209.41383361816406, -0.06400000303983688, 0.0, 1.055999994277954, 0.0, 0.0, 0.0, 0.0, 0.0, 1.6212658045835218E9, 2021-05-17 17:36:44.583
88.0, 8.631689071655273, -148.32443237304688, 116.94293212890625, 201.1598663330078, -0.06400000303983688, 0.0, 1.055999994277954, 0.0, 0.0, 0.0, 0.0, 0.0, 1.6212658045835218E9, 2021-05-17 17:36:44.583
89.0, 19.686832427978516, -135.00291442871094, 121.37471008300781, 213.7895050048828, -0.06400000303983688, 0.0, 1.055999994277954, 0.0, 0.0, 0.0, 0.0, 0.0, 1.621265804599214E9, 2021-05-17 17:36:44.599
89.0, 32.66428756713867, -129.24720764160156, 126.16926574707031, 225.8319854736328, -0.06400000303983688, 0.0, 1.055999994277954, 0.0, 0.0, 0.0, 0.0, 0.0, 1.621265804599214E9, 2021-05-17 17:36:44.599
90.0, 25.46497917175293, -132.9534454345703, 130.97877502441406, 215.6071014404297, -0.06400000303983688, 0.0, 1.055999994277954, 0.0, 0.0, 0.0, 0.0, 0.0, 1.6212658046000185E9, 2021-05-17 17:36:44.600
90.0, 10.856929779052734, -135.1936492919922, 131.48365783691406, 206.80711364746094, -0.06400000303983688, 0.0, 1.055999994277954, 0.0, 0.0, 0.0, 0.0, 0.0, 1.6212658046000185E9, 2021-05-17 17:36:44.600
91.0, 16.197505950927734, -134.29232788085938, 123.58125305175781, 211.8111114501953, -0.06400000303983688, 0.01600000075995922, 1.055999994277954, 0.0, 0.0, 0.0, 0.0, 0.0, 1.6212658046306543E9, 2021-05-17 17:36:44.630
