Sample Index, EXG Channel 0, EXG Channel 1, EXG Channel 2, EXG Channel 3, Accel Channel 0, Accel Channel 1, Accel Channel 2, Other, Other, Other, Other, Other, Timestamp, Timestamp (Formatted)
0.0, -167.5306854248047, -317.203369140625, -79.61125183105469, 258.3036804199219, 0.0, 0.0, 0.0, 0.0, 0.0, 0.0, 0.0, 0.0, 1.6212685734652703E9, 2021-05-17 18:22:53.465
1.0, -164.73324584960938, -312.00115966796875, -74.20335388183594, 257.6230163574219, 0.0, 0.0, 0.0, 0.0, 0.0, 0.0, 0.0, 0.0, 1.6212685734660304E9, 2021-05-17 18:22:53.466
1.0, -157.33572387695312, -299.7492370605469, -70.74394989013672, 269.3550720214844, 0.0, 0.0, 0.0, 0.0, 0.0, 0.0, 0.0, 0.0, 1.6212685734660304E9, 2021-05-17 18:22:53.466
2.0, -162.04425048828125, -294.1917419433594, -67.8904037475586, 270.4994812011719, -0.06400000303983688, 0.0, 0.0, 0.0, 0.0, 0.0, 0.0, 0.0, 1.6212685734806645E9, 2021-05-17 18:22:53.480
2.0, -169.2734832763672, -306.9934387207031, -70.4784164428711, 254.1448974609375, -0.06400000303983688, 0.0, 0.0, 0.0, 0.0, 0.0, 0.0, 0.0, 1.6212685734806645E9, 2021-05-17 18:22:53.480
3.0, -176.21847534179688, -299.0050048828125, -72.64381408691406, 252.92568969726562, -0.06400000303983688, 0.0, 0.0, 0.0, 0.0, 0.0, 0.0, 0.0, 1.6212685734821067E9, 2021-05-17 18:22:53.482
3.0, -164.70706176757812, -288.9858093261719, -73.39553833007812, 261.8453674316406, -0.06400000303983688, 0.0, 0.0, 0.0, 0.0, 0.0, 0.0, 0.0, 1.6212685734821067E9, 2021-05-17 18:22:53.482
4.0, -166.6929473876953, -290.9642028808594, -70.44475555419922, 260.2259826660156, -0.06400000303983688, 0.0, 0.0, 0.0, 0.0, 0.0, 0.0, 0.0, 1.6212685734944048E9, 2021-05-17 18:22:53.494
4.0, -165.8477325439453, -301.5182189941406, -72.59893798828125, 248.82676696777344, -0.06400000303983688, 0.0, 0.0, 0.0, 0.0, 0.0, 0.0, 0.0, 1.6212685734944048E9, 2021-05-17 18:22:53.494
5.0, -163.472900390625, -309.6524963378906, -72.96170806884766, 241.75086975097656, -0.06400000303983688, 0.0, 0.0, 0.0, 0.0, 0.0, 0.0, 0.0, 1.6212685735098395E9, 2021-05-17 18:22:53.509
5.0, -154.0969696044922, -299.4388427734375, -71.57794189453125, 249.87767028808594, -0.06400000303983688, 0.0, 0.0, 0.0, 0.0, 0.0, 0.0, 0.0, 1.6212685735098395E9, 2021-05-17 18:22:53.509
6.0, -151.28829956054688, -300.4448547363281, -63.6643180847168, 257.69781494140625, -0.06400000303983688, 0.0, 0.0, 0.0, 0.0, 0.0, 0.0, 0.0, 1.621268573524801E9, 2021-05-17 18:22:53.524
6.0, -155.00576782226562, -304.2333679199219, -58.054466247558594, 245.0681610107422, -0.06400000303983688, 0.0, 0.0, 0.0, 0.0, 0.0, 0.0, 0.0, 1.621268573524801E9, 2021-05-17 18:22:53.524
7.0, -157.13377380371094, -300.7552795410156, -54.59880065917969, 247.60008239746094, -0.06400000303983688, 0.0, 0.0, 0.0, 0.0, 0.0, 0.0, 0.0, 1.621268573540851E9, 2021-05-17 18:22:53.540
7.0, -144.3096466064453, -287.9947509765625, -53.4693489074707, 260.01654052734375, -0.06400000303983688, 0.0, 0.0, 0.0, 0.0, 0.0, 0.0, 0.0, 1.621268573540851E9, 2021-05-17 18:22:53.540
8.0, -139.12240600585938, -287.27667236328125, -58.40975570678711, 259.1488952636719, -0.06400000303983688, 0.0, 0.0, 0.0, 0.0, 0.0, 0.0, 0.0, 1.6212685735414803E9, 2021-05-17 18:22:53.541
8.0, -145.39796447753906, -299.1059875488281, -52.826087951660156, 253.2959442138672, -0.06400000303983688, 0.0, 0.0, 0.0, 0.0, 0.0, 0.0, 0.0, 1.6212685735414803E9, 2021-05-17 18:22:53.541
9.0, -147.12953186035156, -300.0072937011719, -53.21877670288086, 258.32611083984375, -0.06400000303983688, 0.0, 0.0, 0.0, 0.0, 0.0, 0.0, 0.0, 1.6212685735422437E9, 2021-05-17 18:22:53.542
9.0, -137.88450622558594, -287.4187927246094, -51.20671081542969, 276.2364807128906, -0.06400000303983688, 0.0, 0.0, 0.0, 0.0, 0.0, 0.0, 0.0, 1.6212685735422437E9, 2021-05-17 18:22:53.542
10.0, -132.1026153564453, -287.9012451171875, -44.594566345214844, 283.5741882324219, -0.06400000303983688, 0.0, 1.055999994277954, 0.0, 0.0, 0.0, 0.0, 0.0, 1.6212685735544305E9, 2021-05-17 18:22:53.554
10.0, -143.284912109375, -293.16326904296875, -41.23613739013672, 276.487060546875, -0.06400000303983688, 0.0, 1.055999994277954, 0.0, 0.0, 0.0, 0.0, 0.0, 1.6212685735544305E9, 2021-05-17 18:22:53.554
11.0, -144.9454345703125, -296.94805908203125, -39.03707504272461, 278.3944091796875, -0.06400000303983688, 0.01600000075995922, 1.055999994277954, 0.0, 0.0, 0.0, 0.0, 0.0, 1.6212685735704055E9, 2021-05-17 18:22:53.570
11.0, -134.61209106445312, -287.3215637207031, -38.15446090698242, 290.5415954589844, -0.06400000303983688, 0.01600000075995922, 1.055999994277954, 0.0, 0.0, 0.0, 0.0, 0.0, 1.6212685735704055E9, 2021-05-17 18:22:53.570
12.0, -132.06895446777344, -285.1860656738281, -41.44557189941406, 289.4158935546875, -0.08000000566244125, 0.01600000075995922, 1.055999994277954, 0.0, 0.0, 0.0, 0.0, 0.0, 1.6212685735851476E9, 2021-05-17 18:22:53.585
12.0, -145.326904296875, -286.0537414550781, -31.620853424072266, 279.7333068847656, -0.08000000566244125, 0.01600000075995922, 1.055999994277954, 0.0, 0.0, 0.0, 0.0, 0.0, 1.6212685735851476E9, 2021-05-17 18:22:53.585
13.0, -140.35658264160156, -288.7165222167969, -35.12514114379883, 281.8874816894531, -0.08000000566244125, 0.01600000075995922, 1.055999994277954, 0.0, 0.0, 0.0, 0.0, 0.0, 1.621268573585826E9, 2021-05-17 18:22:53.585
13.0, -143.4980926513672, -281.74163818359375, -33.30754852294922, 284.1089782714844, -0.08000000566244125, 0.01600000075995922, 1.055999994277954, 0.0, 0.0, 0.0, 0.0, 0.0, 1.621268573585826E9, 2021-05-17 18:22:53.585
14.0, -136.62042236328125, -273.0650634765625, -31.05986976623535, 288.0657958984375, -0.08000000566244125, 0.01600000075995922, 1.055999994277954, 0.0, 0.0, 0.0, 0.0, 0.0, 1.621268573600168E9, 2021-05-17 18:22:53.600
14.0, -137.76856994628906, -283.2936706542969, -35.02416229248047, 270.0207824707031, -0.08000000566244125, 0.01600000075995922, 1.055999994277954, 0.0, 0.0, 0.0, 0.0, 0.0, 1.621268573600168E9, 2021-05-17 18:22:53.600
15.0, -141.7665252685547, -279.5799560546875, -31.029949188232422, 264.3548278808594, -0.08000000566244125, 0.01600000075995922, 1.055999994277954, 0.0, 0.0, 0.0, 0.0, 0.0, 1.6212685736007538E9, 2021-05-17 18:22:53.600
15.0, -135.41990661621094, -279.0264587402344, -37.32046127319336, 267.9226989746094, -0.08000000566244125, 0.01600000075995922, 1.055999994277954, 0.0, 0.0, 0.0, 0.0, 0.0, 1.6212685736007538E9, 2021-05-17 18:22:53.600
16.0, -129.24533081054688, -272.56390380859375, -36.665977478027344, 266.4529113769531, -0.08000000566244125, 0.01600000075995922, 1.055999994277954, 0.0, 0.0, 0.0, 0.0, 0.0, 1.621268573614398E9, 2021-05-17 18:22:53.614
16.0, -136.72512817382812, -276.827392578125, -22.45435905456543, 266.5650939941406, -0.08000000566244125, 0.01600000075995922, 1.055999994277954, 0.0, 0.0, 0.0, 0.0, 0.0, 1.621268573614398E9, 2021-05-17 18:22:53.614
17.0, -138.81947326660156, -282.72894287109375, -27.578022003173828, 266.5277099609375, -0.08000000566244125, 0.01600000075995922, 1.055999994277954, 0.0, 0.0, 0.0, 0.0, 0.0, 1.6212685736300309E9, 2021-05-17 18:22:53.630
17.0, -130.68519592285156, -275.6605529785156, -34.02935028076172, 273.09124755859375, -0.08000000566244125, 0.01600000075995922, 1.055999994277954, 0.0, 0.0, 0.0, 0.0, 0.0, 1.6212685736300309E9, 2021-05-17 18:22:53.630
18.0, -130.748779296875, -275.8475341796875, -30.379207611083984, 278.4280700683594, -0.08000000566244125, 0.01600000075995922, 1.055999994277954, 0.0, 0.0, 0.0, 0.0, 0.0, 1.6212685736308048E9, 2021-05-17 18:22:53.630
18.0, -135.3114471435547, -280.4700622558594, -24.20089340209961, 274.0149841308594, -0.08000000566244125, 0.01600000075995922, 1.055999994277954, 0.0, 0.0, 0.0, 0.0, 0.0, 1.6212685736308048E9, 2021-05-17 18:22:53.630
19.0, -137.67506408691406, -278.3308410644531, -32.23419952392578, 272.51904296875, -0.08000000566244125, 0.01600000075995922, 1.055999994277954, 0.0, 0.0, 0.0, 0.0, 0.0, 1.6212685736444075E9, 2021-05-17 18:22:53.644
19.0, -137.9854736328125, -270.0245056152344, -29.62000846862793, 282.62799072265625, -0.08000000566244125, 0.01600000075995922, 1.055999994277954, 0.0, 0.0, 0.0, 0.0, 0.0, 1.6212685736444075E9, 2021-05-17 18:22:53.644
20.0, -130.88340759277344, -272.3245544433594, -24.541223526000977, 289.7637023925781, -0.08000000566244125, 0.01600000075995922, 1.055999994277954, 0.0, 0.0, 0.0, 0.0, 0.0, 1.621268573660088E9, 2021-05-17 18:22:53.660
20.0, -136.82984924316406, -278.8207702636719, -27.233951568603516, 284.1763000488281, -0.08000000566244125, 0.01600000075995922, 1.055999994277954, 0.0, 0.0, 0.0, 0.0, 0.0, 1.621268573660088E9, 2021-05-17 18:22:53.660
21.0, -135.7415313720703, -284.0528869628906, -31.912567138671875, 275.8587646484375, -0.08000000566244125, 0.0, 1.055999994277954, 0.0, 0.0, 0.0, 0.0, 0.0, 1.6212685736608293E9, 2021-05-17 18:22:53.660
21.0, -127.70075225830078, -276.98822021484375, -25.165786743164062, 290.17510986328125, -0.08000000566244125, 0.0, 1.055999994277954, 0.0, 0.0, 0.0, 0.0, 0.0, 1.6212685736608293E9, 2021-05-17 18:22:53.660
22.0, -123.6467056274414, -279.6023864746094, -25.401399612426758, 292.3068542480469, -0.06400000303983688, 0.0, 1.055999994277954, 0.0, 0.0, 0.0, 0.0, 0.0, 1.62126857369148E9, 2021-05-17 18:22:53.691
22.0, -125.04168701171875, -288.2228698730469, -18.089895248413086, 282.0520324707031, -0.06400000303983688, 0.0, 1.055999994277954, 0.0, 0.0, 0.0, 0.0, 0.0, 1.62126857369148E9, 2021-05-17 18:22:53.691
23.0, -132.03529357910156, -284.47174072265625, -22.8994083404541, 277.26123046875, -0.06400000303983688, 0.0, 1.055999994277954, 0.0, 0.0, 0.0, 0.0, 0.0, 1.6212685736920884E9, 2021-05-17 18:22:53.692
23.0, -125.07534790039062, -275.0210266113281, -22.50297737121582, 282.1492614746094, -0.06400000303983688, 0.0, 1.055999994277954, 0.0, 0.0, 0.0, 0.0, 0.0, 1.6212685736920884E9, 2021-05-17 18:22:53.692
24.0, -120.62112426757812, -274.9013366699219, -20.434812545776367, 287.77783203125, -0.06400000303983688, 0.0, 1.055999994277954, 0.0, 0.0, 0.0, 0.0, 0.0, 1.6212685736929567E9, 2021-05-17 18:22:53.692
24.0, -123.18669128417969, -275.5146789550781, -11.49271297454834, 276.38983154296875, -0.06400000303983688, 0.0, 1.055999994277954, 0.0, 0.0, 0.0, 0.0, 0.0, 1.6212685736929567E9, 2021-05-17 18:22:53.692
25.0, -127.5436782836914, -275.1294860839844, -16.889389038085938, 278.59637451171875, -0.06400000303983688, 0.0, 1.055999994277954, 0.0, 0.0, 0.0, 0.0, 0.0, 1.621268573704294E9, 2021-05-17 18:22:53.704
25.0, -125.3558349609375, -267.2083740234375, -12.521184921264648, 285.84429931640625, -0.06400000303983688, 0.0, 1.055999994277954, 0.0, 0.0, 0.0, 0.0, 0.0, 1.621268573704294E9, 2021-05-17 18:22:53.704
26.0, -122.70050811767578, -260.66729736328125, -11.320676803588867, 292.3629455566406, -0.06400000303983688, 0.0, 1.055999994277954, 0.0, 0.0, 0.0, 0.0, 0.0, 1.621268573720079E9, 2021-05-17 18:22:53.720
26.0, -129.82875061035156, -266.7221984863281, -2.9470412731170654, 286.0050964355469, -0.06400000303983688, 0.0, 1.055999994277954, 0.0, 0.0, 0.0, 0.0, 0.0, 1.621268573720079E9, 2021-05-17 18:22:53.720
27.0, -128.9910125732422, -270.90338134765625, -6.862716197967529, 273.9738464355469, -0.06400000303983688, 0.0, 1.055999994277954, 0.0, 0.0, 0.0, 0.0, 0.0, 1.6212685737207773E9, 2021-05-17 18:22:53.720
27.0, -121.95252990722656, -261.5760803222656, -9.820977210998535, 282.9608154296875, -0.06400000303983688, 0.0, 1.055999994277954, 0.0, 0.0, 0.0, 0.0, 0.0, 1.6212685737207773E9, 2021-05-17 18:22:53.720
28.0, -130.8983612060547, -257.9371643066406, -6.339130401611328, 288.93719482421875, -0.06400000303983688, 0.0, 1.055999994277954, 0.0, 0.0, 0.0, 0.0, 0.0, 1.6212685737513573E9, 2021-05-17 18:22:53.751
28.0, -129.3911895751953, -268.4761962890625, -3.5454251766204834, 276.47210693359375, -0.06400000303983688, 0.0, 1.055999994277954, 0.0, 0.0, 0.0, 0.0, 0.0, 1.6212685737513573E9, 2021-05-17 18:22:53.751
29.0, -122.15447998046875, -268.17327880859375, -1.5071797370910645, 278.7571716308594, -0.06400000303983688, 0.0, 1.055999994277954, 0.0, 0.0, 0.0, 0.0, 0.0, 1.621268573752072E9, 2021-05-17 18:22:53.752
29.0, -111.3424301147461, -260.81689453125, -7.341423511505127, 287.3627014160156, -0.06400000303983688, 0.0, 1.055999994277954, 0.0, 0.0, 0.0, 0.0, 0.0, 1.621268573752072E9, 2021-05-17 18:22:53.752
30.0, -109.46874237060547, -260.5775146484375, -5.422854900360107, 292.31805419921875, -0.06400000303983688, 0.0, 1.055999994277954, 0.0, 0.0, 0.0, 0.0, 0.0, 1.621268573752827E9, 2021-05-17 18:22:53.752
30.0, -120.43412780761719, -263.41986083984375, -5.183501243591309, 286.42022705078125, -0.06400000303983688, 0.0, 1.055999994277954, 0.0, 0.0, 0.0, 0.0, 0.0, 1.621268573752827E9, 2021-05-17 18:22:53.752
31.0, -119.38695526123047, -266.72967529296875, -2.909642219543457, 284.79339599609375, -0.06400000303983688, 0.0, 1.055999994277954, 0.0, 0.0, 0.0, 0.0, 0.0, 1.621268573764344E9, 2021-05-17 18:22:53.764
31.0, -114.9963150024414, -254.68344116210938, -7.356383323669434, 297.5015563964844, -0.06400000303983688, 0.0, 1.055999994277954, 0.0, 0.0, 0.0, 0.0, 0.0, 1.621268573764344E9, 2021-05-17 18:22:53.764
32.0, -112.99920654296875, -249.6532745361328, -2.4832935333251953, 304.37548828125, -0.08000000566244125, 0.0, 1.055999994277954, 0.0, 0.0, 0.0, 0.0, 0.0, 1.6212685737801054E9, 2021-05-17 18:22:53.780
32.0, -123.22035217285156, -257.7239990234375, -1.0845710039138794, 291.1624450683594, -0.08000000566244125, 0.0, 1.055999994277954, 0.0, 0.0, 0.0, 0.0, 0.0, 1.6212685737801054E9, 2021-05-17 18:22:53.780
33.0, -124.20394897460938, -257.1629943847656, -2.206541061401367, 294.4759826660156, -0.08000000566244125, 0.0, 1.055999994277954, 0.0, 0.0, 0.0, 0.0, 0.0, 1.6212685737807755E9, 2021-05-17 18:22:53.780
33.0, -121.9039077758789, -250.9659881591797, -6.858976364135742, 296.25616455078125, -0.08000000566244125, 0.0, 1.055999994277954, 0.0, 0.0, 0.0, 0.0, 0.0, 1.6212685737807755E9, 2021-05-17 18:22:53.780
34.0, -123.4073486328125, -246.91941833496094, -0.07853789627552032, 305.3777770996094, -0.08000000566244125, 0.0, 1.055999994277954, 0.0, 0.0, 0.0, 0.0, 0.0, 1.6212685738107648E9, 2021-05-17 18:22:53.810
34.0, -127.23326873779297, -259.79962158203125, 3.7922585010528564, 290.3097229003906, -0.08000000566244125, 0.0, 1.055999994277954, 0.0, 0.0, 0.0, 0.0, 0.0, 1.6212685738107648E9, 2021-05-17 18:22:53.810
35.0, -122.77530670166016, -253.25106811523438, 3.1452558040618896, 294.6929016113281, -0.08000000566244125, 0.0, 1.055999994277954, 0.0, 0.0, 0.0, 0.0, 0.0, 1.6212685738114357E9, 2021-05-17 18:22:53.811
35.0, -121.9637451171875, -251.28013610839844, -5.658468723297119, 295.3772888183594, -0.08000000566244125, 0.0, 1.055999994277954, 0.0, 0.0, 0.0, 0.0, 0.0, 1.6212685738114357E9, 2021-05-17 18:22:53.811
36.0, -122.04602813720703, -251.8186798095703, 1.552058458328247, 294.47222900390625, -0.08000000566244125, 0.0, 1.055999994277954, 0.0, 0.0, 0.0, 0.0, 0.0, 1.6212685738121636E9, 2021-05-17 18:22:53.812
36.0, -127.15473175048828, -252.29739379882812, 2.7937052249908447, 286.31927490234375, -0.08000000566244125, 0.0, 1.055999994277954, 0.0, 0.0, 0.0, 0.0, 0.0, 1.6212685738121636E9, 2021-05-17 18:22:53.812
37.0, -120.71088409423828, -257.41357421875, 2.9545209407806396, 290.4967346191406, -0.08000000566244125, 0.0, 1.055999994277954, 0.0, 0.0, 0.0, 0.0, 0.0, 1.6212685738244004E9, 2021-05-17 18:22:53.824
37.0, -108.82547760009766, -250.93606567382812, 1.9410080909729004, 298.8404541015625, -0.08000000566244125, 0.0, 1.055999994277954, 0.0, 0.0, 0.0, 0.0, 0.0, 1.6212685738244004E9, 2021-05-17 18:22:53.824
38.0, -105.20899200439453, -244.51466369628906, 3.4145286083221436, 304.7644348144531, -0.08000000566244125, 0.0, 1.055999994277954, 0.0, 0.0, 0.0, 0.0, 0.0, 1.6212685738400412E9, 2021-05-17 18:22:53.840
38.0, -113.84068298339844, -252.73121643066406, 9.144055366516113, 295.7886962890625, -0.08000000566244125, 0.0, 1.055999994277954, 0.0, 0.0, 0.0, 0.0, 0.0, 1.6212685738400412E9, 2021-05-17 18:22:53.840
39.0, -113.20116424560547, -253.1351318359375, 6.556044578552246, 296.40576171875, -0.08000000566244125, 0.0, 1.055999994277954, 0.0, 0.0, 0.0, 0.0, 0.0, 1.6212685738407495E9, 2021-05-17 18:22:53.840
39.0, -101.58129119873047, -238.14935302734375, 9.970573425292969, 306.24169921875, -0.08000000566244125, 0.0, 1.055999994277954, 0.0, 0.0, 0.0, 0.0, 0.0, 1.6212685738407495E9, 2021-05-17 18:22:53.840
40.0, -106.10657501220703, -232.2403106689453, 12.93631362915039, 308.3959045410156, -0.08000000566244125, 0.0, 1.1040000915527344, 0.0, 0.0, 0.0, 0.0, 0.0, 1.6212685738707385E9, 2021-05-17 18:22:53.870
40.0, -115.1608657836914, -244.71287536621094, 19.406341552734375, 301.5593566894531, -0.08000000566244125, 0.0, 1.1040000915527344, 0.0, 0.0, 0.0, 0.0, 0.0, 1.6212685738707385E9, 2021-05-17 18:22:53.870
41.0, -106.8059310913086, -241.88551330566406, 19.454959869384766, 299.1209411621094, -0.08000000566244125, 0.0, 1.1040000915527344, 0.0, 0.0, 0.0, 0.0, 0.0, 1.6212685738714335E9, 2021-05-17 18:22:53.871
41.0, -111.18535614013672, -238.7065887451172, 11.690927505493164, 305.8826904296875, -0.08000000566244125, 0.0, 1.1040000915527344, 0.0, 0.0, 0.0, 0.0, 0.0, 1.6212685738714335E9, 2021-05-17 18:22:53.871
42.0, -105.74754333496094, -238.42984008789062, 15.842216491699219, 305.3366394042969, -0.08000000566244125, 0.0, 1.1040000915527344, 0.0, 0.0, 0.0, 0.0, 0.0, 1.6212685738721733E9, 2021-05-17 18:22:53.872
42.0, -115.02997589111328, -246.8184356689453, 16.35084342956543, 296.1140441894531, -0.08000000566244125, 0.0, 1.1040000915527344, 0.0, 0.0, 0.0, 0.0, 0.0, 1.6212685738721733E9, 2021-05-17 18:22:53.872
43.0, -118.73247528076172, -245.8460693359375, 13.658114433288574, 293.0473327636719, -0.08000000566244125, 0.0, 1.1040000915527344, 0.0, 0.0, 0.0, 0.0, 0.0, 1.6212685738842757E9, 2021-05-17 18:22:53.884
43.0, -120.7557601928711, -240.6663055419922, 6.125956058502197, 301.7650451660156, -0.08000000566244125, 0.0, 1.1040000915527344, 0.0, 0.0, 0.0, 0.0, 0.0, 1.6212685738842757E9, 2021-05-17 18:22:53.884
44.0, -109.10971069335938, -245.61044311523438, 12.861515998840332, 307.0083923339844, -0.08000000566244125, 0.0, 1.1040000915527344, 0.0, 0.0, 0.0, 0.0, 0.0, 1.6212685739007003E9, 2021-05-17 18:22:53.900
44.0, -116.43617248535156, -247.42803955078125, 10.389442443847656, 292.1497497558594, -0.08000000566244125, 0.0, 1.1040000915527344, 0.0, 0.0, 0.0, 0.0, 0.0, 1.6212685739007003E9, 2021-05-17 18:22:53.900
45.0, -117.13179779052734, -252.6339874267578, 13.003632545471191, 284.71484375, -0.08000000566244125, 0.0, 1.1040000915527344, 0.0, 0.0, 0.0, 0.0, 0.0, 1.621268573901436E9, 2021-05-17 18:22:53.901
45.0, -107.21358489990234, -249.51116943359375, 12.072397232055664, 295.5381164550781, -0.08000000566244125, 0.0, 1.1040000915527344, 0.0, 0.0, 0.0, 0.0, 0.0, 1.621268573901436E9, 2021-05-17 18:22:53.901
46.0, -104.61808776855469, -245.0270233154297, 10.561477661132812, 300.5234069824219, -0.08000000566244125, 0.0, 1.1040000915527344, 0.0, 0.0, 0.0, 0.0, 0.0, 1.6212685739307652E9, 2021-05-17 18:22:53.930
46.0, -112.9094467163086, -254.7881622314453, 19.941146850585938, 285.97894287109375, -0.08000000566244125, 0.0, 1.1040000915527344, 0.0, 0.0, 0.0, 0.0, 0.0, 1.6212685739307652E9, 2021-05-17 18:22:53.930
47.0, -109.3341064453125, -260.5139465332031, 19.9187068939209, 287.9722900390625, -0.08000000566244125, 0.0, 1.1040000915527344, 0.0, 0.0, 0.0, 0.0, 0.0, 1.6212685739314957E9, 2021-05-17 18:22:53.931
47.0, -108.1485595703125, -251.6092529296875, 11.724586486816406, 297.8531188964844, -0.08000000566244125, 0.0, 1.1040000915527344, 0.0, 0.0, 0.0, 0.0, 0.0, 1.6212685739314957E9, 2021-05-17 18:22:53.931
48.0, -106.25616455078125, -251.84860229492188, 14.85488224029541, 303.7098083496094, -0.08000000566244125, 0.0, 1.1040000915527344, 0.0, 0.0, 0.0, 0.0, 0.0, 1.6212685739322226E9, 2021-05-17 18:22:53.932
48.0, -109.16580963134766, -259.10400390625, 22.450618743896484, 289.4869689941406, -0.08000000566244125, 0.0, 1.1040000915527344, 0.0, 0.0, 0.0, 0.0, 0.0, 1.6212685739322226E9, 2021-05-17 18:22:53.932
49.0, -108.09619903564453, -253.763427734375, 25.15456771850586, 292.9800109863281, -0.08000000566244125, 0.0, 1.1040000915527344, 0.0, 0.0, 0.0, 0.0, 0.0, 1.6212685739443984E9, 2021-05-17 18:22:53.944
49.0, -98.78759002685547, -245.25515747070312, 21.60540199279785, 306.2903137207031, -0.08000000566244125, 0.0, 1.1040000915527344, 0.0, 0.0, 0.0, 0.0, 0.0, 1.6212685739443984E9, 2021-05-17 18:22:53.944
50.0, -96.79795837402344, -236.56362915039062, 32.80266189575195, 312.4312438964844, -0.08000000566244125, 0.0, 1.0720000267028809, 0.0, 0.0, 0.0, 0.0, 0.0, 1.6212685739598174E9, 2021-05-17 18:22:53.959
50.0, -112.37090301513672, -241.87054443359375, 33.98073196411133, 298.3131103515625, -0.08000000566244125, 0.0, 1.0720000267028809, 0.0, 0.0, 0.0, 0.0, 0.0, 1.6212685739598174E9, 2021-05-17 18:22:53.959
51.0, -110.53461456298828, -239.59669494628906, 32.15565872192383, 299.2817687988281, -0.08000000566244125, 0.0, 1.0720000267028809, 0.0, 0.0, 0.0, 0.0, 0.0, 1.621268573990494E9, 2021-05-17 18:22:53.990
51.0, -100.08907318115234, -240.9542694091797, 26.781423568725586, 304.9664001464844, -0.08000000566244125, 0.0, 1.0720000267028809, 0.0, 0.0, 0.0, 0.0, 0.0, 1.621268573990494E9, 2021-05-17 18:22:53.990
52.0, -102.78179931640625, -238.7252960205078, 24.410327911376953, 307.4571838378906, -0.06400000303983688, 0.0, 1.0720000267028809, 0.0, 0.0, 0.0, 0.0, 0.0, 1.6212685739912243E9, 2021-05-17 18:22:53.991
52.0, -107.35943603515625, -249.81410217285156, 26.08580207824707, 299.6557312011719, -0.06400000303983688, 0.0, 1.0720000267028809, 0.0, 0.0, 0.0, 0.0, 0.0, 1.6212685739912243E9, 2021-05-17 18:22:53.991
53.0, -105.6615219116211, -251.9346160888672, 26.519630432128906, 299.22564697265625, -0.06400000303983688, 0.0, 1.0720000267028809, 0.0, 0.0, 0.0, 0.0, 0.0, 1.621268574006824E9, 2021-05-17 18:22:54.006
53.0, -94.09027099609375, -242.50633239746094, 23.40803337097168, 310.38177490234375, -0.06400000303983688, 0.0, 1.0720000267028809, 0.0, 0.0, 0.0, 0.0, 0.0, 1.621268574006824E9, 2021-05-17 18:22:54.006
54.0, -98.30139923095703, -245.17662048339844, 24.316829681396484, 307.1280517578125, -0.06400000303983688, 0.0, 1.0720000267028809, 0.0, 0.0, 0.0, 0.0, 0.0, 1.621268574007527E9, 2021-05-17 18:22:54.007
54.0, -109.29296875, -257.86236572265625, 28.774789810180664, 294.0646057128906, -0.06400000303983688, 0.0, 1.0720000267028809, 0.0, 0.0, 0.0, 0.0, 0.0, 1.621268574007527E9, 2021-05-17 18:22:54.007
55.0, -108.63848114013672, -257.320068359375, 23.51275062561035, 290.4181823730469, -0.06400000303983688, 0.0, 1.0720000267028809, 0.0, 0.0, 0.0, 0.0, 0.0, 1.6212685740082576E9, 2021-05-17 18:22:54.008
55.0, -100.30598449707031, -251.7738037109375, 16.98662567138672, 299.4986572265625, -0.06400000303983688, 0.0, 1.0720000267028809, 0.0, 0.0, 0.0, 0.0, 0.0, 1.6212685740082576E9, 2021-05-17 18:22:54.008
56.0, -103.0361099243164, -253.57269287109375, 19.208126068115234, 295.1566467285156, -0.06400000303983688, 0.0, 1.0720000267028809, 0.0, 0.0, 0.0, 0.0, 0.0, 1.6212685740199993E9, 2021-05-17 18:22:54.019
56.0, -106.55162048339844, -254.1486358642578, 22.031749725341797, 291.6149597167969, -0.06400000303983688, 0.0, 1.0720000267028809, 0.0, 0.0, 0.0, 0.0, 0.0, 1.6212685740199993E9, 2021-05-17 18:22:54.019
57.0, -103.70929718017578, -249.84027099609375, 25.880107879638672, 292.5087890625, -0.06400000303983688, 0.0, 1.0720000267028809, 0.0, 0.0, 0.0, 0.0, 0.0, 1.6212685740207388E9, 2021-05-17 18:22:54.020
57.0, -106.49552154541016, -242.8616180419922, 19.174467086791992, 299.4350891113281, -0.06400000303983688, 0.0, 1.0720000267028809, 0.0, 0.0, 0.0, 0.0, 0.0, 1.6212685740207388E9, 2021-05-17 18:22:54.020
58.0, -110.0746078491211, -234.01675415039062, 25.13960838317871, 302.53173828125, -0.06400000303983688, 0.0, 1.0720000267028809, 0.0, 0.0, 0.0, 0.0, 0.0, 1.6212685740343392E9, 2021-05-17 18:22:54.034
58.0, -118.870849609375, -245.9545135498047, 24.26447105407715, 291.4765930175781, -0.06400000303983688, 0.0, 1.0720000267028809, 0.0, 0.0, 0.0, 0.0, 0.0, 1.6212685740343392E9, 2021-05-17 18:22:54.034
59.0, -119.84696197509766, -238.2877197265625, 27.551843643188477, 297.8082275390625, -0.06400000303983688, 0.0, 1.0720000267028809, 0.0, 0.0, 0.0, 0.0, 0.0, 1.621268574050051E9, 2021-05-17 18:22:54.050
59.0, -106.89942932128906, -229.3082275390625, 21.45206642150879, 302.80474853515625, -0.06400000303983688, 0.0, 1.0720000267028809, 0.0, 0.0, 0.0, 0.0, 0.0, 1.621268574050051E9, 2021-05-17 18:22:54.050
60.0, -94.8980941772461, -220.76629638671875, 32.33891677856445, 305.3329162597656, -0.06400000303983688, 0.0, 1.055999994277954, 0.0, 0.0, 0.0, 0.0, 0.0, 1.6212685740507505E9, 2021-05-17 18:22:54.050
60.0, -108.9713363647461, -232.6143035888672, 36.0040168762207, 300.2728271484375, -0.06400000303983688, 0.0, 1.055999994277954, 0.0, 0.0, 0.0, 0.0, 0.0, 1.6212685740507505E9, 2021-05-17 18:22:54.050
61.0, -108.41034698486328, -233.73252868652344, 30.783117294311523, 295.2651062011719, -0.06400000303983688, 0.0, 1.055999994277954, 0.0, 0.0, 0.0, 0.0, 0.0, 1.6212685740643113E9, 2021-05-17 18:22:54.064
61.0, -99.84971618652344, -229.1885528564453, 30.49514389038086, 306.6119689941406, -0.06400000303983688, 0.0, 1.055999994277954, 0.0, 0.0, 0.0, 0.0, 0.0, 1.6212685740643113E9, 2021-05-17 18:22:54.064
62.0, -97.88626861572266, -225.90866088867188, 29.305856704711914, 300.6131591796875, -0.06400000303983688, 0.0, 1.055999994277954, 0.0, 0.0, 0.0, 0.0, 0.0, 1.6212685740964465E9, 2021-05-17 18:22:54.096
62.0, -108.7357177734375, -244.62686157226562, 32.69046401977539, 292.18341064453125, -0.06400000303983688, 0.0, 1.055999994277954, 0.0, 0.0, 0.0, 0.0, 0.0, 1.6212685740964465E9, 2021-05-17 18:22:54.096
63.0, -106.57405853271484, -238.73277282714844, 34.27244186401367, 286.8204040527344, -0.06400000303983688, 0.0, 1.055999994277954, 0.0, 0.0, 0.0, 0.0, 0.0, 1.62126857409714E9, 2021-05-17 18:22:54.097
63.0, -100.63510131835938, -233.3248748779297, 31.2805233001709, 299.98858642578125, -0.06400000303983688, 0.0, 1.055999994277954, 0.0, 0.0, 0.0, 0.0, 0.0, 1.62126857409714E9, 2021-05-17 18:22:54.097
64.0, -95.07760620117188, -227.24380493164062, 37.410221099853516, 307.16546630859375, -0.06400000303983688, 0.0, 1.055999994277954, 0.0, 0.0, 0.0, 0.0, 0.0, 1.621268574097839E9, 2021-05-17 18:22:54.097
64.0, -108.68710327148438, -241.78826904296875, 37.077369689941406, 289.3410949707031, -0.06400000303983688, 0.0, 1.055999994277954, 0.0, 0.0, 0.0, 0.0, 0.0, 1.621268574097839E9, 2021-05-17 18:22:54.097
65.0, -113.45547485351562, -237.25177001953125, 36.101253509521484, 297.4903564453125, -0.06400000303983688, 0.0, 1.055999994277954, 0.0, 0.0, 0.0, 0.0, 0.0, 1.6212685740985801E9, 2021-05-17 18:22:54.098
65.0, -105.8784408569336, -228.07406616210938, 35.106441497802734, 301.593017578125, -0.06400000303983688, 0.0, 1.055999994277954, 0.0, 0.0, 0.0, 0.0, 0.0, 1.6212685740985801E9, 2021-05-17 18:22:54.098
66.0, -107.85684204101562, -228.25730895996094, 32.29777526855469, 301.9670104980469, -0.06400000303983688, 0.0, 1.055999994277954, 0.0, 0.0, 0.0, 0.0, 0.0, 1.6212685741093264E9, 2021-05-17 18:22:54.109
66.0, -117.17667388916016, -234.41319274902344, 34.208866119384766, 295.4184265136719, -0.06400000303983688, 0.0, 1.055999994277954, 0.0, 0.0, 0.0, 0.0, 0.0, 1.6212685741093264E9, 2021-05-17 18:22:54.109
67.0, -112.15773010253906, -235.9203643798828, 37.13346481323242, 295.74755859375, -0.06400000303983688, 0.0, 1.055999994277954, 0.0, 0.0, 0.0, 0.0, 0.0, 1.6212685741243658E9, 2021-05-17 18:22:54.124
67.0, -105.0781021118164, -229.2932586669922, 32.44737243652344, 299.9100646972656, -0.06400000303983688, 0.0, 1.055999994277954, 0.0, 0.0, 0.0, 0.0, 0.0, 1.6212685741243658E9, 2021-05-17 18:22:54.124
68.0, -98.35749816894531, -231.70176696777344, 29.848140716552734, 301.61920166015625, -0.06400000303983688, 0.0, 1.055999994277954, 0.0, 0.0, 0.0, 0.0, 0.0, 1.621268574140012E9, 2021-05-17 18:22:54.140
68.0, -98.67913055419922, -242.0762481689453, 30.753196716308594, 288.70904541015625, -0.06400000303983688, 0.0, 1.055999994277954, 0.0, 0.0, 0.0, 0.0, 0.0, 1.621268574140012E9, 2021-05-17 18:22:54.140
69.0, -99.84597778320312, -239.57424926757812, 32.49972915649414, 295.91583251953125, -0.06400000303983688, 0.0, 1.055999994277954, 0.0, 0.0, 0.0, 0.0, 0.0, 1.6212685741407423E9, 2021-05-17 18:22:54.140
69.0, -92.60552978515625, -228.8033447265625, 31.418899536132812, 299.8464660644531, -0.06400000303983688, 0.0, 1.055999994277954, 0.0, 0.0, 0.0, 0.0, 0.0, 1.6212685741407423E9, 2021-05-17 18:22:54.140
70.0, -83.00894927978516, -225.39254760742188, 39.94213104248047, 304.9402160644531, -0.06400000303983688, 0.0, 1.040000081062317, 0.0, 0.0, 0.0, 0.0, 0.0, 1.6212685741544518E9, 2021-05-17 18:22:54.154
70.0, -97.76659393310547, -232.76390075683594, 38.105838775634766, 297.2921142578125, -0.06400000303983688, 0.0, 1.040000081062317, 0.0, 0.0, 0.0, 0.0, 0.0, 1.6212685741544518E9, 2021-05-17 18:22:54.154
71.0, -99.36353302001953, -231.14825439453125, 37.52615737915039, 296.1925964355469, -0.06400000303983688, 0.0, 1.040000081062317, 0.0, 0.0, 0.0, 0.0, 0.0, 1.621268574170102E9, 2021-05-17 18:22:54.170
71.0, -93.80978393554688, -218.31666564941406, 45.851173400878906, 305.220703125, -0.06400000303983688, 0.0, 1.040000081062317, 0.0, 0.0, 0.0, 0.0, 0.0, 1.621268574170102E9, 2021-05-17 18:22:54.170
72.0, -95.7657470703125, -226.04702758789062, 45.570682525634766, 307.5693664550781, -0.06400000303983688, 0.0, 1.040000081062317, 0.0, 0.0, 0.0, 0.0, 0.0, 1.6212685741707876E9, 2021-05-17 18:22:54.170
72.0, -98.80254364013672, -235.1162872314453, 45.76515579223633, 298.634765625, -0.06400000303983688, 0.0, 1.040000081062317, 0.0, 0.0, 0.0, 0.0, 0.0, 1.6212685741707876E9, 2021-05-17 18:22:54.170
73.0, -109.3116683959961, -237.68560791015625, 44.665626525878906, 301.1105651855469, -0.06400000303983688, 0.0, 1.040000081062317, 0.0, 0.0, 0.0, 0.0, 0.0, 1.6212685741844666E9, 2021-05-17 18:22:54.184
73.0, -109.1171875, -240.18759155273438, 36.65475845336914, 309.0503845214844, -0.06400000303983688, 0.0, 1.040000081062317, 0.0, 0.0, 0.0, 0.0, 0.0, 1.6212685741844666E9, 2021-05-17 18:22:54.184
74.0, -107.03780364990234, -229.62611389160156, 35.45425033569336, 312.3040771484375, -0.06400000303983688, 0.0, 1.040000081062317, 0.0, 0.0, 0.0, 0.0, 0.0, 1.6212685742001083E9, 2021-05-17 18:22:54.200
74.0, -111.35739135742188, -243.8078155517578, 35.73848342895508, 304.0987548828125, -0.06400000303983688, 0.0, 1.040000081062317, 0.0, 0.0, 0.0, 0.0, 0.0, 1.6212685742001083E9, 2021-05-17 18:22:54.200
75.0, -105.87095642089844, -247.30462646484375, 37.46631622314453, 301.85107421875, -0.06400000303983688, 0.0, 1.040000081062317, 0.0, 0.0, 0.0, 0.0, 0.0, 1.6212685742008317E9, 2021-05-17 18:22:54.200
75.0, -90.31671142578125, -248.66220092773438, 36.98760986328125, 310.4715270996094, -0.06400000303983688, 0.0, 1.040000081062317, 0.0, 0.0, 0.0, 0.0, 0.0, 1.6212685742008317E9, 2021-05-17 18:22:54.200
76.0, -88.88806915283203, -245.1915740966797, 39.452205657958984, 312.7453918457031, -0.06400000303983688, 0.0, 1.040000081062317, 0.0, 0.0, 0.0, 0.0, 0.0, 1.621268574214456E9, 2021-05-17 18:22:54.214
76.0, -101.19982147216797, -254.39547729492188, 38.41999053955078, 302.95806884765625, -0.06400000303983688, 0.0, 1.040000081062317, 0.0, 0.0, 0.0, 0.0, 0.0, 1.621268574214456E9, 2021-05-17 18:22:54.214
77.0, -95.51891326904297, -254.5637664794922, 42.95275115966797, 301.9744873046875, -0.06400000303983688, 0.0, 1.040000081062317, 0.0, 0.0, 0.0, 0.0, 0.0, 1.6212685742301145E9, 2021-05-17 18:22:54.230
77.0, -87.69878387451172, -246.45567321777344, 40.6003532409668, 308.1789855957031, -0.06400000303983688, 0.0, 1.040000081062317, 0.0, 0.0, 0.0, 0.0, 0.0, 1.6212685742301145E9, 2021-05-17 18:22:54.230
78.0, -97.89749145507812, -247.20364379882812, 44.38139343261719, 305.8938903808594, -0.06400000303983688, 0.0, 1.040000081062317, 0.0, 0.0, 0.0, 0.0, 0.0, 1.6212685742310517E9, 2021-05-17 18:22:54.231
78.0, -100.49671936035156, -248.53878784179688, 51.150611877441406, 300.5794982910156, -0.06400000303983688, 0.0, 1.040000081062317, 0.0, 0.0, 0.0, 0.0, 0.0, 1.6212685742310517E9, 2021-05-17 18:22:54.231
79.0, -96.45388793945312, -250.3302001953125, 45.17051315307617, 291.4691162109375, -0.06400000303983688, 0.0, 1.040000081062317, 0.0, 0.0, 0.0, 0.0, 0.0, 1.6212685742443707E9, 2021-05-17 18:22:54.244
79.0, -90.15589904785156, -236.93014526367188, 40.79856872558594, 304.633544921875, -0.06400000303983688, 0.0, 1.040000081062317, 0.0, 0.0, 0.0, 0.0, 0.0, 1.6212685742443707E9, 2021-05-17 18:22:54.244
80.0, -89.33312225341797, -231.63070678710938, 45.71653747558594, 307.4347229003906, -0.06400000303983688, 0.0, 1.055999994277954, 0.0, 0.0, 0.0, 0.0, 0.0, 1.6212685742747595E9, 2021-05-17 18:22:54.274
80.0, -96.06494140625, -235.44166564941406, 47.44437026977539, 295.1828308105469, -0.06400000303983688, 0.0, 1.055999994277954, 0.0, 0.0, 0.0, 0.0, 0.0, 1.6212685742747595E9, 2021-05-17 18:22:54.274
81.0, -102.03008270263672, -233.87091064453125, 47.279815673828125, 299.8315124511719, -0.06400000303983688, 0.0, 1.055999994277954, 0.0, 0.0, 0.0, 0.0, 0.0, 1.6212685742914941E9, 2021-05-17 18:22:54.291
81.0, -95.56379699707031, -224.2593536376953, 49.22456359863281, 310.4939880371094, -0.06400000303983688, 0.0, 1.055999994277954, 0.0, 0.0, 0.0, 0.0, 0.0, 1.6212685742914941E9, 2021-05-17 18:22:54.291
82.0, -95.72834777832031, -217.41534423828125, 53.286094665527344, 313.9122314453125, -0.06400000303983688, 0.0, 1.055999994277954, 0.0, 0.0, 0.0, 0.0, 0.0, 1.6212685742921891E9, 2021-05-17 18:22:54.292
82.0, -105.59420776367188, -231.6419219970703, 52.80738830566406, 308.1378479003906, -0.06400000303983688, 0.0, 1.055999994277954, 0.0, 0.0, 0.0, 0.0, 0.0, 1.6212685742921891E9, 2021-05-17 18:22:54.292
83.0, -107.18366241455078, -231.82891845703125, 45.82499313354492, 305.28802490234375, -0.06400000303983688, 0.0, 1.055999994277954, 0.0, 0.0, 0.0, 0.0, 0.0, 1.621268574293034E9, 2021-05-17 18:22:54.293
83.0, -98.77262878417969, -227.10916137695312, 45.14059066772461, 310.924072265625, -0.06400000303983688, 0.0, 1.055999994277954, 0.0, 0.0, 0.0, 0.0, 0.0, 1.621268574293034E9, 2021-05-17 18:22:54.293
84.0, -99.56922912597656, -228.96041870117188, 46.82728576660156, 312.098388671875, -0.06400000303983688, 0.0, 1.055999994277954, 0.0, 0.0, 0.0, 0.0, 0.0, 1.6212685742937121E9, 2021-05-17 18:22:54.293
84.0, -94.3221435546875, -240.31100463867188, 44.82270050048828, 299.7567138671875, -0.06400000303983688, 0.0, 1.055999994277954, 0.0, 0.0, 0.0, 0.0, 0.0, 1.6212685742937121E9, 2021-05-17 18:22:54.293
85.0, -102.0450439453125, -248.6023712158203, 35.2822151184082, 290.7697448730469, -0.06400000303983688, 0.0, 1.055999994277954, 0.0, 0.0, 0.0, 0.0, 0.0, 1.6212685743043327E9, 2021-05-17 18:22:54.304
85.0, -92.0146255493164, -244.16685485839844, 37.840309143066406, 296.8695068359375, -0.06400000303983688, 0.0, 1.055999994277954, 0.0, 0.0, 0.0, 0.0, 0.0, 1.6212685743043327E9, 2021-05-17 18:22:54.304
86.0, -89.87540435791016, -238.5831756591797, 40.79856872558594, 298.6609191894531, -0.06400000303983688, 0.0, 1.055999994277954, 0.0, 0.0, 0.0, 0.0, 0.0, 1.6212685743200696E9, 2021-05-17 18:22:54.320
86.0, -89.18352508544922, -246.48931884765625, 43.9513053894043, 290.4855041503906, -0.06400000303983688, 0.0, 1.055999994277954, 0.0, 0.0, 0.0, 0.0, 0.0, 1.6212685743200696E9, 2021-05-17 18:22:54.320
87.0, -92.31755828857422, -241.7770538330078, 45.761417388916016, 292.602294921875, -0.06400000303983688, 0.0, 1.055999994277954, 0.0, 0.0, 0.0, 0.0, 0.0, 1.6212685743207877E9, 2021-05-17 18:22:54.320
87.0, -91.35266876220703, -238.18675231933594, 42.00281524658203, 297.24725341796875, -0.06400000303983688, 0.0, 1.055999994277954, 0.0, 0.0, 0.0, 0.0, 0.0, 1.6212685743207877E9, 2021-05-17 18:22:54.320
88.0, -91.82015228271484, -228.328369140625, 44.7553825378418, 303.799560546875, -0.06400000303983688, 0.0, 1.055999994277954, 0.0, 0.0, 0.0, 0.0, 0.0, 1.6212685743508072E9, 2021-05-17 18:22:54.350
88.0, -99.74500274658203, -237.91748046875, 43.30430221557617, 292.90521240234375, -0.06400000303983688, 0.0, 1.055999994277954, 0.0, 0.0, 0.0, 0.0, 0.0, 1.6212685743508072E9, 2021-05-17 18:22:54.350
89.0, -104.5171127319336, -236.64964294433594, 49.6733512878418, 299.43133544921875, -0.06400000303983688, 0.0, 1.055999994277954, 0.0, 0.0, 0.0, 0.0, 0.0, 1.6212685743514829E9, 2021-05-17 18:22:54.351
89.0, -100.88941192626953, -231.8551025390625, 42.15241241455078, 305.325439453125, -0.06400000303983688, 0.0, 1.055999994277954, 0.0, 0.0, 0.0, 0.0, 0.0, 1.6212685743514829E9, 2021-05-17 18:22:54.351
90.0, -96.39778900146484, -231.06224060058594, 45.21913146972656, 308.7362060546875, -0.06400000303983688, 0.0, 1.040000081062317, 0.0, 0.0, 0.0, 0.0, 0.0, 1.6212685743522024E9, 2021-05-17 18:22:54.352
90.0, -103.49986267089844, -240.17637634277344, 53.862037658691406, 302.1502685546875, -0.06400000303983688, 0.0, 1.040000081062317, 0.0, 0.0, 0.0, 0.0, 0.0, 1.6212685743522024E9, 2021-05-17 18:22:54.352
91.0, -100.25736999511719, -237.20689392089844, 51.82753372192383, 296.7909851074219, -0.06400000303983688, 0.0, 1.040000081062317, 0.0, 0.0, 0.0, 0.0, 0.0, 1.621268574364469E9, 2021-05-17 18:22:54.364
91.0, -91.12079620361328, -228.27975463867188, 47.3845329284668, 307.509521484375, -0.06400000303983688, 0.0, 1.040000081062317, 0.0, 0.0, 0.0, 0.0, 0.0, 1.621268574364469E9, 2021-05-17 18:22:54.364
92.0, -86.2514419555664, -224.20326232910156, 52.88218688964844, 311.11480712890625, -0.08000000566244125, 0.0, 1.040000081062317, 0.0, 0.0, 0.0, 0.0, 0.0, 1.6212685743801963E9, 2021-05-17 18:22:54.380
92.0, -89.50141906738281, -235.30328369140625, 54.39684295654297, 305.4563293457031, -0.08000000566244125, 0.0, 1.040000081062317, 0.0, 0.0, 0.0, 0.0, 0.0, 1.6212685743801963E9, 2021-05-17 18:22:54.380
93.0, -83.87286376953125, -232.6105499267578, 58.506996154785156, 306.2342224121094, -0.08000000566244125, 0.0, 1.040000081062317, 0.0, 0.0, 0.0, 0.0, 0.0, 1.6212685743807883E9, 2021-05-17 18:22:54.380
93.0, -80.68647003173828, -230.2394561767578, 54.64741897583008, 311.26812744140625, -0.08000000566244125, 0.0, 1.040000081062317, 0.0, 0.0, 0.0, 0.0, 0.0, 1.6212685743807883E9, 2021-05-17 18:22:54.380
94.0, -88.9815673828125, -230.74435424804688, 51.001014709472656, 306.9410705566406, -0.08000000566244125, 0.0, 1.040000081062317, 0.0, 0.0, 0.0, 0.0, 0.0, 1.621268574394478E9, 2021-05-17 18:22:54.394
94.0, -93.8359603881836, -235.97647094726562, 50.73548126220703, 297.16497802734375, -0.08000000566244125, 0.0, 1.040000081062317, 0.0, 0.0, 0.0, 0.0, 0.0, 1.621268574394478E9, 2021-05-17 18:22:54.394
95.0, -96.86154174804688, -237.62950134277344, 48.757076263427734, 297.48284912109375, -0.08000000566244125, 0.0, 1.040000081062317, 0.0, 0.0, 0.0, 0.0, 0.0, 1.6212685744100618E9, 2021-05-17 18:22:54.410
95.0, -91.59950256347656, -235.13125610351562, 43.928863525390625, 303.3320617675781, -0.08000000566244125, 0.0, 1.040000081062317, 0.0, 0.0, 0.0, 0.0, 0.0, 1.6212685744100618E9, 2021-05-17 18:22:54.410
96.0, -95.76948547363281, -234.45059204101562, 40.69758987426758, 301.63787841796875, -0.08000000566244125, 0.0, 1.040000081062317, 0.0, 0.0, 0.0, 0.0, 0.0, 1.6212685744107573E9, 2021-05-17 18:22:54.410
96.0, -98.93717956542969, -237.93617248535156, 47.032981872558594, 295.01080322265625, -0.08000000566244125, 0.0, 1.040000081062317, 0.0, 0.0, 0.0, 0.0, 0.0, 1.6212685744107573E9, 2021-05-17 18:22:54.410
97.0, -100.98291015625, -242.04632568359375, 43.48007583618164, 295.4969787597656, -0.08000000566244125, 0.0, 1.040000081062317, 0.0, 0.0, 0.0, 0.0, 0.0, 1.6212685744243977E9, 2021-05-17 18:22:54.424
97.0, -100.61640167236328, -234.40945434570312, 42.268348693847656, 302.273681640625, -0.08000000566244125, 0.0, 1.040000081062317, 0.0, 0.0, 0.0, 0.0, 0.0, 1.6212685744243977E9, 2021-05-17 18:22:54.424
98.0, -97.8900146484375, -236.3130645751953, 40.9406852722168, 307.8648376464844, -0.08000000566244125, 0.0, 1.040000081062317, 0.0, 0.0, 0.0, 0.0, 0.0, 1.6212685744571357E9, 2021-05-17 18:22:54.457
98.0, -107.1051254272461, -242.4053497314453, 43.76430892944336, 292.27691650390625, -0.08000000566244125, 0.0, 1.040000081062317, 0.0, 0.0, 0.0, 0.0, 0.0, 1.6212685744571357E9, 2021-05-17 18:22:54.457
99.0, -103.92247009277344, -246.2948455810547, 34.76237106323242, 291.8094482421875, -0.08000000566244125, 0.0, 1.040000081062317, 0.0, 0.0, 0.0, 0.0, 0.0, 1.6212685744578588E9, 2021-05-17 18:22:54.457
99.0, -94.80459594726562, -236.90396118164062, 38.16941833496094, 300.87493896484375, -0.08000000566244125, 0.0, 1.040000081062317, 0.0, 0.0, 0.0, 0.0, 0.0, 1.6212685744578588E9, 2021-05-17 18:22:54.457
100.0, -92.23528289794922, -233.49317932128906, 40.678890228271484, 303.3544921875, -0.08000000566244125, 0.0, 1.055999994277954, 0.0, 0.0, 0.0, 0.0, 0.0, 1.6212685744585168E9, 2021-05-17 18:22:54.458
100.0, -98.76889038085938, -244.63059997558594, 45.0957145690918, 291.33447265625, -0.08000000566244125, 0.0, 1.055999994277954, 0.0, 0.0, 0.0, 0.0, 0.0, 1.6212685744585168E9, 2021-05-17 18:22:54.458
0.0, -93.73311614990234, -240.25491333007812, 43.29308319091797, 287.66937255859375, -0.08000000566244125, 0.0, 1.055999994277954, 0.0, 0.0, 0.0, 0.0, 0.0, 1.6212685744593575E9, 2021-05-17 18:22:54.459
1.0, -90.75989532470703, -229.59994506835938, 50.06978225708008, 300.66925048828125, -0.08000000566244125, 0.01600000075995922, 1.055999994277954, 0.0, 0.0, 0.0, 0.0, 0.0, 1.621268574469329E9, 2021-05-17 18:22:54.469
1.0, -87.5435791015625, -228.26104736328125, 51.69289779663086, 306.0135803222656, -0.08000000566244125, 0.01600000075995922, 1.055999994277954, 0.0, 0.0, 0.0, 0.0, 0.0, 1.621268574469329E9, 2021-05-17 18:22:54.469
2.0, -89.89971160888672, -235.86427307128906, 55.0139274597168, 295.66900634765625, -0.06400000303983688, 0.01600000075995922, 1.055999994277954, 0.0, 0.0, 0.0, 0.0, 0.0, 1.621268574485034E9, 2021-05-17 18:22:54.485
2.0, -97.3982162475586, -230.18710327148438, 56.61460494995117, 300.66552734375, -0.06400000303983688, 0.01600000075995922, 1.055999994277954, 0.0, 0.0, 0.0, 0.0, 0.0, 1.621268574485034E9, 2021-05-17 18:22:54.485
3.0, -90.02687072753906, -217.66966247558594, 53.66382598876953, 309.75347900390625, -0.06400000303983688, 0.01600000075995922, 1.055999994277954, 0.0, 0.0, 0.0, 0.0, 0.0, 1.621268574485778E9, 2021-05-17 18:22:54.485
3.0, -97.32715606689453, -218.67942810058594, 54.112613677978516, 308.56793212890625, -0.06400000303983688, 0.01600000075995922, 1.055999994277954, 0.0, 0.0, 0.0, 0.0, 0.0, 1.621268574485778E9, 2021-05-17 18:22:54.485
4.0, -110.15875244140625, -227.92446899414062, 56.85395812988281, 303.46295166015625, -0.06400000303983688, 0.01600000075995922, 1.055999994277954, 0.0, 0.0, 0.0, 0.0, 0.0, 1.6212685745313213E9, 2021-05-17 18:22:54.531
4.0, -107.26406860351562, -229.40545654296875, 59.88701629638672, 296.675048828125, -0.06400000303983688, 0.01600000075995922, 1.055999994277954, 0.0, 0.0, 0.0, 0.0, 0.0, 1.6212685745313213E9, 2021-05-17 18:22:54.531
5.0, -98.83433532714844, -227.71876525878906, 53.858299255371094, 307.2664489746094, -0.06400000303983688, 0.01600000075995922, 1.055999994277954, 0.0, 0.0, 0.0, 0.0, 0.0, 1.6212685745319595E9, 2021-05-17 18:22:54.531
5.0, -97.19625854492188, -224.80165100097656, 49.44147872924805, 308.3023986816406, -0.06400000303983688, 0.01600000075995922, 1.055999994277954, 0.0, 0.0, 0.0, 0.0, 0.0, 1.6212685745319595E9, 2021-05-17 18:22:54.531
6.0, -105.84664916992188, -235.68849182128906, 50.91499710083008, 297.5987854003906, -0.06400000303983688, 0.01600000075995922, 1.055999994277954, 0.0, 0.0, 0.0, 0.0, 0.0, 1.6212685745327237E9, 2021-05-17 18:22:54.532
6.0, -107.84375762939453, -241.74339294433594, 46.041908264160156, 288.85491943359375, -0.06400000303983688, 0.01600000075995922, 1.055999994277954, 0.0, 0.0, 0.0, 0.0, 0.0, 1.6212685745327237E9, 2021-05-17 18:22:54.532
7.0, -101.25031280517578, -233.93447875976562, 42.53388214111328, 300.5308837890625, -0.06400000303983688, 0.01600000075995922, 1.055999994277954, 0.0, 0.0, 0.0, 0.0, 0.0, 1.621268574545687E9, 2021-05-17 18:22:54.545
7.0, -94.79150390625, -231.91867065429688, 43.64463424682617, 308.8110046386719, -0.06400000303983688, 0.01600000075995922, 1.055999994277954, 0.0, 0.0, 0.0, 0.0, 0.0, 1.621268574545687E9, 2021-05-17 18:22:54.545
8.0, -97.92928314208984, -238.2914581298828, 52.096805572509766, 294.2740173339844, -0.06400000303983688, 0.01600000075995922, 1.055999994277954, 0.0, 0.0, 0.0, 0.0, 0.0, 1.6212685745464308E9, 2021-05-17 18:22:54.546
8.0, -100.97355651855469, -233.74000549316406, 51.67045593261719, 293.6943359375, -0.06400000303983688, 0.01600000075995922, 1.055999994277954, 0.0, 0.0, 0.0, 0.0, 0.0, 1.6212685745464308E9, 2021-05-17 18:22:54.546
9.0, -101.07079315185547, -230.20205688476562, 51.00849533081055, 298.0588073730469, -0.06400000303983688, 0.01600000075995922, 1.055999994277954, 0.0, 0.0, 0.0, 0.0, 0.0, 1.6212685745472028E9, 2021-05-17 18:22:54.547
9.0, -100.09841918945312, -232.2814483642578, 46.49069595336914, 298.1560363769531, -0.06400000303983688, 0.01600000075995922, 1.055999994277954, 0.0, 0.0, 0.0, 0.0, 0.0, 1.6212685745472028E9, 2021-05-17 18:22:54.547
10.0, -106.62828826904297, -233.0369110107422, 53.4282112121582, 293.17822265625, -0.06400000303983688, 0.01600000075995922, 1.040000081062317, 0.0, 0.0, 0.0, 0.0, 0.0, 1.6212685745757718E9, 2021-05-17 18:22:54.575
10.0, -105.82047271728516, -235.9615020751953, 49.04130935668945, 289.9619140625, -0.06400000303983688, 0.01600000075995922, 1.040000081062317, 0.0, 0.0, 0.0, 0.0, 0.0, 1.6212685745757718E9, 2021-05-17 18:22:54.575
11.0, -101.1119384765625, -226.0919189453125, 50.918739318847656, 302.7598571777344, -0.06400000303983688, 0.0, 1.040000081062317, 0.0, 0.0, 0.0, 0.0, 0.0, 1.6212685745764782E9, 2021-05-17 18:22:54.576
11.0, -99.93386840820312, -225.08961486816406, 53.12154006958008, 308.82598876953125, -0.06400000303983688, 0.0, 1.040000081062317, 0.0, 0.0, 0.0, 0.0, 0.0, 1.6212685745764782E9, 2021-05-17 18:22:54.576
12.0, -109.1041030883789, -230.51246643066406, 64.356201171875, 301.0432434082031, -0.06400000303983688, 0.0, 1.040000081062317, 0.0, 0.0, 0.0, 0.0, 0.0, 1.621268574577218E9, 2021-05-17 18:22:54.577
12.0, -111.29568481445312, -225.31027221679688, 61.14362335205078, 299.8502197265625, -0.06400000303983688, 0.0, 1.040000081062317, 0.0, 0.0, 0.0, 0.0, 0.0, 1.621268574577218E9, 2021-05-17 18:22:54.577
13.0, -99.78053283691406, -219.0347137451172, 55.3243408203125, 309.3533020019531, -0.06400000303983688, 0.0, 1.040000081062317, 0.0, 0.0, 0.0, 0.0, 0.0, 1.6212685745894356E9, 2021-05-17 18:22:54.589
13.0, -103.23619842529297, -218.2830047607422, 56.91379928588867, 310.81561279296875, -0.06400000303983688, 0.0, 1.040000081062317, 0.0, 0.0, 0.0, 0.0, 0.0, 1.6212685745894356E9, 2021-05-17 18:22:54.589
14.0, -113.47230529785156, -222.41932678222656, 59.80847930908203, 300.19427490234375, -0.06400000303983688, 0.0, 1.040000081062317, 0.0, 0.0, 0.0, 0.0, 0.0, 1.6212685746050892E9, 2021-05-17 18:22:54.605
14.0, -105.25948333740234, -225.93858337402344, 55.582393646240234, 301.2115478515625, -0.06400000303983688, 0.0, 1.040000081062317, 0.0, 0.0, 0.0, 0.0, 0.0, 1.6212685746050892E9, 2021-05-17 18:22:54.605
15.0, -92.5849609375, -218.0735626220703, 53.723663330078125, 312.1806640625, -0.06400000303983688, 0.0, 1.040000081062317, 0.0, 0.0, 0.0, 0.0, 0.0, 1.6212685746057212E9, 2021-05-17 18:22:54.605
15.0, -86.23834991455078, -217.40786743164062, 61.09874725341797, 307.8835144042969, -0.06400000303983688, 0.0, 1.040000081062317, 0.0, 0.0, 0.0, 0.0, 0.0, 1.6212685746057212E9, 2021-05-17 18:22:54.605
16.0, -97.25984191894531, -227.63275146484375, 56.40517044067383, 293.63824462890625, -0.06400000303983688, 0.0, 1.040000081062317, 0.0, 0.0, 0.0, 0.0, 0.0, 1.621268574635901E9, 2021-05-17 18:22:54.635
16.0, -98.84929656982422, -229.9851531982422, 57.34388732910156, 293.85888671875, -0.06400000303983688, 0.0, 1.040000081062317, 0.0, 0.0, 0.0, 0.0, 0.0, 1.621268574635901E9, 2021-05-17 18:22:54.635
17.0, -95.83867645263672, -224.07984924316406, 50.0660400390625, 300.4186706542969, -0.06400000303983688, 0.0, 1.040000081062317, 0.0, 0.0, 0.0, 0.0, 0.0, 1.6212685746364105E9, 2021-05-17 18:22:54.636
17.0, -97.41317749023438, -226.86233520507812, 48.72715759277344, 297.2659606933594, -0.06400000303983688, 0.0, 1.040000081062317, 0.0, 0.0, 0.0, 0.0, 0.0, 1.6212685746364105E9, 2021-05-17 18:22:54.636
18.0, -96.6801528930664, -232.5806427001953, 53.22251510620117, 295.3473815917969, -0.06400000303983688, 0.0, 1.040000081062317, 0.0, 0.0, 0.0, 0.0, 0.0, 1.6212685746373093E9, 2021-05-17 18:22:54.637
18.0, -100.78656768798828, -233.62033081054688, 50.97109603881836, 290.6612854003906, -0.06400000303983688, 0.0, 1.040000081062317, 0.0, 0.0, 0.0, 0.0, 0.0, 1.6212685746373093E9, 2021-05-17 18:22:54.637
19.0, -99.75434875488281, -228.5826873779297, 48.790733337402344, 300.1007995605469, -0.06400000303983688, 0.0, 1.040000081062317, 0.0, 0.0, 0.0, 0.0, 0.0, 1.6212685746494308E9, 2021-05-17 18:22:54.649
19.0, -106.0934829711914, -221.89573669433594, 49.82294845581055, 303.7471923828125, -0.06400000303983688, 0.0, 1.040000081062317, 0.0, 0.0, 0.0, 0.0, 0.0, 1.6212685746494308E9, 2021-05-17 18:22:54.649
20.0, -113.35263061523438, -226.06947326660156, 52.09306716918945, 297.32952880859375, -0.06400000303983688, 0.0, 1.040000081062317, 0.0, 0.0, 0.0, 0.0, 0.0, 1.621268574665197E9, 2021-05-17 18:22:54.665
20.0, -114.19410705566406, -223.5413055419922, 47.83332061767578, 290.65753173828125, -0.06400000303983688, 0.0, 1.040000081062317, 0.0, 0.0, 0.0, 0.0, 0.0, 1.621268574665197E9, 2021-05-17 18:22:54.665
21.0, -102.338623046875, -213.94845581054688, 44.81148147583008, 302.1278076171875, -0.06400000303983688, 0.0, 1.040000081062317, 0.0, 0.0, 0.0, 0.0, 0.0, 1.621268574665898E9, 2021-05-17 18:22:54.665
21.0, -101.25031280517578, -213.1069793701172, 46.094268798828125, 302.91693115234375, -0.06400000303983688, 0.0, 1.040000081062317, 0.0, 0.0, 0.0, 0.0, 0.0, 1.621268574665898E9, 2021-05-17 18:22:54.665
22.0, -108.03074645996094, -225.59075927734375, 54.49782180786133, 299.5098876953125, -0.06400000303983688, 0.0, 1.040000081062317, 0.0, 0.0, 0.0, 0.0, 0.0, 1.621268574695853E9, 2021-05-17 18:22:54.695
22.0, -100.76412200927734, -229.5513153076172, 53.955535888671875, 296.31976318359375, -0.06400000303983688, 0.0, 1.040000081062317, 0.0, 0.0, 0.0, 0.0, 0.0, 1.621268574695853E9, 2021-05-17 18:22:54.695
23.0, -88.99465942382812, -222.19866943359375, 49.478878021240234, 306.2529296875, -0.06400000303983688, 0.0, 1.040000081062317, 0.0, 0.0, 0.0, 0.0, 0.0, 1.6212685746965446E9, 2021-05-17 18:22:54.696
23.0, -92.0389404296875, -215.33595275878906, 50.88507843017578, 309.11767578125, -0.06400000303983688, 0.0, 1.040000081062317, 0.0, 0.0, 0.0, 0.0, 0.0, 1.6212685746965446E9, 2021-05-17 18:22:54.696
24.0, -97.0391845703125, -222.9466552734375, 53.03926086425781, 299.39019775390625, -0.06400000303983688, 0.0, 1.040000081062317, 0.0, 0.0, 0.0, 0.0, 0.0, 1.6212685746972835E9, 2021-05-17 18:22:54.697
24.0, -95.77883911132812, -222.68112182617188, 61.62981033325195, 298.7394714355469, -0.06400000303983688, 0.0, 1.040000081062317, 0.0, 0.0, 0.0, 0.0, 0.0, 1.6212685746972835E9, 2021-05-17 18:22:54.697
25.0, -94.29783630371094, -216.2447509765625, 53.233734130859375, 308.2051696777344, -0.06400000303983688, 0.0, 1.040000081062317, 0.0, 0.0, 0.0, 0.0, 0.0, 1.621268574709332E9, 2021-05-17 18:22:54.709
25.0, -82.16560363769531, -214.30747985839844, 56.28549575805664, 308.7287292480469, -0.06400000303983688, 0.0, 1.040000081062317, 0.0, 0.0, 0.0, 0.0, 0.0, 1.621268574709332E9, 2021-05-17 18:22:54.709
26.0, -93.84156799316406, -220.38482666015625, 61.37175750732422, 297.7371826171875, -0.06400000303983688, 0.0, 1.040000081062317, 0.0, 0.0, 0.0, 0.0, 0.0, 1.6212685747250383E9, 2021-05-17 18:22:54.725
26.0, -94.18563842773438, -224.75677490234375, 58.36113739013672, 297.9952392578125, -0.06400000303983688, 0.0, 1.040000081062317, 0.0, 0.0, 0.0, 0.0, 0.0, 1.6212685747250383E9, 2021-05-17 18:22:54.725
27.0, -90.3559799194336, -220.73263549804688, 50.94117736816406, 303.9005432128906, -0.06400000303983688, 0.0, 1.040000081062317, 0.0, 0.0, 0.0, 0.0, 0.0, 1.621268574725777E9, 2021-05-17 18:22:54.725
27.0, -90.37467956542969, -212.130859375, 51.37126541137695, 306.9859619140625, -0.06400000303983688, 0.0, 1.040000081062317, 0.0, 0.0, 0.0, 0.0, 0.0, 1.621268574725777E9, 2021-05-17 18:22:54.725
28.0, -98.6473388671875, -223.14486694335938, 49.9837646484375, 296.7161865234375, -0.06400000303983688, 0.0, 1.040000081062317, 0.0, 0.0, 0.0, 0.0, 0.0, 1.6212685747554543E9, 2021-05-17 18:22:54.755
28.0, -98.75579833984375, -227.11663818359375, 50.79532241821289, 294.9247741699219, -0.06400000303983688, 0.0, 1.040000081062317, 0.0, 0.0, 0.0, 0.0, 0.0, 1.6212685747554543E9, 2021-05-17 18:22:54.755
29.0, -100.63322448730469, -221.966796875, 48.44666290283203, 306.9410705566406, -0.06400000303983688, 0.0, 1.040000081062317, 0.0, 0.0, 0.0, 0.0, 0.0, 1.6212685747561915E9, 2021-05-17 18:22:54.756
29.0, -104.82191467285156, -222.5203094482422, 47.49298858642578, 302.1764221191406, -0.06400000303983688, 0.0, 1.040000081062317, 0.0, 0.0, 0.0, 0.0, 0.0, 1.6212685747561915E9, 2021-05-17 18:22:54.756
30.0, -102.0992660522461, -229.1698455810547, 55.073768615722656, 298.5935974121094, -0.06400000303983688, 0.0, 1.040000081062317, 0.0, 0.0, 0.0, 0.0, 0.0, 1.6212685747701616E9, 2021-05-17 18:22:54.770
30.0, -94.89996337890625, -237.3976287841797, 52.44087600708008, 293.24554443359375, -0.06400000303983688, 0.0, 1.040000081062317, 0.0, 0.0, 0.0, 0.0, 0.0, 1.6212685747701616E9, 2021-05-17 18:22:54.770
31.0, -92.44658660888672, -225.25791931152344, 45.611820220947266, 297.0639953613281, -0.06400000303983688, 0.0, 1.040000081062317, 0.0, 0.0, 0.0, 0.0, 0.0, 1.6212685747707407E9, 2021-05-17 18:22:54.770
31.0, -87.53235626220703, -221.19638061523438, 53.667564392089844, 304.3904724121094, -0.06400000303983688, 0.0, 1.040000081062317, 0.0, 0.0, 0.0, 0.0, 0.0, 1.6212685747707407E9, 2021-05-17 18:22:54.770
32.0, -85.90176391601562, -230.2394561767578, 64.34123992919922, 297.15374755859375, -0.06400000303983688, 0.0, 1.040000081062317, 0.0, 0.0, 0.0, 0.0, 0.0, 1.6212685747851923E9, 2021-05-17 18:22:54.785
32.0, -91.91925811767578, -228.26853942871094, 61.0052490234375, 294.75274658203125, -0.06400000303983688, 0.0, 1.040000081062317, 0.0, 0.0, 0.0, 0.0, 0.0, 1.6212685747851923E9, 2021-05-17 18:22:54.785
33.0, -82.36007690429688, -219.54708862304688, 59.67384338378906, 306.5633544921875, -0.06400000303983688, 0.0, 1.040000081062317, 0.0, 0.0, 0.0, 0.0, 0.0, 1.6212685747858043E9, 2021-05-17 18:22:54.785
33.0, -84.5553970336914, -225.01107788085938, 61.85420608520508, 311.0549621582031, -0.06400000303983688, 0.0, 1.040000081062317, 0.0, 0.0, 0.0, 0.0, 0.0, 1.6212685747858043E9, 2021-05-17 18:22:54.785
34.0, -81.83649444580078, -231.10711669921875, 61.85794448852539, 299.5547790527344, -0.06400000303983688, 0.0, 1.040000081062317, 0.0, 0.0, 0.0, 0.0, 0.0, 1.6212685747994804E9, 2021-05-17 18:22:54.799
34.0, -94.24173736572266, -234.29351806640625, 58.649112701416016, 296.6974792480469, -0.06400000303983688, 0.0, 1.040000081062317, 0.0, 0.0, 0.0, 0.0, 0.0, 1.6212685747994804E9, 2021-05-17 18:22:54.799
35.0, -81.37648010253906, -220.0220489501953, 65.01068115234375, 311.9039306640625, -0.06400000303983688, 0.0, 1.040000081062317, 0.0, 0.0, 0.0, 0.0, 0.0, 1.621268574815071E9, 2021-05-17 18:22:54.815
35.0, -75.66939544677734, -218.0735626220703, 62.79291915893555, 313.5943603515625, -0.06400000303983688, 0.0, 1.040000081062317, 0.0, 0.0, 0.0, 0.0, 0.0, 1.621268574815071E9, 2021-05-17 18:22:54.815
36.0, -92.99635314941406, -224.22195434570312, 63.81391143798828, 305.2132263183594, -0.06400000303983688, 0.0, 1.040000081062317, 0.0, 0.0, 0.0, 0.0, 0.0, 1.6212685748157876E9, 2021-05-17 18:22:54.815
36.0, -97.4393539428711, -228.62008666992188, 62.99861526489258, 299.4874572753906, -0.06400000303983688, 0.0, 1.040000081062317, 0.0, 0.0, 0.0, 0.0, 0.0, 1.6212685748157876E9, 2021-05-17 18:22:54.815
37.0, -91.48917388916016, -220.22775268554688, 52.75876998901367, 310.8904113769531, -0.06400000303983688, 0.0, 1.040000081062317, 0.0, 0.0, 0.0, 0.0, 0.0, 1.6212685748293693E9, 2021-05-17 18:22:54.829
37.0, -86.41413116455078, -214.8086395263672, 59.67010498046875, 318.0971984863281, -0.06400000303983688, 0.0, 1.040000081062317, 0.0, 0.0, 0.0, 0.0, 0.0, 1.6212685748293693E9, 2021-05-17 18:22:54.829
38.0, -92.55504608154297, -228.85943603515625, 58.888465881347656, 303.4928894042969, -0.06400000303983688, 0.0, 1.040000081062317, 0.0, 0.0, 0.0, 0.0, 0.0, 1.621268574845044E9, 2021-05-17 18:22:54.845
38.0, -94.37263488769531, -231.18939208984375, 58.342437744140625, 302.37091064453125, -0.06400000303983688, 0.0, 1.040000081062317, 0.0, 0.0, 0.0, 0.0, 0.0, 1.621268574845044E9, 2021-05-17 18:22:54.845
39.0, -88.59822845458984, -228.15634155273438, 48.67479705810547, 301.8996887207031, -0.06400000303983688, 0.0, 1.040000081062317, 0.0, 0.0, 0.0, 0.0, 0.0, 1.621268574845759E9, 2021-05-17 18:22:54.845
39.0, -85.80452728271484, -220.25767517089844, 51.909812927246094, 305.7817077636719, -0.06400000303983688, 0.0, 1.040000081062317, 0.0, 0.0, 0.0, 0.0, 0.0, 1.621268574845759E9, 2021-05-17 18:22:54.845
40.0, -94.8102035522461, -235.80816650390625, 56.36029052734375, 293.7130432128906, -0.06400000303983688, 0.0, 1.055999994277954, 0.0, 0.0, 0.0, 0.0, 0.0, 1.6212685748593233E9, 2021-05-17 18:22:54.859
40.0, -92.92155456542969, -233.97935485839844, 57.28030776977539, 296.74237060546875, -0.06400000303983688, 0.0, 1.055999994277954, 0.0, 0.0, 0.0, 0.0, 0.0, 1.6212685748593233E9, 2021-05-17 18:22:54.859
41.0, -89.99695587158203, -229.58871459960938, 49.617252349853516, 300.9198303222656, -0.06400000303983688, 0.0, 1.055999994277954, 0.0, 0.0, 0.0, 0.0, 0.0, 1.621268574875046E9, 2021-05-17 18:22:54.875
41.0, -82.65178680419922, -227.07550048828125, 51.72655487060547, 306.5895080566406, -0.06400000303983688, 0.0, 1.055999994277954, 0.0, 0.0, 0.0, 0.0, 0.0, 1.621268574875046E9, 2021-05-17 18:22:54.875
42.0, -91.47421264648438, -227.5280303955078, 57.164371490478516, 297.8979797363281, -0.06400000303983688, 0.0, 1.055999994277954, 0.0, 0.0, 0.0, 0.0, 0.0, 1.6212685748757455E9, 2021-05-17 18:22:54.875
42.0, -97.79838562011719, -233.47821044921875, 57.171852111816406, 288.4958801269531, -0.06400000303983688, 0.0, 1.055999994277954, 0.0, 0.0, 0.0, 0.0, 0.0, 1.6212685748757455E9, 2021-05-17 18:22:54.875
43.0, -95.80875396728516, -222.4866485595703, 57.46356201171875, 303.55645751953125, -0.06400000303983688, 0.0, 1.055999994277954, 0.0, 0.0, 0.0, 0.0, 0.0, 1.6212685748894184E9, 2021-05-17 18:22:54.889
43.0, -92.85797882080078, -221.40208435058594, 56.73054122924805, 305.04119873046875, -0.06400000303983688, 0.0, 1.055999994277954, 0.0, 0.0, 0.0, 0.0, 0.0, 1.6212685748894184E9, 2021-05-17 18:22:54.889
44.0, -94.4698715209961, -231.24549865722656, 60.75093460083008, 299.6220703125, -0.06400000303983688, 0.0, 1.055999994277954, 0.0, 0.0, 0.0, 0.0, 0.0, 1.621268574905125E9, 2021-05-17 18:22:54.905
44.0, -96.77365112304688, -228.328369140625, 56.84273910522461, 297.7857971191406, -0.06400000303983688, 0.0, 1.055999994277954, 0.0, 0.0, 0.0, 0.0, 0.0, 1.621268574905125E9, 2021-05-17 18:22:54.905
45.0, -87.77545166015625, -223.0663299560547, 57.553321838378906, 306.26788330078125, -0.06400000303983688, 0.0, 1.055999994277954, 0.0, 0.0, 0.0, 0.0, 0.0, 1.621268574905769E9, 2021-05-17 18:22:54.905
45.0, -87.83155059814453, -226.08816528320312, 57.13445281982422, 308.9419250488281, -0.06400000303983688, 0.0, 1.055999994277954, 0.0, 0.0, 0.0, 0.0, 0.0, 1.621268574905769E9, 2021-05-17 18:22:54.905
46.0, -91.11144256591797, -233.22764587402344, 61.34931945800781, 300.0072937011719, -0.06400000303983688, 0.0, 1.055999994277954, 0.0, 0.0, 0.0, 0.0, 0.0, 1.6212685749194736E9, 2021-05-17 18:22:54.919
46.0, -93.523681640625, -238.07081604003906, 62.647064208984375, 298.9152526855469, -0.06400000303983688, 0.0, 1.055999994277954, 0.0, 0.0, 0.0, 0.0, 0.0, 1.6212685749194736E9, 2021-05-17 18:22:54.919
47.0, -93.86775207519531, -231.6830596923828, 59.269935607910156, 302.7037658691406, -0.06400000303983688, 0.0, 1.055999994277954, 0.0, 0.0, 0.0, 0.0, 0.0, 1.6212685749350948E9, 2021-05-17 18:22:54.935
47.0, -80.90899658203125, -224.9849090576172, 61.39419937133789, 313.3138732910156, -0.06400000303983688, 0.0, 1.055999994277954, 0.0, 0.0, 0.0, 0.0, 0.0, 1.6212685749350948E9, 2021-05-17 18:22:54.935
48.0, -91.22364044189453, -239.68270874023438, 62.04119873046875, 296.5030212402344, -0.06400000303983688, 0.0, 1.055999994277954, 0.0, 0.0, 0.0, 0.0, 0.0, 1.62126857493583E9, 2021-05-17 18:22:54.935
48.0, -91.39567565917969, -234.83953857421875, 61.58119201660156, 300.15313720703125, -0.06400000303983688, 0.0, 1.055999994277954, 0.0, 0.0, 0.0, 0.0, 0.0, 1.62126857493583E9, 2021-05-17 18:22:54.935
49.0, -79.1288070678711, -233.27252197265625, 53.55162811279297, 308.3959045410156, -0.06400000303983688, 0.0, 1.055999994277954, 0.0, 0.0, 0.0, 0.0, 0.0, 1.6212685749493177E9, 2021-05-17 18:22:54.949
49.0, -83.68025970458984, -228.0778045654297, 57.81137466430664, 309.0017395019531, -0.06400000303983688, 0.0, 1.055999994277954, 0.0, 0.0, 0.0, 0.0, 0.0, 1.6212685749493177E9, 2021-05-17 18:22:54.949
50.0, -89.7688217163086, -225.34393310546875, 60.19742965698242, 302.2325439453125, -0.06400000303983688, 0.0, 1.040000081062317, 0.0, 0.0, 0.0, 0.0, 0.0, 1.621268574965129E9, 2021-05-17 18:22:54.965
50.0, -100.29290008544922, -233.74374389648438, 51.9621696472168, 290.92681884765625, -0.06400000303983688, 0.0, 1.040000081062317, 0.0, 0.0, 0.0, 0.0, 0.0, 1.621268574965129E9, 2021-05-17 18:22:54.965
51.0, -102.7013931274414, -223.8816375732422, 47.60144805908203, 298.1261291503906, -0.06400000303983688, 0.0, 1.040000081062317, 0.0, 0.0, 0.0, 0.0, 0.0, 1.6212685749659405E9, 2021-05-17 18:22:54.965
51.0, -102.00202941894531, -216.8394012451172, 51.34508514404297, 303.3283386230469, -0.06400000303983688, 0.0, 1.040000081062317, 0.0, 0.0, 0.0, 0.0, 0.0, 1.6212685749659405E9, 2021-05-17 18:22:54.965
52.0, -105.6671371459961, -225.30653381347656, 56.04240036010742, 297.1724548339844, -0.06400000303983688, 0.0, 1.040000081062317, 0.0, 0.0, 0.0, 0.0, 0.0, 1.6212685749793084E9, 2021-05-17 18:22:54.979
52.0, -115.1627426147461, -229.46530151367188, 51.78639602661133, 290.3321838378906, -0.06400000303983688, 0.0, 1.040000081062317, 0.0, 0.0, 0.0, 0.0, 0.0, 1.6212685749793084E9, 2021-05-17 18:22:54.979
53.0, -104.05523681640625, -219.677978515625, 51.04215621948242, 303.64996337890625, -0.06400000303983688, 0.0, 1.040000081062317, 0.0, 0.0, 0.0, 0.0, 0.0, 1.621268574995083E9, 2021-05-17 18:22:54.995
53.0, -104.61996459960938, -218.22315979003906, 50.387672424316406, 302.9057312011719, -0.06400000303983688, 0.0, 1.040000081062317, 0.0, 0.0, 0.0, 0.0, 0.0, 1.621268574995083E9, 2021-05-17 18:22:54.995
54.0, -98.5014877319336, -224.5660400390625, 53.200077056884766, 297.3893737792969, -0.06400000303983688, 0.0, 1.040000081062317, 0.0, 0.0, 0.0, 0.0, 0.0, 1.6212685749957612E9, 2021-05-17 18:22:54.995
54.0, -102.80985260009766, -228.4069061279297, 54.99148941040039, 289.8871154785156, -0.06400000303983688, 0.0, 1.040000081062317, 0.0, 0.0, 0.0, 0.0, 0.0, 1.6212685749957612E9, 2021-05-17 18:22:54.995
55.0, -92.97765350341797, -221.79103088378906, 55.55247497558594, 305.2356872558594, -0.06400000303983688, 0.0, 1.040000081062317, 0.0, 0.0, 0.0, 0.0, 0.0, 1.621268575025696E9, 2021-05-17 18:22:55.025
55.0, -87.71561431884766, -215.81466674804688, 61.84672546386719, 305.314208984375, -0.06400000303983688, 0.0, 1.040000081062317, 0.0, 0.0, 0.0, 0.0, 0.0, 1.621268575025696E9, 2021-05-17 18:22:55.025
56.0, -92.64854431152344, -227.98056030273438, 67.51641082763672, 301.33868408203125, -0.06400000303983688, 0.0, 1.040000081062317, 0.0, 0.0, 0.0, 0.0, 0.0, 1.62126857502647E9, 2021-05-17 18:22:55.026
56.0, -92.1212158203125, -226.5032958984375, 63.29780578613281, 294.7564697265625, -0.06400000303983688, 0.0, 1.040000081062317, 0.0, 0.0, 0.0, 0.0, 0.0, 1.62126857502647E9, 2021-05-17 18:22:55.026
57.0, -85.22109985351562, -219.8911590576172, 67.27706146240234, 303.1675109863281, -0.06400000303983688, 0.0, 1.040000081062317, 0.0, 0.0, 0.0, 0.0, 0.0, 1.6212685750271463E9, 2021-05-17 18:22:55.027
57.0, -83.45586395263672, -214.24765014648438, 70.10442352294922, 309.14013671875, -0.06400000303983688, 0.0, 1.040000081062317, 0.0, 0.0, 0.0, 0.0, 0.0, 1.6212685750271463E9, 2021-05-17 18:22:55.027
58.0, -91.40689849853516, -227.13160705566406, 69.53221893310547, 302.04180908203125, -0.06400000303983688, 0.0, 1.040000081062317, 0.0, 0.0, 0.0, 0.0, 0.0, 1.6212685750393553E9, 2021-05-17 18:22:55.039
58.0, -88.42619323730469, -228.69862365722656, 66.31216430664062, 297.9952392578125, -0.06400000303983688, 0.0, 1.040000081062317, 0.0, 0.0, 0.0, 0.0, 0.0, 1.6212685750393553E9, 2021-05-17 18:22:55.039
59.0, -87.91382598876953, -221.15150451660156, 62.29177474975586, 302.4756164550781, -0.06400000303983688, 0.0, 1.040000081062317, 0.0, 0.0, 0.0, 0.0, 0.0, 1.621268575055002E9, 2021-05-17 18:22:55.055
59.0, -88.91986083984375, -222.24356079101562, 59.12407684326172, 308.66143798828125, -0.06400000303983688, 0.0, 1.040000081062317, 0.0, 0.0, 0.0, 0.0, 0.0, 1.621268575055002E9, 2021-05-17 18:22:55.055
60.0, -100.62948608398438, -228.98284912109375, 63.37260437011719, 300.055908203125, -0.06400000303983688, 0.0, 1.055999994277954, 0.0, 0.0, 0.0, 0.0, 0.0, 1.6212685750557745E9, 2021-05-17 18:22:55.055
60.0, -103.6251449584961, -232.0645294189453, 56.4986686706543, 292.0375671386719, -0.06400000303983688, 0.0, 1.055999994277954, 0.0, 0.0, 0.0, 0.0, 0.0, 1.6212685750557745E9, 2021-05-17 18:22:55.055
61.0, -94.50727081298828, -221.22630310058594, 51.763954162597656, 300.0035400390625, -0.06400000303983688, 0.0, 1.055999994277954, 0.0, 0.0, 0.0, 0.0, 0.0, 1.6212685750693693E9, 2021-05-17 18:22:55.069
61.0, -95.86859893798828, -221.5591583251953, 57.007293701171875, 299.7230529785156, -0.06400000303983688, 0.0, 1.055999994277954, 0.0, 0.0, 0.0, 0.0, 0.0, 1.6212685750693693E9, 2021-05-17 18:22:55.069
62.0, -106.11965942382812, -227.0044403076172, 57.9647102355957, 294.83502197265625, -0.06400000303983688, 0.0, 1.055999994277954, 0.0, 0.0, 0.0, 0.0, 0.0, 1.6212685750997636E9, 2021-05-17 18:22:55.099
62.0, -108.34490203857422, -230.43392944335938, 53.517967224121094, 284.1763000488281, -0.06400000303983688, 0.0, 1.055999994277954, 0.0, 0.0, 0.0, 0.0, 0.0, 1.6212685750997636E9, 2021-05-17 18:22:55.099
63.0, -97.5627670288086, -224.431396484375, 54.86433410644531, 297.6623840332031, -0.06400000303983688, 0.0, 1.055999994277954, 0.0, 0.0, 0.0, 0.0, 0.0, 1.621268575116145E9, 2021-05-17 18:22:55.116
63.0, -89.68653869628906, -222.49038696289062, 55.829227447509766, 299.19573974609375, -0.06400000303983688, 0.0, 1.055999994277954, 0.0, 0.0, 0.0, 0.0, 0.0, 1.621268575116145E9, 2021-05-17 18:22:55.116
64.0, -94.0098648071289, -230.30677795410156, 56.9212760925293, 290.5528259277344, -0.06400000303983688, 0.0, 1.055999994277954, 0.0, 0.0, 0.0, 0.0, 0.0, 1.6212685751169589E9, 2021-05-17 18:22:55.116
64.0, -99.48507690429688, -232.79006958007812, 55.399139404296875, 288.4435119628906, -0.06400000303983688, 0.0, 1.055999994277954, 0.0, 0.0, 0.0, 0.0, 0.0, 1.6212685751169589E9, 2021-05-17 18:22:55.116
65.0, -90.85338592529297, -226.3761444091797, 55.38043975830078, 299.375244140625, -0.06400000303983688, 0.0, 1.055999994277954, 0.0, 0.0, 0.0, 0.0, 0.0, 1.6212685751176124E9, 2021-05-17 18:22:55.117
65.0, -80.99501037597656, -225.97222900390625, 55.829227447509766, 307.51702880859375, -0.06400000303983688, 0.0, 1.055999994277954, 0.0, 0.0, 0.0, 0.0, 0.0, 1.6212685751176124E9, 2021-05-17 18:22:55.117
66.0, -93.57229614257812, -234.6862030029297, 64.76758575439453, 298.5188293457031, -0.06400000303983688, 0.0, 1.055999994277954, 0.0, 0.0, 0.0, 0.0, 0.0, 1.6212685751301055E9, 2021-05-17 18:22:55.130
66.0, -90.2774429321289, -233.19024658203125, 65.81849670410156, 300.5121765136719, -0.06400000303983688, 0.0, 1.055999994277954, 0.0, 0.0, 0.0, 0.0, 0.0, 1.6212685751301055E9, 2021-05-17 18:22:55.130
67.0, -90.86460876464844, -222.7671356201172, 61.222164154052734, 307.591796875, -0.06400000303983688, 0.0, 1.055999994277954, 0.0, 0.0, 0.0, 0.0, 0.0, 1.6212685751307905E9, 2021-05-17 18:22:55.130
67.0, -84.05799102783203, -218.73179626464844, 69.99222564697266, 307.4422302246094, -0.06400000303983688, 0.0, 1.055999994277954, 0.0, 0.0, 0.0, 0.0, 0.0, 1.6212685751307905E9, 2021-05-17 18:22:55.130
68.0, -93.38529968261719, -222.92047119140625, 70.92720031738281, 298.283203125, -0.06400000303983688, 0.0, 1.055999994277954, 0.0, 0.0, 0.0, 0.0, 0.0, 1.6212685751450255E9, 2021-05-17 18:22:55.145
68.0, -94.3913345336914, -226.92965698242188, 67.92406463623047, 297.0228576660156, -0.06400000303983688, 0.0, 1.055999994277954, 0.0, 0.0, 0.0, 0.0, 0.0, 1.6212685751450255E9, 2021-05-17 18:22:55.145
69.0, -78.79595184326172, -219.87994384765625, 64.41230010986328, 309.37200927734375, -0.06400000303983688, 0.0, 1.055999994277954, 0.0, 0.0, 0.0, 0.0, 0.0, 1.6212685751457746E9, 2021-05-17 18:22:55.145
69.0, -70.2614974975586, -219.15440368652344, 70.42605590820312, 307.1168518066406, -0.06400000303983688, 0.0, 1.055999994277954, 0.0, 0.0, 0.0, 0.0, 0.0, 1.6212685751457746E9, 2021-05-17 18:22:55.145
70.0, -82.00852966308594, -234.8133544921875, 66.27850341796875, 295.4857482910156, -0.06400000303983688, 0.0, 1.055999994277954, 0.0, 0.0, 0.0, 0.0, 0.0, 1.621268575159341E9, 2021-05-17 18:22:55.159
70.0, -83.8111572265625, -238.2952117919922, 67.60617065429688, 295.489501953125, -0.06400000303983688, 0.0, 1.055999994277954, 0.0, 0.0, 0.0, 0.0, 0.0, 1.621268575159341E9, 2021-05-17 18:22:55.159
71.0, -77.49073028564453, -230.2731170654297, 62.23941421508789, 307.2701721191406, -0.06400000303983688, 0.0, 1.055999994277954, 0.0, 0.0, 0.0, 0.0, 0.0, 1.621268575175086E9, 2021-05-17 18:22:55.175
71.0, -80.00393676757812, -226.73143005371094, 59.79726028442383, 304.88037109375, -0.06400000303983688, 0.0, 1.055999994277954, 0.0, 0.0, 0.0, 0.0, 0.0, 1.621268575175086E9, 2021-05-17 18:22:55.175
72.0, -90.2737045288086, -235.14620971679688, 58.74260711669922, 293.30914306640625, -0.06400000303983688, 0.0, 1.055999994277954, 0.0, 0.0, 0.0, 0.0, 0.0, 1.6212685751757612E9, 2021-05-17 18:22:55.175
72.0, -92.95147705078125, -234.9928741455078, 58.02828598022461, 290.75103759765625, -0.06400000303983688, 0.0, 1.055999994277954, 0.0, 0.0, 0.0, 0.0, 0.0, 1.6212685751757612E9, 2021-05-17 18:22:55.175
73.0, -86.18599700927734, -233.9232635498047, 54.32578659057617, 297.696044921875, -0.06400000303983688, 0.0, 1.055999994277954, 0.0, 0.0, 0.0, 0.0, 0.0, 1.6212685751893399E9, 2021-05-17 18:22:55.189
73.0, -85.36322021484375, -226.52200317382812, 56.56224822998047, 297.49407958984375, -0.06400000303983688, 0.0, 1.055999994277954, 0.0, 0.0, 0.0, 0.0, 0.0, 1.6212685751893399E9, 2021-05-17 18:22:55.189
74.0, -95.52078247070312, -230.94630432128906, 60.167510986328125, 293.4774169921875, -0.06400000303983688, 0.0, 1.055999994277954, 0.0, 0.0, 0.0, 0.0, 0.0, 1.6212685752057853E9, 2021-05-17 18:22:55.205
74.0, -99.6907730102539, -233.35853576660156, 57.2429084777832, 285.4366455078125, -0.06400000303983688, 0.0, 1.055999994277954, 0.0, 0.0, 0.0, 0.0, 0.0, 1.6212685752057853E9, 2021-05-17 18:22:55.205
75.0, -91.54527282714844, -230.2319793701172, 57.28030776977539, 294.0832824707031, -0.06400000303983688, 0.0, 1.055999994277954, 0.0, 0.0, 0.0, 0.0, 0.0, 1.6212685752065237E9, 2021-05-17 18:22:55.206
75.0, -89.34246826171875, -221.0767059326172, 58.37236022949219, 299.5921630859375, -0.06400000303983688, 0.0, 1.055999994277954, 0.0, 0.0, 0.0, 0.0, 0.0, 1.6212685752065237E9, 2021-05-17 18:22:55.206
76.0, -96.26876831054688, -232.7040557861328, 57.497222900390625, 292.613525390625, -0.06400000303983688, 0.0, 1.055999994277954, 0.0, 0.0, 0.0, 0.0, 0.0, 1.621268575219448E9, 2021-05-17 18:22:55.219
76.0, -97.0204849243164, -238.6430206298828, 58.85480499267578, 287.09716796875, -0.06400000303983688, 0.0, 1.055999994277954, 0.0, 0.0, 0.0, 0.0, 0.0, 1.621268575219448E9, 2021-05-17 18:22:55.219
77.0, -87.40894317626953, -225.25791931152344, 61.790626525878906, 298.6759033203125, -0.06400000303983688, 0.0, 1.055999994277954, 0.0, 0.0, 0.0, 0.0, 0.0, 1.6212685752351353E9, 2021-05-17 18:22:55.235
77.0, -77.96569061279297, -221.73118591308594, 65.93069458007812, 302.5653991699219, -0.06400000303983688, 0.0, 1.055999994277954, 0.0, 0.0, 0.0, 0.0, 0.0, 1.6212685752351353E9, 2021-05-17 18:22:55.235
78.0, -88.82262420654297, -231.48858642578125, 64.34871673583984, 292.5611572265625, -0.06400000303983688, 0.0, 1.055999994277954, 0.0, 0.0, 0.0, 0.0, 0.0, 1.6212685752358515E9, 2021-05-17 18:22:55.235
78.0, -87.85398864746094, -233.78114318847656, 61.210941314697266, 294.1468811035156, -0.06400000303983688, 0.0, 1.055999994277954, 0.0, 0.0, 0.0, 0.0, 0.0, 1.6212685752358515E9, 2021-05-17 18:22:55.235
79.0, -78.1526870727539, -221.1664581298828, 59.692543029785156, 302.62896728515625, -0.06400000303983688, 0.0, 1.055999994277954, 0.0, 0.0, 0.0, 0.0, 0.0, 1.6212685752494018E9, 2021-05-17 18:22:55.249
79.0, -75.3963851928711, -219.07586669921875, 61.517616271972656, 299.6744384765625, -0.06400000303983688, 0.0, 1.055999994277954, 0.0, 0.0, 0.0, 0.0, 0.0, 1.6212685752494018E9, 2021-05-17 18:22:55.249
80.0, -79.91792297363281, -223.90406799316406, 67.67349243164062, 304.0987548828125, -0.06400000303983688, 0.0, 1.055999994277954, 0.0, 0.0, 0.0, 0.0, 0.0, 1.6212685752650983E9, 2021-05-17 18:22:55.265
80.0, -82.57324981689453, -227.47193908691406, 68.11853790283203, 298.82550048828125, -0.06400000303983688, 0.0, 1.055999994277954, 0.0, 0.0, 0.0, 0.0, 0.0, 1.6212685752650983E9, 2021-05-17 18:22:55.265
81.0, -83.99441528320312, -222.62503051757812, 64.55815124511719, 300.81512451171875, -0.06400000303983688, 0.0, 1.055999994277954, 0.0, 0.0, 0.0, 0.0, 0.0, 1.62126857526582E9, 2021-05-17 18:22:55.265
81.0, -80.3180923461914, -217.16851806640625, 64.61425018310547, 308.72125244140625, -0.06400000303983688, 0.0, 1.055999994277954, 0.0, 0.0, 0.0, 0.0, 0.0, 1.62126857526582E9, 2021-05-17 18:22:55.265
82.0, -91.30591583251953, -227.81600952148438, 69.42750549316406, 302.75238037109375, -0.06400000303983688, 0.0, 1.055999994277954, 0.0, 0.0, 0.0, 0.0, 0.0, 1.6212685752793756E9, 2021-05-17 18:22:55.279
82.0, -92.7831802368164, -227.6215362548828, 65.97557830810547, 296.3833312988281, -0.06400000303983688, 0.0, 1.055999994277954, 0.0, 0.0, 0.0, 0.0, 0.0, 1.6212685752793756E9, 2021-05-17 18:22:55.279
83.0, -90.07549285888672, -223.750732421875, 59.99547576904297, 300.9048767089844, -0.06400000303983688, 0.0, 1.055999994277954, 0.0, 0.0, 0.0, 0.0, 0.0, 1.621268575295046E9, 2021-05-17 18:22:55.295
83.0, -87.27056884765625, -225.0970916748047, 59.24375534057617, 301.7164306640625, -0.06400000303983688, 0.0, 1.055999994277954, 0.0, 0.0, 0.0, 0.0, 0.0, 1.621268575295046E9, 2021-05-17 18:22:55.295
84.0, -95.34874725341797, -230.8341064453125, 60.07775115966797, 296.90692138671875, -0.06400000303983688, 0.0, 1.055999994277954, 0.0, 0.0, 0.0, 0.0, 0.0, 1.621268575295817E9, 2021-05-17 18:22:55.295
84.0, -101.9571533203125, -228.09649658203125, 60.496620178222656, 294.7340393066406, -0.06400000303983688, 0.0, 1.055999994277954, 0.0, 0.0, 0.0, 0.0, 0.0, 1.621268575295817E9, 2021-05-17 18:22:55.295
85.0, -97.48796844482422, -228.6313018798828, 55.07002639770508, 300.83380126953125, -0.06400000303983688, 0.0, 1.055999994277954, 0.0, 0.0, 0.0, 0.0, 0.0, 1.621268575325766E9, 2021-05-17 18:22:55.325
85.0, -84.00563049316406, -227.5691680908203, 56.625823974609375, 302.4606628417969, -0.06400000303983688, 0.0, 1.055999994277954, 0.0, 0.0, 0.0, 0.0, 0.0, 1.621268575325766E9, 2021-05-17 18:22:55.325
86.0, -92.3792724609375, -242.51007080078125, 59.85335922241211, 289.89459228515625, -0.06400000303983688, 0.0, 1.055999994277954, 0.0, 0.0, 0.0, 0.0, 0.0, 1.62126857532651E9, 2021-05-17 18:22:55.326
86.0, -91.4181137084961, -241.94908142089844, 59.48310852050781, 287.8414001464844, -0.06400000303983688, 0.0, 1.055999994277954, 0.0, 0.0, 0.0, 0.0, 0.0, 1.62126857532651E9, 2021-05-17 18:22:55.326
87.0, -83.20529174804688, -232.10940551757812, 59.636444091796875, 295.62786865234375, -0.06400000303983688, 0.0, 1.055999994277954, 0.0, 0.0, 0.0, 0.0, 0.0, 1.6212685753272572E9, 2021-05-17 18:22:55.327
87.0, -83.86725616455078, -227.20640563964844, 58.533172607421875, 295.5493469238281, -0.06400000303983688, 0.0, 1.055999994277954, 0.0, 0.0, 0.0, 0.0, 0.0, 1.6212685753272572E9, 2021-05-17 18:22:55.327
88.0, -80.9015121459961, -235.73336791992188, 63.649356842041016, 292.250732421875, -0.06400000303983688, 0.0, 1.055999994277954, 0.0, 0.0, 0.0, 0.0, 0.0, 1.6212685753394291E9, 2021-05-17 18:22:55.339
88.0, -91.38445281982422, -235.04522705078125, 64.77880859375, 291.2895812988281, -0.06400000303983688, 0.0, 1.055999994277954, 0.0, 0.0, 0.0, 0.0, 0.0, 1.6212685753394291E9, 2021-05-17 18:22:55.339
89.0, -80.43029022216797, -227.7412109375, 61.43159484863281, 300.83380126953125, -0.06400000303983688, 0.0, 1.055999994277954, 0.0, 0.0, 0.0, 0.0, 0.0, 1.6212685753551438E9, 2021-05-17 18:22:55.355
89.0, -79.12132263183594, -222.67738342285156, 66.64127349853516, 304.5736999511719, -0.06400000303983688, 0.0, 1.055999994277954, 0.0, 0.0, 0.0, 0.0, 0.0, 1.6212685753551438E9, 2021-05-17 18:22:55.355
90.0, -83.98319244384766, -228.0703125, 71.3460693359375, 296.4543762207031, -0.06400000303983688, 0.0, 1.055999994277954, 0.0, 0.0, 0.0, 0.0, 0.0, 1.6212685753558326E9, 2021-05-17 18:22:55.355
90.0, -83.02204132080078, -230.79296875, 73.16740417480469, 296.30853271484375, -0.06400000303983688, 0.0, 1.055999994277954, 0.0, 0.0, 0.0, 0.0, 0.0, 1.6212685753558326E9, 2021-05-17 18:22:55.355
91.0, -75.9424057006836, -222.81202697753906, 66.38322448730469, 301.5593566894531, -0.06400000303983688, 0.0, 1.055999994277954, 0.0, 0.0, 0.0, 0.0, 0.0, 1.6212685753693953E9, 2021-05-17 18:22:55.369
91.0, -77.86097717285156, -217.3854217529297, 69.92491149902344, 312.1395263671875, -0.06400000303983688, 0.0, 1.055999994277954, 0.0, 0.0, 0.0, 0.0, 0.0, 1.6212685753693953E9, 2021-05-17 18:22:55.369
92.0, -93.21700286865234, -221.8583526611328, 72.25860595703125, 302.4045715332031, -0.06400000303983688, 0.0, 1.055999994277954, 0.0, 0.0, 0.0, 0.0, 0.0, 1.6212685753851435E9, 2021-05-17 18:22:55.385
92.0, -92.57748413085938, -227.07550048828125, 71.31989288330078, 299.715576171875, -0.06400000303983688, 0.0, 1.055999994277954, 0.0, 0.0, 0.0, 0.0, 0.0, 1.6212685753851435E9, 2021-05-17 18:22:55.385
93.0, -83.33992767333984, -213.04713439941406, 70.20166015625, 310.7258605957031, -0.06400000303983688, 0.0, 1.055999994277954, 0.0, 0.0, 0.0, 0.0, 0.0, 1.621268575385806E9, 2021-05-17 18:22:55.385
93.0, -77.12421417236328, -215.5640869140625, 70.11564636230469, 314.9257507324219, -0.06400000303983688, 0.0, 1.055999994277954, 0.0, 0.0, 0.0, 0.0, 0.0, 1.621268575385806E9, 2021-05-17 18:22:55.385
94.0, -86.99007415771484, -226.01336669921875, 62.9013786315918, 299.3640441894531, -0.06400000303983688, 0.0, 1.055999994277954, 0.0, 0.0, 0.0, 0.0, 0.0, 1.6212685753994038E9, 2021-05-17 18:22:55.399
94.0, -84.57035827636719, -235.77450561523438, 66.14012908935547, 297.3220520019531, -0.06400000303983688, 0.0, 1.055999994277954, 0.0, 0.0, 0.0, 0.0, 0.0, 1.6212685753994038E9, 2021-05-17 18:22:55.399
95.0, -76.67169189453125, -228.7135772705078, 64.62921142578125, 305.73681640625, -0.06400000303983688, 0.0, 1.055999994277954, 0.0, 0.0, 0.0, 0.0, 0.0, 1.621268575415052E9, 2021-05-17 18:22:55.415
95.0, -81.75794982910156, -229.02774047851562, 62.72186279296875, 309.0653381347656, -0.06400000303983688, 0.0, 1.055999994277954, 0.0, 0.0, 0.0, 0.0, 0.0, 1.621268575415052E9, 2021-05-17 18:22:55.415
96.0, -87.11348724365234, -237.91748046875, 61.461517333984375, 292.5723876953125, -0.06400000303983688, 0.0, 1.055999994277954, 0.0, 0.0, 0.0, 0.0, 0.0, 1.6212685754157252E9, 2021-05-17 18:22:55.415
96.0, -90.12784576416016, -238.51959228515625, 67.61739349365234, 294.6854248046875, -0.06400000303983688, 0.0, 1.055999994277954, 0.0, 0.0, 0.0, 0.0, 0.0, 1.6212685754157252E9, 2021-05-17 18:22:55.415
97.0, -87.29300689697266, -232.3637237548828, 61.17354202270508, 295.2800598144531, -0.06400000303983688, 0.0, 1.055999994277954, 0.0, 0.0, 0.0, 0.0, 0.0, 1.6212685754447718E9, 2021-05-17 18:22:55.444
97.0, -84.96678924560547, -234.74978637695312, 61.01272964477539, 298.5749206542969, -0.06400000303983688, 0.0, 1.055999994277954, 0.0, 0.0, 0.0, 0.0, 0.0, 1.6212685754447718E9, 2021-05-17 18:22:55.444
98.0, -92.21845245361328, -236.98623657226562, 68.46260833740234, 290.93804931640625, -0.06400000303983688, 0.0, 1.055999994277954, 0.0, 0.0, 0.0, 0.0, 0.0, 1.621268575462166E9, 2021-05-17 18:22:55.462
98.0, -100.29663848876953, -234.83580017089844, 64.1168441772461, 285.87420654296875, -0.06400000303983688, 0.0, 1.055999994277954, 0.0, 0.0, 0.0, 0.0, 0.0, 1.621268575462166E9, 2021-05-17 18:22:55.462
99.0, -93.80416870117188, -231.41378784179688, 61.884124755859375, 291.2821044921875, -0.06400000303983688, 0.0, 1.055999994277954, 0.0, 0.0, 0.0, 0.0, 0.0, 1.6212685754628146E9, 2021-05-17 18:22:55.462
99.0, -87.31544494628906, -217.5200653076172, 67.86048126220703, 302.9057312011719, -0.06400000303983688, 0.0, 1.055999994277954, 0.0, 0.0, 0.0, 0.0, 0.0, 1.6212685754628146E9, 2021-05-17 18:22:55.462
100.0, -95.36370849609375, -223.01397705078125, 71.37225341796875, 296.5179748535156, -0.06400000303983688, 0.0, 1.055999994277954, 0.0, 0.0, 0.0, 0.0, 0.0, 1.6212685754635653E9, 2021-05-17 18:22:55.463
100.0, -99.3055648803711, -225.86752319335938, 66.60762023925781, 290.7398376464844, -0.06400000303983688, 0.0, 1.055999994277954, 0.0, 0.0, 0.0, 0.0, 0.0, 1.6212685754635653E9, 2021-05-17 18:22:55.463
0.0, -88.23171997070312, -216.99835205078125, 63.843833923339844, 298.60858154296875, -0.06400000303983688, 0.0, 1.055999994277954, 0.0, 0.0, 0.0, 0.0, 0.0, 1.6212685754643524E9, 2021-05-17 18:22:55.464
1.0, -87.95496368408203, -218.075439453125, 65.83719635009766, 297.8194580078125, -0.06400000303983688, 0.0, 1.055999994277954, 0.0, 0.0, 0.0, 0.0, 0.0, 1.6212685754742908E9, 2021-05-17 18:22:55.474
1.0, -82.28901672363281, -225.2859649658203, 67.68844604492188, 296.66009521484375, -0.06400000303983688, 0.0, 1.055999994277954, 0.0, 0.0, 0.0, 0.0, 0.0, 1.6212685754742908E9, 2021-05-17 18:22:55.474
2.0, -85.60256958007812, -231.44557189941406, 69.90995025634766, 293.118408203125, -0.06400000303983688, 0.0, 1.055999994277954, 0.0, 0.0, 0.0, 0.0, 0.0, 1.6212685754902875E9, 2021-05-17 18:22:55.490
2.0, -78.01431274414062, -223.06072998046875, 65.62028503417969, 304.4615173339844, -0.06400000303983688, 0.0, 1.055999994277954, 0.0, 0.0, 0.0, 0.0, 0.0, 1.6212685754902875E9, 2021-05-17 18:22:55.490
3.0, -78.85578918457031, -224.91571044921875, 65.53052520751953, 309.64501953125, -0.06400000303983688, 0.0, 1.055999994277954, 0.0, 0.0, 0.0, 0.0, 0.0, 1.6212685754907966E9, 2021-05-17 18:22:55.490
3.0, -83.25391387939453, -230.25628662109375, 69.7603530883789, 301.47332763671875, -0.06400000303983688, 0.0, 1.055999994277954, 0.0, 0.0, 0.0, 0.0, 0.0, 1.6212685754907966E9, 2021-05-17 18:22:55.490
4.0, -92.11747741699219, -227.30177307128906, 67.232177734375, 295.1042785644531, -0.06400000303983688, 0.0, 1.055999994277954, 0.0, 0.0, 0.0, 0.0, 0.0, 1.6212685755043879E9, 2021-05-17 18:22:55.504
4.0, -89.82492065429688, -224.16773986816406, 61.973880767822266, 306.43243408203125, -0.06400000303983688, 0.0, 1.055999994277954, 0.0, 0.0, 0.0, 0.0, 0.0, 1.6212685755043879E9, 2021-05-17 18:22:55.504
5.0, -86.21217346191406, -221.20199584960938, 67.57999420166016, 311.8179016113281, -0.06400000303983688, 0.0, 1.055999994277954, 0.0, 0.0, 0.0, 0.0, 0.0, 1.621268575536405E9, 2021-05-17 18:22:55.536
5.0, -96.14534759521484, -231.6475372314453, 62.86023712158203, 298.4066162109375, -0.06400000303983688, 0.0, 1.055999994277954, 0.0, 0.0, 0.0, 0.0, 0.0, 1.621268575536405E9, 2021-05-17 18:22:55.536
6.0, -103.23619842529297, -234.09716796875, 59.81595993041992, 293.6195373535156, -0.06400000303983688, 0.0, 1.055999994277954, 0.0, 0.0, 0.0, 0.0, 0.0, 1.6212685755371962E9, 2021-05-17 18:22:55.537
6.0, -96.48194122314453, -226.2658233642578, 62.590965270996094, 305.4002380371094, -0.06400000303983688, 0.0, 1.055999994277954, 0.0, 0.0, 0.0, 0.0, 0.0, 1.6212685755371962E9, 2021-05-17 18:22:55.537
7.0, -91.45551300048828, -220.05758666992188, 59.24001693725586, 303.67987060546875, -0.06400000303983688, 0.0, 1.055999994277954, 0.0, 0.0, 0.0, 0.0, 0.0, 1.6212685755379457E9, 2021-05-17 18:22:55.537
7.0, -105.88778686523438, -227.63461303710938, 65.119140625, 293.0660400390625, -0.06400000303983688, 0.0, 1.055999994277954, 0.0, 0.0, 0.0, 0.0, 0.0, 1.6212685755379457E9, 2021-05-17 18:22:55.537
8.0, -108.62165069580078, -224.60903930664062, 64.56563568115234, 285.08135986328125, -0.06400000303983688, 0.0, 1.055999994277954, 0.0, 0.0, 0.0, 0.0, 0.0, 1.6212685755386677E9, 2021-05-17 18:22:55.538
8.0, -112.94497680664062, -220.00148010253906, 57.88991165161133, 292.273193359375, -0.06400000303983688, 0.0, 1.055999994277954, 0.0, 0.0, 0.0, 0.0, 0.0, 1.6212685755386677E9, 2021-05-17 18:22:55.538
9.0, -102.02821350097656, -214.45521545410156, 60.6536979675293, 298.04010009765625, -0.06400000303983688, 0.0, 1.055999994277954, 0.0, 0.0, 0.0, 0.0, 0.0, 1.6212685755654685E9, 2021-05-17 18:22:55.565
9.0, -100.50607299804688, -224.87083435058594, 70.4410171508789, 290.36956787109375, -0.06400000303983688, 0.0, 1.055999994277954, 0.0, 0.0, 0.0, 0.0, 0.0, 1.6212685755654685E9, 2021-05-17 18:22:55.565
10.0, -95.554443359375, -229.28392028808594, 68.05496215820312, 290.53411865234375, -0.06400000303983688, 0.0, 1.040000081062317, 0.0, 0.0, 0.0, 0.0, 0.0, 1.6212685755807233E9, 2021-05-17 18:22:55.580
10.0, -81.8851089477539, -221.9761505126953, 73.0888671875, 303.8930358886719, -0.06400000303983688, 0.0, 1.040000081062317, 0.0, 0.0, 0.0, 0.0, 0.0, 1.6212685755807233E9, 2021-05-17 18:22:55.580
11.0, -69.50978088378906, -221.90509033203125, 72.92430877685547, 304.07257080078125, -0.06400000303983688, 0.0, 1.040000081062317, 0.0, 0.0, 0.0, 0.0, 0.0, 1.6212685755814629E9, 2021-05-17 18:22:55.581
11.0, -83.20903778076172, -224.95684814453125, 76.72404479980469, 294.8499755859375, -0.06400000303983688, 0.0, 1.040000081062317, 0.0, 0.0, 0.0, 0.0, 0.0, 1.6212685755814629E9, 2021-05-17 18:22:55.581
12.0, -91.2760009765625, -230.9593963623047, 74.44271087646484, 291.3120422363281, -0.08000000566244125, 0.0, 1.040000081062317, 0.0, 0.0, 0.0, 0.0, 0.0, 1.6212685755822153E9, 2021-05-17 18:22:55.582
12.0, -89.9371109008789, -225.44677734375, 67.96894073486328, 302.5504150390625, -0.08000000566244125, 0.0, 1.040000081062317, 0.0, 0.0, 0.0, 0.0, 0.0, 1.6212685755822153E9, 2021-05-17 18:22:55.582
13.0, -78.33220672607422, -217.2601318359375, 76.40615844726562, 314.3984375, -0.08000000566244125, 0.0, 1.040000081062317, 0.0, 0.0, 0.0, 0.0, 0.0, 1.6212685755943496E9, 2021-05-17 18:22:55.594
13.0, -92.1399154663086, -227.41770935058594, 70.90850067138672, 300.6243896484375, -0.08000000566244125, 0.0, 1.040000081062317, 0.0, 0.0, 0.0, 0.0, 0.0, 1.6212685755943496E9, 2021-05-17 18:22:55.594
14.0, -94.3875961303711, -228.61447143554688, 74.192138671875, 298.3841857910156, -0.08000000566244125, 0.0, 1.040000081062317, 0.0, 0.0, 0.0, 0.0, 0.0, 1.621268575610047E9, 2021-05-17 18:22:55.610
14.0, -87.03868865966797, -220.37547302246094, 66.58892059326172, 304.8916015625, -0.08000000566244125, 0.0, 1.040000081062317, 0.0, 0.0, 0.0, 0.0, 0.0, 1.621268575610047E9, 2021-05-17 18:22:55.610
15.0, -87.78667449951172, -221.7928924560547, 66.4468002319336, 307.8161926269531, -0.08000000566244125, 0.0, 1.040000081062317, 0.0, 0.0, 0.0, 0.0, 0.0, 1.6212685756106877E9, 2021-05-17 18:22:55.610
15.0, -95.20663452148438, -230.41336059570312, 65.56792449951172, 294.4610290527344, -0.08000000566244125, 0.0, 1.040000081062317, 0.0, 0.0, 0.0, 0.0, 0.0, 1.6212685756106877E9, 2021-05-17 18:22:55.610
16.0, -109.70622253417969, -236.80111694335938, 62.9013786315918, 291.932861328125, -0.08000000566244125, 0.0, 1.040000081062317, 0.0, 0.0, 0.0, 0.0, 0.0, 1.6212685756243393E9, 2021-05-17 18:22:55.624
16.0, -100.29663848876953, -233.21829223632812, 60.773372650146484, 301.97821044921875, -0.08000000566244125, 0.0, 1.040000081062317, 0.0, 0.0, 0.0, 0.0, 0.0, 1.6212685756243393E9, 2021-05-17 18:22:55.624
17.0, -92.32691192626953, -235.1144256591797, 62.19453811645508, 304.45404052734375, -0.08000000566244125, 0.0, 1.040000081062317, 0.0, 0.0, 0.0, 0.0, 0.0, 1.6212685756400776E9, 2021-05-17 18:22:55.640
17.0, -107.83253479003906, -243.27488708496094, 60.40312576293945, 290.1825866699219, -0.08000000566244125, 0.0, 1.040000081062317, 0.0, 0.0, 0.0, 0.0, 0.0, 1.6212685756400776E9, 2021-05-17 18:22:55.640
18.0, -98.1200180053711, -244.3519744873047, 61.932743072509766, 287.3028564453125, -0.08000000566244125, 0.0, 1.040000081062317, 0.0, 0.0, 0.0, 0.0, 0.0, 1.6212685756407547E9, 2021-05-17 18:22:55.640
18.0, -90.00817108154297, -236.11671447753906, 56.24061584472656, 299.67071533203125, -0.08000000566244125, 0.0, 1.040000081062317, 0.0, 0.0, 0.0, 0.0, 0.0, 1.6212685756407547E9, 2021-05-17 18:22:55.640
19.0, -87.78667449951172, -229.55319213867188, 56.53232955932617, 301.56683349609375, -0.08000000566244125, 0.0, 1.040000081062317, 0.0, 0.0, 0.0, 0.0, 0.0, 1.6212685756544588E9, 2021-05-17 18:22:55.654
19.0, -89.01709747314453, -237.16014099121094, 62.09355926513672, 289.8684387207031, -0.08000000566244125, 0.0, 1.040000081062317, 0.0, 0.0, 0.0, 0.0, 0.0, 1.6212685756544588E9, 2021-05-17 18:22:55.654
20.0, -89.21531677246094, -242.39601135253906, 68.1521987915039, 292.61724853515625, -0.08000000566244125, 0.0, 1.040000081062317, 0.0, 0.0, 0.0, 0.0, 0.0, 1.6212685756708171E9, 2021-05-17 18:22:55.670
20.0, -72.95048522949219, -228.32650756835938, 65.39962768554688, 306.2604064941406, -0.08000000566244125, 0.0, 1.040000081062317, 0.0, 0.0, 0.0, 0.0, 0.0, 1.6212685756708171E9, 2021-05-17 18:22:55.670
21.0, -73.24594116210938, -227.6533203125, 63.941070556640625, 304.3642883300781, -0.08000000566244125, 0.0, 1.040000081062317, 0.0, 0.0, 0.0, 0.0, 0.0, 1.621268575671542E9, 2021-05-17 18:22:55.671
21.0, -84.31230163574219, -235.4023895263672, 70.36248016357422, 291.1885986328125, -0.08000000566244125, 0.0, 1.040000081062317, 0.0, 0.0, 0.0, 0.0, 0.0, 1.621268575671542E9, 2021-05-17 18:22:55.671
22.0, -81.140869140625, -235.55946350097656, 66.63753509521484, 296.6451110839844, -0.06400000303983688, 0.0, 1.040000081062317, 0.0, 0.0, 0.0, 0.0, 0.0, 1.6212685757007153E9, 2021-05-17 18:22:55.700
22.0, -78.12651062011719, -225.9553985595703, 74.94759368896484, 302.8795471191406, -0.06400000303983688, 0.0, 1.040000081062317, 0.0, 0.0, 0.0, 0.0, 0.0, 1.6212685757007153E9, 2021-05-17 18:22:55.700
23.0, -76.82502746582031, -223.416015625, 68.18211364746094, 304.18475341796875, -0.06400000303983688, 0.0, 1.040000081062317, 0.0, 0.0, 0.0, 0.0, 0.0, 1.62126857570152E9, 2021-05-17 18:22:55.701
23.0, -82.83504486083984, -234.99099731445312, 75.1420669555664, 297.8082275390625, -0.06400000303983688, 0.0, 1.040000081062317, 0.0, 0.0, 0.0, 0.0, 0.0, 1.62126857570152E9, 2021-05-17 18:22:55.701
24.0, -94.57459259033203, -233.18463134765625, 73.96025848388672, 295.9869079589844, -0.06400000303983688, 0.0, 1.040000081062317, 0.0, 0.0, 0.0, 0.0, 0.0, 1.621268575702278E9, 2021-05-17 18:22:55.702
24.0, -86.98633575439453, -224.0592803955078, 75.17198944091797, 300.6730041503906, -0.06400000303983688, 0.0, 1.040000081062317, 0.0, 0.0, 0.0, 0.0, 0.0, 1.621268575702278E9, 2021-05-17 18:22:55.702
25.0, -90.03060913085938, -222.9560089111328, 70.04832458496094, 303.89678955078125, -0.06400000303983688, 0.0, 1.040000081062317, 0.0, 0.0, 0.0, 0.0, 0.0, 1.621268575714374E9, 2021-05-17 18:22:55.714
25.0, -95.5357437133789, -226.7295684814453, 71.54802703857422, 298.3355712890625, -0.06400000303983688, 0.0, 1.040000081062317, 0.0, 0.0, 0.0, 0.0, 0.0, 1.621268575714374E9, 2021-05-17 18:22:55.714
26.0, -102.14414978027344, -233.3716278076172, 65.6651611328125, 289.49444580078125, -0.06400000303983688, 0.0, 1.040000081062317, 0.0, 0.0, 0.0, 0.0, 0.0, 1.6212685757300963E9, 2021-05-17 18:22:55.730
26.0, -100.7117691040039, -223.00462341308594, 65.1415786743164, 293.7242736816406, -0.06400000303983688, 0.0, 1.040000081062317, 0.0, 0.0, 0.0, 0.0, 0.0, 1.6212685757300963E9, 2021-05-17 18:22:55.730
27.0, -95.13557434082031, -218.33349609375, 65.63150787353516, 299.7380065917969, -0.06400000303983688, 0.0, 1.040000081062317, 0.0, 0.0, 0.0, 0.0, 0.0, 1.62126857573072E9, 2021-05-17 18:22:55.730
27.0, -104.73590087890625, -231.8120880126953, 62.32543182373047, 291.1960754394531, -0.06400000303983688, 0.0, 1.040000081062317, 0.0, 0.0, 0.0, 0.0, 0.0, 1.62126857573072E9, 2021-05-17 18:22:55.730
28.0, -101.45226287841797, -236.65151977539062, 62.172096252441406, 288.0732727050781, -0.06400000303983688, 0.0, 1.040000081062317, 0.0, 0.0, 0.0, 0.0, 0.0, 1.6212685757443457E9, 2021-05-17 18:22:55.744
28.0, -96.6352767944336, -222.61941528320312, 62.97617721557617, 298.56744384765625, -0.06400000303983688, 0.0, 1.040000081062317, 0.0, 0.0, 0.0, 0.0, 0.0, 1.6212685757443457E9, 2021-05-17 18:22:55.744
29.0, -93.51993560791016, -224.33602905273438, 61.29322052001953, 298.9189758300781, -0.06400000303983688, 0.0, 1.040000081062317, 0.0, 0.0, 0.0, 0.0, 0.0, 1.6212685757601652E9, 2021-05-17 18:22:55.760
29.0, -88.11204528808594, -230.5779266357422, 67.43413543701172, 290.8707275390625, -0.06400000303983688, 0.0, 1.040000081062317, 0.0, 0.0, 0.0, 0.0, 0.0, 1.6212685757601652E9, 2021-05-17 18:22:55.760
30.0, -86.32063293457031, -230.37969970703125, 62.14591598510742, 290.2124938964844, -0.06400000303983688, 0.0, 1.040000081062317, 0.0, 0.0, 0.0, 0.0, 0.0, 1.6212685757607813E9, 2021-05-17 18:22:55.760
30.0, -80.99501037597656, -221.2057342529297, 61.786888122558594, 295.5268859863281, -0.06400000303983688, 0.0, 1.040000081062317, 0.0, 0.0, 0.0, 0.0, 0.0, 1.6212685757607813E9, 2021-05-17 18:22:55.760
31.0, -75.29540252685547, -219.8182373046875, 65.6875991821289, 298.10369873046875, -0.06400000303983688, 0.0, 1.040000081062317, 0.0, 0.0, 0.0, 0.0, 0.0, 1.621268575774496E9, 2021-05-17 18:22:55.774
31.0, -84.08416748046875, -228.85008239746094, 67.44161224365234, 289.8310241699219, -0.06400000303983688, 0.0, 1.040000081062317, 0.0, 0.0, 0.0, 0.0, 0.0, 1.621268575774496E9, 2021-05-17 18:22:55.774
32.0, -85.92794036865234, -228.34893798828125, 70.74394989013672, 293.4774169921875, -0.06400000303983688, 0.0, 1.040000081062317, 0.0, 0.0, 0.0, 0.0, 0.0, 1.621268575790181E9, 2021-05-17 18:22:55.790
32.0, -82.16934204101562, -225.024169921875, 63.656837463378906, 296.0018615722656, -0.06400000303983688, 0.0, 1.040000081062317, 0.0, 0.0, 0.0, 0.0, 0.0, 1.621268575790181E9, 2021-05-17 18:22:55.790
33.0, -86.24209594726562, -221.7554931640625, 68.40650939941406, 303.6013488769531, -0.06400000303983688, 0.0, 1.040000081062317, 0.0, 0.0, 0.0, 0.0, 0.0, 1.62126857579081E9, 2021-05-17 18:22:55.790
33.0, -95.26273345947266, -224.57537841796875, 72.1090087890625, 298.541259765625, -0.06400000303983688, 0.0, 1.040000081062317, 0.0, 0.0, 0.0, 0.0, 0.0, 1.62126857579081E9, 2021-05-17 18:22:55.790
34.0, -89.62670135498047, -221.78167724609375, 74.82791900634766, 297.27716064453125, -0.06400000303983688, 0.0, 1.040000081062317, 0.0, 0.0, 0.0, 0.0, 0.0, 1.6212685758045232E9, 2021-05-17 18:22:55.804
34.0, -84.00563049316406, -215.2667694091797, 74.9363784790039, 308.29864501953125, -0.06400000303983688, 0.0, 1.040000081062317, 0.0, 0.0, 0.0, 0.0, 0.0, 1.6212685758045232E9, 2021-05-17 18:22:55.804
35.0, -84.40206146240234, -207.99266052246094, 76.86616516113281, 313.3475036621094, -0.06400000303983688, 0.0, 1.040000081062317, 0.0, 0.0, 0.0, 0.0, 0.0, 1.621268575820164E9, 2021-05-17 18:22:55.820
35.0, -88.41497802734375, -213.65113830566406, 76.5220947265625, 305.93878173828125, -0.06400000303983688, 0.0, 1.040000081062317, 0.0, 0.0, 0.0, 0.0, 0.0, 1.621268575820164E9, 2021-05-17 18:22:55.820
36.0, -89.53694152832031, -220.46522521972656, 76.11070251464844, 303.2535400390625, -0.06400000303983688, 0.0, 1.040000081062317, 0.0, 0.0, 0.0, 0.0, 0.0, 1.6212685758207884E9, 2021-05-17 18:22:55.820
36.0, -83.74009704589844, -213.72967529296875, 67.748291015625, 308.7250061035156, -0.06400000303983688, 0.0, 1.040000081062317, 0.0, 0.0, 0.0, 0.0, 0.0, 1.6212685758207884E9, 2021-05-17 18:22:55.820
37.0, -76.2453384399414, -215.59588623046875, 67.47527313232422, 310.1947937011719, -0.06400000303983688, 0.0, 1.040000081062317, 0.0, 0.0, 0.0, 0.0, 0.0, 1.6212685758344429E9, 2021-05-17 18:22:55.834
37.0, -90.56167602539062, -226.95022583007812, 67.66974639892578, 301.21527099609375, -0.06400000303983688, 0.0, 1.040000081062317, 0.0, 0.0, 0.0, 0.0, 0.0, 1.6212685758344429E9, 2021-05-17 18:22:55.834
38.0, -85.62874603271484, -223.90220642089844, 72.86447143554688, 298.8778381347656, -0.06400000303983688, 0.0, 1.040000081062317, 0.0, 0.0, 0.0, 0.0, 0.0, 1.6212685758500772E9, 2021-05-17 18:22:55.850
38.0, -86.70584106445312, -220.4427947998047, 64.71522521972656, 307.5394592285156, -0.06400000303983688, 0.0, 1.040000081062317, 0.0, 0.0, 0.0, 0.0, 0.0, 1.6212685758500772E9, 2021-05-17 18:22:55.850
39.0, -92.40918731689453, -223.59178161621094, 63.43244171142578, 305.830322265625, -0.06400000303983688, 0.0, 1.040000081062317, 0.0, 0.0, 0.0, 0.0, 0.0, 1.6212685758507617E9, 2021-05-17 18:22:55.850
39.0, -92.0389404296875, -226.56500244140625, 68.58976745605469, 303.7546691894531, -0.06400000303983688, 0.0, 1.040000081062317, 0.0, 0.0, 0.0, 0.0, 0.0, 1.6212685758507617E9, 2021-05-17 18:22:55.850
40.0, -94.10710144042969, -230.41336059570312, 69.70051574707031, 294.5993957519531, -0.06400000303983688, 0.0, 1.040000081062317, 0.0, 0.0, 0.0, 0.0, 0.0, 1.6212685758644152E9, 2021-05-17 18:22:55.864
40.0, -87.39772033691406, -227.54859924316406, 64.77132415771484, 304.304443359375, -0.06400000303983688, 0.0, 1.040000081062317, 0.0, 0.0, 0.0, 0.0, 0.0, 1.6212685758644152E9, 2021-05-17 18:22:55.864
41.0, -83.07814025878906, -221.01126098632812, 67.75202941894531, 308.3023986816406, -0.06400000303983688, 0.01600000075995922, 1.040000081062317, 0.0, 0.0, 0.0, 0.0, 0.0, 1.621268575880086E9, 2021-05-17 18:22:55.880
41.0, -89.7688217163086, -231.12020874023438, 68.02130126953125, 298.717041015625, -0.06400000303983688, 0.01600000075995922, 1.040000081062317, 0.0, 0.0, 0.0, 0.0, 0.0, 1.621268575880086E9, 2021-05-17 18:22:55.880
42.0, -91.56771087646484, -232.46282958984375, 69.53595733642578, 298.6011047363281, -0.06400000303983688, 0.01600000075995922, 1.040000081062317, 0.0, 0.0, 0.0, 0.0, 0.0, 1.6212685758807263E9, 2021-05-17 18:22:55.880
42.0, -81.90380859375, -226.84176635742188, 66.15509033203125, 303.54522705078125, -0.06400000303983688, 0.01600000075995922, 1.040000081062317, 0.0, 0.0, 0.0, 0.0, 0.0, 1.6212685758807263E9, 2021-05-17 18:22:55.880
43.0, -79.02782440185547, -219.41806030273438, 72.39324188232422, 307.9246520996094, -0.06400000303983688, 0.01600000075995922, 1.040000081062317, 0.0, 0.0, 0.0, 0.0, 0.0, 1.621268575894395E9, 2021-05-17 18:22:55.894
43.0, -83.8709945678711, -224.4332733154297, 77.6066665649414, 301.2339782714844, -0.06400000303983688, 0.01600000075995922, 1.040000081062317, 0.0, 0.0, 0.0, 0.0, 0.0, 1.621268575894395E9, 2021-05-17 18:22:55.894
44.0, -81.28672790527344, -231.86070251464844, 80.07499694824219, 291.2185363769531, -0.06400000303983688, 0.01600000075995922, 1.040000081062317, 0.0, 0.0, 0.0, 0.0, 0.0, 1.6212685759097793E9, 2021-05-17 18:22:55.909
44.0, -72.48300170898438, -223.9770050048828, 81.2044448852539, 309.31591796875, -0.06400000303983688, 0.01600000075995922, 1.040000081062317, 0.0, 0.0, 0.0, 0.0, 0.0, 1.6212685759097793E9, 2021-05-17 18:22:55.909
45.0, -68.94131469726562, -216.13816833496094, 82.51341247558594, 314.6228332519531, -0.06400000303983688, 0.01600000075995922, 1.040000081062317, 0.0, 0.0, 0.0, 0.0, 0.0, 1.621268575925578E9, 2021-05-17 18:22:55.925
45.0, -75.72175598144531, -227.74681091308594, 80.75566101074219, 302.74114990234375, -0.06400000303983688, 0.01600000075995922, 1.040000081062317, 0.0, 0.0, 0.0, 0.0, 0.0, 1.621268575925578E9, 2021-05-17 18:22:55.925
46.0, -75.17198944091797, -228.1619415283203, 79.30458068847656, 297.7297058105469, -0.06400000303983688, 0.01600000075995922, 1.040000081062317, 0.0, 0.0, 0.0, 0.0, 0.0, 1.621268575940711E9, 2021-05-17 18:22:55.940
46.0, -74.81669616699219, -225.63377380371094, 73.67977142333984, 305.3665771484375, -0.06400000303983688, 0.01600000075995922, 1.040000081062317, 0.0, 0.0, 0.0, 0.0, 0.0, 1.621268575940711E9, 2021-05-17 18:22:55.940
47.0, -70.23158264160156, -219.36196899414062, 76.8624267578125, 313.811279296875, -0.06400000303983688, 0.01600000075995922, 1.040000081062317, 0.0, 0.0, 0.0, 0.0, 0.0, 1.6212685759413865E9, 2021-05-17 18:22:55.941
47.0, -83.05569458007812, -224.79603576660156, 78.74359130859375, 304.6933898925781, -0.06400000303983688, 0.01600000075995922, 1.040000081062317, 0.0, 0.0, 0.0, 0.0, 0.0, 1.6212685759413865E9, 2021-05-17 18:22:55.941
48.0, -91.2760009765625, -233.86903381347656, 77.61040496826172, 299.3939514160156, -0.06400000303983688, 0.01600000075995922, 1.040000081062317, 0.0, 0.0, 0.0, 0.0, 0.0, 1.6212685759421356E9, 2021-05-17 18:22:55.942
48.0, -89.8136978149414, -234.28790283203125, 66.46549987792969, 302.1988830566406, -0.06400000303983688, 0.01600000075995922, 1.040000081062317, 0.0, 0.0, 0.0, 0.0, 0.0, 1.6212685759421356E9, 2021-05-17 18:22:55.942
49.0, -87.83902740478516, -227.8627471923828, 71.64152526855469, 305.65081787109375, -0.06400000303983688, 0.01600000075995922, 1.040000081062317, 0.0, 0.0, 0.0, 0.0, 0.0, 1.621268575954352E9, 2021-05-17 18:22:55.954
49.0, -94.13328552246094, -233.498779296875, 69.85758972167969, 296.3721008300781, -0.06400000303983688, 0.01600000075995922, 1.040000081062317, 0.0, 0.0, 0.0, 0.0, 0.0, 1.621268575954352E9, 2021-05-17 18:22:55.954
50.0, -93.61717224121094, -244.76336669921875, 68.9562759399414, 293.4774169921875, -0.06400000303983688, 0.01600000075995922, 1.040000081062317, 0.0, 0.0, 0.0, 0.0, 0.0, 1.621268575970086E9, 2021-05-17 18:22:55.970
50.0, -88.08212280273438, -234.96109008789062, 57.714134216308594, 299.8689270019531, -0.06400000303983688, 0.01600000075995922, 1.040000081062317, 0.0, 0.0, 0.0, 0.0, 0.0, 1.621268575970086E9, 2021-05-17 18:22:55.970
51.0, -87.70439147949219, -233.72691345214844, 62.456329345703125, 300.79266357421875, -0.06400000303983688, 0.01600000075995922, 1.040000081062317, 0.0, 0.0, 0.0, 0.0, 0.0, 1.6212685759707236E9, 2021-05-17 18:22:55.970
51.0, -93.89392852783203, -242.89715576171875, 60.27970886230469, 288.7801208496094, -0.06400000303983688, 0.01600000075995922, 1.040000081062317, 0.0, 0.0, 0.0, 0.0, 0.0, 1.6212685759707236E9, 2021-05-17 18:22:55.970
52.0, -103.67002868652344, -243.56285095214844, 63.653099060058594, 289.71136474609375, -0.06400000303983688, 0.01600000075995922, 1.040000081062317, 0.0, 0.0, 0.0, 0.0, 0.0, 1.621268575984324E9, 2021-05-17 18:22:55.984
52.0, -93.63213348388672, -231.808349609375, 63.997169494628906, 299.2331237792969, -0.06400000303983688, 0.01600000075995922, 1.040000081062317, 0.0, 0.0, 0.0, 0.0, 0.0, 1.621268575984324E9, 2021-05-17 18:22:55.984
53.0, -86.00647735595703, -230.106689453125, 66.60013580322266, 298.52630615234375, -0.06400000303983688, 0.01600000075995922, 1.040000081062317, 0.0, 0.0, 0.0, 0.0, 0.0, 1.6212685760000858E9, 2021-05-17 18:22:56.000
53.0, -82.61438751220703, -233.30804443359375, 73.16740417480469, 297.4566955566406, -0.06400000303983688, 0.01600000075995922, 1.040000081062317, 0.0, 0.0, 0.0, 0.0, 0.0, 1.6212685760000858E9, 2021-05-17 18:22:56.000
54.0, -90.43826293945312, -233.1958465576172, 72.94674682617188, 294.0945129394531, -0.06400000303983688, 0.01600000075995922, 1.040000081062317, 0.0, 0.0, 0.0, 0.0, 0.0, 1.6212685760008543E9, 2021-05-17 18:22:56.000
54.0, -80.57240295410156, -224.25001525878906, 72.79341125488281, 304.7158203125, -0.06400000303983688, 0.01600000075995922, 1.040000081062317, 0.0, 0.0, 0.0, 0.0, 0.0, 1.6212685760008543E9, 2021-05-17 18:22:56.000
55.0, -85.78582763671875, -219.32081604003906, 73.66854858398438, 305.2132263183594, -0.06400000303983688, 0.01600000075995922, 1.040000081062317, 0.0, 0.0, 0.0, 0.0, 0.0, 1.6212685760143535E9, 2021-05-17 18:22:56.014
55.0, -82.80886840820312, -227.34291076660156, 78.33594512939453, 294.1917419433594, -0.06400000303983688, 0.01600000075995922, 1.040000081062317, 0.0, 0.0, 0.0, 0.0, 0.0, 1.6212685760143535E9, 2021-05-17 18:22:56.014
56.0, -89.89971160888672, -234.36643981933594, 72.4680404663086, 294.21044921875, -0.06400000303983688, 0.01600000075995922, 1.040000081062317, 0.0, 0.0, 0.0, 0.0, 0.0, 1.6212685760303948E9, 2021-05-17 18:22:56.030
56.0, -80.22459411621094, -223.9770050048828, 77.35983276367188, 305.43389892578125, -0.06400000303983688, 0.01600000075995922, 1.040000081062317, 0.0, 0.0, 0.0, 0.0, 0.0, 1.6212685760303948E9, 2021-05-17 18:22:56.030
57.0, -73.66107177734375, -215.15457153320312, 77.89837646484375, 316.41424560546875, -0.06400000303983688, 0.01600000075995922, 1.040000081062317, 0.0, 0.0, 0.0, 0.0, 0.0, 1.6212685760451767E9, 2021-05-17 18:22:56.045
57.0, -90.43077850341797, -227.00257873535156, 74.91767883300781, 302.44195556640625, -0.06400000303983688, 0.01600000075995922, 1.040000081062317, 0.0, 0.0, 0.0, 0.0, 0.0, 1.6212685760451767E9, 2021-05-17 18:22:56.045
58.0, -87.61837768554688, -228.8388671875, 73.93034362792969, 299.75299072265625, -0.06400000303983688, 0.01600000075995922, 1.040000081062317, 0.0, 0.0, 0.0, 0.0, 0.0, 1.6212685760457735E9, 2021-05-17 18:22:56.045
58.0, -87.30796813964844, -229.07821655273438, 70.9047622680664, 310.3368835449219, -0.06400000303983688, 0.01600000075995922, 1.040000081062317, 0.0, 0.0, 0.0, 0.0, 0.0, 1.6212685760457735E9, 2021-05-17 18:22:56.045
59.0, -83.4296875, -231.1837921142578, 72.81959533691406, 308.96435546875, -0.06400000303983688, 0.01600000075995922, 1.040000081062317, 0.0, 0.0, 0.0, 0.0, 0.0, 1.6212685760600393E9, 2021-05-17 18:22:56.060
59.0, -93.2057876586914, -235.1144256591797, 74.56986236572266, 291.4915466308594, -0.06400000303983688, 0.01600000075995922, 1.040000081062317, 0.0, 0.0, 0.0, 0.0, 0.0, 1.6212685760600393E9, 2021-05-17 18:22:56.060
60.0, -99.20458984375, -240.45126342773438, 71.86592102050781, 290.16387939453125, -0.06400000303983688, 0.01600000075995922, 1.055999994277954, 0.0, 0.0, 0.0, 0.0, 0.0, 1.6212685760607831E9, 2021-05-17 18:22:56.060
60.0, -87.21446990966797, -233.5885467529297, 66.49168395996094, 297.80450439453125, -0.06400000303983688, 0.01600000075995922, 1.055999994277954, 0.0, 0.0, 0.0, 0.0, 0.0, 1.6212685760607831E9, 2021-05-17 18:22:56.060
61.0, -90.51679992675781, -229.11187744140625, 70.20539855957031, 298.17474365234375, -0.06400000303983688, 0.0, 1.055999994277954, 0.0, 0.0, 0.0, 0.0, 0.0, 1.6212685760744069E9, 2021-05-17 18:22:56.074
61.0, -95.36744689941406, -229.87107849121094, 77.86471557617188, 289.44207763671875, -0.06400000303983688, 0.0, 1.055999994277954, 0.0, 0.0, 0.0, 0.0, 0.0, 1.6212685760744069E9, 2021-05-17 18:22:56.074
62.0, -98.4827880859375, -238.32325744628906, 74.95881652832031, 284.468017578125, -0.06400000303983688, 0.0, 1.055999994277954, 0.0, 0.0, 0.0, 0.0, 0.0, 1.6212685760900035E9, 2021-05-17 18:22:56.090
62.0, -92.49146270751953, -228.28536987304688, 71.91079711914062, 293.4549865722656, -0.06400000303983688, 0.0, 1.055999994277954, 0.0, 0.0, 0.0, 0.0, 0.0, 1.6212685760900035E9, 2021-05-17 18:22:56.090
63.0, -84.58905792236328, -220.6073455810547, 77.65528106689453, 300.6355895996094, -0.06400000303983688, 0.0, 1.055999994277954, 0.0, 0.0, 0.0, 0.0, 0.0, 1.6212685760908341E9, 2021-05-17 18:22:56.090
63.0, -93.65831756591797, -231.9878692626953, 73.73587036132812, 291.9739990234375, -0.06400000303983688, 0.0, 1.055999994277954, 0.0, 0.0, 0.0, 0.0, 0.0, 1.6212685760908341E9, 2021-05-17 18:22:56.090
64.0, -94.64190673828125, -234.03732299804688, 74.66709899902344, 290.5640563964844, -0.06400000303983688, 0.0, 1.055999994277954, 0.0, 0.0, 0.0, 0.0, 0.0, 1.6212685761043625E9, 2021-05-17 18:22:56.104
64.0, -90.09419250488281, -229.94961547851562, 73.68350982666016, 298.0213928222656, -0.06400000303983688, 0.0, 1.055999994277954, 0.0, 0.0, 0.0, 0.0, 0.0, 1.6212685761043625E9, 2021-05-17 18:22:56.104
65.0, -83.86351776123047, -222.4511260986328, 77.15787506103516, 300.3551025390625, -0.06400000303983688, 0.0, 1.055999994277954, 0.0, 0.0, 0.0, 0.0, 0.0, 1.6212685761199768E9, 2021-05-17 18:22:56.119
65.0, -85.95037841796875, -226.725830078125, 78.85205078125, 293.0697937011719, -0.06400000303983688, 0.0, 1.055999994277954, 0.0, 0.0, 0.0, 0.0, 0.0, 1.6212685761199768E9, 2021-05-17 18:22:56.119
66.0, -87.02373504638672, -224.75115966796875, 86.43283081054688, 290.2723388671875, -0.06400000303983688, 0.0, 1.055999994277954, 0.0, 0.0, 0.0, 0.0, 0.0, 1.6212685761207E9, 2021-05-17 18:22:56.120
66.0, -83.30252838134766, -216.5084228515625, 76.02094268798828, 300.47479248046875, -0.06400000303983688, 0.0, 1.055999994277954, 0.0, 0.0, 0.0, 0.0, 0.0, 1.6212685761207E9, 2021-05-17 18:22:56.120
67.0, -79.82442474365234, -217.80616760253906, 80.2732162475586, 309.9928283691406, -0.06400000303983688, 0.0, 1.055999994277954, 0.0, 0.0, 0.0, 0.0, 0.0, 1.6212685761507375E9, 2021-05-17 18:22:56.150
67.0, -90.37467956542969, -226.12744140625, 82.52088928222656, 299.52484130859375, -0.06400000303983688, 0.0, 1.055999994277954, 0.0, 0.0, 0.0, 0.0, 0.0, 1.6212685761507375E9, 2021-05-17 18:22:56.150
68.0, -89.63418579101562, -225.11766052246094, 85.32207489013672, 301.4696044921875, -0.06400000303983688, 0.0, 1.055999994277954, 0.0, 0.0, 0.0, 0.0, 0.0, 1.6212685761514382E9, 2021-05-17 18:22:56.151
68.0, -84.30856323242188, -219.5452117919922, 76.29769897460938, 309.0391540527344, -0.06400000303983688, 0.0, 1.055999994277954, 0.0, 0.0, 0.0, 0.0, 0.0, 1.6212685761514382E9, 2021-05-17 18:22:56.151
69.0, -78.39578247070312, -215.3939208984375, 81.52607727050781, 312.9211730957031, -0.06400000303983688, 0.0, 1.055999994277954, 0.0, 0.0, 0.0, 0.0, 0.0, 1.6212685761521788E9, 2021-05-17 18:22:56.152
69.0, -93.87149047851562, -225.4430389404297, 75.87509155273438, 302.3260192871094, -0.06400000303983688, 0.0, 1.055999994277954, 0.0, 0.0, 0.0, 0.0, 0.0, 1.6212685761521788E9, 2021-05-17 18:22:56.152
70.0, -89.54442596435547, -230.88833618164062, 74.52872467041016, 300.1195068359375, -0.06400000303983688, 0.0, 1.055999994277954, 0.0, 0.0, 0.0, 0.0, 0.0, 1.6212685761643832E9, 2021-05-17 18:22:56.164
70.0, -84.7723159790039, -223.0382843017578, 70.28394317626953, 301.065673828125, -0.06400000303983688, 0.0, 1.055999994277954, 0.0, 0.0, 0.0, 0.0, 0.0, 1.6212685761643832E9, 2021-05-17 18:22:56.164
71.0, -79.46165466308594, -216.22418212890625, 73.82188415527344, 306.7166748046875, -0.06400000303983688, 0.0, 1.055999994277954, 0.0, 0.0, 0.0, 0.0, 0.0, 1.6212685761801295E9, 2021-05-17 18:22:56.180
71.0, -94.4923095703125, -228.56585693359375, 75.75167083740234, 295.3772888183594, -0.06400000303983688, 0.0, 1.055999994277954, 0.0, 0.0, 0.0, 0.0, 0.0, 1.6212685761801295E9, 2021-05-17 18:22:56.180
72.0, -97.42439270019531, -229.15675354003906, 79.27091979980469, 290.51544189453125, -0.06400000303983688, 0.0, 1.055999994277954, 0.0, 0.0, 0.0, 0.0, 0.0, 1.6212685761807995E9, 2021-05-17 18:22:56.180
72.0, -81.33534240722656, -223.416015625, 77.53186798095703, 297.88677978515625, -0.06400000303983688, 0.0, 1.055999994277954, 0.0, 0.0, 0.0, 0.0, 0.0, 1.6212685761807995E9, 2021-05-17 18:22:56.180
73.0, -83.88595581054688, -220.07627868652344, 71.45452880859375, 299.20697021484375, -0.06400000303983688, 0.0, 1.055999994277954, 0.0, 0.0, 0.0, 0.0, 0.0, 1.6212685762106786E9, 2021-05-17 18:22:56.210
73.0, -95.16923522949219, -228.32650756835938, 72.16136932373047, 288.46221923828125, -0.06400000303983688, 0.0, 1.055999994277954, 0.0, 0.0, 0.0, 0.0, 0.0, 1.6212685762106786E9, 2021-05-17 18:22:56.210
74.0, -92.50642395019531, -232.3169708251953, 65.87833404541016, 289.198974609375, -0.06400000303983688, 0.0, 1.055999994277954, 0.0, 0.0, 0.0, 0.0, 0.0, 1.6212685762114005E9, 2021-05-17 18:22:56.211
74.0, -88.91238403320312, -224.95310974121094, 70.57565307617188, 298.11865234375, -0.06400000303983688, 0.0, 1.055999994277954, 0.0, 0.0, 0.0, 0.0, 0.0, 1.6212685762114005E9, 2021-05-17 18:22:56.211
75.0, -85.68484497070312, -228.42373657226562, 73.04024505615234, 305.5348815917969, -0.06400000303983688, 0.0, 1.055999994277954, 0.0, 0.0, 0.0, 0.0, 0.0, 1.6212685762121472E9, 2021-05-17 18:22:56.212
75.0, -86.14111328125, -231.3483428955078, 76.09200286865234, 300.3177185058594, -0.06400000303983688, 0.0, 1.055999994277954, 0.0, 0.0, 0.0, 0.0, 0.0, 1.6212685762121472E9, 2021-05-17 18:22:56.212
76.0, -93.15716552734375, -230.09921264648438, 80.0600357055664, 298.8329772949219, -0.06400000303983688, 0.0, 1.055999994277954, 0.0, 0.0, 0.0, 0.0, 0.0, 1.6212685762243469E9, 2021-05-17 18:22:56.224
76.0, -83.25765228271484, -222.96722412109375, 74.11359405517578, 306.335205078125, -0.06400000303983688, 0.0, 1.055999994277954, 0.0, 0.0, 0.0, 0.0, 0.0, 1.6212685762243469E9, 2021-05-17 18:22:56.224
77.0, -77.19901275634766, -213.1125946044922, 74.92889404296875, 310.9352722167969, -0.06400000303983688, 0.0, 1.055999994277954, 0.0, 0.0, 0.0, 0.0, 0.0, 1.6212685762401044E9, 2021-05-17 18:22:56.240
77.0, -80.42655181884766, -221.5909423828125, 76.42111206054688, 303.952880859375, -0.06400000303983688, 0.0, 1.055999994277954, 0.0, 0.0, 0.0, 0.0, 0.0, 1.6212685762401044E9, 2021-05-17 18:22:56.240
78.0, -77.21397399902344, -224.8109893798828, 72.5091781616211, 299.2593078613281, -0.06400000303983688, 0.0, 1.055999994277954, 0.0, 0.0, 0.0, 0.0, 0.0, 1.6212685762407699E9, 2021-05-17 18:22:56.240
78.0, -82.71910858154297, -221.57972717285156, 67.82308197021484, 304.6111145019531, -0.06400000303983688, 0.0, 1.055999994277954, 0.0, 0.0, 0.0, 0.0, 0.0, 1.6212685762407699E9, 2021-05-17 18:22:56.240
79.0, -80.87907409667969, -215.7828826904297, 68.01007843017578, 310.2097473144531, -0.06400000303983688, 0.0, 1.055999994277954, 0.0, 0.0, 0.0, 0.0, 0.0, 1.6212685762704575E9, 2021-05-17 18:22:56.270
79.0, -93.43392181396484, -229.70278930664062, 71.07679748535156, 301.1404724121094, -0.06400000303983688, 0.0, 1.055999994277954, 0.0, 0.0, 0.0, 0.0, 0.0, 1.6212685762704575E9, 2021-05-17 18:22:56.270
80.0, -93.66205596923828, -229.75514221191406, 69.93612670898438, 295.17535400390625, -0.06400000303983688, 0.0, 1.055999994277954, 0.0, 0.0, 0.0, 0.0, 0.0, 1.6212685762711425E9, 2021-05-17 18:22:56.271
80.0, -86.40290832519531, -225.90304565429688, 64.1991195678711, 304.4465637207031, -0.06400000303983688, 0.0, 1.055999994277954, 0.0, 0.0, 0.0, 0.0, 0.0, 1.6212685762711425E9, 2021-05-17 18:22:56.271
81.0, -86.23834991455078, -219.66114807128906, 65.38841247558594, 305.7256164550781, -0.06400000303983688, 0.0, 1.055999994277954, 0.0, 0.0, 0.0, 0.0, 0.0, 1.6212685762850084E9, 2021-05-17 18:22:56.285
81.0, -90.58786010742188, -224.8109893798828, 73.50399017333984, 294.2441101074219, -0.06400000303983688, 0.0, 1.055999994277954, 0.0, 0.0, 0.0, 0.0, 0.0, 1.6212685762850084E9, 2021-05-17 18:22:56.285
82.0, -93.95002746582031, -224.48562622070312, 75.14581298828125, 290.1564025878906, -0.06400000303983688, 0.0, 1.055999994277954, 0.0, 0.0, 0.0, 0.0, 0.0, 1.6212685762857206E9, 2021-05-17 18:22:56.285
82.0, -88.2840805053711, -223.8423614501953, 69.11334991455078, 297.76336669921875, -0.06400000303983688, 0.0, 1.055999994277954, 0.0, 0.0, 0.0, 0.0, 0.0, 1.6212685762857206E9, 2021-05-17 18:22:56.285
83.0, -84.6376724243164, -222.38754272460938, 76.39493560791016, 305.314208984375, -0.06400000303983688, 0.0, 1.055999994277954, 0.0, 0.0, 0.0, 0.0, 0.0, 1.6212685763163724E9, 2021-05-17 18:22:56.316
83.0, -84.30108642578125, -227.2344512939453, 79.65238952636719, 297.68109130859375, -0.06400000303983688, 0.0, 1.055999994277954, 0.0, 0.0, 0.0, 0.0, 0.0, 1.6212685763163724E9, 2021-05-17 18:22:56.316
84.0, -92.70838165283203, -228.580810546875, 72.31096649169922, 297.015380859375, -0.06400000303983688, 0.0, 1.055999994277954, 0.0, 0.0, 0.0, 0.0, 0.0, 1.6212685763170724E9, 2021-05-17 18:22:56.317
84.0, -89.58556365966797, -226.73704528808594, 64.7376708984375, 300.2653503417969, -0.06400000303983688, 0.0, 1.055999994277954, 0.0, 0.0, 0.0, 0.0, 0.0, 1.6212685763170724E9, 2021-05-17 18:22:56.317
85.0, -77.68146514892578, -223.00836181640625, 71.52184295654297, 303.107666015625, -0.06400000303983688, 0.0, 1.055999994277954, 0.0, 0.0, 0.0, 0.0, 0.0, 1.6212685763179045E9, 2021-05-17 18:22:56.317
85.0, -86.6796646118164, -234.2654571533203, 71.97811126708984, 293.8215026855469, -0.06400000303983688, 0.0, 1.055999994277954, 0.0, 0.0, 0.0, 0.0, 0.0, 1.6212685763179045E9, 2021-05-17 18:22:56.317
86.0, -89.42100524902344, -229.29513549804688, 77.55804443359375, 290.04046630859375, -0.06400000303983688, 0.0, 1.055999994277954, 0.0, 0.0, 0.0, 0.0, 0.0, 1.6212685763185396E9, 2021-05-17 18:22:56.318
86.0, -84.48808288574219, -219.21237182617188, 80.77062225341797, 302.54669189453125, -0.06400000303983688, 0.0, 1.055999994277954, 0.0, 0.0, 0.0, 0.0, 0.0, 1.6212685763185396E9, 2021-05-17 18:22:56.318
87.0, -76.47721099853516, -211.81484985351562, 77.27754974365234, 305.79290771484375, -0.06400000303983688, 0.0, 1.055999994277954, 0.0, 0.0, 0.0, 0.0, 0.0, 1.621268576329444E9, 2021-05-17 18:22:56.329
87.0, -83.22025299072266, -215.7828826904297, 73.89668273925781, 294.2403564453125, -0.06400000303983688, 0.0, 1.055999994277954, 0.0, 0.0, 0.0, 0.0, 0.0, 1.621268576329444E9, 2021-05-17 18:22:56.329
88.0, -89.10685729980469, -218.64016723632812, 70.59061431884766, 290.08160400390625, -0.06400000303983688, 0.0, 1.055999994277954, 0.0, 0.0, 0.0, 0.0, 0.0, 1.6212685763442724E9, 2021-05-17 18:22:56.344
88.0, -83.01455688476562, -209.94863891601562, 75.23182678222656, 304.11370849609375, -0.06400000303983688, 0.0, 1.055999994277954, 0.0, 0.0, 0.0, 0.0, 0.0, 1.6212685763442724E9, 2021-05-17 18:22:56.344
89.0, -77.2850341796875, -206.17507934570312, 75.02613067626953, 307.4833679199219, -0.06400000303983688, 0.0, 1.055999994277954, 0.0, 0.0, 0.0, 0.0, 0.0, 1.6212685763602788E9, 2021-05-17 18:22:56.360
89.0, -91.3769760131836, -215.00497436523438, 81.11469268798828, 303.0328674316406, -0.06400000303983688, 0.0, 1.055999994277954, 0.0, 0.0, 0.0, 0.0, 0.0, 1.6212685763602788E9, 2021-05-17 18:22:56.360
90.0, -89.21905517578125, -218.1951141357422, 78.78472900390625, 291.9665222167969, -0.06400000303983688, 0.0, 1.055999994277954, 0.0, 0.0, 0.0, 0.0, 0.0, 1.621268576360784E9, 2021-05-17 18:22:56.360
90.0, -86.62730407714844, -217.41722106933594, 74.08367919921875, 304.5924072265625, -0.06400000303983688, 0.0, 1.055999994277954, 0.0, 0.0, 0.0, 0.0, 0.0, 1.621268576360784E9, 2021-05-17 18:22:56.360
91.0, -87.5248794555664, -211.76248168945312, 71.01696014404297, 304.5625, -0.06400000303983688, 0.0, 1.055999994277954, 0.0, 0.0, 0.0, 0.0, 0.0, 1.6212685763743644E9, 2021-05-17 18:22:56.374
91.0, -100.22931671142578, -220.5437774658203, 70.09320831298828, 291.36065673828125, -0.06400000303983688, 0.0, 1.055999994277954, 0.0, 0.0, 0.0, 0.0, 0.0, 1.6212685763743644E9, 2021-05-17 18:22:56.374
92.0, -92.502685546875, -226.95770263671875, 70.66541290283203, 289.8048400878906, -0.06400000303983688, 0.0, 1.055999994277954, 0.0, 0.0, 0.0, 0.0, 0.0, 1.6212685763900335E9, 2021-05-17 18:22:56.390
92.0, -83.90839385986328, -217.00209045410156, 71.2862319946289, 293.3128662109375, -0.06400000303983688, 0.0, 1.055999994277954, 0.0, 0.0, 0.0, 0.0, 0.0, 1.6212685763900335E9, 2021-05-17 18:22:56.390
93.0, -85.49785614013672, -215.07229614257812, 70.72151184082031, 297.7446594238281, -0.06400000303983688, 0.0, 1.055999994277954, 0.0, 0.0, 0.0, 0.0, 0.0, 1.621268576390744E9, 2021-05-17 18:22:56.390
93.0, -90.14280700683594, -223.89471435546875, 69.15448760986328, 284.8045959472656, -0.06400000303983688, 0.0, 1.055999994277954, 0.0, 0.0, 0.0, 0.0, 0.0, 1.621268576390744E9, 2021-05-17 18:22:56.390
94.0, -92.10999298095703, -225.33084106445312, 69.73417663574219, 284.4605407714844, -0.06400000303983688, 0.0, 1.055999994277954, 0.0, 0.0, 0.0, 0.0, 0.0, 1.621268576404326E9, 2021-05-17 18:22:56.404
