Sample Index, EXG Channel 0, EXG Channel 1, EXG Channel 2, EXG Channel 3, Accel Channel 0, Accel Channel 1, Accel Channel 2, Other, Other, Other, Other, Other, Timestamp, Timestamp (Formatted)
0.0, -68.0194320678711, -297.6436767578125, 51.88176345825195, 340.4580383300781, 0.0, 0.0, 0.0, 0.0, 0.0, 0.0, 0.0, 0.0, 1.6212700123904948E9, 2021-05-17 18:46:52.390
1.0, -74.70262908935547, -304.0127258300781, 72.67560577392578, 330.1695861816406, 0.0, 0.01600000075995922, 0.0, 0.0, 0.0, 0.0, 0.0, 0.0, 1.6212700124041188E9, 2021-05-17 18:46:52.404
1.0, -87.62024688720703, -315.2623596191406, 72.50730895996094, 319.1593322753906, 0.0, 0.01600000075995922, 0.0, 0.0, 0.0, 0.0, 0.0, 0.0, 1.6212700124041188E9, 2021-05-17 18:46:52.404
2.0, -80.1479263305664, -302.109130859375, 59.410179138183594, 333.72998046875, -0.06400000303983688, 0.01600000075995922, 0.0, 0.0, 0.0, 0.0, 0.0, 0.0, 1.6212700124206908E9, 2021-05-17 18:46:52.420
2.0, -67.97454833984375, -293.7279968261719, 73.3188705444336, 344.493408203125, -0.06400000303983688, 0.01600000075995922, 0.0, 0.0, 0.0, 0.0, 0.0, 0.0, 1.6212700124206908E9, 2021-05-17 18:46:52.420
3.0, -75.49549102783203, -301.4209899902344, 79.14189147949219, 332.79498291015625, -0.06400000303983688, 0.01600000075995922, 0.0, 0.0, 0.0, 0.0, 0.0, 0.0, 1.6212700124214213E9, 2021-05-17 18:46:52.421
3.0, -81.96925354003906, -306.26788330078125, 76.59502410888672, 321.2835998535156, -0.06400000303983688, 0.01600000075995922, 0.0, 0.0, 0.0, 0.0, 0.0, 0.0, 1.6212700124214213E9, 2021-05-17 18:46:52.421
4.0, -82.18617248535156, -293.9037780761719, 64.85173797607422, 334.33209228515625, -0.06400000303983688, 0.01600000075995922, 0.0, 0.0, 0.0, 0.0, 0.0, 0.0, 1.6212700124339032E9, 2021-05-17 18:46:52.433
4.0, -64.56002044677734, -282.0483093261719, 68.7225341796875, 344.6280517578125, -0.06400000303983688, 0.01600000075995922, 0.0, 0.0, 0.0, 0.0, 0.0, 0.0, 1.6212700124339032E9, 2021-05-17 18:46:52.433
5.0, -71.62843322753906, -289.8273010253906, 77.34300231933594, 334.24609375, -0.06400000303983688, 0.01600000075995922, 0.0, 0.0, 0.0, 0.0, 0.0, 0.0, 1.621270012450208E9, 2021-05-17 18:46:52.450
5.0, -72.84390258789062, -305.11224365234375, 78.66692352294922, 331.4075012207031, -0.06400000303983688, 0.01600000075995922, 0.0, 0.0, 0.0, 0.0, 0.0, 0.0, 1.621270012450208E9, 2021-05-17 18:46:52.450
6.0, -68.84968566894531, -295.68023681640625, 65.46134185791016, 339.75494384765625, -0.06400000303983688, 0.01600000075995922, 0.0, 0.0, 0.0, 0.0, 0.0, 0.0, 1.6212700124508667E9, 2021-05-17 18:46:52.450
6.0, -59.713111877441406, -289.3373718261719, 64.7918930053711, 350.5632629394531, -0.06400000303983688, 0.01600000075995922, 0.0, 0.0, 0.0, 0.0, 0.0, 0.0, 1.6212700124508667E9, 2021-05-17 18:46:52.450
7.0, -57.58884811401367, -299.880126953125, 75.74232482910156, 334.33209228515625, -0.06400000303983688, 0.01600000075995922, 0.0, 0.0, 0.0, 0.0, 0.0, 0.0, 1.6212700124637623E9, 2021-05-17 18:46:52.463
7.0, -69.17131805419922, -308.4669494628906, 75.37955474853516, 326.841064453125, -0.06400000303983688, 0.01600000075995922, 0.0, 0.0, 0.0, 0.0, 0.0, 0.0, 1.6212700124637623E9, 2021-05-17 18:46:52.463
8.0, -66.54216766357422, -298.66839599609375, 59.95246505737305, 341.2696228027344, -0.06400000303983688, 0.01600000075995922, 0.0, 0.0, 0.0, 0.0, 0.0, 0.0, 1.6212700124794264E9, 2021-05-17 18:46:52.479
8.0, -60.89866256713867, -292.56488037109375, 65.68199157714844, 347.08514404296875, -0.06400000303983688, 0.01600000075995922, 0.0, 0.0, 0.0, 0.0, 0.0, 0.0, 1.6212700124794264E9, 2021-05-17 18:46:52.479
9.0, -69.82205963134766, -302.3671569824219, 74.79986572265625, 335.8654479980469, -0.06400000303983688, 0.01600000075995922, 0.0, 0.0, 0.0, 0.0, 0.0, 0.0, 1.621270012480149E9, 2021-05-17 18:46:52.480
9.0, -73.34504699707031, -309.3271179199219, 68.61033630371094, 320.6739807128906, -0.06400000303983688, 0.01600000075995922, 0.0, 0.0, 0.0, 0.0, 0.0, 0.0, 1.621270012480149E9, 2021-05-17 18:46:52.480
10.0, -78.20317840576172, -296.3421936035156, 55.33369064331055, 336.92010498046875, -0.06400000303983688, 0.01600000075995922, 1.055999994277954, 0.0, 0.0, 0.0, 0.0, 0.0, 1.6212700124939127E9, 2021-05-17 18:46:52.493
10.0, -66.35143280029297, -287.4486999511719, 62.136566162109375, 348.4913635253906, -0.06400000303983688, 0.01600000075995922, 1.055999994277954, 0.0, 0.0, 0.0, 0.0, 0.0, 1.6212700124939127E9, 2021-05-17 18:46:52.493
11.0, -70.41670989990234, -300.4448547363281, 67.01713562011719, 334.6948547363281, -0.06400000303983688, 0.01600000075995922, 1.055999994277954, 0.0, 0.0, 0.0, 0.0, 0.0, 1.621270012509425E9, 2021-05-17 18:46:52.509
11.0, -81.93933868408203, -301.9258728027344, 70.96646881103516, 326.3960266113281, -0.06400000303983688, 0.01600000075995922, 1.055999994277954, 0.0, 0.0, 0.0, 0.0, 0.0, 1.621270012509425E9, 2021-05-17 18:46:52.509
12.0, -77.79178619384766, -294.2403564453125, 57.63372802734375, 336.2731018066406, -0.06400000303983688, 0.01600000075995922, 1.055999994277954, 0.0, 0.0, 0.0, 0.0, 0.0, 1.6212700125101435E9, 2021-05-17 18:46:52.510
12.0, -70.3942642211914, -284.17254638671875, 58.74448013305664, 344.4036560058594, -0.06400000303983688, 0.01600000075995922, 1.055999994277954, 0.0, 0.0, 0.0, 0.0, 0.0, 1.6212700125101435E9, 2021-05-17 18:46:52.510
13.0, -82.32080841064453, -298.541259765625, 73.92473602294922, 335.8355407714844, -0.06400000303983688, 0.01600000075995922, 1.055999994277954, 0.0, 0.0, 0.0, 0.0, 0.0, 1.6212700125238166E9, 2021-05-17 18:46:52.523
13.0, -83.98506164550781, -309.6861572265625, 70.32695007324219, 326.19781494140625, -0.06400000303983688, 0.01600000075995922, 1.055999994277954, 0.0, 0.0, 0.0, 0.0, 0.0, 1.6212700125238166E9, 2021-05-17 18:46:52.523
14.0, -76.34819030761719, -290.0068054199219, 62.611534118652344, 342.69451904296875, -0.06400000303983688, 0.01600000075995922, 1.055999994277954, 0.0, 0.0, 0.0, 0.0, 0.0, 1.6212700125395312E9, 2021-05-17 18:46:52.539
14.0, -75.81712341308594, -278.529052734375, 64.66474151611328, 354.2283630371094, -0.06400000303983688, 0.01600000075995922, 1.055999994277954, 0.0, 0.0, 0.0, 0.0, 0.0, 1.6212700125395312E9, 2021-05-17 18:46:52.539
15.0, -72.20063781738281, -283.0879821777344, 79.57572174072266, 344.0595703125, -0.06400000303983688, 0.01600000075995922, 1.055999994277954, 0.0, 0.0, 0.0, 0.0, 0.0, 1.621270012540162E9, 2021-05-17 18:46:52.540
15.0, -87.57910919189453, -296.36090087890625, 74.45954132080078, 335.7944030761719, -0.06400000303983688, 0.01600000075995922, 1.055999994277954, 0.0, 0.0, 0.0, 0.0, 0.0, 1.621270012540162E9, 2021-05-17 18:46:52.540
16.0, -78.56968688964844, -277.86334228515625, 70.32695007324219, 342.87030029296875, -0.06400000303983688, 0.01600000075995922, 1.055999994277954, 0.0, 0.0, 0.0, 0.0, 0.0, 1.6212700125538037E9, 2021-05-17 18:46:52.553
16.0, -77.0550308227539, -270.7164001464844, 68.5243148803711, 353.9142150878906, -0.06400000303983688, 0.01600000075995922, 1.055999994277954, 0.0, 0.0, 0.0, 0.0, 0.0, 1.6212700125538037E9, 2021-05-17 18:46:52.553
17.0, -87.96805572509766, -286.97747802734375, 83.48765563964844, 343.0797119140625, -0.06400000303983688, 0.01600000075995922, 1.055999994277954, 0.0, 0.0, 0.0, 0.0, 0.0, 1.621270012569492E9, 2021-05-17 18:46:52.569
17.0, -89.46027374267578, -295.642822265625, 76.7146987915039, 333.3036193847656, -0.06400000303983688, 0.01600000075995922, 1.055999994277954, 0.0, 0.0, 0.0, 0.0, 0.0, 1.621270012569492E9, 2021-05-17 18:46:52.569
18.0, -87.42951202392578, -291.1474609375, 61.58306121826172, 341.1499328613281, -0.06400000303983688, 0.01600000075995922, 1.055999994277954, 0.0, 0.0, 0.0, 0.0, 0.0, 1.621270012570234E9, 2021-05-17 18:46:52.570
18.0, -68.93196868896484, -287.3664245605469, 60.25165939331055, 352.2387390136719, -0.06400000303983688, 0.01600000075995922, 1.055999994277954, 0.0, 0.0, 0.0, 0.0, 0.0, 1.621270012570234E9, 2021-05-17 18:46:52.570
19.0, -74.08928680419922, -296.5591125488281, 67.9820327758789, 343.18817138671875, -0.06400000303983688, 0.01600000075995922, 1.055999994277954, 0.0, 0.0, 0.0, 0.0, 0.0, 1.6212700125838804E9, 2021-05-17 18:46:52.583
19.0, -80.5892333984375, -302.4868469238281, 68.7861099243164, 327.2936096191406, -0.06400000303983688, 0.01600000075995922, 1.055999994277954, 0.0, 0.0, 0.0, 0.0, 0.0, 1.6212700125838804E9, 2021-05-17 18:46:52.583
20.0, -76.39680480957031, -292.48260498046875, 54.50343322753906, 337.04351806640625, -0.06400000303983688, 0.01600000075995922, 1.040000081062317, 0.0, 0.0, 0.0, 0.0, 0.0, 1.6212700125994978E9, 2021-05-17 18:46:52.599
20.0, -67.95584869384766, -290.5415954589844, 59.10725021362305, 352.98297119140625, -0.06400000303983688, 0.01600000075995922, 1.040000081062317, 0.0, 0.0, 0.0, 0.0, 0.0, 1.6212700125994978E9, 2021-05-17 18:46:52.599
21.0, -69.5901870727539, -296.4356994628906, 67.3612060546875, 342.1746520996094, -0.06400000303983688, 0.01600000075995922, 1.040000081062317, 0.0, 0.0, 0.0, 0.0, 0.0, 1.621270012600221E9, 2021-05-17 18:46:52.600
21.0, -88.37196350097656, -309.0279235839844, 65.68199157714844, 325.04217529296875, -0.06400000303983688, 0.01600000075995922, 1.040000081062317, 0.0, 0.0, 0.0, 0.0, 0.0, 1.621270012600221E9, 2021-05-17 18:46:52.600
22.0, -82.07023620605469, -297.95782470703125, 53.09349060058594, 335.10626220703125, -0.06400000303983688, 0.01600000075995922, 1.040000081062317, 0.0, 0.0, 0.0, 0.0, 0.0, 1.6212700126301825E9, 2021-05-17 18:46:52.630
22.0, -72.42503356933594, -292.95758056640625, 47.71551513671875, 341.0265197753906, -0.06400000303983688, 0.01600000075995922, 1.040000081062317, 0.0, 0.0, 0.0, 0.0, 0.0, 1.6212700126301825E9, 2021-05-17 18:46:52.630
23.0, -72.81771850585938, -302.68505859375, 62.4320182800293, 333.02313232421875, -0.06400000303983688, 0.01600000075995922, 1.040000081062317, 0.0, 0.0, 0.0, 0.0, 0.0, 1.6212700126309328E9, 2021-05-17 18:46:52.630
23.0, -80.59297180175781, -308.4557189941406, 59.58969497680664, 319.34259033203125, -0.06400000303983688, 0.01600000075995922, 1.040000081062317, 0.0, 0.0, 0.0, 0.0, 0.0, 1.6212700126309328E9, 2021-05-17 18:46:52.630
24.0, -71.21704864501953, -298.7469482421875, 61.66160202026367, 332.450927734375, -0.06400000303983688, 0.01600000075995922, 1.040000081062317, 0.0, 0.0, 0.0, 0.0, 0.0, 1.6212700126316524E9, 2021-05-17 18:46:52.631
24.0, -66.01110076904297, -287.40008544921875, 58.5350456237793, 338.1019287109375, -0.06400000303983688, 0.01600000075995922, 1.040000081062317, 0.0, 0.0, 0.0, 0.0, 0.0, 1.6212700126316524E9, 2021-05-17 18:46:52.631
25.0, -68.27748107910156, -293.02490234375, 74.5492935180664, 327.8919982910156, -0.06400000303983688, 0.01600000075995922, 1.040000081062317, 0.0, 0.0, 0.0, 0.0, 0.0, 1.6212700126437073E9, 2021-05-17 18:46:52.643
25.0, -73.40862274169922, -301.0170593261719, 69.4443359375, 320.419677734375, -0.06400000303983688, 0.01600000075995922, 1.040000081062317, 0.0, 0.0, 0.0, 0.0, 0.0, 1.6212700126437073E9, 2021-05-17 18:46:52.643
26.0, -62.96308517456055, -287.0223693847656, 65.0723876953125, 331.5757751464844, -0.06400000303983688, 0.01600000075995922, 1.040000081062317, 0.0, 0.0, 0.0, 0.0, 0.0, 1.6212700126594577E9, 2021-05-17 18:46:52.659
26.0, -64.21595001220703, -275.56329345703125, 71.30306243896484, 342.275634765625, -0.06400000303983688, 0.01600000075995922, 1.040000081062317, 0.0, 0.0, 0.0, 0.0, 0.0, 1.6212700126594577E9, 2021-05-17 18:46:52.659
27.0, -73.45350646972656, -284.7485046386719, 77.66463470458984, 330.0087585449219, -0.06400000303983688, 0.01600000075995922, 1.040000081062317, 0.0, 0.0, 0.0, 0.0, 0.0, 1.6212700126603005E9, 2021-05-17 18:46:52.660
27.0, -82.49658203125, -292.7182312011719, 74.99434661865234, 324.634521484375, -0.06400000303983688, 0.01600000075995922, 1.040000081062317, 0.0, 0.0, 0.0, 0.0, 0.0, 1.6212700126603005E9, 2021-05-17 18:46:52.660
28.0, -81.81217956542969, -280.3877868652344, 68.34480285644531, 336.6919860839844, -0.06400000303983688, 0.01600000075995922, 1.040000081062317, 0.0, 0.0, 0.0, 0.0, 0.0, 1.621270012689253E9, 2021-05-17 18:46:52.689
28.0, -74.75872802734375, -270.1067810058594, 70.0090560913086, 352.1751708984375, -0.06400000303983688, 0.01600000075995922, 1.040000081062317, 0.0, 0.0, 0.0, 0.0, 0.0, 1.621270012689253E9, 2021-05-17 18:46:52.689
29.0, -73.57318115234375, -284.2623291015625, 78.44253540039062, 339.1042175292969, -0.06400000303983688, 0.01600000075995922, 1.040000081062317, 0.0, 0.0, 0.0, 0.0, 0.0, 1.621270012705773E9, 2021-05-17 18:46:52.705
29.0, -89.44532012939453, -290.3546142578125, 77.27568054199219, 332.0058898925781, -0.06400000303983688, 0.01600000075995922, 1.040000081062317, 0.0, 0.0, 0.0, 0.0, 0.0, 1.621270012705773E9, 2021-05-17 18:46:52.705
30.0, -86.28136444091797, -281.9398498535156, 61.54940414428711, 336.08612060546875, -0.06400000303983688, 0.01600000075995922, 1.040000081062317, 0.0, 0.0, 0.0, 0.0, 0.0, 1.621270012706499E9, 2021-05-17 18:46:52.706
30.0, -68.341064453125, -277.1602478027344, 56.67631530761719, 347.4105224609375, -0.06400000303983688, 0.01600000075995922, 1.040000081062317, 0.0, 0.0, 0.0, 0.0, 0.0, 1.621270012706499E9, 2021-05-17 18:46:52.706
31.0, -79.87865447998047, -294.2441101074219, 67.30510711669922, 329.212158203125, -0.06400000303983688, 0.01600000075995922, 1.040000081062317, 0.0, 0.0, 0.0, 0.0, 0.0, 1.6212700127073035E9, 2021-05-17 18:46:52.707
31.0, -77.70577239990234, -303.5190734863281, 64.22343444824219, 323.1535339355469, -0.06400000303983688, 0.01600000075995922, 1.040000081062317, 0.0, 0.0, 0.0, 0.0, 0.0, 1.6212700127073035E9, 2021-05-17 18:46:52.707
32.0, -78.03861999511719, -305.68072509765625, 54.49595260620117, 326.66156005859375, -0.06400000303983688, 0.01600000075995922, 1.040000081062317, 0.0, 0.0, 0.0, 0.0, 0.0, 1.6212700127080493E9, 2021-05-17 18:46:52.708
32.0, -59.50741958618164, -293.294189453125, 54.0396842956543, 338.02337646484375, -0.06400000303983688, 0.01600000075995922, 1.040000081062317, 0.0, 0.0, 0.0, 0.0, 0.0, 1.6212700127080493E9, 2021-05-17 18:46:52.708
33.0, -63.80830383300781, -301.34991455078125, 63.54277038574219, 326.1192626953125, -0.06400000303983688, 0.01600000075995922, 1.040000081062317, 0.0, 0.0, 0.0, 0.0, 0.0, 1.621270012718876E9, 2021-05-17 18:46:52.718
33.0, -70.0726318359375, -314.8547058105469, 67.01713562011719, 316.8891906738281, -0.06400000303983688, 0.01600000075995922, 1.040000081062317, 0.0, 0.0, 0.0, 0.0, 0.0, 1.621270012718876E9, 2021-05-17 18:46:52.718
34.0, -66.36639404296875, -292.8304138183594, 56.13776779174805, 332.26019287109375, -0.06400000303983688, 0.01600000075995922, 1.040000081062317, 0.0, 0.0, 0.0, 0.0, 0.0, 1.6212700127337153E9, 2021-05-17 18:46:52.733
34.0, -62.63771438598633, -292.7331848144531, 54.32765579223633, 340.32342529296875, -0.06400000303983688, 0.01600000075995922, 1.040000081062317, 0.0, 0.0, 0.0, 0.0, 0.0, 1.6212700127337153E9, 2021-05-17 18:46:52.733
35.0, -69.72856140136719, -299.2817687988281, 62.41706085205078, 329.1074523925781, -0.06400000303983688, 0.01600000075995922, 1.040000081062317, 0.0, 0.0, 0.0, 0.0, 0.0, 1.6212700127491815E9, 2021-05-17 18:46:52.749
35.0, -73.95465087890625, -304.4727478027344, 70.40174865722656, 319.058349609375, -0.06400000303983688, 0.01600000075995922, 1.040000081062317, 0.0, 0.0, 0.0, 0.0, 0.0, 1.6212700127491815E9, 2021-05-17 18:46:52.749
36.0, -73.53204345703125, -300.5234069824219, 60.54711151123047, 329.4814453125, -0.06400000303983688, 0.01600000075995922, 1.040000081062317, 0.0, 0.0, 0.0, 0.0, 0.0, 1.6212700127645042E9, 2021-05-17 18:46:52.764
36.0, -65.24816131591797, -297.1313171386719, 61.54192352294922, 344.75146484375, -0.06400000303983688, 0.01600000075995922, 1.040000081062317, 0.0, 0.0, 0.0, 0.0, 0.0, 1.6212700127645042E9, 2021-05-17 18:46:52.764
37.0, -62.817230224609375, -298.93768310546875, 73.77513885498047, 330.69317626953125, -0.06400000303983688, 0.01600000075995922, 1.040000081062317, 0.0, 0.0, 0.0, 0.0, 0.0, 1.621270012765274E9, 2021-05-17 18:46:52.765
37.0, -79.4261245727539, -308.0854797363281, 75.64134979248047, 320.95074462890625, -0.06400000303983688, 0.01600000075995922, 1.040000081062317, 0.0, 0.0, 0.0, 0.0, 0.0, 1.621270012765274E9, 2021-05-17 18:46:52.765
38.0, -76.87925720214844, -292.83416748046875, 63.82326126098633, 336.0299987792969, -0.06400000303983688, 0.01600000075995922, 1.040000081062317, 0.0, 0.0, 0.0, 0.0, 0.0, 1.6212700127794173E9, 2021-05-17 18:46:52.779
38.0, -75.39451599121094, -283.64898681640625, 64.72831726074219, 345.5555419921875, -0.06400000303983688, 0.01600000075995922, 1.040000081062317, 0.0, 0.0, 0.0, 0.0, 0.0, 1.6212700127794173E9, 2021-05-17 18:46:52.779
39.0, -84.58718872070312, -283.26751708984375, 74.35108184814453, 333.7785949707031, -0.06400000303983688, 0.01600000075995922, 1.040000081062317, 0.0, 0.0, 0.0, 0.0, 0.0, 1.6212700127801664E9, 2021-05-17 18:46:52.780
39.0, -96.07241821289062, -296.1776428222656, 76.22103118896484, 316.77325439453125, -0.06400000303983688, 0.01600000075995922, 1.040000081062317, 0.0, 0.0, 0.0, 0.0, 0.0, 1.6212700127801664E9, 2021-05-17 18:46:52.780
40.0, -90.8290786743164, -283.3161315917969, 60.12076187133789, 326.8335876464844, -0.06400000303983688, 0.01600000075995922, 1.055999994277954, 0.0, 0.0, 0.0, 0.0, 0.0, 1.621270012793934E9, 2021-05-17 18:46:52.793
40.0, -76.83063507080078, -271.8084411621094, 63.770904541015625, 340.3346252441406, -0.06400000303983688, 0.01600000075995922, 1.055999994277954, 0.0, 0.0, 0.0, 0.0, 0.0, 1.621270012793934E9, 2021-05-17 18:46:52.793
41.0, -82.89301300048828, -278.4393005371094, 71.51997375488281, 328.6885986328125, -0.06400000303983688, 0.01600000075995922, 1.055999994277954, 0.0, 0.0, 0.0, 0.0, 0.0, 1.6212700128098476E9, 2021-05-17 18:46:52.809
41.0, -87.22381591796875, -285.31695556640625, 71.557373046875, 322.2970886230469, -0.06400000303983688, 0.01600000075995922, 1.055999994277954, 0.0, 0.0, 0.0, 0.0, 0.0, 1.6212700128098476E9, 2021-05-17 18:46:52.809
42.0, -87.41081237792969, -277.39959716796875, 59.425140380859375, 336.7742614746094, -0.06400000303983688, 0.01600000075995922, 1.055999994277954, 0.0, 0.0, 0.0, 0.0, 0.0, 1.621270012824234E9, 2021-05-17 18:46:52.824
42.0, -75.38329315185547, -270.0955810546875, 64.13741302490234, 350.99334716796875, -0.06400000303983688, 0.01600000075995922, 1.055999994277954, 0.0, 0.0, 0.0, 0.0, 0.0, 1.621270012824234E9, 2021-05-17 18:46:52.824
43.0, -76.3743667602539, -286.4127502441406, 73.4422836303711, 338.1804504394531, -0.06400000303983688, 0.01600000075995922, 1.055999994277954, 0.0, 0.0, 0.0, 0.0, 0.0, 1.6212700128402066E9, 2021-05-17 18:46:52.840
43.0, -83.02391052246094, -298.3580017089844, 70.86923217773438, 327.5740966796875, -0.06400000303983688, 0.01600000075995922, 1.055999994277954, 0.0, 0.0, 0.0, 0.0, 0.0, 1.6212700128402066E9, 2021-05-17 18:46:52.840
44.0, -75.57776641845703, -291.23724365234375, 59.02123260498047, 336.0674133300781, -0.06400000303983688, 0.01600000075995922, 1.055999994277954, 0.0, 0.0, 0.0, 0.0, 0.0, 1.6212700128408296E9, 2021-05-17 18:46:52.840
44.0, -64.05887603759766, -283.1665344238281, 59.78417205810547, 343.1844482421875, -0.06400000303983688, 0.01600000075995922, 1.055999994277954, 0.0, 0.0, 0.0, 0.0, 0.0, 1.6212700128408296E9, 2021-05-17 18:46:52.840
45.0, -66.07842254638672, -300.0185241699219, 71.90892791748047, 329.3505554199219, -0.06400000303983688, 0.01600000075995922, 1.055999994277954, 0.0, 0.0, 0.0, 0.0, 0.0, 1.621270012841653E9, 2021-05-17 18:46:52.841
45.0, -75.24118041992188, -310.5538024902344, 72.16697692871094, 322.2222900390625, -0.06400000303983688, 0.01600000075995922, 1.055999994277954, 0.0, 0.0, 0.0, 0.0, 0.0, 1.621270012841653E9, 2021-05-17 18:46:52.841
46.0, -74.29872131347656, -304.1324157714844, 57.809505462646484, 330.1284484863281, -0.06400000303983688, 0.01600000075995922, 1.055999994277954, 0.0, 0.0, 0.0, 0.0, 0.0, 1.6212700128538208E9, 2021-05-17 18:46:52.853
46.0, -59.06985092163086, -296.005615234375, 55.4645881652832, 342.20831298828125, -0.06400000303983688, 0.01600000075995922, 1.055999994277954, 0.0, 0.0, 0.0, 0.0, 0.0, 1.6212700128538208E9, 2021-05-17 18:46:52.853
47.0, -73.15431213378906, -302.7486267089844, 67.28266906738281, 325.9996032714844, -0.06400000303983688, 0.01600000075995922, 1.055999994277954, 0.0, 0.0, 0.0, 0.0, 0.0, 1.6212700128699336E9, 2021-05-17 18:46:52.869
47.0, -82.8780517578125, -307.356201171875, 71.96128845214844, 316.2646484375, -0.06400000303983688, 0.01600000075995922, 1.055999994277954, 0.0, 0.0, 0.0, 0.0, 0.0, 1.6212700128699336E9, 2021-05-17 18:46:52.869
48.0, -73.87237548828125, -295.7886962890625, 57.899261474609375, 330.2369079589844, -0.06400000303983688, 0.01600000075995922, 1.055999994277954, 0.0, 0.0, 0.0, 0.0, 0.0, 1.62127001288452E9, 2021-05-17 18:46:52.884
48.0, -70.92533111572266, -292.23577880859375, 56.79225158691406, 336.4339294433594, -0.06400000303983688, 0.01600000075995922, 1.055999994277954, 0.0, 0.0, 0.0, 0.0, 0.0, 1.62127001288452E9, 2021-05-17 18:46:52.884
49.0, -78.11341857910156, -296.37957763671875, 68.91326904296875, 330.27056884765625, -0.06400000303983688, 0.01600000075995922, 1.055999994277954, 0.0, 0.0, 0.0, 0.0, 0.0, 1.6212700128852255E9, 2021-05-17 18:46:52.885
49.0, -83.30440521240234, -302.0567626953125, 74.23888397216797, 318.13458251953125, -0.06400000303983688, 0.01600000075995922, 1.055999994277954, 0.0, 0.0, 0.0, 0.0, 0.0, 1.6212700128852255E9, 2021-05-17 18:46:52.885
50.0, -91.01607513427734, -294.0646057128906, 62.761131286621094, 329.563720703125, -0.06400000303983688, 0.01600000075995922, 1.055999994277954, 0.0, 0.0, 0.0, 0.0, 0.0, 1.6212700128996112E9, 2021-05-17 18:46:52.899
50.0, -78.50237274169922, -282.8187255859375, 62.394622802734375, 342.122314453125, -0.06400000303983688, 0.01600000075995922, 1.055999994277954, 0.0, 0.0, 0.0, 0.0, 0.0, 1.6212700128996112E9, 2021-05-17 18:46:52.899
51.0, -82.19364929199219, -289.09051513671875, 72.16323852539062, 332.7201843261719, -0.06400000303983688, 0.01600000075995922, 1.055999994277954, 0.0, 0.0, 0.0, 0.0, 0.0, 1.621270012900339E9, 2021-05-17 18:46:52.900
51.0, -93.97433471679688, -296.40576171875, 73.75643920898438, 327.1290588378906, -0.06400000303983688, 0.01600000075995922, 1.055999994277954, 0.0, 0.0, 0.0, 0.0, 0.0, 1.621270012900339E9, 2021-05-17 18:46:52.900
52.0, -98.60807037353516, -292.0936584472656, 60.038482666015625, 335.9776611328125, -0.06400000303983688, 0.01600000075995922, 1.055999994277954, 0.0, 0.0, 0.0, 0.0, 0.0, 1.6212700129137912E9, 2021-05-17 18:46:52.913
52.0, -86.50201416015625, -277.94561767578125, 59.85149002075195, 350.32763671875, -0.06400000303983688, 0.01600000075995922, 1.055999994277954, 0.0, 0.0, 0.0, 0.0, 0.0, 1.6212700129137912E9, 2021-05-17 18:46:52.913
53.0, -85.12199401855469, -288.9932861328125, 72.07347869873047, 339.1416015625, -0.06400000303983688, 0.01600000075995922, 1.055999994277954, 0.0, 0.0, 0.0, 0.0, 0.0, 1.62127001292983E9, 2021-05-17 18:46:52.929
53.0, -91.07591247558594, -303.0179138183594, 67.20787048339844, 331.616943359375, -0.06400000303983688, 0.01600000075995922, 1.055999994277954, 0.0, 0.0, 0.0, 0.0, 0.0, 1.62127001292983E9, 2021-05-17 18:46:52.929
54.0, -83.16228485107422, -290.4593200683594, 62.30860137939453, 338.0084228515625, -0.06400000303983688, 0.01600000075995922, 1.055999994277954, 0.0, 0.0, 0.0, 0.0, 0.0, 1.6212700129444127E9, 2021-05-17 18:46:52.944
54.0, -79.527099609375, -284.1688232421875, 58.72203826904297, 350.32763671875, -0.06400000303983688, 0.01600000075995922, 1.055999994277954, 0.0, 0.0, 0.0, 0.0, 0.0, 1.6212700129444127E9, 2021-05-17 18:46:52.944
55.0, -75.9068832397461, -300.51593017578125, 70.80939483642578, 341.96148681640625, -0.06400000303983688, 0.01600000075995922, 1.055999994277954, 0.0, 0.0, 0.0, 0.0, 0.0, 1.6212700129451408E9, 2021-05-17 18:46:52.945
55.0, -80.46955871582031, -306.4473876953125, 66.4972915649414, 328.389404296875, -0.06400000303983688, 0.01600000075995922, 1.055999994277954, 0.0, 0.0, 0.0, 0.0, 0.0, 1.6212700129451408E9, 2021-05-17 18:46:52.945
56.0, -72.29039764404297, -293.50360107421875, 54.8437614440918, 340.10650634765625, -0.06400000303983688, 0.01600000075995922, 1.055999994277954, 0.0, 0.0, 0.0, 0.0, 0.0, 1.6212700129595745E9, 2021-05-17 18:46:52.959
56.0, -65.03872680664062, -287.6506652832031, 59.78791046142578, 350.3687744140625, -0.06400000303983688, 0.01600000075995922, 1.055999994277954, 0.0, 0.0, 0.0, 0.0, 0.0, 1.6212700129595745E9, 2021-05-17 18:46:52.959
57.0, -66.14948272705078, -296.0242919921875, 68.67017364501953, 334.9940490722656, -0.06400000303983688, 0.01600000075995922, 1.055999994277954, 0.0, 0.0, 0.0, 0.0, 0.0, 1.6212700129602911E9, 2021-05-17 18:46:52.960
57.0, -77.2195816040039, -309.9853515625, 68.78984832763672, 323.81549072265625, -0.06400000303983688, 0.01600000075995922, 1.055999994277954, 0.0, 0.0, 0.0, 0.0, 0.0, 1.6212700129602911E9, 2021-05-17 18:46:52.960
58.0, -77.17096710205078, -298.1523132324219, 55.00831985473633, 327.92938232421875, -0.06400000303983688, 0.01600000075995922, 1.055999994277954, 0.0, 0.0, 0.0, 0.0, 0.0, 1.6212700129899638E9, 2021-05-17 18:46:52.989
58.0, -59.185787200927734, -287.2916259765625, 59.97490692138672, 346.4942626953125, -0.06400000303983688, 0.01600000075995922, 1.055999994277954, 0.0, 0.0, 0.0, 0.0, 0.0, 1.6212700129899638E9, 2021-05-17 18:46:52.989
59.0, -59.41392135620117, -297.8979797363281, 74.61287689208984, 334.1226501464844, -0.06400000303983688, 0.01600000075995922, 1.055999994277954, 0.0, 0.0, 0.0, 0.0, 0.0, 1.6212700129906616E9, 2021-05-17 18:46:52.990
59.0, -70.79817962646484, -308.2313232421875, 72.8588638305664, 323.2021484375, -0.06400000303983688, 0.01600000075995922, 1.055999994277954, 0.0, 0.0, 0.0, 0.0, 0.0, 1.6212700129906616E9, 2021-05-17 18:46:52.990
60.0, -69.76222229003906, -307.4459533691406, 60.26287841796875, 324.9150390625, -0.06400000303983688, 0.01600000075995922, 1.055999994277954, 0.0, 0.0, 0.0, 0.0, 0.0, 1.6212700130045962E9, 2021-05-17 18:46:53.004
60.0, -62.94812774658203, -292.40032958984375, 64.84051513671875, 343.9473876953125, -0.06400000303983688, 0.01600000075995922, 1.055999994277954, 0.0, 0.0, 0.0, 0.0, 0.0, 1.6212700130045962E9, 2021-05-17 18:46:53.004
61.0, -68.58415222167969, -299.397705078125, 75.3496322631836, 324.5223388671875, -0.06400000303983688, 0.01600000075995922, 1.055999994277954, 0.0, 0.0, 0.0, 0.0, 0.0, 1.6212700130053244E9, 2021-05-17 18:46:53.005
61.0, -86.19534301757812, -310.8193359375, 68.13162994384766, 312.4798583984375, -0.06400000303983688, 0.01600000075995922, 1.055999994277954, 0.0, 0.0, 0.0, 0.0, 0.0, 1.6212700130053244E9, 2021-05-17 18:46:53.005
62.0, -77.08120727539062, -301.2339782714844, 65.85028839111328, 330.9774169921875, -0.06400000303983688, 0.01600000075995922, 1.055999994277954, 0.0, 0.0, 0.0, 0.0, 0.0, 1.621270013019512E9, 2021-05-17 18:46:53.019
62.0, -66.57209014892578, -288.0059509277344, 63.96537780761719, 338.718994140625, -0.06400000303983688, 0.01600000075995922, 1.055999994277954, 0.0, 0.0, 0.0, 0.0, 0.0, 1.621270013019512E9, 2021-05-17 18:46:53.019
63.0, -72.99723815917969, -298.30938720703125, 72.36519622802734, 331.5608215332031, -0.06400000303983688, 0.01600000075995922, 1.055999994277954, 0.0, 0.0, 0.0, 0.0, 0.0, 1.6212700130201893E9, 2021-05-17 18:46:53.020
63.0, -84.66946411132812, -304.34930419921875, 68.74871063232422, 322.285888671875, -0.06400000303983688, 0.01600000075995922, 1.055999994277954, 0.0, 0.0, 0.0, 0.0, 0.0, 1.6212700130201893E9, 2021-05-17 18:46:53.020
64.0, -80.38728332519531, -293.4400329589844, 60.625648498535156, 335.04266357421875, -0.06400000303983688, 0.01600000075995922, 1.055999994277954, 0.0, 0.0, 0.0, 0.0, 0.0, 1.6212700130501213E9, 2021-05-17 18:46:53.050
64.0, -67.84739685058594, -289.5168762207031, 61.998191833496094, 344.9122619628906, -0.06400000303983688, 0.01600000075995922, 1.055999994277954, 0.0, 0.0, 0.0, 0.0, 0.0, 1.6212700130501213E9, 2021-05-17 18:46:53.050
65.0, -76.34819030761719, -296.57781982421875, 74.53433990478516, 334.141357421875, -0.06400000303983688, 0.01600000075995922, 1.055999994277954, 0.0, 0.0, 0.0, 0.0, 0.0, 1.6212700130508633E9, 2021-05-17 18:46:53.050
65.0, -79.75149536132812, -307.6741027832031, 77.31681823730469, 319.83251953125, -0.06400000303983688, 0.01600000075995922, 1.055999994277954, 0.0, 0.0, 0.0, 0.0, 0.0, 1.6212700130508633E9, 2021-05-17 18:46:53.050
66.0, -78.97359466552734, -294.1506042480469, 67.07323455810547, 337.1856384277344, -0.06400000303983688, 0.01600000075995922, 1.055999994277954, 0.0, 0.0, 0.0, 0.0, 0.0, 1.6212700130516036E9, 2021-05-17 18:46:53.051
66.0, -74.57921600341797, -285.9190979003906, 64.5450668334961, 347.05523681640625, -0.06400000303983688, 0.01600000075995922, 1.055999994277954, 0.0, 0.0, 0.0, 0.0, 0.0, 1.6212700130516036E9, 2021-05-17 18:46:53.051
67.0, -70.22222900390625, -292.6770935058594, 77.24202728271484, 336.688232421875, -0.06400000303983688, 0.01600000075995922, 1.055999994277954, 0.0, 0.0, 0.0, 0.0, 0.0, 1.621270013079168E9, 2021-05-17 18:46:53.079
67.0, -79.3438491821289, -306.510986328125, 75.42443084716797, 319.222900390625, -0.06400000303983688, 0.01600000075995922, 1.055999994277954, 0.0, 0.0, 0.0, 0.0, 0.0, 1.621270013079168E9, 2021-05-17 18:46:53.079
68.0, -74.60539245605469, -300.0633850097656, 63.31089782714844, 331.1120300292969, -0.06400000303983688, 0.01600000075995922, 1.055999994277954, 0.0, 0.0, 0.0, 0.0, 0.0, 1.6212700130966136E9, 2021-05-17 18:46:53.096
68.0, -67.3387680053711, -289.5467834472656, 57.615028381347656, 340.8133544921875, -0.06400000303983688, 0.01600000075995922, 1.055999994277954, 0.0, 0.0, 0.0, 0.0, 0.0, 1.6212700130966136E9, 2021-05-17 18:46:53.096
69.0, -67.09193420410156, -302.64019775390625, 66.44866943359375, 328.66241455078125, -0.06400000303983688, 0.01600000075995922, 1.055999994277954, 0.0, 0.0, 0.0, 0.0, 0.0, 1.6212700130972457E9, 2021-05-17 18:46:53.097
69.0, -77.78430938720703, -314.22265625, 67.94837188720703, 316.3394470214844, -0.06400000303983688, 0.01600000075995922, 1.055999994277954, 0.0, 0.0, 0.0, 0.0, 0.0, 1.6212700130972457E9, 2021-05-17 18:46:53.097
70.0, -68.70757293701172, -300.5645446777344, 58.1947135925293, 331.0596923828125, -0.06400000303983688, 0.01600000075995922, 1.055999994277954, 0.0, 0.0, 0.0, 0.0, 0.0, 1.6212700130979748E9, 2021-05-17 18:46:53.097
70.0, -69.76222229003906, -289.3149108886719, 54.4622917175293, 340.38323974609375, -0.06400000303983688, 0.01600000075995922, 1.055999994277954, 0.0, 0.0, 0.0, 0.0, 0.0, 1.6212700130979748E9, 2021-05-17 18:46:53.097
71.0, -71.4339599609375, -303.9192199707031, 67.78007507324219, 326.83734130859375, -0.06400000303983688, 0.01600000075995922, 1.055999994277954, 0.0, 0.0, 0.0, 0.0, 0.0, 1.621270013098792E9, 2021-05-17 18:46:53.098
71.0, -78.37147521972656, -318.0897216796875, 67.20413208007812, 316.3955383300781, -0.06400000303983688, 0.01600000075995922, 1.055999994277954, 0.0, 0.0, 0.0, 0.0, 0.0, 1.621270013098792E9, 2021-05-17 18:46:53.098
72.0, -73.42732238769531, -311.0025939941406, 57.02412414550781, 326.2314758300781, -0.06400000303983688, 0.01600000075995922, 1.055999994277954, 0.0, 0.0, 0.0, 0.0, 0.0, 1.621270013108744E9, 2021-05-17 18:46:53.108
72.0, -64.58246612548828, -299.46875, 53.273006439208984, 340.7834167480469, -0.06400000303983688, 0.01600000075995922, 1.055999994277954, 0.0, 0.0, 0.0, 0.0, 0.0, 1.621270013108744E9, 2021-05-17 18:46:53.108
73.0, -69.36205291748047, -308.63897705078125, 62.97056579589844, 329.1448669433594, -0.06400000303983688, 0.01600000075995922, 1.055999994277954, 0.0, 0.0, 0.0, 0.0, 0.0, 1.6212700131238203E9, 2021-05-17 18:46:53.123
73.0, -77.65341186523438, -318.2093811035156, 61.47086715698242, 317.88775634765625, -0.06400000303983688, 0.01600000075995922, 1.055999994277954, 0.0, 0.0, 0.0, 0.0, 0.0, 1.6212700131238203E9, 2021-05-17 18:46:53.123
74.0, -64.85173797607422, -307.4721374511719, 54.85872268676758, 330.7081298828125, -0.06400000303983688, 0.01600000075995922, 1.055999994277954, 0.0, 0.0, 0.0, 0.0, 0.0, 1.6212700131394877E9, 2021-05-17 18:46:53.139
74.0, -66.54965209960938, -297.6212463378906, 53.12714767456055, 335.46527099609375, -0.06400000303983688, 0.01600000075995922, 1.055999994277954, 0.0, 0.0, 0.0, 0.0, 0.0, 1.6212700131394877E9, 2021-05-17 18:46:53.139
75.0, -62.046810150146484, -309.61883544921875, 69.96417999267578, 328.2510070800781, -0.06400000303983688, 0.01600000075995922, 1.055999994277954, 0.0, 0.0, 0.0, 0.0, 0.0, 1.6212700131402645E9, 2021-05-17 18:46:53.140
75.0, -81.91316223144531, -312.9324035644531, 72.29413604736328, 319.4622497558594, -0.06400000303983688, 0.01600000075995922, 1.055999994277954, 0.0, 0.0, 0.0, 0.0, 0.0, 1.6212700131402645E9, 2021-05-17 18:46:53.140
76.0, -75.5702896118164, -304.78314208984375, 62.48064041137695, 330.3677978515625, -0.06400000303983688, 0.01600000075995922, 1.055999994277954, 0.0, 0.0, 0.0, 0.0, 0.0, 1.621270013169976E9, 2021-05-17 18:46:53.169
76.0, -76.09761810302734, -293.6307678222656, 64.3094482421875, 340.78717041015625, -0.06400000303983688, 0.01600000075995922, 1.055999994277954, 0.0, 0.0, 0.0, 0.0, 0.0, 1.621270013169976E9, 2021-05-17 18:46:53.169
77.0, -76.60997772216797, -302.7037658691406, 71.25444030761719, 331.19805908203125, -0.06400000303983688, 0.01600000075995922, 1.055999994277954, 0.0, 0.0, 0.0, 0.0, 0.0, 1.621270013170702E9, 2021-05-17 18:46:53.170
77.0, -80.07312774658203, -313.3288269042969, 68.9469223022461, 325.150634765625, -0.06400000303983688, 0.01600000075995922, 1.055999994277954, 0.0, 0.0, 0.0, 0.0, 0.0, 1.621270013170702E9, 2021-05-17 18:46:53.170
78.0, -76.85307312011719, -305.12347412109375, 60.34889602661133, 335.62237548828125, -0.06400000303983688, 0.01600000075995922, 1.055999994277954, 0.0, 0.0, 0.0, 0.0, 0.0, 1.6212700131844835E9, 2021-05-17 18:46:53.184
78.0, -62.51055908203125, -295.149169921875, 65.17710876464844, 344.6504821777344, -0.06400000303983688, 0.01600000075995922, 1.055999994277954, 0.0, 0.0, 0.0, 0.0, 0.0, 1.6212700131844835E9, 2021-05-17 18:46:53.184
79.0, -70.43914794921875, -300.13446044921875, 74.21644592285156, 330.0050354003906, -0.06400000303983688, 0.01600000075995922, 1.055999994277954, 0.0, 0.0, 0.0, 0.0, 0.0, 1.6212700131851664E9, 2021-05-17 18:46:53.185
79.0, -81.53169250488281, -302.50927734375, 75.6076889038086, 321.85205078125, -0.06400000303983688, 0.01600000075995922, 1.055999994277954, 0.0, 0.0, 0.0, 0.0, 0.0, 1.6212700131851664E9, 2021-05-17 18:46:53.185
80.0, -76.95404815673828, -302.8384094238281, 58.90529251098633, 329.3542785644531, -0.06400000303983688, 0.01600000075995922, 1.055999994277954, 0.0, 0.0, 0.0, 0.0, 0.0, 1.6212700131995127E9, 2021-05-17 18:46:53.199
80.0, -62.21136474609375, -292.4040832519531, 59.91506576538086, 343.4237976074219, -0.06400000303983688, 0.01600000075995922, 1.055999994277954, 0.0, 0.0, 0.0, 0.0, 0.0, 1.6212700131995127E9, 2021-05-17 18:46:53.199
81.0, -65.63711547851562, -303.2310791015625, 69.19750213623047, 333.13531494140625, -0.06400000303983688, 0.01600000075995922, 1.055999994277954, 0.0, 0.0, 0.0, 0.0, 0.0, 1.621270013200245E9, 2021-05-17 18:46:53.200
81.0, -77.72821044921875, -318.5646667480469, 68.93570709228516, 319.8287658691406, -0.06400000303983688, 0.01600000075995922, 1.055999994277954, 0.0, 0.0, 0.0, 0.0, 0.0, 1.621270013200245E9, 2021-05-17 18:46:53.200
82.0, -70.5887451171875, -306.11456298828125, 60.958499908447266, 336.16839599609375, -0.06400000303983688, 0.01600000075995922, 1.055999994277954, 0.0, 0.0, 0.0, 0.0, 0.0, 1.6212700132300172E9, 2021-05-17 18:46:53.230
82.0, -59.35782241821289, -295.8934020996094, 60.281578063964844, 342.0063781738281, -0.06400000303983688, 0.01600000075995922, 1.055999994277954, 0.0, 0.0, 0.0, 0.0, 0.0, 1.6212700132300172E9, 2021-05-17 18:46:53.230
83.0, -68.07553100585938, -304.0650939941406, 72.38015747070312, 333.9805603027344, -0.06400000303983688, 0.01600000075995922, 1.055999994277954, 0.0, 0.0, 0.0, 0.0, 0.0, 1.6212700132306E9, 2021-05-17 18:46:53.230
83.0, -71.4339599609375, -315.3446350097656, 71.25818634033203, 320.99560546875, -0.06400000303983688, 0.01600000075995922, 1.055999994277954, 0.0, 0.0, 0.0, 0.0, 0.0, 1.6212700132306E9, 2021-05-17 18:46:53.230
84.0, -77.42901611328125, -305.1047668457031, 63.32959747314453, 328.0041809082031, -0.06400000303983688, 0.01600000075995922, 1.055999994277954, 0.0, 0.0, 0.0, 0.0, 0.0, 1.6212700132445595E9, 2021-05-17 18:46:53.244
84.0, -64.41416931152344, -294.2291564941406, 58.564964294433594, 339.1453552246094, -0.06400000303983688, 0.01600000075995922, 1.055999994277954, 0.0, 0.0, 0.0, 0.0, 0.0, 1.6212700132445595E9, 2021-05-17 18:46:53.244
85.0, -70.1885757446289, -305.72186279296875, 72.20063781738281, 328.1238708496094, -0.06400000303983688, 0.01600000075995922, 1.055999994277954, 0.0, 0.0, 0.0, 0.0, 0.0, 1.6212700132451515E9, 2021-05-17 18:46:53.245
85.0, -75.86573791503906, -315.1576232910156, 70.6523208618164, 319.2041931152344, -0.06400000303983688, 0.01600000075995922, 1.055999994277954, 0.0, 0.0, 0.0, 0.0, 0.0, 1.6212700132451515E9, 2021-05-17 18:46:53.245
86.0, -70.8131332397461, -300.7851867675781, 66.06346130371094, 332.0208435058594, -0.06400000303983688, 0.01600000075995922, 1.055999994277954, 0.0, 0.0, 0.0, 0.0, 0.0, 1.621270013259725E9, 2021-05-17 18:46:53.259
86.0, -64.18977355957031, -298.56744384765625, 62.98552322387695, 342.7618408203125, -0.06400000303983688, 0.01600000075995922, 1.055999994277954, 0.0, 0.0, 0.0, 0.0, 0.0, 1.621270013259725E9, 2021-05-17 18:46:53.259
87.0, -62.577877044677734, -307.59930419921875, 75.45435333251953, 331.7478332519531, -0.06400000303983688, 0.01600000075995922, 1.055999994277954, 0.0, 0.0, 0.0, 0.0, 0.0, 1.621270013260384E9, 2021-05-17 18:46:53.260
87.0, -70.9926528930664, -314.6153564453125, 79.64678192138672, 324.3390808105469, -0.06400000303983688, 0.01600000075995922, 1.055999994277954, 0.0, 0.0, 0.0, 0.0, 0.0, 1.621270013260384E9, 2021-05-17 18:46:53.260
88.0, -72.95236206054688, -309.4767150878906, 65.42768096923828, 327.8508605957031, -0.06400000303983688, 0.01600000075995922, 1.055999994277954, 0.0, 0.0, 0.0, 0.0, 0.0, 1.6212700132738192E9, 2021-05-17 18:46:53.273
88.0, -64.9302749633789, -297.46417236328125, 67.35372924804688, 339.0107116699219, -0.06400000303983688, 0.01600000075995922, 1.055999994277954, 0.0, 0.0, 0.0, 0.0, 0.0, 1.6212700132738192E9, 2021-05-17 18:46:53.273
89.0, -62.574134826660156, -301.3536682128906, 80.73135375976562, 337.18939208984375, -0.06400000303983688, 0.01600000075995922, 1.055999994277954, 0.0, 0.0, 0.0, 0.0, 0.0, 1.6212700132894473E9, 2021-05-17 18:46:53.289
89.0, -74.68767547607422, -317.3342590332031, 77.93390655517578, 326.78497314453125, -0.06400000303983688, 0.01600000075995922, 1.055999994277954, 0.0, 0.0, 0.0, 0.0, 0.0, 1.6212700132894473E9, 2021-05-17 18:46:53.289
90.0, -72.03607940673828, -306.3651123046875, 57.4429931640625, 332.2826232910156, -0.06400000303983688, 0.01600000075995922, 1.055999994277954, 0.0, 0.0, 0.0, 0.0, 0.0, 1.6212700132902403E9, 2021-05-17 18:46:53.290
90.0, -68.93944549560547, -298.7095642089844, 56.22004699707031, 346.5466003417969, -0.06400000303983688, 0.01600000075995922, 1.055999994277954, 0.0, 0.0, 0.0, 0.0, 0.0, 1.6212700132902403E9, 2021-05-17 18:46:53.290
91.0, -67.93341064453125, -307.1392822265625, 69.7098617553711, 332.69403076171875, -0.06400000303983688, 0.01600000075995922, 1.055999994277954, 0.0, 0.0, 0.0, 0.0, 0.0, 1.6212700133038492E9, 2021-05-17 18:46:53.303
91.0, -79.13441467285156, -310.7408142089844, 72.95236206054688, 324.832763671875, -0.06400000303983688, 0.01600000075995922, 1.055999994277954, 0.0, 0.0, 0.0, 0.0, 0.0, 1.6212700133038492E9, 2021-05-17 18:46:53.303
92.0, -78.33033752441406, -305.8714599609375, 63.920501708984375, 337.5409240722656, -0.06400000303983688, 0.01600000075995922, 1.055999994277954, 0.0, 0.0, 0.0, 0.0, 0.0, 1.62127001331944E9, 2021-05-17 18:46:53.319
92.0, -68.93570709228516, -294.4198913574219, 59.91132736206055, 340.40570068359375, -0.06400000303983688, 0.01600000075995922, 1.055999994277954, 0.0, 0.0, 0.0, 0.0, 0.0, 1.62127001331944E9, 2021-05-17 18:46:53.319
93.0, -64.6310806274414, -301.89593505859375, 73.25528717041016, 328.0827331542969, -0.06400000303983688, 0.01600000075995922, 1.055999994277954, 0.0, 0.0, 0.0, 0.0, 0.0, 1.6212700133201635E9, 2021-05-17 18:46:53.320
93.0, -74.88214874267578, -308.8371887207031, 77.23454284667969, 324.4849548339844, -0.06400000303983688, 0.01600000075995922, 1.055999994277954, 0.0, 0.0, 0.0, 0.0, 0.0, 1.6212700133201635E9, 2021-05-17 18:46:53.320
94.0, -79.48222351074219, -304.8392333984375, 61.73265838623047, 328.05279541015625, -0.06400000303983688, 0.01600000075995922, 1.055999994277954, 0.0, 0.0, 0.0, 0.0, 0.0, 1.6212700133338964E9, 2021-05-17 18:46:53.333
94.0, -64.73954010009766, -289.80859375, 61.40728759765625, 339.1902160644531, -0.06400000303983688, 0.01600000075995922, 1.055999994277954, 0.0, 0.0, 0.0, 0.0, 0.0, 1.6212700133338964E9, 2021-05-17 18:46:53.333
95.0, -72.52974700927734, -294.06085205078125, 71.7144546508789, 334.4742126464844, -0.06400000303983688, 0.01600000075995922, 1.055999994277954, 0.0, 0.0, 0.0, 0.0, 0.0, 1.6212700133494434E9, 2021-05-17 18:46:53.349
95.0, -81.12777709960938, -302.2961120605469, 76.3519287109375, 324.60089111328125, -0.06400000303983688, 0.01600000075995922, 1.055999994277954, 0.0, 0.0, 0.0, 0.0, 0.0, 1.6212700133494434E9, 2021-05-17 18:46:53.349
96.0, -67.75763702392578, -296.8882141113281, 65.49874114990234, 333.5878601074219, -0.06400000303983688, 0.01600000075995922, 1.055999994277954, 0.0, 0.0, 0.0, 0.0, 0.0, 1.6212700133501291E9, 2021-05-17 18:46:53.350
96.0, -60.39003372192383, -280.6346130371094, 68.17650604248047, 345.8023681640625, -0.06400000303983688, 0.01600000075995922, 1.055999994277954, 0.0, 0.0, 0.0, 0.0, 0.0, 1.6212700133501291E9, 2021-05-17 18:46:53.350
97.0, -64.75450134277344, -290.9754333496094, 79.15685272216797, 340.13641357421875, -0.06400000303983688, 0.01600000075995922, 1.055999994277954, 0.0, 0.0, 0.0, 0.0, 0.0, 1.621270013363776E9, 2021-05-17 18:46:53.363
97.0, -73.423583984375, -298.73199462890625, 83.36798095703125, 330.82781982421875, -0.06400000303983688, 0.01600000075995922, 1.055999994277954, 0.0, 0.0, 0.0, 0.0, 0.0, 1.621270013363776E9, 2021-05-17 18:46:53.363
98.0, -73.98082733154297, -294.5208740234375, 67.86609649658203, 340.3084716796875, -0.06400000303983688, 0.01600000075995922, 1.055999994277954, 0.0, 0.0, 0.0, 0.0, 0.0, 1.6212700133958352E9, 2021-05-17 18:46:53.395
98.0, -62.01314926147461, -286.00885009765625, 65.58849334716797, 353.1026611328125, -0.06400000303983688, 0.01600000075995922, 1.055999994277954, 0.0, 0.0, 0.0, 0.0, 0.0, 1.6212700133958352E9, 2021-05-17 18:46:53.395
99.0, -79.26531219482422, -292.2095947265625, 75.17012023925781, 344.75518798828125, -0.06400000303983688, 0.01600000075995922, 1.055999994277954, 0.0, 0.0, 0.0, 0.0, 0.0, 1.6212700133967125E9, 2021-05-17 18:46:53.396
99.0, -81.00062561035156, -304.5550231933594, 73.73025512695312, 326.3810729980469, -0.06400000303983688, 0.01600000075995922, 1.055999994277954, 0.0, 0.0, 0.0, 0.0, 0.0, 1.6212700133967125E9, 2021-05-17 18:46:53.396
100.0, -71.55363464355469, -291.7645568847656, 62.94064712524414, 339.09674072265625, -0.06400000303983688, 0.01600000075995922, 1.055999994277954, 0.0, 0.0, 0.0, 0.0, 0.0, 1.6212700133973963E9, 2021-05-17 18:46:53.397
100.0, -67.40234375, -291.4354553222656, 65.36035919189453, 347.0328063964844, -0.06400000303983688, 0.01600000075995922, 1.055999994277954, 0.0, 0.0, 0.0, 0.0, 0.0, 1.6212700133973963E9, 2021-05-17 18:46:53.397
0.0, -70.47467803955078, -299.1471252441406, 71.74063110351562, 333.8702087402344, -0.06400000303983688, 0.01600000075995922, 1.055999994277954, 0.0, 0.0, 0.0, 0.0, 0.0, 1.621270013398045E9, 2021-05-17 18:46:53.398
1.0, -72.7896728515625, -310.8941345214844, 76.7520980834961, 328.69793701171875, -0.06400000303983688, 0.01600000075995922, 1.055999994277954, 0.0, 0.0, 0.0, 0.0, 0.0, 1.621270013408796E9, 2021-05-17 18:46:53.408
1.0, -78.79595184326172, -298.8404541015625, 64.57124328613281, 331.2373352050781, -0.06400000303983688, 0.01600000075995922, 1.055999994277954, 0.0, 0.0, 0.0, 0.0, 0.0, 1.621270013408796E9, 2021-05-17 18:46:53.408
2.0, -65.85215759277344, -289.3037109375, 59.62709426879883, 340.1607360839844, -0.06400000303983688, 0.01600000075995922, 1.055999994277954, 0.0, 0.0, 0.0, 0.0, 0.0, 1.6212700134252188E9, 2021-05-17 18:46:53.425
2.0, -67.29949951171875, -300.5271301269531, 69.30221557617188, 325.1600036621094, -0.06400000303983688, 0.01600000075995922, 1.055999994277954, 0.0, 0.0, 0.0, 0.0, 0.0, 1.6212700134252188E9, 2021-05-17 18:46:53.425
3.0, -79.31205749511719, -311.3578796386719, 75.34589385986328, 316.7601623535156, -0.06400000303983688, 0.01600000075995922, 1.055999994277954, 0.0, 0.0, 0.0, 0.0, 0.0, 1.6212700134259973E9, 2021-05-17 18:46:53.425
3.0, -69.08717346191406, -302.0231018066406, 62.0318489074707, 324.99169921875, -0.06400000303983688, 0.01600000075995922, 1.055999994277954, 0.0, 0.0, 0.0, 0.0, 0.0, 1.6212700134259973E9, 2021-05-17 18:46:53.425
4.0, -63.70919418334961, -284.8681945800781, 60.57328796386719, 337.2585754394531, -0.06400000303983688, 0.01600000075995922, 1.055999994277954, 0.0, 0.0, 0.0, 0.0, 0.0, 1.621270013438845E9, 2021-05-17 18:46:53.438
4.0, -75.52728271484375, -298.0775146484375, 72.7017822265625, 329.9208984375, -0.06400000303983688, 0.01600000075995922, 1.055999994277954, 0.0, 0.0, 0.0, 0.0, 0.0, 1.621270013438845E9, 2021-05-17 18:46:53.438
5.0, -77.9469985961914, -310.84552001953125, 69.40693664550781, 317.26507568359375, -0.06400000303983688, 0.01600000075995922, 1.055999994277954, 0.0, 0.0, 0.0, 0.0, 0.0, 1.621270013454388E9, 2021-05-17 18:46:53.454
5.0, -72.0865707397461, -297.0116271972656, 65.14718627929688, 327.41888427734375, -0.06400000303983688, 0.01600000075995922, 1.055999994277954, 0.0, 0.0, 0.0, 0.0, 0.0, 1.621270013454388E9, 2021-05-17 18:46:53.454
6.0, -63.04723358154297, -287.332763671875, 66.05224609375, 341.3462829589844, -0.06400000303983688, 0.01600000075995922, 1.055999994277954, 0.0, 0.0, 0.0, 0.0, 0.0, 1.6212700134694679E9, 2021-05-17 18:46:53.469
6.0, -60.24979019165039, -293.2904357910156, 76.0115966796875, 331.4018859863281, -0.06400000303983688, 0.01600000075995922, 1.055999994277954, 0.0, 0.0, 0.0, 0.0, 0.0, 1.6212700134694679E9, 2021-05-17 18:46:53.469
7.0, -72.22494506835938, -305.6620178222656, 78.04984283447266, 323.4658203125, -0.06400000303983688, 0.01600000075995922, 1.055999994277954, 0.0, 0.0, 0.0, 0.0, 0.0, 1.6212700134702852E9, 2021-05-17 18:46:53.470
7.0, -76.8848648071289, -291.9178771972656, 62.92942810058594, 335.0557556152344, -0.06400000303983688, 0.01600000075995922, 1.055999994277954, 0.0, 0.0, 0.0, 0.0, 0.0, 1.6212700134702852E9, 2021-05-17 18:46:53.470
8.0, -64.38237762451172, -284.36328125, 66.96477508544922, 347.19549560546875, -0.06400000303983688, 0.01600000075995922, 1.055999994277954, 0.0, 0.0, 0.0, 0.0, 0.0, 1.621270013484467E9, 2021-05-17 18:46:53.484
8.0, -59.976776123046875, -284.3371276855469, 79.79637908935547, 343.571533203125, -0.06400000303983688, 0.01600000075995922, 1.055999994277954, 0.0, 0.0, 0.0, 0.0, 0.0, 1.621270013484467E9, 2021-05-17 18:46:53.484
9.0, -73.29830169677734, -301.8174133300781, 77.49259948730469, 323.8023986816406, -0.06400000303983688, 0.01600000075995922, 1.055999994277954, 0.0, 0.0, 0.0, 0.0, 0.0, 1.62127001348519E9, 2021-05-17 18:46:53.485
9.0, -66.34208679199219, -292.0525207519531, 67.18169403076172, 337.65875244140625, -0.06400000303983688, 0.01600000075995922, 1.055999994277954, 0.0, 0.0, 0.0, 0.0, 0.0, 1.62127001348519E9, 2021-05-17 18:46:53.485
10.0, -62.703163146972656, -283.3236083984375, 67.34624481201172, 345.9725341796875, -0.06400000303983688, 0.01600000075995922, 1.055999994277954, 0.0, 0.0, 0.0, 0.0, 0.0, 1.6212700134987812E9, 2021-05-17 18:46:53.498
10.0, -64.13554382324219, -296.4356994628906, 78.67066192626953, 332.0526123046875, -0.06400000303983688, 0.01600000075995922, 1.055999994277954, 0.0, 0.0, 0.0, 0.0, 0.0, 1.6212700134987812E9, 2021-05-17 18:46:53.498
11.0, -75.98728942871094, -304.4390869140625, 77.99374389648438, 324.4456787109375, -0.06400000303983688, 0.01600000075995922, 1.055999994277954, 0.0, 0.0, 0.0, 0.0, 0.0, 1.621270013514844E9, 2021-05-17 18:46:53.514
11.0, -78.03301239013672, -295.7176208496094, 62.82844924926758, 332.1087341308594, -0.06400000303983688, 0.01600000075995922, 1.055999994277954, 0.0, 0.0, 0.0, 0.0, 0.0, 1.621270013514844E9, 2021-05-17 18:46:53.514
12.0, -64.78254699707031, -289.43084716796875, 57.0316047668457, 337.2884826660156, -0.06400000303983688, 0.01600000075995922, 1.055999994277954, 0.0, 0.0, 0.0, 0.0, 0.0, 1.6212700135295157E9, 2021-05-17 18:46:53.529
12.0, -68.03251647949219, -292.92767333984375, 70.4129638671875, 330.2275695800781, -0.06400000303983688, 0.01600000075995922, 1.055999994277954, 0.0, 0.0, 0.0, 0.0, 0.0, 1.6212700135295157E9, 2021-05-17 18:46:53.529
13.0, -81.1221694946289, -304.31939697265625, 67.58560180664062, 320.6085205078125, -0.06400000303983688, 0.01600000075995922, 1.055999994277954, 0.0, 0.0, 0.0, 0.0, 0.0, 1.621270013530337E9, 2021-05-17 18:46:53.530
13.0, -74.89897918701172, -301.67901611328125, 55.29254913330078, 324.36712646484375, -0.06400000303983688, 0.01600000075995922, 1.055999994277954, 0.0, 0.0, 0.0, 0.0, 0.0, 1.621270013530337E9, 2021-05-17 18:46:53.530
14.0, -64.64791107177734, -290.7734680175781, 63.65122604370117, 332.8492126464844, -0.06400000303983688, 0.01600000075995922, 1.055999994277954, 0.0, 0.0, 0.0, 0.0, 0.0, 1.621270013544479E9, 2021-05-17 18:46:53.544
14.0, -70.63922882080078, -299.9250183105469, 71.65087127685547, 322.8487243652344, -0.06400000303983688, 0.01600000075995922, 1.055999994277954, 0.0, 0.0, 0.0, 0.0, 0.0, 1.621270013544479E9, 2021-05-17 18:46:53.544
15.0, -79.85060119628906, -306.5408935546875, 74.04814910888672, 312.45556640625, -0.06400000303983688, 0.01600000075995922, 1.055999994277954, 0.0, 0.0, 0.0, 0.0, 0.0, 1.6212700135451634E9, 2021-05-17 18:46:53.545
15.0, -79.8543472290039, -292.8940124511719, 61.9383544921875, 321.9212341308594, -0.06400000303983688, 0.01600000075995922, 1.055999994277954, 0.0, 0.0, 0.0, 0.0, 0.0, 1.6212700135451634E9, 2021-05-17 18:46:53.545
16.0, -71.05435943603516, -286.90643310546875, 63.93920135498047, 336.53302001953125, -0.06400000303983688, 0.01600000075995922, 1.055999994277954, 0.0, 0.0, 0.0, 0.0, 0.0, 1.6212700135588825E9, 2021-05-17 18:46:53.558
16.0, -73.80318450927734, -292.0450439453125, 71.00761413574219, 327.9910888671875, -0.06400000303983688, 0.01600000075995922, 1.055999994277954, 0.0, 0.0, 0.0, 0.0, 0.0, 1.6212700135588825E9, 2021-05-17 18:46:53.558
17.0, -74.22579193115234, -300.8487854003906, 68.58789825439453, 317.84100341796875, -0.06400000303983688, 0.01600000075995922, 1.055999994277954, 0.0, 0.0, 0.0, 0.0, 0.0, 1.621270013574906E9, 2021-05-17 18:46:53.574
17.0, -76.51461029052734, -294.116943359375, 57.73096466064453, 324.54290771484375, -0.06400000303983688, 0.01600000075995922, 1.055999994277954, 0.0, 0.0, 0.0, 0.0, 0.0, 1.621270013574906E9, 2021-05-17 18:46:53.574
18.0, -58.19658279418945, -287.9722900390625, 59.275543212890625, 344.88421630859375, -0.06400000303983688, 0.01600000075995922, 1.055999994277954, 0.0, 0.0, 0.0, 0.0, 0.0, 1.621270013589609E9, 2021-05-17 18:46:53.589
18.0, -63.57830047607422, -294.90606689453125, 72.1146240234375, 329.9582824707031, -0.06400000303983688, 0.01600000075995922, 1.055999994277954, 0.0, 0.0, 0.0, 0.0, 0.0, 1.621270013589609E9, 2021-05-17 18:46:53.589
19.0, -77.25511169433594, -298.6871032714844, 75.12149810791016, 322.8300476074219, -0.06400000303983688, 0.01600000075995922, 1.055999994277954, 0.0, 0.0, 0.0, 0.0, 0.0, 1.621270013590331E9, 2021-05-17 18:46:53.590
19.0, -70.17174530029297, -294.5732116699219, 63.247318267822266, 329.4795837402344, -0.06400000303983688, 0.01600000075995922, 1.055999994277954, 0.0, 0.0, 0.0, 0.0, 0.0, 1.621270013590331E9, 2021-05-17 18:46:53.590
20.0, -63.56333923339844, -289.03070068359375, 65.34540557861328, 346.83270263671875, -0.06400000303983688, 0.01600000075995922, 1.055999994277954, 0.0, 0.0, 0.0, 0.0, 0.0, 1.6212700136045215E9, 2021-05-17 18:46:53.604
20.0, -65.78858184814453, -289.7337951660156, 80.25638580322266, 334.9061584472656, -0.06400000303983688, 0.01600000075995922, 1.055999994277954, 0.0, 0.0, 0.0, 0.0, 0.0, 1.6212700136045215E9, 2021-05-17 18:46:53.604
21.0, -84.67133331298828, -302.87579345703125, 84.16831970214844, 328.49224853515625, -0.06400000303983688, 0.01600000075995922, 1.055999994277954, 0.0, 0.0, 0.0, 0.0, 0.0, 1.6212700136052673E9, 2021-05-17 18:46:53.605
21.0, -69.89872741699219, -291.8879699707031, 67.77633666992188, 335.2427673339844, -0.06400000303983688, 0.01600000075995922, 1.055999994277954, 0.0, 0.0, 0.0, 0.0, 0.0, 1.6212700136052673E9, 2021-05-17 18:46:53.605
22.0, -58.697731018066406, -284.2323913574219, 62.476898193359375, 341.9297180175781, -0.06400000303983688, 0.01600000075995922, 1.055999994277954, 0.0, 0.0, 0.0, 0.0, 0.0, 1.6212700136359076E9, 2021-05-17 18:46:53.635
22.0, -62.75926208496094, -295.0032958984375, 74.03318786621094, 335.86358642578125, -0.06400000303983688, 0.01600000075995922, 1.055999994277954, 0.0, 0.0, 0.0, 0.0, 0.0, 1.6212700136359076E9, 2021-05-17 18:46:53.635
23.0, -72.68121337890625, -308.44451904296875, 76.00037384033203, 321.8277282714844, -0.06400000303983688, 0.01600000075995922, 1.055999994277954, 0.0, 0.0, 0.0, 0.0, 0.0, 1.6212700136366136E9, 2021-05-17 18:46:53.636
23.0, -76.85120391845703, -293.8775939941406, 65.54361724853516, 331.8095397949219, -0.06400000303983688, 0.01600000075995922, 1.055999994277954, 0.0, 0.0, 0.0, 0.0, 0.0, 1.6212700136366136E9, 2021-05-17 18:46:53.636
24.0, -66.6263198852539, -285.7171325683594, 63.26975631713867, 347.19549560546875, -0.06400000303983688, 0.01600000075995922, 1.055999994277954, 0.0, 0.0, 0.0, 0.0, 0.0, 1.6212700136373787E9, 2021-05-17 18:46:53.637
24.0, -74.15099334716797, -292.75189208984375, 70.86923217773438, 332.4527893066406, -0.06400000303983688, 0.01600000075995922, 1.055999994277954, 0.0, 0.0, 0.0, 0.0, 0.0, 1.6212700136373787E9, 2021-05-17 18:46:53.637
25.0, -87.42015838623047, -303.5190734863281, 71.05996704101562, 319.2920837402344, -0.06400000303983688, 0.01600000075995922, 1.055999994277954, 0.0, 0.0, 0.0, 0.0, 0.0, 1.6212700136487875E9, 2021-05-17 18:46:53.648
25.0, -78.51920318603516, -295.42218017578125, 59.56351852416992, 330.67633056640625, -0.06400000303983688, 0.01600000075995922, 1.055999994277954, 0.0, 0.0, 0.0, 0.0, 0.0, 1.6212700136487875E9, 2021-05-17 18:46:53.648
26.0, -69.40880584716797, -286.4389343261719, 55.98069381713867, 341.8212585449219, -0.06400000303983688, 0.01600000075995922, 1.055999994277954, 0.0, 0.0, 0.0, 0.0, 0.0, 1.6212700136646743E9, 2021-05-17 18:46:53.664
26.0, -72.01177215576172, -300.5533142089844, 65.63711547851562, 331.9329528808594, -0.06400000303983688, 0.01600000075995922, 1.055999994277954, 0.0, 0.0, 0.0, 0.0, 0.0, 1.6212700136646743E9, 2021-05-17 18:46:53.664
27.0, -79.9740219116211, -306.5745544433594, 66.9385986328125, 318.9106140136719, -0.06400000303983688, 0.01600000075995922, 1.055999994277954, 0.0, 0.0, 0.0, 0.0, 0.0, 1.6212700136653059E9, 2021-05-17 18:46:53.665
27.0, -80.89029693603516, -301.8697509765625, 56.86705017089844, 322.44482421875, -0.06400000303983688, 0.01600000075995922, 1.055999994277954, 0.0, 0.0, 0.0, 0.0, 0.0, 1.6212700136653059E9, 2021-05-17 18:46:53.665
28.0, -68.09609985351562, -292.9725341796875, 51.821922302246094, 340.9124450683594, -0.06400000303983688, 0.01600000075995922, 1.055999994277954, 0.0, 0.0, 0.0, 0.0, 0.0, 1.6212700136952431E9, 2021-05-17 18:46:53.695
28.0, -65.63150787353516, -296.85455322265625, 62.7012939453125, 327.7405090332031, -0.06400000303983688, 0.01600000075995922, 1.055999994277954, 0.0, 0.0, 0.0, 0.0, 0.0, 1.6212700136952431E9, 2021-05-17 18:46:53.695
29.0, -76.25656127929688, -308.0705261230469, 66.7964859008789, 316.6330261230469, -0.06400000303983688, 0.01600000075995922, 1.055999994277954, 0.0, 0.0, 0.0, 0.0, 0.0, 1.621270013696012E9, 2021-05-17 18:46:53.696
29.0, -78.3883056640625, -300.2017822265625, 57.86934280395508, 326.5587158203125, -0.06400000303983688, 0.01600000075995922, 1.055999994277954, 0.0, 0.0, 0.0, 0.0, 0.0, 1.621270013696012E9, 2021-05-17 18:46:53.696
30.0, -70.13434600830078, -289.4458312988281, 56.564117431640625, 343.14892578125, -0.06400000303983688, 0.01600000075995922, 1.055999994277954, 0.0, 0.0, 0.0, 0.0, 0.0, 1.6212700136966891E9, 2021-05-17 18:46:53.696
30.0, -71.45079040527344, -299.4463195800781, 69.526611328125, 333.8403015136719, -0.06400000303983688, 0.01600000075995922, 1.055999994277954, 0.0, 0.0, 0.0, 0.0, 0.0, 1.6212700136966891E9, 2021-05-17 18:46:53.696
31.0, -72.67373657226562, -305.93878173828125, 67.71649932861328, 328.1033020019531, -0.06400000303983688, 0.01600000075995922, 1.055999994277954, 0.0, 0.0, 0.0, 0.0, 0.0, 1.621270013708818E9, 2021-05-17 18:46:53.708
31.0, -71.79486083984375, -305.5647888183594, 56.74363327026367, 333.78045654296875, -0.06400000303983688, 0.01600000075995922, 1.055999994277954, 0.0, 0.0, 0.0, 0.0, 0.0, 1.621270013708818E9, 2021-05-17 18:46:53.708
32.0, -60.34702682495117, -288.5220642089844, 61.231510162353516, 344.2746276855469, -0.06400000303983688, 0.01600000075995922, 1.055999994277954, 0.0, 0.0, 0.0, 0.0, 0.0, 1.6212700137245188E9, 2021-05-17 18:46:53.724
32.0, -68.86651611328125, -297.6062927246094, 65.84281158447266, 331.188720703125, -0.06400000303983688, 0.01600000075995922, 1.055999994277954, 0.0, 0.0, 0.0, 0.0, 0.0, 1.6212700137245188E9, 2021-05-17 18:46:53.724
33.0, -79.2559585571289, -311.6346435546875, 69.10400390625, 316.6479797363281, -0.06400000303983688, 0.01600000075995922, 1.055999994277954, 0.0, 0.0, 0.0, 0.0, 0.0, 1.62127001372532E9, 2021-05-17 18:46:53.725
33.0, -77.09056091308594, -304.2146911621094, 58.54252243041992, 325.71722412109375, -0.06400000303983688, 0.01600000075995922, 1.055999994277954, 0.0, 0.0, 0.0, 0.0, 0.0, 1.62127001372532E9, 2021-05-17 18:46:53.725
34.0, -70.72898864746094, -291.9291076660156, 54.71660614013672, 341.76141357421875, -0.06400000303983688, 0.01600000075995922, 1.055999994277954, 0.0, 0.0, 0.0, 0.0, 0.0, 1.6212700137550993E9, 2021-05-17 18:46:53.755
34.0, -76.2827377319336, -296.02056884765625, 66.77778625488281, 331.012939453125, -0.06400000303983688, 0.01600000075995922, 1.055999994277954, 0.0, 0.0, 0.0, 0.0, 0.0, 1.6212700137550993E9, 2021-05-17 18:46:53.755
35.0, -83.3885498046875, -304.26702880859375, 66.90119934082031, 320.4364929199219, -0.06400000303983688, 0.01600000075995922, 1.055999994277954, 0.0, 0.0, 0.0, 0.0, 0.0, 1.6212700137558663E9, 2021-05-17 18:46:53.755
35.0, -86.10746002197266, -302.449462890625, 56.522979736328125, 324.8907165527344, -0.06400000303983688, 0.01600000075995922, 1.055999994277954, 0.0, 0.0, 0.0, 0.0, 0.0, 1.6212700137558663E9, 2021-05-17 18:46:53.755
36.0, -68.08861541748047, -286.4052734375, 59.372779846191406, 340.8301696777344, -0.06400000303983688, 0.01600000075995922, 1.055999994277954, 0.0, 0.0, 0.0, 0.0, 0.0, 1.621270013756713E9, 2021-05-17 18:46:53.756
36.0, -74.3379898071289, -298.33929443359375, 67.85113525390625, 337.5577697753906, -0.06400000303983688, 0.01600000075995922, 1.055999994277954, 0.0, 0.0, 0.0, 0.0, 0.0, 1.621270013756713E9, 2021-05-17 18:46:53.756
37.0, -82.19551849365234, -312.6743469238281, 69.6500244140625, 319.135009765625, -0.06400000303983688, 0.01600000075995922, 1.055999994277954, 0.0, 0.0, 0.0, 0.0, 0.0, 1.621270013768835E9, 2021-05-17 18:46:53.768
37.0, -79.45417785644531, -304.5849304199219, 60.77898406982422, 322.0970153808594, -0.06400000303983688, 0.01600000075995922, 1.055999994277954, 0.0, 0.0, 0.0, 0.0, 0.0, 1.621270013768835E9, 2021-05-17 18:46:53.768
38.0, -74.2519760131836, -286.4576416015625, 58.703338623046875, 337.5091552734375, -0.06400000303983688, 0.01600000075995922, 1.055999994277954, 0.0, 0.0, 0.0, 0.0, 0.0, 1.621270013784426E9, 2021-05-17 18:46:53.784
38.0, -66.18875122070312, -293.1819763183594, 75.36459350585938, 324.2886047363281, -0.06400000303983688, 0.01600000075995922, 1.055999994277954, 0.0, 0.0, 0.0, 0.0, 0.0, 1.621270013784426E9, 2021-05-17 18:46:53.784
39.0, -74.46514892578125, -301.9632568359375, 81.82340240478516, 318.1065368652344, -0.06400000303983688, 0.01600000075995922, 1.055999994277954, 0.0, 0.0, 0.0, 0.0, 0.0, 1.621270013785158E9, 2021-05-17 18:46:53.785
39.0, -72.15763092041016, -300.1494140625, 69.9305191040039, 326.1248779296875, -0.06400000303983688, 0.01600000075995922, 1.055999994277954, 0.0, 0.0, 0.0, 0.0, 0.0, 1.621270013785158E9, 2021-05-17 18:46:53.785
40.0, -66.33834838867188, -284.31842041015625, 63.71106719970703, 337.10150146484375, -0.06400000303983688, 0.01600000075995922, 1.055999994277954, 0.0, 0.0, 0.0, 0.0, 0.0, 1.6212700138152945E9, 2021-05-17 18:46:53.815
40.0, -62.175838470458984, -290.5378723144531, 77.64219665527344, 336.7275085449219, -0.06400000303983688, 0.01600000075995922, 1.055999994277954, 0.0, 0.0, 0.0, 0.0, 0.0, 1.6212700138152945E9, 2021-05-17 18:46:53.815
41.0, -80.3592300415039, -307.24774169921875, 75.81338500976562, 321.0461120605469, -0.06400000303983688, 0.01600000075995922, 1.055999994277954, 0.0, 0.0, 0.0, 0.0, 0.0, 1.621270013816042E9, 2021-05-17 18:46:53.816
41.0, -78.5752944946289, -299.56597900390625, 62.89576721191406, 329.7039794921875, -0.06400000303983688, 0.01600000075995922, 1.055999994277954, 0.0, 0.0, 0.0, 0.0, 0.0, 1.621270013816042E9, 2021-05-17 18:46:53.816
42.0, -66.39444732666016, -286.7156982421875, 59.74677276611328, 344.7682800292969, -0.06400000303983688, 0.01600000075995922, 1.055999994277954, 0.0, 0.0, 0.0, 0.0, 0.0, 1.6212700138166049E9, 2021-05-17 18:46:53.816
42.0, -66.30094909667969, -292.4564514160156, 73.79009246826172, 336.5404968261719, -0.06400000303983688, 0.01600000075995922, 1.055999994277954, 0.0, 0.0, 0.0, 0.0, 0.0, 1.6212700138166049E9, 2021-05-17 18:46:53.816
43.0, -75.65443420410156, -303.35076904296875, 74.68767547607422, 321.3041687011719, -0.06400000303983688, 0.01600000075995922, 1.055999994277954, 0.0, 0.0, 0.0, 0.0, 0.0, 1.6212700138287404E9, 2021-05-17 18:46:53.828
43.0, -75.93119049072266, -292.1198425292969, 57.3906364440918, 327.8452453613281, -0.06400000303983688, 0.01600000075995922, 1.055999994277954, 0.0, 0.0, 0.0, 0.0, 0.0, 1.6212700138287404E9, 2021-05-17 18:46:53.828
44.0, -75.72175598144531, -286.16217041015625, 60.87248229980469, 336.28619384765625, -0.06400000303983688, 0.01600000075995922, 1.055999994277954, 0.0, 0.0, 0.0, 0.0, 0.0, 1.6212700138448937E9, 2021-05-17 18:46:53.844
44.0, -70.49711608886719, -291.5738220214844, 74.70637512207031, 330.19390869140625, -0.06400000303983688, 0.01600000075995922, 1.055999994277954, 0.0, 0.0, 0.0, 0.0, 0.0, 1.6212700138448937E9, 2021-05-17 18:46:53.844
45.0, -77.76374053955078, -306.8737487792969, 74.1266860961914, 321.1171569824219, -0.06400000303983688, 0.01600000075995922, 1.055999994277954, 0.0, 0.0, 0.0, 0.0, 0.0, 1.6212700138608863E9, 2021-05-17 18:46:53.860
45.0, -77.46454620361328, -300.9908752441406, 63.69984436035156, 329.0420227050781, -0.06400000303983688, 0.01600000075995922, 1.055999994277954, 0.0, 0.0, 0.0, 0.0, 0.0, 1.6212700138608863E9, 2021-05-17 18:46:53.860
46.0, -66.94420623779297, -286.7381286621094, 66.50851440429688, 343.83331298828125, -0.06400000303983688, 0.01600000075995922, 1.055999994277954, 0.0, 0.0, 0.0, 0.0, 0.0, 1.6212700138616772E9, 2021-05-17 18:46:53.861
46.0, -69.21058654785156, -295.7774658203125, 72.578369140625, 331.84320068359375, -0.06400000303983688, 0.01600000075995922, 1.055999994277954, 0.0, 0.0, 0.0, 0.0, 0.0, 1.6212700138616772E9, 2021-05-17 18:46:53.861
47.0, -74.12855529785156, -308.08172607421875, 72.42503356933594, 319.4828186035156, -0.06400000303983688, 0.01600000075995922, 1.055999994277954, 0.0, 0.0, 0.0, 0.0, 0.0, 1.621270013862296E9, 2021-05-17 18:46:53.862
47.0, -78.33220672607422, -298.56744384765625, 64.35807037353516, 329.3411865234375, -0.06400000303983688, 0.01600000075995922, 1.055999994277954, 0.0, 0.0, 0.0, 0.0, 0.0, 1.621270013862296E9, 2021-05-17 18:46:53.862
48.0, -69.62945556640625, -285.42169189453125, 64.608642578125, 341.3238525390625, -0.06400000303983688, 0.01600000075995922, 1.055999994277954, 0.0, 0.0, 0.0, 0.0, 0.0, 1.6212700138737695E9, 2021-05-17 18:46:53.873
48.0, -66.57769775390625, -299.61834716796875, 77.11112976074219, 331.0353698730469, -0.06400000303983688, 0.01600000075995922, 1.055999994277954, 0.0, 0.0, 0.0, 0.0, 0.0, 1.6212700138737695E9, 2021-05-17 18:46:53.873
49.0, -68.47008514404297, -307.2664489746094, 74.88214874267578, 319.95404052734375, -0.06400000303983688, 0.01600000075995922, 1.055999994277954, 0.0, 0.0, 0.0, 0.0, 0.0, 1.6212700138887703E9, 2021-05-17 18:46:53.888
49.0, -68.37284851074219, -297.2135925292969, 62.7312126159668, 321.4574890136719, -0.06400000303983688, 0.01600000075995922, 1.055999994277954, 0.0, 0.0, 0.0, 0.0, 0.0, 1.6212700138887703E9, 2021-05-17 18:46:53.888
50.0, -63.888710021972656, -285.2646179199219, 58.811798095703125, 334.07965087890625, -0.06400000303983688, 0.01600000075995922, 1.055999994277954, 0.0, 0.0, 0.0, 0.0, 0.0, 1.6212700139046304E9, 2021-05-17 18:46:53.904
50.0, -61.869163513183594, -294.47222900390625, 72.95236206054688, 330.9792785644531, -0.06400000303983688, 0.01600000075995922, 1.055999994277954, 0.0, 0.0, 0.0, 0.0, 0.0, 1.6212700139046304E9, 2021-05-17 18:46:53.904
51.0, -76.9222640991211, -301.4209899902344, 75.04296112060547, 315.2866516113281, -0.06400000303983688, 0.01600000075995922, 1.055999994277954, 0.0, 0.0, 0.0, 0.0, 0.0, 1.621270013905285E9, 2021-05-17 18:46:53.905
51.0, -78.22000885009766, -293.30914306640625, 65.12474822998047, 328.114501953125, -0.06400000303983688, 0.01600000075995922, 1.055999994277954, 0.0, 0.0, 0.0, 0.0, 0.0, 1.621270013905285E9, 2021-05-17 18:46:53.905
52.0, -68.50000762939453, -283.97808837890625, 59.518638610839844, 342.3410949707031, -0.06400000303983688, 0.01600000075995922, 1.055999994277954, 0.0, 0.0, 0.0, 0.0, 0.0, 1.6212700139188297E9, 2021-05-17 18:46:53.918
52.0, -75.93492889404297, -288.13311767578125, 72.38763427734375, 339.97747802734375, -0.06400000303983688, 0.01600000075995922, 1.055999994277954, 0.0, 0.0, 0.0, 0.0, 0.0, 1.6212700139188297E9, 2021-05-17 18:46:53.918
53.0, -79.00538635253906, -297.531494140625, 79.56076049804688, 326.00146484375, -0.06400000303983688, 0.01600000075995922, 1.055999994277954, 0.0, 0.0, 0.0, 0.0, 0.0, 1.6212700139345036E9, 2021-05-17 18:46:53.934
53.0, -73.81440734863281, -296.0691833496094, 58.677162170410156, 328.7577819824219, -0.06400000303983688, 0.01600000075995922, 1.055999994277954, 0.0, 0.0, 0.0, 0.0, 0.0, 1.6212700139345036E9, 2021-05-17 18:46:53.934
54.0, -64.33375549316406, -290.571533203125, 59.806610107421875, 335.81121826171875, -0.06400000303983688, 0.01600000075995922, 1.055999994277954, 0.0, 0.0, 0.0, 0.0, 0.0, 1.6212700139352255E9, 2021-05-17 18:46:53.935
54.0, -66.85445404052734, -296.2486877441406, 76.65859985351562, 336.4170837402344, -0.06400000303983688, 0.01600000075995922, 1.055999994277954, 0.0, 0.0, 0.0, 0.0, 0.0, 1.6212700139352255E9, 2021-05-17 18:46:53.935
55.0, -76.95966339111328, -304.8018493652344, 73.33008575439453, 317.3922119140625, -0.06400000303983688, 0.01600000075995922, 1.055999994277954, 0.0, 0.0, 0.0, 0.0, 0.0, 1.6212700139488556E9, 2021-05-17 18:46:53.948
55.0, -79.11384582519531, -298.9638671875, 58.76691818237305, 327.7367858886719, -0.06400000303983688, 0.01600000075995922, 1.055999994277954, 0.0, 0.0, 0.0, 0.0, 0.0, 1.6212700139488556E9, 2021-05-17 18:46:53.948
56.0, -73.57878875732422, -279.4752502441406, 65.3528823852539, 345.4040832519531, -0.06400000303983688, 0.01600000075995922, 1.055999994277954, 0.0, 0.0, 0.0, 0.0, 0.0, 1.6212700139645574E9, 2021-05-17 18:46:53.964
56.0, -69.11334991455078, -290.7585144042969, 71.54615783691406, 331.6449890136719, -0.06400000303983688, 0.01600000075995922, 1.055999994277954, 0.0, 0.0, 0.0, 0.0, 0.0, 1.6212700139645574E9, 2021-05-17 18:46:53.964
57.0, -78.45561981201172, -301.1629333496094, 71.34793853759766, 321.16204833984375, -0.06400000303983688, 0.01600000075995922, 1.055999994277954, 0.0, 0.0, 0.0, 0.0, 0.0, 1.62127001396529E9, 2021-05-17 18:46:53.965
57.0, -74.22579193115234, -295.0893249511719, 62.56665802001953, 332.7482604980469, -0.06400000303983688, 0.01600000075995922, 1.055999994277954, 0.0, 0.0, 0.0, 0.0, 0.0, 1.62127001396529E9, 2021-05-17 18:46:53.965
58.0, -68.38033294677734, -284.3520812988281, 56.73615264892578, 342.2288818359375, -0.06400000303983688, 0.01600000075995922, 1.055999994277954, 0.0, 0.0, 0.0, 0.0, 0.0, 1.6212700139788299E9, 2021-05-17 18:46:53.978
58.0, -61.69712829589844, -291.86553955078125, 71.8341293334961, 335.15673828125, -0.06400000303983688, 0.01600000075995922, 1.055999994277954, 0.0, 0.0, 0.0, 0.0, 0.0, 1.6212700139788299E9, 2021-05-17 18:46:53.978
59.0, -80.74443817138672, -301.0432434082031, 76.47908782958984, 314.0300598144531, -0.06400000303983688, 0.01600000075995922, 1.055999994277954, 0.0, 0.0, 0.0, 0.0, 0.0, 1.621270013994697E9, 2021-05-17 18:46:53.994
59.0, -74.56238555908203, -295.2501525878906, 64.96018981933594, 325.7845458984375, -0.06400000303983688, 0.01600000075995922, 1.055999994277954, 0.0, 0.0, 0.0, 0.0, 0.0, 1.621270013994697E9, 2021-05-17 18:46:53.994
60.0, -64.55067443847656, -283.3722229003906, 66.18688201904297, 341.6903381347656, -0.06400000303983688, 0.01600000075995922, 1.040000081062317, 0.0, 0.0, 0.0, 0.0, 0.0, 1.6212700139952807E9, 2021-05-17 18:46:53.995
60.0, -64.52449035644531, -288.0657958984375, 81.74860382080078, 333.62713623046875, -0.06400000303983688, 0.01600000075995922, 1.040000081062317, 0.0, 0.0, 0.0, 0.0, 0.0, 1.6212700139952807E9, 2021-05-17 18:46:53.995
61.0, -66.68989562988281, -297.5015563964844, 85.87371063232422, 322.5083923339844, -0.06400000303983688, 0.0, 1.040000081062317, 0.0, 0.0, 0.0, 0.0, 0.0, 1.6212700140088415E9, 2021-05-17 18:46:54.008
61.0, -71.35355377197266, -290.0965576171875, 68.28496551513672, 331.7459411621094, -0.06400000303983688, 0.0, 1.040000081062317, 0.0, 0.0, 0.0, 0.0, 0.0, 1.6212700140088415E9, 2021-05-17 18:46:54.008
62.0, -58.293819427490234, -280.1559143066406, 66.74786376953125, 345.8565979003906, -0.06400000303983688, 0.0, 1.040000081062317, 0.0, 0.0, 0.0, 0.0, 0.0, 1.62127001402459E9, 2021-05-17 18:46:54.024
62.0, -54.815711975097656, -286.1247863769531, 80.32743835449219, 340.1083679199219, -0.06400000303983688, 0.0, 1.040000081062317, 0.0, 0.0, 0.0, 0.0, 0.0, 1.62127001402459E9, 2021-05-17 18:46:54.024
63.0, -75.80029296875, -302.5953063964844, 79.0633544921875, 322.9833679199219, -0.06400000303983688, 0.0, 1.040000081062317, 0.0, 0.0, 0.0, 0.0, 0.0, 1.6212700140252814E9, 2021-05-17 18:46:54.025
63.0, -80.11239624023438, -296.6039733886719, 63.76716232299805, 328.87744140625, -0.06400000303983688, 0.0, 1.040000081062317, 0.0, 0.0, 0.0, 0.0, 0.0, 1.6212700140252814E9, 2021-05-17 18:46:54.025
64.0, -72.16510772705078, -282.601806640625, 62.28242492675781, 343.14892578125, -0.06400000303983688, 0.0, 1.040000081062317, 0.0, 0.0, 0.0, 0.0, 0.0, 1.621270014038885E9, 2021-05-17 18:46:54.038
64.0, -70.0558090209961, -290.3546142578125, 80.02450561523438, 336.3348083496094, -0.06400000303983688, 0.0, 1.040000081062317, 0.0, 0.0, 0.0, 0.0, 0.0, 1.621270014038885E9, 2021-05-17 18:46:54.038
65.0, -84.20758819580078, -304.6859130859375, 74.36978149414062, 320.7020263671875, -0.06400000303983688, 0.0, 1.040000081062317, 0.0, 0.0, 0.0, 0.0, 0.0, 1.6212700140544996E9, 2021-05-17 18:46:54.054
65.0, -83.07814025878906, -295.71014404296875, 66.66932678222656, 331.4131164550781, -0.06400000303983688, 0.0, 1.040000081062317, 0.0, 0.0, 0.0, 0.0, 0.0, 1.6212700140544996E9, 2021-05-17 18:46:54.054
66.0, -62.553565979003906, -283.9294738769531, 63.52033233642578, 345.7481384277344, -0.06400000303983688, 0.0, 1.040000081062317, 0.0, 0.0, 0.0, 0.0, 0.0, 1.6212700140552132E9, 2021-05-17 18:46:54.055
66.0, -66.6674575805664, -287.6207580566406, 77.23080444335938, 337.35955810546875, -0.06400000303983688, 0.0, 1.040000081062317, 0.0, 0.0, 0.0, 0.0, 0.0, 1.6212700140552132E9, 2021-05-17 18:46:54.055
67.0, -79.09514617919922, -300.1830749511719, 77.0325927734375, 317.32489013671875, -0.06400000303983688, 0.0, 1.040000081062317, 0.0, 0.0, 0.0, 0.0, 0.0, 1.6212700140687587E9, 2021-05-17 18:46:54.068
67.0, -74.64092254638672, -289.3336181640625, 63.10894012451172, 326.2408142089844, -0.06400000303983688, 0.0, 1.040000081062317, 0.0, 0.0, 0.0, 0.0, 0.0, 1.6212700140687587E9, 2021-05-17 18:46:54.068
68.0, -67.68470764160156, -275.641845703125, 62.79853057861328, 340.1046447753906, -0.06400000303983688, 0.0, 1.040000081062317, 0.0, 0.0, 0.0, 0.0, 0.0, 1.6212700140844543E9, 2021-05-17 18:46:54.084
68.0, -68.2718734741211, -285.5675354003906, 76.8568115234375, 334.075927734375, -0.06400000303983688, 0.0, 1.040000081062317, 0.0, 0.0, 0.0, 0.0, 0.0, 1.6212700140844543E9, 2021-05-17 18:46:54.084
69.0, -79.61125183105469, -297.1462707519531, 79.01473999023438, 316.0870056152344, -0.06400000303983688, 0.0, 1.040000081062317, 0.0, 0.0, 0.0, 0.0, 0.0, 1.6212700140851529E9, 2021-05-17 18:46:54.085
69.0, -68.9936752319336, -291.921630859375, 71.90518951416016, 326.46148681640625, -0.06400000303983688, 0.0, 1.040000081062317, 0.0, 0.0, 0.0, 0.0, 0.0, 1.6212700140851529E9, 2021-05-17 18:46:54.085
70.0, -63.85879135131836, -277.34722900390625, 62.67885208129883, 342.034423828125, -0.06400000303983688, 0.0, 1.055999994277954, 0.0, 0.0, 0.0, 0.0, 0.0, 1.621270014098902E9, 2021-05-17 18:46:54.098
70.0, -58.974483489990234, -288.7950744628906, 74.01074981689453, 332.714599609375, -0.06400000303983688, 0.0, 1.055999994277954, 0.0, 0.0, 0.0, 0.0, 0.0, 1.621270014098902E9, 2021-05-17 18:46:54.098
71.0, -62.1197395324707, -297.59130859375, 76.47908782958984, 319.02655029296875, -0.06400000303983688, 0.01600000075995922, 1.055999994277954, 0.0, 0.0, 0.0, 0.0, 0.0, 1.6212700141145692E9, 2021-05-17 18:46:54.114
71.0, -63.163169860839844, -286.5473937988281, 68.91326904296875, 327.69189453125, -0.06400000303983688, 0.01600000075995922, 1.055999994277954, 0.0, 0.0, 0.0, 0.0, 0.0, 1.6212700141145692E9, 2021-05-17 18:46:54.114
72.0, -55.49263381958008, -277.1901550292969, 69.94174194335938, 345.7967529296875, -0.06400000303983688, 0.01600000075995922, 1.055999994277954, 0.0, 0.0, 0.0, 0.0, 0.0, 1.621270014115192E9, 2021-05-17 18:46:54.115
72.0, -50.53352737426758, -282.5681457519531, 80.72760772705078, 343.055419921875, -0.06400000303983688, 0.01600000075995922, 1.055999994277954, 0.0, 0.0, 0.0, 0.0, 0.0, 1.621270014115192E9, 2021-05-17 18:46:54.115
73.0, -66.0653305053711, -296.2861022949219, 81.12403869628906, 330.57537841796875, -0.06400000303983688, 0.01600000075995922, 1.055999994277954, 0.0, 0.0, 0.0, 0.0, 0.0, 1.62127001412883E9, 2021-05-17 18:46:54.128
73.0, -65.29491424560547, -290.59771728515625, 65.31548309326172, 334.49853515625, -0.06400000303983688, 0.01600000075995922, 1.055999994277954, 0.0, 0.0, 0.0, 0.0, 0.0, 1.62127001412883E9, 2021-05-17 18:46:54.128
74.0, -61.63355255126953, -280.0025634765625, 61.20907211303711, 347.6293029785156, -0.06400000303983688, 0.01600000075995922, 1.055999994277954, 0.0, 0.0, 0.0, 0.0, 0.0, 1.621270014144632E9, 2021-05-17 18:46:54.144
74.0, -66.29346466064453, -288.10693359375, 72.63072967529297, 336.24505615234375, -0.06400000303983688, 0.01600000075995922, 1.055999994277954, 0.0, 0.0, 0.0, 0.0, 0.0, 1.621270014144632E9, 2021-05-17 18:46:54.144
75.0, -81.34656524658203, -304.5437927246094, 68.34854125976562, 318.5777587890625, -0.06400000303983688, 0.01600000075995922, 1.055999994277954, 0.0, 0.0, 0.0, 0.0, 0.0, 1.6212700141452293E9, 2021-05-17 18:46:54.145
75.0, -80.3966293334961, -297.2098388671875, 63.22488021850586, 326.2109069824219, -0.06400000303983688, 0.01600000075995922, 1.055999994277954, 0.0, 0.0, 0.0, 0.0, 0.0, 1.6212700141452293E9, 2021-05-17 18:46:54.145
76.0, -76.06956481933594, -287.6357116699219, 57.128841400146484, 341.7838439941406, -0.06400000303983688, 0.01600000075995922, 1.055999994277954, 0.0, 0.0, 0.0, 0.0, 0.0, 1.621270014158795E9, 2021-05-17 18:46:54.158
76.0, -77.3074722290039, -298.7955627441406, 67.45096588134766, 329.06817626953125, -0.06400000303983688, 0.01600000075995922, 1.055999994277954, 0.0, 0.0, 0.0, 0.0, 0.0, 1.621270014158795E9, 2021-05-17 18:46:54.158
77.0, -81.80657196044922, -306.6792907714844, 73.7003402709961, 315.0921936035156, -0.06400000303983688, 0.01600000075995922, 1.055999994277954, 0.0, 0.0, 0.0, 0.0, 0.0, 1.6212700141745272E9, 2021-05-17 18:46:54.174
77.0, -75.91249084472656, -299.726806640625, 58.55374526977539, 323.45086669921875, -0.06400000303983688, 0.01600000075995922, 1.055999994277954, 0.0, 0.0, 0.0, 0.0, 0.0, 1.6212700141745272E9, 2021-05-17 18:46:54.174
78.0, -67.14990234375, -286.2706298828125, 60.35637664794922, 341.7127990722656, -0.06400000303983688, 0.01600000075995922, 1.055999994277954, 0.0, 0.0, 0.0, 0.0, 0.0, 1.6212700141752632E9, 2021-05-17 18:46:54.175
78.0, -71.15533447265625, -296.22625732421875, 71.20582580566406, 329.3337097167969, -0.06400000303983688, 0.01600000075995922, 1.055999994277954, 0.0, 0.0, 0.0, 0.0, 0.0, 1.6212700141752632E9, 2021-05-17 18:46:54.175
79.0, -71.76493835449219, -311.0138244628906, 76.3332290649414, 317.62408447265625, -0.06400000303983688, 0.01600000075995922, 1.055999994277954, 0.0, 0.0, 0.0, 0.0, 0.0, 1.6212700141887553E9, 2021-05-17 18:46:54.188
79.0, -72.99910736083984, -294.82379150390625, 61.72517776489258, 324.19134521484375, -0.06400000303983688, 0.01600000075995922, 1.055999994277954, 0.0, 0.0, 0.0, 0.0, 0.0, 1.6212700141887553E9, 2021-05-17 18:46:54.188
80.0, -51.34882736206055, -286.2369689941406, 62.84341049194336, 338.2122497558594, -0.06400000303983688, 0.01600000075995922, 1.055999994277954, 0.0, 0.0, 0.0, 0.0, 0.0, 1.6212700142044952E9, 2021-05-17 18:46:54.204
80.0, -59.737422943115234, -293.095947265625, 82.38812255859375, 332.4041748046875, -0.06400000303983688, 0.01600000075995922, 1.055999994277954, 0.0, 0.0, 0.0, 0.0, 0.0, 1.6212700142044952E9, 2021-05-17 18:46:54.204
81.0, -69.8201904296875, -303.0964660644531, 81.47559356689453, 321.16204833984375, -0.06400000303983688, 0.01600000075995922, 1.055999994277954, 0.0, 0.0, 0.0, 0.0, 0.0, 1.6212700142052362E9, 2021-05-17 18:46:54.205
81.0, -61.29322052001953, -294.8462219238281, 78.14707946777344, 333.6346130371094, -0.06400000303983688, 0.01600000075995922, 1.055999994277954, 0.0, 0.0, 0.0, 0.0, 0.0, 1.6212700142052362E9, 2021-05-17 18:46:54.205
82.0, -59.17643737792969, -281.4349365234375, 76.60997772216797, 352.0947570800781, -0.06400000303983688, 0.01600000075995922, 1.055999994277954, 0.0, 0.0, 0.0, 0.0, 0.0, 1.6212700142187462E9, 2021-05-17 18:46:54.218
82.0, -54.06025314331055, -286.42022705078125, 88.8992919921875, 343.1077575683594, -0.06400000303983688, 0.01600000075995922, 1.055999994277954, 0.0, 0.0, 0.0, 0.0, 0.0, 1.6212700142187462E9, 2021-05-17 18:46:54.218
83.0, -58.52569580078125, -297.10137939453125, 89.3031997680664, 328.3501281738281, -0.06400000303983688, 0.01600000075995922, 1.055999994277954, 0.0, 0.0, 0.0, 0.0, 0.0, 1.6212700142344952E9, 2021-05-17 18:46:54.234
83.0, -62.830318450927734, -287.7478942871094, 77.24950408935547, 339.37908935546875, -0.06400000303983688, 0.01600000075995922, 1.055999994277954, 0.0, 0.0, 0.0, 0.0, 0.0, 1.6212700142344952E9, 2021-05-17 18:46:54.234
84.0, -56.70062255859375, -276.8348693847656, 72.04730224609375, 347.281494140625, -0.06400000303983688, 0.01600000075995922, 1.055999994277954, 0.0, 0.0, 0.0, 0.0, 0.0, 1.6212700142352E9, 2021-05-17 18:46:54.235
84.0, -60.350765228271484, -284.2884826660156, 80.30500030517578, 341.79132080078125, -0.06400000303983688, 0.01600000075995922, 1.055999994277954, 0.0, 0.0, 0.0, 0.0, 0.0, 1.6212700142352E9, 2021-05-17 18:46:54.235
85.0, -67.36307525634766, -300.3999938964844, 80.29378509521484, 326.2819519042969, -0.06400000303983688, 0.01600000075995922, 1.055999994277954, 0.0, 0.0, 0.0, 0.0, 0.0, 1.6212700142489624E9, 2021-05-17 18:46:54.248
85.0, -73.50773620605469, -297.8942565917969, 63.32585525512695, 330.321044921875, -0.06400000303983688, 0.01600000075995922, 1.055999994277954, 0.0, 0.0, 0.0, 0.0, 0.0, 1.6212700142489624E9, 2021-05-17 18:46:54.248
86.0, -68.38407135009766, -290.1825866699219, 64.85173797607422, 341.9184875488281, -0.06400000303983688, 0.01600000075995922, 1.055999994277954, 0.0, 0.0, 0.0, 0.0, 0.0, 1.6212700142816155E9, 2021-05-17 18:46:54.281
86.0, -68.85155487060547, -298.47393798828125, 74.6278305053711, 336.001953125, -0.06400000303983688, 0.01600000075995922, 1.055999994277954, 0.0, 0.0, 0.0, 0.0, 0.0, 1.6212700142816155E9, 2021-05-17 18:46:54.281
87.0, -74.93263244628906, -308.3883972167969, 70.45784759521484, 320.9114685058594, -0.06400000303983688, 0.01600000075995922, 1.055999994277954, 0.0, 0.0, 0.0, 0.0, 0.0, 1.6212700142824435E9, 2021-05-17 18:46:54.282
87.0, -80.73322296142578, -301.10308837890625, 63.49040985107422, 327.6432800292969, -0.06400000303983688, 0.01600000075995922, 1.055999994277954, 0.0, 0.0, 0.0, 0.0, 0.0, 1.6212700142824435E9, 2021-05-17 18:46:54.282
88.0, -66.93672943115234, -291.1213073730469, 63.41561508178711, 344.1474609375, -0.06400000303983688, 0.01600000075995922, 1.055999994277954, 0.0, 0.0, 0.0, 0.0, 0.0, 1.6212700142831633E9, 2021-05-17 18:46:54.283
88.0, -70.46345520019531, -297.71099853515625, 74.76246643066406, 335.8186950683594, -0.06400000303983688, 0.01600000075995922, 1.055999994277954, 0.0, 0.0, 0.0, 0.0, 0.0, 1.6212700142831633E9, 2021-05-17 18:46:54.283
89.0, -75.19816589355469, -312.098388671875, 69.82954406738281, 324.898193359375, -0.06400000303983688, 0.01600000075995922, 1.055999994277954, 0.0, 0.0, 0.0, 0.0, 0.0, 1.6212700142837727E9, 2021-05-17 18:46:54.283
89.0, -71.87339782714844, -304.3829650878906, 57.23729705810547, 328.1182556152344, -0.06400000303983688, 0.01600000075995922, 1.055999994277954, 0.0, 0.0, 0.0, 0.0, 0.0, 1.6212700142837727E9, 2021-05-17 18:46:54.283
90.0, -65.44824981689453, -284.19500732421875, 61.36240768432617, 350.6511535644531, -0.06400000303983688, 0.01600000075995922, 1.055999994277954, 0.0, 0.0, 0.0, 0.0, 0.0, 1.621270014293812E9, 2021-05-17 18:46:54.293
90.0, -68.72440338134766, -292.7294616699219, 68.09423065185547, 338.3094787597656, -0.06400000303983688, 0.01600000075995922, 1.055999994277954, 0.0, 0.0, 0.0, 0.0, 0.0, 1.621270014293812E9, 2021-05-17 18:46:54.293
91.0, -73.77326965332031, -300.1419372558594, 75.20751953125, 326.9813232421875, -0.06400000303983688, 0.01600000075995922, 1.055999994277954, 0.0, 0.0, 0.0, 0.0, 0.0, 1.6212700143088746E9, 2021-05-17 18:46:54.308
91.0, -70.62801361083984, -295.9607238769531, 65.12848663330078, 331.09893798828125, -0.06400000303983688, 0.01600000075995922, 1.055999994277954, 0.0, 0.0, 0.0, 0.0, 0.0, 1.6212700143088746E9, 2021-05-17 18:46:54.308
92.0, -56.03866195678711, -285.0925598144531, 67.63422393798828, 344.8243713378906, -0.06400000303983688, 0.01600000075995922, 1.055999994277954, 0.0, 0.0, 0.0, 0.0, 0.0, 1.621270014324459E9, 2021-05-17 18:46:54.324
92.0, -58.013328552246094, -286.3678894042969, 84.26555633544922, 343.6874694824219, -0.06400000303983688, 0.01600000075995922, 1.055999994277954, 0.0, 0.0, 0.0, 0.0, 0.0, 1.621270014324459E9, 2021-05-17 18:46:54.324
93.0, -69.24050903320312, -299.7230529785156, 83.0762710571289, 328.0247497558594, -0.06400000303983688, 0.01600000075995922, 1.055999994277954, 0.0, 0.0, 0.0, 0.0, 0.0, 1.6212700143251767E9, 2021-05-17 18:46:54.325
93.0, -71.13663482666016, -293.75042724609375, 69.82205963134766, 335.0931701660156, -0.06400000303983688, 0.01600000075995922, 1.055999994277954, 0.0, 0.0, 0.0, 0.0, 0.0, 1.6212700143251767E9, 2021-05-17 18:46:54.325
94.0, -60.44426345825195, -278.67864990234375, 69.2087173461914, 349.5628356933594, -0.06400000303983688, 0.01600000075995922, 1.055999994277954, 0.0, 0.0, 0.0, 0.0, 0.0, 1.6212700143388965E9, 2021-05-17 18:46:54.338
94.0, -62.366573333740234, -290.3583679199219, 75.62638854980469, 341.0470886230469, -0.06400000303983688, 0.01600000075995922, 1.055999994277954, 0.0, 0.0, 0.0, 0.0, 0.0, 1.6212700143388965E9, 2021-05-17 18:46:54.338
95.0, -68.09236145019531, -301.3424377441406, 78.31163787841797, 323.3797912597656, -0.06400000303983688, 0.01600000075995922, 1.055999994277954, 0.0, 0.0, 0.0, 0.0, 0.0, 1.6212700143544338E9, 2021-05-17 18:46:54.354
95.0, -70.74020385742188, -291.592529296875, 63.68114471435547, 334.4349365234375, -0.06400000303983688, 0.01600000075995922, 1.055999994277954, 0.0, 0.0, 0.0, 0.0, 0.0, 1.6212700143544338E9, 2021-05-17 18:46:54.354
96.0, -57.31022644042969, -287.519775390625, 61.88973617553711, 346.3502502441406, -0.06400000303983688, 0.01600000075995922, 1.055999994277954, 0.0, 0.0, 0.0, 0.0, 0.0, 1.6212700143551457E9, 2021-05-17 18:46:54.355
96.0, -54.83441162109375, -298.7955627441406, 73.84245300292969, 336.5218200683594, -0.06400000303983688, 0.01600000075995922, 1.055999994277954, 0.0, 0.0, 0.0, 0.0, 0.0, 1.6212700143551457E9, 2021-05-17 18:46:54.355
97.0, -65.76239776611328, -309.11395263671875, 76.06395721435547, 323.2900390625, -0.06400000303983688, 0.01600000075995922, 1.055999994277954, 0.0, 0.0, 0.0, 0.0, 0.0, 1.6212700143688548E9, 2021-05-17 18:46:54.368
97.0, -73.35813903808594, -301.076904296875, 66.28411865234375, 330.9231872558594, -0.06400000303983688, 0.01600000075995922, 1.055999994277954, 0.0, 0.0, 0.0, 0.0, 0.0, 1.6212700143688548E9, 2021-05-17 18:46:54.368
98.0, -62.987396240234375, -288.1144104003906, 60.894920349121094, 346.05108642578125, -0.06400000303983688, 0.01600000075995922, 1.055999994277954, 0.0, 0.0, 0.0, 0.0, 0.0, 1.62127001438511E9, 2021-05-17 18:46:54.385
98.0, -65.37718963623047, -292.9837646484375, 64.80311584472656, 332.4228820800781, -0.06400000303983688, 0.01600000075995922, 1.055999994277954, 0.0, 0.0, 0.0, 0.0, 0.0, 1.62127001438511E9, 2021-05-17 18:46:54.385
99.0, -78.8109130859375, -304.7046203613281, 67.10689544677734, 320.7207336425781, -0.06400000303983688, 0.01600000075995922, 1.055999994277954, 0.0, 0.0, 0.0, 0.0, 0.0, 1.6212700143859005E9, 2021-05-17 18:46:54.385
99.0, -68.12227630615234, -301.0170593261719, 63.03788375854492, 331.87310791015625, -0.06400000303983688, 0.01600000075995922, 1.055999994277954, 0.0, 0.0, 0.0, 0.0, 0.0, 1.6212700143859005E9, 2021-05-17 18:46:54.385
100.0, -61.44281768798828, -291.6000061035156, 59.847747802734375, 344.3643798828125, -0.06400000303983688, 0.01600000075995922, 1.055999994277954, 0.0, 0.0, 0.0, 0.0, 0.0, 1.6212700143996787E9, 2021-05-17 18:46:54.399
100.0, -63.51845932006836, -297.9353942871094, 75.46183013916016, 334.9323425292969, -0.06400000303983688, 0.01600000075995922, 1.055999994277954, 0.0, 0.0, 0.0, 0.0, 0.0, 1.6212700143996787E9, 2021-05-17 18:46:54.399
0.0, -72.69056701660156, -307.5020446777344, 77.56365203857422, 321.6070861816406, -0.06400000303983688, 0.01600000075995922, 1.055999994277954, 0.0, 0.0, 0.0, 0.0, 0.0, 1.6212700144003956E9, 2021-05-17 18:46:54.400
1.0, -69.13765716552734, -296.7498474121094, 66.88623809814453, 327.30670166015625, -0.06400000303983688, 0.01600000075995922, 1.055999994277954, 0.0, 0.0, 0.0, 0.0, 0.0, 1.6212700144137356E9, 2021-05-17 18:46:54.413
1.0, -57.992759704589844, -288.45098876953125, 65.78671264648438, 346.4437561035156, -0.06400000303983688, 0.01600000075995922, 1.055999994277954, 0.0, 0.0, 0.0, 0.0, 0.0, 1.6212700144137356E9, 2021-05-17 18:46:54.413
2.0, -61.912174224853516, -292.097412109375, 77.47016143798828, 338.8143615722656, -0.06400000303983688, 0.01600000075995922, 1.055999994277954, 0.0, 0.0, 0.0, 0.0, 0.0, 1.6212700144459748E9, 2021-05-17 18:46:54.445
2.0, -73.64424133300781, -302.4158020019531, 78.12837982177734, 325.6237487792969, -0.06400000303983688, 0.01600000075995922, 1.055999994277954, 0.0, 0.0, 0.0, 0.0, 0.0, 1.6212700144459748E9, 2021-05-17 18:46:54.445
3.0, -78.03861999511719, -300.3476257324219, 61.50452423095703, 330.9418640136719, -0.06400000303983688, 0.01600000075995922, 1.055999994277954, 0.0, 0.0, 0.0, 0.0, 0.0, 1.621270014446657E9, 2021-05-17 18:46:54.446
3.0, -65.25564575195312, -284.91680908203125, 62.667633056640625, 345.8865051269531, -0.06400000303983688, 0.01600000075995922, 1.055999994277954, 0.0, 0.0, 0.0, 0.0, 0.0, 1.621270014446657E9, 2021-05-17 18:46:54.446
4.0, -66.94982147216797, -292.766845703125, 72.52600860595703, 333.3915100097656, -0.06400000303983688, 0.01600000075995922, 1.055999994277954, 0.0, 0.0, 0.0, 0.0, 0.0, 1.6212700144473832E9, 2021-05-17 18:46:54.447
4.0, -83.22212219238281, -300.58697509765625, 75.92183685302734, 323.4209289550781, -0.06400000303983688, 0.01600000075995922, 1.055999994277954, 0.0, 0.0, 0.0, 0.0, 0.0, 1.6212700144473832E9, 2021-05-17 18:46:54.447
5.0, -76.62120056152344, -293.35028076171875, 64.86669158935547, 330.1752014160156, -0.06400000303983688, 0.01600000075995922, 1.055999994277954, 0.0, 0.0, 0.0, 0.0, 0.0, 1.62127001444813E9, 2021-05-17 18:46:54.448
5.0, -62.144046783447266, -280.32794189453125, 57.81698226928711, 345.8827819824219, -0.06400000303983688, 0.01600000075995922, 1.055999994277954, 0.0, 0.0, 0.0, 0.0, 0.0, 1.62127001444813E9, 2021-05-17 18:46:54.448
6.0, -59.350341796875, -283.3834533691406, 72.82894134521484, 336.1553039550781, -0.06400000303983688, 0.01600000075995922, 1.055999994277954, 0.0, 0.0, 0.0, 0.0, 0.0, 1.6212700144587672E9, 2021-05-17 18:46:54.458
6.0, -73.17675018310547, -304.49517822265625, 76.04525756835938, 322.373779296875, -0.06400000303983688, 0.01600000075995922, 1.055999994277954, 0.0, 0.0, 0.0, 0.0, 0.0, 1.6212700144587672E9, 2021-05-17 18:46:54.458
7.0, -77.27194213867188, -298.8778381347656, 64.19725036621094, 331.3869323730469, -0.06400000303983688, 0.01600000075995922, 1.055999994277954, 0.0, 0.0, 0.0, 0.0, 0.0, 1.6212700144738584E9, 2021-05-17 18:46:54.473
7.0, -65.56231689453125, -288.5332946777344, 55.93207550048828, 346.2118835449219, -0.06400000303983688, 0.01600000075995922, 1.055999994277954, 0.0, 0.0, 0.0, 0.0, 0.0, 1.6212700144738584E9, 2021-05-17 18:46:54.473
8.0, -66.41875457763672, -293.952392578125, 70.83183288574219, 340.71051025390625, -0.06400000303983688, 0.01600000075995922, 1.055999994277954, 0.0, 0.0, 0.0, 0.0, 0.0, 1.6212700144894629E9, 2021-05-17 18:46:54.489
8.0, -78.73050689697266, -303.7135314941406, 69.55652618408203, 330.5566711425781, -0.06400000303983688, 0.01600000075995922, 1.055999994277954, 0.0, 0.0, 0.0, 0.0, 0.0, 1.6212700144894629E9, 2021-05-17 18:46:54.489
9.0, -72.39884948730469, -297.7371826171875, 68.83098602294922, 338.1075134277344, -0.06400000303983688, 0.01600000075995922, 1.055999994277954, 0.0, 0.0, 0.0, 0.0, 0.0, 1.6212700144901454E9, 2021-05-17 18:46:54.490
9.0, -63.5465087890625, -284.81207275390625, 64.05139923095703, 350.94659423828125, -0.06400000303983688, 0.01600000075995922, 1.055999994277954, 0.0, 0.0, 0.0, 0.0, 0.0, 1.6212700144901454E9, 2021-05-17 18:46:54.490
10.0, -56.55289840698242, -290.4817810058594, 77.11860656738281, 347.633056640625, -0.06400000303983688, 0.01600000075995922, 1.055999994277954, 0.0, 0.0, 0.0, 0.0, 0.0, 1.621270014503785E9, 2021-05-17 18:46:54.503
10.0, -74.26132202148438, -313.6841125488281, 76.56136322021484, 323.9632263183594, -0.06400000303983688, 0.01600000075995922, 1.055999994277954, 0.0, 0.0, 0.0, 0.0, 0.0, 1.621270014503785E9, 2021-05-17 18:46:54.503
11.0, -66.80770111083984, -301.6042175292969, 66.95355987548828, 332.796875, -0.06400000303983688, 0.01600000075995922, 1.055999994277954, 0.0, 0.0, 0.0, 0.0, 0.0, 1.6212700145197096E9, 2021-05-17 18:46:54.519
11.0, -53.77415084838867, -289.0680847167969, 66.72542572021484, 345.1572265625, -0.06400000303983688, 0.01600000075995922, 1.055999994277954, 0.0, 0.0, 0.0, 0.0, 0.0, 1.6212700145197096E9, 2021-05-17 18:46:54.519
12.0, -60.012306213378906, -301.3125305175781, 73.87611389160156, 337.69989013671875, -0.06400000303983688, 0.01600000075995922, 1.055999994277954, 0.0, 0.0, 0.0, 0.0, 0.0, 1.6212700145201416E9, 2021-05-17 18:46:54.520
12.0, -68.4046401977539, -310.8230895996094, 78.04610443115234, 317.64654541015625, -0.06400000303983688, 0.01600000075995922, 1.055999994277954, 0.0, 0.0, 0.0, 0.0, 0.0, 1.6212700145201416E9, 2021-05-17 18:46:54.520
13.0, -68.81977081298828, -301.6565856933594, 64.67970275878906, 325.13006591796875, -0.06400000303983688, 0.01600000075995922, 1.055999994277954, 0.0, 0.0, 0.0, 0.0, 0.0, 1.6212700145338955E9, 2021-05-17 18:46:54.533
13.0, -62.09169006347656, -288.4809265136719, 60.22547912597656, 339.07989501953125, -0.06400000303983688, 0.01600000075995922, 1.055999994277954, 0.0, 0.0, 0.0, 0.0, 0.0, 1.6212700145338955E9, 2021-05-17 18:46:54.533
14.0, -62.491859436035156, -299.06109619140625, 67.40234375, 326.0874938964844, -0.06400000303983688, 0.01600000075995922, 1.055999994277954, 0.0, 0.0, 0.0, 0.0, 0.0, 1.6212700145496E9, 2021-05-17 18:46:54.549
14.0, -82.41804504394531, -297.61749267578125, 77.45893859863281, 318.6076965332031, -0.06400000303983688, 0.01600000075995922, 1.055999994277954, 0.0, 0.0, 0.0, 0.0, 0.0, 1.6212700145496E9, 2021-05-17 18:46:54.549
15.0, -74.71385192871094, -296.59649658203125, 63.41935348510742, 324.3484191894531, -0.06400000303983688, 0.01600000075995922, 1.055999994277954, 0.0, 0.0, 0.0, 0.0, 0.0, 1.6212700145501897E9, 2021-05-17 18:46:54.550
15.0, -65.50247955322266, -284.43060302734375, 61.998191833496094, 337.6437683105469, -0.06400000303983688, 0.01600000075995922, 1.055999994277954, 0.0, 0.0, 0.0, 0.0, 0.0, 1.6212700145501897E9, 2021-05-17 18:46:54.550
16.0, -63.69984436035156, -285.653564453125, 74.43709564208984, 336.54425048828125, -0.06400000303983688, 0.01600000075995922, 1.055999994277954, 0.0, 0.0, 0.0, 0.0, 0.0, 1.621270014563986E9, 2021-05-17 18:46:54.563
16.0, -79.67295837402344, -300.0895690917969, 79.40742492675781, 320.7132568359375, -0.06400000303983688, 0.01600000075995922, 1.055999994277954, 0.0, 0.0, 0.0, 0.0, 0.0, 1.621270014563986E9, 2021-05-17 18:46:54.563
17.0, -74.21644592285156, -294.0982666015625, 65.15840911865234, 327.0523681640625, -0.06400000303983688, 0.01600000075995922, 1.055999994277954, 0.0, 0.0, 0.0, 0.0, 0.0, 1.6212700145795572E9, 2021-05-17 18:46:54.579
17.0, -65.68199157714844, -284.1800231933594, 58.527565002441406, 340.7965087890625, -0.06400000303983688, 0.01600000075995922, 1.055999994277954, 0.0, 0.0, 0.0, 0.0, 0.0, 1.6212700145795572E9, 2021-05-17 18:46:54.579
18.0, -66.65436553955078, -285.7956848144531, 75.98542022705078, 339.5249328613281, -0.06400000303983688, 0.01600000075995922, 1.055999994277954, 0.0, 0.0, 0.0, 0.0, 0.0, 1.621270014580274E9, 2021-05-17 18:46:54.580
18.0, -72.79901885986328, -298.0289001464844, 80.04320526123047, 327.7068786621094, -0.06400000303983688, 0.01600000075995922, 1.055999994277954, 0.0, 0.0, 0.0, 0.0, 0.0, 1.621270014580274E9, 2021-05-17 18:46:54.580
19.0, -76.3519287109375, -299.10223388671875, 62.20762634277344, 331.11016845703125, -0.06400000303983688, 0.01600000075995922, 1.055999994277954, 0.0, 0.0, 0.0, 0.0, 0.0, 1.6212700145937636E9, 2021-05-17 18:46:54.593
19.0, -65.10978698730469, -289.68890380859375, 58.239593505859375, 344.7383728027344, -0.06400000303983688, 0.01600000075995922, 1.055999994277954, 0.0, 0.0, 0.0, 0.0, 0.0, 1.6212700145937636E9, 2021-05-17 18:46:54.593
20.0, -69.4667739868164, -295.88592529296875, 71.134765625, 333.8515319824219, -0.06400000303983688, 0.01600000075995922, 1.055999994277954, 0.0, 0.0, 0.0, 0.0, 0.0, 1.6212700146095564E9, 2021-05-17 18:46:54.609
20.0, -79.43360137939453, -302.68505859375, 71.32176208496094, 320.45892333984375, -0.06400000303983688, 0.01600000075995922, 1.055999994277954, 0.0, 0.0, 0.0, 0.0, 0.0, 1.6212700146095564E9, 2021-05-17 18:46:54.609
21.0, -76.34819030761719, -303.67987060546875, 60.98841857910156, 325.6087646484375, -0.06400000303983688, 0.01600000075995922, 1.055999994277954, 0.0, 0.0, 0.0, 0.0, 0.0, 1.6212700146102457E9, 2021-05-17 18:46:54.610
21.0, -68.1241455078125, -289.1204528808594, 58.804317474365234, 342.2475891113281, -0.06400000303983688, 0.01600000075995922, 1.055999994277954, 0.0, 0.0, 0.0, 0.0, 0.0, 1.6212700146102457E9, 2021-05-17 18:46:54.610
22.0, -62.06924819946289, -295.8709716796875, 72.43624877929688, 338.9228210449219, -0.06400000303983688, 0.01600000075995922, 1.055999994277954, 0.0, 0.0, 0.0, 0.0, 0.0, 1.621270014623746E9, 2021-05-17 18:46:54.623
22.0, -80.38353729248047, -310.6884460449219, 72.74292755126953, 313.8430480957031, -0.06400000303983688, 0.01600000075995922, 1.055999994277954, 0.0, 0.0, 0.0, 0.0, 0.0, 1.621270014623746E9, 2021-05-17 18:46:54.623
23.0, -73.50212097167969, -299.34906005859375, 63.70732498168945, 324.7972106933594, -0.06400000303983688, 0.01600000075995922, 1.055999994277954, 0.0, 0.0, 0.0, 0.0, 0.0, 1.6212700146395876E9, 2021-05-17 18:46:54.639
23.0, -68.74871063232422, -283.25628662109375, 59.93376541137695, 333.6907043457031, -0.06400000303983688, 0.01600000075995922, 1.055999994277954, 0.0, 0.0, 0.0, 0.0, 0.0, 1.6212700146395876E9, 2021-05-17 18:46:54.639
24.0, -67.61177825927734, -287.71051025390625, 70.43540954589844, 329.70770263671875, -0.06400000303983688, 0.01600000075995922, 1.055999994277954, 0.0, 0.0, 0.0, 0.0, 0.0, 1.621270014640196E9, 2021-05-17 18:46:54.640
24.0, -70.13621520996094, -298.4926452636719, 78.29667663574219, 313.8355712890625, -0.06400000303983688, 0.01600000075995922, 1.055999994277954, 0.0, 0.0, 0.0, 0.0, 0.0, 1.621270014640196E9, 2021-05-17 18:46:54.640
25.0, -75.11775970458984, -290.3433837890625, 68.7861099243164, 326.9925537109375, -0.06400000303983688, 0.01600000075995922, 1.055999994277954, 0.0, 0.0, 0.0, 0.0, 0.0, 1.6212700146538205E9, 2021-05-17 18:46:54.653
25.0, -59.95246505737305, -278.62628173828125, 60.69296646118164, 337.18377685546875, -0.06400000303983688, 0.01600000075995922, 1.055999994277954, 0.0, 0.0, 0.0, 0.0, 0.0, 1.6212700146538205E9, 2021-05-17 18:46:54.653
26.0, -66.27289581298828, -283.93695068359375, 72.9411392211914, 328.8363037109375, -0.06400000303983688, 0.01600000075995922, 1.055999994277954, 0.0, 0.0, 0.0, 0.0, 0.0, 1.6212700146694613E9, 2021-05-17 18:46:54.669
26.0, -67.15550994873047, -298.04010009765625, 79.96841430664062, 319.5875549316406, -0.06400000303983688, 0.01600000075995922, 1.055999994277954, 0.0, 0.0, 0.0, 0.0, 0.0, 1.6212700146694613E9, 2021-05-17 18:46:54.669
27.0, -74.1865234375, -292.94635009765625, 66.75908660888672, 326.9850769042969, -0.06400000303983688, 0.01600000075995922, 1.055999994277954, 0.0, 0.0, 0.0, 0.0, 0.0, 1.6212700146702218E9, 2021-05-17 18:46:54.670
27.0, -68.94318389892578, -281.0273132324219, 60.139461517333984, 340.8600769042969, -0.06400000303983688, 0.01600000075995922, 1.055999994277954, 0.0, 0.0, 0.0, 0.0, 0.0, 1.6212700146702218E9, 2021-05-17 18:46:54.670
28.0, -62.97804641723633, -288.4136047363281, 72.57463073730469, 336.7349853515625, -0.06400000303983688, 0.01600000075995922, 1.055999994277954, 0.0, 0.0, 0.0, 0.0, 0.0, 1.6212700146838372E9, 2021-05-17 18:46:54.683
28.0, -72.45494842529297, -305.149658203125, 72.8775634765625, 325.48162841796875, -0.06400000303983688, 0.01600000075995922, 1.055999994277954, 0.0, 0.0, 0.0, 0.0, 0.0, 1.6212700146838372E9, 2021-05-17 18:46:54.683
29.0, -74.02944946289062, -299.539794921875, 62.611534118652344, 328.62689208984375, -0.06400000303983688, 0.01600000075995922, 1.055999994277954, 0.0, 0.0, 0.0, 0.0, 0.0, 1.6212700146995988E9, 2021-05-17 18:46:54.699
29.0, -69.30221557617188, -282.1717224121094, 59.855228424072266, 348.5306396484375, -0.06400000303983688, 0.01600000075995922, 1.055999994277954, 0.0, 0.0, 0.0, 0.0, 0.0, 1.6212700146995988E9, 2021-05-17 18:46:54.699
30.0, -71.62843322753906, -290.4368896484375, 71.54615783691406, 339.8091735839844, -0.06400000303983688, 0.01600000075995922, 1.055999994277954, 0.0, 0.0, 0.0, 0.0, 0.0, 1.6212700147002463E9, 2021-05-17 18:46:54.700
30.0, -74.41091918945312, -302.65887451171875, 72.71300506591797, 326.8504333496094, -0.06400000303983688, 0.01600000075995922, 1.055999994277954, 0.0, 0.0, 0.0, 0.0, 0.0, 1.6212700147002463E9, 2021-05-17 18:46:54.700
31.0, -73.4422836303711, -303.9042663574219, 59.02497100830078, 330.4594421386719, -0.06400000303983688, 0.01600000075995922, 1.055999994277954, 0.0, 0.0, 0.0, 0.0, 0.0, 1.6212700147138538E9, 2021-05-17 18:46:54.713
31.0, -69.17131805419922, -294.4049377441406, 58.374229431152344, 345.07122802734375, -0.06400000303983688, 0.01600000075995922, 1.055999994277954, 0.0, 0.0, 0.0, 0.0, 0.0, 1.6212700147138538E9, 2021-05-17 18:46:54.713
32.0, -59.331642150878906, -296.1925964355469, 70.88793182373047, 333.372802734375, -0.06400000303983688, 0.01600000075995922, 1.055999994277954, 0.0, 0.0, 0.0, 0.0, 0.0, 1.6212700147466416E9, 2021-05-17 18:46:54.746
32.0, -73.35626983642578, -306.6119689941406, 73.07577514648438, 323.65655517578125, -0.06400000303983688, 0.01600000075995922, 1.055999994277954, 0.0, 0.0, 0.0, 0.0, 0.0, 1.6212700147466416E9, 2021-05-17 18:46:54.746
33.0, -76.34070587158203, -299.98858642578125, 61.381107330322266, 329.4459228515625, -0.06400000303983688, 0.01600000075995922, 1.055999994277954, 0.0, 0.0, 0.0, 0.0, 0.0, 1.6212700147472777E9, 2021-05-17 18:46:54.747
33.0, -65.46508026123047, -283.1403503417969, 62.585357666015625, 344.8356018066406, -0.06400000303983688, 0.01600000075995922, 1.055999994277954, 0.0, 0.0, 0.0, 0.0, 0.0, 1.6212700147472777E9, 2021-05-17 18:46:54.747
34.0, -61.96453094482422, -285.29827880859375, 75.02799987792969, 341.7427062988281, -0.06400000303983688, 0.01600000075995922, 1.055999994277954, 0.0, 0.0, 0.0, 0.0, 0.0, 1.6212700147480276E9, 2021-05-17 18:46:54.748
34.0, -73.58440399169922, -294.83502197265625, 84.10099792480469, 327.97613525390625, -0.06400000303983688, 0.01600000075995922, 1.055999994277954, 0.0, 0.0, 0.0, 0.0, 0.0, 1.6212700147480276E9, 2021-05-17 18:46:54.748
35.0, -64.03269958496094, -289.8048400878906, 73.27398681640625, 332.6285705566406, -0.06400000303983688, 0.01600000075995922, 1.055999994277954, 0.0, 0.0, 0.0, 0.0, 0.0, 1.621270014748806E9, 2021-05-17 18:46:54.748
35.0, -57.24477767944336, -276.00836181640625, 66.52721405029297, 344.7832336425781, -0.06400000303983688, 0.01600000075995922, 1.055999994277954, 0.0, 0.0, 0.0, 0.0, 0.0, 1.621270014748806E9, 2021-05-17 18:46:54.748
36.0, -60.23295974731445, -285.91162109375, 77.07746887207031, 335.47088623046875, -0.06400000303983688, 0.01600000075995922, 1.055999994277954, 0.0, 0.0, 0.0, 0.0, 0.0, 1.6212700147587533E9, 2021-05-17 18:46:54.758
36.0, -69.08904266357422, -299.14337158203125, 79.28401184082031, 321.4051208496094, -0.06400000303983688, 0.01600000075995922, 1.055999994277954, 0.0, 0.0, 0.0, 0.0, 0.0, 1.6212700147587533E9, 2021-05-17 18:46:54.758
37.0, -63.55025100708008, -294.0458984375, 69.19001770019531, 327.6507568359375, -0.06400000303983688, 0.01600000075995922, 1.055999994277954, 0.0, 0.0, 0.0, 0.0, 0.0, 1.6212700147737484E9, 2021-05-17 18:46:54.773
37.0, -53.6993522644043, -279.3966979980469, 67.3799057006836, 338.653564453125, -0.06400000303983688, 0.01600000075995922, 1.055999994277954, 0.0, 0.0, 0.0, 0.0, 0.0, 1.6212700147737484E9, 2021-05-17 18:46:54.773
38.0, -58.57992172241211, -288.10693359375, 77.72821044921875, 333.83282470703125, -0.06400000303983688, 0.01600000075995922, 1.055999994277954, 0.0, 0.0, 0.0, 0.0, 0.0, 1.6212700148066213E9, 2021-05-17 18:46:54.806
38.0, -71.05622863769531, -306.14447021484375, 80.34613800048828, 319.5090026855469, -0.06400000303983688, 0.01600000075995922, 1.055999994277954, 0.0, 0.0, 0.0, 0.0, 0.0, 1.6212700148066213E9, 2021-05-17 18:46:54.806
39.0, -72.06974029541016, -299.3341064453125, 63.531551361083984, 327.47125244140625, -0.06400000303983688, 0.01600000075995922, 1.055999994277954, 0.0, 0.0, 0.0, 0.0, 0.0, 1.6212700148072171E9, 2021-05-17 18:46:54.807
39.0, -62.301124572753906, -289.11297607421875, 56.02183151245117, 337.8756408691406, -0.06400000303983688, 0.01600000075995922, 1.055999994277954, 0.0, 0.0, 0.0, 0.0, 0.0, 1.6212700148072171E9, 2021-05-17 18:46:54.807
40.0, -66.45989227294922, -292.6247253417969, 73.7863540649414, 331.8057861328125, -0.06400000303983688, 0.01600000075995922, 1.055999994277954, 0.0, 0.0, 0.0, 0.0, 0.0, 1.6212700148080049E9, 2021-05-17 18:46:54.808
40.0, -73.15057373046875, -310.7781982421875, 74.38099670410156, 321.8651428222656, -0.06400000303983688, 0.01600000075995922, 1.055999994277954, 0.0, 0.0, 0.0, 0.0, 0.0, 1.6212700148080049E9, 2021-05-17 18:46:54.808
41.0, -71.04500579833984, -305.4675598144531, 64.88165283203125, 327.2992248535156, -0.06400000303983688, 0.01600000075995922, 1.055999994277954, 0.0, 0.0, 0.0, 0.0, 0.0, 1.6212700148087783E9, 2021-05-17 18:46:54.808
41.0, -62.379661560058594, -284.91680908203125, 57.43551254272461, 341.5669250488281, -0.06400000303983688, 0.01600000075995922, 1.055999994277954, 0.0, 0.0, 0.0, 0.0, 0.0, 1.6212700148087783E9, 2021-05-17 18:46:54.808
42.0, -61.66160202026367, -288.1555480957031, 69.73230743408203, 336.86962890625, -0.06400000303983688, 0.01600000075995922, 1.055999994277954, 0.0, 0.0, 0.0, 0.0, 0.0, 1.6212700148187916E9, 2021-05-17 18:46:54.818
42.0, -75.6488265991211, -309.738525390625, 70.59996032714844, 318.6675109863281, -0.06400000303983688, 0.01600000075995922, 1.055999994277954, 0.0, 0.0, 0.0, 0.0, 0.0, 1.6212700148187916E9, 2021-05-17 18:46:54.818
43.0, -68.77488708496094, -302.849609375, 65.36784362792969, 324.84210205078125, -0.06400000303983688, 0.01600000075995922, 1.055999994277954, 0.0, 0.0, 0.0, 0.0, 0.0, 1.6212700148339214E9, 2021-05-17 18:46:54.833
43.0, -59.6794548034668, -284.4268798828125, 61.92339324951172, 345.99871826171875, -0.06400000303983688, 0.01600000075995922, 1.055999994277954, 0.0, 0.0, 0.0, 0.0, 0.0, 1.6212700148339214E9, 2021-05-17 18:46:54.833
44.0, -58.40414810180664, -292.2432556152344, 77.47016143798828, 338.7994079589844, -0.06400000303983688, 0.01600000075995922, 1.055999994277954, 0.0, 0.0, 0.0, 0.0, 0.0, 1.6212700148660364E9, 2021-05-17 18:46:54.866
44.0, -63.25853729248047, -304.03143310546875, 81.19136047363281, 323.7650146484375, -0.06400000303983688, 0.01600000075995922, 1.055999994277954, 0.0, 0.0, 0.0, 0.0, 0.0, 1.6212700148660364E9, 2021-05-17 18:46:54.866
45.0, -70.03524017333984, -303.6013488769531, 70.49524688720703, 329.76007080078125, -0.06400000303983688, 0.01600000075995922, 1.055999994277954, 0.0, 0.0, 0.0, 0.0, 0.0, 1.6212700148665636E9, 2021-05-17 18:46:54.866
45.0, -58.5163459777832, -285.11126708984375, 66.1120834350586, 343.1302185058594, -0.06400000303983688, 0.01600000075995922, 1.055999994277954, 0.0, 0.0, 0.0, 0.0, 0.0, 1.6212700148665636E9, 2021-05-17 18:46:54.866
46.0, -52.13607406616211, -289.8721618652344, 84.7218246459961, 337.632568359375, -0.06400000303983688, 0.01600000075995922, 1.055999994277954, 0.0, 0.0, 0.0, 0.0, 0.0, 1.6212700148673449E9, 2021-05-17 18:46:54.867
46.0, -59.66823196411133, -303.5901184082031, 85.61940002441406, 326.8466796875, -0.06400000303983688, 0.01600000075995922, 1.055999994277954, 0.0, 0.0, 0.0, 0.0, 0.0, 1.6212700148673449E9, 2021-05-17 18:46:54.867
47.0, -59.61213684082031, -299.6632385253906, 76.2920913696289, 326.2221374511719, -0.06400000303983688, 0.01600000075995922, 1.055999994277954, 0.0, 0.0, 0.0, 0.0, 0.0, 1.6212700148681672E9, 2021-05-17 18:46:54.868
47.0, -51.20484161376953, -288.3163757324219, 70.29702758789062, 339.7680358886719, -0.06400000303983688, 0.01600000075995922, 1.055999994277954, 0.0, 0.0, 0.0, 0.0, 0.0, 1.6212700148681672E9, 2021-05-17 18:46:54.868
48.0, -53.115928649902344, -287.90496826171875, 83.06504821777344, 334.10955810546875, -0.06400000303983688, 0.01600000075995922, 1.055999994277954, 0.0, 0.0, 0.0, 0.0, 0.0, 1.6212700148788335E9, 2021-05-17 18:46:54.878
48.0, -60.853782653808594, -310.748291015625, 82.4741439819336, 318.4244384765625, -0.06400000303983688, 0.01600000075995922, 1.055999994277954, 0.0, 0.0, 0.0, 0.0, 0.0, 1.6212700148788335E9, 2021-05-17 18:46:54.878
49.0, -64.77320098876953, -308.7549133300781, 70.84305572509766, 322.68792724609375, -0.06400000303983688, 0.01600000075995922, 1.055999994277954, 0.0, 0.0, 0.0, 0.0, 0.0, 1.6212700149265513E9, 2021-05-17 18:46:54.926
49.0, -60.24791717529297, -295.7176208496094, 62.716251373291016, 337.0341796875, -0.06400000303983688, 0.01600000075995922, 1.055999994277954, 0.0, 0.0, 0.0, 0.0, 0.0, 1.6212700149265513E9, 2021-05-17 18:46:54.926
50.0, -60.02726364135742, -299.8165588378906, 69.71360778808594, 333.9338073730469, -0.06400000303983688, 0.01600000075995922, 1.055999994277954, 0.0, 0.0, 0.0, 0.0, 0.0, 1.6212700149272413E9, 2021-05-17 18:46:54.927
50.0, -73.28520965576172, -312.1806640625, 77.06999206542969, 319.5277099609375, -0.06400000303983688, 0.01600000075995922, 1.055999994277954, 0.0, 0.0, 0.0, 0.0, 0.0, 1.6212700149272413E9, 2021-05-17 18:46:54.927
51.0, -75.13272094726562, -309.1737976074219, 62.23380661010742, 327.6283264160156, -0.06400000303983688, 0.01600000075995922, 1.055999994277954, 0.0, 0.0, 0.0, 0.0, 0.0, 1.6212700149279847E9, 2021-05-17 18:46:54.927
51.0, -64.01399993896484, -295.39227294921875, 56.85582733154297, 339.85406494140625, -0.06400000303983688, 0.01600000075995922, 1.055999994277954, 0.0, 0.0, 0.0, 0.0, 0.0, 1.6212700149279847E9, 2021-05-17 18:46:54.927
52.0, -61.538185119628906, -294.33013916015625, 65.8577651977539, 337.68865966796875, -0.06400000303983688, 0.01600000075995922, 1.055999994277954, 0.0, 0.0, 0.0, 0.0, 0.0, 1.6212700149287453E9, 2021-05-17 18:46:54.928
52.0, -76.19110870361328, -311.9562683105469, 72.3016128540039, 323.6116638183594, -0.06400000303983688, 0.01600000075995922, 1.055999994277954, 0.0, 0.0, 0.0, 0.0, 0.0, 1.6212700149287453E9, 2021-05-17 18:46:54.928
53.0, -75.63386535644531, -303.1413269042969, 62.75739288330078, 331.3196105957031, -0.06400000303983688, 0.01600000075995922, 1.055999994277954, 0.0, 0.0, 0.0, 0.0, 0.0, 1.621270014939464E9, 2021-05-17 18:46:54.939
53.0, -65.20328521728516, -291.4541320800781, 66.979736328125, 344.17364501953125, -0.06400000303983688, 0.01600000075995922, 1.055999994277954, 0.0, 0.0, 0.0, 0.0, 0.0, 1.621270014939464E9, 2021-05-17 18:46:54.939
54.0, -55.999393463134766, -298.0438537597656, 73.12439727783203, 342.3822326660156, -0.06400000303983688, 0.01600000075995922, 1.055999994277954, 0.0, 0.0, 0.0, 0.0, 0.0, 1.621270014940253E9, 2021-05-17 18:46:54.940
54.0, -72.41007232666016, -311.3429260253906, 72.34649658203125, 322.7664489746094, -0.06400000303983688, 0.01600000075995922, 1.055999994277954, 0.0, 0.0, 0.0, 0.0, 0.0, 1.621270014940253E9, 2021-05-17 18:46:54.940
55.0, -66.4972915649414, -303.4704284667969, 67.23030853271484, 334.65185546875, -0.06400000303983688, 0.01600000075995922, 1.055999994277954, 0.0, 0.0, 0.0, 0.0, 0.0, 1.6212700149538453E9, 2021-05-17 18:46:54.953
55.0, -55.999393463134766, -290.571533203125, 61.13801574707031, 345.6658630371094, -0.06400000303983688, 0.01600000075995922, 1.055999994277954, 0.0, 0.0, 0.0, 0.0, 0.0, 1.6212700149538453E9, 2021-05-17 18:46:54.953
56.0, -56.00313186645508, -289.22515869140625, 80.91460418701172, 345.437744140625, -0.06400000303983688, 0.01600000075995922, 1.055999994277954, 0.0, 0.0, 0.0, 0.0, 0.0, 1.621270014985918E9, 2021-05-17 18:46:54.985
56.0, -69.9080810546875, -306.3389587402344, 83.9626235961914, 324.99169921875, -0.06400000303983688, 0.01600000075995922, 1.055999994277954, 0.0, 0.0, 0.0, 0.0, 0.0, 1.621270014985918E9, 2021-05-17 18:46:54.985
57.0, -71.08240509033203, -304.2595520019531, 74.75498962402344, 329.9582824707031, -0.06400000303983688, 0.01600000075995922, 1.055999994277954, 0.0, 0.0, 0.0, 0.0, 0.0, 1.6212700149866035E9, 2021-05-17 18:46:54.986
57.0, -60.1544189453125, -286.1958312988281, 69.5901870727539, 345.8678283691406, -0.06400000303983688, 0.01600000075995922, 1.055999994277954, 0.0, 0.0, 0.0, 0.0, 0.0, 1.6212700149866035E9, 2021-05-17 18:46:54.986
58.0, -60.951019287109375, -289.2850036621094, 74.56051635742188, 337.0640869140625, -0.06400000303983688, 0.01600000075995922, 1.055999994277954, 0.0, 0.0, 0.0, 0.0, 0.0, 1.6212700149873886E9, 2021-05-17 18:46:54.987
58.0, -65.98492431640625, -300.31396484375, 79.63555908203125, 325.4217834472656, -0.06400000303983688, 0.01600000075995922, 1.055999994277954, 0.0, 0.0, 0.0, 0.0, 0.0, 1.6212700149873886E9, 2021-05-17 18:46:54.987
59.0, -72.46990966796875, -291.7346496582031, 71.66957092285156, 334.075927734375, -0.06400000303983688, 0.01600000075995922, 1.055999994277954, 0.0, 0.0, 0.0, 0.0, 0.0, 1.6212700149880352E9, 2021-05-17 18:46:54.988
59.0, -63.295936584472656, -278.62255859375, 61.63167953491211, 346.4549865722656, -0.06400000303983688, 0.01600000075995922, 1.055999994277954, 0.0, 0.0, 0.0, 0.0, 0.0, 1.6212700149880352E9, 2021-05-17 18:46:54.988
60.0, -66.40005493164062, -285.6610412597656, 76.50526428222656, 340.919921875, -0.06400000303983688, 0.01600000075995922, 1.055999994277954, 0.0, 0.0, 0.0, 0.0, 0.0, 1.6212700149987688E9, 2021-05-17 18:46:54.998
60.0, -74.8671875, -296.8844909667969, 78.42383575439453, 324.2511901855469, -0.06400000303983688, 0.01600000075995922, 1.055999994277954, 0.0, 0.0, 0.0, 0.0, 0.0, 1.6212700149987688E9, 2021-05-17 18:46:54.998
61.0, -71.63217163085938, -297.65863037109375, 61.46338653564453, 327.4862060546875, -0.06400000303983688, 0.01600000075995922, 1.055999994277954, 0.0, 0.0, 0.0, 0.0, 0.0, 1.621270015013815E9, 2021-05-17 18:46:55.013
61.0, -58.718299865722656, -288.9446716308594, 60.93980026245117, 342.2288818359375, -0.06400000303983688, 0.01600000075995922, 1.055999994277954, 0.0, 0.0, 0.0, 0.0, 0.0, 1.621270015013815E9, 2021-05-17 18:46:55.013
62.0, -56.75859069824219, -294.5208740234375, 74.72881317138672, 341.20416259765625, -0.06400000303983688, 0.01600000075995922, 1.055999994277954, 0.0, 0.0, 0.0, 0.0, 0.0, 1.6212700150302413E9, 2021-05-17 18:46:55.030
62.0, -63.064064025878906, -303.8332214355469, 73.47968292236328, 327.4899597167969, -0.06400000303983688, 0.01600000075995922, 1.055999994277954, 0.0, 0.0, 0.0, 0.0, 0.0, 1.6212700150302413E9, 2021-05-17 18:46:55.030
63.0, -65.53614044189453, -300.2354431152344, 60.8350830078125, 332.8305358886719, -0.06400000303983688, 0.01600000075995922, 1.055999994277954, 0.0, 0.0, 0.0, 0.0, 0.0, 1.6212700150309072E9, 2021-05-17 18:46:55.030
63.0, -60.40499496459961, -286.33795166015625, 56.810951232910156, 342.67767333984375, -0.06400000303983688, 0.01600000075995922, 1.055999994277954, 0.0, 0.0, 0.0, 0.0, 0.0, 1.6212700150309072E9, 2021-05-17 18:46:55.030
64.0, -61.09687423706055, -292.7219543457031, 72.20063781738281, 342.1503601074219, -0.06400000303983688, 0.01600000075995922, 1.055999994277954, 0.0, 0.0, 0.0, 0.0, 0.0, 1.6212700150437467E9, 2021-05-17 18:46:55.043
64.0, -70.59996032714844, -302.1203308105469, 76.15745544433594, 321.8052978515625, -0.06400000303983688, 0.01600000075995922, 1.055999994277954, 0.0, 0.0, 0.0, 0.0, 0.0, 1.6212700150437467E9, 2021-05-17 18:46:55.043
65.0, -70.27458953857422, -301.2938232421875, 70.10629272460938, 323.28631591796875, -0.06400000303983688, 0.01600000075995922, 1.055999994277954, 0.0, 0.0, 0.0, 0.0, 0.0, 1.6212700150595763E9, 2021-05-17 18:46:55.059
65.0, -57.940399169921875, -290.24615478515625, 58.89033508300781, 343.9417724609375, -0.06400000303983688, 0.01600000075995922, 1.055999994277954, 0.0, 0.0, 0.0, 0.0, 0.0, 1.6212700150595763E9, 2021-05-17 18:46:55.059
66.0, -51.7321662902832, -290.0142822265625, 71.71819305419922, 342.2737731933594, -0.06400000303983688, 0.01600000075995922, 1.055999994277954, 0.0, 0.0, 0.0, 0.0, 0.0, 1.6212700150601776E9, 2021-05-17 18:46:55.060
66.0, -66.18688201904297, -304.6410217285156, 76.7333984375, 323.7650146484375, -0.06400000303983688, 0.01600000075995922, 1.055999994277954, 0.0, 0.0, 0.0, 0.0, 0.0, 1.6212700150601776E9, 2021-05-17 18:46:55.060
67.0, -70.79443359375, -301.33868408203125, 65.82785034179688, 328.537109375, -0.06400000303983688, 0.01600000075995922, 1.055999994277954, 0.0, 0.0, 0.0, 0.0, 0.0, 1.6212700150737433E9, 2021-05-17 18:46:55.073
67.0, -63.539031982421875, -285.11126708984375, 65.46134185791016, 343.9642028808594, -0.06400000303983688, 0.01600000075995922, 1.055999994277954, 0.0, 0.0, 0.0, 0.0, 0.0, 1.6212700150737433E9, 2021-05-17 18:46:55.073
68.0, -55.842315673828125, -283.7536926269531, 76.68852233886719, 340.9236755371094, -0.06400000303983688, 0.01600000075995922, 1.055999994277954, 0.0, 0.0, 0.0, 0.0, 0.0, 1.6212700150901332E9, 2021-05-17 18:46:55.090
68.0, -72.33153533935547, -301.088134765625, 79.52336120605469, 320.6085205078125, -0.06400000303983688, 0.01600000075995922, 1.055999994277954, 0.0, 0.0, 0.0, 0.0, 0.0, 1.6212700150901332E9, 2021-05-17 18:46:55.090
69.0, -78.37147521972656, -294.2142028808594, 62.80601119995117, 330.0143737792969, -0.06400000303983688, 0.01600000075995922, 1.055999994277954, 0.0, 0.0, 0.0, 0.0, 0.0, 1.6212700150908537E9, 2021-05-17 18:46:55.090
69.0, -69.13018035888672, -281.82391357421875, 57.63372802734375, 342.7375183105469, -0.06400000303983688, 0.01600000075995922, 1.055999994277954, 0.0, 0.0, 0.0, 0.0, 0.0, 1.6212700150908537E9, 2021-05-17 18:46:55.090
70.0, -60.35263442993164, -284.87567138671875, 71.00386810302734, 340.3103332519531, -0.06400000303983688, 0.01600000075995922, 1.055999994277954, 0.0, 0.0, 0.0, 0.0, 0.0, 1.62127001510382E9, 2021-05-17 18:46:55.103
70.0, -77.67584991455078, -300.29901123046875, 80.35362243652344, 330.11163330078125, -0.06400000303983688, 0.01600000075995922, 1.055999994277954, 0.0, 0.0, 0.0, 0.0, 0.0, 1.62127001510382E9, 2021-05-17 18:46:55.103
71.0, -73.19171142578125, -295.0481872558594, 72.88877868652344, 332.2471008300781, -0.06400000303983688, 0.01600000075995922, 1.055999994277954, 0.0, 0.0, 0.0, 0.0, 0.0, 1.6212700151193995E9, 2021-05-17 18:46:55.119
71.0, -59.12594985961914, -280.36907958984375, 67.17047119140625, 345.1347961425781, -0.06400000303983688, 0.01600000075995922, 1.055999994277954, 0.0, 0.0, 0.0, 0.0, 0.0, 1.6212700151193995E9, 2021-05-17 18:46:55.119
72.0, -59.896366119384766, -287.7740783691406, 76.60250091552734, 339.3603820800781, -0.06400000303983688, 0.01600000075995922, 1.055999994277954, 0.0, 0.0, 0.0, 0.0, 0.0, 1.6212700151201231E9, 2021-05-17 18:46:55.120
72.0, -67.53697967529297, -301.19659423828125, 79.7215805053711, 328.6231384277344, -0.06400000303983688, 0.01600000075995922, 1.055999994277954, 0.0, 0.0, 0.0, 0.0, 0.0, 1.6212700151201231E9, 2021-05-17 18:46:55.120
73.0, -68.55423736572266, -297.26220703125, 67.24526977539062, 332.4939270019531, -0.06400000303983688, 0.01600000075995922, 1.055999994277954, 0.0, 0.0, 0.0, 0.0, 0.0, 1.6212700151337454E9, 2021-05-17 18:46:55.133
73.0, -60.60321044921875, -287.7441711425781, 64.54132080078125, 343.61639404296875, -0.06400000303983688, 0.01600000075995922, 1.055999994277954, 0.0, 0.0, 0.0, 0.0, 0.0, 1.6212700151337454E9, 2021-05-17 18:46:55.133
74.0, -55.81239700317383, -286.3267517089844, 74.60165405273438, 340.2467346191406, -0.06400000303983688, 0.01600000075995922, 1.055999994277954, 0.0, 0.0, 0.0, 0.0, 0.0, 1.621270015149551E9, 2021-05-17 18:46:55.149
74.0, -72.56714630126953, -304.4615173339844, 71.59851837158203, 324.2586669921875, -0.06400000303983688, 0.01600000075995922, 1.055999994277954, 0.0, 0.0, 0.0, 0.0, 0.0, 1.621270015149551E9, 2021-05-17 18:46:55.149
75.0, -71.75933074951172, -298.2644958496094, 63.157562255859375, 326.8167724609375, -0.06400000303983688, 0.01600000075995922, 1.055999994277954, 0.0, 0.0, 0.0, 0.0, 0.0, 1.6212700151502478E9, 2021-05-17 18:46:55.150
75.0, -60.5059700012207, -286.18463134765625, 54.32017517089844, 335.79254150390625, -0.06400000303983688, 0.01600000075995922, 1.055999994277954, 0.0, 0.0, 0.0, 0.0, 0.0, 1.6212700151502478E9, 2021-05-17 18:46:55.150
76.0, -58.1535758972168, -288.540771484375, 73.37870788574219, 333.2120056152344, -0.06400000303983688, 0.01600000075995922, 1.055999994277954, 0.0, 0.0, 0.0, 0.0, 0.0, 1.6212700151637888E9, 2021-05-17 18:46:55.163
76.0, -64.98262786865234, -296.8695068359375, 82.0552749633789, 319.91290283203125, -0.06400000303983688, 0.01600000075995922, 1.055999994277954, 0.0, 0.0, 0.0, 0.0, 0.0, 1.6212700151637888E9, 2021-05-17 18:46:55.163
77.0, -62.49933624267578, -293.8402099609375, 72.5970687866211, 323.7986755371094, -0.06400000303983688, 0.01600000075995922, 1.055999994277954, 0.0, 0.0, 0.0, 0.0, 0.0, 1.621270015179502E9, 2021-05-17 18:46:55.179
