Sample Index, EXG Channel 0, EXG Channel 1, EXG Channel 2, EXG Channel 3, Accel Channel 0, Accel Channel 1, Accel Channel 2, Other, Other, Other, Other, Other, Timestamp, Timestamp (Formatted)
0.0, -75.09158325195312, 203.39071655273438, -43.51747512817383, -128.5459747314453, 0.0, 0.0, 0.0, 0.0, 0.0, 0.0, 0.0, 0.0, 1.6213381309660828E9, 2021-05-18 13:42:10.966
1.0, -47.592098236083984, 236.4215087890625, -8.369895935058594, -100.65753936767578, 0.0, -0.08000000566244125, 0.0, 0.0, 0.0, 0.0, 0.0, 0.0, 1.6213381309970338E9, 2021-05-18 13:42:10.997
1.0, 7.388172149658203, 292.0226135253906, 51.22541046142578, -47.18070602416992, 0.0, -0.08000000566244125, 0.0, 0.0, 0.0, 0.0, 0.0, 0.0, 1.6213381309970338E9, 2021-05-18 13:42:10.997
2.0, -22.833959579467773, 243.2206573486328, 8.429734230041504, -89.47149658203125, -0.01600000075995922, -0.08000000566244125, 0.0, 0.0, 0.0, 0.0, 0.0, 0.0, 1.6213381309983683E9, 2021-05-18 13:42:10.998
2.0, -62.764869689941406, 199.81912231445312, -36.538822174072266, -131.81838989257812, -0.01600000075995922, -0.08000000566244125, 0.0, 0.0, 0.0, 0.0, 0.0, 0.0, 1.6213381309983683E9, 2021-05-18 13:42:10.998
3.0, -38.04787063598633, 230.51246643066406, -7.644355297088623, -99.87590026855469, -0.01600000075995922, -0.08000000566244125, 0.0, 0.0, 0.0, 0.0, 0.0, 0.0, 1.621338130999124E9, 2021-05-18 13:42:10.999
3.0, 5.589280605316162, 281.7042236328125, 44.085941314697266, -47.07973098754883, -0.01600000075995922, -0.08000000566244125, 0.0, 0.0, 0.0, 0.0, 0.0, 0.0, 1.621338130999124E9, 2021-05-18 13:42:10.999
4.0, -23.095752716064453, 243.70309448242188, 6.900115489959717, -77.76560974121094, -0.01600000075995922, -0.08000000566244125, 0.0, 0.0, 0.0, 0.0, 0.0, 0.0, 1.6213381310091956E9, 2021-05-18 13:42:11.009
4.0, -68.7038345336914, 204.99887084960938, -38.93983840942383, -120.58372497558594, -0.01600000075995922, -0.08000000566244125, 0.0, 0.0, 0.0, 0.0, 0.0, 0.0, 1.6213381310091956E9, 2021-05-18 13:42:11.009
5.0, -42.21786117553711, 239.3236846923828, -0.7517198920249939, -93.90702056884766, -0.01600000075995922, -0.08000000566244125, 0.0, 0.0, 0.0, 0.0, 0.0, 0.0, 1.6213381310248568E9, 2021-05-18 13:42:11.024
5.0, 10.787741661071777, 293.8626403808594, 61.222164154052734, -38.096492767333984, -0.01600000075995922, -0.08000000566244125, 0.0, 0.0, 0.0, 0.0, 0.0, 0.0, 1.6213381310248568E9, 2021-05-18 13:42:11.024
6.0, -30.33993911743164, 246.86705017089844, 10.284725189208984, -83.63725280761719, -0.01600000075995922, -0.08000000566244125, 0.0, 0.0, 0.0, 0.0, 0.0, 0.0, 1.6213381310256407E9, 2021-05-18 13:42:11.025
6.0, -66.39257049560547, 203.4131622314453, -32.13322067260742, -123.01840209960938, -0.01600000075995922, -0.08000000566244125, 0.0, 0.0, 0.0, 0.0, 0.0, 0.0, 1.6213381310256407E9, 2021-05-18 13:42:11.025
7.0, -38.25730514526367, 233.0780487060547, 2.1915814876556396, -92.43724060058594, -0.01600000075995922, -0.08000000566244125, 0.0, 0.0, 0.0, 0.0, 0.0, 0.0, 1.621338131039233E9, 2021-05-18 13:42:11.039
7.0, 11.969550132751465, 287.4038391113281, 59.0679817199707, -45.77824401855469, -0.01600000075995922, -0.08000000566244125, 0.0, 0.0, 0.0, 0.0, 0.0, 0.0, 1.621338131039233E9, 2021-05-18 13:42:11.039
8.0, -18.226402282714844, 255.27061462402344, 15.902054786682129, -76.47908782958984, -0.01600000075995922, -0.08000000566244125, 0.0, 0.0, 0.0, 0.0, 0.0, 0.0, 1.621338131054998E9, 2021-05-18 13:42:11.054
8.0, -70.08385467529297, 203.49917602539062, -38.67804718017578, -129.1667938232422, -0.01600000075995922, -0.08000000566244125, 0.0, 0.0, 0.0, 0.0, 0.0, 0.0, 1.621338131054998E9, 2021-05-18 13:42:11.054
9.0, -41.585819244384766, 239.60043334960938, -0.938714861869812, -102.3105697631836, -0.01600000075995922, -0.08000000566244125, 0.0, 0.0, 0.0, 0.0, 0.0, 0.0, 1.6213381310557115E9, 2021-05-18 13:42:11.055
9.0, 9.92756462097168, 283.69384765625, 50.63824462890625, -48.687889099121094, -0.01600000075995922, -0.08000000566244125, 0.0, 0.0, 0.0, 0.0, 0.0, 0.0, 1.6213381310557115E9, 2021-05-18 13:42:11.055
10.0, -24.505695343017578, 241.53021240234375, 8.22029972076416, -89.95394134521484, -0.01600000075995922, -0.08000000566244125, 1.055999994277954, 0.0, 0.0, 0.0, 0.0, 0.0, 1.621338131069402E9, 2021-05-18 13:42:11.069
10.0, -66.71046447753906, 206.16946411132812, -43.97000503540039, -128.1457977294922, -0.01600000075995922, -0.08000000566244125, 1.055999994277954, 0.0, 0.0, 0.0, 0.0, 0.0, 1.621338131069402E9, 2021-05-18 13:42:11.069
11.0, -42.431034088134766, 237.13209533691406, -8.841123580932617, -99.08677673339844, -0.01600000075995922, -0.08000000566244125, 1.055999994277954, 0.0, 0.0, 0.0, 0.0, 0.0, 1.62133813108502E9, 2021-05-18 13:42:11.085
11.0, 11.378645896911621, 294.95843505859375, 47.900638580322266, -41.49605941772461, -0.01600000075995922, -0.08000000566244125, 1.055999994277954, 0.0, 0.0, 0.0, 0.0, 0.0, 1.62133813108502E9, 2021-05-18 13:42:11.085
12.0, -20.698476791381836, 257.7464294433594, 4.577637672424316, -79.81507110595703, -0.01600000075995922, -0.08000000566244125, 1.055999994277954, 0.0, 0.0, 0.0, 0.0, 0.0, 1.6213381310857239E9, 2021-05-18 13:42:11.085
12.0, -71.18712615966797, 206.2068634033203, -47.90437698364258, -132.8244171142578, -0.01600000075995922, -0.08000000566244125, 1.055999994277954, 0.0, 0.0, 0.0, 0.0, 0.0, 1.6213381310857239E9, 2021-05-18 13:42:11.085
13.0, -44.74229431152344, 237.16575622558594, -14.634228706359863, -98.28269958496094, -0.01600000075995922, -0.08000000566244125, 1.055999994277954, 0.0, 0.0, 0.0, 0.0, 0.0, 1.6213381311161904E9, 2021-05-18 13:42:11.116
13.0, 7.575167179107666, 286.4090270996094, 43.117305755615234, -47.79405212402344, -0.01600000075995922, -0.08000000566244125, 1.055999994277954, 0.0, 0.0, 0.0, 0.0, 0.0, 1.6213381311161904E9, 2021-05-18 13:42:11.116
14.0, -25.03302001953125, 249.7056427001953, -1.170588731765747, -92.23528289794922, -0.01600000075995922, -0.08000000566244125, 1.055999994277954, 0.0, 0.0, 0.0, 0.0, 0.0, 1.621338131116871E9, 2021-05-18 13:42:11.116
14.0, -73.71530151367188, 205.91888427734375, -53.9106559753418, -132.3943328857422, -0.01600000075995922, -0.08000000566244125, 1.055999994277954, 0.0, 0.0, 0.0, 0.0, 0.0, 1.621338131116871E9, 2021-05-18 13:42:11.116
15.0, -42.63298797607422, 237.3228302001953, -22.218746185302734, -102.13105773925781, -0.01600000075995922, -0.08000000566244125, 1.055999994277954, 0.0, 0.0, 0.0, 0.0, 0.0, 1.6213381311299248E9, 2021-05-18 13:42:11.129
15.0, 11.315067291259766, 295.8223571777344, 39.74391555786133, -51.89672088623047, -0.01600000075995922, -0.08000000566244125, 1.055999994277954, 0.0, 0.0, 0.0, 0.0, 0.0, 1.6213381311299248E9, 2021-05-18 13:42:11.129
16.0, -25.859539031982422, 253.58766174316406, -6.140915870666504, -91.24420928955078, -0.01600000075995922, -0.08000000566244125, 1.055999994277954, 0.0, 0.0, 0.0, 0.0, 0.0, 1.6213381311306915E9, 2021-05-18 13:42:11.130
16.0, -75.0093002319336, 211.14727783203125, -54.20610809326172, -137.79473876953125, -0.01600000075995922, -0.08000000566244125, 1.055999994277954, 0.0, 0.0, 0.0, 0.0, 0.0, 1.6213381311306915E9, 2021-05-18 13:42:11.130
17.0, -43.46324920654297, 239.08058166503906, -20.61058807373047, -105.68022155761719, -0.01600000075995922, -0.08000000566244125, 1.055999994277954, 0.0, 0.0, 0.0, 0.0, 0.0, 1.6213381311448753E9, 2021-05-18 13:42:11.144
17.0, 7.085240364074707, 296.5030212402344, 35.592628479003906, -53.164546966552734, -0.01600000075995922, -0.08000000566244125, 1.055999994277954, 0.0, 0.0, 0.0, 0.0, 0.0, 1.6213381311448753E9, 2021-05-18 13:42:11.144
18.0, -20.3057861328125, 249.53733825683594, 1.0583916902542114, -83.5400161743164, -0.01600000075995922, -0.08000000566244125, 1.055999994277954, 0.0, 0.0, 0.0, 0.0, 0.0, 1.6213381311456132E9, 2021-05-18 13:42:11.145
18.0, -66.6169662475586, 206.33401489257812, -43.943824768066406, -134.2605438232422, -0.01600000075995922, -0.08000000566244125, 1.055999994277954, 0.0, 0.0, 0.0, 0.0, 0.0, 1.6213381311456132E9, 2021-05-18 13:42:11.145
19.0, -40.531166076660156, 230.08985900878906, -10.101469993591309, -105.19029235839844, -0.01600000075995922, -0.08000000566244125, 1.055999994277954, 0.0, 0.0, 0.0, 0.0, 0.0, 1.6213381311591847E9, 2021-05-18 13:42:11.159
19.0, 15.256921768188477, 291.4691162109375, 56.218177795410156, -44.46928024291992, -0.01600000075995922, -0.08000000566244125, 1.055999994277954, 0.0, 0.0, 0.0, 0.0, 0.0, 1.6213381311591847E9, 2021-05-18 13:42:11.159
20.0, -12.119145393371582, 253.8419647216797, 9.892035484313965, -83.44277954101562, -0.01600000075995922, -0.08000000566244125, 1.055999994277954, 0.0, 0.0, 0.0, 0.0, 0.0, 1.621338131174824E9, 2021-05-18 13:42:11.174
20.0, -58.06007766723633, 206.21434020996094, -37.387779235839844, -125.82706451416016, -0.01600000075995922, -0.08000000566244125, 1.055999994277954, 0.0, 0.0, 0.0, 0.0, 0.0, 1.621338131174824E9, 2021-05-18 13:42:11.174
21.0, -36.1928825378418, 233.8447265625, -8.979499816894531, -97.9498519897461, -0.01600000075995922, -0.08000000566244125, 1.055999994277954, 0.0, 0.0, 0.0, 0.0, 0.0, 1.6213381311755328E9, 2021-05-18 13:42:11.175
21.0, 16.842639923095703, 287.31781005859375, 55.61979293823242, -40.44888687133789, -0.01600000075995922, -0.08000000566244125, 1.055999994277954, 0.0, 0.0, 0.0, 0.0, 0.0, 1.6213381311755328E9, 2021-05-18 13:42:11.175
22.0, -12.044347763061523, 245.27760314941406, 13.691773414611816, -76.4940414428711, -0.01600000075995922, -0.08000000566244125, 1.055999994277954, 0.0, 0.0, 0.0, 0.0, 0.0, 1.621338131205698E9, 2021-05-18 13:42:11.205
22.0, -63.10894012451172, 196.965576171875, -43.738128662109375, -129.05833435058594, -0.01600000075995922, -0.08000000566244125, 1.055999994277954, 0.0, 0.0, 0.0, 0.0, 0.0, 1.621338131205698E9, 2021-05-18 13:42:11.205
23.0, -39.14366149902344, 222.83445739746094, -8.871042251586914, -101.63365173339844, -0.01600000075995922, -0.08000000566244125, 1.055999994277954, 0.0, 0.0, 0.0, 0.0, 0.0, 1.6213381312063413E9, 2021-05-18 13:42:11.206
23.0, 5.308787822723389, 281.80145263671875, 44.3552131652832, -50.318485260009766, -0.01600000075995922, -0.08000000566244125, 1.055999994277954, 0.0, 0.0, 0.0, 0.0, 0.0, 1.6213381312063413E9, 2021-05-18 13:42:11.206
24.0, -24.068126678466797, 242.72698974609375, -0.3814697861671448, -95.12622833251953, -0.01600000075995922, -0.08000000566244125, 1.055999994277954, 0.0, 0.0, 0.0, 0.0, 0.0, 1.6213381312070005E9, 2021-05-18 13:42:11.207
24.0, -80.44337463378906, 201.5693817138672, -48.97772979736328, -150.4655303955078, -0.01600000075995922, -0.08000000566244125, 1.055999994277954, 0.0, 0.0, 0.0, 0.0, 0.0, 1.6213381312070005E9, 2021-05-18 13:42:11.207
25.0, -48.826263427734375, 233.09300231933594, -13.766571998596191, -116.8587875366211, -0.01600000075995922, -0.08000000566244125, 1.055999994277954, 0.0, 0.0, 0.0, 0.0, 0.0, 1.6213381312192805E9, 2021-05-18 13:42:11.219
25.0, 7.5041093826293945, 282.4746398925781, 47.07038116455078, -59.50741958618164, -0.01600000075995922, -0.08000000566244125, 1.055999994277954, 0.0, 0.0, 0.0, 0.0, 0.0, 1.6213381312192805E9, 2021-05-18 13:42:11.219
26.0, -20.750835418701172, 248.26577758789062, 12.962492942810059, -94.17255401611328, -0.01600000075995922, -0.08000000566244125, 1.055999994277954, 0.0, 0.0, 0.0, 0.0, 0.0, 1.6213381312349827E9, 2021-05-18 13:42:11.234
26.0, -59.02123260498047, 206.8688201904297, -34.37342071533203, -131.05918884277344, -0.01600000075995922, -0.08000000566244125, 1.055999994277954, 0.0, 0.0, 0.0, 0.0, 0.0, 1.6213381312349827E9, 2021-05-18 13:42:11.234
27.0, -35.91238784790039, 236.0961456298828, 0.14211620390415192, -103.80279541015625, -0.01600000075995922, -0.08000000566244125, 1.055999994277954, 0.0, 0.0, 0.0, 0.0, 0.0, 1.6213381312356782E9, 2021-05-18 13:42:11.235
27.0, 12.530534744262695, 288.51458740234375, 59.60652542114258, -42.6367301940918, -0.01600000075995922, -0.08000000566244125, 1.055999994277954, 0.0, 0.0, 0.0, 0.0, 0.0, 1.6213381312356782E9, 2021-05-18 13:42:11.235
28.0, -14.781954765319824, 251.49705505371094, 24.31308937072754, -78.71928405761719, -0.01600000075995922, -0.08000000566244125, 1.055999994277954, 0.0, 0.0, 0.0, 0.0, 0.0, 1.6213381312492232E9, 2021-05-18 13:42:11.249
28.0, -65.08361053466797, 204.24716186523438, -32.6306266784668, -125.2099838256836, -0.01600000075995922, -0.08000000566244125, 1.055999994277954, 0.0, 0.0, 0.0, 0.0, 0.0, 1.6213381312492232E9, 2021-05-18 13:42:11.249
29.0, -33.01022720336914, 232.80503845214844, 2.389796018600464, -86.61795043945312, -0.01600000075995922, -0.08000000566244125, 1.055999994277954, 0.0, 0.0, 0.0, 0.0, 0.0, 1.6213381312649112E9, 2021-05-18 13:42:11.264
29.0, 13.910557746887207, 288.6529541015625, 62.172096252441406, -32.18370819091797, -0.01600000075995922, -0.08000000566244125, 1.055999994277954, 0.0, 0.0, 0.0, 0.0, 0.0, 1.6213381312649112E9, 2021-05-18 13:42:11.264
30.0, -19.99537467956543, 245.2476806640625, 16.679954528808594, -70.21475219726562, -0.01600000075995922, -0.08000000566244125, 1.055999994277954, 0.0, 0.0, 0.0, 0.0, 0.0, 1.6213381312656112E9, 2021-05-18 13:42:11.265
30.0, -60.92483901977539, 205.6458740234375, -33.472103118896484, -119.78712463378906, -0.01600000075995922, -0.08000000566244125, 1.055999994277954, 0.0, 0.0, 0.0, 0.0, 0.0, 1.6213381312656112E9, 2021-05-18 13:42:11.265
31.0, -37.74494171142578, 229.19602966308594, -7.539638519287109, -94.68865966796875, -0.01600000075995922, -0.08000000566244125, 1.055999994277954, 0.0, 0.0, 0.0, 0.0, 0.0, 1.6213381312792463E9, 2021-05-18 13:42:11.279
31.0, 8.824294090270996, 276.0868835449219, 53.0467414855957, -47.13208770751953, -0.01600000075995922, -0.08000000566244125, 1.055999994277954, 0.0, 0.0, 0.0, 0.0, 0.0, 1.6213381312792463E9, 2021-05-18 13:42:11.279
32.0, -17.624279022216797, 242.9626007080078, 12.158414840698242, -84.69564056396484, -0.01600000075995922, -0.08000000566244125, 1.055999994277954, 0.0, 0.0, 0.0, 0.0, 0.0, 1.6213381312949216E9, 2021-05-18 13:42:11.294
32.0, -69.34709167480469, 197.30215454101562, -42.690956115722656, -136.99440002441406, -0.01600000075995922, -0.08000000566244125, 1.055999994277954, 0.0, 0.0, 0.0, 0.0, 0.0, 1.6213381312949216E9, 2021-05-18 13:42:11.294
33.0, -41.967288970947266, 224.2930145263672, -15.737499237060547, -113.1301040649414, -0.01600000075995922, -0.08000000566244125, 1.055999994277954, 0.0, 0.0, 0.0, 0.0, 0.0, 1.6213381312956865E9, 2021-05-18 13:42:11.295
33.0, 12.949403762817383, 279.19476318359375, 42.96397018432617, -58.5574836730957, -0.01600000075995922, -0.08000000566244125, 1.055999994277954, 0.0, 0.0, 0.0, 0.0, 0.0, 1.6213381312956865E9, 2021-05-18 13:42:11.295
34.0, -12.47443675994873, 239.92579650878906, 6.817837715148926, -90.8477783203125, -0.01600000075995922, -0.08000000566244125, 1.055999994277954, 0.0, 0.0, 0.0, 0.0, 0.0, 1.6213381313091848E9, 2021-05-18 13:42:11.309
34.0, -70.86549377441406, 193.30421447753906, -46.87590789794922, -139.91900634765625, -0.01600000075995922, -0.08000000566244125, 1.055999994277954, 0.0, 0.0, 0.0, 0.0, 0.0, 1.6213381313091848E9, 2021-05-18 13:42:11.309
35.0, -34.046180725097656, 231.46240234375, -6.357830047607422, -103.61953735351562, -0.01600000075995922, -0.08000000566244125, 1.055999994277954, 0.0, 0.0, 0.0, 0.0, 0.0, 1.6213381313249395E9, 2021-05-18 13:42:11.324
35.0, 18.712589263916016, 289.78240966796875, 61.7569694519043, -50.95052719116211, -0.01600000075995922, -0.08000000566244125, 1.055999994277954, 0.0, 0.0, 0.0, 0.0, 0.0, 1.6213381313249395E9, 2021-05-18 13:42:11.324
36.0, -16.838899612426758, 249.9113311767578, 16.911827087402344, -87.96057891845703, -0.01600000075995922, -0.08000000566244125, 1.055999994277954, 0.0, 0.0, 0.0, 0.0, 0.0, 1.621338131325595E9, 2021-05-18 13:42:11.325
36.0, -65.03498840332031, 200.80270385742188, -39.53074264526367, -134.01744079589844, -0.01600000075995922, -0.08000000566244125, 1.055999994277954, 0.0, 0.0, 0.0, 0.0, 0.0, 1.621338131325595E9, 2021-05-18 13:42:11.325
37.0, -34.60716247558594, 233.1678009033203, -4.805771350860596, -95.75827026367188, -0.01600000075995922, -0.08000000566244125, 1.055999994277954, 0.0, 0.0, 0.0, 0.0, 0.0, 1.62133813133938E9, 2021-05-18 13:42:11.339
37.0, 13.832019805908203, 284.0753173828125, 49.37416076660156, -40.60596466064453, -0.01600000075995922, -0.08000000566244125, 1.055999994277954, 0.0, 0.0, 0.0, 0.0, 0.0, 1.62133813133938E9, 2021-05-18 13:42:11.339
38.0, -12.829727172851562, 255.5922393798828, 12.81663703918457, -71.81169128417969, -0.01600000075995922, -0.08000000566244125, 1.055999994277954, 0.0, 0.0, 0.0, 0.0, 0.0, 1.6213381313548963E9, 2021-05-18 13:42:11.354
38.0, -65.4725570678711, 200.21554565429688, -39.72147750854492, -120.61363983154297, -0.01600000075995922, -0.08000000566244125, 1.055999994277954, 0.0, 0.0, 0.0, 0.0, 0.0, 1.6213381313548963E9, 2021-05-18 13:42:11.354
39.0, -40.55360412597656, 230.30677795410156, -7.345163345336914, -90.24939727783203, -0.01600000075995922, -0.08000000566244125, 1.055999994277954, 0.0, 0.0, 0.0, 0.0, 0.0, 1.6213381313556757E9, 2021-05-18 13:42:11.355
39.0, 8.498922348022461, 282.02960205078125, 50.720523834228516, -38.81081008911133, -0.01600000075995922, -0.08000000566244125, 1.055999994277954, 0.0, 0.0, 0.0, 0.0, 0.0, 1.6213381313556757E9, 2021-05-18 13:42:11.355
40.0, -17.796314239501953, 249.3166961669922, 12.087356567382812, -73.60310363769531, -0.01600000075995922, -0.08000000566244125, 1.055999994277954, 0.0, 0.0, 0.0, 0.0, 0.0, 1.6213381313692296E9, 2021-05-18 13:42:11.369
40.0, -71.96876525878906, 193.4425811767578, -42.844295501708984, -128.31036376953125, -0.01600000075995922, -0.08000000566244125, 1.055999994277954, 0.0, 0.0, 0.0, 0.0, 0.0, 1.6213381313692296E9, 2021-05-18 13:42:11.369
41.0, -39.420413970947266, 227.40087890625, -7.446140766143799, -99.44207000732422, -0.01600000075995922, -0.08000000566244125, 1.055999994277954, 0.0, 0.0, 0.0, 0.0, 0.0, 1.621338131401904E9, 2021-05-18 13:42:11.401
41.0, 14.344386100769043, 277.7062683105469, 48.9104118347168, -51.937862396240234, -0.01600000075995922, -0.08000000566244125, 1.055999994277954, 0.0, 0.0, 0.0, 0.0, 0.0, 1.621338131401904E9, 2021-05-18 13:42:11.401
42.0, -16.113359451293945, 241.91168212890625, 4.11014986038208, -91.71917724609375, -0.01600000075995922, -0.08000000566244125, 1.055999994277954, 0.0, 0.0, 0.0, 0.0, 0.0, 1.6213381314026096E9, 2021-05-18 13:42:11.402
42.0, -52.99251174926758, 191.15750122070312, -38.6630859375, -133.20962524414062, -0.01600000075995922, -0.08000000566244125, 1.055999994277954, 0.0, 0.0, 0.0, 0.0, 0.0, 1.6213381314026096E9, 2021-05-18 13:42:11.402
43.0, -21.461416244506836, 226.0432891845703, -0.16081570088863373, -98.30139923095703, -0.01600000075995922, -0.08000000566244125, 1.055999994277954, 0.0, 0.0, 0.0, 0.0, 0.0, 1.6213381314033592E9, 2021-05-18 13:42:11.403
43.0, 29.19552993774414, 279.9128112792969, 58.90716552734375, -53.43381881713867, -0.01600000075995922, -0.08000000566244125, 1.055999994277954, 0.0, 0.0, 0.0, 0.0, 0.0, 1.6213381314033592E9, 2021-05-18 13:42:11.403
44.0, -4.093320369720459, 242.65219116210938, 13.171927452087402, -90.47753143310547, -0.01600000075995922, -0.08000000566244125, 1.055999994277954, 0.0, 0.0, 0.0, 0.0, 0.0, 1.6213381314041152E9, 2021-05-18 13:42:11.404
44.0, -49.31993103027344, 193.1882781982422, -35.13262176513672, -136.31373596191406, -0.01600000075995922, -0.08000000566244125, 1.055999994277954, 0.0, 0.0, 0.0, 0.0, 0.0, 1.6213381314041152E9, 2021-05-18 13:42:11.404
45.0, -25.908157348632812, 231.70924377441406, 1.5670180320739746, -103.3315658569336, -0.01600000075995922, -0.08000000566244125, 1.055999994277954, 0.0, 0.0, 0.0, 0.0, 0.0, 1.6213381314141507E9, 2021-05-18 13:42:11.414
45.0, 18.147865295410156, 291.405517578125, 55.26824188232422, -57.226078033447266, -0.01600000075995922, -0.08000000566244125, 1.055999994277954, 0.0, 0.0, 0.0, 0.0, 0.0, 1.6213381314141507E9, 2021-05-18 13:42:11.414
46.0, -13.084039688110352, 254.36929321289062, 15.89083480834961, -90.26435852050781, -0.01600000075995922, -0.08000000566244125, 1.055999994277954, 0.0, 0.0, 0.0, 0.0, 0.0, 1.621338131429158E9, 2021-05-18 13:42:11.429
46.0, -69.81084442138672, 200.92237854003906, -40.33481979370117, -134.5672149658203, -0.01600000075995922, -0.08000000566244125, 1.055999994277954, 0.0, 0.0, 0.0, 0.0, 0.0, 1.621338131429158E9, 2021-05-18 13:42:11.429
47.0, -41.372642517089844, 234.33091735839844, -2.1654021739959717, -101.3419418334961, -0.01600000075995922, -0.08000000566244125, 1.055999994277954, 0.0, 0.0, 0.0, 0.0, 0.0, 1.6213381314619768E9, 2021-05-18 13:42:11.461
47.0, 12.399638175964355, 288.5519714355469, 54.89799118041992, -48.60934829711914, -0.01600000075995922, -0.08000000566244125, 1.055999994277954, 0.0, 0.0, 0.0, 0.0, 0.0, 1.6213381314619768E9, 2021-05-18 13:42:11.461
48.0, -18.59665298461914, 250.98841857910156, 10.344563484191895, -87.23503875732422, -0.01600000075995922, -0.08000000566244125, 1.055999994277954, 0.0, 0.0, 0.0, 0.0, 0.0, 1.6213381314627154E9, 2021-05-18 13:42:11.462
48.0, -68.58789825439453, 199.93130493164062, -43.86528778076172, -127.85408782958984, -0.01600000075995922, -0.08000000566244125, 1.055999994277954, 0.0, 0.0, 0.0, 0.0, 0.0, 1.6213381314627154E9, 2021-05-18 13:42:11.462
49.0, -38.10771179199219, 223.18600463867188, -9.368449211120605, -109.76793670654297, -0.01600000075995922, -0.08000000566244125, 1.055999994277954, 0.0, 0.0, 0.0, 0.0, 0.0, 1.6213381314634244E9, 2021-05-18 13:42:11.463
49.0, 20.260908126831055, 278.342041015625, 48.8692741394043, -52.925193786621094, -0.01600000075995922, -0.08000000566244125, 1.055999994277954, 0.0, 0.0, 0.0, 0.0, 0.0, 1.6213381314634244E9, 2021-05-18 13:42:11.463
50.0, -7.414351463317871, 246.71371459960938, 12.296791076660156, -92.75886535644531, -0.01600000075995922, -0.08000000566244125, 1.055999994277954, 0.0, 0.0, 0.0, 0.0, 0.0, 1.6213381314642208E9, 2021-05-18 13:42:11.464
50.0, -50.52043914794922, 193.4949493408203, -32.335174560546875, -135.47601318359375, -0.01600000075995922, -0.08000000566244125, 1.055999994277954, 0.0, 0.0, 0.0, 0.0, 0.0, 1.6213381314642208E9, 2021-05-18 13:42:11.464
51.0, -18.102985382080078, 223.26828002929688, 0.4637475907802582, -99.61410522460938, -0.01600000075995922, -0.08000000566244125, 1.055999994277954, 0.0, 0.0, 0.0, 0.0, 0.0, 1.6213381314742284E9, 2021-05-18 13:42:11.474
51.0, 25.455629348754883, 273.3492736816406, 49.54993438720703, -49.263832092285156, -0.01600000075995922, -0.08000000566244125, 1.055999994277954, 0.0, 0.0, 0.0, 0.0, 0.0, 1.6213381314742284E9, 2021-05-18 13:42:11.474
52.0, -8.655998229980469, 234.45433044433594, 6.881415843963623, -90.85151672363281, -0.01600000075995922, -0.08000000566244125, 1.055999994277954, 0.0, 0.0, 0.0, 0.0, 0.0, 1.621338131489235E9, 2021-05-18 13:42:11.489
52.0, -53.88261032104492, 189.68399047851562, -37.069889068603516, -128.68060302734375, -0.01600000075995922, -0.08000000566244125, 1.055999994277954, 0.0, 0.0, 0.0, 0.0, 0.0, 1.621338131489235E9, 2021-05-18 13:42:11.489
53.0, -34.04243850708008, 222.2809600830078, -6.286771774291992, -101.55511474609375, -0.01600000075995922, -0.08000000566244125, 1.055999994277954, 0.0, 0.0, 0.0, 0.0, 0.0, 1.621338131520306E9, 2021-05-18 13:42:11.520
53.0, 18.248842239379883, 275.4062194824219, 48.04649353027344, -45.77076721191406, -0.01600000075995922, -0.08000000566244125, 1.055999994277954, 0.0, 0.0, 0.0, 0.0, 0.0, 1.621338131520306E9, 2021-05-18 13:42:11.520
54.0, -16.22181510925293, 238.6841583251953, 11.720846176147461, -90.4476089477539, -0.01600000075995922, -0.08000000566244125, 1.055999994277954, 0.0, 0.0, 0.0, 0.0, 0.0, 1.6213381315359824E9, 2021-05-18 13:42:11.535
54.0, -71.00386810302734, 204.17984008789062, -41.46800994873047, -135.46104431152344, -0.01600000075995922, -0.08000000566244125, 1.055999994277954, 0.0, 0.0, 0.0, 0.0, 0.0, 1.6213381315359824E9, 2021-05-18 13:42:11.535
55.0, -48.04088592529297, 241.91168212890625, -4.069011211395264, -101.0427474975586, -0.01600000075995922, -0.08000000566244125, 1.055999994277954, 0.0, 0.0, 0.0, 0.0, 0.0, 1.6213381315366964E9, 2021-05-18 13:42:11.536
55.0, -1.834420919418335, 289.4233703613281, 53.40203094482422, -41.49980163574219, -0.01600000075995922, -0.08000000566244125, 1.055999994277954, 0.0, 0.0, 0.0, 0.0, 0.0, 1.6213381315366964E9, 2021-05-18 13:42:11.536
56.0, -32.3594856262207, 254.8816680908203, 16.283523559570312, -80.1890640258789, -0.01600000075995922, -0.08000000566244125, 1.055999994277954, 0.0, 0.0, 0.0, 0.0, 0.0, 1.6213381315374677E9, 2021-05-18 13:42:11.537
56.0, -80.66777038574219, 205.1035919189453, -39.27642822265625, -130.9170684814453, -0.01600000075995922, -0.08000000566244125, 1.055999994277954, 0.0, 0.0, 0.0, 0.0, 0.0, 1.6213381315374677E9, 2021-05-18 13:42:11.537
57.0, -46.253211975097656, 234.8133544921875, -1.5894575119018555, -97.94611358642578, -0.01600000075995922, -0.08000000566244125, 1.055999994277954, 0.0, 0.0, 0.0, 0.0, 0.0, 1.6213381315495684E9, 2021-05-18 13:42:11.549
57.0, 2.5001230239868164, 287.94610595703125, 47.87445831298828, -48.31389617919922, -0.01600000075995922, -0.08000000566244125, 1.055999994277954, 0.0, 0.0, 0.0, 0.0, 0.0, 1.6213381315495684E9, 2021-05-18 13:42:11.549
58.0, -25.848318099975586, 248.8005828857422, 10.295944213867188, -92.84862518310547, -0.01600000075995922, -0.08000000566244125, 1.055999994277954, 0.0, 0.0, 0.0, 0.0, 0.0, 1.6213381315663593E9, 2021-05-18 13:42:11.566
58.0, -66.88998413085938, 196.9917449951172, -36.61735916137695, -130.22145080566406, -0.01600000075995922, -0.08000000566244125, 1.055999994277954, 0.0, 0.0, 0.0, 0.0, 0.0, 1.6213381315663593E9, 2021-05-18 13:42:11.566
59.0, -36.30508041381836, 230.25442504882812, -1.4174220561981201, -93.8583984375, -0.01600000075995922, -0.08000000566244125, 1.055999994277954, 0.0, 0.0, 0.0, 0.0, 0.0, 1.6213381315670836E9, 2021-05-18 13:42:11.567
59.0, 18.989341735839844, 280.6907043457031, 56.719322204589844, -43.444549560546875, -0.01600000075995922, -0.08000000566244125, 1.055999994277954, 0.0, 0.0, 0.0, 0.0, 0.0, 1.6213381315670836E9, 2021-05-18 13:42:11.567
60.0, -8.64103889465332, 240.3671112060547, 17.79070472717285, -76.84933471679688, -0.01600000075995922, -0.08000000566244125, 1.055999994277954, 0.0, 0.0, 0.0, 0.0, 0.0, 1.621338131567694E9, 2021-05-18 13:42:11.567
60.0, -55.19157409667969, 185.0427703857422, -37.51119613647461, -126.64984130859375, -0.01600000075995922, -0.08000000566244125, 1.055999994277954, 0.0, 0.0, 0.0, 0.0, 0.0, 1.621338131567694E9, 2021-05-18 13:42:11.567
61.0, -32.71477508544922, 220.10433959960938, -2.7338669300079346, -101.57755279541016, -0.01600000075995922, -0.08000000566244125, 1.055999994277954, 0.0, 0.0, 0.0, 0.0, 0.0, 1.6213381315791907E9, 2021-05-18 13:42:11.579
61.0, 12.822246551513672, 278.2672424316406, 49.70701217651367, -49.98189163208008, -0.01600000075995922, -0.08000000566244125, 1.055999994277954, 0.0, 0.0, 0.0, 0.0, 0.0, 1.6213381315791907E9, 2021-05-18 13:42:11.579
62.0, -18.050626754760742, 236.2195587158203, 10.374482154846191, -86.13550567626953, -0.01600000075995922, -0.08000000566244125, 1.055999994277954, 0.0, 0.0, 0.0, 0.0, 0.0, 1.6213381315949721E9, 2021-05-18 13:42:11.594
62.0, -66.29907989501953, 184.51544189453125, -38.689266204833984, -135.22543334960938, -0.01600000075995922, -0.08000000566244125, 1.055999994277954, 0.0, 0.0, 0.0, 0.0, 0.0, 1.6213381315949721E9, 2021-05-18 13:42:11.594
63.0, -42.2776985168457, 216.88427734375, -3.6314427852630615, -102.75936126708984, -0.01600000075995922, -0.08000000566244125, 1.055999994277954, 0.0, 0.0, 0.0, 0.0, 0.0, 1.6213381315956075E9, 2021-05-18 13:42:11.595
63.0, 10.256675720214844, 280.02874755859375, 59.08293914794922, -47.2555046081543, -0.01600000075995922, -0.08000000566244125, 1.055999994277954, 0.0, 0.0, 0.0, 0.0, 0.0, 1.6213381315956075E9, 2021-05-18 13:42:11.595
64.0, -25.784740447998047, 235.88296508789062, 15.322370529174805, -85.32394409179688, -0.01600000075995922, -0.08000000566244125, 1.055999994277954, 0.0, 0.0, 0.0, 0.0, 0.0, 1.6213381316091895E9, 2021-05-18 13:42:11.609
64.0, -79.02969360351562, 189.98692321777344, -39.175453186035156, -127.48384094238281, -0.01600000075995922, -0.08000000566244125, 1.055999994277954, 0.0, 0.0, 0.0, 0.0, 0.0, 1.6213381316091895E9, 2021-05-18 13:42:11.609
65.0, -44.686195373535156, 227.71502685546875, 0.3777298927307129, -95.7470474243164, -0.01600000075995922, -0.08000000566244125, 1.055999994277954, 0.0, 0.0, 0.0, 0.0, 0.0, 1.621338131625659E9, 2021-05-18 13:42:11.625
65.0, 11.468402862548828, 289.7449951171875, 61.19598388671875, -40.568565368652344, -0.01600000075995922, -0.08000000566244125, 1.055999994277954, 0.0, 0.0, 0.0, 0.0, 0.0, 1.621338131625659E9, 2021-05-18 13:42:11.625
66.0, -24.860984802246094, 247.82447814941406, 15.969372749328613, -80.33866119384766, -0.01600000075995922, -0.08000000566244125, 1.055999994277954, 0.0, 0.0, 0.0, 0.0, 0.0, 1.6213381316263728E9, 2021-05-18 13:42:11.626
66.0, -69.71734619140625, 195.63043212890625, -32.01354217529297, -125.7597427368164, -0.01600000075995922, -0.08000000566244125, 1.055999994277954, 0.0, 0.0, 0.0, 0.0, 0.0, 1.6213381316263728E9, 2021-05-18 13:42:11.626
67.0, -42.49835205078125, 222.76339721679688, 0.09723740071058273, -96.76055908203125, -0.01600000075995922, -0.08000000566244125, 1.055999994277954, 0.0, 0.0, 0.0, 0.0, 0.0, 1.6213381316392064E9, 2021-05-18 13:42:11.639
67.0, 10.361392974853516, 282.4970703125, 54.36692428588867, -41.36142349243164, -0.01600000075995922, -0.08000000566244125, 1.055999994277954, 0.0, 0.0, 0.0, 0.0, 0.0, 1.6213381316392064E9, 2021-05-18 13:42:11.639
68.0, -15.200823783874512, 241.38436889648438, 13.048510551452637, -79.75149536132812, -0.01600000075995922, -0.08000000566244125, 1.055999994277954, 0.0, 0.0, 0.0, 0.0, 0.0, 1.6213381316549344E9, 2021-05-18 13:42:11.654
68.0, -57.88804244995117, 190.25245666503906, -35.26351547241211, -128.1869354248047, -0.01600000075995922, -0.08000000566244125, 1.055999994277954, 0.0, 0.0, 0.0, 0.0, 0.0, 1.6213381316549344E9, 2021-05-18 13:42:11.654
69.0, -24.08682632446289, 220.33621215820312, -0.7891188859939575, -97.9909896850586, -0.01600000075995922, -0.08000000566244125, 1.055999994277954, 0.0, 0.0, 0.0, 0.0, 0.0, 1.6213381316556852E9, 2021-05-18 13:42:11.655
69.0, 25.85205841064453, 270.8248596191406, 54.45668411254883, -48.923500061035156, -0.01600000075995922, -0.08000000566244125, 1.055999994277954, 0.0, 0.0, 0.0, 0.0, 0.0, 1.6213381316556852E9, 2021-05-18 13:42:11.655
70.0, -3.846487045288086, 231.53346252441406, 15.019437789916992, -91.33396911621094, -0.01600000075995922, -0.08000000566244125, 1.055999994277954, 0.0, 0.0, 0.0, 0.0, 0.0, 1.62133813166926E9, 2021-05-18 13:42:11.669
70.0, -53.58341598510742, 183.63282775878906, -39.444725036621094, -136.5157012939453, -0.01600000075995922, -0.08000000566244125, 1.055999994277954, 0.0, 0.0, 0.0, 0.0, 0.0, 1.62133813166926E9, 2021-05-18 13:42:11.669
71.0, -28.0585994720459, 222.55770874023438, -2.1280031204223633, -102.71822357177734, -0.01600000075995922, -0.08000000566244125, 1.055999994277954, 0.0, 0.0, 0.0, 0.0, 0.0, 1.6213381316857994E9, 2021-05-18 13:42:11.685
71.0, 16.214336395263672, 281.5882873535156, 56.56598663330078, -47.65567398071289, -0.01600000075995922, -0.08000000566244125, 1.055999994277954, 0.0, 0.0, 0.0, 0.0, 0.0, 1.6213381316857994E9, 2021-05-18 13:42:11.685
72.0, -21.693288803100586, 234.2261962890625, 11.963939666748047, -86.35616302490234, -0.01600000075995922, -0.08000000566244125, 1.055999994277954, 0.0, 0.0, 0.0, 0.0, 0.0, 1.6213381316863668E9, 2021-05-18 13:42:11.686
72.0, -60.431175231933594, 191.97654724121094, -36.94647216796875, -126.19357299804688, -0.01600000075995922, -0.08000000566244125, 1.055999994277954, 0.0, 0.0, 0.0, 0.0, 0.0, 1.6213381316863668E9, 2021-05-18 13:42:11.686
73.0, -41.91866683959961, 227.36721801757812, -0.8863562941551208, -91.8874740600586, -0.01600000075995922, -0.08000000566244125, 1.055999994277954, 0.0, 0.0, 0.0, 0.0, 0.0, 1.6213381316992629E9, 2021-05-18 13:42:11.699
73.0, 7.657444953918457, 288.4061279296875, 58.57057189941406, -33.806827545166016, -0.01600000075995922, -0.08000000566244125, 1.055999994277954, 0.0, 0.0, 0.0, 0.0, 0.0, 1.6213381316992629E9, 2021-05-18 13:42:11.699
74.0, -26.241008758544922, 249.3241729736328, 13.691773414611816, -77.52999877929688, -0.01600000075995922, -0.08000000566244125, 1.055999994277954, 0.0, 0.0, 0.0, 0.0, 0.0, 1.6213381317148504E9, 2021-05-18 13:42:11.714
74.0, -76.19485473632812, 191.6586456298828, -37.57477569580078, -132.9814910888672, -0.01600000075995922, -0.08000000566244125, 1.055999994277954, 0.0, 0.0, 0.0, 0.0, 0.0, 1.6213381317148504E9, 2021-05-18 13:42:11.714
75.0, -45.591251373291016, 220.81491088867188, -3.283632278442383, -105.5007095336914, -0.01600000075995922, -0.08000000566244125, 1.055999994277954, 0.0, 0.0, 0.0, 0.0, 0.0, 1.6213381317156873E9, 2021-05-18 13:42:11.715
75.0, 11.023355484008789, 281.67431640625, 55.200923919677734, -44.78343200683594, -0.01600000075995922, -0.08000000566244125, 1.055999994277954, 0.0, 0.0, 0.0, 0.0, 0.0, 1.6213381317156873E9, 2021-05-18 13:42:11.715
76.0, -21.72694969177246, 236.44769287109375, 11.702146530151367, -89.33686065673828, -0.01600000075995922, -0.08000000566244125, 1.055999994277954, 0.0, 0.0, 0.0, 0.0, 0.0, 1.6213381317462928E9, 2021-05-18 13:42:11.746
76.0, -72.11836242675781, 190.93685913085938, -38.00486373901367, -139.97885131835938, -0.01600000075995922, -0.08000000566244125, 1.055999994277954, 0.0, 0.0, 0.0, 0.0, 0.0, 1.6213381317462928E9, 2021-05-18 13:42:11.746
77.0, -41.0809326171875, 226.0769500732422, -1.1855483055114746, -105.983154296875, -0.01600000075995922, -0.08000000566244125, 1.055999994277954, 0.0, 0.0, 0.0, 0.0, 0.0, 1.6213381317469554E9, 2021-05-18 13:42:11.746
77.0, 18.14412498474121, 279.1461181640625, 61.56997299194336, -48.91602325439453, -0.01600000075995922, -0.08000000566244125, 1.055999994277954, 0.0, 0.0, 0.0, 0.0, 0.0, 1.6213381317469554E9, 2021-05-18 13:42:11.746
78.0, -12.732489585876465, 239.1479034423828, 21.07059669494629, -86.10184478759766, -0.01600000075995922, -0.08000000566244125, 1.055999994277954, 0.0, 0.0, 0.0, 0.0, 0.0, 1.6213381317477136E9, 2021-05-18 13:42:11.747
78.0, -60.659305572509766, 192.24208068847656, -31.538576126098633, -139.99380493164062, -0.01600000075995922, -0.08000000566244125, 1.055999994277954, 0.0, 0.0, 0.0, 0.0, 0.0, 1.6213381317477136E9, 2021-05-18 13:42:11.747
79.0, -32.55022048950195, 221.95558166503906, 0.1869949996471405, -102.91643524169922, -0.01600000075995922, -0.08000000566244125, 1.055999994277954, 0.0, 0.0, 0.0, 0.0, 0.0, 1.6213381317592533E9, 2021-05-18 13:42:11.759
79.0, 23.552019119262695, 276.20281982421875, 63.585777282714844, -47.08346939086914, -0.01600000075995922, -0.08000000566244125, 1.055999994277954, 0.0, 0.0, 0.0, 0.0, 0.0, 1.6213381317592533E9, 2021-05-18 13:42:11.759
80.0, -4.953497409820557, 239.38351440429688, 23.060222625732422, -83.2183837890625, -0.01600000075995922, -0.08000000566244125, 1.055999994277954, 0.0, 0.0, 0.0, 0.0, 0.0, 1.6213381317748525E9, 2021-05-18 13:42:11.774
80.0, -54.125701904296875, 189.0407257080078, -23.47161293029785, -127.2220458984375, -0.01600000075995922, -0.08000000566244125, 1.055999994277954, 0.0, 0.0, 0.0, 0.0, 0.0, 1.6213381317748525E9, 2021-05-18 13:42:11.774
81.0, -33.18600082397461, 218.32040405273438, 4.775852203369141, -99.73751831054688, -0.01600000075995922, -0.08000000566244125, 1.055999994277954, 0.0, 0.0, 0.0, 0.0, 0.0, 1.6213381317756171E9, 2021-05-18 13:42:11.775
81.0, 22.082239151000977, 278.3607482910156, 61.3754997253418, -46.73191833496094, -0.01600000075995922, -0.08000000566244125, 1.055999994277954, 0.0, 0.0, 0.0, 0.0, 0.0, 1.6213381317756171E9, 2021-05-18 13:42:11.775
82.0, -11.816213607788086, 241.10760498046875, 18.074935913085938, -85.5296401977539, -0.01600000075995922, -0.08000000566244125, 1.055999994277954, 0.0, 0.0, 0.0, 0.0, 0.0, 1.6213381318056157E9, 2021-05-18 13:42:11.805
82.0, -63.74846649169922, 197.68362426757812, -30.62230110168457, -126.9415512084961, -0.01600000075995922, -0.08000000566244125, 1.055999994277954, 0.0, 0.0, 0.0, 0.0, 0.0, 1.6213381318056157E9, 2021-05-18 13:42:11.805
83.0, -40.30303192138672, 229.57376098632812, 3.429488182067871, -99.10922241210938, -0.01600000075995922, -0.08000000566244125, 1.055999994277954, 0.0, 0.0, 0.0, 0.0, 0.0, 1.6213381318062873E9, 2021-05-18 13:42:11.806
83.0, 12.190203666687012, 285.56005859375, 59.961814880371094, -44.24488830566406, -0.01600000075995922, -0.08000000566244125, 1.055999994277954, 0.0, 0.0, 0.0, 0.0, 0.0, 1.6213381318062873E9, 2021-05-18 13:42:11.806
84.0, -19.94675636291504, 248.85293579101562, 16.8370304107666, -81.90941619873047, -0.01600000075995922, -0.08000000566244125, 1.055999994277954, 0.0, 0.0, 0.0, 0.0, 0.0, 1.6213381318070192E9, 2021-05-18 13:42:11.807
84.0, -67.55567932128906, 198.96641540527344, -36.680938720703125, -130.3186798095703, -0.01600000075995922, -0.08000000566244125, 1.055999994277954, 0.0, 0.0, 0.0, 0.0, 0.0, 1.6213381318070192E9, 2021-05-18 13:42:11.807
85.0, -38.956668853759766, 229.58497619628906, 1.4286417961120605, -100.99787139892578, -0.01600000075995922, -0.08000000566244125, 1.055999994277954, 0.0, 0.0, 0.0, 0.0, 0.0, 1.621338131819333E9, 2021-05-18 13:42:11.819
85.0, 19.6774845123291, 291.3307189941406, 63.3464241027832, -47.50981903076172, -0.01600000075995922, -0.08000000566244125, 1.055999994277954, 0.0, 0.0, 0.0, 0.0, 0.0, 1.621338131819333E9, 2021-05-18 13:42:11.819
86.0, -11.229049682617188, 248.000244140625, 20.965879440307617, -88.94791412353516, -0.01600000075995922, -0.08000000566244125, 1.055999994277954, 0.0, 0.0, 0.0, 0.0, 0.0, 1.6213381318349285E9, 2021-05-18 13:42:11.834
86.0, -61.93461227416992, 196.99923706054688, -32.06590270996094, -135.8686981201172, -0.01600000075995922, -0.08000000566244125, 1.055999994277954, 0.0, 0.0, 0.0, 0.0, 0.0, 1.6213381318349285E9, 2021-05-18 13:42:11.834
87.0, -29.270326614379883, 235.452880859375, 3.9867334365844727, -97.66561889648438, -0.01600000075995922, -0.08000000566244125, 1.055999994277954, 0.0, 0.0, 0.0, 0.0, 0.0, 1.6213381318356404E9, 2021-05-18 13:42:11.835
87.0, 19.984155654907227, 286.1135559082031, 60.02165603637695, -41.59329605102539, -0.01600000075995922, -0.08000000566244125, 1.055999994277954, 0.0, 0.0, 0.0, 0.0, 0.0, 1.6213381318356404E9, 2021-05-18 13:42:11.835
88.0, -13.263555526733398, 251.12680053710938, 17.024024963378906, -82.20113372802734, -0.01600000075995922, -0.08000000566244125, 1.055999994277954, 0.0, 0.0, 0.0, 0.0, 0.0, 1.6213381318493207E9, 2021-05-18 13:42:11.849
88.0, -64.3094482421875, 199.12722778320312, -30.768156051635742, -131.5902557373047, -0.01600000075995922, -0.08000000566244125, 1.055999994277954, 0.0, 0.0, 0.0, 0.0, 0.0, 1.6213381318493207E9, 2021-05-18 13:42:11.849
89.0, -36.26768112182617, 229.67848205566406, -1.7801923751831055, -101.5064926147461, -0.01600000075995922, -0.08000000566244125, 1.055999994277954, 0.0, 0.0, 0.0, 0.0, 0.0, 1.6213381318649986E9, 2021-05-18 13:42:11.864
89.0, 16.648164749145508, 288.32757568359375, 58.62293243408203, -47.03485107421875, -0.01600000075995922, -0.08000000566244125, 1.055999994277954, 0.0, 0.0, 0.0, 0.0, 0.0, 1.6213381318649986E9, 2021-05-18 13:42:11.864
90.0, -17.45224380493164, 251.9383544921875, 19.107149124145508, -83.341796875, -0.01600000075995922, -0.08000000566244125, 1.055999994277954, 0.0, 0.0, 0.0, 0.0, 0.0, 1.621338131865696E9, 2021-05-18 13:42:11.865
90.0, -70.55134582519531, 200.0622100830078, -37.197044372558594, -131.62765502929688, -0.01600000075995922, -0.08000000566244125, 1.055999994277954, 0.0, 0.0, 0.0, 0.0, 0.0, 1.621338131865696E9, 2021-05-18 13:42:11.865
91.0, -39.282039642333984, 236.23452758789062, -4.30088472366333, -98.34628295898438, -0.01600000075995922, -0.08000000566244125, 1.055999994277954, 0.0, 0.0, 0.0, 0.0, 0.0, 1.6213381318791597E9, 2021-05-18 13:42:11.879
91.0, 10.305294036865234, 281.0160827636719, 56.891357421875, -45.774505615234375, -0.01600000075995922, -0.08000000566244125, 1.055999994277954, 0.0, 0.0, 0.0, 0.0, 0.0, 1.6213381318791597E9, 2021-05-18 13:42:11.879
92.0, -19.396991729736328, 247.0690155029297, 10.733512878417969, -83.4951400756836, -0.01600000075995922, -0.08000000566244125, 1.055999994277954, 0.0, 0.0, 0.0, 0.0, 0.0, 1.621338131894863E9, 2021-05-18 13:42:11.894
92.0, -68.04934692382812, 196.11660766601562, -41.11272048950195, -133.98751831054688, -0.01600000075995922, -0.08000000566244125, 1.055999994277954, 0.0, 0.0, 0.0, 0.0, 0.0, 1.621338131894863E9, 2021-05-18 13:42:11.894
93.0, -43.859676361083984, 231.15199279785156, -4.169988632202148, -100.95672607421875, -0.01600000075995922, -0.08000000566244125, 1.055999994277954, 0.0, 0.0, 0.0, 0.0, 0.0, 1.6213381318955505E9, 2021-05-18 13:42:11.895
93.0, 11.157991409301758, 279.1685791015625, 55.7880859375, -49.46952819824219, -0.01600000075995922, -0.08000000566244125, 1.055999994277954, 0.0, 0.0, 0.0, 0.0, 0.0, 1.6213381318955505E9, 2021-05-18 13:42:11.895
94.0, -15.600992202758789, 243.75546264648438, 17.065162658691406, -80.15914916992188, -0.01600000075995922, -0.08000000566244125, 1.055999994277954, 0.0, 0.0, 0.0, 0.0, 0.0, 1.6213381319093337E9, 2021-05-18 13:42:11.909
94.0, -62.046810150146484, 198.1922607421875, -34.758628845214844, -123.48214721679688, -0.01600000075995922, -0.08000000566244125, 1.055999994277954, 0.0, 0.0, 0.0, 0.0, 0.0, 1.6213381319093337E9, 2021-05-18 13:42:11.909
95.0, -33.402915954589844, 232.3151092529297, 4.779592037200928, -98.23408508300781, -0.01600000075995922, -0.08000000566244125, 1.055999994277954, 0.0, 0.0, 0.0, 0.0, 0.0, 1.621338131924818E9, 2021-05-18 13:42:11.924
95.0, 16.147018432617188, 283.5928649902344, 62.1384391784668, -52.10989761352539, -0.01600000075995922, -0.08000000566244125, 1.055999994277954, 0.0, 0.0, 0.0, 0.0, 0.0, 1.621338131924818E9, 2021-05-18 13:42:11.924
96.0, -7.87809944152832, 253.32586669921875, 22.51045799255371, -87.16397857666016, -0.01600000075995922, -0.08000000566244125, 1.055999994277954, 0.0, 0.0, 0.0, 0.0, 0.0, 1.6213381319398518E9, 2021-05-18 13:42:11.939
96.0, -63.36699676513672, 196.20263671875, -30.00147819519043, -136.09683227539062, -0.01600000075995922, -0.08000000566244125, 1.055999994277954, 0.0, 0.0, 0.0, 0.0, 0.0, 1.6213381319398518E9, 2021-05-18 13:42:11.939
97.0, -33.601131439208984, 230.20579528808594, 9.44698715209961, -105.2015151977539, -0.01600000075995922, -0.08000000566244125, 1.055999994277954, 0.0, 0.0, 0.0, 0.0, 0.0, 1.6213381319405713E9, 2021-05-18 13:42:11.940
97.0, 20.077651977539062, 290.63885498046875, 66.98160552978516, -48.42235565185547, -0.01600000075995922, -0.08000000566244125, 1.055999994277954, 0.0, 0.0, 0.0, 0.0, 0.0, 1.6213381319405713E9, 2021-05-18 13:42:11.940
98.0, -13.94421672821045, 249.29051208496094, 26.781423568725586, -85.15565490722656, -0.01600000075995922, -0.08000000566244125, 1.055999994277954, 0.0, 0.0, 0.0, 0.0, 0.0, 1.6213381319550142E9, 2021-05-18 13:42:11.955
98.0, -64.39920806884766, 202.11541748046875, -31.86394691467285, -132.8580780029297, -0.01600000075995922, -0.08000000566244125, 1.055999994277954, 0.0, 0.0, 0.0, 0.0, 0.0, 1.6213381319550142E9, 2021-05-18 13:42:11.955
99.0, -43.53804397583008, 228.18251037597656, -4.573897838592529, -105.78868103027344, -0.01600000075995922, -0.08000000566244125, 1.055999994277954, 0.0, 0.0, 0.0, 0.0, 0.0, 1.6213381319556732E9, 2021-05-18 13:42:11.955
99.0, 10.163178443908691, 277.7735900878906, 52.826087951660156, -46.903953552246094, -0.01600000075995922, -0.08000000566244125, 1.055999994277954, 0.0, 0.0, 0.0, 0.0, 0.0, 1.6213381319556732E9, 2021-05-18 13:42:11.955
100.0, -17.751434326171875, 247.34202575683594, 11.739545822143555, -84.45255279541016, -0.01600000075995922, -0.08000000566244125, 1.055999994277954, 0.0, 0.0, 0.0, 0.0, 0.0, 1.6213381319845717E9, 2021-05-18 13:42:11.984
100.0, -70.88793182373047, 196.89451599121094, -41.71484375, -131.8969268798828, -0.01600000075995922, -0.08000000566244125, 1.055999994277954, 0.0, 0.0, 0.0, 0.0, 0.0, 1.6213381319845717E9, 2021-05-18 13:42:11.984
0.0, -34.39398956298828, 228.2086944580078, 0.44878798723220825, -96.82601165771484, -0.01600000075995922, -0.08000000566244125, 1.055999994277954, 0.0, 0.0, 0.0, 0.0, 0.0, 1.6213381320025992E9, 2021-05-18 13:42:12.002
1.0, 23.787633895874023, 282.5419616699219, 56.28549575805664, -49.576114654541016, -0.01600000075995922, -0.08000000566244125, 1.055999994277954, 0.0, 0.0, 0.0, 0.0, 0.0, 1.6213381320033004E9, 2021-05-18 13:42:12.003
1.0, -12.739969253540039, 242.93267822265625, 13.845109939575195, -92.28577423095703, -0.01600000075995922, -0.08000000566244125, 1.055999994277954, 0.0, 0.0, 0.0, 0.0, 0.0, 1.6213381320033004E9, 2021-05-18 13:42:12.003
2.0, -59.3391227722168, 190.0504913330078, -33.68153762817383, -135.8780517578125, -0.01600000075995922, -0.08000000566244125, 1.055999994277954, 0.0, 0.0, 0.0, 0.0, 0.0, 1.6213381320040634E9, 2021-05-18 13:42:12.004
2.0, -32.262245178222656, 231.52972412109375, 1.8512505292892456, -100.9548568725586, -0.01600000075995922, -0.08000000566244125, 1.055999994277954, 0.0, 0.0, 0.0, 0.0, 0.0, 1.6213381320040634E9, 2021-05-18 13:42:12.004
3.0, 12.283700942993164, 284.9280090332031, 58.69398880004883, -50.54100799560547, -0.01600000075995922, -0.08000000566244125, 1.055999994277954, 0.0, 0.0, 0.0, 0.0, 0.0, 1.6213381320047996E9, 2021-05-18 13:42:12.004
3.0, -14.991389274597168, 251.16419982910156, 21.81857681274414, -86.62730407714844, -0.01600000075995922, -0.08000000566244125, 1.055999994277954, 0.0, 0.0, 0.0, 0.0, 0.0, 1.6213381320047996E9, 2021-05-18 13:42:12.004
4.0, -62.20388412475586, 198.89535522460938, -29.949119567871094, -132.1306610107422, -0.01600000075995922, -0.08000000566244125, 1.055999994277954, 0.0, 0.0, 0.0, 0.0, 0.0, 1.621338132014198E9, 2021-05-18 13:42:12.014
4.0, -36.60053253173828, 229.1287078857422, 0.8078184127807617, -106.7741470336914, -0.01600000075995922, -0.08000000566244125, 1.055999994277954, 0.0, 0.0, 0.0, 0.0, 0.0, 1.621338132014198E9, 2021-05-18 13:42:12.014
5.0, 18.338600158691406, 285.5114440917969, 58.21902084350586, -51.55078125, -0.01600000075995922, -0.08000000566244125, 1.055999994277954, 0.0, 0.0, 0.0, 0.0, 0.0, 1.6213381320298529E9, 2021-05-18 13:42:12.029
5.0, -13.379491806030273, 249.4887237548828, 25.072288513183594, -88.31025695800781, -0.01600000075995922, -0.08000000566244125, 1.055999994277954, 0.0, 0.0, 0.0, 0.0, 0.0, 1.6213381320298529E9, 2021-05-18 13:42:12.029
6.0, -58.187232971191406, 198.25958251953125, -26.646787643432617, -126.24406433105469, -0.01600000075995922, -0.08000000566244125, 1.055999994277954, 0.0, 0.0, 0.0, 0.0, 0.0, 1.6213381320305705E9, 2021-05-18 13:42:12.030
6.0, -36.82492446899414, 227.647705078125, 2.8423240184783936, -98.265869140625, -0.01600000075995922, -0.08000000566244125, 1.055999994277954, 0.0, 0.0, 0.0, 0.0, 0.0, 1.6213381320305705E9, 2021-05-18 13:42:12.030
7.0, 8.166071891784668, 281.4873046875, 51.442325592041016, -48.566341400146484, -0.01600000075995922, -0.08000000566244125, 1.055999994277954, 0.0, 0.0, 0.0, 0.0, 0.0, 1.6213381320444226E9, 2021-05-18 13:42:12.044
7.0, -25.608964920043945, 237.99227905273438, 10.363263130187988, -86.05136108398438, -0.01600000075995922, -0.08000000566244125, 1.055999994277954, 0.0, 0.0, 0.0, 0.0, 0.0, 1.6213381320444226E9, 2021-05-18 13:42:12.044
8.0, -62.59283447265625, 200.23423767089844, -36.66223907470703, -127.30245208740234, -0.01600000075995922, -0.08000000566244125, 1.055999994277954, 0.0, 0.0, 0.0, 0.0, 0.0, 1.6213381320598605E9, 2021-05-18 13:42:12.059
8.0, -36.36491775512695, 226.5818328857422, -5.284478664398193, -99.17092895507812, -0.01600000075995922, -0.08000000566244125, 1.055999994277954, 0.0, 0.0, 0.0, 0.0, 0.0, 1.6213381320598605E9, 2021-05-18 13:42:12.059
9.0, 19.587726593017578, 280.31298828125, 51.427364349365234, -46.05312728881836, -0.01600000075995922, -0.08000000566244125, 1.055999994277954, 0.0, 0.0, 0.0, 0.0, 0.0, 1.6213381320606115E9, 2021-05-18 13:42:12.060
9.0, -18.85844612121582, 238.82627868652344, 8.014605522155762, -92.05389404296875, -0.01600000075995922, -0.08000000566244125, 1.055999994277954, 0.0, 0.0, 0.0, 0.0, 0.0, 1.6213381320606115E9, 2021-05-18 13:42:12.060
10.0, -63.0715446472168, 195.27139282226562, -36.67720031738281, -136.17349243164062, -0.01600000075995922, -0.08000000566244125, 1.055999994277954, 0.0, 0.0, 0.0, 0.0, 0.0, 1.6213381320742333E9, 2021-05-18 13:42:12.074
10.0, -38.335845947265625, 223.89285278320312, -4.719753742218018, -106.54975128173828, -0.01600000075995922, -0.08000000566244125, 1.055999994277954, 0.0, 0.0, 0.0, 0.0, 0.0, 1.6213381320742333E9, 2021-05-18 13:42:12.074
11.0, 14.101292610168457, 277.332275390625, 56.79412078857422, -51.468502044677734, -0.01600000075995922, -0.08000000566244125, 1.055999994277954, 0.0, 0.0, 0.0, 0.0, 0.0, 1.621338132089853E9, 2021-05-18 13:42:12.089
11.0, -11.71523666381836, 240.9954071044922, 19.30910301208496, -92.36431121826172, -0.01600000075995922, -0.08000000566244125, 1.055999994277954, 0.0, 0.0, 0.0, 0.0, 0.0, 1.621338132089853E9, 2021-05-18 13:42:12.089
12.0, -64.8891372680664, 193.2368927001953, -27.925832748413086, -137.79287719726562, -0.01600000075995922, -0.08000000566244125, 1.055999994277954, 0.0, 0.0, 0.0, 0.0, 0.0, 1.6213381320906045E9, 2021-05-18 13:42:12.090
12.0, -39.17732238769531, 228.5303192138672, 5.684648036956787, -103.29603576660156, -0.01600000075995922, -0.08000000566244125, 1.055999994277954, 0.0, 0.0, 0.0, 0.0, 0.0, 1.6213381320906045E9, 2021-05-18 13:42:12.090
13.0, 11.980769157409668, 286.3977966308594, 62.448848724365234, -51.146873474121094, -0.01600000075995922, -0.08000000566244125, 1.055999994277954, 0.0, 0.0, 0.0, 0.0, 0.0, 1.6213381321041613E9, 2021-05-18 13:42:12.104
13.0, -23.286487579345703, 248.3779754638672, 26.186779022216797, -82.93975830078125, -0.01600000075995922, -0.08000000566244125, 1.055999994277954, 0.0, 0.0, 0.0, 0.0, 0.0, 1.6213381321041613E9, 2021-05-18 13:42:12.104
14.0, -64.61611938476562, 196.97679138183594, -26.63556671142578, -128.7909393310547, -0.01600000075995922, -0.08000000566244125, 1.055999994277954, 0.0, 0.0, 0.0, 0.0, 0.0, 1.6213381321199229E9, 2021-05-18 13:42:12.119
14.0, -44.62635803222656, 228.39942932128906, 7.670534610748291, -95.64420318603516, -0.01600000075995922, -0.08000000566244125, 1.055999994277954, 0.0, 0.0, 0.0, 0.0, 0.0, 1.6213381321199229E9, 2021-05-18 13:42:12.119
15.0, 14.493982315063477, 281.93609619140625, 66.84696960449219, -37.1484260559082, -0.01600000075995922, -0.08000000566244125, 1.055999994277954, 0.0, 0.0, 0.0, 0.0, 0.0, 1.62133813212069E9, 2021-05-18 13:42:12.120
15.0, -21.891504287719727, 251.2128143310547, 23.93161964416504, -78.65757751464844, -0.01600000075995922, -0.08000000566244125, 1.055999994277954, 0.0, 0.0, 0.0, 0.0, 0.0, 1.62133813212069E9, 2021-05-18 13:42:12.120
16.0, -58.50886535644531, 207.84120178222656, -20.79384422302246, -115.25997924804688, -0.01600000075995922, -0.08000000566244125, 1.055999994277954, 0.0, 0.0, 0.0, 0.0, 0.0, 1.6213381321341732E9, 2021-05-18 13:42:12.134
16.0, -35.119529724121094, 232.5694122314453, 6.447587490081787, -82.79764556884766, -0.01600000075995922, -0.08000000566244125, 1.055999994277954, 0.0, 0.0, 0.0, 0.0, 0.0, 1.6213381321341732E9, 2021-05-18 13:42:12.134
17.0, 14.879192352294922, 278.4430236816406, 60.496620178222656, -40.91450500488281, -0.01600000075995922, -0.08000000566244125, 1.055999994277954, 0.0, 0.0, 0.0, 0.0, 0.0, 1.621338132166879E9, 2021-05-18 13:42:12.166
17.0, -13.596405982971191, 238.77017211914062, 18.467626571655273, -78.89692687988281, -0.01600000075995922, -0.08000000566244125, 1.055999994277954, 0.0, 0.0, 0.0, 0.0, 0.0, 1.621338132166879E9, 2021-05-18 13:42:12.166
18.0, -62.07672882080078, 184.25738525390625, -38.51348876953125, -133.51443481445312, -0.01600000075995922, -0.08000000566244125, 1.055999994277954, 0.0, 0.0, 0.0, 0.0, 0.0, 1.621338132167608E9, 2021-05-18 13:42:12.167
18.0, -31.2449951171875, 224.44635009765625, -0.4188687801361084, -98.09757232666016, -0.01600000075995922, -0.08000000566244125, 1.055999994277954, 0.0, 0.0, 0.0, 0.0, 0.0, 1.621338132167608E9, 2021-05-18 13:42:12.167
19.0, 24.834806442260742, 281.52471923828125, 61.113704681396484, -43.797969818115234, -0.01600000075995922, -0.08000000566244125, 1.055999994277954, 0.0, 0.0, 0.0, 0.0, 0.0, 1.6213381321683657E9, 2021-05-18 13:42:12.168
19.0, -16.453689575195312, 233.50439453125, 11.432873725891113, -89.5107650756836, -0.01600000075995922, -0.08000000566244125, 1.055999994277954, 0.0, 0.0, 0.0, 0.0, 0.0, 1.6213381321683657E9, 2021-05-18 13:42:12.168
20.0, -61.73639678955078, 184.73983764648438, -39.13805389404297, -137.03367614746094, -0.01600000075995922, -0.08000000566244125, 1.055999994277954, 0.0, 0.0, 0.0, 0.0, 0.0, 1.6213381321690974E9, 2021-05-18 13:42:12.169
20.0, -32.01541519165039, 221.77980041503906, 3.6314427852630615, -109.04426574707031, -0.01600000075995922, -0.08000000566244125, 1.055999994277954, 0.0, 0.0, 0.0, 0.0, 0.0, 1.6213381321690974E9, 2021-05-18 13:42:12.169
21.0, 15.040007591247559, 279.1236877441406, 64.86856842041016, -51.58818054199219, -0.01600000075995922, -0.08000000566244125, 1.055999994277954, 0.0, 0.0, 0.0, 0.0, 0.0, 1.6213381321791575E9, 2021-05-18 13:42:12.179
21.0, -15.26440143585205, 235.25466918945312, 19.559677124023438, -92.30821228027344, -0.01600000075995922, -0.08000000566244125, 1.055999994277954, 0.0, 0.0, 0.0, 0.0, 0.0, 1.6213381321791575E9, 2021-05-18 13:42:12.179
22.0, -60.816383361816406, 190.5890350341797, -32.1893196105957, -134.70745849609375, -0.01600000075995922, -0.08000000566244125, 1.055999994277954, 0.0, 0.0, 0.0, 0.0, 0.0, 1.621338132194212E9, 2021-05-18 13:42:12.194
22.0, -39.26333999633789, 228.36203002929688, -0.3365910053253174, -103.53164672851562, -0.01600000075995922, -0.08000000566244125, 1.055999994277954, 0.0, 0.0, 0.0, 0.0, 0.0, 1.621338132194212E9, 2021-05-18 13:42:12.194
23.0, 8.37924575805664, 272.66864013671875, 57.714134216308594, -54.09391403198242, -0.01600000075995922, -0.08000000566244125, 1.055999994277954, 0.0, 0.0, 0.0, 0.0, 0.0, 1.621338132226298E9, 2021-05-18 13:42:12.226
23.0, -23.74649429321289, 241.4778594970703, 25.906286239624023, -84.34222412109375, -0.01600000075995922, -0.08000000566244125, 1.055999994277954, 0.0, 0.0, 0.0, 0.0, 0.0, 1.621338132226298E9, 2021-05-18 13:42:12.226
24.0, -65.0723876953125, 197.3096466064453, -24.118614196777344, -127.06310272216797, -0.01600000075995922, -0.08000000566244125, 1.055999994277954, 0.0, 0.0, 0.0, 0.0, 0.0, 1.6213381322270246E9, 2021-05-18 13:42:12.227
24.0, -38.63129806518555, 230.67703247070312, 12.771758079528809, -95.96583557128906, -0.01600000075995922, -0.08000000566244125, 1.055999994277954, 0.0, 0.0, 0.0, 0.0, 0.0, 1.6213381322270246E9, 2021-05-18 13:42:12.227
25.0, 15.14472484588623, 288.6716613769531, 74.1734390258789, -42.79567337036133, -0.01600000075995922, -0.08000000566244125, 1.055999994277954, 0.0, 0.0, 0.0, 0.0, 0.0, 1.6213381322278123E9, 2021-05-18 13:42:12.227
25.0, -13.446810722351074, 250.9734649658203, 31.011249542236328, -78.60147857666016, -0.01600000075995922, -0.08000000566244125, 1.055999994277954, 0.0, 0.0, 0.0, 0.0, 0.0, 1.6213381322278123E9, 2021-05-18 13:42:12.227
26.0, -65.59971618652344, 201.82369995117188, -25.69685173034668, -129.07516479492188, -0.01600000075995922, -0.08000000566244125, 1.055999994277954, 0.0, 0.0, 0.0, 0.0, 0.0, 1.621338132228615E9, 2021-05-18 13:42:12.228
26.0, -35.39254379272461, 228.8856201171875, 17.110042572021484, -91.22364044189453, -0.01600000075995922, -0.08000000566244125, 1.055999994277954, 0.0, 0.0, 0.0, 0.0, 0.0, 1.621338132228615E9, 2021-05-18 13:42:12.228
27.0, 17.340045928955078, 275.1743469238281, 70.31385803222656, -41.557769775390625, -0.01600000075995922, -0.08000000566244125, 1.055999994277954, 0.0, 0.0, 0.0, 0.0, 0.0, 1.621338132239225E9, 2021-05-18 13:42:12.239
27.0, -12.97558307647705, 239.3648223876953, 28.363401412963867, -78.67627716064453, -0.01600000075995922, -0.08000000566244125, 1.055999994277954, 0.0, 0.0, 0.0, 0.0, 0.0, 1.621338132239225E9, 2021-05-18 13:42:12.239
28.0, -63.76716232299805, 193.88389587402344, -29.433012008666992, -129.0377655029297, -0.01600000075995922, -0.08000000566244125, 1.055999994277954, 0.0, 0.0, 0.0, 0.0, 0.0, 1.621338132254264E9, 2021-05-18 13:42:12.254
28.0, -38.30592346191406, 218.60462951660156, -2.2476799488067627, -109.13401794433594, -0.01600000075995922, -0.08000000566244125, 1.055999994277954, 0.0, 0.0, 0.0, 0.0, 0.0, 1.621338132254264E9, 2021-05-18 13:42:12.254
29.0, 18.656490325927734, 268.7566833496094, 56.113460540771484, -55.04010772705078, -0.01600000075995922, -0.08000000566244125, 1.055999994277954, 0.0, 0.0, 0.0, 0.0, 0.0, 1.621338132286389E9, 2021-05-18 13:42:12.286
29.0, -13.648764610290527, 232.91348266601562, 9.933174133300781, -94.57084655761719, -0.01600000075995922, -0.08000000566244125, 1.055999994277954, 0.0, 0.0, 0.0, 0.0, 0.0, 1.621338132286389E9, 2021-05-18 13:42:12.286
30.0, -64.5675048828125, 192.49264526367188, -43.506256103515625, -141.24853515625, -0.01600000075995922, -0.08000000566244125, 1.055999994277954, 0.0, 0.0, 0.0, 0.0, 0.0, 1.6213381322870884E9, 2021-05-18 13:42:12.287
30.0, -40.13847732543945, 222.2809600830078, -4.738453388214111, -109.02182006835938, -0.01600000075995922, -0.08000000566244125, 1.055999994277954, 0.0, 0.0, 0.0, 0.0, 0.0, 1.6213381322870884E9, 2021-05-18 13:42:12.287
31.0, 11.090673446655273, 277.07049560546875, 54.23603057861328, -59.628963470458984, -0.01600000075995922, -0.08000000566244125, 1.055999994277954, 0.0, 0.0, 0.0, 0.0, 0.0, 1.6213381322878027E9, 2021-05-18 13:42:12.287
31.0, -16.693042755126953, 241.0889129638672, 13.433720588684082, -98.07139587402344, -0.01600000075995922, -0.08000000566244125, 1.055999994277954, 0.0, 0.0, 0.0, 0.0, 0.0, 1.6213381322878027E9, 2021-05-18 13:42:12.287
32.0, -65.86898803710938, 188.50965881347656, -36.13117218017578, -147.43434143066406, -0.01600000075995922, -0.08000000566244125, 1.055999994277954, 0.0, 0.0, 0.0, 0.0, 0.0, 1.621338132288641E9, 2021-05-18 13:42:12.288
32.0, -34.696922302246094, 232.41233825683594, 5.078783988952637, -107.80635833740234, -0.01600000075995922, -0.08000000566244125, 1.055999994277954, 0.0, 0.0, 0.0, 0.0, 0.0, 1.621338132288641E9, 2021-05-18 13:42:12.288
33.0, 16.042301177978516, 281.8725280761719, 60.48540115356445, -56.068580627441406, -0.01600000075995922, -0.08000000566244125, 1.055999994277954, 0.0, 0.0, 0.0, 0.0, 0.0, 1.6213381322992983E9, 2021-05-18 13:42:12.299
33.0, -17.594358444213867, 244.49221801757812, 15.094236373901367, -96.81105041503906, -0.01600000075995922, -0.08000000566244125, 1.055999994277954, 0.0, 0.0, 0.0, 0.0, 0.0, 1.6213381322992983E9, 2021-05-18 13:42:12.299
34.0, -63.4754524230957, 201.23280334472656, -28.958045959472656, -139.97323608398438, -0.01600000075995922, -0.08000000566244125, 1.055999994277954, 0.0, 0.0, 0.0, 0.0, 0.0, 1.6213381323141778E9, 2021-05-18 13:42:12.314
34.0, -37.4195671081543, 226.44346618652344, 3.212574005126953, -103.69994354248047, -0.01600000075995922, -0.08000000566244125, 1.055999994277954, 0.0, 0.0, 0.0, 0.0, 0.0, 1.6213381323141778E9, 2021-05-18 13:42:12.314
35.0, 13.633805274963379, 282.601806640625, 66.58143615722656, -47.13396072387695, -0.01600000075995922, -0.08000000566244125, 1.055999994277954, 0.0, 0.0, 0.0, 0.0, 0.0, 1.6213381323306005E9, 2021-05-18 13:42:12.330
35.0, -20.728395462036133, 243.15707397460938, 20.73774528503418, -84.2562026977539, -0.01600000075995922, -0.08000000566244125, 1.055999994277954, 0.0, 0.0, 0.0, 0.0, 0.0, 1.6213381323306005E9, 2021-05-18 13:42:12.330
36.0, -64.48896789550781, 193.32290649414062, -29.885540008544922, -128.64881896972656, -0.01600000075995922, -0.08000000566244125, 1.055999994277954, 0.0, 0.0, 0.0, 0.0, 0.0, 1.6213381323312817E9, 2021-05-18 13:42:12.331
36.0, -38.01047134399414, 226.5519256591797, 1.4510811567306519, -97.38325500488281, -0.01600000075995922, -0.08000000566244125, 1.055999994277954, 0.0, 0.0, 0.0, 0.0, 0.0, 1.6213381323312817E9, 2021-05-18 13:42:12.331
37.0, 13.544047355651855, 282.36993408203125, 57.2616081237793, -43.00136947631836, -0.01600000075995922, -0.08000000566244125, 1.055999994277954, 0.0, 0.0, 0.0, 0.0, 0.0, 1.6213381323442292E9, 2021-05-18 13:42:12.344
37.0, -20.148710250854492, 244.1406707763672, 12.24443244934082, -79.80946350097656, -0.01600000075995922, -0.08000000566244125, 1.055999994277954, 0.0, 0.0, 0.0, 0.0, 0.0, 1.6213381323442292E9, 2021-05-18 13:42:12.344
38.0, -64.96393585205078, 196.9954833984375, -41.94671630859375, -128.7086639404297, -0.01600000075995922, -0.08000000566244125, 1.055999994277954, 0.0, 0.0, 0.0, 0.0, 0.0, 1.6213381323598428E9, 2021-05-18 13:42:12.359
38.0, -34.311710357666016, 227.5280303955078, -0.20195460319519043, -95.77883911132812, -0.01600000075995922, -0.08000000566244125, 1.055999994277954, 0.0, 0.0, 0.0, 0.0, 0.0, 1.6213381323598428E9, 2021-05-18 13:42:12.359
39.0, 12.051827430725098, 277.2425231933594, 56.494930267333984, -51.128173828125, -0.01600000075995922, -0.08000000566244125, 1.055999994277954, 0.0, 0.0, 0.0, 0.0, 0.0, 1.6213381323605645E9, 2021-05-18 13:42:12.360
39.0, -16.6967830657959, 238.56448364257812, 19.518537521362305, -90.58411407470703, -0.01600000075995922, -0.08000000566244125, 1.055999994277954, 0.0, 0.0, 0.0, 0.0, 0.0, 1.6213381323605645E9, 2021-05-18 13:42:12.360
40.0, -65.3117446899414, 190.08041381835938, -32.20427703857422, -134.90940856933594, -0.01600000075995922, -0.08000000566244125, 1.055999994277954, 0.0, 0.0, 0.0, 0.0, 0.0, 1.6213381323743503E9, 2021-05-18 13:42:12.374
40.0, -39.338138580322266, 226.3387451171875, 4.615036487579346, -106.40763092041016, -0.01600000075995922, -0.08000000566244125, 1.055999994277954, 0.0, 0.0, 0.0, 0.0, 0.0, 1.6213381323743503E9, 2021-05-18 13:42:12.374
41.0, 15.253182411193848, 282.7252197265625, 62.90511703491211, -47.44063186645508, -0.01600000075995922, -0.08000000566244125, 1.055999994277954, 0.0, 0.0, 0.0, 0.0, 0.0, 1.621338132389892E9, 2021-05-18 13:42:12.389
41.0, -20.593759536743164, 243.32162475585938, 15.198953628540039, -92.14739227294922, -0.01600000075995922, -0.08000000566244125, 1.055999994277954, 0.0, 0.0, 0.0, 0.0, 0.0, 1.621338132389892E9, 2021-05-18 13:42:12.389
42.0, -68.22138214111328, 198.50640869140625, -31.32914161682129, -139.24395751953125, -0.01600000075995922, -0.08000000566244125, 1.055999994277954, 0.0, 0.0, 0.0, 0.0, 0.0, 1.621338132390632E9, 2021-05-18 13:42:12.390
42.0, -44.1439094543457, 231.35769653320312, 1.0097730159759521, -106.5347900390625, -0.01600000075995922, -0.08000000566244125, 1.055999994277954, 0.0, 0.0, 0.0, 0.0, 0.0, 1.621338132390632E9, 2021-05-18 13:42:12.390
43.0, 9.579753875732422, 284.5054016113281, 62.022499084472656, -46.67021179199219, -0.01600000075995922, -0.08000000566244125, 1.055999994277954, 0.0, 0.0, 0.0, 0.0, 0.0, 1.6213381324043217E9, 2021-05-18 13:42:12.404
43.0, -22.373950958251953, 241.42550659179688, 15.464486122131348, -83.91961669921875, -0.01600000075995922, -0.08000000566244125, 1.055999994277954, 0.0, 0.0, 0.0, 0.0, 0.0, 1.6213381324043217E9, 2021-05-18 13:42:12.404
44.0, -67.70902252197266, 197.9716033935547, -31.706871032714844, -127.06684112548828, -0.01600000075995922, -0.08000000566244125, 1.055999994277954, 0.0, 0.0, 0.0, 0.0, 0.0, 1.621338132419851E9, 2021-05-18 13:42:12.419
44.0, -38.369503021240234, 233.86341857910156, 2.0532050132751465, -97.64505004882812, -0.01600000075995922, -0.08000000566244125, 1.055999994277954, 0.0, 0.0, 0.0, 0.0, 0.0, 1.621338132419851E9, 2021-05-18 13:42:12.419
45.0, 12.85590648651123, 275.6642761230469, 56.304195404052734, -46.37102127075195, -0.01600000075995922, -0.08000000566244125, 1.055999994277954, 0.0, 0.0, 0.0, 0.0, 0.0, 1.6213381324205508E9, 2021-05-18 13:42:12.420
45.0, -20.522701263427734, 242.08746337890625, 17.016544342041016, -80.79679870605469, -0.01600000075995922, -0.08000000566244125, 1.055999994277954, 0.0, 0.0, 0.0, 0.0, 0.0, 1.6213381324205508E9, 2021-05-18 13:42:12.420
46.0, -70.13621520996094, 195.1031036376953, -39.302608489990234, -129.56883239746094, -0.01600000075995922, -0.08000000566244125, 1.055999994277954, 0.0, 0.0, 0.0, 0.0, 0.0, 1.6213381324342675E9, 2021-05-18 13:42:12.434
46.0, -41.04353332519531, 220.09310913085938, -3.074197769165039, -97.84700012207031, -0.01600000075995922, -0.08000000566244125, 1.055999994277954, 0.0, 0.0, 0.0, 0.0, 0.0, 1.6213381324342675E9, 2021-05-18 13:42:12.434
47.0, 7.575167179107666, 284.8158264160156, 55.66093063354492, -46.00450897216797, -0.01600000075995922, -0.08000000566244125, 1.055999994277954, 0.0, 0.0, 0.0, 0.0, 0.0, 1.6213381324506812E9, 2021-05-18 13:42:12.450
47.0, -24.741308212280273, 245.94703674316406, 10.479199409484863, -75.68809509277344, -0.01600000075995922, -0.08000000566244125, 1.055999994277954, 0.0, 0.0, 0.0, 0.0, 0.0, 1.6213381324506812E9, 2021-05-18 13:42:12.450
48.0, -68.60285186767578, 193.02745056152344, -36.89785385131836, -128.63760375976562, -0.01600000075995922, -0.08000000566244125, 1.055999994277954, 0.0, 0.0, 0.0, 0.0, 0.0, 1.6213381324512665E9, 2021-05-18 13:42:12.451
48.0, -40.28807067871094, 222.3594970703125, -3.074197769165039, -100.62574768066406, -0.01600000075995922, -0.08000000566244125, 1.055999994277954, 0.0, 0.0, 0.0, 0.0, 0.0, 1.6213381324512665E9, 2021-05-18 13:42:12.451
49.0, 14.980169296264648, 280.2680969238281, 64.56563568115234, -46.38597869873047, -0.01600000075995922, -0.08000000566244125, 1.055999994277954, 0.0, 0.0, 0.0, 0.0, 0.0, 1.621338132464232E9, 2021-05-18 13:42:12.464
49.0, -16.831418991088867, 237.2405548095703, 21.09677505493164, -85.89427947998047, -0.01600000075995922, -0.08000000566244125, 1.055999994277954, 0.0, 0.0, 0.0, 0.0, 0.0, 1.621338132464232E9, 2021-05-18 13:42:12.464
50.0, -63.11642074584961, 193.9549560546875, -33.20283126831055, -139.08688354492188, -0.01600000075995922, -0.08000000566244125, 1.040000081062317, 0.0, 0.0, 0.0, 0.0, 0.0, 1.6213381324963713E9, 2021-05-18 13:42:12.496
50.0, -33.511375427246094, 230.67703247070312, 7.0534515380859375, -104.79947662353516, -0.01600000075995922, -0.08000000566244125, 1.040000081062317, 0.0, 0.0, 0.0, 0.0, 0.0, 1.6213381324963713E9, 2021-05-18 13:42:12.496
51.0, 16.726701736450195, 282.8448791503906, 60.167510986328125, -49.336761474609375, -0.01600000075995922, -0.08000000566244125, 1.040000081062317, 0.0, 0.0, 0.0, 0.0, 0.0, 1.6213381324970407E9, 2021-05-18 13:42:12.497
51.0, -15.810426712036133, 245.74134826660156, 19.13332748413086, -86.27201080322266, -0.01600000075995922, -0.08000000566244125, 1.040000081062317, 0.0, 0.0, 0.0, 0.0, 0.0, 1.6213381324970407E9, 2021-05-18 13:42:12.497
52.0, -58.377967834472656, 198.83926391601562, -24.81423568725586, -130.65341186523438, -0.01600000075995922, -0.08000000566244125, 1.040000081062317, 0.0, 0.0, 0.0, 0.0, 0.0, 1.621338132497722E9, 2021-05-18 13:42:12.497
52.0, -33.8853645324707, 230.7967071533203, 9.772358894348145, -96.81478881835938, -0.01600000075995922, -0.08000000566244125, 1.040000081062317, 0.0, 0.0, 0.0, 0.0, 0.0, 1.621338132497722E9, 2021-05-18 13:42:12.497
53.0, 23.357545852661133, 280.1184997558594, 68.20081329345703, -49.91270446777344, -0.01600000075995922, -0.08000000566244125, 1.040000081062317, 0.0, 0.0, 0.0, 0.0, 0.0, 1.6213381324985323E9, 2021-05-18 13:42:12.498
53.0, -8.719576835632324, 243.2094268798828, 23.43795394897461, -87.5622787475586, -0.01600000075995922, -0.08000000566244125, 1.040000081062317, 0.0, 0.0, 0.0, 0.0, 0.0, 1.6213381324985323E9, 2021-05-18 13:42:12.498
54.0, -55.371089935302734, 198.2296600341797, -24.03633689880371, -132.1830291748047, -0.01600000075995922, -0.08000000566244125, 1.040000081062317, 0.0, 0.0, 0.0, 0.0, 0.0, 1.6213381325250156E9, 2021-05-18 13:42:12.525
54.0, -31.30109214782715, 223.9526824951172, 4.858129978179932, -100.59208679199219, -0.01600000075995922, -0.08000000566244125, 1.040000081062317, 0.0, 0.0, 0.0, 0.0, 0.0, 1.6213381325250156E9, 2021-05-18 13:42:12.525
55.0, 16.51726722717285, 282.9795227050781, 65.68012237548828, -48.76081466674805, -0.01600000075995922, -0.08000000566244125, 1.040000081062317, 0.0, 0.0, 0.0, 0.0, 0.0, 1.6213381325257502E9, 2021-05-18 13:42:12.525
55.0, -12.766148567199707, 247.2410430908203, 33.685279846191406, -78.0704116821289, -0.01600000075995922, -0.08000000566244125, 1.040000081062317, 0.0, 0.0, 0.0, 0.0, 0.0, 1.6213381325257502E9, 2021-05-18 13:42:12.525
56.0, -66.04102325439453, 196.35223388671875, -30.274490356445312, -127.14537811279297, -0.01600000075995922, -0.08000000566244125, 1.040000081062317, 0.0, 0.0, 0.0, 0.0, 0.0, 1.621338132540081E9, 2021-05-18 13:42:12.540
56.0, -48.81130599975586, 227.22509765625, -1.92978835105896, -99.78427124023438, -0.01600000075995922, -0.08000000566244125, 1.040000081062317, 0.0, 0.0, 0.0, 0.0, 0.0, 1.621338132540081E9, 2021-05-18 13:42:12.540
57.0, 1.5202692747116089, 288.28271484375, 55.90776443481445, -42.03273391723633, -0.01600000075995922, -0.08000000566244125, 1.040000081062317, 0.0, 0.0, 0.0, 0.0, 0.0, 1.6213381325407972E9, 2021-05-18 13:42:12.540
57.0, -30.493274688720703, 248.30691528320312, 11.369296073913574, -84.16645050048828, -0.01600000075995922, -0.08000000566244125, 1.040000081062317, 0.0, 0.0, 0.0, 0.0, 0.0, 1.6213381325407972E9, 2021-05-18 13:42:12.540
58.0, -77.38414001464844, 193.6146240234375, -42.58998107910156, -131.89878845214844, -0.01600000075995922, -0.08000000566244125, 1.040000081062317, 0.0, 0.0, 0.0, 0.0, 0.0, 1.6213381325542383E9, 2021-05-18 13:42:12.554
58.0, -47.37892150878906, 236.36541748046875, -3.724940299987793, -99.87028503417969, -0.01600000075995922, -0.08000000566244125, 1.040000081062317, 0.0, 0.0, 0.0, 0.0, 0.0, 1.6213381325542383E9, 2021-05-18 13:42:12.554
59.0, 10.533428192138672, 286.8054504394531, 57.89739227294922, -42.73209762573242, -0.01600000075995922, -0.08000000566244125, 1.040000081062317, 0.0, 0.0, 0.0, 0.0, 0.0, 1.6213381325699098E9, 2021-05-18 13:42:12.569
59.0, -20.8218936920166, 248.70335388183594, 23.482831954956055, -84.41702270507812, -0.01600000075995922, -0.08000000566244125, 1.040000081062317, 0.0, 0.0, 0.0, 0.0, 0.0, 1.6213381325699098E9, 2021-05-18 13:42:12.569
60.0, -64.45530700683594, 202.10418701171875, -25.401399612426758, -132.66172790527344, -0.01600000075995922, -0.08000000566244125, 1.055999994277954, 0.0, 0.0, 0.0, 0.0, 0.0, 1.6213381325706055E9, 2021-05-18 13:42:12.570
60.0, -34.72310256958008, 227.2812042236328, 9.499345779418945, -100.6145248413086, -0.01600000075995922, -0.08000000566244125, 1.055999994277954, 0.0, 0.0, 0.0, 0.0, 0.0, 1.6213381325706055E9, 2021-05-18 13:42:12.570
61.0, 23.376245498657227, 283.6601867675781, 71.40965270996094, -41.85696029663086, -0.01600000075995922, -0.08000000566244125, 1.055999994277954, 0.0, 0.0, 0.0, 0.0, 0.0, 1.621338132584208E9, 2021-05-18 13:42:12.584
61.0, -16.15823745727539, 236.8403778076172, 17.356876373291016, -88.10082244873047, -0.01600000075995922, -0.08000000566244125, 1.055999994277954, 0.0, 0.0, 0.0, 0.0, 0.0, 1.621338132584208E9, 2021-05-18 13:42:12.584
62.0, -66.56835174560547, 188.29273986816406, -35.45051193237305, -132.30270385742188, -0.01600000075995922, -0.08000000566244125, 1.055999994277954, 0.0, 0.0, 0.0, 0.0, 0.0, 1.6213381325998583E9, 2021-05-18 13:42:12.599
62.0, -32.901771545410156, 220.41848754882812, 0.5722047090530396, -99.58979797363281, -0.01600000075995922, -0.08000000566244125, 1.055999994277954, 0.0, 0.0, 0.0, 0.0, 0.0, 1.6213381325998583E9, 2021-05-18 13:42:12.599
63.0, 17.411104202270508, 279.86419677734375, 59.61400604248047, -51.999568939208984, -0.01600000075995922, -0.08000000566244125, 1.055999994277954, 0.0, 0.0, 0.0, 0.0, 0.0, 1.6213381326006544E9, 2021-05-18 13:42:12.600
63.0, -19.131458282470703, 246.29110717773438, 14.967079162597656, -91.98284149169922, -0.01600000075995922, -0.08000000566244125, 1.055999994277954, 0.0, 0.0, 0.0, 0.0, 0.0, 1.6213381326006544E9, 2021-05-18 13:42:12.600
64.0, -64.9265365600586, 192.7320098876953, -42.163631439208984, -135.64242553710938, -0.01600000075995922, -0.08000000566244125, 1.055999994277954, 0.0, 0.0, 0.0, 0.0, 0.0, 1.6213381326142824E9, 2021-05-18 13:42:12.614
64.0, -38.425601959228516, 229.69717407226562, -6.279292106628418, -100.00492858886719, -0.01600000075995922, -0.08000000566244125, 1.055999994277954, 0.0, 0.0, 0.0, 0.0, 0.0, 1.6213381326142824E9, 2021-05-18 13:42:12.614
65.0, 8.00899600982666, 280.31671142578125, 53.27113342285156, -52.736328125, -0.01600000075995922, -0.08000000566244125, 1.055999994277954, 0.0, 0.0, 0.0, 0.0, 0.0, 1.6213381326298556E9, 2021-05-18 13:42:12.629
65.0, -21.928903579711914, 251.2240447998047, 13.875028610229492, -83.98693084716797, -0.01600000075995922, -0.08000000566244125, 1.055999994277954, 0.0, 0.0, 0.0, 0.0, 0.0, 1.6213381326298556E9, 2021-05-18 13:42:12.629
66.0, -71.92388916015625, 196.22506713867188, -36.14613342285156, -136.3006591796875, -0.01600000075995922, -0.08000000566244125, 1.055999994277954, 0.0, 0.0, 0.0, 0.0, 0.0, 1.6213381326306624E9, 2021-05-18 13:42:12.630
66.0, -40.43766784667969, 223.6273193359375, -3.8670566082000732, -111.1947021484375, -0.01600000075995922, -0.08000000566244125, 1.055999994277954, 0.0, 0.0, 0.0, 0.0, 0.0, 1.6213381326306624E9, 2021-05-18 13:42:12.630
67.0, 10.851319313049316, 278.95166015625, 53.27113342285156, -60.08897399902344, -0.01600000075995922, -0.08000000566244125, 1.055999994277954, 0.0, 0.0, 0.0, 0.0, 0.0, 1.6213381326442716E9, 2021-05-18 13:42:12.644
67.0, -23.05461311340332, 252.14405822753906, 20.371234893798828, -93.6283950805664, -0.01600000075995922, -0.08000000566244125, 1.055999994277954, 0.0, 0.0, 0.0, 0.0, 0.0, 1.6213381326442716E9, 2021-05-18 13:42:12.644
68.0, -63.812042236328125, 205.45140075683594, -23.030303955078125, -131.31910705566406, -0.01600000075995922, -0.08000000566244125, 1.055999994277954, 0.0, 0.0, 0.0, 0.0, 0.0, 1.621338132660666E9, 2021-05-18 13:42:12.660
68.0, -33.30567932128906, 230.65084838867188, 10.621315956115723, -103.93181610107422, -0.01600000075995922, -0.08000000566244125, 1.055999994277954, 0.0, 0.0, 0.0, 0.0, 0.0, 1.621338132660666E9, 2021-05-18 13:42:12.660
69.0, 20.556360244750977, 281.7378845214844, 71.85843658447266, -45.174251556396484, -0.01600000075995922, -0.08000000566244125, 1.055999994277954, 0.0, 0.0, 0.0, 0.0, 0.0, 1.62133813266139E9, 2021-05-18 13:42:12.661
69.0, -10.540907859802246, 244.12945556640625, 30.12115478515625, -85.04158782958984, -0.01600000075995922, -0.08000000566244125, 1.055999994277954, 0.0, 0.0, 0.0, 0.0, 0.0, 1.62133813266139E9, 2021-05-18 13:42:12.661
70.0, -65.31548309326172, 193.96990966796875, -28.984224319458008, -131.3340606689453, -0.01600000075995922, -0.08000000566244125, 1.055999994277954, 0.0, 0.0, 0.0, 0.0, 0.0, 1.6213381326743588E9, 2021-05-18 13:42:12.674
70.0, -34.936275482177734, 229.184814453125, 0.96489417552948, -100.49858856201172, -0.01600000075995922, -0.08000000566244125, 1.055999994277954, 0.0, 0.0, 0.0, 0.0, 0.0, 1.6213381326743588E9, 2021-05-18 13:42:12.674
71.0, 14.030234336853027, 278.92547607421875, 60.507843017578125, -45.69409942626953, -0.01600000075995922, -0.08000000566244125, 1.055999994277954, 0.0, 0.0, 0.0, 0.0, 0.0, 1.6213381326896515E9, 2021-05-18 13:42:12.689
71.0, -23.155590057373047, 246.5940399169922, 12.337929725646973, -82.65927124023438, -0.01600000075995922, -0.08000000566244125, 1.055999994277954, 0.0, 0.0, 0.0, 0.0, 0.0, 1.6213381326896515E9, 2021-05-18 13:42:12.689
72.0, -80.4658203125, 192.0513458251953, -41.70736312866211, -136.77561950683594, -0.01600000075995922, -0.08000000566244125, 1.055999994277954, 0.0, 0.0, 0.0, 0.0, 0.0, 1.6213381327049017E9, 2021-05-18 13:42:12.704
72.0, -49.95197296142578, 225.84133911132812, -8.388595581054688, -103.68124389648438, -0.01600000075995922, -0.08000000566244125, 1.055999994277954, 0.0, 0.0, 0.0, 0.0, 0.0, 1.6213381327049017E9, 2021-05-18 13:42:12.704
73.0, 5.297568321228027, 282.83740234375, 50.612064361572266, -51.93973159790039, -0.01600000075995922, -0.08000000566244125, 1.055999994277954, 0.0, 0.0, 0.0, 0.0, 0.0, 1.6213381327055984E9, 2021-05-18 13:42:12.705
73.0, -24.558053970336914, 250.11329650878906, 13.08965015411377, -84.48808288574219, -0.01600000075995922, -0.08000000566244125, 1.055999994277954, 0.0, 0.0, 0.0, 0.0, 0.0, 1.6213381327055984E9, 2021-05-18 13:42:12.705
74.0, -70.82061767578125, 195.79124450683594, -39.71773910522461, -135.5302276611328, -0.01600000075995922, -0.08000000566244125, 1.055999994277954, 0.0, 0.0, 0.0, 0.0, 0.0, 1.621338132719856E9, 2021-05-18 13:42:12.719
74.0, -44.962947845458984, 229.0875701904297, -6.092297077178955, -102.37602233886719, -0.01600000075995922, -0.08000000566244125, 1.055999994277954, 0.0, 0.0, 0.0, 0.0, 0.0, 1.621338132719856E9, 2021-05-18 13:42:12.719
75.0, 10.675544738769531, 285.9639587402344, 57.61689758300781, -51.419883728027344, -0.01600000075995922, -0.08000000566244125, 1.055999994277954, 0.0, 0.0, 0.0, 0.0, 0.0, 1.6213381327205784E9, 2021-05-18 13:42:12.720
75.0, -19.385770797729492, 249.1446533203125, 19.47365951538086, -89.9745101928711, -0.01600000075995922, -0.08000000566244125, 1.055999994277954, 0.0, 0.0, 0.0, 0.0, 0.0, 1.6213381327205784E9, 2021-05-18 13:42:12.720
76.0, -66.6581039428711, 199.48626708984375, -36.52012252807617, -139.7263946533203, -0.01600000075995922, -0.08000000566244125, 1.055999994277954, 0.0, 0.0, 0.0, 0.0, 0.0, 1.6213381327341566E9, 2021-05-18 13:42:12.734
76.0, -39.12122344970703, 225.68052673339844, -2.2102808952331543, -111.03388977050781, -0.01600000075995922, -0.08000000566244125, 1.055999994277954, 0.0, 0.0, 0.0, 0.0, 0.0, 1.6213381327341566E9, 2021-05-18 13:42:12.734
77.0, 13.918037414550781, 282.8523864746094, 58.31251907348633, -52.43339920043945, -0.01600000075995922, -0.08000000566244125, 1.055999994277954, 0.0, 0.0, 0.0, 0.0, 0.0, 1.621338132749575E9, 2021-05-18 13:42:12.749
77.0, -16.150758743286133, 240.38955688476562, 19.383901596069336, -87.43511962890625, -0.01600000075995922, -0.08000000566244125, 1.055999994277954, 0.0, 0.0, 0.0, 0.0, 0.0, 1.621338132749575E9, 2021-05-18 13:42:12.749
78.0, -59.23066711425781, 196.05677795410156, -31.90882682800293, -137.3515625, -0.01600000075995922, -0.08000000566244125, 1.055999994277954, 0.0, 0.0, 0.0, 0.0, 0.0, 1.6213381327814658E9, 2021-05-18 13:42:12.781
78.0, -35.269126892089844, 223.1224365234375, -0.44504809379577637, -109.8857421875, -0.01600000075995922, -0.08000000566244125, 1.055999994277954, 0.0, 0.0, 0.0, 0.0, 0.0, 1.6213381327814658E9, 2021-05-18 13:42:12.781
79.0, 18.592912673950195, 272.3731689453125, 54.99148941040039, -56.62956619262695, -0.01600000075995922, -0.08000000566244125, 1.055999994277954, 0.0, 0.0, 0.0, 0.0, 0.0, 1.6213381327819812E9, 2021-05-18 13:42:12.781
79.0, -13.637545585632324, 241.7583465576172, 17.005325317382812, -90.41582489013672, -0.01600000075995922, -0.08000000566244125, 1.055999994277954, 0.0, 0.0, 0.0, 0.0, 0.0, 1.6213381327819812E9, 2021-05-18 13:42:12.781
80.0, -62.23380661010742, 191.85687255859375, -36.056373596191406, -138.2528839111328, -0.01600000075995922, -0.08000000566244125, 1.055999994277954, 0.0, 0.0, 0.0, 0.0, 0.0, 1.6213381327827437E9, 2021-05-18 13:42:12.782
80.0, -32.681114196777344, 223.8068389892578, -7.8425703048706055, -106.73674774169922, -0.01600000075995922, -0.08000000566244125, 1.055999994277954, 0.0, 0.0, 0.0, 0.0, 0.0, 1.6213381327827437E9, 2021-05-18 13:42:12.782
81.0, 16.524747848510742, 281.09088134765625, 59.688804626464844, -45.0770149230957, -0.01600000075995922, -0.08000000566244125, 1.055999994277954, 0.0, 0.0, 0.0, 0.0, 0.0, 1.621338132783512E9, 2021-05-18 13:42:12.783
81.0, -13.656244277954102, 242.30812072753906, 12.483785629272461, -88.75530242919922, -0.01600000075995922, -0.08000000566244125, 1.055999994277954, 0.0, 0.0, 0.0, 0.0, 0.0, 1.621338132783512E9, 2021-05-18 13:42:12.783
82.0, -63.59138870239258, 190.99295043945312, -40.686370849609375, -138.9746856689453, -0.01600000075995922, -0.08000000566244125, 1.055999994277954, 0.0, 0.0, 0.0, 0.0, 0.0, 1.6213381328113778E9, 2021-05-18 13:42:12.811
82.0, -41.387603759765625, 211.86907958984375, -15.228872299194336, -104.90045166015625, -0.01600000075995922, -0.08000000566244125, 1.055999994277954, 0.0, 0.0, 0.0, 0.0, 0.0, 1.6213381328113778E9, 2021-05-18 13:42:12.811
83.0, 15.017568588256836, 281.1507263183594, 50.3764533996582, -50.8588981628418, -0.01600000075995922, -0.08000000566244125, 1.055999994277954, 0.0, 0.0, 0.0, 0.0, 0.0, 1.6213381328121333E9, 2021-05-18 13:42:12.812
83.0, -16.42003059387207, 247.0615234375, 16.01051139831543, -84.84710693359375, -0.01600000075995922, -0.08000000566244125, 1.055999994277954, 0.0, 0.0, 0.0, 0.0, 0.0, 1.6213381328121333E9, 2021-05-18 13:42:12.812
84.0, -69.3283920288086, 188.2254180908203, -39.47090530395508, -135.99398803710938, -0.01600000075995922, -0.08000000566244125, 1.055999994277954, 0.0, 0.0, 0.0, 0.0, 0.0, 1.6213381328129413E9, 2021-05-18 13:42:12.812
84.0, -44.26358413696289, 226.94461059570312, -5.665948390960693, -101.153076171875, -0.01600000075995922, -0.08000000566244125, 1.055999994277954, 0.0, 0.0, 0.0, 0.0, 0.0, 1.6213381328129413E9, 2021-05-18 13:42:12.812
85.0, 9.291781425476074, 286.6147155761719, 60.44426345825195, -46.460777282714844, -0.01600000075995922, -0.08000000566244125, 1.055999994277954, 0.0, 0.0, 0.0, 0.0, 0.0, 1.62133813282447E9, 2021-05-18 13:42:12.824
85.0, -16.906217575073242, 254.4852294921875, 23.684785842895508, -82.1843032836914, -0.01600000075995922, -0.08000000566244125, 1.055999994277954, 0.0, 0.0, 0.0, 0.0, 0.0, 1.62133813282447E9, 2021-05-18 13:42:12.824
86.0, -69.50042724609375, 196.51678466796875, -29.825702667236328, -130.7057647705078, -0.01600000075995922, -0.08000000566244125, 1.055999994277954, 0.0, 0.0, 0.0, 0.0, 0.0, 1.6213381328400557E9, 2021-05-18 13:42:12.840
86.0, -39.19227981567383, 225.22799682617188, -0.127156600356102, -104.70223999023438, -0.01600000075995922, -0.08000000566244125, 1.055999994277954, 0.0, 0.0, 0.0, 0.0, 0.0, 1.6213381328400557E9, 2021-05-18 13:42:12.840
87.0, 15.413997650146484, 281.0310363769531, 60.780853271484375, -53.08414077758789, -0.01600000075995922, -0.08000000566244125, 1.055999994277954, 0.0, 0.0, 0.0, 0.0, 0.0, 1.621338132840799E9, 2021-05-18 13:42:12.840
87.0, -14.778214454650879, 245.68150329589844, 21.582962036132812, -90.2774429321289, -0.01600000075995922, -0.08000000566244125, 1.055999994277954, 0.0, 0.0, 0.0, 0.0, 0.0, 1.621338132840799E9, 2021-05-18 13:42:12.840
88.0, -56.81843185424805, 184.00682067871094, -28.258684158325195, -135.8817901611328, -0.01600000075995922, -0.08000000566244125, 1.055999994277954, 0.0, 0.0, 0.0, 0.0, 0.0, 1.621338132854189E9, 2021-05-18 13:42:12.854
88.0, -28.885116577148438, 219.91360473632812, 2.6216697692871094, -105.61103820800781, -0.01600000075995922, -0.08000000566244125, 1.055999994277954, 0.0, 0.0, 0.0, 0.0, 0.0, 1.621338132854189E9, 2021-05-18 13:42:12.854
89.0, 23.469741821289062, 276.064453125, 58.7463493347168, -48.05771255493164, -0.01600000075995922, -0.08000000566244125, 1.055999994277954, 0.0, 0.0, 0.0, 0.0, 0.0, 1.62133813287041E9, 2021-05-18 13:42:12.870
89.0, -12.941924095153809, 240.8907012939453, 21.85971450805664, -84.23002624511719, -0.01600000075995922, -0.08000000566244125, 1.055999994277954, 0.0, 0.0, 0.0, 0.0, 0.0, 1.62133813287041E9, 2021-05-18 13:42:12.870
90.0, -62.53673553466797, 200.54466247558594, -33.389827728271484, -130.41030883789062, -0.01600000075995922, -0.08000000566244125, 1.055999994277954, 0.0, 0.0, 0.0, 0.0, 0.0, 1.6213381328850226E9, 2021-05-18 13:42:12.885
90.0, -42.73770523071289, 223.68341064453125, -0.24683339893817902, -109.77354431152344, -0.01600000075995922, -0.08000000566244125, 1.055999994277954, 0.0, 0.0, 0.0, 0.0, 0.0, 1.6213381328850226E9, 2021-05-18 13:42:12.885
91.0, 14.609919548034668, 283.353515625, 53.66008377075195, -51.576961517333984, -0.01600000075995922, -0.08000000566244125, 1.055999994277954, 0.0, 0.0, 0.0, 0.0, 0.0, 1.6213381328856263E9, 2021-05-18 13:42:12.885
91.0, -13.259815216064453, 241.44419860839844, 20.105701446533203, -80.8603744506836, -0.01600000075995922, -0.08000000566244125, 1.055999994277954, 0.0, 0.0, 0.0, 0.0, 0.0, 1.6213381328856263E9, 2021-05-18 13:42:12.885
92.0, -65.67825317382812, 200.03976440429688, -32.08086013793945, -124.38533020019531, -0.01600000075995922, -0.08000000566244125, 1.055999994277954, 0.0, 0.0, 0.0, 0.0, 0.0, 1.621338132899872E9, 2021-05-18 13:42:12.899
92.0, -41.78403091430664, 229.03521728515625, -2.8086647987365723, -98.36310577392578, -0.01600000075995922, -0.08000000566244125, 1.055999994277954, 0.0, 0.0, 0.0, 0.0, 0.0, 1.621338132899872E9, 2021-05-18 13:42:12.899
93.0, 8.577460289001465, 291.745849609375, 55.41035842895508, -45.10693359375, -0.01600000075995922, -0.08000000566244125, 1.055999994277954, 0.0, 0.0, 0.0, 0.0, 0.0, 1.621338132900581E9, 2021-05-18 13:42:12.900
93.0, -20.803194046020508, 249.87393188476562, 21.130434036254883, -81.140869140625, -0.01600000075995922, -0.08000000566244125, 1.055999994277954, 0.0, 0.0, 0.0, 0.0, 0.0, 1.621338132900581E9, 2021-05-18 13:42:12.900
94.0, -67.45844268798828, 195.9034423828125, -37.021270751953125, -132.84498596191406, -0.01600000075995922, -0.08000000566244125, 1.055999994277954, 0.0, 0.0, 0.0, 0.0, 0.0, 1.6213381329306753E9, 2021-05-18 13:42:12.930
94.0, -42.44225311279297, 232.4796600341797, -5.572451114654541, -104.32450866699219, -0.01600000075995922, -0.08000000566244125, 1.055999994277954, 0.0, 0.0, 0.0, 0.0, 0.0, 1.6213381329306753E9, 2021-05-18 13:42:12.930
95.0, 11.090673446655273, 282.48211669921875, 48.73463821411133, -53.70122528076172, -0.01600000075995922, -0.08000000566244125, 1.055999994277954, 0.0, 0.0, 0.0, 0.0, 0.0, 1.6213381329313934E9, 2021-05-18 13:42:12.931
95.0, -19.688703536987305, 245.28134155273438, 18.463886260986328, -85.83818054199219, -0.01600000075995922, -0.08000000566244125, 1.055999994277954, 0.0, 0.0, 0.0, 0.0, 0.0, 1.6213381329313934E9, 2021-05-18 13:42:12.931
96.0, -69.00676727294922, 190.42822265625, -37.22696304321289, -134.20257568359375, -0.01600000075995922, -0.08000000566244125, 1.055999994277954, 0.0, 0.0, 0.0, 0.0, 0.0, 1.621338132932188E9, 2021-05-18 13:42:12.932
96.0, -41.27166748046875, 227.4420166015625, -1.3463640213012695, -99.44393920898438, -0.01600000075995922, -0.08000000566244125, 1.055999994277954, 0.0, 0.0, 0.0, 0.0, 0.0, 1.621338132932188E9, 2021-05-18 13:42:12.932
97.0, 7.881839275360107, 279.9202880859375, 49.53871536254883, -47.77348327636719, -0.01600000075995922, -0.08000000566244125, 1.055999994277954, 0.0, 0.0, 0.0, 0.0, 0.0, 1.621338132944165E9, 2021-05-18 13:42:12.944
97.0, -22.35525131225586, 237.92495727539062, 11.739545822143555, -85.60630798339844, -0.01600000075995922, -0.08000000566244125, 1.055999994277954, 0.0, 0.0, 0.0, 0.0, 0.0, 1.621338132944165E9, 2021-05-18 13:42:12.944
98.0, -73.2814712524414, 192.50013732910156, -43.40153884887695, -137.21693420410156, -0.01600000075995922, -0.08000000566244125, 1.055999994277954, 0.0, 0.0, 0.0, 0.0, 0.0, 1.6213381329600413E9, 2021-05-18 13:42:12.960
98.0, -40.243194580078125, 221.28988647460938, -7.064671039581299, -102.16284942626953, -0.01600000075995922, -0.08000000566244125, 1.055999994277954, 0.0, 0.0, 0.0, 0.0, 0.0, 1.6213381329600413E9, 2021-05-18 13:42:12.960
99.0, 6.89076566696167, 280.4364013671875, 52.34737777709961, -56.20695495605469, -0.01600000075995922, -0.08000000566244125, 1.055999994277954, 0.0, 0.0, 0.0, 0.0, 0.0, 1.6213381329607978E9, 2021-05-18 13:42:12.960
99.0, -19.51666831970215, 245.10182189941406, 6.342870235443115, -92.88041687011719, -0.01600000075995922, -0.08000000566244125, 1.055999994277954, 0.0, 0.0, 0.0, 0.0, 0.0, 1.6213381329607978E9, 2021-05-18 13:42:12.960
100.0, -62.716251373291016, 187.30540466308594, -39.34748840332031, -138.5894775390625, -0.01600000075995922, -0.08000000566244125, 1.055999994277954, 0.0, 0.0, 0.0, 0.0, 0.0, 1.6213381329914284E9, 2021-05-18 13:42:12.991
100.0, -32.34452438354492, 227.7860870361328, 2.2177605628967285, -104.08141326904297, -0.01600000075995922, -0.08000000566244125, 1.055999994277954, 0.0, 0.0, 0.0, 0.0, 0.0, 1.6213381329914284E9, 2021-05-18 13:42:12.991
0.0, 15.8309965133667, 283.5536193847656, 58.293819427490234, -53.90878677368164, -0.01600000075995922, -0.08000000566244125, 1.055999994277954, 0.0, 0.0, 0.0, 0.0, 0.0, 1.6213381329921248E9, 2021-05-18 13:42:12.992
1.0, -14.563170433044434, 245.2981719970703, 20.66668701171875, -88.82823181152344, -0.01600000075995922, -0.08000000566244125, 1.055999994277954, 0.0, 0.0, 0.0, 0.0, 0.0, 1.6213381329929333E9, 2021-05-18 13:42:12.992
1.0, -63.79521179199219, 202.19207763671875, -35.020423889160156, -129.88485717773438, -0.01600000075995922, -0.08000000566244125, 1.055999994277954, 0.0, 0.0, 0.0, 0.0, 0.0, 1.6213381329929333E9, 2021-05-18 13:42:12.992
2.0, -39.57936096191406, 230.88833618164062, -4.637475967407227, -104.0945053100586, -0.01600000075995922, -0.08000000566244125, 1.055999994277954, 0.0, 0.0, 0.0, 0.0, 0.0, 1.6213381329936035E9, 2021-05-18 13:42:12.993
2.0, 12.394028663635254, 290.7342224121094, 54.011634826660156, -49.794898986816406, -0.01600000075995922, -0.08000000566244125, 1.055999994277954, 0.0, 0.0, 0.0, 0.0, 0.0, 1.6213381329936035E9, 2021-05-18 13:42:12.993
3.0, -20.180500030517578, 246.99234008789062, 12.5062255859375, -92.14178466796875, -0.01600000075995922, -0.08000000566244125, 1.055999994277954, 0.0, 0.0, 0.0, 0.0, 0.0, 1.6213381330525947E9, 2021-05-18 13:42:13.052
3.0, -66.26728820800781, 208.04129028320312, -32.5707893371582, -134.3839569091797, -0.01600000075995922, -0.08000000566244125, 1.055999994277954, 0.0, 0.0, 0.0, 0.0, 0.0, 1.6213381330525947E9, 2021-05-18 13:42:13.052
4.0, -39.3549690246582, 238.05772399902344, 0.2954520881175995, -98.85116577148438, -0.01600000075995922, -0.08000000566244125, 1.055999994277954, 0.0, 0.0, 0.0, 0.0, 0.0, 1.6213381330533783E9, 2021-05-18 13:42:13.053
4.0, 9.346010208129883, 286.7923583984375, 55.18222427368164, -50.28856658935547, -0.01600000075995922, -0.08000000566244125, 1.055999994277954, 0.0, 0.0, 0.0, 0.0, 0.0, 1.6213381330533783E9, 2021-05-18 13:42:13.053
5.0, -20.057083129882812, 247.68795776367188, 8.81494426727295, -81.62518310546875, -0.01600000075995922, -0.08000000566244125, 1.055999994277954, 0.0, 0.0, 0.0, 0.0, 0.0, 1.6213381330540888E9, 2021-05-18 13:42:13.054
5.0, -76.29769897460938, 193.9942169189453, -46.6440315246582, -131.06666564941406, -0.01600000075995922, -0.08000000566244125, 1.055999994277954, 0.0, 0.0, 0.0, 0.0, 0.0, 1.6213381330540888E9, 2021-05-18 13:42:13.054
6.0, -47.67998504638672, 221.3740234375, -12.648341178894043, -100.04793548583984, -0.01600000075995922, -0.08000000566244125, 1.055999994277954, 0.0, 0.0, 0.0, 0.0, 0.0, 1.6213381330548189E9, 2021-05-18 13:42:13.054
6.0, 8.571850776672363, 283.8976745605469, 50.20067596435547, -42.90974044799805, -0.01600000075995922, -0.08000000566244125, 1.055999994277954, 0.0, 0.0, 0.0, 0.0, 0.0, 1.6213381330548189E9, 2021-05-18 13:42:13.054
7.0, -21.0631160736084, 244.28839111328125, 11.223440170288086, -80.40597534179688, -0.01600000075995922, -0.08000000566244125, 1.055999994277954, 0.0, 0.0, 0.0, 0.0, 0.0, 1.6213381330655477E9, 2021-05-18 13:42:13.065
7.0, -73.59001159667969, 200.269775390625, -42.97145080566406, -128.42630004882812, -0.01600000075995922, -0.08000000566244125, 1.055999994277954, 0.0, 0.0, 0.0, 0.0, 0.0, 1.6213381330655477E9, 2021-05-18 13:42:13.065
8.0, -54.14253234863281, 231.35955810546875, -9.132835388183594, -100.51915740966797, -0.01600000075995922, -0.08000000566244125, 1.055999994277954, 0.0, 0.0, 0.0, 0.0, 0.0, 1.6213381330663545E9, 2021-05-18 13:42:13.066
8.0, -1.7240939140319824, 284.9897155761719, 48.805694580078125, -51.07020568847656, -0.01600000075995922, -0.08000000566244125, 1.055999994277954, 0.0, 0.0, 0.0, 0.0, 0.0, 1.6213381330663545E9, 2021-05-18 13:42:13.066
9.0, -17.65606689453125, 252.1571502685547, 12.610942840576172, -81.68876647949219, -0.01600000075995922, -0.08000000566244125, 1.055999994277954, 0.0, 0.0, 0.0, 0.0, 0.0, 1.6213381330670173E9, 2021-05-18 13:42:13.067
9.0, -69.76782989501953, 197.8612823486328, -38.43121337890625, -132.79449462890625, -0.01600000075995922, -0.08000000566244125, 1.055999994277954, 0.0, 0.0, 0.0, 0.0, 0.0, 1.6213381330670173E9, 2021-05-18 13:42:13.067
10.0, -43.173404693603516, 230.7910919189453, -6.858976364135742, -104.94720458984375, -0.01600000075995922, -0.08000000566244125, 1.055999994277954, 0.0, 0.0, 0.0, 0.0, 0.0, 1.6213381330792537E9, 2021-05-18 13:42:13.079
10.0, 12.779237747192383, 281.2947082519531, 52.88592529296875, -48.88610076904297, -0.01600000075995922, -0.08000000566244125, 1.055999994277954, 0.0, 0.0, 0.0, 0.0, 0.0, 1.6213381330792537E9, 2021-05-18 13:42:13.079
11.0, -19.828948974609375, 248.09561157226562, 19.533496856689453, -83.58489227294922, -0.01600000075995922, -0.08000000566244125, 1.055999994277954, 0.0, 0.0, 0.0, 0.0, 0.0, 1.621338133095655E9, 2021-05-18 13:42:13.095
11.0, -69.52848052978516, 199.0804901123047, -36.55004119873047, -134.75421142578125, -0.01600000075995922, -0.08000000566244125, 1.055999994277954, 0.0, 0.0, 0.0, 0.0, 0.0, 1.621338133095655E9, 2021-05-18 13:42:13.095
12.0, -44.22431564331055, 229.14553833007812, -3.5491650104522705, -102.89773559570312, -0.01600000075995922, -0.08000000566244125, 1.055999994277954, 0.0, 0.0, 0.0, 0.0, 0.0, 1.6213381330963993E9, 2021-05-18 13:42:13.096
12.0, 14.499591827392578, 287.67498779296875, 58.83610534667969, -47.08346939086914, -0.01600000075995922, -0.08000000566244125, 1.055999994277954, 0.0, 0.0, 0.0, 0.0, 0.0, 1.6213381330963993E9, 2021-05-18 13:42:13.096
13.0, -17.285818099975586, 250.35450744628906, 23.441692352294922, -84.61710357666016, -0.01600000075995922, -0.08000000566244125, 1.055999994277954, 0.0, 0.0, 0.0, 0.0, 0.0, 1.6213381331093593E9, 2021-05-18 13:42:13.109
13.0, -68.5710678100586, 195.59115600585938, -28.19136619567871, -128.706787109375, -0.01600000075995922, -0.08000000566244125, 1.055999994277954, 0.0, 0.0, 0.0, 0.0, 0.0, 1.6213381331093593E9, 2021-05-18 13:42:13.109
14.0, -43.78300857543945, 228.80894470214844, 4.069011211395264, -102.32926940917969, -0.01600000075995922, -0.08000000566244125, 1.055999994277954, 0.0, 0.0, 0.0, 0.0, 0.0, 1.621338133124944E9, 2021-05-18 13:42:13.124
14.0, 14.656667709350586, 291.24658203125, 60.82573318481445, -44.955467224121094, -0.01600000075995922, -0.08000000566244125, 1.055999994277954, 0.0, 0.0, 0.0, 0.0, 0.0, 1.621338133124944E9, 2021-05-18 13:42:13.124
15.0, -22.64509391784668, 244.5988006591797, 18.669580459594727, -95.4852523803711, -0.01600000075995922, -0.08000000566244125, 1.055999994277954, 0.0, 0.0, 0.0, 0.0, 0.0, 1.6213381331257155E9, 2021-05-18 13:42:13.125
15.0, -70.5232925415039, 196.31295776367188, -33.6740608215332, -139.97885131835938, -0.01600000075995922, -0.08000000566244125, 1.055999994277954, 0.0, 0.0, 0.0, 0.0, 0.0, 1.6213381331257155E9, 2021-05-18 13:42:13.125
16.0, -35.674903869628906, 230.2039337158203, 2.4870333671569824, -101.83934783935547, -0.01600000075995922, -0.08000000566244125, 1.055999994277954, 0.0, 0.0, 0.0, 0.0, 0.0, 1.6213381331393096E9, 2021-05-18 13:42:13.139
16.0, 14.36495590209961, 288.77825927734375, 61.0875244140625, -47.27420425415039, -0.01600000075995922, -0.08000000566244125, 1.055999994277954, 0.0, 0.0, 0.0, 0.0, 0.0, 1.6213381331393096E9, 2021-05-18 13:42:13.139
17.0, -17.484031677246094, 246.67819213867188, 17.850542068481445, -82.1375503540039, -0.01600000075995922, -0.08000000566244125, 1.055999994277954, 0.0, 0.0, 0.0, 0.0, 0.0, 1.6213381331555505E9, 2021-05-18 13:42:13.155
17.0, -69.76409149169922, 192.66281127929688, -32.185577392578125, -133.20962524414062, -0.01600000075995922, -0.08000000566244125, 1.055999994277954, 0.0, 0.0, 0.0, 0.0, 0.0, 1.6213381331555505E9, 2021-05-18 13:42:13.155
18.0, -41.72980499267578, 227.50372314453125, -4.4430012702941895, -105.13420104980469, -0.01600000075995922, -0.08000000566244125, 1.055999994277954, 0.0, 0.0, 0.0, 0.0, 0.0, 1.6213381331562707E9, 2021-05-18 13:42:13.156
18.0, 9.241292953491211, 282.47650146484375, 44.220577239990234, -52.73072052001953, -0.01600000075995922, -0.08000000566244125, 1.055999994277954, 0.0, 0.0, 0.0, 0.0, 0.0, 1.6213381331562707E9, 2021-05-18 13:42:13.156
19.0, -23.546409606933594, 246.32664489746094, 5.755705833435059, -84.07108306884766, -0.01600000075995922, -0.08000000566244125, 1.055999994277954, 0.0, 0.0, 0.0, 0.0, 0.0, 1.6213381331693163E9, 2021-05-18 13:42:13.169
19.0, -72.46056365966797, 191.39125061035156, -43.46137619018555, -134.2268829345703, -0.01600000075995922, -0.08000000566244125, 1.055999994277954, 0.0, 0.0, 0.0, 0.0, 0.0, 1.6213381331693163E9, 2021-05-18 13:42:13.169
20.0, -43.790489196777344, 224.27618408203125, -6.802877902984619, -100.05915069580078, -0.01600000075995922, -0.08000000566244125, 1.055999994277954, 0.0, 0.0, 0.0, 0.0, 0.0, 1.62133813318489E9, 2021-05-18 13:42:13.184
20.0, 12.951273918151855, 284.43621826171875, 58.922122955322266, -48.635528564453125, -0.01600000075995922, -0.08000000566244125, 1.055999994277954, 0.0, 0.0, 0.0, 0.0, 0.0, 1.62133813318489E9, 2021-05-18 13:42:13.184
21.0, -19.61951446533203, 248.933349609375, 15.6253023147583, -79.59815979003906, -0.01600000075995922, -0.08000000566244125, 1.055999994277954, 0.0, 0.0, 0.0, 0.0, 0.0, 1.621338133185639E9, 2021-05-18 13:42:13.185
21.0, -62.68072509765625, 200.42684936523438, -31.022470474243164, -130.88340759277344, -0.01600000075995922, -0.08000000566244125, 1.055999994277954, 0.0, 0.0, 0.0, 0.0, 0.0, 1.621338133185639E9, 2021-05-18 13:42:13.185
22.0, -39.08943557739258, 235.1219024658203, 0.5722047090530396, -101.22974395751953, -0.01600000075995922, -0.08000000566244125, 1.055999994277954, 0.0, 0.0, 0.0, 0.0, 0.0, 1.6213381331992116E9, 2021-05-18 13:42:13.199
22.0, 13.5421781539917, 288.2247314453125, 64.54693603515625, -43.201454162597656, -0.01600000075995922, -0.08000000566244125, 1.055999994277954, 0.0, 0.0, 0.0, 0.0, 0.0, 1.6213381331992116E9, 2021-05-18 13:42:13.199
23.0, -10.475460052490234, 258.5860290527344, 29.444232940673828, -72.46243286132812, -0.01600000075995922, -0.08000000566244125, 1.055999994277954, 0.0, 0.0, 0.0, 0.0, 0.0, 1.621338133215673E9, 2021-05-18 13:42:13.215
23.0, -64.861083984375, 201.82557678222656, -19.137067794799805, -118.85588836669922, -0.01600000075995922, -0.08000000566244125, 1.055999994277954, 0.0, 0.0, 0.0, 0.0, 0.0, 1.621338133215673E9, 2021-05-18 13:42:13.215
24.0, -36.299468994140625, 229.9870147705078, 5.729526519775391, -97.72919464111328, -0.01600000075995922, -0.08000000566244125, 1.055999994277954, 0.0, 0.0, 0.0, 0.0, 0.0, 1.6213381332162805E9, 2021-05-18 13:42:13.216
24.0, 15.70009994506836, 280.71875, 65.8596420288086, -43.534305572509766, -0.01600000075995922, -0.08000000566244125, 1.055999994277954, 0.0, 0.0, 0.0, 0.0, 0.0, 1.6213381332162805E9, 2021-05-18 13:42:13.216
25.0, -9.226333618164062, 249.50181579589844, 29.055282592773438, -72.78780364990234, -0.01600000075995922, -0.08000000566244125, 1.055999994277954, 0.0, 0.0, 0.0, 0.0, 0.0, 1.6213381332292223E9, 2021-05-18 13:42:13.229
25.0, -58.159183502197266, 198.19412231445312, -27.0843563079834, -118.81848907470703, -0.01600000075995922, -0.08000000566244125, 1.055999994277954, 0.0, 0.0, 0.0, 0.0, 0.0, 1.6213381332292223E9, 2021-05-18 13:42:13.229
26.0, -47.78096008300781, 222.9560089111328, -4.7459330558776855, -96.25193786621094, -0.01600000075995922, -0.08000000566244125, 1.055999994277954, 0.0, 0.0, 0.0, 0.0, 0.0, 1.6213381332449543E9, 2021-05-18 13:42:13.244
26.0, 8.945840835571289, 277.10601806640625, 50.31287384033203, -48.55324935913086, -0.01600000075995922, -0.08000000566244125, 1.055999994277954, 0.0, 0.0, 0.0, 0.0, 0.0, 1.6213381332449543E9, 2021-05-18 13:42:13.244
27.0, -21.0631160736084, 244.9578399658203, 13.40006160736084, -84.69190216064453, -0.01600000075995922, -0.08000000566244125, 1.055999994277954, 0.0, 0.0, 0.0, 0.0, 0.0, 1.6213381332456849E9, 2021-05-18 13:42:13.245
27.0, -73.61993408203125, 193.309814453125, -51.24784851074219, -136.02577209472656, -0.01600000075995922, -0.08000000566244125, 1.055999994277954, 0.0, 0.0, 0.0, 0.0, 0.0, 1.6213381332456849E9, 2021-05-18 13:42:13.245
28.0, -42.690956115722656, 220.81304931640625, -18.228271484375, -105.93453979492188, -0.01600000075995922, -0.08000000566244125, 1.055999994277954, 0.0, 0.0, 0.0, 0.0, 0.0, 1.6213381332903614E9, 2021-05-18 13:42:13.290
28.0, 11.118722915649414, 282.0426940917969, 43.30430221557617, -50.23246765136719, -0.01600000075995922, -0.08000000566244125, 1.055999994277954, 0.0, 0.0, 0.0, 0.0, 0.0, 1.6213381332903614E9, 2021-05-18 13:42:13.290
29.0, -18.97625160217285, 249.7336883544922, 8.646648406982422, -86.07566833496094, -0.01600000075995922, -0.08000000566244125, 1.055999994277954, 0.0, 0.0, 0.0, 0.0, 0.0, 1.6213381332911344E9, 2021-05-18 13:42:13.291
29.0, -67.65853118896484, 198.76258850097656, -45.29766845703125, -142.78750610351562, -0.01600000075995922, -0.08000000566244125, 1.055999994277954, 0.0, 0.0, 0.0, 0.0, 0.0, 1.6213381332911344E9, 2021-05-18 13:42:13.291
30.0, -35.6412467956543, 231.0865478515625, -5.385456085205078, -105.89339447021484, -0.01600000075995922, -0.08000000566244125, 1.055999994277954, 0.0, 0.0, 0.0, 0.0, 0.0, 1.6213381333370411E9, 2021-05-18 13:42:13.337
30.0, 18.086156845092773, 288.0078125, 58.11430358886719, -54.04716491699219, -0.01600000075995922, -0.08000000566244125, 1.055999994277954, 0.0, 0.0, 0.0, 0.0, 0.0, 1.6213381333370411E9, 2021-05-18 13:42:13.337
31.0, -7.274105548858643, 252.2020263671875, 25.749210357666016, -85.55956268310547, -0.01600000075995922, -0.08000000566244125, 1.055999994277954, 0.0, 0.0, 0.0, 0.0, 0.0, 1.6213381333376732E9, 2021-05-18 13:42:13.337
31.0, -63.58203887939453, 202.99615478515625, -32.241676330566406, -129.7539520263672, -0.01600000075995922, -0.08000000566244125, 1.055999994277954, 0.0, 0.0, 0.0, 0.0, 0.0, 1.6213381333376732E9, 2021-05-18 13:42:13.337
32.0, -40.5704345703125, 227.92633056640625, -4.065271377563477, -98.72400665283203, -0.01600000075995922, -0.08000000566244125, 1.055999994277954, 0.0, 0.0, 0.0, 0.0, 0.0, 1.6213381333385358E9, 2021-05-18 13:42:13.338
32.0, 11.855483055114746, 282.8617248535156, 56.109718322753906, -42.191680908203125, -0.01600000075995922, -0.08000000566244125, 1.055999994277954, 0.0, 0.0, 0.0, 0.0, 0.0, 1.6213381333385358E9, 2021-05-18 13:42:13.338
33.0, -14.67536735534668, 248.53692626953125, 13.104609489440918, -77.02884674072266, -0.01600000075995922, -0.08000000566244125, 1.055999994277954, 0.0, 0.0, 0.0, 0.0, 0.0, 1.6213381333392973E9, 2021-05-18 13:42:13.339
33.0, -74.53246307373047, 199.4619598388672, -46.991844177246094, -125.5914535522461, -0.01600000075995922, -0.08000000566244125, 1.055999994277954, 0.0, 0.0, 0.0, 0.0, 0.0, 1.6213381333392973E9, 2021-05-18 13:42:13.339
34.0, -45.98955154418945, 233.08740234375, -15.572943687438965, -97.39634704589844, -0.01600000075995922, -0.08000000566244125, 1.055999994277954, 0.0, 0.0, 0.0, 0.0, 0.0, 1.6213381333526113E9, 2021-05-18 13:42:13.352
34.0, 4.098930358886719, 284.14825439453125, 50.290435791015625, -49.56302261352539, -0.01600000075995922, -0.08000000566244125, 1.055999994277954, 0.0, 0.0, 0.0, 0.0, 0.0, 1.6213381333526113E9, 2021-05-18 13:42:13.352
35.0, -23.254697799682617, 245.1560516357422, 10.692374229431152, -83.58489227294922, -0.01600000075995922, -0.08000000566244125, 1.055999994277954, 0.0, 0.0, 0.0, 0.0, 0.0, 1.621338133353335E9, 2021-05-18 13:42:13.353
35.0, -67.35933685302734, 197.40875244140625, -31.920045852661133, -126.02902221679688, -0.01600000075995922, -0.08000000566244125, 1.055999994277954, 0.0, 0.0, 0.0, 0.0, 0.0, 1.621338133353335E9, 2021-05-18 13:42:13.353
36.0, -43.70820999145508, 231.3894805908203, 0.830257773399353, -100.42192077636719, -0.01600000075995922, -0.08000000566244125, 1.055999994277954, 0.0, 0.0, 0.0, 0.0, 0.0, 1.621338133354138E9, 2021-05-18 13:42:13.354
36.0, 3.369649887084961, 277.15838623046875, 58.89968490600586, -50.87199020385742, -0.01600000075995922, -0.08000000566244125, 1.055999994277954, 0.0, 0.0, 0.0, 0.0, 0.0, 1.621338133354138E9, 2021-05-18 13:42:13.354
37.0, -16.8669490814209, 251.55128479003906, 25.390180587768555, -87.23129272460938, -0.01600000075995922, -0.08000000566244125, 1.055999994277954, 0.0, 0.0, 0.0, 0.0, 0.0, 1.6213381333548744E9, 2021-05-18 13:42:13.354
37.0, -62.85649871826172, 203.25421142578125, -27.200292587280273, -130.8609619140625, -0.01600000075995922, -0.08000000566244125, 1.055999994277954, 0.0, 0.0, 0.0, 0.0, 0.0, 1.6213381333548744E9, 2021-05-18 13:42:13.354
38.0, -34.567893981933594, 230.17774963378906, 1.2715660333633423, -104.92850494384766, -0.01600000075995922, -0.08000000566244125, 1.055999994277954, 0.0, 0.0, 0.0, 0.0, 0.0, 1.6213381333649895E9, 2021-05-18 13:42:13.364
38.0, 12.135974884033203, 279.5855712890625, 59.5915641784668, -56.50428009033203, -0.01600000075995922, -0.08000000566244125, 1.055999994277954, 0.0, 0.0, 0.0, 0.0, 0.0, 1.6213381333649895E9, 2021-05-18 13:42:13.364
39.0, -6.720600128173828, 245.64971923828125, 32.6119270324707, -88.2373275756836, -0.01600000075995922, -0.08000000566244125, 1.055999994277954, 0.0, 0.0, 0.0, 0.0, 0.0, 1.6213381333657055E9, 2021-05-18 13:42:13.365
39.0, -54.21358871459961, 200.70359802246094, -21.923294067382812, -133.4078369140625, -0.01600000075995922, -0.08000000566244125, 1.055999994277954, 0.0, 0.0, 0.0, 0.0, 0.0, 1.6213381333657055E9, 2021-05-18 13:42:13.365
40.0, -29.317075729370117, 226.96517944335938, 7.240446090698242, -107.01910400390625, -0.01600000075995922, -0.08000000566244125, 1.055999994277954, 0.0, 0.0, 0.0, 0.0, 0.0, 1.6213381333791604E9, 2021-05-18 13:42:13.379
40.0, 20.29269790649414, 270.9277038574219, 57.97966766357422, -54.888641357421875, -0.01600000075995922, -0.08000000566244125, 1.055999994277954, 0.0, 0.0, 0.0, 0.0, 0.0, 1.6213381333791604E9, 2021-05-18 13:42:13.379
41.0, -13.968525886535645, 238.13626098632812, 15.30741024017334, -95.75078582763672, -0.01600000075995922, -0.08000000566244125, 1.055999994277954, 0.0, 0.0, 0.0, 0.0, 0.0, 1.6213381333948991E9, 2021-05-18 13:42:13.394
41.0, -66.07655334472656, 193.2799072265625, -37.08858871459961, -136.31748962402344, -0.01600000075995922, -0.08000000566244125, 1.055999994277954, 0.0, 0.0, 0.0, 0.0, 0.0, 1.6213381333948991E9, 2021-05-18 13:42:13.394
42.0, -38.46487045288086, 230.98556518554688, -5.0152058601379395, -103.94864654541016, -0.01600000075995922, -0.08000000566244125, 1.055999994277954, 0.0, 0.0, 0.0, 0.0, 0.0, 1.621338133395683E9, 2021-05-18 13:42:13.395
42.0, 8.87478256225586, 279.5743408203125, 57.2017707824707, -51.10386276245117, -0.01600000075995922, -0.08000000566244125, 1.055999994277954, 0.0, 0.0, 0.0, 0.0, 0.0, 1.621338133395683E9, 2021-05-18 13:42:13.395
43.0, -25.13960838317871, 250.45175170898438, 12.93631362915039, -85.9485092163086, -0.01600000075995922, -0.08000000566244125, 1.055999994277954, 0.0, 0.0, 0.0, 0.0, 0.0, 1.6213381334092891E9, 2021-05-18 13:42:13.409
43.0, -80.48638916015625, 193.990478515625, -46.43459701538086, -140.68568420410156, -0.01600000075995922, -0.08000000566244125, 1.055999994277954, 0.0, 0.0, 0.0, 0.0, 0.0, 1.6213381334092891E9, 2021-05-18 13:42:13.409
44.0, -48.69349670410156, 226.73330688476562, -1.5071797370910645, -105.1603775024414, -0.01600000075995922, -0.08000000566244125, 1.055999994277954, 0.0, 0.0, 0.0, 0.0, 0.0, 1.6213381334250543E9, 2021-05-18 13:42:13.425
44.0, -6.750519275665283, 270.1946716308594, 41.13890075683594, -63.082763671875, -0.01600000075995922, -0.08000000566244125, 1.055999994277954, 0.0, 0.0, 0.0, 0.0, 0.0, 1.6213381334250543E9, 2021-05-18 13:42:13.425
45.0, -22.203786849975586, 242.88967895507812, 13.815190315246582, -93.1552963256836, -0.01600000075995922, -0.08000000566244125, 1.055999994277954, 0.0, 0.0, 0.0, 0.0, 0.0, 1.621338133425628E9, 2021-05-18 13:42:13.425
45.0, -69.4611587524414, 193.28738403320312, -35.577667236328125, -140.0723419189453, -0.01600000075995922, -0.08000000566244125, 1.055999994277954, 0.0, 0.0, 0.0, 0.0, 0.0, 1.621338133425628E9, 2021-05-18 13:42:13.425
46.0, -43.05746841430664, 225.1214141845703, -11.21969985961914, -119.05784606933594, -0.01600000075995922, -0.08000000566244125, 1.055999994277954, 0.0, 0.0, 0.0, 0.0, 0.0, 1.6213381334393358E9, 2021-05-18 13:42:13.439
46.0, 8.81494426727295, 283.7443542480469, 49.901485443115234, -61.5681037902832, -0.01600000075995922, -0.08000000566244125, 1.055999994277954, 0.0, 0.0, 0.0, 0.0, 0.0, 1.6213381334393358E9, 2021-05-18 13:42:13.439
47.0, -12.56606388092041, 251.4353485107422, 18.44144630432129, -88.9179916381836, -0.01600000075995922, -0.08000000566244125, 1.055999994277954, 0.0, 0.0, 0.0, 0.0, 0.0, 1.621338133454682E9, 2021-05-18 13:42:13.454
47.0, -65.72874450683594, 203.23178100585938, -35.15879821777344, -142.12554931640625, -0.01600000075995922, -0.08000000566244125, 1.055999994277954, 0.0, 0.0, 0.0, 0.0, 0.0, 1.621338133454682E9, 2021-05-18 13:42:13.454
48.0, -33.520721435546875, 233.5960235595703, -1.873689889907837, -110.4186782836914, -0.01600000075995922, -0.08000000566244125, 1.055999994277954, 0.0, 0.0, 0.0, 0.0, 0.0, 1.6213381334700744E9, 2021-05-18 13:42:13.470
48.0, 19.7130126953125, 284.5072937011719, 56.08353805541992, -51.53769302368164, -0.01600000075995922, -0.08000000566244125, 1.055999994277954, 0.0, 0.0, 0.0, 0.0, 0.0, 1.6213381334700744E9, 2021-05-18 13:42:13.470
49.0, -14.316336631774902, 240.94866943359375, 14.166741371154785, -94.03043365478516, -0.01600000075995922, -0.08000000566244125, 1.055999994277954, 0.0, 0.0, 0.0, 0.0, 0.0, 1.6213381334707286E9, 2021-05-18 13:42:13.470
49.0, -66.83201599121094, 188.3656768798828, -46.3036994934082, -141.6318817138672, -0.01600000075995922, -0.08000000566244125, 1.055999994277954, 0.0, 0.0, 0.0, 0.0, 0.0, 1.6213381334707286E9, 2021-05-18 13:42:13.470
50.0, -44.893760681152344, 217.3985137939453, -12.098576545715332, -111.33495330810547, -0.01600000075995922, -0.08000000566244125, 1.055999994277954, 0.0, 0.0, 0.0, 0.0, 0.0, 1.6213381334849117E9, 2021-05-18 13:42:13.484
50.0, 10.763432502746582, 275.905517578125, 47.287296295166016, -52.33428955078125, -0.01600000075995922, -0.08000000566244125, 1.055999994277954, 0.0, 0.0, 0.0, 0.0, 0.0, 1.6213381334849117E9, 2021-05-18 13:42:13.484
51.0, -17.252159118652344, 242.2351837158203, 17.704687118530273, -82.23853302001953, -0.01600000075995922, -0.08000000566244125, 1.055999994277954, 0.0, 0.0, 0.0, 0.0, 0.0, 1.621338133485592E9, 2021-05-18 13:42:13.485
51.0, -70.50459289550781, 194.77586364746094, -38.02730178833008, -136.02951049804688, -0.01600000075995922, -0.08000000566244125, 1.055999994277954, 0.0, 0.0, 0.0, 0.0, 0.0, 1.621338133485592E9, 2021-05-18 13:42:13.485
52.0, -41.46052932739258, 224.4631805419922, -3.186394691467285, -101.3045425415039, -0.01600000075995922, -0.08000000566244125, 1.055999994277954, 0.0, 0.0, 0.0, 0.0, 0.0, 1.621338133514763E9, 2021-05-18 13:42:13.514
52.0, 2.9246017932891846, 277.9063415527344, 50.49987030029297, -52.28193283081055, -0.01600000075995922, -0.08000000566244125, 1.055999994277954, 0.0, 0.0, 0.0, 0.0, 0.0, 1.621338133514763E9, 2021-05-18 13:42:13.514
53.0, -22.293542861938477, 245.77687072753906, 13.893728256225586, -82.49658203125, -0.01600000075995922, -0.08000000566244125, 1.055999994277954, 0.0, 0.0, 0.0, 0.0, 0.0, 1.6213381335326774E9, 2021-05-18 13:42:13.532
53.0, -72.5316162109375, 192.18411254882812, -41.96167755126953, -130.9507293701172, -0.01600000075995922, -0.08000000566244125, 1.055999994277954, 0.0, 0.0, 0.0, 0.0, 0.0, 1.6213381335326774E9, 2021-05-18 13:42:13.532
54.0, -45.59312057495117, 225.73849487304688, -4.454220771789551, -104.3151626586914, -0.01600000075995922, -0.08000000566244125, 1.055999994277954, 0.0, 0.0, 0.0, 0.0, 0.0, 1.6213381335333831E9, 2021-05-18 13:42:13.533
54.0, 7.513459205627441, 277.3790283203125, 49.527496337890625, -58.59488296508789, -0.01600000075995922, -0.08000000566244125, 1.055999994277954, 0.0, 0.0, 0.0, 0.0, 0.0, 1.6213381335333831E9, 2021-05-18 13:42:13.533
55.0, -17.585010528564453, 246.19573974609375, 20.195459365844727, -85.05093383789062, -0.01600000075995922, -0.08000000566244125, 1.055999994277954, 0.0, 0.0, 0.0, 0.0, 0.0, 1.621338133534145E9, 2021-05-18 13:42:13.534
55.0, -63.11455154418945, 195.9015655517578, -27.88095474243164, -136.14170837402344, -0.01600000075995922, -0.08000000566244125, 1.055999994277954, 0.0, 0.0, 0.0, 0.0, 0.0, 1.621338133534145E9, 2021-05-18 13:42:13.534
56.0, -38.259178161621094, 221.23565673828125, -2.7675259113311768, -118.56044006347656, -0.01600000075995922, -0.08000000566244125, 1.055999994277954, 0.0, 0.0, 0.0, 0.0, 0.0, 1.6213381335348723E9, 2021-05-18 13:42:13.534
56.0, 13.2691650390625, 286.3173828125, 62.5199089050293, -58.336830139160156, -0.01600000075995922, -0.08000000566244125, 1.055999994277954, 0.0, 0.0, 0.0, 0.0, 0.0, 1.6213381335348723E9, 2021-05-18 13:42:13.534
57.0, -6.750519275665283, 256.211181640625, 31.467517852783203, -82.22357177734375, -0.01600000075995922, -0.08000000566244125, 1.055999994277954, 0.0, 0.0, 0.0, 0.0, 0.0, 1.621338133544284E9, 2021-05-18 13:42:13.544
57.0, -56.79412078857422, 198.36990356445312, -28.94682502746582, -136.95700073242188, -0.01600000075995922, -0.08000000566244125, 1.055999994277954, 0.0, 0.0, 0.0, 0.0, 0.0, 1.621338133544284E9, 2021-05-18 13:42:13.544
58.0, -37.37656021118164, 227.14096069335938, -1.54831862449646, -110.20550537109375, -0.01600000075995922, -0.08000000566244125, 1.055999994277954, 0.0, 0.0, 0.0, 0.0, 0.0, 1.6213381335592046E9, 2021-05-18 13:42:13.559
58.0, 12.465086936950684, 282.326904296875, 49.75563049316406, -58.93521499633789, -0.01600000075995922, -0.08000000566244125, 1.055999994277954, 0.0, 0.0, 0.0, 0.0, 0.0, 1.6213381335592046E9, 2021-05-18 13:42:13.559
59.0, -17.596229553222656, 241.05712890625, 13.98348617553711, -95.52639770507812, -0.01600000075995922, -0.08000000566244125, 1.055999994277954, 0.0, 0.0, 0.0, 0.0, 0.0, 1.6213381335754347E9, 2021-05-18 13:42:13.575
59.0, -67.46405792236328, 197.36761474609375, -43.09112548828125, -140.30047607421875, -0.01600000075995922, -0.08000000566244125, 1.055999994277954, 0.0, 0.0, 0.0, 0.0, 0.0, 1.6213381335754347E9, 2021-05-18 13:42:13.575
60.0, -41.86817932128906, 229.88978576660156, -8.49331283569336, -109.16207122802734, -0.01600000075995922, -0.08000000566244125, 1.055999994277954, 0.0, 0.0, 0.0, 0.0, 0.0, 1.621338133589925E9, 2021-05-18 13:42:13.589
60.0, 10.34082317352295, 283.1609191894531, 46.20646286010742, -60.775245666503906, -0.01600000075995922, -0.08000000566244125, 1.055999994277954, 0.0, 0.0, 0.0, 0.0, 0.0, 1.621338133589925E9, 2021-05-18 13:42:13.589
61.0, -20.767663955688477, 238.00535583496094, 11.795644760131836, -99.75247955322266, -0.01600000075995922, -0.08000000566244125, 1.055999994277954, 0.0, 0.0, 0.0, 0.0, 0.0, 1.6213381335906494E9, 2021-05-18 13:42:13.590
61.0, -65.49312591552734, 194.2859344482422, -38.158199310302734, -140.05738830566406, -0.01600000075995922, -0.08000000566244125, 1.055999994277954, 0.0, 0.0, 0.0, 0.0, 0.0, 1.6213381335906494E9, 2021-05-18 13:42:13.590
62.0, -41.96167755126953, 225.9142608642578, -5.404155254364014, -109.12093353271484, -0.01600000075995922, -0.08000000566244125, 1.055999994277954, 0.0, 0.0, 0.0, 0.0, 0.0, 1.6213381336050043E9, 2021-05-18 13:42:13.605
62.0, 9.854636192321777, 281.61260986328125, 52.60169219970703, -55.68149948120117, -0.01600000075995922, -0.08000000566244125, 1.055999994277954, 0.0, 0.0, 0.0, 0.0, 0.0, 1.6213381336050043E9, 2021-05-18 13:42:13.605
63.0, -13.882508277893066, 250.01417541503906, 17.125001907348633, -78.16577911376953, -0.01600000075995922, -0.08000000566244125, 1.055999994277954, 0.0, 0.0, 0.0, 0.0, 0.0, 1.6213381336056976E9, 2021-05-18 13:42:13.605
63.0, -64.14302062988281, 196.64955139160156, -34.03308868408203, -130.26632690429688, -0.01600000075995922, -0.08000000566244125, 1.055999994277954, 0.0, 0.0, 0.0, 0.0, 0.0, 1.6213381336056976E9, 2021-05-18 13:42:13.605
64.0, -37.17460632324219, 223.7039794921875, -3.5192458629608154, -102.31431579589844, -0.01600000075995922, -0.08000000566244125, 1.055999994277954, 0.0, 0.0, 0.0, 0.0, 0.0, 1.621338133619188E9, 2021-05-18 13:42:13.619
64.0, 19.215606689453125, 283.9687194824219, 56.77915954589844, -49.016998291015625, -0.01600000075995922, -0.08000000566244125, 1.055999994277954, 0.0, 0.0, 0.0, 0.0, 0.0, 1.621338133619188E9, 2021-05-18 13:42:13.619
65.0, -16.111488342285156, 250.21240234375, 17.899160385131836, -86.00086975097656, -0.01600000075995922, -0.08000000566244125, 1.055999994277954, 0.0, 0.0, 0.0, 0.0, 0.0, 1.6213381336353643E9, 2021-05-18 13:42:13.635
65.0, -64.7189712524414, 200.26229858398438, -35.9815788269043, -136.47830200195312, -0.01600000075995922, -0.08000000566244125, 1.055999994277954, 0.0, 0.0, 0.0, 0.0, 0.0, 1.6213381336353643E9, 2021-05-18 13:42:13.635
66.0, -38.48731231689453, 228.5509033203125, -3.1938745975494385, -104.67418670654297, -0.01600000075995922, -0.08000000566244125, 1.055999994277954, 0.0, 0.0, 0.0, 0.0, 0.0, 1.621338133649926E9, 2021-05-18 13:42:13.649
66.0, 14.335036277770996, 280.53924560546875, 53.71244430541992, -54.14440155029297, -0.01600000075995922, -0.08000000566244125, 1.055999994277954, 0.0, 0.0, 0.0, 0.0, 0.0, 1.621338133649926E9, 2021-05-18 13:42:13.649
67.0, -10.576436996459961, 247.76649475097656, 12.868995666503906, -92.30259704589844, -0.01600000075995922, -0.08000000566244125, 1.055999994277954, 0.0, 0.0, 0.0, 0.0, 0.0, 1.6213381336506517E9, 2021-05-18 13:42:13.650
67.0, -60.92671203613281, 199.48439025878906, -40.91450500488281, -138.9204559326172, -0.01600000075995922, -0.08000000566244125, 1.055999994277954, 0.0, 0.0, 0.0, 0.0, 0.0, 1.6213381336506517E9, 2021-05-18 13:42:13.650
68.0, -37.41769790649414, 228.83139038085938, -13.059730529785156, -109.034912109375, -0.01600000075995922, -0.08000000566244125, 1.055999994277954, 0.0, 0.0, 0.0, 0.0, 0.0, 1.6213381336649592E9, 2021-05-18 13:42:13.664
68.0, 7.573297500610352, 282.1698303222656, 42.15989303588867, -60.618167877197266, -0.01600000075995922, -0.08000000566244125, 1.055999994277954, 0.0, 0.0, 0.0, 0.0, 0.0, 1.6213381336649592E9, 2021-05-18 13:42:13.664
69.0, -20.707826614379883, 247.67300415039062, 9.188934326171875, -89.60613250732422, -0.01600000075995922, -0.08000000566244125, 1.055999994277954, 0.0, 0.0, 0.0, 0.0, 0.0, 1.621338133665683E9, 2021-05-18 13:42:13.665
69.0, -68.36911010742188, 193.1826629638672, -43.28934097290039, -138.94664001464844, -0.01600000075995922, -0.08000000566244125, 1.055999994277954, 0.0, 0.0, 0.0, 0.0, 0.0, 1.621338133665683E9, 2021-05-18 13:42:13.665
70.0, -36.13865280151367, 228.0310516357422, -1.9335283041000366, -106.0429916381836, -0.01600000075995922, -0.08000000566244125, 1.040000081062317, 0.0, 0.0, 0.0, 0.0, 0.0, 1.6213381336962852E9, 2021-05-18 13:42:13.696
70.0, 13.115829467773438, 280.7486877441406, 55.687110900878906, -53.729270935058594, -0.01600000075995922, -0.08000000566244125, 1.040000081062317, 0.0, 0.0, 0.0, 0.0, 0.0, 1.6213381336962852E9, 2021-05-18 13:42:13.696
71.0, -11.178561210632324, 252.2281951904297, 22.50297737121582, -81.98421478271484, -0.01600000075995922, -0.08000000566244125, 1.040000081062317, 0.0, 0.0, 0.0, 0.0, 0.0, 1.6213381336970289E9, 2021-05-18 13:42:13.697
71.0, -67.65104675292969, 206.8744354248047, -32.03224182128906, -130.89088439941406, -0.01600000075995922, -0.08000000566244125, 1.040000081062317, 0.0, 0.0, 0.0, 0.0, 0.0, 1.6213381336970289E9, 2021-05-18 13:42:13.697
72.0, -43.491294860839844, 228.94732666015625, -5.239599704742432, -103.84019470214844, -0.01600000075995922, -0.08000000566244125, 1.040000081062317, 0.0, 0.0, 0.0, 0.0, 0.0, 1.6213381336977277E9, 2021-05-18 13:42:13.697
72.0, 12.782978057861328, 281.7846374511719, 58.649112701416016, -51.836883544921875, -0.01600000075995922, -0.08000000566244125, 1.040000081062317, 0.0, 0.0, 0.0, 0.0, 0.0, 1.6213381336977277E9, 2021-05-18 13:42:13.697
73.0, -14.649188041687012, 254.68157958984375, 25.042369842529297, -80.15914916992188, -0.01600000075995922, -0.08000000566244125, 1.040000081062317, 0.0, 0.0, 0.0, 0.0, 0.0, 1.6213381337091558E9, 2021-05-18 13:42:13.709
