Sample Index, EXG Channel 0, EXG Channel 1, EXG Channel 2, EXG Channel 3, Accel Channel 0, Accel Channel 1, Accel Channel 2, Other, Other, Other, Other, Other, Timestamp, Timestamp (Formatted)
0.0, 101.05583953857422, 65.87459564208984, 296.5572509765625, -63.798954010009766, 0.0, 0.0, 0.0, 0.0, 0.0, 0.0, 0.0, 0.0, 1.6213411134851005E9, 2021-05-18 14:31:53.485
1.0, 62.38153076171875, 20.371234893798828, 249.60653686523438, -102.86968994140625, 0.0, -0.08000000566244125, 0.0, 0.0, 0.0, 0.0, 0.0, 0.0, 1.6213411134858768E9, 2021-05-18 14:31:53.485
1.0, 28.243724822998047, -15.30741024017334, 218.56536865234375, -132.32139587402344, 0.0, -0.08000000566244125, 0.0, 0.0, 0.0, 0.0, 0.0, 0.0, 1.6213411134858768E9, 2021-05-18 14:31:53.485
2.0, 58.054466247558594, 18.254451751708984, 248.44715881347656, -97.94049835205078, -0.03200000151991844, -0.08000000566244125, 0.0, 0.0, 0.0, 0.0, 0.0, 0.0, 1.6213411134866176E9, 2021-05-18 14:31:53.486
2.0, 108.58799743652344, 72.50543975830078, 298.0120544433594, -49.261962890625, -0.03200000151991844, -0.08000000566244125, 0.0, 0.0, 0.0, 0.0, 0.0, 0.0, 1.6213411134866176E9, 2021-05-18 14:31:53.486
3.0, 55.365478515625, 17.962739944458008, 241.05712890625, -98.41546630859375, -0.03200000151991844, -0.08000000566244125, 0.0, 0.0, 0.0, 0.0, 0.0, 0.0, 1.6213411134873328E9, 2021-05-18 14:31:53.487
3.0, 30.831735610961914, -7.610696315765381, 217.47705078125, -121.59536743164062, -0.03200000151991844, -0.08000000566244125, 0.0, 0.0, 0.0, 0.0, 0.0, 0.0, 1.6213411134873328E9, 2021-05-18 14:31:53.487
4.0, 55.025146484375, 24.197153091430664, 248.42098999023438, -89.34246826171875, -0.03200000151991844, -0.08000000566244125, 0.0, 0.0, 0.0, 0.0, 0.0, 0.0, 1.621341113498234E9, 2021-05-18 14:31:53.498
4.0, 103.43815612792969, 66.4879379272461, 309.11956787109375, -42.33940887451172, -0.03200000151991844, -0.08000000566244125, 0.0, 0.0, 0.0, 0.0, 0.0, 0.0, 1.621341113498234E9, 2021-05-18 14:31:53.498
5.0, 49.55741500854492, 21.49320411682129, 249.5354766845703, -100.28915405273438, -0.03200000151991844, -0.08000000566244125, 0.0, 0.0, 0.0, 0.0, 0.0, 0.0, 1.621341113512784E9, 2021-05-18 14:31:53.512
5.0, 32.54834747314453, -6.099776744842529, 229.3400115966797, -127.28001403808594, -0.03200000151991844, -0.08000000566244125, 0.0, 0.0, 0.0, 0.0, 0.0, 0.0, 1.621341113512784E9, 2021-05-18 14:31:53.512
6.0, 52.87470626831055, 12.704440116882324, 250.64622497558594, -107.03593444824219, -0.03200000151991844, -0.08000000566244125, 0.0, 0.0, 0.0, 0.0, 0.0, 0.0, 1.6213411135134413E9, 2021-05-18 14:31:53.513
6.0, 103.1015625, 69.20684814453125, 309.06719970703125, -61.69712829589844, -0.03200000151991844, -0.08000000566244125, 0.0, 0.0, 0.0, 0.0, 0.0, 0.0, 1.6213411135134413E9, 2021-05-18 14:31:53.513
7.0, 55.582393646240234, 16.425640106201172, 252.75552368164062, -111.91276550292969, -0.03200000151991844, -0.08000000566244125, 0.0, 0.0, 0.0, 0.0, 0.0, 0.0, 1.6213411135271702E9, 2021-05-18 14:31:53.527
7.0, 31.725570678710938, -0.10845709592103958, 226.82305908203125, -132.1343994140625, -0.03200000151991844, -0.08000000566244125, 0.0, 0.0, 0.0, 0.0, 0.0, 0.0, 1.6213411135271702E9, 2021-05-18 14:31:53.527
8.0, 51.32264709472656, 25.756690979003906, 249.4419708251953, -106.54601287841797, -0.03200000151991844, -0.08000000566244125, 0.0, 0.0, 0.0, 0.0, 0.0, 0.0, 1.6213411135426695E9, 2021-05-18 14:31:53.542
8.0, 97.69366455078125, 75.36646270751953, 300.2036437988281, -44.261714935302734, -0.03200000151991844, -0.08000000566244125, 0.0, 0.0, 0.0, 0.0, 0.0, 0.0, 1.6213411135426695E9, 2021-05-18 14:31:53.542
9.0, 45.69409942626953, 18.51250457763672, 247.22421264648438, -95.52078247070312, -0.03200000151991844, -0.08000000566244125, 0.0, 0.0, 0.0, 0.0, 0.0, 0.0, 1.6213411135433729E9, 2021-05-18 14:31:53.543
9.0, 27.592981338500977, -12.880215644836426, 221.65078735351562, -121.63650512695312, -0.03200000151991844, -0.08000000566244125, 0.0, 0.0, 0.0, 0.0, 0.0, 0.0, 1.6213411135433729E9, 2021-05-18 14:31:53.543
10.0, 54.621238708496094, 17.45037269592285, 249.6177520751953, -92.54756164550781, -0.03200000151991844, -0.08000000566244125, 1.055999994277954, 0.0, 0.0, 0.0, 0.0, 0.0, 1.6213411135571432E9, 2021-05-18 14:31:53.557
10.0, 109.5641098022461, 68.04747772216797, 304.9981994628906, -49.22456359863281, -0.03200000151991844, -0.08000000566244125, 1.055999994277954, 0.0, 0.0, 0.0, 0.0, 0.0, 1.6213411135571432E9, 2021-05-18 14:31:53.557
11.0, 62.23941421508789, 6.320430755615234, 242.53811645507812, -102.95570373535156, -0.03200000151991844, -0.08000000566244125, 1.055999994277954, 0.0, 0.0, 0.0, 0.0, 0.0, 1.6213411135724497E9, 2021-05-18 14:31:53.572
11.0, 35.94043731689453, -18.662099838256836, 218.90194702148438, -125.26795196533203, -0.03200000151991844, -0.08000000566244125, 1.055999994277954, 0.0, 0.0, 0.0, 0.0, 0.0, 1.6213411135724497E9, 2021-05-18 14:31:53.572
12.0, 60.2722282409668, 26.067102432250977, 251.7345428466797, -94.52970886230469, -0.03200000151991844, -0.08000000566244125, 1.055999994277954, 0.0, 0.0, 0.0, 0.0, 0.0, 1.621341113588195E9, 2021-05-18 14:31:53.588
12.0, 102.70513153076172, 71.20769500732422, 302.54107666015625, -47.84080123901367, -0.03200000151991844, -0.08000000566244125, 1.055999994277954, 0.0, 0.0, 0.0, 0.0, 0.0, 1.621341113588195E9, 2021-05-18 14:31:53.588
13.0, 53.67878341674805, 20.775144577026367, 252.1160125732422, -101.60934448242188, -0.03200000151991844, -0.08000000566244125, 1.055999994277954, 0.0, 0.0, 0.0, 0.0, 0.0, 1.6213411136040006E9, 2021-05-18 14:31:53.604
13.0, 25.31538200378418, -6.436367988586426, 225.85443115234375, -123.14742279052734, -0.03200000151991844, -0.08000000566244125, 1.055999994277954, 0.0, 0.0, 0.0, 0.0, 0.0, 1.6213411136040006E9, 2021-05-18 14:31:53.604
14.0, 46.63655090332031, 19.95984649658203, 260.5195617675781, -96.78487396240234, -0.03200000151991844, -0.08000000566244125, 1.055999994277954, 0.0, 0.0, 0.0, 0.0, 0.0, 1.6213411136046689E9, 2021-05-18 14:31:53.604
14.0, 102.14788818359375, 83.38107299804688, 313.8542785644531, -39.32878875732422, -0.03200000151991844, -0.08000000566244125, 1.055999994277954, 0.0, 0.0, 0.0, 0.0, 0.0, 1.6213411136046689E9, 2021-05-18 14:31:53.604
15.0, 45.222869873046875, 14.447233200073242, 245.80679321289062, -108.10554504394531, -0.03200000151991844, -0.08000000566244125, 1.055999994277954, 0.0, 0.0, 0.0, 0.0, 0.0, 1.621341113617678E9, 2021-05-18 14:31:53.617
15.0, 29.750904083251953, -5.217160224914551, 225.4019012451172, -126.62179565429688, -0.03200000151991844, -0.08000000566244125, 1.055999994277954, 0.0, 0.0, 0.0, 0.0, 0.0, 1.621341113617678E9, 2021-05-18 14:31:53.617
16.0, 56.26305389404297, 17.364355087280273, 253.06219482421875, -100.35647583007812, -0.03200000151991844, -0.08000000566244125, 1.055999994277954, 0.0, 0.0, 0.0, 0.0, 0.0, 1.6213411136183977E9, 2021-05-18 14:31:53.618
16.0, 105.91022491455078, 69.1170883178711, 305.2599792480469, -53.09162139892578, -0.03200000151991844, -0.08000000566244125, 1.055999994277954, 0.0, 0.0, 0.0, 0.0, 0.0, 1.6213411136183977E9, 2021-05-18 14:31:53.618
17.0, 49.15724563598633, 13.564617156982422, 243.11781311035156, -108.8236083984375, -0.03200000151991844, -0.08000000566244125, 1.055999994277954, 0.0, 0.0, 0.0, 0.0, 0.0, 1.6213411136325705E9, 2021-05-18 14:31:53.632
17.0, 26.089542388916016, -6.230673313140869, 222.42120361328125, -122.52660369873047, -0.03200000151991844, -0.08000000566244125, 1.055999994277954, 0.0, 0.0, 0.0, 0.0, 0.0, 1.6213411136325705E9, 2021-05-18 14:31:53.632
18.0, 45.697837829589844, 11.0888032913208, 244.50157165527344, -99.48881530761719, -0.03200000151991844, -0.08000000566244125, 1.055999994277954, 0.0, 0.0, 0.0, 0.0, 0.0, 1.6213411136477003E9, 2021-05-18 14:31:53.647
18.0, 104.39556884765625, 66.4281005859375, 300.14007568359375, -43.89146423339844, -0.03200000151991844, -0.08000000566244125, 1.055999994277954, 0.0, 0.0, 0.0, 0.0, 0.0, 1.6213411136477003E9, 2021-05-18 14:31:53.647
19.0, 55.4066162109375, 18.718198776245117, 246.78665161132812, -100.93990325927734, -0.03200000151991844, -0.08000000566244125, 1.055999994277954, 0.0, 0.0, 0.0, 0.0, 0.0, 1.6213411136483972E9, 2021-05-18 14:31:53.648
19.0, 27.23021125793457, -15.071796417236328, 219.2983856201172, -131.0797576904297, -0.03200000151991844, -0.08000000566244125, 1.055999994277954, 0.0, 0.0, 0.0, 0.0, 0.0, 1.6213411136483972E9, 2021-05-18 14:31:53.648
20.0, 49.94636535644531, 4.921708106994629, 252.64332580566406, -111.30316162109375, -0.03200000151991844, -0.08000000566244125, 1.055999994277954, 0.0, 0.0, 0.0, 0.0, 0.0, 1.6213411136626792E9, 2021-05-18 14:31:53.662
20.0, 108.66653442382812, 65.48564910888672, 312.21246337890625, -58.98196029663086, -0.03200000151991844, -0.08000000566244125, 1.055999994277954, 0.0, 0.0, 0.0, 0.0, 0.0, 1.6213411136626792E9, 2021-05-18 14:31:53.662
21.0, 61.87290573120117, 6.256852626800537, 247.0634002685547, -114.41850280761719, -0.03200000151991844, -0.08000000566244125, 1.055999994277954, 0.0, 0.0, 0.0, 0.0, 0.0, 1.6213411136633997E9, 2021-05-18 14:31:53.663
21.0, 35.88433837890625, -2.588010787963867, 225.9067840576172, -135.1151123046875, -0.03200000151991844, -0.08000000566244125, 1.055999994277954, 0.0, 0.0, 0.0, 0.0, 0.0, 1.6213411136633997E9, 2021-05-18 14:31:53.663
22.0, 63.24544906616211, 18.340469360351562, 248.39854431152344, -109.06670379638672, -0.03200000151991844, -0.08000000566244125, 1.055999994277954, 0.0, 0.0, 0.0, 0.0, 0.0, 1.6213411136771903E9, 2021-05-18 14:31:53.677
22.0, 110.49534606933594, 66.97786712646484, 307.3842468261719, -59.460670471191406, -0.03200000151991844, -0.08000000566244125, 1.055999994277954, 0.0, 0.0, 0.0, 0.0, 0.0, 1.6213411136771903E9, 2021-05-18 14:31:53.677
23.0, 58.151702880859375, 14.48463249206543, 253.76904296875, -107.53334045410156, -0.03200000151991844, -0.08000000566244125, 1.055999994277954, 0.0, 0.0, 0.0, 0.0, 0.0, 1.6213411136931634E9, 2021-05-18 14:31:53.693
23.0, 36.632320404052734, -12.472566604614258, 233.35667419433594, -119.79647827148438, -0.03200000151991844, -0.08000000566244125, 1.055999994277954, 0.0, 0.0, 0.0, 0.0, 0.0, 1.6213411136931634E9, 2021-05-18 14:31:53.693
24.0, 56.51362991333008, 17.887941360473633, 256.4206237792969, -93.347900390625, -0.03200000151991844, -0.08000000566244125, 1.055999994277954, 0.0, 0.0, 0.0, 0.0, 0.0, 1.6213411137241075E9, 2021-05-18 14:31:53.724
24.0, 108.60295104980469, 71.6041259765625, 311.26251220703125, -48.30080795288086, -0.03200000151991844, -0.08000000566244125, 1.055999994277954, 0.0, 0.0, 0.0, 0.0, 0.0, 1.6213411137241075E9, 2021-05-18 14:31:53.724
25.0, 60.70979690551758, 8.55315113067627, 257.490234375, -97.39073181152344, -0.03200000151991844, -0.08000000566244125, 1.055999994277954, 0.0, 0.0, 0.0, 0.0, 0.0, 1.6213411137249565E9, 2021-05-18 14:31:53.724
25.0, 30.928972244262695, -16.362062454223633, 230.97434997558594, -125.4624252319336, -0.03200000151991844, -0.08000000566244125, 1.055999994277954, 0.0, 0.0, 0.0, 0.0, 0.0, 1.6213411137249565E9, 2021-05-18 14:31:53.724
26.0, 50.698081970214844, 15.36724853515625, 252.47129821777344, -96.9569091796875, -0.03200000151991844, -0.08000000566244125, 1.055999994277954, 0.0, 0.0, 0.0, 0.0, 0.0, 1.62134111372552E9, 2021-05-18 14:31:53.725
26.0, 100.01988220214844, 74.11359405517578, 304.3885803222656, -50.11840057373047, -0.03200000151991844, -0.08000000566244125, 1.055999994277954, 0.0, 0.0, 0.0, 0.0, 0.0, 1.62134111372552E9, 2021-05-18 14:31:53.725
27.0, 50.17075729370117, 20.46099281311035, 244.1387939453125, -107.39496612548828, -0.03200000151991844, -0.08000000566244125, 1.055999994277954, 0.0, 0.0, 0.0, 0.0, 0.0, 1.6213411137263029E9, 2021-05-18 14:31:53.726
27.0, 21.515644073486328, -5.493913173675537, 215.0648193359375, -130.88528442382812, -0.03200000151991844, -0.08000000566244125, 1.055999994277954, 0.0, 0.0, 0.0, 0.0, 0.0, 1.6213411137263029E9, 2021-05-18 14:31:53.726
28.0, 47.19379806518555, 18.650880813598633, 241.2590789794922, -106.0897445678711, -0.03200000151991844, -0.08000000566244125, 1.055999994277954, 0.0, 0.0, 0.0, 0.0, 0.0, 1.6213411137371428E9, 2021-05-18 14:31:53.737
28.0, 99.627197265625, 67.52389526367188, 300.6112976074219, -62.53860855102539, -0.03200000151991844, -0.08000000566244125, 1.055999994277954, 0.0, 0.0, 0.0, 0.0, 0.0, 1.6213411137371428E9, 2021-05-18 14:31:53.737
29.0, 50.30913543701172, 7.865009784698486, 243.8134307861328, -118.19205474853516, -0.03200000151991844, -0.08000000566244125, 1.055999994277954, 0.0, 0.0, 0.0, 0.0, 0.0, 1.6213411137531295E9, 2021-05-18 14:31:53.753
29.0, 27.5069637298584, -6.89637565612793, 216.74029541015625, -140.37339782714844, -0.03200000151991844, -0.08000000566244125, 1.055999994277954, 0.0, 0.0, 0.0, 0.0, 0.0, 1.6213411137531295E9, 2021-05-18 14:31:53.753
30.0, 50.27173614501953, 15.344809532165527, 241.5994110107422, -113.87995147705078, -0.03200000151991844, -0.08000000566244125, 1.055999994277954, 0.0, 0.0, 0.0, 0.0, 0.0, 1.621341113767703E9, 2021-05-18 14:31:53.767
30.0, 99.43646240234375, 63.559600830078125, 296.2842102050781, -54.853111267089844, -0.03200000151991844, -0.08000000566244125, 1.055999994277954, 0.0, 0.0, 0.0, 0.0, 0.0, 1.621341113767703E9, 2021-05-18 14:31:53.767
31.0, 48.30828857421875, 8.717706680297852, 239.72572326660156, -106.08226013183594, -0.03200000151991844, -0.08000000566244125, 1.055999994277954, 0.0, 0.0, 0.0, 0.0, 0.0, 1.621341113768568E9, 2021-05-18 14:31:53.768
31.0, 27.981931686401367, -8.691527366638184, 216.68792724609375, -127.29871368408203, -0.03200000151991844, -0.08000000566244125, 1.055999994277954, 0.0, 0.0, 0.0, 0.0, 0.0, 1.621341113768568E9, 2021-05-18 14:31:53.768
32.0, 56.24809646606445, 11.761985778808594, 246.39395141601562, -98.91661071777344, -0.03200000151991844, -0.08000000566244125, 1.055999994277954, 0.0, 0.0, 0.0, 0.0, 0.0, 1.6213411137827022E9, 2021-05-18 14:31:53.782
32.0, 110.01289367675781, 72.83829498291016, 310.308837890625, -38.58454895019531, -0.03200000151991844, -0.08000000566244125, 1.055999994277954, 0.0, 0.0, 0.0, 0.0, 0.0, 1.6213411137827022E9, 2021-05-18 14:31:53.782
33.0, 50.60832595825195, 8.785024642944336, 252.60968017578125, -96.38844299316406, -0.03200000151991844, -0.08000000566244125, 1.055999994277954, 0.0, 0.0, 0.0, 0.0, 0.0, 1.6213411137834218E9, 2021-05-18 14:31:53.783
33.0, 33.722679138183594, -8.145502090454102, 240.6793975830078, -111.153564453125, -0.03200000151991844, -0.08000000566244125, 1.055999994277954, 0.0, 0.0, 0.0, 0.0, 0.0, 1.6213411137834218E9, 2021-05-18 14:31:53.783
34.0, 51.5395622253418, 19.80651092529297, 261.45452880859375, -88.23171997070312, -0.03200000151991844, -0.08000000566244125, 1.055999994277954, 0.0, 0.0, 0.0, 0.0, 0.0, 1.6213411138289866E9, 2021-05-18 14:31:53.828
34.0, 103.63262939453125, 76.27899932861328, 313.51019287109375, -41.688663482666016, -0.03200000151991844, -0.08000000566244125, 1.055999994277954, 0.0, 0.0, 0.0, 0.0, 0.0, 1.6213411138289866E9, 2021-05-18 14:31:53.828
35.0, 51.16557312011719, 18.75933837890625, 259.04229736328125, -89.97825622558594, -0.03200000151991844, -0.08000000566244125, 1.055999994277954, 0.0, 0.0, 0.0, 0.0, 0.0, 1.621341113829548E9, 2021-05-18 14:31:53.829
35.0, 27.39850616455078, -3.8259177207946777, 230.64523315429688, -123.92906188964844, -0.03200000151991844, -0.08000000566244125, 1.055999994277954, 0.0, 0.0, 0.0, 0.0, 0.0, 1.621341113829548E9, 2021-05-18 14:31:53.829
36.0, 43.51747512817383, 14.189180374145508, 252.34788513183594, -102.60789489746094, -0.03200000151991844, -0.08000000566244125, 1.055999994277954, 0.0, 0.0, 0.0, 0.0, 0.0, 1.6213411138302855E9, 2021-05-18 14:31:53.830
36.0, 94.75410461425781, 65.33979034423828, 303.8313293457031, -58.74260711669922, -0.03200000151991844, -0.08000000566244125, 1.055999994277954, 0.0, 0.0, 0.0, 0.0, 0.0, 1.6213411138302855E9, 2021-05-18 14:31:53.830
37.0, 49.89774703979492, 12.83907699584961, 248.94082641601562, -119.0185775756836, -0.03200000151991844, -0.08000000566244125, 1.055999994277954, 0.0, 0.0, 0.0, 0.0, 0.0, 1.6213411138426673E9, 2021-05-18 14:31:53.842
37.0, 24.2906494140625, -10.834489822387695, 221.77420043945312, -142.37051391601562, -0.03200000151991844, -0.08000000566244125, 1.055999994277954, 0.0, 0.0, 0.0, 0.0, 0.0, 1.6213411138426673E9, 2021-05-18 14:31:53.842
38.0, 51.31890869140625, 10.228626251220703, 249.70750427246094, -124.29931640625, -0.03200000151991844, -0.08000000566244125, 1.055999994277954, 0.0, 0.0, 0.0, 0.0, 0.0, 1.621341113874934E9, 2021-05-18 14:31:53.874
38.0, 116.50536346435547, 60.56393814086914, 304.3998107910156, -69.26294708251953, -0.03200000151991844, -0.08000000566244125, 1.055999994277954, 0.0, 0.0, 0.0, 0.0, 0.0, 1.621341113874934E9, 2021-05-18 14:31:53.874
39.0, 66.07281494140625, 1.6081570386886597, 248.0918731689453, -116.02291870117188, -0.03200000151991844, -0.08000000566244125, 1.055999994277954, 0.0, 0.0, 0.0, 0.0, 0.0, 1.6213411138756807E9, 2021-05-18 14:31:53.875
39.0, 35.54026794433594, -11.963939666748047, 228.5022735595703, -133.970703125, -0.03200000151991844, -0.08000000566244125, 1.055999994277954, 0.0, 0.0, 0.0, 0.0, 0.0, 1.6213411138756807E9, 2021-05-18 14:31:53.875
40.0, 60.66117858886719, 13.100869178771973, 260.9234619140625, -101.51958465576172, -0.03200000151991844, -0.08000000566244125, 1.055999994277954, 0.0, 0.0, 0.0, 0.0, 0.0, 1.6213411138764362E9, 2021-05-18 14:31:53.876
40.0, 118.41271209716797, 65.81101989746094, 321.82025146484375, -43.17714309692383, -0.03200000151991844, -0.08000000566244125, 1.055999994277954, 0.0, 0.0, 0.0, 0.0, 0.0, 1.6213411138764362E9, 2021-05-18 14:31:53.876
41.0, 61.30818176269531, 11.395475387573242, 257.5238952636719, -98.29205322265625, -0.03200000151991844, -0.08000000566244125, 1.055999994277954, 0.0, 0.0, 0.0, 0.0, 0.0, 1.6213411138771825E9, 2021-05-18 14:31:53.877
41.0, 38.113319396972656, -15.322370529174805, 234.79652404785156, -123.72337341308594, -0.03200000151991844, -0.08000000566244125, 1.055999994277954, 0.0, 0.0, 0.0, 0.0, 0.0, 1.6213411138771825E9, 2021-05-18 14:31:53.877
42.0, 58.293819427490234, 19.757890701293945, 261.0281982421875, -96.3360824584961, -0.03200000151991844, -0.08000000566244125, 1.055999994277954, 0.0, 0.0, 0.0, 0.0, 0.0, 1.62134111388771E9, 2021-05-18 14:31:53.887
42.0, 115.27119445800781, 68.92635345458984, 323.66778564453125, -39.392364501953125, -0.03200000151991844, -0.08000000566244125, 1.055999994277954, 0.0, 0.0, 0.0, 0.0, 0.0, 1.62134111388771E9, 2021-05-18 14:31:53.887
43.0, 55.51881408691406, 17.076383590698242, 263.2122802734375, -95.04581451416016, -0.03200000151991844, -0.08000000566244125, 1.055999994277954, 0.0, 0.0, 0.0, 0.0, 0.0, 1.6213411138883908E9, 2021-05-18 14:31:53.888
43.0, 31.777929306030273, -13.953566551208496, 240.97109985351562, -124.47882843017578, -0.03200000151991844, -0.08000000566244125, 1.055999994277954, 0.0, 0.0, 0.0, 0.0, 0.0, 1.6213411138883908E9, 2021-05-18 14:31:53.888
44.0, 55.98256301879883, 17.229719161987305, 264.3193054199219, -107.26780700683594, -0.03200000151991844, -0.08000000566244125, 1.055999994277954, 0.0, 0.0, 0.0, 0.0, 0.0, 1.6213411139029107E9, 2021-05-18 14:31:53.902
44.0, 115.51055145263672, 60.79207229614258, 321.4649658203125, -57.654296875, -0.03200000151991844, -0.08000000566244125, 1.055999994277954, 0.0, 0.0, 0.0, 0.0, 0.0, 1.6213411139029107E9, 2021-05-18 14:31:53.902
45.0, 60.84443283081055, 0.6133435964584351, 261.3647766113281, -114.32125854492188, -0.03200000151991844, -0.08000000566244125, 1.055999994277954, 0.0, 0.0, 0.0, 0.0, 0.0, 1.6213411139036095E9, 2021-05-18 14:31:53.903
45.0, 35.932960510253906, -26.56450843811035, 235.94467163085938, -143.72808837890625, -0.03200000151991844, -0.08000000566244125, 1.055999994277954, 0.0, 0.0, 0.0, 0.0, 0.0, 1.6213411139036095E9, 2021-05-18 14:31:53.903
46.0, 58.36113739013672, 5.108703136444092, 252.53488159179688, -115.96308135986328, -0.03200000151991844, -0.08000000566244125, 1.055999994277954, 0.0, 0.0, 0.0, 0.0, 0.0, 1.6213411139334118E9, 2021-05-18 14:31:53.933
46.0, 112.99359893798828, 64.19538116455078, 316.19171142578125, -61.92152404785156, -0.03200000151991844, -0.08000000566244125, 1.055999994277954, 0.0, 0.0, 0.0, 0.0, 0.0, 1.6213411139334118E9, 2021-05-18 14:31:53.933
47.0, 54.69603729248047, 4.259746074676514, 253.06219482421875, -117.48521423339844, -0.03200000151991844, -0.08000000566244125, 1.055999994277954, 0.0, 0.0, 0.0, 0.0, 0.0, 1.621341113934133E9, 2021-05-18 14:31:53.934
47.0, 34.26496505737305, -16.309703826904297, 228.95106506347656, -139.84608459472656, -0.03200000151991844, -0.08000000566244125, 1.055999994277954, 0.0, 0.0, 0.0, 0.0, 0.0, 1.621341113934133E9, 2021-05-18 14:31:53.934
48.0, 56.93623733520508, 19.668134689331055, 260.3811950683594, -105.38290405273438, -0.03200000151991844, -0.08000000566244125, 1.055999994277954, 0.0, 0.0, 0.0, 0.0, 0.0, 1.6213411139348817E9, 2021-05-18 14:31:53.934
48.0, 109.36215209960938, 79.38685607910156, 315.97479248046875, -47.504207611083984, -0.03200000151991844, -0.08000000566244125, 1.055999994277954, 0.0, 0.0, 0.0, 0.0, 0.0, 1.6213411139348817E9, 2021-05-18 14:31:53.934
49.0, 52.7662467956543, 6.926294803619385, 256.6674499511719, -104.27589416503906, -0.03200000151991844, -0.08000000566244125, 1.055999994277954, 0.0, 0.0, 0.0, 0.0, 0.0, 1.6213411139633622E9, 2021-05-18 14:31:53.963
49.0, 28.07916831970215, -4.566417694091797, 236.2999725341797, -120.91844177246094, -0.03200000151991844, -0.08000000566244125, 1.055999994277954, 0.0, 0.0, 0.0, 0.0, 0.0, 1.6213411139633622E9, 2021-05-18 14:31:53.963
50.0, 51.763954162597656, 16.16010856628418, 260.89727783203125, -96.20144653320312, -0.03200000151991844, -0.08000000566244125, 1.055999994277954, 0.0, 0.0, 0.0, 0.0, 0.0, 1.621341113964091E9, 2021-05-18 14:31:53.964
50.0, 101.9347152709961, 65.37345123291016, 316.69659423828125, -48.8692741394043, -0.03200000151991844, -0.08000000566244125, 1.055999994277954, 0.0, 0.0, 0.0, 0.0, 0.0, 1.621341113964091E9, 2021-05-18 14:31:53.964
51.0, 56.91379928588867, 5.149842262268066, 262.0043029785156, -97.55155181884766, -0.03200000151991844, -0.08000000566244125, 1.055999994277954, 0.0, 0.0, 0.0, 0.0, 0.0, 1.6213411139648423E9, 2021-05-18 14:31:53.964
51.0, 35.065303802490234, -15.965632438659668, 236.3822479248047, -123.9178466796875, -0.03200000151991844, -0.08000000566244125, 1.055999994277954, 0.0, 0.0, 0.0, 0.0, 0.0, 1.6213411139648423E9, 2021-05-18 14:31:53.964
52.0, 53.88821792602539, 7.139469146728516, 262.5466003417969, -103.67750549316406, -0.03200000151991844, -0.08000000566244125, 1.055999994277954, 0.0, 0.0, 0.0, 0.0, 0.0, 1.6213411139935565E9, 2021-05-18 14:31:53.993
52.0, 103.30352020263672, 64.22156524658203, 322.47100830078125, -52.287540435791016, -0.03200000151991844, -0.08000000566244125, 1.055999994277954, 0.0, 0.0, 0.0, 0.0, 0.0, 1.6213411139935565E9, 2021-05-18 14:31:53.993
53.0, 55.02140808105469, 13.216806411743164, 264.3342590332031, -101.5943832397461, -0.03200000151991844, -0.08000000566244125, 1.055999994277954, 0.0, 0.0, 0.0, 0.0, 0.0, 1.6213411139941747E9, 2021-05-18 14:31:53.994
53.0, 18.613481521606445, -20.374975204467773, 228.43495178222656, -137.99856567382812, -0.03200000151991844, -0.08000000566244125, 1.055999994277954, 0.0, 0.0, 0.0, 0.0, 0.0, 1.6213411139941747E9, 2021-05-18 14:31:53.994
54.0, 45.4173469543457, -0.4600076973438263, 256.8133239746094, -112.21195983886719, -0.03200000151991844, -0.08000000566244125, 1.055999994277954, 0.0, 0.0, 0.0, 0.0, 0.0, 1.6213411139948857E9, 2021-05-18 14:31:53.994
54.0, 101.78511810302734, 64.87604522705078, 310.4883728027344, -55.89654541015625, -0.03200000151991844, -0.08000000566244125, 1.055999994277954, 0.0, 0.0, 0.0, 0.0, 0.0, 1.6213411139948857E9, 2021-05-18 14:31:53.994
55.0, 53.68626403808594, 6.974913597106934, 257.3182067871094, -112.6607437133789, -0.03200000151991844, -0.08000000566244125, 1.055999994277954, 0.0, 0.0, 0.0, 0.0, 0.0, 1.621341114007096E9, 2021-05-18 14:31:54.007
55.0, 32.294036865234375, -8.523232460021973, 230.03189086914062, -131.64822387695312, -0.03200000151991844, -0.08000000566244125, 1.055999994277954, 0.0, 0.0, 0.0, 0.0, 0.0, 1.621341114007096E9, 2021-05-18 14:31:54.007
56.0, 55.773128509521484, 7.928587913513184, 256.1850280761719, -110.95161437988281, -0.03200000151991844, -0.08000000566244125, 1.055999994277954, 0.0, 0.0, 0.0, 0.0, 0.0, 1.6213411140228307E9, 2021-05-18 14:31:54.022
56.0, 115.76860046386719, 70.60931396484375, 321.88385009765625, -49.97254180908203, -0.03200000151991844, -0.08000000566244125, 1.055999994277954, 0.0, 0.0, 0.0, 0.0, 0.0, 1.6213411140228307E9, 2021-05-18 14:31:54.022
57.0, 61.94770431518555, 1.9858869314193726, 263.7471008300781, -103.51669311523438, -0.03200000151991844, -0.08000000566244125, 1.055999994277954, 0.0, 0.0, 0.0, 0.0, 0.0, 1.621341114023499E9, 2021-05-18 14:31:54.023
57.0, 33.49080276489258, -16.78093147277832, 237.88941955566406, -129.1761474609375, -0.03200000151991844, -0.08000000566244125, 1.055999994277954, 0.0, 0.0, 0.0, 0.0, 0.0, 1.621341114023499E9, 2021-05-18 14:31:54.023
58.0, 47.10029983520508, 12.69696044921875, 258.1484680175781, -103.864501953125, -0.03200000151991844, -0.08000000566244125, 1.055999994277954, 0.0, 0.0, 0.0, 0.0, 0.0, 1.6213411140705087E9, 2021-05-18 14:31:54.070
58.0, 99.70199584960938, 68.07740020751953, 311.5691833496094, -47.92307662963867, -0.03200000151991844, -0.08000000566244125, 1.055999994277954, 0.0, 0.0, 0.0, 0.0, 0.0, 1.6213411140705087E9, 2021-05-18 14:31:54.070
59.0, 43.99618148803711, 11.249619483947754, 255.9755859375, -103.73734283447266, -0.03200000151991844, -0.08000000566244125, 1.055999994277954, 0.0, 0.0, 0.0, 0.0, 0.0, 1.621341114071237E9, 2021-05-18 14:31:54.071
59.0, 18.987472534179688, -9.342269897460938, 236.79737854003906, -121.6514663696289, -0.03200000151991844, -0.08000000566244125, 1.055999994277954, 0.0, 0.0, 0.0, 0.0, 0.0, 1.621341114071237E9, 2021-05-18 14:31:54.071
60.0, 35.75718307495117, 14.095683097839355, 258.78424072265625, -97.65626525878906, -0.03200000151991844, -0.08000000566244125, 1.055999994277954, 0.0, 0.0, 0.0, 0.0, 0.0, 1.6213411140719488E9, 2021-05-18 14:31:54.071
60.0, 98.2471694946289, 74.32302856445312, 319.31451416015625, -42.31696701049805, -0.03200000151991844, -0.08000000566244125, 1.055999994277954, 0.0, 0.0, 0.0, 0.0, 0.0, 1.6213411140719488E9, 2021-05-18 14:31:54.071
61.0, 52.904624938964844, 14.522031784057617, 267.66278076171875, -95.38614654541016, -0.03200000151991844, -0.08000000566244125, 1.055999994277954, 0.0, 0.0, 0.0, 0.0, 0.0, 1.6213411140727303E9, 2021-05-18 14:31:54.072
61.0, 29.006664276123047, -22.63013458251953, 238.49154663085938, -128.89564514160156, -0.03200000151991844, -0.08000000566244125, 1.055999994277954, 0.0, 0.0, 0.0, 0.0, 0.0, 1.6213411140727303E9, 2021-05-18 14:31:54.072
62.0, 59.41579055786133, 9.491866111755371, 267.69268798828125, -103.51295471191406, -0.03200000151991844, -0.08000000566244125, 1.055999994277954, 0.0, 0.0, 0.0, 0.0, 0.0, 1.6213411140827358E9, 2021-05-18 14:31:54.082
62.0, 110.91795349121094, 59.920677185058594, 320.37664794921875, -50.59336471557617, -0.03200000151991844, -0.08000000566244125, 1.055999994277954, 0.0, 0.0, 0.0, 0.0, 0.0, 1.6213411140827358E9, 2021-05-18 14:31:54.082
63.0, 57.70291519165039, 1.7091342210769653, 258.0661926269531, -112.339111328125, -0.03200000151991844, -0.08000000566244125, 1.055999994277954, 0.0, 0.0, 0.0, 0.0, 0.0, 1.6213411140834076E9, 2021-05-18 14:31:54.083
63.0, 29.19365882873535, -26.111982345581055, 222.15567016601562, -139.46461486816406, -0.03200000151991844, -0.08000000566244125, 1.055999994277954, 0.0, 0.0, 0.0, 0.0, 0.0, 1.6213411140834076E9, 2021-05-18 14:31:54.083
64.0, 57.64681625366211, -2.778745651245117, 252.72186279296875, -107.41740417480469, -0.03200000151991844, -0.08000000566244125, 1.055999994277954, 0.0, 0.0, 0.0, 0.0, 0.0, 1.6213411141132696E9, 2021-05-18 14:31:54.113
64.0, 109.27987670898438, 67.79316711425781, 313.1885681152344, -52.3847770690918, -0.03200000151991844, -0.08000000566244125, 1.055999994277954, 0.0, 0.0, 0.0, 0.0, 0.0, 1.6213411141132696E9, 2021-05-18 14:31:54.113
65.0, 51.39744567871094, 8.755105972290039, 253.6381378173828, -109.01060485839844, -0.03200000151991844, -0.08000000566244125, 1.055999994277954, 0.0, 0.0, 0.0, 0.0, 0.0, 1.6213411141139371E9, 2021-05-18 14:31:54.113
65.0, 21.149133682250977, -16.13018798828125, 227.54859924316406, -133.8397979736328, -0.03200000151991844, -0.08000000566244125, 1.055999994277954, 0.0, 0.0, 0.0, 0.0, 0.0, 1.6213411141139371E9, 2021-05-18 14:31:54.113
66.0, 47.047943115234375, 14.058283805847168, 253.83262634277344, -105.39411926269531, -0.03200000151991844, -0.08000000566244125, 1.055999994277954, 0.0, 0.0, 0.0, 0.0, 0.0, 1.621341114173152E9, 2021-05-18 14:31:54.173
66.0, 101.92349243164062, 71.42460632324219, 308.6894836425781, -46.184024810791016, -0.03200000151991844, -0.08000000566244125, 1.055999994277954, 0.0, 0.0, 0.0, 0.0, 0.0, 1.621341114173152E9, 2021-05-18 14:31:54.173
67.0, 49.235782623291016, 20.315135955810547, 257.314453125, -98.57254028320312, -0.03200000151991844, -0.08000000566244125, 1.055999994277954, 0.0, 0.0, 0.0, 0.0, 0.0, 1.621341114173826E9, 2021-05-18 14:31:54.173
67.0, 17.491512298583984, -8.968279838562012, 229.62799072265625, -127.21643829345703, -0.03200000151991844, -0.08000000566244125, 1.055999994277954, 0.0, 0.0, 0.0, 0.0, 0.0, 1.621341114173826E9, 2021-05-18 14:31:54.173
68.0, 48.95903015136719, 21.95321273803711, 256.1737976074219, -97.72732543945312, -0.03200000151991844, -0.08000000566244125, 1.055999994277954, 0.0, 0.0, 0.0, 0.0, 0.0, 1.6213411141905549E9, 2021-05-18 14:31:54.190
68.0, 97.40943145751953, 69.40880584716797, 302.6981506347656, -51.6218376159668, -0.03200000151991844, -0.08000000566244125, 1.055999994277954, 0.0, 0.0, 0.0, 0.0, 0.0, 1.6213411141905549E9, 2021-05-18 14:31:54.190
69.0, 48.73463821411133, 15.011958122253418, 257.8380432128906, -102.47325897216797, -0.03200000151991844, -0.08000000566244125, 1.055999994277954, 0.0, 0.0, 0.0, 0.0, 0.0, 1.6213411141912165E9, 2021-05-18 14:31:54.191
69.0, 29.04780387878418, -6.866456508636475, 244.6175079345703, -126.89106750488281, -0.03200000151991844, -0.08000000566244125, 1.055999994277954, 0.0, 0.0, 0.0, 0.0, 0.0, 1.6213411141912165E9, 2021-05-18 14:31:54.191
70.0, 58.076908111572266, 27.839815139770508, 267.44586181640625, -100.38639831542969, -0.03200000151991844, -0.08000000566244125, 1.040000081062317, 0.0, 0.0, 0.0, 0.0, 0.0, 1.621341114192005E9, 2021-05-18 14:31:54.192
70.0, 111.40788269042969, 67.82682800292969, 329.7264099121094, -58.94456481933594, -0.03200000151991844, -0.08000000566244125, 1.040000081062317, 0.0, 0.0, 0.0, 0.0, 0.0, 1.621341114192005E9, 2021-05-18 14:31:54.192
71.0, 58.38357925415039, 3.2462332248687744, 271.49615478515625, -111.88658905029297, -0.03200000151991844, -0.08000000566244125, 1.040000081062317, 0.0, 0.0, 0.0, 0.0, 0.0, 1.6213411141927264E9, 2021-05-18 14:31:54.192
71.0, 29.361953735351562, -14.316336631774902, 239.6920623779297, -138.30149841308594, -0.03200000151991844, -0.08000000566244125, 1.040000081062317, 0.0, 0.0, 0.0, 0.0, 0.0, 1.6213411141927264E9, 2021-05-18 14:31:54.192
72.0, 58.61919021606445, 7.808911323547363, 265.6768798828125, -104.26093292236328, -0.03200000151991844, -0.08000000566244125, 1.040000081062317, 0.0, 0.0, 0.0, 0.0, 0.0, 1.6213411142042725E9, 2021-05-18 14:31:54.204
72.0, 115.09168243408203, 69.45368194580078, 316.1356201171875, -53.52170944213867, -0.03200000151991844, -0.08000000566244125, 1.040000081062317, 0.0, 0.0, 0.0, 0.0, 0.0, 1.6213411142042725E9, 2021-05-18 14:31:54.204
73.0, 51.40118408203125, 5.564970970153809, 250.5564727783203, -114.88224792480469, -0.03200000151991844, -0.08000000566244125, 1.040000081062317, 0.0, 0.0, 0.0, 0.0, 0.0, 1.6213411142049916E9, 2021-05-18 14:31:54.204
73.0, 21.50816535949707, -25.472457885742188, 222.70542907714844, -137.8302764892578, -0.03200000151991844, -0.08000000566244125, 1.040000081062317, 0.0, 0.0, 0.0, 0.0, 0.0, 1.6213411142049916E9, 2021-05-18 14:31:54.204
74.0, 48.58877944946289, 9.06177806854248, 256.2448425292969, -110.80575561523438, -0.03200000151991844, -0.08000000566244125, 1.040000081062317, 0.0, 0.0, 0.0, 0.0, 0.0, 1.621341114205598E9, 2021-05-18 14:31:54.205
74.0, 103.0417251586914, 64.56563568115234, 309.5458984375, -54.35570526123047, -0.03200000151991844, -0.08000000566244125, 1.040000081062317, 0.0, 0.0, 0.0, 0.0, 0.0, 1.621341114205598E9, 2021-05-18 14:31:54.205
75.0, 48.72341537475586, 14.74642562866211, 253.0846405029297, -107.85497283935547, -0.03200000151991844, -0.08000000566244125, 1.040000081062317, 0.0, 0.0, 0.0, 0.0, 0.0, 1.6213411142063591E9, 2021-05-18 14:31:54.206
75.0, 22.600215911865234, -2.887202739715576, 229.48960876464844, -131.74545288085938, -0.03200000151991844, -0.08000000566244125, 1.040000081062317, 0.0, 0.0, 0.0, 0.0, 0.0, 1.6213411142063591E9, 2021-05-18 14:31:54.206
76.0, 40.36848068237305, 14.095683097839355, 252.0299835205078, -107.94847106933594, -0.03200000151991844, -0.08000000566244125, 1.040000081062317, 0.0, 0.0, 0.0, 0.0, 0.0, 1.621341114217028E9, 2021-05-18 14:31:54.217
76.0, 98.71466064453125, 77.11299896240234, 317.268798828125, -45.71653747558594, -0.03200000151991844, -0.08000000566244125, 1.040000081062317, 0.0, 0.0, 0.0, 0.0, 0.0, 1.621341114217028E9, 2021-05-18 14:31:54.217
77.0, 41.2623176574707, 13.47111988067627, 251.304443359375, -108.21400451660156, -0.03200000151991844, -0.08000000566244125, 1.040000081062317, 0.0, 0.0, 0.0, 0.0, 0.0, 1.6213411142491643E9, 2021-05-18 14:31:54.249
77.0, 11.066364288330078, -10.352043151855469, 226.70338439941406, -128.78720092773438, -0.03200000151991844, -0.08000000566244125, 1.040000081062317, 0.0, 0.0, 0.0, 0.0, 0.0, 1.6213411142491643E9, 2021-05-18 14:31:54.249
78.0, 48.25218963623047, 18.994951248168945, 265.4001159667969, -96.86714935302734, -0.03200000151991844, -0.08000000566244125, 1.040000081062317, 0.0, 0.0, 0.0, 0.0, 0.0, 1.621341114249892E9, 2021-05-18 14:31:54.249
78.0, 93.90140533447266, 71.77242279052734, 314.2207946777344, -45.48466491699219, -0.03200000151991844, -0.08000000566244125, 1.040000081062317, 0.0, 0.0, 0.0, 0.0, 0.0, 1.621341114249892E9, 2021-05-18 14:31:54.249
79.0, 56.775421142578125, 9.648941993713379, 263.0589599609375, -94.88874053955078, -0.03200000151991844, -0.08000000566244125, 1.040000081062317, 0.0, 0.0, 0.0, 0.0, 0.0, 1.6213411142505593E9, 2021-05-18 14:31:54.250
79.0, 24.294389724731445, -15.513105392456055, 225.31214904785156, -131.98855590820312, -0.03200000151991844, -0.08000000566244125, 1.040000081062317, 0.0, 0.0, 0.0, 0.0, 0.0, 1.6213411142505593E9, 2021-05-18 14:31:54.250
80.0, 51.442325592041016, 8.224040031433105, 255.3360595703125, -108.89093017578125, -0.03200000151991844, -0.08000000566244125, 1.040000081062317, 0.0, 0.0, 0.0, 0.0, 0.0, 1.6213411142513468E9, 2021-05-18 14:31:54.251
80.0, 107.60066223144531, 63.05845260620117, 312.9267883300781, -59.9019775390625, -0.03200000151991844, -0.08000000566244125, 1.040000081062317, 0.0, 0.0, 0.0, 0.0, 0.0, 1.6213411142513468E9, 2021-05-18 14:31:54.251
81.0, 55.3766975402832, 0.5722047090530396, 251.71209716796875, -113.62564086914062, -0.03200000151991844, -0.08000000566244125, 1.040000081062317, 0.0, 0.0, 0.0, 0.0, 0.0, 1.6213411142778835E9, 2021-05-18 14:31:54.277
81.0, 24.784317016601562, -12.981192588806152, 224.1752166748047, -138.99337768554688, -0.03200000151991844, -0.08000000566244125, 1.040000081062317, 0.0, 0.0, 0.0, 0.0, 0.0, 1.6213411142778835E9, 2021-05-18 14:31:54.277
82.0, 49.553672790527344, 9.802277565002441, 259.2779235839844, -116.98780822753906, -0.03200000151991844, -0.08000000566244125, 1.040000081062317, 0.0, 0.0, 0.0, 0.0, 0.0, 1.6213411142784867E9, 2021-05-18 14:31:54.278
82.0, 105.72322845458984, 77.0456771850586, 318.1962890625, -53.98171615600586, -0.03200000151991844, -0.08000000566244125, 1.040000081062317, 0.0, 0.0, 0.0, 0.0, 0.0, 1.6213411142784867E9, 2021-05-18 14:31:54.278
83.0, 46.45329666137695, 3.1751749515533447, 255.01817321777344, -119.47858428955078, -0.03200000151991844, -0.08000000566244125, 1.040000081062317, 0.0, 0.0, 0.0, 0.0, 0.0, 1.6213411142928147E9, 2021-05-18 14:31:54.292
83.0, 23.116321563720703, -7.304024696350098, 233.5137481689453, -139.05322265625, -0.03200000151991844, -0.08000000566244125, 1.040000081062317, 0.0, 0.0, 0.0, 0.0, 0.0, 1.6213411142928147E9, 2021-05-18 14:31:54.292
84.0, 43.42771911621094, 24.94139289855957, 261.13665771484375, -108.96572875976562, -0.03200000151991844, -0.08000000566244125, 1.040000081062317, 0.0, 0.0, 0.0, 0.0, 0.0, 1.6213411142935767E9, 2021-05-18 14:31:54.293
84.0, 101.79633331298828, 84.09912872314453, 319.8194274902344, -44.665626525878906, -0.03200000151991844, -0.08000000566244125, 1.040000081062317, 0.0, 0.0, 0.0, 0.0, 0.0, 1.6213411142935767E9, 2021-05-18 14:31:54.293
85.0, 38.588287353515625, 16.80337142944336, 250.57142639160156, -108.99564361572266, -0.03200000151991844, -0.08000000566244125, 1.040000081062317, 0.0, 0.0, 0.0, 0.0, 0.0, 1.6213411143070524E9, 2021-05-18 14:31:54.307
85.0, 16.938007354736328, -16.193767547607422, 229.68408203125, -136.3268280029297, -0.03200000151991844, -0.08000000566244125, 1.040000081062317, 0.0, 0.0, 0.0, 0.0, 0.0, 1.6213411143070524E9, 2021-05-18 14:31:54.307
86.0, 39.740177154541016, 4.375682830810547, 258.88897705078125, -109.3060531616211, -0.03200000151991844, -0.08000000566244125, 1.040000081062317, 0.0, 0.0, 0.0, 0.0, 0.0, 1.6213411143227525E9, 2021-05-18 14:31:54.322
86.0, 98.74832153320312, 75.64321899414062, 314.78924560546875, -58.15544509887695, -0.03200000151991844, -0.08000000566244125, 1.040000081062317, 0.0, 0.0, 0.0, 0.0, 0.0, 1.6213411143227525E9, 2021-05-18 14:31:54.322
87.0, 41.48297119140625, 27.854774475097656, 252.78170776367188, -114.48955535888672, -0.03200000151991844, -0.08000000566244125, 1.040000081062317, 0.0, 0.0, 0.0, 0.0, 0.0, 1.621341114323549E9, 2021-05-18 14:31:54.323
87.0, 19.582117080688477, -3.8969757556915283, 231.6699676513672, -134.8009490966797, -0.03200000151991844, -0.08000000566244125, 1.040000081062317, 0.0, 0.0, 0.0, 0.0, 0.0, 1.621341114323549E9, 2021-05-18 14:31:54.323
88.0, 47.61640548706055, 21.885894775390625, 261.1703186035156, -111.8940658569336, -0.03200000151991844, -0.08000000566244125, 1.040000081062317, 0.0, 0.0, 0.0, 0.0, 0.0, 1.621341114337107E9, 2021-05-18 14:31:54.337
88.0, 95.90973663330078, 70.62052917480469, 315.2604675292969, -64.55815124511719, -0.03200000151991844, -0.08000000566244125, 1.040000081062317, 0.0, 0.0, 0.0, 0.0, 0.0, 1.621341114337107E9, 2021-05-18 14:31:54.337
89.0, 52.762508392333984, 17.75704574584961, 259.3227844238281, -109.51923370361328, -0.03200000151991844, -0.08000000566244125, 1.040000081062317, 0.0, 0.0, 0.0, 0.0, 0.0, 1.62134111435276E9, 2021-05-18 14:31:54.352
89.0, 23.752103805541992, -17.188579559326172, 226.91656494140625, -141.74220275878906, -0.03200000151991844, -0.08000000566244125, 1.040000081062317, 0.0, 0.0, 0.0, 0.0, 0.0, 1.62134111435276E9, 2021-05-18 14:31:54.352
90.0, 48.36064529418945, 8.519492149353027, 253.7241668701172, -117.01773071289062, -0.03200000151991844, -0.08000000566244125, 1.055999994277954, 0.0, 0.0, 0.0, 0.0, 0.0, 1.6213411143534613E9, 2021-05-18 14:31:54.353
90.0, 99.6084976196289, 71.04313659667969, 303.382568359375, -62.79291915893555, -0.03200000151991844, -0.08000000566244125, 1.055999994277954, 0.0, 0.0, 0.0, 0.0, 0.0, 1.6213411143534613E9, 2021-05-18 14:31:54.353
91.0, 49.54245376586914, 7.655575275421143, 246.62208557128906, -115.96308135986328, -0.03200000151991844, -0.08000000566244125, 1.055999994277954, 0.0, 0.0, 0.0, 0.0, 0.0, 1.6213411143670542E9, 2021-05-18 14:31:54.367
91.0, 21.354827880859375, -13.422500610351562, 217.17037963867188, -142.75572204589844, -0.03200000151991844, -0.08000000566244125, 1.055999994277954, 0.0, 0.0, 0.0, 0.0, 0.0, 1.6213411143670542E9, 2021-05-18 14:31:54.367
92.0, 44.73294448852539, 9.342269897460938, 244.66986083984375, -112.36903381347656, -0.03200000151991844, -0.08000000566244125, 1.055999994277954, 0.0, 0.0, 0.0, 0.0, 0.0, 1.6213411143827634E9, 2021-05-18 14:31:54.382
92.0, 97.97042083740234, 81.4176254272461, 308.2294616699219, -50.51108932495117, -0.03200000151991844, -0.08000000566244125, 1.055999994277954, 0.0, 0.0, 0.0, 0.0, 0.0, 1.6213411143827634E9, 2021-05-18 14:31:54.382
93.0, 46.33736038208008, 17.958999633789062, 257.2733154296875, -104.58256530761719, -0.03200000151991844, -0.08000000566244125, 1.055999994277954, 0.0, 0.0, 0.0, 0.0, 0.0, 1.6213411143834248E9, 2021-05-18 14:31:54.383
93.0, 24.477645874023438, -6.638322353363037, 240.7467041015625, -125.82893371582031, -0.03200000151991844, -0.08000000566244125, 1.055999994277954, 0.0, 0.0, 0.0, 0.0, 0.0, 1.6213411143834248E9, 2021-05-18 14:31:54.383
94.0, 50.56718826293945, 14.439753532409668, 265.9012756347656, -102.60789489746094, -0.03200000151991844, -0.08000000566244125, 1.055999994277954, 0.0, 0.0, 0.0, 0.0, 0.0, 1.6213411143970633E9, 2021-05-18 14:31:54.397
94.0, 100.8351821899414, 73.82562255859375, 323.0843505859375, -46.1802864074707, -0.03200000151991844, -0.08000000566244125, 1.055999994277954, 0.0, 0.0, 0.0, 0.0, 0.0, 1.6213411143970633E9, 2021-05-18 14:31:54.397
95.0, 44.617008209228516, 24.032596588134766, 270.306884765625, -96.09673309326172, -0.03200000151991844, -0.08000000566244125, 1.055999994277954, 0.0, 0.0, 0.0, 0.0, 0.0, 1.6213411144128149E9, 2021-05-18 14:31:54.412
95.0, 15.210172653198242, -2.9283416271209717, 235.81378173828125, -125.74665832519531, -0.03200000151991844, -0.08000000566244125, 1.055999994277954, 0.0, 0.0, 0.0, 0.0, 0.0, 1.6213411144128149E9, 2021-05-18 14:31:54.412
96.0, 37.51493835449219, 12.75679874420166, 256.4206237792969, -108.49823760986328, -0.03200000151991844, -0.08000000566244125, 1.055999994277954, 0.0, 0.0, 0.0, 0.0, 0.0, 1.62134111441352E9, 2021-05-18 14:31:54.413
96.0, 97.1401596069336, 64.76758575439453, 317.8896179199219, -59.04180145263672, -0.03200000151991844, -0.08000000566244125, 1.055999994277954, 0.0, 0.0, 0.0, 0.0, 0.0, 1.62134111441352E9, 2021-05-18 14:31:54.413
97.0, 45.68661880493164, 15.43830680847168, 253.2604217529297, -112.81782531738281, -0.03200000151991844, -0.08000000566244125, 1.055999994277954, 0.0, 0.0, 0.0, 0.0, 0.0, 1.621341114427022E9, 2021-05-18 14:31:54.427
97.0, 19.226825714111328, -17.570049285888672, 218.82716369628906, -147.0678253173828, -0.03200000151991844, -0.08000000566244125, 1.055999994277954, 0.0, 0.0, 0.0, 0.0, 0.0, 1.621341114427022E9, 2021-05-18 14:31:54.427
98.0, 47.4368896484375, 6.941254138946533, 248.69400024414062, -117.66473388671875, -0.03200000151991844, -0.08000000566244125, 1.055999994277954, 0.0, 0.0, 0.0, 0.0, 0.0, 1.621341114442716E9, 2021-05-18 14:31:54.442
98.0, 96.81478881835938, 63.967247009277344, 305.4918518066406, -67.18356323242188, -0.03200000151991844, -0.08000000566244125, 1.055999994277954, 0.0, 0.0, 0.0, 0.0, 0.0, 1.621341114442716E9, 2021-05-18 14:31:54.442
99.0, 46.64777374267578, 10.550257682800293, 249.64393615722656, -125.2455062866211, -0.03200000151991844, -0.08000000566244125, 1.055999994277954, 0.0, 0.0, 0.0, 0.0, 0.0, 1.6213411144434156E9, 2021-05-18 14:31:54.443
99.0, 13.168188095092773, -8.620469093322754, 222.1107940673828, -146.9818115234375, -0.03200000151991844, -0.08000000566244125, 1.055999994277954, 0.0, 0.0, 0.0, 0.0, 0.0, 1.6213411144434156E9, 2021-05-18 14:31:54.443
100.0, 36.32190704345703, 23.66982650756836, 251.79811096191406, -121.40463256835938, -0.03200000151991844, -0.08000000566244125, 1.055999994277954, 0.0, 0.0, 0.0, 0.0, 0.0, 1.621341114458138E9, 2021-05-18 14:31:54.458
100.0, 93.75929260253906, 78.99790954589844, 316.0308837890625, -60.773372650146484, -0.03200000151991844, -0.08000000566244125, 1.055999994277954, 0.0, 0.0, 0.0, 0.0, 0.0, 1.621341114458138E9, 2021-05-18 14:31:54.458
0.0, 37.65144348144531, 20.206680297851562, 259.30035400390625, -113.12823486328125, -0.03200000151991844, -0.08000000566244125, 1.055999994277954, 0.0, 0.0, 0.0, 0.0, 0.0, 1.6213411144727197E9, 2021-05-18 14:31:54.472
1.0, 2.814274787902832, -9.024378776550293, 228.9772491455078, -140.1041259765625, -0.03200000151991844, -0.08000000566244125, 1.055999994277954, 0.0, 0.0, 0.0, 0.0, 0.0, 1.6213411144734397E9, 2021-05-18 14:31:54.473
1.0, 38.410640716552734, 31.811588287353516, 263.5600891113281, -110.42428588867188, -0.03200000151991844, -0.08000000566244125, 1.055999994277954, 0.0, 0.0, 0.0, 0.0, 0.0, 1.6213411144734397E9, 2021-05-18 14:31:54.473
2.0, 95.69094848632812, 83.23895263671875, 324.16143798828125, -57.26534652709961, -0.03200000151991844, -0.08000000566244125, 1.055999994277954, 0.0, 0.0, 0.0, 0.0, 0.0, 1.6213411144877017E9, 2021-05-18 14:31:54.487
2.0, 55.05693817138672, 20.902301788330078, 272.5545654296875, -104.46662902832031, -0.03200000151991844, -0.08000000566244125, 1.055999994277954, 0.0, 0.0, 0.0, 0.0, 0.0, 1.6213411144877017E9, 2021-05-18 14:31:54.487
3.0, 30.433435440063477, -8.500792503356934, 243.27114868164062, -127.28001403808594, -0.03200000151991844, -0.08000000566244125, 1.055999994277954, 0.0, 0.0, 0.0, 0.0, 0.0, 1.6213411144883895E9, 2021-05-18 14:31:54.488
3.0, 52.71202087402344, 15.18773365020752, 271.41015625, -105.895263671875, -0.03200000151991844, -0.08000000566244125, 1.055999994277954, 0.0, 0.0, 0.0, 0.0, 0.0, 1.6213411144883895E9, 2021-05-18 14:31:54.488
4.0, 113.38441467285156, 69.96978759765625, 325.26470947265625, -56.69688415527344, -0.03200000151991844, -0.08000000566244125, 1.055999994277954, 0.0, 0.0, 0.0, 0.0, 0.0, 1.6213411145020247E9, 2021-05-18 14:31:54.502
4.0, 60.322715759277344, 12.962492942810059, 267.17657470703125, -111.0488510131836, -0.03200000151991844, -0.08000000566244125, 1.055999994277954, 0.0, 0.0, 0.0, 0.0, 0.0, 1.6213411145020247E9, 2021-05-18 14:31:54.502
5.0, 35.58701705932617, -10.78213119506836, 239.6172637939453, -138.76524353027344, -0.03200000151991844, -0.08000000566244125, 1.055999994277954, 0.0, 0.0, 0.0, 0.0, 0.0, 1.6213411145180538E9, 2021-05-18 14:31:54.518
5.0, 45.965240478515625, 19.413820266723633, 264.6745910644531, -116.32585144042969, -0.03200000151991844, -0.08000000566244125, 1.055999994277954, 0.0, 0.0, 0.0, 0.0, 0.0, 1.6213411145180538E9, 2021-05-18 14:31:54.518
6.0, 98.19668579101562, 74.22953796386719, 318.1214904785156, -61.113704681396484, -0.03200000151991844, -0.08000000566244125, 1.055999994277954, 0.0, 0.0, 0.0, 0.0, 0.0, 1.6213411145327122E9, 2021-05-18 14:31:54.532
6.0, 45.781986236572266, 19.496097564697266, 262.44561767578125, -113.82011413574219, -0.03200000151991844, -0.08000000566244125, 1.055999994277954, 0.0, 0.0, 0.0, 0.0, 0.0, 1.6213411145327122E9, 2021-05-18 14:31:54.532
7.0, 16.20685577392578, -5.564970970153809, 233.09861755371094, -141.5439910888672, -0.03200000151991844, -0.08000000566244125, 1.055999994277954, 0.0, 0.0, 0.0, 0.0, 0.0, 1.6213411145333908E9, 2021-05-18 14:31:54.533
7.0, 33.28697967529297, 18.456405639648438, 262.4381408691406, -115.30859375, -0.03200000151991844, -0.08000000566244125, 1.055999994277954, 0.0, 0.0, 0.0, 0.0, 0.0, 1.6213411145333908E9, 2021-05-18 14:31:54.533
8.0, 87.11910247802734, 67.25836181640625, 315.9710693359375, -66.2037124633789, -0.03200000151991844, -0.08000000566244125, 1.055999994277954, 0.0, 0.0, 0.0, 0.0, 0.0, 1.6213411145477867E9, 2021-05-18 14:31:54.547
8.0, 36.74638748168945, 21.912073135375977, 263.1337585449219, -111.25454711914062, -0.03200000151991844, -0.08000000566244125, 1.055999994277954, 0.0, 0.0, 0.0, 0.0, 0.0, 1.6213411145477867E9, 2021-05-18 14:31:54.547
9.0, 13.229896545410156, -9.56666374206543, 239.84913635253906, -129.052734375, -0.03200000151991844, -0.08000000566244125, 1.055999994277954, 0.0, 0.0, 0.0, 0.0, 0.0, 1.6213411145485113E9, 2021-05-18 14:31:54.548
9.0, 41.08467102050781, 20.83124351501465, 265.4637145996094, -102.16658782958984, -0.03200000151991844, -0.08000000566244125, 1.055999994277954, 0.0, 0.0, 0.0, 0.0, 0.0, 1.6213411145485113E9, 2021-05-18 14:31:54.548
10.0, 100.19378662109375, 76.71656799316406, 315.6120300292969, -47.994136810302734, -0.03200000151991844, -0.08000000566244125, 1.055999994277954, 0.0, 0.0, 0.0, 0.0, 0.0, 1.6213411145790927E9, 2021-05-18 14:31:54.579
10.0, 51.90793991088867, 24.4664249420166, 264.2257995605469, -102.17032623291016, -0.03200000151991844, -0.08000000566244125, 1.055999994277954, 0.0, 0.0, 0.0, 0.0, 0.0, 1.6213411145790927E9, 2021-05-18 14:31:54.579
11.0, 29.008533477783203, -0.07853789627552032, 236.03443908691406, -133.712646484375, -0.03200000151991844, -0.08000000566244125, 1.055999994277954, 0.0, 0.0, 0.0, 0.0, 0.0, 1.6213411145799766E9, 2021-05-18 14:31:54.579
11.0, 57.11388397216797, 31.654512405395508, 273.1342468261719, -99.74313354492188, -0.03200000151991844, -0.08000000566244125, 1.055999994277954, 0.0, 0.0, 0.0, 0.0, 0.0, 1.6213411145799766E9, 2021-05-18 14:31:54.579
12.0, 110.0334701538086, 56.89509963989258, 326.53253173828125, -55.08872604370117, -0.03200000151991844, -0.08000000566244125, 1.055999994277954, 0.0, 0.0, 0.0, 0.0, 0.0, 1.621341114580634E9, 2021-05-18 14:31:54.580
12.0, 61.085655212402344, 16.085309982299805, 273.6690368652344, -108.70393371582031, -0.03200000151991844, -0.08000000566244125, 1.055999994277954, 0.0, 0.0, 0.0, 0.0, 0.0, 1.621341114580634E9, 2021-05-18 14:31:54.580
13.0, 35.17189025878906, -14.29389762878418, 244.6175079345703, -133.00205993652344, -0.03200000151991844, -0.08000000566244125, 1.055999994277954, 0.0, 0.0, 0.0, 0.0, 0.0, 1.6213411145921297E9, 2021-05-18 14:31:54.592
13.0, 53.587158203125, 13.863809585571289, 264.8204345703125, -112.79537963867188, -0.03200000151991844, -0.08000000566244125, 1.055999994277954, 0.0, 0.0, 0.0, 0.0, 0.0, 1.6213411145921297E9, 2021-05-18 14:31:54.592
14.0, 106.8096694946289, 71.17777252197266, 314.2918395996094, -61.89534378051758, -0.03200000151991844, -0.08000000566244125, 1.055999994277954, 0.0, 0.0, 0.0, 0.0, 0.0, 1.6213411146077807E9, 2021-05-18 14:31:54.607
14.0, 50.71865463256836, 18.198352813720703, 258.9974365234375, -112.54854583740234, -0.03200000151991844, -0.08000000566244125, 1.055999994277954, 0.0, 0.0, 0.0, 0.0, 0.0, 1.6213411146077807E9, 2021-05-18 14:31:54.607
15.0, 17.212888717651367, -24.245771408081055, 224.24627685546875, -145.13429260253906, -0.03200000151991844, -0.08000000566244125, 1.055999994277954, 0.0, 0.0, 0.0, 0.0, 0.0, 1.6213411146084747E9, 2021-05-18 14:31:54.608
15.0, 38.04787063598633, 23.755844116210938, 255.01817321777344, -114.54191589355469, -0.03200000151991844, -0.08000000566244125, 1.055999994277954, 0.0, 0.0, 0.0, 0.0, 0.0, 1.6213411146084747E9, 2021-05-18 14:31:54.608
16.0, 89.82304382324219, 73.69847106933594, 308.4164733886719, -70.99826049804688, -0.03200000151991844, -0.08000000566244125, 1.055999994277954, 0.0, 0.0, 0.0, 0.0, 0.0, 1.62134111463983E9, 2021-05-18 14:31:54.639
16.0, 35.979705810546875, 8.661608695983887, 250.64622497558594, -128.6600341796875, -0.03200000151991844, -0.08000000566244125, 1.055999994277954, 0.0, 0.0, 0.0, 0.0, 0.0, 1.62134111463983E9, 2021-05-18 14:31:54.639
17.0, 6.722470283508301, -12.18459415435791, 224.27244567871094, -146.8209991455078, -0.03200000151991844, -0.08000000566244125, 1.055999994277954, 0.0, 0.0, 0.0, 0.0, 0.0, 1.6213411146405292E9, 2021-05-18 14:31:54.640
17.0, 29.50594139099121, 22.435659408569336, 253.20431518554688, -118.44263458251953, -0.03200000151991844, -0.08000000566244125, 1.055999994277954, 0.0, 0.0, 0.0, 0.0, 0.0, 1.6213411146405292E9, 2021-05-18 14:31:54.640
18.0, 75.31597900390625, 70.49337768554688, 309.3290100097656, -66.35330200195312, -0.03200000151991844, -0.08000000566244125, 1.055999994277954, 0.0, 0.0, 0.0, 0.0, 0.0, 1.6213411146412833E9, 2021-05-18 14:31:54.641
18.0, 32.44550323486328, 20.973358154296875, 256.70111083984375, -111.73699188232422, -0.03200000151991844, -0.08000000566244125, 1.055999994277954, 0.0, 0.0, 0.0, 0.0, 0.0, 1.6213411146412833E9, 2021-05-18 14:31:54.641
19.0, 5.8211541175842285, -9.940653800964355, 238.4578857421875, -134.50924682617188, -0.03200000151991844, -0.08000000566244125, 1.055999994277954, 0.0, 0.0, 0.0, 0.0, 0.0, 1.621341114652024E9, 2021-05-18 14:31:54.652
19.0, 42.50583267211914, 20.775144577026367, 264.7568664550781, -107.47350311279297, -0.03200000151991844, -0.08000000566244125, 1.055999994277954, 0.0, 0.0, 0.0, 0.0, 0.0, 1.621341114652024E9, 2021-05-18 14:31:54.652
20.0, 87.00316619873047, 72.97666931152344, 317.7512512207031, -61.3568000793457, -0.03200000151991844, -0.08000000566244125, 1.055999994277954, 0.0, 0.0, 0.0, 0.0, 0.0, 1.621341114684758E9, 2021-05-18 14:31:54.684
20.0, 41.92988967895508, 15.198953628540039, 264.28936767578125, -111.73699188232422, -0.03200000151991844, -0.08000000566244125, 1.055999994277954, 0.0, 0.0, 0.0, 0.0, 0.0, 1.621341114684758E9, 2021-05-18 14:31:54.684
21.0, 12.769887924194336, -15.999292373657227, 238.98147583007812, -138.05467224121094, -0.03200000151991844, -0.08000000566244125, 1.055999994277954, 0.0, 0.0, 0.0, 0.0, 0.0, 1.6213411146854527E9, 2021-05-18 14:31:54.685
21.0, 40.47132873535156, 20.330095291137695, 264.4576721191406, -106.4300765991211, -0.03200000151991844, -0.08000000566244125, 1.055999994277954, 0.0, 0.0, 0.0, 0.0, 0.0, 1.6213411146854527E9, 2021-05-18 14:31:54.685
22.0, 94.99159240722656, 76.03216552734375, 317.093017578125, -52.6241340637207, -0.03200000151991844, -0.08000000566244125, 1.055999994277954, 0.0, 0.0, 0.0, 0.0, 0.0, 1.6213411146862159E9, 2021-05-18 14:31:54.686
22.0, 45.70344924926758, 21.137914657592773, 264.13604736328125, -112.2156982421875, -0.03200000151991844, -0.08000000566244125, 1.055999994277954, 0.0, 0.0, 0.0, 0.0, 0.0, 1.6213411146862159E9, 2021-05-18 14:31:54.686
23.0, 13.214936256408691, -20.56945037841797, 227.2344512939453, -147.8644256591797, -0.03200000151991844, -0.08000000566244125, 1.055999994277954, 0.0, 0.0, 0.0, 0.0, 0.0, 1.6213411146869605E9, 2021-05-18 14:31:54.686
23.0, 35.441162109375, 11.915321350097656, 249.8982391357422, -118.13970184326172, -0.03200000151991844, -0.08000000566244125, 1.055999994277954, 0.0, 0.0, 0.0, 0.0, 0.0, 1.6213411146869605E9, 2021-05-18 14:31:54.686
24.0, 97.69927978515625, 75.20565032958984, 310.9259338378906, -65.31735229492188, -0.03200000151991844, -0.08000000566244125, 1.055999994277954, 0.0, 0.0, 0.0, 0.0, 0.0, 1.62134111469711E9, 2021-05-18 14:31:54.697
24.0, 47.206886291503906, 25.50611686706543, 253.5558624267578, -117.92278289794922, -0.03200000151991844, -0.08000000566244125, 1.055999994277954, 0.0, 0.0, 0.0, 0.0, 0.0, 1.62134111469711E9, 2021-05-18 14:31:54.697
25.0, 12.713789939880371, -12.779237747192383, 222.20802307128906, -143.4999542236328, -0.03200000151991844, -0.08000000566244125, 1.055999994277954, 0.0, 0.0, 0.0, 0.0, 0.0, 1.6213411147120771E9, 2021-05-18 14:31:54.712
25.0, 40.23197555541992, 20.95465850830078, 254.84613037109375, -112.87017822265625, -0.03200000151991844, -0.08000000566244125, 1.055999994277954, 0.0, 0.0, 0.0, 0.0, 0.0, 1.6213411147120771E9, 2021-05-18 14:31:54.712
26.0, 84.35905456542969, 76.35379791259766, 304.09686279296875, -65.6053237915039, -0.03200000151991844, -0.08000000566244125, 1.055999994277954, 0.0, 0.0, 0.0, 0.0, 0.0, 1.621341114727817E9, 2021-05-18 14:31:54.727
26.0, 36.29385757446289, 14.480892181396484, 248.88473510742188, -115.69380187988281, -0.03200000151991844, -0.08000000566244125, 1.055999994277954, 0.0, 0.0, 0.0, 0.0, 0.0, 1.621341114727817E9, 2021-05-18 14:31:54.727
27.0, 8.551280975341797, -6.95621395111084, 218.98049926757812, -143.85525512695312, -0.03200000151991844, -0.08000000566244125, 1.055999994277954, 0.0, 0.0, 0.0, 0.0, 0.0, 1.6213411147285087E9, 2021-05-18 14:31:54.728
27.0, 36.73890686035156, 14.417314529418945, 255.32484436035156, -111.26576232910156, -0.03200000151991844, -0.08000000566244125, 1.055999994277954, 0.0, 0.0, 0.0, 0.0, 0.0, 1.6213411147285087E9, 2021-05-18 14:31:54.728
28.0, 83.9626235961914, 66.11395263671875, 302.2605895996094, -62.886417388916016, -0.03200000151991844, -0.08000000566244125, 1.055999994277954, 0.0, 0.0, 0.0, 0.0, 0.0, 1.621341114758371E9, 2021-05-18 14:31:54.758
28.0, 51.27963638305664, 16.29474449157715, 262.1426696777344, -105.55119323730469, -0.03200000151991844, -0.08000000566244125, 1.055999994277954, 0.0, 0.0, 0.0, 0.0, 0.0, 1.621341114758371E9, 2021-05-18 14:31:54.758
29.0, 12.365979194641113, -14.226579666137695, 230.79856872558594, -138.94476318359375, -0.03200000151991844, -0.08000000566244125, 1.055999994277954, 0.0, 0.0, 0.0, 0.0, 0.0, 1.6213411147590778E9, 2021-05-18 14:31:54.759
29.0, 39.36057662963867, 15.81977653503418, 254.1131134033203, -113.93605041503906, -0.03200000151991844, -0.08000000566244125, 1.055999994277954, 0.0, 0.0, 0.0, 0.0, 0.0, 1.6213411147590778E9, 2021-05-18 14:31:54.759
30.0, 93.48440551757812, 63.54838180541992, 320.2008972167969, -57.60942077636719, -0.03200000151991844, -0.08000000566244125, 1.055999994277954, 0.0, 0.0, 0.0, 0.0, 0.0, 1.621341114759836E9, 2021-05-18 14:31:54.759
30.0, 43.80731964111328, 11.855483055114746, 261.2525939941406, -118.86150360107422, -0.03200000151991844, -0.08000000566244125, 1.055999994277954, 0.0, 0.0, 0.0, 0.0, 0.0, 1.621341114759836E9, 2021-05-18 14:31:54.759
31.0, 20.13749122619629, -21.4146671295166, 233.076171875, -143.2344207763672, -0.03200000151991844, -0.08000000566244125, 1.055999994277954, 0.0, 0.0, 0.0, 0.0, 0.0, 1.6213411147721472E9, 2021-05-18 14:31:54.772
31.0, 32.28468704223633, 8.508272171020508, 248.83236694335938, -128.22994995117188, -0.03200000151991844, -0.08000000566244125, 1.055999994277954, 0.0, 0.0, 0.0, 0.0, 0.0, 1.6213411147721472E9, 2021-05-18 14:31:54.772
32.0, 91.37136840820312, 77.49073028564453, 314.1310119628906, -68.50374603271484, -0.03200000151991844, -0.08000000566244125, 1.055999994277954, 0.0, 0.0, 0.0, 0.0, 0.0, 1.6213411147877085E9, 2021-05-18 14:31:54.787
32.0, 39.43911361694336, 15.931973457336426, 259.9024658203125, -125.96356964111328, -0.03200000151991844, -0.08000000566244125, 1.055999994277954, 0.0, 0.0, 0.0, 0.0, 0.0, 1.6213411147877085E9, 2021-05-18 14:31:54.787
33.0, 2.0064563751220703, -13.123309135437012, 221.68069458007812, -154.34193420410156, -0.03200000151991844, -0.08000000566244125, 1.055999994277954, 0.0, 0.0, 0.0, 0.0, 0.0, 1.6213411147884405E9, 2021-05-18 14:31:54.788
33.0, 30.76254653930664, 16.358322143554688, 252.72561645507812, -124.77802276611328, -0.03200000151991844, -0.08000000566244125, 1.055999994277954, 0.0, 0.0, 0.0, 0.0, 0.0, 1.6213411147884405E9, 2021-05-18 14:31:54.788
34.0, 92.2913818359375, 76.90730285644531, 308.6782531738281, -64.96954345703125, -0.03200000151991844, -0.08000000566244125, 1.055999994277954, 0.0, 0.0, 0.0, 0.0, 0.0, 1.6213411148498323E9, 2021-05-18 14:31:54.849
34.0, 37.53176498413086, 2.2476799488067627, 243.94432067871094, -127.78864288330078, -0.03200000151991844, -0.08000000566244125, 1.055999994277954, 0.0, 0.0, 0.0, 0.0, 0.0, 1.6213411148498323E9, 2021-05-18 14:31:54.849
35.0, 6.707510471343994, -22.633874893188477, 212.7386016845703, -149.95877075195312, -0.03200000151991844, -0.08000000566244125, 1.055999994277954, 0.0, 0.0, 0.0, 0.0, 0.0, 1.6213411148507135E9, 2021-05-18 14:31:54.850
35.0, 35.803932189941406, 10.759692192077637, 244.1126251220703, -114.6054916381836, -0.03200000151991844, -0.08000000566244125, 1.055999994277954, 0.0, 0.0, 0.0, 0.0, 0.0, 1.6213411148507135E9, 2021-05-18 14:31:54.850
36.0, 95.56005096435547, 57.504703521728516, 305.0393371582031, -56.483707427978516, -0.03200000151991844, -0.08000000566244125, 1.055999994277954, 0.0, 0.0, 0.0, 0.0, 0.0, 1.6213411148513408E9, 2021-05-18 14:31:54.851
36.0, 43.20893478393555, 4.831950664520264, 259.801513671875, -105.84664916992188, -0.03200000151991844, -0.08000000566244125, 1.055999994277954, 0.0, 0.0, 0.0, 0.0, 0.0, 1.6213411148513408E9, 2021-05-18 14:31:54.851
37.0, 11.58434009552002, -21.036937713623047, 226.79689025878906, -132.41864013671875, -0.03200000151991844, -0.08000000566244125, 1.055999994277954, 0.0, 0.0, 0.0, 0.0, 0.0, 1.6213411148520448E9, 2021-05-18 14:31:54.852
37.0, 38.949188232421875, 12.906394958496094, 259.3452453613281, -103.89442443847656, -0.03200000151991844, -0.08000000566244125, 1.055999994277954, 0.0, 0.0, 0.0, 0.0, 0.0, 1.6213411148520448E9, 2021-05-18 14:31:54.852
38.0, 94.73353576660156, 77.81610107421875, 314.14599609375, -50.88507843017578, -0.03200000151991844, -0.08000000566244125, 1.055999994277954, 0.0, 0.0, 0.0, 0.0, 0.0, 1.6213411148649473E9, 2021-05-18 14:31:54.864
38.0, 39.31943893432617, 16.691173553466797, 256.1625671386719, -104.52272033691406, -0.03200000151991844, -0.08000000566244125, 1.055999994277954, 0.0, 0.0, 0.0, 0.0, 0.0, 1.6213411148649473E9, 2021-05-18 14:31:54.864
39.0, 1.430511713027954, -21.927034378051758, 219.9005126953125, -148.1636199951172, -0.03200000151991844, -0.08000000566244125, 1.055999994277954, 0.0, 0.0, 0.0, 0.0, 0.0, 1.6213411148655117E9, 2021-05-18 14:31:54.865
39.0, 39.2446403503418, 17.816883087158203, 256.738525390625, -113.19181060791016, -0.03200000151991844, -0.08000000566244125, 1.055999994277954, 0.0, 0.0, 0.0, 0.0, 0.0, 1.6213411148655117E9, 2021-05-18 14:31:54.865
40.0, 90.54484558105469, 56.59590530395508, 306.7970886230469, -70.03336334228516, -0.03200000151991844, -0.08000000566244125, 1.055999994277954, 0.0, 0.0, 0.0, 0.0, 0.0, 1.621341114866362E9, 2021-05-18 14:31:54.866
40.0, 34.506187438964844, 5.0451250076293945, 247.82260131835938, -126.64423370361328, -0.03200000151991844, -0.08000000566244125, 1.055999994277954, 0.0, 0.0, 0.0, 0.0, 0.0, 1.621341114866362E9, 2021-05-18 14:31:54.866
41.0, -5.376106262207031, -19.09218978881836, 216.92355346679688, -155.96878051757812, -0.03200000151991844, -0.08000000566244125, 1.055999994277954, 0.0, 0.0, 0.0, 0.0, 0.0, 1.621341114867049E9, 2021-05-18 14:31:54.867
41.0, 26.345726013183594, 7.008572578430176, 242.06689453125, -123.08010864257812, -0.03200000151991844, -0.08000000566244125, 1.055999994277954, 0.0, 0.0, 0.0, 0.0, 0.0, 1.621341114867049E9, 2021-05-18 14:31:54.867
42.0, 80.24142456054688, 67.8717041015625, 301.91278076171875, -64.23278045654297, -0.03200000151991844, -0.08000000566244125, 1.055999994277954, 0.0, 0.0, 0.0, 0.0, 0.0, 1.6213411148771377E9, 2021-05-18 14:31:54.877
42.0, 27.90152359008789, 21.059375762939453, 246.33038330078125, -117.32066345214844, -0.03200000151991844, -0.08000000566244125, 1.055999994277954, 0.0, 0.0, 0.0, 0.0, 0.0, 1.6213411148771377E9, 2021-05-18 14:31:54.877
43.0, 0.5591150522232056, -17.087602615356445, 219.34326171875, -142.9053192138672, -0.03200000151991844, -0.08000000566244125, 1.055999994277954, 0.0, 0.0, 0.0, 0.0, 0.0, 1.6213411148920205E9, 2021-05-18 14:31:54.892
43.0, 44.398223876953125, 9.701300621032715, 252.1085205078125, -107.94847106933594, -0.03200000151991844, -0.08000000566244125, 1.055999994277954, 0.0, 0.0, 0.0, 0.0, 0.0, 1.6213411148920205E9, 2021-05-18 14:31:54.892
44.0, 78.35277557373047, 62.6021842956543, 301.7033386230469, -58.14422607421875, -0.03200000151991844, -0.08000000566244125, 1.055999994277954, 0.0, 0.0, 0.0, 0.0, 0.0, 1.6213411149082832E9, 2021-05-18 14:31:54.908
44.0, 32.265987396240234, 10.65871524810791, 245.21963500976562, -113.66304016113281, -0.03200000151991844, -0.08000000566244125, 1.055999994277954, 0.0, 0.0, 0.0, 0.0, 0.0, 1.6213411149082832E9, 2021-05-18 14:31:54.908
45.0, 9.579753875732422, -18.609743118286133, 220.6559600830078, -136.68960571289062, -0.03200000151991844, -0.08000000566244125, 1.055999994277954, 0.0, 0.0, 0.0, 0.0, 0.0, 1.6213411149226825E9, 2021-05-18 14:31:54.922
45.0, 46.256954193115234, 14.637968063354492, 258.3915710449219, -104.10011291503906, -0.03200000151991844, -0.08000000566244125, 1.055999994277954, 0.0, 0.0, 0.0, 0.0, 0.0, 1.6213411149226825E9, 2021-05-18 14:31:54.922
46.0, 86.47957611083984, 64.86856842041016, 309.02606201171875, -56.89509963989258, -0.03200000151991844, -0.08000000566244125, 1.055999994277954, 0.0, 0.0, 0.0, 0.0, 0.0, 1.6213411149234388E9, 2021-05-18 14:31:54.923
46.0, 28.174535751342773, 8.859823226928711, 251.7794189453125, -113.05717468261719, -0.03200000151991844, -0.08000000566244125, 1.055999994277954, 0.0, 0.0, 0.0, 0.0, 0.0, 1.6213411149234388E9, 2021-05-18 14:31:54.923
47.0, 16.708003997802734, -21.152873992919922, 223.7189483642578, -137.1084747314453, -0.03200000151991844, -0.08000000566244125, 1.055999994277954, 0.0, 0.0, 0.0, 0.0, 0.0, 1.6213411149378216E9, 2021-05-18 14:31:54.937
47.0, 28.372751235961914, 1.1481492519378662, 244.83816528320312, -128.701171875, -0.03200000151991844, -0.08000000566244125, 1.055999994277954, 0.0, 0.0, 0.0, 0.0, 0.0, 1.6213411149378216E9, 2021-05-18 14:31:54.937
48.0, 81.87950134277344, 62.29551315307617, 307.0140075683594, -70.8224868774414, -0.03200000151991844, -0.08000000566244125, 1.055999994277954, 0.0, 0.0, 0.0, 0.0, 0.0, 1.621341114938552E9, 2021-05-18 14:31:54.938
48.0, 39.60367202758789, 16.960445404052734, 255.552978515625, -120.2863998413086, -0.03200000151991844, -0.08000000566244125, 1.055999994277954, 0.0, 0.0, 0.0, 0.0, 0.0, 1.621341114938552E9, 2021-05-18 14:31:54.938
49.0, 6.053028106689453, -17.498991012573242, 219.37318420410156, -155.05999755859375, -0.03200000151991844, -0.08000000566244125, 1.055999994277954, 0.0, 0.0, 0.0, 0.0, 0.0, 1.6213411149521015E9, 2021-05-18 14:31:54.952
49.0, 33.39169692993164, 15.965632438659668, 247.94601440429688, -125.70177459716797, -0.03200000151991844, -0.08000000566244125, 1.055999994277954, 0.0, 0.0, 0.0, 0.0, 0.0, 1.6213411149521015E9, 2021-05-18 14:31:54.952
50.0, 89.67345428466797, 65.84841918945312, 303.1170349121094, -69.42750549316406, -0.03200000151991844, -0.08000000566244125, 1.055999994277954, 0.0, 0.0, 0.0, 0.0, 0.0, 1.6213411149677668E9, 2021-05-18 14:31:54.967
50.0, 41.84012985229492, 6.339130401611328, 252.59097290039062, -110.51030731201172, -0.03200000151991844, -0.08000000566244125, 1.055999994277954, 0.0, 0.0, 0.0, 0.0, 0.0, 1.6213411149677668E9, 2021-05-18 14:31:54.967
51.0, 10.660584449768066, -24.855375289916992, 224.1378173828125, -129.1611785888672, -0.03200000151991844, -0.08000000566244125, 1.055999994277954, 0.0, 0.0, 0.0, 0.0, 0.0, 1.621341114968439E9, 2021-05-18 14:31:54.968
51.0, 39.79066467285156, 5.804324626922607, 250.12637329101562, -103.5653076171875, -0.03200000151991844, -0.08000000566244125, 1.055999994277954, 0.0, 0.0, 0.0, 0.0, 0.0, 1.621341114968439E9, 2021-05-18 14:31:54.968
52.0, 85.84379577636719, 51.06459426879883, 294.84063720703125, -63.552120208740234, -0.03200000151991844, -0.08000000566244125, 1.055999994277954, 0.0, 0.0, 0.0, 0.0, 0.0, 1.6213411149821477E9, 2021-05-18 14:31:54.982
52.0, 33.95268249511719, 1.2416467666625977, 243.7722930908203, -107.51838684082031, -0.03200000151991844, -0.08000000566244125, 1.055999994277954, 0.0, 0.0, 0.0, 0.0, 0.0, 1.6213411149821477E9, 2021-05-18 14:31:54.982
53.0, 8.622339248657227, -41.37825393676758, 218.01185607910156, -141.7272491455078, -0.03200000151991844, -0.08000000566244125, 1.055999994277954, 0.0, 0.0, 0.0, 0.0, 0.0, 1.6213411150141594E9, 2021-05-18 14:31:55.014
53.0, 37.86835861206055, -8.938361167907715, 244.74465942382812, -113.23294830322266, -0.03200000151991844, -0.08000000566244125, 1.055999994277954, 0.0, 0.0, 0.0, 0.0, 0.0, 1.6213411150141594E9, 2021-05-18 14:31:55.014
54.0, 87.51927185058594, 59.651405334472656, 296.9686279296875, -69.19188690185547, -0.03200000151991844, -0.08000000566244125, 1.055999994277954, 0.0, 0.0, 0.0, 0.0, 0.0, 1.621341115014943E9, 2021-05-18 14:31:55.014
54.0, 38.851951599121094, -1.552058458328247, 251.8467254638672, -119.46736145019531, -0.03200000151991844, -0.08000000566244125, 1.055999994277954, 0.0, 0.0, 0.0, 0.0, 0.0, 1.621341115014943E9, 2021-05-18 14:31:55.014
55.0, 3.9960830211639404, -29.582609176635742, 221.0823211669922, -151.89230346679688, -0.03200000151991844, -0.08000000566244125, 1.055999994277954, 0.0, 0.0, 0.0, 0.0, 0.0, 1.6213411150156393E9, 2021-05-18 14:31:55.015
55.0, 32.322086334228516, 19.8775691986084, 260.2091369628906, -116.65869903564453, -0.03200000151991844, -0.08000000566244125, 1.055999994277954, 0.0, 0.0, 0.0, 0.0, 0.0, 1.6213411150156393E9, 2021-05-18 14:31:55.015
56.0, 90.85526275634766, 77.10551452636719, 315.1221008300781, -61.599891662597656, -0.03200000151991844, -0.08000000566244125, 1.055999994277954, 0.0, 0.0, 0.0, 0.0, 0.0, 1.6213411150163808E9, 2021-05-18 14:31:55.016
56.0, 38.997806549072266, 10.13886833190918, 257.5799865722656, -125.95983123779297, -0.03200000151991844, -0.08000000566244125, 1.055999994277954, 0.0, 0.0, 0.0, 0.0, 0.0, 1.6213411150163808E9, 2021-05-18 14:31:55.016
57.0, 15.589773178100586, -18.43396759033203, 228.82765197753906, -151.08447265625, -0.03200000151991844, -0.08000000566244125, 1.055999994277954, 0.0, 0.0, 0.0, 0.0, 0.0, 1.6213411150269828E9, 2021-05-18 14:31:55.026
57.0, 46.496307373046875, 14.450973510742188, 263.3656311035156, -123.8954086303711, -0.03200000151991844, -0.08000000566244125, 1.055999994277954, 0.0, 0.0, 0.0, 0.0, 0.0, 1.6213411150269828E9, 2021-05-18 14:31:55.026
58.0, 100.13768768310547, 69.16571044921875, 314.7555847167969, -75.4786605834961, -0.03200000151991844, -0.08000000566244125, 1.055999994277954, 0.0, 0.0, 0.0, 0.0, 0.0, 1.6213411150421474E9, 2021-05-18 14:31:55.042
58.0, 51.4217529296875, 14.716506004333496, 263.4516296386719, -115.3272933959961, -0.03200000151991844, -0.08000000566244125, 1.055999994277954, 0.0, 0.0, 0.0, 0.0, 0.0, 1.6213411150421474E9, 2021-05-18 14:31:55.042
59.0, 22.014921188354492, -23.2808780670166, 232.82186889648438, -140.72496032714844, -0.03200000151991844, -0.08000000566244125, 1.055999994277954, 0.0, 0.0, 0.0, 0.0, 0.0, 1.6213411150576887E9, 2021-05-18 14:31:55.057
59.0, 52.53998565673828, 7.105809688568115, 262.4530944824219, -100.132080078125, -0.03200000151991844, -0.08000000566244125, 1.055999994277954, 0.0, 0.0, 0.0, 0.0, 0.0, 1.6213411150576887E9, 2021-05-18 14:31:55.057
60.0, 103.11090850830078, 47.8071403503418, 306.57269287109375, -51.64053726196289, -0.03200000151991844, -0.08000000566244125, 1.055999994277954, 0.0, 0.0, 0.0, 0.0, 0.0, 1.6213411150584097E9, 2021-05-18 14:31:55.058
60.0, 49.357330322265625, -1.5408388376235962, 245.89654541015625, -101.88983154296875, -0.03200000151991844, -0.08000000566244125, 1.055999994277954, 0.0, 0.0, 0.0, 0.0, 0.0, 1.6213411150584097E9, 2021-05-18 14:31:55.058
61.0, 15.694490432739258, -33.41974639892578, 212.2337188720703, -136.91773986816406, -0.03200000151991844, -0.08000000566244125, 1.055999994277954, 0.0, 0.0, 0.0, 0.0, 0.0, 1.6213411150721123E9, 2021-05-18 14:31:55.072
61.0, 37.58412551879883, -5.938961029052734, 237.747314453125, -114.11182403564453, -0.03200000151991844, -0.08000000566244125, 1.055999994277954, 0.0, 0.0, 0.0, 0.0, 0.0, 1.6213411150721123E9, 2021-05-18 14:31:55.072
62.0, 90.8477783203125, 53.921878814697266, 299.1116027832031, -66.02045440673828, -0.03200000151991844, -0.08000000566244125, 1.055999994277954, 0.0, 0.0, 0.0, 0.0, 0.0, 1.6213411150884683E9, 2021-05-18 14:31:55.088
62.0, 38.21616744995117, 2.4907734394073486, 244.4529571533203, -119.7216796875, -0.03200000151991844, -0.08000000566244125, 1.055999994277954, 0.0, 0.0, 0.0, 0.0, 0.0, 1.6213411150884683E9, 2021-05-18 14:31:55.088
63.0, 9.912605285644531, -25.592134475708008, 215.22189331054688, -154.32696533203125, -0.03200000151991844, -0.08000000566244125, 1.055999994277954, 0.0, 0.0, 0.0, 0.0, 0.0, 1.6213411150891156E9, 2021-05-18 14:31:55.089
63.0, 33.705848693847656, 9.63398265838623, 242.9158477783203, -131.9661102294922, -0.03200000151991844, -0.08000000566244125, 1.055999994277954, 0.0, 0.0, 0.0, 0.0, 0.0, 1.6213411150891156E9, 2021-05-18 14:31:55.089
64.0, 97.4898452758789, 68.06617736816406, 304.24273681640625, -73.75082397460938, -0.03200000151991844, -0.08000000566244125, 1.055999994277954, 0.0, 0.0, 0.0, 0.0, 0.0, 1.6213411151019976E9, 2021-05-18 14:31:55.101
64.0, 41.9149284362793, 20.838722229003906, 256.88812255859375, -121.54674530029297, -0.03200000151991844, -0.08000000566244125, 1.055999994277954, 0.0, 0.0, 0.0, 0.0, 0.0, 1.6213411151019976E9, 2021-05-18 14:31:55.101
65.0, 20.59001922607422, -11.402955055236816, 226.32191467285156, -150.744140625, -0.03200000151991844, -0.08000000566244125, 1.055999994277954, 0.0, 0.0, 0.0, 0.0, 0.0, 1.6213411151181557E9, 2021-05-18 14:31:55.118
65.0, 39.951480865478516, 16.777191162109375, 261.7051086425781, -116.83447265625, -0.03200000151991844, -0.08000000566244125, 1.055999994277954, 0.0, 0.0, 0.0, 0.0, 0.0, 1.6213411151181557E9, 2021-05-18 14:31:55.118
66.0, 106.63763427734375, 67.13494110107422, 322.351318359375, -60.605079650878906, -0.03200000151991844, -0.08000000566244125, 1.055999994277954, 0.0, 0.0, 0.0, 0.0, 0.0, 1.6213411151328633E9, 2021-05-18 14:31:55.132
66.0, 57.360713958740234, 15.4495267868042, 270.1011962890625, -106.19819641113281, -0.03200000151991844, -0.08000000566244125, 1.055999994277954, 0.0, 0.0, 0.0, 0.0, 0.0, 1.6213411151328633E9, 2021-05-18 14:31:55.132
67.0, 32.13508987426758, -18.0225772857666, 241.25534057617188, -128.52540588378906, -0.03200000151991844, -0.08000000566244125, 1.055999994277954, 0.0, 0.0, 0.0, 0.0, 0.0, 1.621341115133437E9, 2021-05-18 14:31:55.133
67.0, 51.33573532104492, 10.606356620788574, 259.4873352050781, -98.34066772460938, -0.03200000151991844, -0.08000000566244125, 1.055999994277954, 0.0, 0.0, 0.0, 0.0, 0.0, 1.621341115133437E9, 2021-05-18 14:31:55.133
68.0, 110.01850891113281, 67.38177490234375, 315.8476257324219, -41.06410217285156, -0.03200000151991844, -0.08000000566244125, 1.055999994277954, 0.0, 0.0, 0.0, 0.0, 0.0, 1.6213411151478226E9, 2021-05-18 14:31:55.147
68.0, 38.964149475097656, 5.912781715393066, 251.8055877685547, -97.76846313476562, -0.03200000151991844, -0.08000000566244125, 1.055999994277954, 0.0, 0.0, 0.0, 0.0, 0.0, 1.6213411151478226E9, 2021-05-18 14:31:55.147
69.0, 11.786294937133789, -15.89083480834961, 222.21923828125, -129.82315063476562, -0.03200000151991844, -0.08000000566244125, 1.055999994277954, 0.0, 0.0, 0.0, 0.0, 0.0, 1.6213411151485207E9, 2021-05-18 14:31:55.148
69.0, 46.74687957763672, 13.747872352600098, 256.6936340332031, -102.05065155029297, -0.03200000151991844, -0.08000000566244125, 1.055999994277954, 0.0, 0.0, 0.0, 0.0, 0.0, 1.6213411151485207E9, 2021-05-18 14:31:55.148
70.0, 101.31949615478516, 71.00948333740234, 315.1894226074219, -56.69688415527344, -0.03200000151991844, -0.08000000566244125, 1.055999994277954, 0.0, 0.0, 0.0, 0.0, 0.0, 1.621341115178428E9, 2021-05-18 14:31:55.178
70.0, 42.08696365356445, 4.188687801361084, 253.82887268066406, -114.11557006835938, -0.03200000151991844, -0.08000000566244125, 1.055999994277954, 0.0, 0.0, 0.0, 0.0, 0.0, 1.621341115178428E9, 2021-05-18 14:31:55.178
71.0, 17.096952438354492, -19.54471778869629, 224.91944885253906, -144.86875915527344, -0.03200000151991844, -0.08000000566244125, 1.055999994277954, 0.0, 0.0, 0.0, 0.0, 0.0, 1.6213411151791673E9, 2021-05-18 14:31:55.179
71.0, 48.3587760925293, 8.41103458404541, 259.5397033691406, -109.03304290771484, -0.03200000151991844, -0.08000000566244125, 1.055999994277954, 0.0, 0.0, 0.0, 0.0, 0.0, 1.6213411151791673E9, 2021-05-18 14:31:55.179
72.0, 104.03466796875, 67.78569030761719, 317.268798828125, -58.57805252075195, -0.03200000151991844, -0.08000000566244125, 1.055999994277954, 0.0, 0.0, 0.0, 0.0, 0.0, 1.6213411151799808E9, 2021-05-18 14:31:55.179
72.0, 48.254058837890625, 12.483785629272461, 257.2135009765625, -113.44986724853516, -0.03200000151991844, -0.08000000566244125, 1.055999994277954, 0.0, 0.0, 0.0, 0.0, 0.0, 1.6213411151799808E9, 2021-05-18 14:31:55.179
73.0, 20.627418518066406, -18.340469360351562, 231.32589721679688, -143.60467529296875, -0.03200000151991844, -0.08000000566244125, 1.055999994277954, 0.0, 0.0, 0.0, 0.0, 0.0, 1.6213411151920395E9, 2021-05-18 14:31:55.192
73.0, 55.180355072021484, 14.959599494934082, 267.5430908203125, -111.89032745361328, -0.03200000151991844, -0.08000000566244125, 1.055999994277954, 0.0, 0.0, 0.0, 0.0, 0.0, 1.6213411151920395E9, 2021-05-18 14:31:55.192
74.0, 107.85684204101562, 71.5442886352539, 320.7244567871094, -55.387916564941406, -0.03200000151991844, -0.08000000566244125, 1.055999994277954, 0.0, 0.0, 0.0, 0.0, 0.0, 1.6213411152077956E9, 2021-05-18 14:31:55.207
74.0, 65.90638732910156, 22.042970657348633, 267.6066589355469, -105.6671371459961, -0.03200000151991844, -0.08000000566244125, 1.055999994277954, 0.0, 0.0, 0.0, 0.0, 0.0, 1.6213411152077956E9, 2021-05-18 14:31:55.207
75.0, 31.409549713134766, -13.25794506072998, 233.8017120361328, -139.26638793945312, -0.03200000151991844, -0.08000000566244125, 1.055999994277954, 0.0, 0.0, 0.0, 0.0, 0.0, 1.6213411152085369E9, 2021-05-18 14:31:55.208
75.0, 56.47435760498047, 15.05683708190918, 265.6544494628906, -105.90648651123047, -0.03200000151991844, -0.08000000566244125, 1.055999994277954, 0.0, 0.0, 0.0, 0.0, 0.0, 1.6213411152085369E9, 2021-05-18 14:31:55.208
76.0, 102.41155242919922, 59.9131965637207, 313.5176696777344, -52.96446228027344, -0.03200000151991844, -0.08000000566244125, 1.055999994277954, 0.0, 0.0, 0.0, 0.0, 0.0, 1.6213411152220185E9, 2021-05-18 14:31:55.222
76.0, 54.10326385498047, 15.18773365020752, 254.13180541992188, -107.96343231201172, -0.03200000151991844, -0.08000000566244125, 1.055999994277954, 0.0, 0.0, 0.0, 0.0, 0.0, 1.6213411152220185E9, 2021-05-18 14:31:55.222
77.0, 27.340538024902344, -18.471364974975586, 225.26351928710938, -131.48739624023438, -0.03200000151991844, -0.08000000566244125, 1.055999994277954, 0.0, 0.0, 0.0, 0.0, 0.0, 1.6213411152381113E9, 2021-05-18 14:31:55.238
77.0, 41.959808349609375, 4.996506214141846, 242.07810974121094, -108.93206787109375, -0.03200000151991844, -0.08000000566244125, 1.055999994277954, 0.0, 0.0, 0.0, 0.0, 0.0, 1.6213411152381113E9, 2021-05-18 14:31:55.238
78.0, 96.87275695800781, 67.4677963256836, 303.2853088378906, -48.27836990356445, -0.03200000151991844, -0.08000000566244125, 1.055999994277954, 0.0, 0.0, 0.0, 0.0, 0.0, 1.621341115270264E9, 2021-05-18 14:31:55.270
78.0, 51.380615234375, 4.233566761016846, 251.49143981933594, -98.81937408447266, -0.03200000151991844, -0.08000000566244125, 1.055999994277954, 0.0, 0.0, 0.0, 0.0, 0.0, 1.621341115270264E9, 2021-05-18 14:31:55.270
79.0, 6.281161785125732, -31.13092803955078, 211.99061584472656, -140.67633056640625, -0.03200000151991844, -0.08000000566244125, 1.055999994277954, 0.0, 0.0, 0.0, 0.0, 0.0, 1.6213411152709212E9, 2021-05-18 14:31:55.270
79.0, 40.142215728759766, 13.774051666259766, 247.5757598876953, -105.0313491821289, -0.03200000151991844, -0.08000000566244125, 1.055999994277954, 0.0, 0.0, 0.0, 0.0, 0.0, 1.6213411152709212E9, 2021-05-18 14:31:55.270
80.0, 107.87554168701172, 76.90730285644531, 320.05877685546875, -47.8071403503418, -0.03200000151991844, -0.08000000566244125, 1.055999994277954, 0.0, 0.0, 0.0, 0.0, 0.0, 1.6213411152716515E9, 2021-05-18 14:31:55.271
80.0, 44.289764404296875, 17.405494689941406, 257.3294372558594, -99.35417938232422, -0.03200000151991844, -0.08000000566244125, 1.055999994277954, 0.0, 0.0, 0.0, 0.0, 0.0, 1.6213411152716515E9, 2021-05-18 14:31:55.271
81.0, 10.69050407409668, -19.44373893737793, 224.91571044921875, -139.49078369140625, -0.03200000151991844, -0.08000000566244125, 1.055999994277954, 0.0, 0.0, 0.0, 0.0, 0.0, 1.6213411152833247E9, 2021-05-18 14:31:55.283
81.0, 43.3585319519043, 11.257099151611328, 261.49566650390625, -106.0523452758789, -0.03200000151991844, -0.08000000566244125, 1.055999994277954, 0.0, 0.0, 0.0, 0.0, 0.0, 1.6213411152833247E9, 2021-05-18 14:31:55.283
82.0, 99.7786636352539, 75.30288696289062, 319.1275329589844, -48.409263610839844, -0.03200000151991844, -0.08000000566244125, 1.055999994277954, 0.0, 0.0, 0.0, 0.0, 0.0, 1.6213411152984452E9, 2021-05-18 14:31:55.298
82.0, 46.94135284423828, 21.590442657470703, 254.89474487304688, -104.72467803955078, -0.03200000151991844, -0.08000000566244125, 1.055999994277954, 0.0, 0.0, 0.0, 0.0, 0.0, 1.6213411152984452E9, 2021-05-18 14:31:55.298
83.0, 20.302047729492188, -16.44808006286621, 221.02247619628906, -137.80409240722656, -0.03200000151991844, -0.08000000566244125, 1.055999994277954, 0.0, 0.0, 0.0, 0.0, 0.0, 1.62134111529931E9, 2021-05-18 14:31:55.299
83.0, 47.27420425415039, 10.101469993591309, 259.3340148925781, -103.44563293457031, -0.03200000151991844, -0.08000000566244125, 1.055999994277954, 0.0, 0.0, 0.0, 0.0, 0.0, 1.62134111529931E9, 2021-05-18 14:31:55.299
84.0, 101.95528411865234, 75.00369262695312, 313.8468017578125, -47.11526107788086, -0.03200000151991844, -0.08000000566244125, 1.055999994277954, 0.0, 0.0, 0.0, 0.0, 0.0, 1.6213411153000493E9, 2021-05-18 14:31:55.300
84.0, 63.18748092651367, 21.235151290893555, 266.29022216796875, -93.03749084472656, -0.03200000151991844, -0.08000000566244125, 1.055999994277954, 0.0, 0.0, 0.0, 0.0, 0.0, 1.6213411153000493E9, 2021-05-18 14:31:55.300
85.0, 31.574106216430664, -21.014497756958008, 232.73583984375, -134.62144470214844, -0.03200000151991844, -0.08000000566244125, 1.055999994277954, 0.0, 0.0, 0.0, 0.0, 0.0, 1.6213411153121998E9, 2021-05-18 14:31:55.312
85.0, 56.19760513305664, 21.280031204223633, 264.1397705078125, -105.70079040527344, -0.03200000151991844, -0.08000000566244125, 1.055999994277954, 0.0, 0.0, 0.0, 0.0, 0.0, 1.6213411153121998E9, 2021-05-18 14:31:55.312
86.0, 109.48744201660156, 63.892452239990234, 310.7052917480469, -58.51073455810547, -0.03200000151991844, -0.08000000566244125, 1.055999994277954, 0.0, 0.0, 0.0, 0.0, 0.0, 1.6213411153434074E9, 2021-05-18 14:31:55.343
86.0, 63.50910949707031, 18.145994186401367, 256.7983703613281, -108.04944610595703, -0.03200000151991844, -0.08000000566244125, 1.055999994277954, 0.0, 0.0, 0.0, 0.0, 0.0, 1.6213411153434074E9, 2021-05-18 14:31:55.343
87.0, 27.134843826293945, -27.536884307861328, 215.45750427246094, -139.66282653808594, -0.03200000151991844, -0.08000000566244125, 1.055999994277954, 0.0, 0.0, 0.0, 0.0, 0.0, 1.6213411153588488E9, 2021-05-18 14:31:55.358
87.0, 45.36685562133789, 11.81434440612793, 246.99981689453125, -105.7494125366211, -0.03200000151991844, -0.08000000566244125, 1.055999994277954, 0.0, 0.0, 0.0, 0.0, 0.0, 1.6213411153588488E9, 2021-05-18 14:31:55.358
88.0, 102.32926940917969, 70.23532104492188, 306.4305725097656, -52.78494644165039, -0.03200000151991844, -0.08000000566244125, 1.055999994277954, 0.0, 0.0, 0.0, 0.0, 0.0, 1.621341115359553E9, 2021-05-18 14:31:55.359
88.0, 51.747127532958984, 17.435413360595703, 254.25149536132812, -106.45625305175781, -0.03200000151991844, -0.08000000566244125, 1.055999994277954, 0.0, 0.0, 0.0, 0.0, 0.0, 1.621341115359553E9, 2021-05-18 14:31:55.359
89.0, 13.031681060791016, -5.755705833435059, 217.13671875, -134.9019317626953, -0.03200000151991844, -0.08000000566244125, 1.055999994277954, 0.0, 0.0, 0.0, 0.0, 0.0, 1.6213411153602931E9, 2021-05-18 14:31:55.360
89.0, 45.23221969604492, 21.474506378173828, 254.54693603515625, -102.88090515136719, -0.03200000151991844, -0.08000000566244125, 1.055999994277954, 0.0, 0.0, 0.0, 0.0, 0.0, 1.6213411153602931E9, 2021-05-18 14:31:55.360
90.0, 86.97698211669922, 73.35440063476562, 300.1512756347656, -55.04010772705078, -0.03200000151991844, -0.08000000566244125, 1.055999994277954, 0.0, 0.0, 0.0, 0.0, 0.0, 1.621341115404736E9, 2021-05-18 14:31:55.404
90.0, 45.535152435302734, 22.514198303222656, 245.86663818359375, -105.58111572265625, -0.03200000151991844, -0.08000000566244125, 1.055999994277954, 0.0, 0.0, 0.0, 0.0, 0.0, 1.621341115404736E9, 2021-05-18 14:31:55.404
91.0, 14.946510314941406, -13.762831687927246, 211.5455780029297, -135.93414306640625, -0.03200000151991844, -0.08000000566244125, 1.055999994277954, 0.0, 0.0, 0.0, 0.0, 0.0, 1.6213411154054656E9, 2021-05-18 14:31:55.405
91.0, 37.988033294677734, 16.578975677490234, 240.35775756835938, -111.62853240966797, -0.03200000151991844, -0.08000000566244125, 1.055999994277954, 0.0, 0.0, 0.0, 0.0, 0.0, 1.6213411154054656E9, 2021-05-18 14:31:55.405
92.0, 105.25387573242188, 76.52583312988281, 305.8434143066406, -53.050479888916016, -0.03200000151991844, -0.08000000566244125, 1.055999994277954, 0.0, 0.0, 0.0, 0.0, 0.0, 1.6213411154062502E9, 2021-05-18 14:31:55.406
92.0, 52.614784240722656, 19.7130126953125, 251.77194213867188, -109.2275161743164, -0.03200000151991844, -0.08000000566244125, 1.055999994277954, 0.0, 0.0, 0.0, 0.0, 0.0, 1.6213411154062502E9, 2021-05-18 14:31:55.406
93.0, 27.886564254760742, -3.8259177207946777, 223.78627014160156, -140.06298828125, -0.03200000151991844, -0.08000000566244125, 1.055999994277954, 0.0, 0.0, 0.0, 0.0, 0.0, 1.621341115407071E9, 2021-05-18 14:31:55.407
93.0, 53.497398376464844, 17.110042572021484, 254.2290496826172, -108.0606689453125, -0.03200000151991844, -0.08000000566244125, 1.055999994277954, 0.0, 0.0, 0.0, 0.0, 0.0, 1.621341115407071E9, 2021-05-18 14:31:55.407
94.0, 105.07061767578125, 78.50050354003906, 313.536376953125, -53.31601333618164, -0.03200000151991844, -0.08000000566244125, 1.055999994277954, 0.0, 0.0, 0.0, 0.0, 0.0, 1.621341115418623E9, 2021-05-18 14:31:55.418
94.0, 62.899505615234375, 27.331188201904297, 265.0859680175781, -101.18672943115234, -0.03200000151991844, -0.08000000566244125, 1.055999994277954, 0.0, 0.0, 0.0, 0.0, 0.0, 1.621341115418623E9, 2021-05-18 14:31:55.418
95.0, 20.040254592895508, -10.703593254089355, 221.68069458007812, -140.54544067382812, -0.03200000151991844, -0.08000000566244125, 1.055999994277954, 0.0, 0.0, 0.0, 0.0, 0.0, 1.6213411154193392E9, 2021-05-18 14:31:55.419
95.0, 50.38206100463867, 19.241785049438477, 252.71812438964844, -102.97814178466797, -0.03200000151991844, -0.08000000566244125, 1.055999994277954, 0.0, 0.0, 0.0, 0.0, 0.0, 1.6213411154193392E9, 2021-05-18 14:31:55.419
96.0, 109.19198608398438, 85.4380111694336, 314.5760803222656, -46.6028938293457, -0.03200000151991844, -0.08000000566244125, 1.055999994277954, 0.0, 0.0, 0.0, 0.0, 0.0, 1.6213411154200015E9, 2021-05-18 14:31:55.420
96.0, 55.801177978515625, 22.042970657348633, 248.20407104492188, -110.85063171386719, -0.03200000151991844, -0.08000000566244125, 1.055999994277954, 0.0, 0.0, 0.0, 0.0, 0.0, 1.6213411154200015E9, 2021-05-18 14:31:55.420
97.0, 25.440670013427734, -6.941254138946533, 219.5227813720703, -136.8915557861328, -0.03200000151991844, -0.08000000566244125, 1.055999994277954, 0.0, 0.0, 0.0, 0.0, 0.0, 1.6213411154320228E9, 2021-05-18 14:31:55.432
97.0, 41.4923210144043, 20.311397552490234, 250.7621612548828, -110.44672393798828, -0.03200000151991844, -0.08000000566244125, 1.055999994277954, 0.0, 0.0, 0.0, 0.0, 0.0, 1.6213411154320228E9, 2021-05-18 14:31:55.432
98.0, 100.04419708251953, 73.64611053466797, 311.2176513671875, -46.86468505859375, -0.03200000151991844, -0.08000000566244125, 1.055999994277954, 0.0, 0.0, 0.0, 0.0, 0.0, 1.6213411154485712E9, 2021-05-18 14:31:55.448
98.0, 51.025325775146484, 22.555335998535156, 253.1669158935547, -101.75894165039062, -0.03200000151991844, -0.08000000566244125, 1.055999994277954, 0.0, 0.0, 0.0, 0.0, 0.0, 1.6213411154485712E9, 2021-05-18 14:31:55.448
99.0, 21.749387741088867, -14.955860137939453, 222.2678680419922, -132.3101806640625, -0.03200000151991844, -0.08000000566244125, 1.055999994277954, 0.0, 0.0, 0.0, 0.0, 0.0, 1.6213411154493124E9, 2021-05-18 14:31:55.449
99.0, 49.26757049560547, 17.20353889465332, 255.1341094970703, -100.02362060546875, -0.03200000151991844, -0.08000000566244125, 1.055999994277954, 0.0, 0.0, 0.0, 0.0, 0.0, 1.6213411154493124E9, 2021-05-18 14:31:55.449
100.0, 98.18920135498047, 69.86507415771484, 306.27349853515625, -53.34593200683594, -0.03200000151991844, -0.08000000566244125, 1.040000081062317, 0.0, 0.0, 0.0, 0.0, 0.0, 1.621341115462744E9, 2021-05-18 14:31:55.462
100.0, 48.64674758911133, 23.51275062561035, 253.12203979492188, -99.51126098632812, -0.03200000151991844, -0.08000000566244125, 1.040000081062317, 0.0, 0.0, 0.0, 0.0, 0.0, 1.621341115462744E9, 2021-05-18 14:31:55.462
0.0, 19.284793853759766, -15.021307945251465, 223.93960571289062, -138.39874267578125, -0.03200000151991844, -0.08000000566244125, 1.040000081062317, 0.0, 0.0, 0.0, 0.0, 0.0, 1.6213411154634435E9, 2021-05-18 14:31:55.463
1.0, 39.9664421081543, 12.586633682250977, 248.24520874023438, -116.67366027832031, -0.03200000151991844, -0.08000000566244125, 1.040000081062317, 0.0, 0.0, 0.0, 0.0, 0.0, 1.6213411154770656E9, 2021-05-18 14:31:55.477
1.0, 112.13903045654297, 75.04669952392578, 320.9002380371094, -56.56598663330078, -0.03200000151991844, -0.08000000566244125, 1.040000081062317, 0.0, 0.0, 0.0, 0.0, 0.0, 1.6213411154770656E9, 2021-05-18 14:31:55.477
2.0, 60.62938690185547, 17.687856674194336, 259.6668701171875, -113.42742919921875, -0.03200000151991844, -0.08000000566244125, 1.040000081062317, 0.0, 0.0, 0.0, 0.0, 0.0, 1.6213411154928012E9, 2021-05-18 14:31:55.492
2.0, 18.806087493896484, -13.394452095031738, 218.9991912841797, -144.8201446533203, -0.03200000151991844, -0.08000000566244125, 1.040000081062317, 0.0, 0.0, 0.0, 0.0, 0.0, 1.6213411154928012E9, 2021-05-18 14:31:55.492
3.0, 51.22727966308594, 15.39529800415039, 252.75552368164062, -118.48003387451172, -0.03200000151991844, -0.08000000566244125, 1.040000081062317, 0.0, 0.0, 0.0, 0.0, 0.0, 1.6213411154934323E9, 2021-05-18 14:31:55.493
3.0, 111.42096710205078, 86.02704620361328, 317.33612060546875, -59.67010498046875, -0.03200000151991844, -0.08000000566244125, 1.040000081062317, 0.0, 0.0, 0.0, 0.0, 0.0, 1.6213411154934323E9, 2021-05-18 14:31:55.493
4.0, 55.29254913330078, 14.677237510681152, 255.56419372558594, -113.60320281982422, -0.03200000151991844, -0.08000000566244125, 1.040000081062317, 0.0, 0.0, 0.0, 0.0, 0.0, 1.621341115523383E9, 2021-05-18 14:31:55.523
4.0, 25.145217895507812, -15.971242904663086, 224.95684814453125, -140.4407196044922, -0.03200000151991844, -0.08000000566244125, 1.040000081062317, 0.0, 0.0, 0.0, 0.0, 0.0, 1.621341115523383E9, 2021-05-18 14:31:55.523
5.0, 50.972965240478516, 13.162577629089355, 249.74864196777344, -108.55807495117188, -0.03200000151991844, -0.08000000566244125, 1.040000081062317, 0.0, 0.0, 0.0, 0.0, 0.0, 1.6213411155241656E9, 2021-05-18 14:31:55.524
5.0, 104.04962921142578, 73.36748504638672, 305.4245300292969, -54.37066650390625, -0.03200000151991844, -0.08000000566244125, 1.040000081062317, 0.0, 0.0, 0.0, 0.0, 0.0, 1.6213411155241656E9, 2021-05-18 14:31:55.524
6.0, 47.356483459472656, 17.80379295349121, 253.7279052734375, -98.97270965576172, -0.03200000151991844, -0.08000000566244125, 1.040000081062317, 0.0, 0.0, 0.0, 0.0, 0.0, 1.621341115524975E9, 2021-05-18 14:31:55.524
6.0, 17.280208587646484, -4.276575565338135, 221.31045532226562, -129.95404052734375, -0.03200000151991844, -0.08000000566244125, 1.040000081062317, 0.0, 0.0, 0.0, 0.0, 0.0, 1.621341115524975E9, 2021-05-18 14:31:55.524
7.0, 45.426692962646484, 11.539461135864258, 253.39878845214844, -103.7635269165039, -0.03200000151991844, -0.08000000566244125, 1.040000081062317, 0.0, 0.0, 0.0, 0.0, 0.0, 1.6213411155371528E9, 2021-05-18 14:31:55.537
7.0, 106.81341552734375, 81.86827850341797, 318.95550537109375, -45.985809326171875, -0.03200000151991844, -0.08000000566244125, 1.040000081062317, 0.0, 0.0, 0.0, 0.0, 0.0, 1.6213411155371528E9, 2021-05-18 14:31:55.537
8.0, 58.35926818847656, 28.432588577270508, 262.1800842285156, -98.00782012939453, -0.03200000151991844, -0.08000000566244125, 1.040000081062317, 0.0, 0.0, 0.0, 0.0, 0.0, 1.6213411155532749E9, 2021-05-18 14:31:55.553
8.0, 21.453935623168945, -0.6750519275665283, 225.25604248046875, -131.25926208496094, -0.03200000151991844, -0.08000000566244125, 1.040000081062317, 0.0, 0.0, 0.0, 0.0, 0.0, 1.6213411155532749E9, 2021-05-18 14:31:55.553
9.0, 47.109649658203125, 28.30543327331543, 251.70835876464844, -112.54480743408203, -0.03200000151991844, -0.08000000566244125, 1.040000081062317, 0.0, 0.0, 0.0, 0.0, 0.0, 1.6213411155831733E9, 2021-05-18 14:31:55.583
9.0, 97.20186614990234, 79.53832244873047, 307.3917236328125, -65.1415786743164, -0.03200000151991844, -0.08000000566244125, 1.040000081062317, 0.0, 0.0, 0.0, 0.0, 0.0, 1.6213411155831733E9, 2021-05-18 14:31:55.583
10.0, 48.007225036621094, 14.924070358276367, 248.42098999023438, -119.41126251220703, -0.03200000151991844, -0.08000000566244125, 1.040000081062317, 0.0, 0.0, 0.0, 0.0, 0.0, 1.6213411155838668E9, 2021-05-18 14:31:55.583
10.0, 15.372859001159668, -15.077406883239746, 219.5078125, -153.0292205810547, -0.03200000151991844, -0.08000000566244125, 1.040000081062317, 0.0, 0.0, 0.0, 0.0, 0.0, 1.6213411155838668E9, 2021-05-18 14:31:55.583
11.0, 50.38580322265625, 24.573013305664062, 256.9928283691406, -121.74122619628906, -0.03200000151991844, -0.08000000566244125, 1.040000081062317, 0.0, 0.0, 0.0, 0.0, 0.0, 1.621341115599506E9, 2021-05-18 14:31:55.599
11.0, 111.54438781738281, 75.1663818359375, 316.7676696777344, -64.27017974853516, -0.03200000151991844, -0.08000000566244125, 1.040000081062317, 0.0, 0.0, 0.0, 0.0, 0.0, 1.621341115599506E9, 2021-05-18 14:31:55.599
12.0, 66.8787612915039, 20.791973114013672, 260.70281982421875, -114.35865783691406, -0.03200000151991844, -0.08000000566244125, 1.040000081062317, 0.0, 0.0, 0.0, 0.0, 0.0, 1.6213411156002593E9, 2021-05-18 14:31:55.600
12.0, 21.98126220703125, -23.234128952026367, 222.2716064453125, -149.46884155273438, -0.03200000151991844, -0.08000000566244125, 1.040000081062317, 0.0, 0.0, 0.0, 0.0, 0.0, 1.6213411156002593E9, 2021-05-18 14:31:55.600
13.0, 58.58740234375, 28.2755126953125, 259.3975830078125, -110.04655456542969, -0.03200000151991844, -0.08000000566244125, 1.040000081062317, 0.0, 0.0, 0.0, 0.0, 0.0, 1.621341115600973E9, 2021-05-18 14:31:55.600
13.0, 100.51168060302734, 81.35591125488281, 311.58416748046875, -59.38212966918945, -0.03200000151991844, -0.08000000566244125, 1.040000081062317, 0.0, 0.0, 0.0, 0.0, 0.0, 1.621341115600973E9, 2021-05-18 14:31:55.600
14.0, 53.86391067504883, 29.70415496826172, 255.56793212890625, -103.91311645507812, -0.03200000151991844, -0.08000000566244125, 1.040000081062317, 0.0, 0.0, 0.0, 0.0, 0.0, 1.6213411156125214E9, 2021-05-18 14:31:55.612
14.0, 17.8411922454834, -3.872666358947754, 228.2105712890625, -139.42347717285156, -0.03200000151991844, -0.08000000566244125, 1.040000081062317, 0.0, 0.0, 0.0, 0.0, 0.0, 1.6213411156125214E9, 2021-05-18 14:31:55.612
15.0, 48.42609405517578, 28.574705123901367, 261.17779541015625, -95.93217468261719, -0.03200000151991844, -0.08000000566244125, 1.040000081062317, 0.0, 0.0, 0.0, 0.0, 0.0, 1.6213411156290743E9, 2021-05-18 14:31:55.629
15.0, 98.24903869628906, 72.30909729003906, 309.78900146484375, -43.45389938354492, -0.03200000151991844, -0.08000000566244125, 1.040000081062317, 0.0, 0.0, 0.0, 0.0, 0.0, 1.6213411156290743E9, 2021-05-18 14:31:55.629
16.0, 50.19880676269531, 24.51691436767578, 254.89100646972656, -91.23860168457031, -0.03200000151991844, -0.08000000566244125, 1.040000081062317, 0.0, 0.0, 0.0, 0.0, 0.0, 1.621341115629809E9, 2021-05-18 14:31:55.629
16.0, 19.101539611816406, -12.040607452392578, 222.79144287109375, -129.19857788085938, -0.03200000151991844, -0.08000000566244125, 1.040000081062317, 0.0, 0.0, 0.0, 0.0, 0.0, 1.621341115629809E9, 2021-05-18 14:31:55.629
17.0, 46.155975341796875, 14.280808448791504, 252.830322265625, -98.6249008178711, -0.03200000151991844, -0.08000000566244125, 1.040000081062317, 0.0, 0.0, 0.0, 0.0, 0.0, 1.621341115630509E9, 2021-05-18 14:31:55.630
17.0, 95.37680053710938, 64.17855072021484, 303.41619873046875, -48.06893539428711, -0.03200000151991844, -0.08000000566244125, 1.040000081062317, 0.0, 0.0, 0.0, 0.0, 0.0, 1.621341115630509E9, 2021-05-18 14:31:55.630
18.0, 55.32994842529297, 13.671204566955566, 260.8748474121094, -104.71720123291016, -0.03200000151991844, -0.08000000566244125, 1.040000081062317, 0.0, 0.0, 0.0, 0.0, 0.0, 1.6213411156420312E9, 2021-05-18 14:31:55.642
18.0, 22.07476043701172, -18.712589263916016, 220.6522216796875, -145.7887725830078, -0.03200000151991844, -0.08000000566244125, 1.040000081062317, 0.0, 0.0, 0.0, 0.0, 0.0, 1.6213411156420312E9, 2021-05-18 14:31:55.642
19.0, 54.75774383544922, 17.470943450927734, 253.8887176513672, -119.3626480102539, -0.03200000151991844, -0.08000000566244125, 1.040000081062317, 0.0, 0.0, 0.0, 0.0, 0.0, 1.6213411156570256E9, 2021-05-18 14:31:55.657
19.0, 104.48345184326172, 79.1456298828125, 309.47857666015625, -67.0863265991211, -0.03200000151991844, -0.08000000566244125, 1.040000081062317, 0.0, 0.0, 0.0, 0.0, 0.0, 1.6213411156570256E9, 2021-05-18 14:31:55.657
20.0, 64.43660736083984, 27.407855987548828, 262.04168701171875, -116.46796417236328, -0.03200000151991844, -0.08000000566244125, 1.040000081062317, 0.0, 0.0, 0.0, 0.0, 0.0, 1.6213411156728053E9, 2021-05-18 14:31:55.672
20.0, 16.56214714050293, -11.187911033630371, 221.89761352539062, -150.05599975585938, -0.03200000151991844, -0.08000000566244125, 1.040000081062317, 0.0, 0.0, 0.0, 0.0, 0.0, 1.6213411156728053E9, 2021-05-18 14:31:55.672
21.0, 41.006134033203125, 29.01227378845215, 248.57058715820312, -115.39835357666016, -0.03200000151991844, -0.08000000566244125, 1.040000081062317, 0.0, 0.0, 0.0, 0.0, 0.0, 1.6213411156734672E9, 2021-05-18 14:31:55.673
21.0, 95.7657470703125, 79.98711395263672, 311.73748779296875, -55.27946090698242, -0.03200000151991844, -0.08000000566244125, 1.040000081062317, 0.0, 0.0, 0.0, 0.0, 0.0, 1.6213411156734672E9, 2021-05-18 14:31:55.673
22.0, 52.77185821533203, 28.63080406188965, 259.5097961425781, -102.24138641357422, -0.03200000151991844, -0.08000000566244125, 1.040000081062317, 0.0, 0.0, 0.0, 0.0, 0.0, 1.6213411156870503E9, 2021-05-18 14:31:55.687
22.0, 19.29601287841797, -14.19478988647461, 217.61917114257812, -135.34324645996094, -0.03200000151991844, -0.08000000566244125, 1.040000081062317, 0.0, 0.0, 0.0, 0.0, 0.0, 1.6213411156870503E9, 2021-05-18 14:31:55.687
23.0, 40.3179931640625, 11.374905586242676, 242.6129150390625, -118.78670501708984, -0.03200000151991844, -0.08000000566244125, 1.040000081062317, 0.0, 0.0, 0.0, 0.0, 0.0, 1.6213411157026887E9, 2021-05-18 14:31:55.702
23.0, 105.42217254638672, 76.38932800292969, 311.00445556640625, -48.027793884277344, -0.03200000151991844, -0.08000000566244125, 1.040000081062317, 0.0, 0.0, 0.0, 0.0, 0.0, 1.6213411157026887E9, 2021-05-18 14:31:55.702
24.0, 65.04621124267578, 29.778953552246094, 267.3561096191406, -90.66265106201172, -0.03200000151991844, -0.08000000566244125, 1.040000081062317, 0.0, 0.0, 0.0, 0.0, 0.0, 1.6213411157034714E9, 2021-05-18 14:31:55.703
24.0, 22.74420166015625, -7.492889404296875, 232.85177612304688, -125.94486999511719, -0.03200000151991844, -0.08000000566244125, 1.040000081062317, 0.0, 0.0, 0.0, 0.0, 0.0, 1.6213411157034714E9, 2021-05-18 14:31:55.703
25.0, 55.14669418334961, 26.278406143188477, 259.92864990234375, -102.16284942626953, -0.03200000151991844, -0.08000000566244125, 1.040000081062317, 0.0, 0.0, 0.0, 0.0, 0.0, 1.6213411157170217E9, 2021-05-18 14:31:55.717
25.0, 107.55390930175781, 77.84414672851562, 314.9874572753906, -45.82499313354492, -0.03200000151991844, -0.08000000566244125, 1.040000081062317, 0.0, 0.0, 0.0, 0.0, 0.0, 1.6213411157170217E9, 2021-05-18 14:31:55.717
26.0, 57.184940338134766, 29.80887222290039, 265.1271057128906, -97.0167465209961, -0.03200000151991844, -0.08000000566244125, 1.040000081062317, 0.0, 0.0, 0.0, 0.0, 0.0, 1.6213411157327974E9, 2021-05-18 14:31:55.732
26.0, 15.193343162536621, -16.876298904418945, 218.9243927001953, -137.08229064941406, -0.03200000151991844, -0.08000000566244125, 1.040000081062317, 0.0, 0.0, 0.0, 0.0, 0.0, 1.6213411157327974E9, 2021-05-18 14:31:55.732
27.0, 45.12750244140625, 25.10407829284668, 250.48167419433594, -104.85557556152344, -0.03200000151991844, -0.08000000566244125, 1.040000081062317, 0.0, 0.0, 0.0, 0.0, 0.0, 1.621341115733504E9, 2021-05-18 14:31:55.733
27.0, 100.3209457397461, 71.48257446289062, 304.1417541503906, -57.83381271362305, -0.03200000151991844, -0.08000000566244125, 1.040000081062317, 0.0, 0.0, 0.0, 0.0, 0.0, 1.621341115733504E9, 2021-05-18 14:31:55.733
28.0, 45.980201721191406, 18.03192710876465, 246.67445373535156, -109.85955810546875, -0.03200000151991844, -0.08000000566244125, 1.040000081062317, 0.0, 0.0, 0.0, 0.0, 0.0, 1.6213411157469869E9, 2021-05-18 14:31:55.746
28.0, 9.018768310546875, -10.948556900024414, 205.2288818359375, -148.0065460205078, -0.03200000151991844, -0.08000000566244125, 1.040000081062317, 0.0, 0.0, 0.0, 0.0, 0.0, 1.6213411157469869E9, 2021-05-18 14:31:55.746
29.0, 33.975120544433594, 25.49302864074707, 240.1221466064453, -118.61092376708984, -0.03200000151991844, -0.08000000566244125, 1.040000081062317, 0.0, 0.0, 0.0, 0.0, 0.0, 1.621341115762733E9, 2021-05-18 14:31:55.762
29.0, 98.49961853027344, 78.15081787109375, 304.99444580078125, -63.39130401611328, -0.03200000151991844, -0.08000000566244125, 1.040000081062317, 0.0, 0.0, 0.0, 0.0, 0.0, 1.621341115762733E9, 2021-05-18 14:31:55.762
30.0, 61.564361572265625, 40.07489776611328, 262.29974365234375, -102.29000091552734, -0.03200000151991844, -0.08000000566244125, 1.055999994277954, 0.0, 0.0, 0.0, 0.0, 0.0, 1.6213411157634778E9, 2021-05-18 14:31:55.763
30.0, 13.495429039001465, -16.636945724487305, 215.76417541503906, -149.42022705078125, -0.03200000151991844, -0.08000000566244125, 1.055999994277954, 0.0, 0.0, 0.0, 0.0, 0.0, 1.6213411157634778E9, 2021-05-18 14:31:55.763
31.0, 51.60874938964844, 27.86786460876465, 254.8760528564453, -114.65411376953125, -0.03200000151991844, -0.08000000566244125, 1.055999994277954, 0.0, 0.0, 0.0, 0.0, 0.0, 1.6213411158098316E9, 2021-05-18 14:31:55.809
31.0, 110.4186782836914, 81.86454010009766, 314.39654541015625, -58.58179473876953, -0.03200000151991844, -0.08000000566244125, 1.055999994277954, 0.0, 0.0, 0.0, 0.0, 0.0, 1.6213411158098316E9, 2021-05-18 14:31:55.809
32.0, 51.42923355102539, 25.73986053466797, 255.11166381835938, -109.85955810546875, -0.03200000151991844, -0.08000000566244125, 1.055999994277954, 0.0, 0.0, 0.0, 0.0, 0.0, 1.621341115810528E9, 2021-05-18 14:31:55.810
32.0, 21.13978385925293, -1.3706732988357544, 221.5498046875, -140.4444580078125, -0.03200000151991844, -0.08000000566244125, 1.055999994277954, 0.0, 0.0, 0.0, 0.0, 0.0, 1.621341115810528E9, 2021-05-18 14:31:55.810
33.0, 52.352989196777344, 21.192142486572266, 257.8642272949219, -110.29338836669922, -0.03200000151991844, -0.08000000566244125, 1.055999994277954, 0.0, 0.0, 0.0, 0.0, 0.0, 1.6213411158112116E9, 2021-05-18 14:31:55.811
33.0, 108.7544174194336, 87.10414123535156, 321.49114990234375, -46.79362869262695, -0.03200000151991844, -0.08000000566244125, 1.055999994277954, 0.0, 0.0, 0.0, 0.0, 0.0, 1.6213411158112116E9, 2021-05-18 14:31:55.811
34.0, 55.52816390991211, 22.30663299560547, 256.8619384765625, -108.05693054199219, -0.03200000151991844, -0.08000000566244125, 1.055999994277954, 0.0, 0.0, 0.0, 0.0, 0.0, 1.621341115812038E9, 2021-05-18 14:31:55.812
34.0, 21.300600051879883, -16.042301177978516, 218.1614532470703, -141.342041015625, -0.03200000151991844, -0.08000000566244125, 1.055999994277954, 0.0, 0.0, 0.0, 0.0, 0.0, 1.621341115812038E9, 2021-05-18 14:31:55.812
35.0, 42.40859603881836, 18.693889617919922, 248.5070037841797, -113.39750671386719, -0.03200000151991844, -0.08000000566244125, 1.055999994277954, 0.0, 0.0, 0.0, 0.0, 0.0, 1.6213411158225396E9, 2021-05-18 14:31:55.822
35.0, 100.07411193847656, 80.45833587646484, 307.29449462890625, -57.41868591308594, -0.03200000151991844, -0.08000000566244125, 1.055999994277954, 0.0, 0.0, 0.0, 0.0, 0.0, 1.6213411158225396E9, 2021-05-18 14:31:55.822
36.0, 52.44648742675781, 18.577953338623047, 259.2106018066406, -108.41221618652344, -0.03200000151991844, -0.08000000566244125, 1.055999994277954, 0.0, 0.0, 0.0, 0.0, 0.0, 1.621341115837839E9, 2021-05-18 14:31:55.837
36.0, 20.825632095336914, -15.103586196899414, 218.95057678222656, -148.21597290039062, -0.03200000151991844, -0.08000000566244125, 1.055999994277954, 0.0, 0.0, 0.0, 0.0, 0.0, 1.621341115837839E9, 2021-05-18 14:31:55.837
37.0, 49.01325988769531, 20.56757926940918, 251.37176513671875, -111.72203063964844, -0.03200000151991844, -0.08000000566244125, 1.055999994277954, 0.0, 0.0, 0.0, 0.0, 0.0, 1.6213411158385596E9, 2021-05-18 14:31:55.838
37.0, 96.0836410522461, 73.4048843383789, 304.3399658203125, -61.0763053894043, -0.03200000151991844, -0.08000000566244125, 1.055999994277954, 0.0, 0.0, 0.0, 0.0, 0.0, 1.6213411158385596E9, 2021-05-18 14:31:55.838
38.0, 54.368797302246094, 22.089719772338867, 263.3693542480469, -99.96004486083984, -0.03200000151991844, -0.08000000566244125, 1.055999994277954, 0.0, 0.0, 0.0, 0.0, 0.0, 1.6213411158528838E9, 2021-05-18 14:31:55.852
38.0, 11.4646635055542, -12.710049629211426, 223.76382446289062, -142.1087188720703, -0.03200000151991844, -0.08000000566244125, 1.055999994277954, 0.0, 0.0, 0.0, 0.0, 0.0, 1.6213411158528838E9, 2021-05-18 14:31:55.852
39.0, 47.04607009887695, 16.715482711791992, 255.44825744628906, -109.69874572753906, -0.03200000151991844, -0.08000000566244125, 1.055999994277954, 0.0, 0.0, 0.0, 0.0, 0.0, 1.621341115853583E9, 2021-05-18 14:31:55.853
39.0, 96.80169677734375, 69.61637115478516, 313.4541015625, -54.13131332397461, -0.03200000151991844, -0.08000000566244125, 1.055999994277954, 0.0, 0.0, 0.0, 0.0, 0.0, 1.621341115853583E9, 2021-05-18 14:31:55.853
40.0, 60.625648498535156, 21.77556800842285, 269.5663757324219, -97.43187713623047, -0.03200000151991844, -0.08000000566244125, 1.040000081062317, 0.0, 0.0, 0.0, 0.0, 0.0, 1.6213411158670025E9, 2021-05-18 14:31:55.867
40.0, 29.337644577026367, -11.352466583251953, 235.01344299316406, -130.24949645996094, -0.03200000151991844, -0.08000000566244125, 1.040000081062317, 0.0, 0.0, 0.0, 0.0, 0.0, 1.6213411158670025E9, 2021-05-18 14:31:55.867
41.0, 39.19227981567383, 16.337753295898438, 255.78485107421875, -111.8566665649414, -0.03200000151991844, -0.08000000566244125, 1.040000081062317, 0.0, 0.0, 0.0, 0.0, 0.0, 1.6213411158828895E9, 2021-05-18 14:31:55.882
41.0, 103.0361099243164, 71.92762756347656, 316.3861999511719, -48.68975830078125, -0.03200000151991844, -0.08000000566244125, 1.040000081062317, 0.0, 0.0, 0.0, 0.0, 0.0, 1.6213411158828895E9, 2021-05-18 14:31:55.882
42.0, 60.50971221923828, 21.487594604492188, 270.8192443847656, -92.07259368896484, -0.03200000151991844, -0.08000000566244125, 1.040000081062317, 0.0, 0.0, 0.0, 0.0, 0.0, 1.6213411158835413E9, 2021-05-18 14:31:55.883
42.0, 22.216875076293945, -12.624032020568848, 231.45306396484375, -128.31222534179688, -0.03200000151991844, -0.08000000566244125, 1.040000081062317, 0.0, 0.0, 0.0, 0.0, 0.0, 1.6213411158835413E9, 2021-05-18 14:31:55.883
43.0, 49.091796875, 19.314712524414062, 256.99658203125, -100.12460327148438, -0.03200000151991844, -0.08000000566244125, 1.040000081062317, 0.0, 0.0, 0.0, 0.0, 0.0, 1.6213411158971407E9, 2021-05-18 14:31:55.897
43.0, 109.66695404052734, 84.93499755859375, 326.3941650390625, -43.48007583618164, -0.03200000151991844, -0.08000000566244125, 1.040000081062317, 0.0, 0.0, 0.0, 0.0, 0.0, 1.6213411158971407E9, 2021-05-18 14:31:55.897
44.0, 42.35623550415039, 18.895845413208008, 261.8696594238281, -102.05065155029297, -0.03200000151991844, -0.08000000566244125, 1.040000081062317, 0.0, 0.0, 0.0, 0.0, 0.0, 1.6213411159128308E9, 2021-05-18 14:31:55.912
44.0, 0.6488726139068604, -18.28624153137207, 220.12490844726562, -145.7513885498047, -0.03200000151991844, -0.08000000566244125, 1.040000081062317, 0.0, 0.0, 0.0, 0.0, 0.0, 1.6213411159128308E9, 2021-05-18 14:31:55.912
45.0, 30.50823402404785, 19.262353897094727, 254.9097137451172, -112.58594512939453, -0.03200000151991844, -0.08000000566244125, 1.040000081062317, 0.0, 0.0, 0.0, 0.0, 0.0, 1.6213411159135091E9, 2021-05-18 14:31:55.913
45.0, 88.31212615966797, 68.07926940917969, 305.29364013671875, -63.7278938293457, -0.03200000151991844, -0.08000000566244125, 1.040000081062317, 0.0, 0.0, 0.0, 0.0, 0.0, 1.6213411159135091E9, 2021-05-18 14:31:55.913
46.0, 46.88151550292969, 16.042301177978516, 253.36512756347656, -115.02436065673828, -0.03200000151991844, -0.08000000566244125, 1.040000081062317, 0.0, 0.0, 0.0, 0.0, 0.0, 1.621341115942538E9, 2021-05-18 14:31:55.942
46.0, 17.46720314025879, -19.165117263793945, 219.3843994140625, -147.20994567871094, -0.03200000151991844, -0.08000000566244125, 1.040000081062317, 0.0, 0.0, 0.0, 0.0, 0.0, 1.621341115942538E9, 2021-05-18 14:31:55.942
47.0, 46.877777099609375, 14.531381607055664, 255.1640167236328, -116.46796417236328, -0.03200000151991844, -0.08000000566244125, 1.040000081062317, 0.0, 0.0, 0.0, 0.0, 0.0, 1.621341115959077E9, 2021-05-18 14:31:55.959
47.0, 105.55680847167969, 71.26940155029297, 314.134765625, -57.99462890625, -0.03200000151991844, -0.08000000566244125, 1.040000081062317, 0.0, 0.0, 0.0, 0.0, 0.0, 1.621341115959077E9, 2021-05-18 14:31:55.959
48.0, 70.19231414794922, 16.741662979125977, 270.9576110839844, -100.62200927734375, -0.03200000151991844, -0.08000000566244125, 1.040000081062317, 0.0, 0.0, 0.0, 0.0, 0.0, 1.621341115959841E9, 2021-05-18 14:31:55.959
48.0, 22.7292423248291, -24.307479858398438, 228.79025268554688, -145.99447631835938, -0.03200000151991844, -0.08000000566244125, 1.040000081062317, 0.0, 0.0, 0.0, 0.0, 0.0, 1.621341115959841E9, 2021-05-18 14:31:55.959
49.0, 56.21256637573242, 21.738168716430664, 265.9798278808594, -108.27758026123047, -0.03200000151991844, -0.08000000566244125, 1.040000081062317, 0.0, 0.0, 0.0, 0.0, 0.0, 1.6213411159605565E9, 2021-05-18 14:31:55.960
49.0, 111.43966674804688, 63.96537780761719, 319.6810302734375, -59.4793701171875, -0.03200000151991844, -0.08000000566244125, 1.040000081062317, 0.0, 0.0, 0.0, 0.0, 0.0, 1.6213411159605565E9, 2021-05-18 14:31:55.960
50.0, 64.62360382080078, 18.11046600341797, 263.9527893066406, -105.99250793457031, -0.03200000151991844, -0.08000000566244125, 1.055999994277954, 0.0, 0.0, 0.0, 0.0, 0.0, 1.6213411159612808E9, 2021-05-18 14:31:55.961
50.0, 19.284793853759766, -18.34981918334961, 228.70797729492188, -136.61480712890625, -0.03200000151991844, -0.08000000566244125, 1.055999994277954, 0.0, 0.0, 0.0, 0.0, 0.0, 1.6213411159612808E9, 2021-05-18 14:31:55.961
51.0, 50.9692268371582, 11.075714111328125, 256.4169006347656, -102.56675720214844, -0.03200000151991844, -0.08000000566244125, 1.055999994277954, 0.0, 0.0, 0.0, 0.0, 0.0, 1.621341115972111E9, 2021-05-18 14:31:55.972
51.0, 109.82777404785156, 69.33587646484375, 312.13018798828125, -47.758522033691406, -0.03200000151991844, -0.08000000566244125, 1.055999994277954, 0.0, 0.0, 0.0, 0.0, 0.0, 1.621341115972111E9, 2021-05-18 14:31:55.972
52.0, 65.58101654052734, 15.541153907775879, 268.253662109375, -98.31822967529297, -0.03200000151991844, -0.08000000566244125, 1.055999994277954, 0.0, 0.0, 0.0, 0.0, 0.0, 1.6213411159870431E9, 2021-05-18 14:31:55.987
52.0, 23.71283531188965, -18.918283462524414, 232.04022216796875, -125.14453125, -0.03200000151991844, -0.08000000566244125, 1.055999994277954, 0.0, 0.0, 0.0, 0.0, 0.0, 1.6213411159870431E9, 2021-05-18 14:31:55.987
53.0, 45.38929748535156, 10.985956192016602, 260.40362548828125, -103.41197204589844, -0.03200000151991844, -0.08000000566244125, 1.055999994277954, 0.0, 0.0, 0.0, 0.0, 0.0, 1.6213411160027285E9, 2021-05-18 14:31:56.002
53.0, 99.38597106933594, 74.26132202148438, 320.35797119140625, -48.98521041870117, -0.03200000151991844, -0.08000000566244125, 1.055999994277954, 0.0, 0.0, 0.0, 0.0, 0.0, 1.6213411160027285E9, 2021-05-18 14:31:56.002
54.0, 51.58631134033203, 16.147018432617188, 259.9024658203125, -105.8354263305664, -0.03200000151991844, -0.08000000566244125, 1.055999994277954, 0.0, 0.0, 0.0, 0.0, 0.0, 1.621341116003463E9, 2021-05-18 14:31:56.003
54.0, 11.423524856567383, -23.402423858642578, 222.1781005859375, -142.03392028808594, -0.03200000151991844, -0.08000000566244125, 1.055999994277954, 0.0, 0.0, 0.0, 0.0, 0.0, 1.621341116003463E9, 2021-05-18 14:31:56.003
55.0, 41.56711959838867, 21.05376625061035, 257.2920227050781, -112.21195983886719, -0.03200000151991844, -0.08000000566244125, 1.055999994277954, 0.0, 0.0, 0.0, 0.0, 0.0, 1.6213411160170567E9, 2021-05-18 14:31:56.017
55.0, 101.32698059082031, 70.83557891845703, 313.7607727050781, -62.82658004760742, -0.03200000151991844, -0.08000000566244125, 1.055999994277954, 0.0, 0.0, 0.0, 0.0, 0.0, 1.6213411160170567E9, 2021-05-18 14:31:56.017
56.0, 45.40425491333008, 19.060400009155273, 254.29263305664062, -114.04450988769531, -0.03200000151991844, -0.08000000566244125, 1.055999994277954, 0.0, 0.0, 0.0, 0.0, 0.0, 1.6213411160327067E9, 2021-05-18 14:31:56.032
56.0, 11.943370819091797, -10.649365425109863, 226.2919921875, -143.52239990234375, -0.03200000151991844, -0.08000000566244125, 1.055999994277954, 0.0, 0.0, 0.0, 0.0, 0.0, 1.6213411160327067E9, 2021-05-18 14:31:56.032
57.0, 54.413673400878906, 31.304832458496094, 262.0491943359375, -105.52501678466797, -0.03200000151991844, -0.08000000566244125, 1.055999994277954, 0.0, 0.0, 0.0, 0.0, 0.0, 1.6213411160334187E9, 2021-05-18 14:31:56.033
57.0, 105.32867431640625, 74.51564025878906, 317.74749755859375, -55.283199310302734, -0.03200000151991844, -0.08000000566244125, 1.055999994277954, 0.0, 0.0, 0.0, 0.0, 0.0, 1.6213411160334187E9, 2021-05-18 14:31:56.033
58.0, 59.97864532470703, 20.870512008666992, 270.4527282714844, -99.63093566894531, -0.03200000151991844, -0.08000000566244125, 1.055999994277954, 0.0, 0.0, 0.0, 0.0, 0.0, 1.6213411160471404E9, 2021-05-18 14:31:56.047
58.0, 26.70101547241211, -18.701370239257812, 240.2792205810547, -134.5615997314453, -0.03200000151991844, -0.08000000566244125, 1.055999994277954, 0.0, 0.0, 0.0, 0.0, 0.0, 1.6213411160471404E9, 2021-05-18 14:31:56.047
59.0, 56.01435089111328, 5.361146450042725, 261.3909606933594, -107.7801742553711, -0.03200000151991844, -0.08000000566244125, 1.055999994277954, 0.0, 0.0, 0.0, 0.0, 0.0, 1.621341116062734E9, 2021-05-18 14:31:56.062
59.0, 115.01127624511719, 68.17650604248047, 323.91461181640625, -49.72196960449219, -0.03200000151991844, -0.08000000566244125, 1.055999994277954, 0.0, 0.0, 0.0, 0.0, 0.0, 1.621341116062734E9, 2021-05-18 14:31:56.062
60.0, 56.78477096557617, 20.197330474853516, 264.6222229003906, -102.11048889160156, -0.03200000151991844, -0.08000000566244125, 1.055999994277954, 0.0, 0.0, 0.0, 0.0, 0.0, 1.6213411160634315E9, 2021-05-18 14:31:56.063
60.0, 22.658184051513672, -12.803547859191895, 227.24566650390625, -131.45748901367188, -0.03200000151991844, -0.08000000566244125, 1.055999994277954, 0.0, 0.0, 0.0, 0.0, 0.0, 1.6213411160634315E9, 2021-05-18 14:31:56.063
61.0, 47.82770919799805, 23.043394088745117, 255.73622131347656, -102.15162658691406, -0.03200000151991844, -0.08000000566244125, 1.055999994277954, 0.0, 0.0, 0.0, 0.0, 0.0, 1.621341116077103E9, 2021-05-18 14:31:56.077
61.0, 90.92257690429688, 67.27145385742188, 313.28955078125, -56.28175354003906, -0.03200000151991844, -0.08000000566244125, 1.055999994277954, 0.0, 0.0, 0.0, 0.0, 0.0, 1.621341116077103E9, 2021-05-18 14:31:56.077
62.0, 53.00747299194336, 24.090564727783203, 273.2838439941406, -96.56795501708984, -0.03200000151991844, -0.08000000566244125, 1.055999994277954, 0.0, 0.0, 0.0, 0.0, 0.0, 1.6213411161098526E9, 2021-05-18 14:31:56.109
62.0, 25.455629348754883, -17.96834945678711, 235.91102600097656, -128.10279846191406, -0.03200000151991844, -0.08000000566244125, 1.055999994277954, 0.0, 0.0, 0.0, 0.0, 0.0, 1.6213411161098526E9, 2021-05-18 14:31:56.109
63.0, 40.145957946777344, 2.9975297451019287, 251.19598388671875, -110.08769226074219, -0.03200000151991844, -0.08000000566244125, 1.055999994277954, 0.0, 0.0, 0.0, 0.0, 0.0, 1.6213411161105616E9, 2021-05-18 14:31:56.110
63.0, 99.87590026855469, 66.32899475097656, 313.95526123046875, -47.14891815185547, -0.03200000151991844, -0.08000000566244125, 1.055999994277954, 0.0, 0.0, 0.0, 0.0, 0.0, 1.6213411161105616E9, 2021-05-18 14:31:56.110
64.0, 48.74772644042969, 9.089826583862305, 260.9683532714844, -99.67955017089844, -0.03200000151991844, -0.08000000566244125, 1.055999994277954, 0.0, 0.0, 0.0, 0.0, 0.0, 1.621341116111287E9, 2021-05-18 14:31:56.111
64.0, 14.778214454650879, -19.647563934326172, 225.27101135253906, -134.8458251953125, -0.03200000151991844, -0.08000000566244125, 1.055999994277954, 0.0, 0.0, 0.0, 0.0, 0.0, 1.621341116111287E9, 2021-05-18 14:31:56.111
65.0, 46.03255844116211, 7.006702423095703, 258.0138244628906, -105.18094635009766, -0.03200000151991844, -0.08000000566244125, 1.055999994277954, 0.0, 0.0, 0.0, 0.0, 0.0, 1.6213411161120274E9, 2021-05-18 14:31:56.112
65.0, 102.53870391845703, 75.18133544921875, 317.21270751953125, -47.58274841308594, -0.03200000151991844, -0.08000000566244125, 1.055999994277954, 0.0, 0.0, 0.0, 0.0, 0.0, 1.6213411161120274E9, 2021-05-18 14:31:56.112
66.0, 54.746524810791016, 20.601238250732422, 266.1219177246094, -87.89512634277344, -0.03200000151991844, -0.08000000566244125, 1.055999994277954, 0.0, 0.0, 0.0, 0.0, 0.0, 1.6213411161220129E9, 2021-05-18 14:31:56.122
66.0, 10.600746154785156, -15.933843612670898, 228.8800048828125, -128.77597045898438, -0.03200000151991844, -0.08000000566244125, 1.055999994277954, 0.0, 0.0, 0.0, 0.0, 0.0, 1.6213411161220129E9, 2021-05-18 14:31:56.122
67.0, 55.35612869262695, 13.278514862060547, 264.0462951660156, -97.4393539428711, -0.03200000151991844, -0.08000000566244125, 1.055999994277954, 0.0, 0.0, 0.0, 0.0, 0.0, 1.621341116137061E9, 2021-05-18 14:31:56.137
67.0, 105.5381088256836, 71.0711898803711, 322.1568603515625, -46.464515686035156, -0.03200000151991844, -0.08000000566244125, 1.055999994277954, 0.0, 0.0, 0.0, 0.0, 0.0, 1.621341116137061E9, 2021-05-18 14:31:56.137
68.0, 62.12534713745117, 18.634052276611328, 278.8413391113281, -89.88101196289062, -0.03200000151991844, -0.08000000566244125, 1.055999994277954, 0.0, 0.0, 0.0, 0.0, 0.0, 1.6213411161681888E9, 2021-05-18 14:31:56.168
68.0, 26.5439395904541, -14.942770004272461, 237.54534912109375, -128.81336975097656, -0.03200000151991844, -0.08000000566244125, 1.055999994277954, 0.0, 0.0, 0.0, 0.0, 0.0, 1.6213411161681888E9, 2021-05-18 14:31:56.168
69.0, 59.23066711425781, 15.369118690490723, 267.3673095703125, -98.89791107177734, -0.03200000151991844, -0.08000000566244125, 1.055999994277954, 0.0, 0.0, 0.0, 0.0, 0.0, 1.621341116168897E9, 2021-05-18 14:31:56.168
69.0, 112.87579345703125, 79.01847839355469, 324.6438903808594, -44.179439544677734, -0.03200000151991844, -0.08000000566244125, 1.055999994277954, 0.0, 0.0, 0.0, 0.0, 0.0, 1.621341116168897E9, 2021-05-18 14:31:56.168
70.0, 58.58366394042969, 20.388065338134766, 264.5100402832031, -104.79573822021484, -0.03200000151991844, -0.08000000566244125, 1.040000081062317, 0.0, 0.0, 0.0, 0.0, 0.0, 1.6213411161997783E9, 2021-05-18 14:31:56.199
70.0, 23.63429832458496, -15.473835945129395, 228.2105712890625, -132.23538208007812, -0.03200000151991844, -0.08000000566244125, 1.040000081062317, 0.0, 0.0, 0.0, 0.0, 0.0, 1.6213411161997783E9, 2021-05-18 14:31:56.199
71.0, 44.304725646972656, 6.341000556945801, 255.19393920898438, -111.22462463378906, -0.03200000151991844, -0.08000000566244125, 1.040000081062317, 0.0, 0.0, 0.0, 0.0, 0.0, 1.6213411162005131E9, 2021-05-18 14:31:56.200
71.0, 100.26858520507812, 77.16722869873047, 309.0933837890625, -57.672996520996094, -0.03200000151991844, -0.08000000566244125, 1.040000081062317, 0.0, 0.0, 0.0, 0.0, 0.0, 1.6213411162005131E9, 2021-05-18 14:31:56.200
72.0, 45.80442428588867, 25.50798797607422, 255.32484436035156, -100.99225616455078, -0.03200000151991844, -0.08000000566244125, 1.040000081062317, 0.0, 0.0, 0.0, 0.0, 0.0, 1.6213411162012565E9, 2021-05-18 14:31:56.201
72.0, 9.310481071472168, -4.085840702056885, 217.0993194580078, -136.49887084960938, -0.03200000151991844, -0.08000000566244125, 1.040000081062317, 0.0, 0.0, 0.0, 0.0, 0.0, 1.6213411162012565E9, 2021-05-18 14:31:56.201
73.0, 23.638036727905273, 11.116852760314941, 236.9357452392578, -118.83905792236328, -0.03200000151991844, -0.08000000566244125, 1.040000081062317, 0.0, 0.0, 0.0, 0.0, 0.0, 1.6213411162020175E9, 2021-05-18 14:31:56.202
73.0, 85.7839584350586, 83.094970703125, 307.9676818847656, -50.051082611083984, -0.03200000151991844, -0.08000000566244125, 1.040000081062317, 0.0, 0.0, 0.0, 0.0, 0.0, 1.6213411162020175E9, 2021-05-18 14:31:56.202
74.0, 50.84954833984375, 26.663616180419922, 264.75311279296875, -97.71610260009766, -0.03200000151991844, -0.08000000566244125, 1.040000081062317, 0.0, 0.0, 0.0, 0.0, 0.0, 1.621341116213575E9, 2021-05-18 14:31:56.213
