Sample Index, EXG Channel 0, EXG Channel 1, EXG Channel 2, EXG Channel 3, Accel Channel 0, Accel Channel 1, Accel Channel 2, Other, Other, Other, Other, Other, Timestamp, Timestamp (Formatted)
0.0, -74.50067901611328, 262.7186279296875, -54.1500129699707, -73.58253479003906, 0.0, 0.0, 0.0, 0.0, 0.0, 0.0, 0.0, 0.0, 1.6213375064704444E9, 2021-05-18 13:31:46.470
1.0, -40.66206359863281, 286.2650451660156, -14.649188041687012, -35.585147857666016, 0.0, -0.08000000566244125, 0.0, 0.0, 0.0, 0.0, 0.0, 0.0, 1.6213375064711745E9, 2021-05-18 13:31:46.471
1.0, 11.621739387512207, 345.1983642578125, 37.60469436645508, 5.16854190826416, 0.0, -0.08000000566244125, 0.0, 0.0, 0.0, 0.0, 0.0, 0.0, 1.6213375064711745E9, 2021-05-18 13:31:46.471
2.0, -64.33937072753906, 256.4355773925781, -46.991844177246094, -71.30119323730469, -0.01600000075995922, -0.08000000566244125, 0.0, 0.0, 0.0, 0.0, 0.0, 0.0, 1.6213375064858377E9, 2021-05-18 13:31:46.485
2.0, -73.17301177978516, 265.40386962890625, -49.06748580932617, -70.31759643554688, -0.01600000075995922, -0.08000000566244125, 0.0, 0.0, 0.0, 0.0, 0.0, 0.0, 1.6213375064858377E9, 2021-05-18 13:31:46.485
3.0, -32.62875747680664, 292.08056640625, -7.27784538269043, -31.628334045410156, -0.01600000075995922, -0.08000000566244125, 0.0, 0.0, 0.0, 0.0, 0.0, 0.0, 1.6213375064871993E9, 2021-05-18 13:31:46.487
3.0, 15.447656631469727, 340.0260925292969, 43.5698356628418, 13.32900333404541, -0.01600000075995922, -0.08000000566244125, 0.0, 0.0, 0.0, 0.0, 0.0, 0.0, 1.6213375064871993E9, 2021-05-18 13:31:46.487
4.0, -59.59717559814453, 266.97088623046875, -49.97628402709961, -63.7278938293457, -0.01600000075995922, -0.08000000566244125, 0.0, 0.0, 0.0, 0.0, 0.0, 0.0, 1.621337506499568E9, 2021-05-18 13:31:46.499
4.0, -74.07058715820312, 260.28021240234375, -51.17679214477539, -71.76119995117188, -0.01600000075995922, -0.08000000566244125, 0.0, 0.0, 0.0, 0.0, 0.0, 0.0, 1.621337506499568E9, 2021-05-18 13:31:46.499
5.0, -41.230525970458984, 305.89202880859375, -10.314643859863281, -27.495744705200195, -0.01600000075995922, -0.08000000566244125, 0.0, 0.0, 0.0, 0.0, 0.0, 0.0, 1.621337506515271E9, 2021-05-18 13:31:46.515
5.0, 2.8815929889678955, 341.5931091308594, 38.2816162109375, 13.875028610229492, -0.01600000075995922, -0.08000000566244125, 0.0, 0.0, 0.0, 0.0, 0.0, 0.0, 1.621337506515271E9, 2021-05-18 13:31:46.515
6.0, -69.09278106689453, 261.8023376464844, -54.55392074584961, -69.66685485839844, -0.01600000075995922, -0.08000000566244125, 0.0, 0.0, 0.0, 0.0, 0.0, 0.0, 1.6213375065159266E9, 2021-05-18 13:31:46.515
6.0, -77.29064178466797, 257.6061706542969, -59.29237365722656, -78.4705810546875, -0.01600000075995922, -0.08000000566244125, 0.0, 0.0, 0.0, 0.0, 0.0, 0.0, 1.6213375065159266E9, 2021-05-18 13:31:46.515
7.0, -32.47542190551758, 304.3736267089844, -8.339977264404297, -33.31876754760742, -0.01600000075995922, -0.08000000566244125, 0.0, 0.0, 0.0, 0.0, 0.0, 0.0, 1.621337506529657E9, 2021-05-18 13:31:46.529
7.0, 19.131458282470703, 332.1461181640625, 34.45195770263672, 2.5393919944763184, -0.01600000075995922, -0.08000000566244125, 0.0, 0.0, 0.0, 0.0, 0.0, 0.0, 1.621337506529657E9, 2021-05-18 13:31:46.529
8.0, -56.72119140625, 253.98220825195312, -43.48381805419922, -72.81584930419922, -0.01600000075995922, -0.08000000566244125, 0.0, 0.0, 0.0, 0.0, 0.0, 0.0, 1.6213375065452056E9, 2021-05-18 13:31:46.545
8.0, -58.74448013305664, 264.62969970703125, -39.94213104248047, -71.54054260253906, -0.01600000075995922, -0.08000000566244125, 0.0, 0.0, 0.0, 0.0, 0.0, 0.0, 1.6213375065452056E9, 2021-05-18 13:31:46.545
9.0, -29.980907440185547, 302.6083984375, -4.805771350860596, -40.304901123046875, -0.01600000075995922, -0.08000000566244125, 0.0, 0.0, 0.0, 0.0, 0.0, 0.0, 1.6213375065459971E9, 2021-05-18 13:31:46.545
9.0, 10.933597564697266, 343.6612854003906, 43.14722442626953, 5.99131965637207, -0.01600000075995922, -0.08000000566244125, 0.0, 0.0, 0.0, 0.0, 0.0, 0.0, 1.6213375065459971E9, 2021-05-18 13:31:46.545
10.0, -70.80939483642578, 256.8020935058594, -53.439430236816406, -81.32412719726562, -0.01600000075995922, -0.08000000566244125, 1.055999994277954, 0.0, 0.0, 0.0, 0.0, 0.0, 1.6213375065595648E9, 2021-05-18 13:31:46.559
10.0, -73.92473602294922, 269.4280090332031, -49.81172561645508, -77.13543701171875, -0.01600000075995922, -0.08000000566244125, 1.055999994277954, 0.0, 0.0, 0.0, 0.0, 0.0, 1.6213375065595648E9, 2021-05-18 13:31:46.559
11.0, -41.518497467041016, 306.00421142578125, -6.537344932556152, -41.7036247253418, -0.01600000075995922, -0.08000000566244125, 1.055999994277954, 0.0, 0.0, 0.0, 0.0, 0.0, 1.6213375065750225E9, 2021-05-18 13:31:46.575
11.0, 10.937337875366211, 351.81427001953125, 43.27812194824219, 9.259992599487305, -0.01600000075995922, -0.08000000566244125, 1.055999994277954, 0.0, 0.0, 0.0, 0.0, 0.0, 1.6213375065750225E9, 2021-05-18 13:31:46.575
12.0, -70.08385467529297, 256.6038818359375, -55.47019577026367, -72.03795623779297, -0.01600000075995922, -0.08000000566244125, 1.055999994277954, 0.0, 0.0, 0.0, 0.0, 0.0, 1.621337506590356E9, 2021-05-18 13:31:46.590
12.0, -74.2089614868164, 268.1639099121094, -49.11236572265625, -71.19273376464844, -0.01600000075995922, -0.08000000566244125, 1.055999994277954, 0.0, 0.0, 0.0, 0.0, 0.0, 1.621337506590356E9, 2021-05-18 13:31:46.590
13.0, -41.866310119628906, 305.09918212890625, -4.177468299865723, -31.24312400817871, -0.01600000075995922, -0.08000000566244125, 1.055999994277954, 0.0, 0.0, 0.0, 0.0, 0.0, 1.6213375065909677E9, 2021-05-18 13:31:46.590
13.0, 2.9937899112701416, 355.0231018066406, 46.71134948730469, 7.6518354415893555, -0.01600000075995922, -0.08000000566244125, 1.055999994277954, 0.0, 0.0, 0.0, 0.0, 0.0, 1.6213375065909677E9, 2021-05-18 13:31:46.590
14.0, -67.2602310180664, 260.66168212890625, -50.02864074707031, -67.71836853027344, -0.01600000075995922, -0.08000000566244125, 1.055999994277954, 0.0, 0.0, 0.0, 0.0, 0.0, 1.621337506605991E9, 2021-05-18 13:31:46.605
14.0, -71.05622863769531, 261.5106201171875, -51.13191223144531, -71.81356048583984, -0.01600000075995922, -0.08000000566244125, 1.055999994277954, 0.0, 0.0, 0.0, 0.0, 0.0, 1.621337506605991E9, 2021-05-18 13:31:46.605
15.0, -39.71586608886719, 297.3052062988281, -12.031258583068848, -41.04166030883789, -0.01600000075995922, -0.08000000566244125, 1.055999994277954, 0.0, 0.0, 0.0, 0.0, 0.0, 1.6213375066067777E9, 2021-05-18 13:31:46.606
15.0, 8.083793640136719, 362.2336120605469, 39.53074264526367, -0.6769219040870667, -0.01600000075995922, -0.08000000566244125, 1.055999994277954, 0.0, 0.0, 0.0, 0.0, 0.0, 1.6213375066067777E9, 2021-05-18 13:31:46.606
16.0, -68.51309967041016, 242.41470336914062, -60.86687088012695, -82.09080505371094, -0.01600000075995922, -0.08000000566244125, 1.055999994277954, 0.0, 0.0, 0.0, 0.0, 0.0, 1.6213375066196008E9, 2021-05-18 13:31:46.619
16.0, -65.96622467041016, 254.24026489257812, -52.07062530517578, -73.21601867675781, -0.01600000075995922, -0.08000000566244125, 1.055999994277954, 0.0, 0.0, 0.0, 0.0, 0.0, 1.6213375066196008E9, 2021-05-18 13:31:46.619
17.0, -36.604270935058594, 296.9087829589844, -7.629395961761475, -46.898345947265625, -0.01600000075995922, -0.08000000566244125, 1.055999994277954, 0.0, 0.0, 0.0, 0.0, 0.0, 1.621337506634998E9, 2021-05-18 13:31:46.634
17.0, 12.560454368591309, 346.5185546875, 36.46776580810547, -6.95621395111084, -0.01600000075995922, -0.08000000566244125, 1.055999994277954, 0.0, 0.0, 0.0, 0.0, 0.0, 1.621337506634998E9, 2021-05-18 13:31:46.634
18.0, -66.00736236572266, 259.4574279785156, -51.22541046142578, -88.34391784667969, -0.01600000075995922, -0.08000000566244125, 1.055999994277954, 0.0, 0.0, 0.0, 0.0, 0.0, 1.6213375066667747E9, 2021-05-18 13:31:46.666
18.0, -65.89891052246094, 272.31146240234375, -45.58938217163086, -83.31375122070312, -0.01600000075995922, -0.08000000566244125, 1.055999994277954, 0.0, 0.0, 0.0, 0.0, 0.0, 1.6213375066667747E9, 2021-05-18 13:31:46.666
19.0, -39.48773193359375, 301.6397705078125, -10.681154251098633, -55.724510192871094, -0.01600000075995922, -0.08000000566244125, 1.055999994277954, 0.0, 0.0, 0.0, 0.0, 0.0, 1.6213375066674206E9, 2021-05-18 13:31:46.667
19.0, 9.85650634765625, 345.8005065917969, 37.79916763305664, -7.401261806488037, -0.01600000075995922, -0.08000000566244125, 1.055999994277954, 0.0, 0.0, 0.0, 0.0, 0.0, 1.6213375066674206E9, 2021-05-18 13:31:46.667
20.0, -59.58221435546875, 259.2928771972656, -44.99473571777344, -73.14496612548828, -0.01600000075995922, -0.08000000566244125, 1.055999994277954, 0.0, 0.0, 0.0, 0.0, 0.0, 1.621337506668183E9, 2021-05-18 13:31:46.668
20.0, -72.85511779785156, 261.3610534667969, -50.107177734375, -78.4892807006836, -0.01600000075995922, -0.08000000566244125, 1.055999994277954, 0.0, 0.0, 0.0, 0.0, 0.0, 1.621337506668183E9, 2021-05-18 13:31:46.668
21.0, -41.10710906982422, 289.7992248535156, -16.29474449157715, -39.50456237792969, -0.01600000075995922, -0.08000000566244125, 1.055999994277954, 0.0, 0.0, 0.0, 0.0, 0.0, 1.621337506668897E9, 2021-05-18 13:31:46.668
21.0, 6.703770637512207, 346.189453125, 38.52845001220703, 6.743039608001709, -0.01600000075995922, -0.08000000566244125, 1.055999994277954, 0.0, 0.0, 0.0, 0.0, 0.0, 1.621337506668897E9, 2021-05-18 13:31:46.668
22.0, -71.80795288085938, 260.9234619140625, -52.68022918701172, -69.44994354248047, -0.01600000075995922, -0.08000000566244125, 1.055999994277954, 0.0, 0.0, 0.0, 0.0, 0.0, 1.6213375066797268E9, 2021-05-18 13:31:46.679
22.0, -79.25782775878906, 264.7456359863281, -57.9647102355957, -75.27296447753906, -0.01600000075995922, -0.08000000566244125, 1.055999994277954, 0.0, 0.0, 0.0, 0.0, 0.0, 1.6213375066797268E9, 2021-05-18 13:31:46.679
23.0, -41.48857879638672, 297.78765869140625, -17.20353889465332, -40.678890228271484, -0.01600000075995922, -0.08000000566244125, 1.055999994277954, 0.0, 0.0, 0.0, 0.0, 0.0, 1.6213375066957252E9, 2021-05-18 13:31:46.695
23.0, 8.77193546295166, 355.10162353515625, 39.0744743347168, 5.583670616149902, -0.01600000075995922, -0.08000000566244125, 1.055999994277954, 0.0, 0.0, 0.0, 0.0, 0.0, 1.6213375066957252E9, 2021-05-18 13:31:46.695
24.0, -65.66703033447266, 257.98016357421875, -55.97882080078125, -77.01950073242188, -0.01600000075995922, -0.08000000566244125, 1.055999994277954, 0.0, 0.0, 0.0, 0.0, 0.0, 1.62133750671022E9, 2021-05-18 13:31:46.710
24.0, -69.21994018554688, 254.9919891357422, -55.28694152832031, -83.69895935058594, -0.01600000075995922, -0.08000000566244125, 1.055999994277954, 0.0, 0.0, 0.0, 0.0, 0.0, 1.62133750671022E9, 2021-05-18 13:31:46.710
25.0, -40.86775588989258, 306.3408203125, -15.539284706115723, -48.46162414550781, -0.01600000075995922, -0.08000000566244125, 1.055999994277954, 0.0, 0.0, 0.0, 0.0, 0.0, 1.6213375067270868E9, 2021-05-18 13:31:46.727
25.0, -1.6549056768417358, 331.342041015625, 28.07916831970215, -5.35927677154541, -0.01600000075995922, -0.08000000566244125, 1.055999994277954, 0.0, 0.0, 0.0, 0.0, 0.0, 1.6213375067270868E9, 2021-05-18 13:31:46.727
26.0, -71.3516845703125, 256.3533020019531, -57.736576080322266, -84.33474731445312, -0.01600000075995922, -0.08000000566244125, 1.055999994277954, 0.0, 0.0, 0.0, 0.0, 0.0, 1.6213375067277813E9, 2021-05-18 13:31:46.727
26.0, -76.85307312011719, 260.3138732910156, -59.5092887878418, -91.71356964111328, -0.01600000075995922, -0.08000000566244125, 1.055999994277954, 0.0, 0.0, 0.0, 0.0, 0.0, 1.6213375067277813E9, 2021-05-18 13:31:46.727
27.0, -42.55819320678711, 295.68585205078125, -15.161554336547852, -59.77482223510742, -0.01600000075995922, -0.08000000566244125, 1.055999994277954, 0.0, 0.0, 0.0, 0.0, 0.0, 1.6213375067730813E9, 2021-05-18 13:31:46.773
27.0, 11.389864921569824, 343.1564025878906, 33.49828338623047, -12.603463172912598, -0.01600000075995922, -0.08000000566244125, 1.055999994277954, 0.0, 0.0, 0.0, 0.0, 0.0, 1.6213375067730813E9, 2021-05-18 13:31:46.773
28.0, -66.81143951416016, 256.2560729980469, -60.47792053222656, -95.93217468261719, -0.01600000075995922, -0.08000000566244125, 1.055999994277954, 0.0, 0.0, 0.0, 0.0, 0.0, 1.6213375067737734E9, 2021-05-18 13:31:46.773
28.0, -76.48282623291016, 264.8279113769531, -61.917781829833984, -90.88704681396484, -0.01600000075995922, -0.08000000566244125, 1.055999994277954, 0.0, 0.0, 0.0, 0.0, 0.0, 1.6213375067737734E9, 2021-05-18 13:31:46.773
29.0, -46.926395416259766, 281.4181213378906, -25.78287124633789, -50.918739318847656, -0.01600000075995922, -0.08000000566244125, 1.055999994277954, 0.0, 0.0, 0.0, 0.0, 0.0, 1.6213375067745175E9, 2021-05-18 13:31:46.774
29.0, -3.7567296028137207, 340.41131591796875, 27.361108779907227, 1.9447479248046875, -0.01600000075995922, -0.08000000566244125, 1.055999994277954, 0.0, 0.0, 0.0, 0.0, 0.0, 1.6213375067745175E9, 2021-05-18 13:31:46.774
30.0, -81.75982666015625, 261.9482116699219, -61.68965148925781, -76.222900390625, -0.01600000075995922, -0.08000000566244125, 1.055999994277954, 0.0, 0.0, 0.0, 0.0, 0.0, 1.6213375067752967E9, 2021-05-18 13:31:46.775
30.0, -77.496337890625, 252.59844970703125, -51.28150939941406, -73.13748168945312, -0.01600000075995922, -0.08000000566244125, 1.055999994277954, 0.0, 0.0, 0.0, 0.0, 0.0, 1.6213375067752967E9, 2021-05-18 13:31:46.775
31.0, -47.13956832885742, 296.6470031738281, -10.07903003692627, -40.256282806396484, -0.01600000075995922, -0.08000000566244125, 1.055999994277954, 0.0, 0.0, 0.0, 0.0, 0.0, 1.6213375067860389E9, 2021-05-18 13:31:46.786
31.0, -1.2846556901931763, 341.1256103515625, 40.79108810424805, 5.247079849243164, -0.01600000075995922, -0.08000000566244125, 1.055999994277954, 0.0, 0.0, 0.0, 0.0, 0.0, 1.6213375067860389E9, 2021-05-18 13:31:46.786
32.0, -84.71060180664062, 259.1582336425781, -65.28369140625, -88.33269500732422, -0.01600000075995922, -0.08000000566244125, 1.055999994277954, 0.0, 0.0, 0.0, 0.0, 0.0, 1.621337506786816E9, 2021-05-18 13:31:46.786
32.0, -79.05587768554688, 257.9689636230469, -56.00126266479492, -86.12989807128906, -0.01600000075995922, -0.08000000566244125, 1.055999994277954, 0.0, 0.0, 0.0, 0.0, 0.0, 1.621337506786816E9, 2021-05-18 13:31:46.786
33.0, -51.3506965637207, 298.442138671875, -18.336729049682617, -49.05626678466797, -0.01600000075995922, -0.08000000566244125, 1.055999994277954, 0.0, 0.0, 0.0, 0.0, 0.0, 1.621337506787541E9, 2021-05-18 13:31:46.787
33.0, 0.8545671105384827, 349.2599182128906, 25.82400894165039, -6.926294803619385, -0.01600000075995922, -0.08000000566244125, 1.055999994277954, 0.0, 0.0, 0.0, 0.0, 0.0, 1.621337506787541E9, 2021-05-18 13:31:46.787
34.0, -77.48511505126953, 263.4778137207031, -64.61051177978516, -87.69691467285156, -0.01600000075995922, -0.08000000566244125, 1.055999994277954, 0.0, 0.0, 0.0, 0.0, 0.0, 1.621337506816815E9, 2021-05-18 13:31:46.816
34.0, -82.92667388916016, 263.9116516113281, -63.57455825805664, -92.67098236083984, -0.01600000075995922, -0.08000000566244125, 1.055999994277954, 0.0, 0.0, 0.0, 0.0, 0.0, 1.621337506816815E9, 2021-05-18 13:31:46.816
35.0, -55.85353469848633, 293.1240234375, -32.83632278442383, -65.1827163696289, -0.01600000075995922, -0.08000000566244125, 1.055999994277954, 0.0, 0.0, 0.0, 0.0, 0.0, 1.6213375068174467E9, 2021-05-18 13:31:46.817
35.0, -3.2593228816986084, 342.79736328125, 25.27424430847168, -18.684539794921875, -0.01600000075995922, -0.08000000566244125, 1.055999994277954, 0.0, 0.0, 0.0, 0.0, 0.0, 1.6213375068174467E9, 2021-05-18 13:31:46.817
36.0, -88.14382934570312, 257.1012878417969, -70.42605590820312, -100.02362060546875, -0.01600000075995922, -0.08000000566244125, 1.055999994277954, 0.0, 0.0, 0.0, 0.0, 0.0, 1.6213375068182027E9, 2021-05-18 13:31:46.818
36.0, -78.80530548095703, 260.4185791015625, -62.89763641357422, -90.31110382080078, -0.01600000075995922, -0.08000000566244125, 1.055999994277954, 0.0, 0.0, 0.0, 0.0, 0.0, 1.6213375068182027E9, 2021-05-18 13:31:46.818
37.0, -53.77415084838867, 296.81903076171875, -32.07712173461914, -55.02140808105469, -0.01600000075995922, -0.08000000566244125, 1.055999994277954, 0.0, 0.0, 0.0, 0.0, 0.0, 1.6213375068296473E9, 2021-05-18 13:31:46.829
37.0, -4.747803211212158, 352.9698791503906, 26.459793090820312, -8.321277618408203, -0.01600000075995922, -0.08000000566244125, 1.055999994277954, 0.0, 0.0, 0.0, 0.0, 0.0, 1.6213375068296473E9, 2021-05-18 13:31:46.829
38.0, -82.38812255859375, 259.1694641113281, -68.41773223876953, -84.58531951904297, -0.01600000075995922, -0.08000000566244125, 1.055999994277954, 0.0, 0.0, 0.0, 0.0, 0.0, 1.6213375068454552E9, 2021-05-18 13:31:46.845
38.0, -75.4880142211914, 263.863037109375, -57.47478103637695, -74.98499298095703, -0.01600000075995922, -0.08000000566244125, 1.055999994277954, 0.0, 0.0, 0.0, 0.0, 0.0, 1.6213375068454552E9, 2021-05-18 13:31:46.845
39.0, -47.816490173339844, 307.4552917480469, -10.45676040649414, -42.567543029785156, -0.01600000075995922, -0.08000000566244125, 1.055999994277954, 0.0, 0.0, 0.0, 0.0, 0.0, 1.621337506846224E9, 2021-05-18 13:31:46.846
39.0, -1.8755598068237305, 351.9750671386719, 34.88204574584961, 6.69442081451416, -0.01600000075995922, -0.08000000566244125, 1.055999994277954, 0.0, 0.0, 0.0, 0.0, 0.0, 1.621337506846224E9, 2021-05-18 13:31:46.846
40.0, -76.23973083496094, 262.8794250488281, -55.94516372680664, -74.65962219238281, -0.01600000075995922, -0.08000000566244125, 1.055999994277954, 0.0, 0.0, 0.0, 0.0, 0.0, 1.621337506876609E9, 2021-05-18 13:31:46.876
40.0, -82.04031372070312, 262.3483581542969, -51.906070709228516, -74.49132537841797, -0.01600000075995922, -0.08000000566244125, 1.055999994277954, 0.0, 0.0, 0.0, 0.0, 0.0, 1.621337506876609E9, 2021-05-18 13:31:46.876
41.0, -48.261539459228516, 304.6690673828125, -13.717952728271484, -43.44267654418945, -0.01600000075995922, -0.08000000566244125, 1.055999994277954, 0.0, 0.0, 0.0, 0.0, 0.0, 1.621337506877319E9, 2021-05-18 13:31:46.877
41.0, -2.0101962089538574, 347.7751770019531, 35.77214431762695, 1.918568730354309, -0.01600000075995922, -0.08000000566244125, 1.055999994277954, 0.0, 0.0, 0.0, 0.0, 0.0, 1.621337506877319E9, 2021-05-18 13:31:46.877
42.0, -77.38414001464844, 263.7471008300781, -54.826934814453125, -82.41991424560547, -0.01600000075995922, -0.08000000566244125, 1.055999994277954, 0.0, 0.0, 0.0, 0.0, 0.0, 1.6213375068780906E9, 2021-05-18 13:31:46.878
42.0, -81.88697814941406, 262.5914611816406, -51.20671081542969, -79.82068634033203, -0.01600000075995922, -0.08000000566244125, 1.055999994277954, 0.0, 0.0, 0.0, 0.0, 0.0, 1.6213375068780906E9, 2021-05-18 13:31:46.878
43.0, -43.20519256591797, 294.6573791503906, -17.398014068603516, -50.91499710083008, -0.01600000075995922, -0.08000000566244125, 1.055999994277954, 0.0, 0.0, 0.0, 0.0, 0.0, 1.6213375068895528E9, 2021-05-18 13:31:46.889
43.0, 8.076313972473145, 344.1287536621094, 37.922584533691406, -5.579930782318115, -0.01600000075995922, -0.08000000566244125, 1.055999994277954, 0.0, 0.0, 0.0, 0.0, 0.0, 1.6213375068895528E9, 2021-05-18 13:31:46.889
44.0, -69.90059661865234, 261.6864013671875, -58.87724685668945, -89.33872985839844, -0.01600000075995922, -0.08000000566244125, 1.055999994277954, 0.0, 0.0, 0.0, 0.0, 0.0, 1.6213375069052415E9, 2021-05-18 13:31:46.905
44.0, -75.27857971191406, 261.19647216796875, -64.90596008300781, -94.4923095703125, -0.01600000075995922, -0.08000000566244125, 1.055999994277954, 0.0, 0.0, 0.0, 0.0, 0.0, 1.6213375069052415E9, 2021-05-18 13:31:46.905
45.0, -55.262630462646484, 303.7191467285156, -26.7440242767334, -52.45583724975586, -0.01600000075995922, -0.08000000566244125, 1.055999994277954, 0.0, 0.0, 0.0, 0.0, 0.0, 1.6213375069059627E9, 2021-05-18 13:31:46.905
45.0, -0.15146595239639282, 350.4192810058594, 29.481632232666016, -1.0509119033813477, -0.01600000075995922, -0.08000000566244125, 1.055999994277954, 0.0, 0.0, 0.0, 0.0, 0.0, 1.6213375069059627E9, 2021-05-18 13:31:46.905
46.0, -70.3119888305664, 264.59979248046875, -54.93539047241211, -77.32243347167969, -0.01600000075995922, -0.08000000566244125, 1.055999994277954, 0.0, 0.0, 0.0, 0.0, 0.0, 1.6213375069359548E9, 2021-05-18 13:31:46.935
46.0, -75.97793579101562, 261.0655822753906, -53.26739501953125, -76.2827377319336, -0.01600000075995922, -0.08000000566244125, 1.055999994277954, 0.0, 0.0, 0.0, 0.0, 0.0, 1.6213375069359548E9, 2021-05-18 13:31:46.935
47.0, -46.45890808105469, 303.27783203125, -19.066009521484375, -44.91246032714844, -0.01600000075995922, -0.08000000566244125, 1.055999994277954, 0.0, 0.0, 0.0, 0.0, 0.0, 1.6213375069367511E9, 2021-05-18 13:31:46.936
47.0, 1.9466179609298706, 345.3367614746094, 35.22611618041992, 0.5535051822662354, -0.01600000075995922, -0.08000000566244125, 1.055999994277954, 0.0, 0.0, 0.0, 0.0, 0.0, 1.6213375069367511E9, 2021-05-18 13:31:46.936
48.0, -71.68827056884766, 262.408203125, -54.2210693359375, -76.57819366455078, -0.01600000075995922, -0.08000000566244125, 1.055999994277954, 0.0, 0.0, 0.0, 0.0, 0.0, 1.6213375069375577E9, 2021-05-18 13:31:46.937
48.0, -69.91181945800781, 265.9947814941406, -45.75767517089844, -66.6263198852539, -0.01600000075995922, -0.08000000566244125, 1.055999994277954, 0.0, 0.0, 0.0, 0.0, 0.0, 1.6213375069375577E9, 2021-05-18 13:31:46.937
49.0, -39.73830795288086, 300.22607421875, -5.591150283813477, -33.13177490234375, -0.01600000075995922, -0.08000000566244125, 1.055999994277954, 0.0, 0.0, 0.0, 0.0, 0.0, 1.6213375069495776E9, 2021-05-18 13:31:46.949
49.0, 6.778568744659424, 348.302490234375, 46.374759674072266, 9.622762680053711, -0.01600000075995922, -0.08000000566244125, 1.055999994277954, 0.0, 0.0, 0.0, 0.0, 0.0, 1.6213375069495776E9, 2021-05-18 13:31:46.949
50.0, -73.52456665039062, 264.5549011230469, -46.97688293457031, -70.51207733154297, -0.01600000075995922, -0.08000000566244125, 1.055999994277954, 0.0, 0.0, 0.0, 0.0, 0.0, 1.6213375069652944E9, 2021-05-18 13:31:46.965
50.0, -76.83063507080078, 274.2637023925781, -47.39949035644531, -79.12132263183594, -0.01600000075995922, -0.08000000566244125, 1.055999994277954, 0.0, 0.0, 0.0, 0.0, 0.0, 1.6213375069652944E9, 2021-05-18 13:31:46.965
51.0, -47.442501068115234, 302.5373229980469, -9.798538208007812, -47.377052307128906, -0.01600000075995922, -0.08000000566244125, 1.055999994277954, 0.0, 0.0, 0.0, 0.0, 0.0, 1.621337506966002E9, 2021-05-18 13:31:46.966
51.0, 13.600146293640137, 350.6249694824219, 41.95419692993164, 0.8414775133132935, -0.01600000075995922, -0.08000000566244125, 1.055999994277954, 0.0, 0.0, 0.0, 0.0, 0.0, 1.621337506966002E9, 2021-05-18 13:31:46.966
52.0, -74.43709564208984, 272.40496826171875, -61.09126663208008, -84.5965347290039, -0.01600000075995922, -0.08000000566244125, 1.055999994277954, 0.0, 0.0, 0.0, 0.0, 0.0, 1.6213375069966712E9, 2021-05-18 13:31:46.996
52.0, -73.35253143310547, 257.5799865722656, -52.49323654174805, -79.89922332763672, -0.01600000075995922, -0.08000000566244125, 1.055999994277954, 0.0, 0.0, 0.0, 0.0, 0.0, 1.6213375069966712E9, 2021-05-18 13:31:46.996
53.0, -33.178524017333984, 300.3719482421875, -10.572697639465332, -48.764556884765625, -0.01600000075995922, -0.08000000566244125, 1.055999994277954, 0.0, 0.0, 0.0, 0.0, 0.0, 1.6213375069974468E9, 2021-05-18 13:31:46.997
53.0, 7.979076385498047, 347.38623046875, 36.912811279296875, -2.064424753189087, -0.01600000075995922, -0.08000000566244125, 1.055999994277954, 0.0, 0.0, 0.0, 0.0, 0.0, 1.6213375069974468E9, 2021-05-18 13:31:46.997
54.0, -78.9623794555664, 258.8029479980469, -58.967002868652344, -80.93891143798828, -0.01600000075995922, -0.08000000566244125, 1.055999994277954, 0.0, 0.0, 0.0, 0.0, 0.0, 1.6213375069981103E9, 2021-05-18 13:31:46.998
54.0, -82.49284362792969, 264.12109375, -60.72101593017578, -80.1385726928711, -0.01600000075995922, -0.08000000566244125, 1.055999994277954, 0.0, 0.0, 0.0, 0.0, 0.0, 1.6213375069981103E9, 2021-05-18 13:31:46.998
55.0, -45.112545013427734, 311.42333984375, -10.755951881408691, -39.444725036621094, -0.01600000075995922, -0.08000000566244125, 1.055999994277954, 0.0, 0.0, 0.0, 0.0, 0.0, 1.6213375070096047E9, 2021-05-18 13:31:47.009
55.0, 4.545848369598389, 356.9154968261719, 42.04769515991211, 4.588857173919678, -0.01600000075995922, -0.08000000566244125, 1.055999994277954, 0.0, 0.0, 0.0, 0.0, 0.0, 1.6213375070096047E9, 2021-05-18 13:31:47.009
56.0, -76.28086853027344, 261.3086853027344, -60.556461334228516, -75.62451934814453, -0.01600000075995922, -0.08000000566244125, 1.055999994277954, 0.0, 0.0, 0.0, 0.0, 0.0, 1.621337507024985E9, 2021-05-18 13:31:47.024
56.0, -72.18567657470703, 267.6590270996094, -55.16352462768555, -74.09489440917969, -0.01600000075995922, -0.08000000566244125, 1.055999994277954, 0.0, 0.0, 0.0, 0.0, 0.0, 1.621337507024985E9, 2021-05-18 13:31:47.024
57.0, -38.623817443847656, 303.04595947265625, -10.430581092834473, -42.728355407714844, -0.01600000075995922, -0.08000000566244125, 1.055999994277954, 0.0, 0.0, 0.0, 0.0, 0.0, 1.6213375070417235E9, 2021-05-18 13:31:47.041
57.0, 9.587233543395996, 348.8709716796875, 47.34713363647461, 5.662208557128906, -0.01600000075995922, -0.08000000566244125, 1.055999994277954, 0.0, 0.0, 0.0, 0.0, 0.0, 1.6213375070417235E9, 2021-05-18 13:31:47.041
58.0, -68.98058319091797, 271.4700012207031, -43.05373001098633, -76.48843383789062, -0.01600000075995922, -0.08000000566244125, 1.055999994277954, 0.0, 0.0, 0.0, 0.0, 0.0, 1.6213375070425043E9, 2021-05-18 13:31:47.042
58.0, -72.97480010986328, 269.7421569824219, -40.211402893066406, -71.95193481445312, -0.01600000075995922, -0.08000000566244125, 1.055999994277954, 0.0, 0.0, 0.0, 0.0, 0.0, 1.6213375070425043E9, 2021-05-18 13:31:47.042
59.0, -39.35309600830078, 302.4737548828125, -2.5393919944763184, -43.558616638183594, -0.01600000075995922, -0.08000000566244125, 1.055999994277954, 0.0, 0.0, 0.0, 0.0, 0.0, 1.621337507043136E9, 2021-05-18 13:31:47.043
59.0, 13.992835998535156, 353.0334777832031, 51.59566116333008, 4.46544075012207, -0.01600000075995922, -0.08000000566244125, 1.055999994277954, 0.0, 0.0, 0.0, 0.0, 0.0, 1.621337507043136E9, 2021-05-18 13:31:47.043
60.0, -70.51768493652344, 269.57012939453125, -42.268348693847656, -77.29624938964844, -0.01600000075995922, -0.08000000566244125, 1.055999994277954, 0.0, 0.0, 0.0, 0.0, 0.0, 1.621337507054551E9, 2021-05-18 13:31:47.054
60.0, -70.98516845703125, 268.78472900390625, -39.72147750854492, -76.67543029785156, -0.01600000075995922, -0.08000000566244125, 1.055999994277954, 0.0, 0.0, 0.0, 0.0, 0.0, 1.621337507054551E9, 2021-05-18 13:31:47.054
61.0, -35.332706451416016, 296.73675537109375, -3.5454251766204834, -45.97459030151367, -0.01600000075995922, -0.08000000566244125, 1.055999994277954, 0.0, 0.0, 0.0, 0.0, 0.0, 1.6213375070695865E9, 2021-05-18 13:31:47.069
61.0, 12.612812995910645, 343.33966064453125, 41.24361801147461, -8.414774894714355, -0.01600000075995922, -0.08000000566244125, 1.055999994277954, 0.0, 0.0, 0.0, 0.0, 0.0, 1.6213375070695865E9, 2021-05-18 13:31:47.069
62.0, -69.19375610351562, 247.47853088378906, -57.18307113647461, -90.81224822998047, -0.01600000075995922, -0.08000000566244125, 1.055999994277954, 0.0, 0.0, 0.0, 0.0, 0.0, 1.6213375070852444E9, 2021-05-18 13:31:47.085
62.0, -71.88648986816406, 254.356201171875, -61.218421936035156, -86.09249877929688, -0.01600000075995922, -0.08000000566244125, 1.055999994277954, 0.0, 0.0, 0.0, 0.0, 0.0, 1.6213375070852444E9, 2021-05-18 13:31:47.085
63.0, -48.878623962402344, 299.79974365234375, -25.876367568969727, -56.4575309753418, -0.01600000075995922, -0.08000000566244125, 1.055999994277954, 0.0, 0.0, 0.0, 0.0, 0.0, 1.621337507085958E9, 2021-05-18 13:31:47.085
63.0, -0.9705040454864502, 355.2811584472656, 30.49514389038086, -8.515751838684082, -0.01600000075995922, -0.08000000566244125, 1.055999994277954, 0.0, 0.0, 0.0, 0.0, 0.0, 1.621337507085958E9, 2021-05-18 13:31:47.085
64.0, -81.38583374023438, 270.976318359375, -63.76155471801758, -83.4521255493164, -0.01600000075995922, -0.08000000566244125, 1.055999994277954, 0.0, 0.0, 0.0, 0.0, 0.0, 1.6213375071156642E9, 2021-05-18 13:31:47.115
64.0, -82.31707000732422, 263.676025390625, -61.28573989868164, -82.2665786743164, -0.01600000075995922, -0.08000000566244125, 1.055999994277954, 0.0, 0.0, 0.0, 0.0, 0.0, 1.6213375071156642E9, 2021-05-18 13:31:47.115
65.0, -47.401363372802734, 302.3727722167969, -13.18688678741455, -40.1478271484375, -0.01600000075995922, -0.08000000566244125, 1.055999994277954, 0.0, 0.0, 0.0, 0.0, 0.0, 1.6213375071164086E9, 2021-05-18 13:31:47.116
65.0, 3.7268102169036865, 349.4506530761719, 40.09920883178711, 4.764632701873779, -0.01600000075995922, -0.08000000566244125, 1.055999994277954, 0.0, 0.0, 0.0, 0.0, 0.0, 1.6213375071164086E9, 2021-05-18 13:31:47.116
66.0, -73.76765441894531, 254.8162078857422, -54.621238708496094, -82.9659423828125, -0.01600000075995922, -0.08000000566244125, 1.055999994277954, 0.0, 0.0, 0.0, 0.0, 0.0, 1.6213375071302173E9, 2021-05-18 13:31:47.130
66.0, -74.73255157470703, 265.4001159667969, -49.19090270996094, -76.00225067138672, -0.01600000075995922, -0.08000000566244125, 1.055999994277954, 0.0, 0.0, 0.0, 0.0, 0.0, 1.6213375071302173E9, 2021-05-18 13:31:47.130
67.0, -42.73396682739258, 303.3227233886719, -10.344563484191895, -45.39490509033203, -0.01600000075995922, -0.08000000566244125, 1.055999994277954, 0.0, 0.0, 0.0, 0.0, 0.0, 1.621337507130948E9, 2021-05-18 13:31:47.130
67.0, 6.18766450881958, 350.1499938964844, 42.4067268371582, -1.2192074060440063, -0.01600000075995922, -0.08000000566244125, 1.055999994277954, 0.0, 0.0, 0.0, 0.0, 0.0, 1.621337507130948E9, 2021-05-18 13:31:47.130
68.0, -76.86429595947266, 253.18936157226562, -52.313720703125, -80.55744171142578, -0.01600000075995922, -0.08000000566244125, 1.055999994277954, 0.0, 0.0, 0.0, 0.0, 0.0, 1.6213375071452131E9, 2021-05-18 13:31:47.145
68.0, -82.48162078857422, 270.7070617675781, -39.111873626708984, -76.26777648925781, -0.01600000075995922, -0.08000000566244125, 1.055999994277954, 0.0, 0.0, 0.0, 0.0, 0.0, 1.6213375071452131E9, 2021-05-18 13:31:47.145
69.0, -40.45262908935547, 309.86004638671875, -2.2738592624664307, -41.075321197509766, -0.01600000075995922, -0.08000000566244125, 1.055999994277954, 0.0, 0.0, 0.0, 0.0, 0.0, 1.6213375071459608E9, 2021-05-18 13:31:47.145
69.0, 3.3416006565093994, 353.24664306640625, 40.39091873168945, -2.9807002544403076, -0.01600000075995922, -0.08000000566244125, 1.055999994277954, 0.0, 0.0, 0.0, 0.0, 0.0, 1.6213375071459608E9, 2021-05-18 13:31:47.145
70.0, -66.55339050292969, 253.6905059814453, -48.40178680419922, -79.37937927246094, -0.01600000075995922, -0.08000000566244125, 1.040000081062317, 0.0, 0.0, 0.0, 0.0, 0.0, 1.6213375071757207E9, 2021-05-18 13:31:47.175
70.0, -70.29328918457031, 263.6461181640625, -41.19499969482422, -81.45502471923828, -0.01600000075995922, -0.08000000566244125, 1.040000081062317, 0.0, 0.0, 0.0, 0.0, 0.0, 1.6213375071757207E9, 2021-05-18 13:31:47.175
71.0, -37.905757904052734, 295.4764099121094, -1.4249018430709839, -46.89460372924805, -0.01600000075995922, -0.08000000566244125, 1.040000081062317, 0.0, 0.0, 0.0, 0.0, 0.0, 1.6213375071764748E9, 2021-05-18 13:31:47.176
71.0, 7.160038471221924, 348.7063903808594, 46.54679489135742, -5.022685527801514, -0.01600000075995922, -0.08000000566244125, 1.040000081062317, 0.0, 0.0, 0.0, 0.0, 0.0, 1.6213375071764748E9, 2021-05-18 13:31:47.176
72.0, -69.67994689941406, 254.58807373046875, -51.053375244140625, -86.8030776977539, -0.01600000075995922, -0.08000000566244125, 1.040000081062317, 0.0, 0.0, 0.0, 0.0, 0.0, 1.621337507190248E9, 2021-05-18 13:31:47.190
72.0, -76.01907348632812, 260.7663879394531, -50.87759780883789, -82.00852966308594, -0.01600000075995922, -0.08000000566244125, 1.040000081062317, 0.0, 0.0, 0.0, 0.0, 0.0, 1.621337507190248E9, 2021-05-18 13:31:47.190
73.0, -40.58726501464844, 290.6294860839844, -11.474013328552246, -50.11091995239258, -0.01600000075995922, -0.08000000566244125, 1.040000081062317, 0.0, 0.0, 0.0, 0.0, 0.0, 1.6213375071909792E9, 2021-05-18 13:31:47.190
73.0, 0.4880569577217102, 346.17449951171875, 32.9933967590332, -3.186394691467285, -0.01600000075995922, -0.08000000566244125, 1.040000081062317, 0.0, 0.0, 0.0, 0.0, 0.0, 1.6213375071909792E9, 2021-05-18 13:31:47.190
74.0, -84.09352111816406, 261.7350158691406, -60.74345397949219, -78.98668670654297, -0.01600000075995922, -0.08000000566244125, 1.040000081062317, 0.0, 0.0, 0.0, 0.0, 0.0, 1.6213375072357993E9, 2021-05-18 13:31:47.235
74.0, -86.17290496826172, 264.6334533691406, -58.735130310058594, -77.60292053222656, -0.01600000075995922, -0.08000000566244125, 1.040000081062317, 0.0, 0.0, 0.0, 0.0, 0.0, 1.6213375072357993E9, 2021-05-18 13:31:47.235
75.0, -52.020137786865234, 301.505126953125, -18.003877639770508, -38.80146026611328, -0.01600000075995922, -0.08000000566244125, 1.040000081062317, 0.0, 0.0, 0.0, 0.0, 0.0, 1.6213375072364244E9, 2021-05-18 13:31:47.236
75.0, -0.4319584369659424, 354.78375244140625, 40.36473846435547, 15.778637886047363, -0.01600000075995922, -0.08000000566244125, 1.040000081062317, 0.0, 0.0, 0.0, 0.0, 0.0, 1.6213375072364244E9, 2021-05-18 13:31:47.236
76.0, -76.52022552490234, 265.6768798828125, -48.5513801574707, -67.76324462890625, -0.01600000075995922, -0.08000000566244125, 1.040000081062317, 0.0, 0.0, 0.0, 0.0, 0.0, 1.6213375072523265E9, 2021-05-18 13:31:47.252
76.0, -79.16059112548828, 263.83685302734375, -44.76286315917969, -72.68121337890625, -0.01600000075995922, -0.08000000566244125, 1.040000081062317, 0.0, 0.0, 0.0, 0.0, 0.0, 1.6213375072523265E9, 2021-05-18 13:31:47.252
77.0, -42.44599533081055, 305.8583679199219, -7.77899169921875, -36.87541198730469, -0.01600000075995922, -0.08000000566244125, 1.040000081062317, 0.0, 0.0, 0.0, 0.0, 0.0, 1.6213375072530727E9, 2021-05-18 13:31:47.253
77.0, 4.916098594665527, 345.755615234375, 48.1287727355957, 11.4702730178833, -0.01600000075995922, -0.08000000566244125, 1.040000081062317, 0.0, 0.0, 0.0, 0.0, 0.0, 1.6213375072530727E9, 2021-05-18 13:31:47.253
78.0, -76.20233154296875, 265.1532897949219, -49.086185455322266, -72.37828063964844, -0.01600000075995922, -0.08000000566244125, 1.040000081062317, 0.0, 0.0, 0.0, 0.0, 0.0, 1.621337507253832E9, 2021-05-18 13:31:47.253
78.0, -71.17216491699219, 261.04315185546875, -46.31492233276367, -73.7919692993164, -0.01600000075995922, -0.08000000566244125, 1.040000081062317, 0.0, 0.0, 0.0, 0.0, 0.0, 1.621337507253832E9, 2021-05-18 13:31:47.253
79.0, -43.69512176513672, 300.0091552734375, -12.83907699584961, -40.413360595703125, -0.01600000075995922, -0.08000000566244125, 1.040000081062317, 0.0, 0.0, 0.0, 0.0, 0.0, 1.621337507254558E9, 2021-05-18 13:31:47.254
79.0, 1.5539283752441406, 343.57525634765625, 38.3339729309082, 2.6740283966064453, -0.01600000075995922, -0.08000000566244125, 1.040000081062317, 0.0, 0.0, 0.0, 0.0, 0.0, 1.621337507254558E9, 2021-05-18 13:31:47.254
80.0, -77.6010513305664, 250.94168090820312, -63.52968215942383, -87.01251220703125, -0.01600000075995922, -0.08000000566244125, 1.055999994277954, 0.0, 0.0, 0.0, 0.0, 0.0, 1.6213375072816432E9, 2021-05-18 13:31:47.281
80.0, -77.1373062133789, 256.7310485839844, -60.70231628417969, -80.83419799804688, -0.01600000075995922, -0.08000000566244125, 1.055999994277954, 0.0, 0.0, 0.0, 0.0, 0.0, 1.6213375072816432E9, 2021-05-18 13:31:47.281
81.0, -40.385311126708984, 301.5986328125, -19.320323944091797, -45.52206039428711, -0.01600000075995922, -0.08000000566244125, 1.055999994277954, 0.0, 0.0, 0.0, 0.0, 0.0, 1.6213375072823288E9, 2021-05-18 13:31:47.282
81.0, 2.3318276405334473, 344.6448669433594, 35.31961441040039, -2.909642219543457, -0.01600000075995922, -0.08000000566244125, 1.055999994277954, 0.0, 0.0, 0.0, 0.0, 0.0, 1.6213375072823288E9, 2021-05-18 13:31:47.282
82.0, -77.07746887207031, 258.53741455078125, -59.355953216552734, -89.5556411743164, -0.01600000075995922, -0.08000000566244125, 1.055999994277954, 0.0, 0.0, 0.0, 0.0, 0.0, 1.6213375072830777E9, 2021-05-18 13:31:47.283
82.0, -75.39451599121094, 267.9283142089844, -51.46476364135742, -77.56178283691406, -0.01600000075995922, -0.08000000566244125, 1.055999994277954, 0.0, 0.0, 0.0, 0.0, 0.0, 1.6213375072830777E9, 2021-05-18 13:31:47.283
83.0, -51.49281311035156, 289.51873779296875, -21.75499725341797, -52.36981964111328, -0.01600000075995922, -0.08000000566244125, 1.055999994277954, 0.0, 0.0, 0.0, 0.0, 0.0, 1.621337507283838E9, 2021-05-18 13:31:47.283
83.0, -1.8531204462051392, 349.2486877441406, 35.42807388305664, 2.8124048709869385, -0.01600000075995922, -0.08000000566244125, 1.055999994277954, 0.0, 0.0, 0.0, 0.0, 0.0, 1.621337507283838E9, 2021-05-18 13:31:47.283
84.0, -84.8041000366211, 260.9234619140625, -63.08089065551758, -76.44729614257812, -0.01600000075995922, -0.08000000566244125, 1.055999994277954, 0.0, 0.0, 0.0, 0.0, 0.0, 1.6213375072946107E9, 2021-05-18 13:31:47.294
84.0, -80.17410278320312, 267.760009765625, -53.19633865356445, -65.70256042480469, -0.01600000075995922, -0.08000000566244125, 1.055999994277954, 0.0, 0.0, 0.0, 0.0, 0.0, 1.6213375072946107E9, 2021-05-18 13:31:47.294
85.0, -51.631187438964844, 309.1719055175781, -21.081815719604492, -33.853572845458984, -0.01600000075995922, -0.08000000566244125, 1.055999994277954, 0.0, 0.0, 0.0, 0.0, 0.0, 1.6213375073259115E9, 2021-05-18 13:31:47.325
85.0, 2.7170372009277344, 351.5786437988281, 36.08255386352539, 12.19581413269043, -0.01600000075995922, -0.08000000566244125, 1.055999994277954, 0.0, 0.0, 0.0, 0.0, 0.0, 1.6213375073259115E9, 2021-05-18 13:31:47.325
86.0, -74.36604309082031, 261.1815185546875, -48.11007308959961, -70.81500244140625, -0.01600000075995922, -0.08000000566244125, 1.055999994277954, 0.0, 0.0, 0.0, 0.0, 0.0, 1.621337507326674E9, 2021-05-18 13:31:47.326
86.0, -76.84559631347656, 265.6432189941406, -45.73523712158203, -69.4985580444336, -0.01600000075995922, -0.08000000566244125, 1.055999994277954, 0.0, 0.0, 0.0, 0.0, 0.0, 1.621337507326674E9, 2021-05-18 13:31:47.326
87.0, -40.99491500854492, 300.03533935546875, 1.8624701499938965, -26.882400512695312, -0.01600000075995922, -0.08000000566244125, 1.055999994277954, 0.0, 0.0, 0.0, 0.0, 0.0, 1.6213375073274057E9, 2021-05-18 13:31:47.327
87.0, 7.376952648162842, 347.53582763671875, 54.636199951171875, 10.681154251098633, -0.01600000075995922, -0.08000000566244125, 1.055999994277954, 0.0, 0.0, 0.0, 0.0, 0.0, 1.6213375073274057E9, 2021-05-18 13:31:47.327
88.0, -62.7012939453125, 268.2574157714844, -38.89870071411133, -68.56732940673828, -0.01600000075995922, -0.08000000566244125, 1.055999994277954, 0.0, 0.0, 0.0, 0.0, 0.0, 1.621337507339588E9, 2021-05-18 13:31:47.339
88.0, -65.22946166992188, 256.1737976074219, -40.32360076904297, -71.24883270263672, -0.01600000075995922, -0.08000000566244125, 1.055999994277954, 0.0, 0.0, 0.0, 0.0, 0.0, 1.621337507339588E9, 2021-05-18 13:31:47.339
89.0, -35.28034591674805, 289.5898132324219, -4.629996299743652, -41.37825393676758, -0.01600000075995922, -0.08000000566244125, 1.055999994277954, 0.0, 0.0, 0.0, 0.0, 0.0, 1.6213375073553941E9, 2021-05-18 13:31:47.355
89.0, 5.207810878753662, 342.26629638671875, 38.22551727294922, 2.2140207290649414, -0.01600000075995922, -0.08000000566244125, 1.055999994277954, 0.0, 0.0, 0.0, 0.0, 0.0, 1.6213375073553941E9, 2021-05-18 13:31:47.355
90.0, -73.54700469970703, 255.22012329101562, -66.48419952392578, -85.09394073486328, -0.01600000075995922, -0.08000000566244125, 1.055999994277954, 0.0, 0.0, 0.0, 0.0, 0.0, 1.6213375073559976E9, 2021-05-18 13:31:47.355
90.0, -69.35457611083984, 258.03253173828125, -61.259559631347656, -71.47322845458984, -0.01600000075995922, -0.08000000566244125, 1.055999994277954, 0.0, 0.0, 0.0, 0.0, 0.0, 1.6213375073559976E9, 2021-05-18 13:31:47.355
91.0, -43.77739715576172, 304.6054992675781, -20.550750732421875, -45.82499313354492, -0.01600000075995922, -0.08000000566244125, 1.055999994277954, 0.0, 0.0, 0.0, 0.0, 0.0, 1.6213375073695657E9, 2021-05-18 13:31:47.369
91.0, 1.538968801498413, 351.178466796875, 32.682987213134766, 1.6792150735855103, -0.01600000075995922, -0.08000000566244125, 1.055999994277954, 0.0, 0.0, 0.0, 0.0, 0.0, 1.6213375073695657E9, 2021-05-18 13:31:47.369
92.0, -77.56739807128906, 253.91116333007812, -60.29092788696289, -83.0257797241211, -0.01600000075995922, -0.08000000566244125, 1.055999994277954, 0.0, 0.0, 0.0, 0.0, 0.0, 1.6213375073852284E9, 2021-05-18 13:31:47.385
92.0, -76.4977798461914, 265.56842041015625, -45.77263641357422, -82.1805648803711, -0.01600000075995922, -0.08000000566244125, 1.055999994277954, 0.0, 0.0, 0.0, 0.0, 0.0, 1.6213375073852284E9, 2021-05-18 13:31:47.385
93.0, -45.00034713745117, 299.58282470703125, -7.674274921417236, -45.02091598510742, -0.01600000075995922, -0.08000000566244125, 1.055999994277954, 0.0, 0.0, 0.0, 0.0, 0.0, 1.6213375073859746E9, 2021-05-18 13:31:47.385
93.0, 10.017321586608887, 350.8830261230469, 49.91644287109375, 4.809511184692383, -0.01600000075995922, -0.08000000566244125, 1.055999994277954, 0.0, 0.0, 0.0, 0.0, 0.0, 1.6213375073859746E9, 2021-05-18 13:31:47.385
94.0, -74.70262908935547, 267.6365966796875, -46.849727630615234, -75.54598236083984, -0.01600000075995922, -0.08000000566244125, 1.055999994277954, 0.0, 0.0, 0.0, 0.0, 0.0, 1.621337507399638E9, 2021-05-18 13:31:47.399
94.0, -71.84534454345703, 263.9453125, -42.74705505371094, -66.4056625366211, -0.01600000075995922, -0.08000000566244125, 1.055999994277954, 0.0, 0.0, 0.0, 0.0, 0.0, 1.621337507399638E9, 2021-05-18 13:31:47.399
95.0, -43.582923889160156, 305.3609619140625, -11.316937446594238, -35.33457565307617, -0.01600000075995922, -0.08000000566244125, 1.055999994277954, 0.0, 0.0, 0.0, 0.0, 0.0, 1.6213375074152367E9, 2021-05-18 13:31:47.415
95.0, 9.759268760681152, 354.5219421386719, 45.611820220947266, 13.998445510864258, -0.01600000075995922, -0.08000000566244125, 1.055999994277954, 0.0, 0.0, 0.0, 0.0, 0.0, 1.6213375074152367E9, 2021-05-18 13:31:47.415
96.0, -63.580169677734375, 267.51318359375, -42.05143356323242, -68.20829772949219, -0.01600000075995922, -0.08000000566244125, 1.055999994277954, 0.0, 0.0, 0.0, 0.0, 0.0, 1.6213375074159653E9, 2021-05-18 13:31:47.415
96.0, -61.9495735168457, 259.4275207519531, -33.329986572265625, -71.1815185546875, -0.01600000075995922, -0.08000000566244125, 1.055999994277954, 0.0, 0.0, 0.0, 0.0, 0.0, 1.6213375074159653E9, 2021-05-18 13:31:47.415
97.0, -26.67857551574707, 295.49884033203125, 6.556044578552246, -35.98531723022461, -0.01600000075995922, -0.08000000566244125, 1.055999994277954, 0.0, 0.0, 0.0, 0.0, 0.0, 1.6213375074295626E9, 2021-05-18 13:31:47.429
97.0, 29.730335235595703, 339.58477783203125, 62.37779235839844, 10.198707580566406, -0.01600000075995922, -0.08000000566244125, 1.055999994277954, 0.0, 0.0, 0.0, 0.0, 0.0, 1.6213375074295626E9, 2021-05-18 13:31:47.429
98.0, -46.395328521728516, 254.68905639648438, -31.81532859802246, -77.50942993164062, -0.01600000075995922, -0.08000000566244125, 1.055999994277954, 0.0, 0.0, 0.0, 0.0, 0.0, 1.6213375074452276E9, 2021-05-18 13:31:47.445
98.0, -56.893226623535156, 250.6611785888672, -34.62773513793945, -79.5514144897461, -0.01600000075995922, -0.08000000566244125, 1.055999994277954, 0.0, 0.0, 0.0, 0.0, 0.0, 1.6213375074452276E9, 2021-05-18 13:31:47.445
99.0, -25.68376350402832, 291.0408935546875, 5.269518852233887, -38.89495849609375, -0.01600000075995922, -0.08000000566244125, 1.055999994277954, 0.0, 0.0, 0.0, 0.0, 0.0, 1.621337507445966E9, 2021-05-18 13:31:47.445
99.0, 14.269588470458984, 340.07470703125, 45.39864730834961, 2.4122354984283447, -0.01600000075995922, -0.08000000566244125, 1.055999994277954, 0.0, 0.0, 0.0, 0.0, 0.0, 1.621337507445966E9, 2021-05-18 13:31:47.445
100.0, -71.8752670288086, 261.5966491699219, -59.445709228515625, -70.84866333007812, -0.01600000075995922, -0.08000000566244125, 1.055999994277954, 0.0, 0.0, 0.0, 0.0, 0.0, 1.621337507460719E9, 2021-05-18 13:31:47.460
100.0, -75.4880142211914, 265.29168701171875, -57.55706024169922, -64.40855407714844, -0.01600000075995922, -0.08000000566244125, 1.055999994277954, 0.0, 0.0, 0.0, 0.0, 0.0, 1.621337507460719E9, 2021-05-18 13:31:47.460
0.0, -53.54788589477539, 300.68609619140625, -26.85061264038086, -34.6370849609375, -0.01600000075995922, -0.08000000566244125, 1.055999994277954, 0.0, 0.0, 0.0, 0.0, 0.0, 1.6213375074756792E9, 2021-05-18 13:31:47.475
1.0, -4.136329174041748, 358.1683349609375, 28.705602645874023, 14.254629135131836, -0.01600000075995922, -0.08000000566244125, 1.055999994277954, 0.0, 0.0, 0.0, 0.0, 0.0, 1.6213375074909468E9, 2021-05-18 13:31:47.490
1.0, -86.23834991455078, 266.9746398925781, -59.600914001464844, -64.17481231689453, -0.01600000075995922, -0.08000000566244125, 1.055999994277954, 0.0, 0.0, 0.0, 0.0, 0.0, 1.6213375074909468E9, 2021-05-18 13:31:47.490
2.0, -83.10057830810547, 258.48504638671875, -54.73530578613281, -70.70093536376953, -0.01600000075995922, -0.08000000566244125, 1.055999994277954, 0.0, 0.0, 0.0, 0.0, 0.0, 1.621337507491684E9, 2021-05-18 13:31:47.491
2.0, -45.23408889770508, 299.6576232910156, -9.119746208190918, -33.45527648925781, -0.01600000075995922, -0.08000000566244125, 1.055999994277954, 0.0, 0.0, 0.0, 0.0, 0.0, 1.621337507491684E9, 2021-05-18 13:31:47.491
3.0, 6.398968696594238, 352.4089050292969, 49.4620475769043, 16.61076545715332, -0.01600000075995922, -0.08000000566244125, 1.055999994277954, 0.0, 0.0, 0.0, 0.0, 0.0, 1.6213375074924192E9, 2021-05-18 13:31:47.492
3.0, -64.65538787841797, 254.5357208251953, -41.204349517822266, -64.76571655273438, -0.01600000075995922, -0.08000000566244125, 1.055999994277954, 0.0, 0.0, 0.0, 0.0, 0.0, 1.6213375074924192E9, 2021-05-18 13:31:47.492
4.0, -62.80413818359375, 267.8049011230469, -38.16381072998047, -62.966827392578125, -0.01600000075995922, -0.08000000566244125, 1.055999994277954, 0.0, 0.0, 0.0, 0.0, 0.0, 1.621337507504568E9, 2021-05-18 13:31:47.504
4.0, -35.50286865234375, 290.1732177734375, -4.0185227394104, -33.79560470581055, -0.01600000075995922, -0.08000000566244125, 1.055999994277954, 0.0, 0.0, 0.0, 0.0, 0.0, 1.621337507504568E9, 2021-05-18 13:31:47.504
5.0, 13.676814079284668, 342.81231689453125, 42.45721435546875, 12.904524803161621, -0.01600000075995922, -0.08000000566244125, 1.055999994277954, 0.0, 0.0, 0.0, 0.0, 0.0, 1.6213375075206642E9, 2021-05-18 13:31:47.520
5.0, -69.10961151123047, 245.14483642578125, -52.34925079345703, -70.76451873779297, -0.01600000075995922, -0.08000000566244125, 1.055999994277954, 0.0, 0.0, 0.0, 0.0, 0.0, 1.6213375075206642E9, 2021-05-18 13:31:47.520
6.0, -66.89559173583984, 262.39324951171875, -50.04547119140625, -71.95380401611328, -0.01600000075995922, -0.08000000566244125, 1.055999994277954, 0.0, 0.0, 0.0, 0.0, 0.0, 1.6213375075353365E9, 2021-05-18 13:31:47.535
6.0, -36.22467041015625, 303.6256408691406, -10.828880310058594, -39.506431579589844, -0.01600000075995922, -0.08000000566244125, 1.055999994277954, 0.0, 0.0, 0.0, 0.0, 0.0, 1.6213375075353365E9, 2021-05-18 13:31:47.535
7.0, 8.224040031433105, 336.86962890625, 39.30821990966797, 2.784355401992798, -0.01600000075995922, -0.08000000566244125, 1.055999994277954, 0.0, 0.0, 0.0, 0.0, 0.0, 1.6213375075361135E9, 2021-05-18 13:31:47.536
7.0, -70.04084777832031, 243.3833465576172, -52.966331481933594, -76.10883331298828, -0.01600000075995922, -0.08000000566244125, 1.055999994277954, 0.0, 0.0, 0.0, 0.0, 0.0, 1.6213375075361135E9, 2021-05-18 13:31:47.536
8.0, -69.98474884033203, 257.01153564453125, -48.197959899902344, -74.99808502197266, -0.01600000075995922, -0.08000000566244125, 1.055999994277954, 0.0, 0.0, 0.0, 0.0, 0.0, 1.6213375075503297E9, 2021-05-18 13:31:47.550
8.0, -44.362693786621094, 282.2034912109375, -18.121685028076172, -51.31703567504883, -0.01600000075995922, -0.08000000566244125, 1.055999994277954, 0.0, 0.0, 0.0, 0.0, 0.0, 1.6213375075503297E9, 2021-05-18 13:31:47.550
9.0, 6.260592460632324, 334.83135986328125, 35.119529724121094, -2.952651023864746, -0.01600000075995922, -0.08000000566244125, 1.055999994277954, 0.0, 0.0, 0.0, 0.0, 0.0, 1.6213375075510592E9, 2021-05-18 13:31:47.551
9.0, -71.57046508789062, 251.0127410888672, -64.61611938476562, -98.3126220703125, -0.01600000075995922, -0.08000000566244125, 1.055999994277954, 0.0, 0.0, 0.0, 0.0, 0.0, 1.6213375075510592E9, 2021-05-18 13:31:47.551
10.0, -77.61040496826172, 257.2733154296875, -62.55543518066406, -94.44182586669922, -0.01600000075995922, -0.08000000566244125, 1.055999994277954, 0.0, 0.0, 0.0, 0.0, 0.0, 1.621337507581588E9, 2021-05-18 13:31:47.581
10.0, -41.165077209472656, 306.19122314453125, -15.212042808532715, -49.5443229675293, -0.01600000075995922, -0.08000000566244125, 1.055999994277954, 0.0, 0.0, 0.0, 0.0, 0.0, 1.621337507581588E9, 2021-05-18 13:31:47.581
11.0, 11.002785682678223, 351.2495422363281, 37.91697692871094, -1.5726279020309448, -0.01600000075995922, -0.08000000566244125, 1.055999994277954, 0.0, 0.0, 0.0, 0.0, 0.0, 1.6213375075823257E9, 2021-05-18 13:31:47.582
11.0, -68.75806427001953, 260.306396484375, -49.94823455810547, -81.44940948486328, -0.01600000075995922, -0.08000000566244125, 1.055999994277954, 0.0, 0.0, 0.0, 0.0, 0.0, 1.6213375075823257E9, 2021-05-18 13:31:47.582
12.0, -65.41458892822266, 263.1112976074219, -35.05221176147461, -71.92762756347656, -0.01600000075995922, -0.08000000566244125, 1.055999994277954, 0.0, 0.0, 0.0, 0.0, 0.0, 1.621337507583053E9, 2021-05-18 13:31:47.583
12.0, -33.146732330322266, 287.8956298828125, 6.655151844024658, -44.02049255371094, -0.01600000075995922, -0.08000000566244125, 1.055999994277954, 0.0, 0.0, 0.0, 0.0, 0.0, 1.621337507583053E9, 2021-05-18 13:31:47.583
13.0, 14.641708374023438, 339.59600830078125, 63.430572509765625, 5.8735127449035645, -0.01600000075995922, -0.08000000566244125, 1.055999994277954, 0.0, 0.0, 0.0, 0.0, 0.0, 1.6213375075945735E9, 2021-05-18 13:31:47.594
13.0, -62.20575714111328, 250.623779296875, -38.0703125, -70.43540954589844, -0.01600000075995922, -0.08000000566244125, 1.055999994277954, 0.0, 0.0, 0.0, 0.0, 0.0, 1.6213375075945735E9, 2021-05-18 13:31:47.594
14.0, -68.56732940673828, 246.29672241210938, -41.36516189575195, -73.07951354980469, -0.01600000075995922, -0.08000000566244125, 1.055999994277954, 0.0, 0.0, 0.0, 0.0, 0.0, 1.621337507610261E9, 2021-05-18 13:31:47.610
14.0, -37.88518524169922, 292.6004333496094, -1.6810849905014038, -28.776660919189453, -0.01600000075995922, -0.08000000566244125, 1.055999994277954, 0.0, 0.0, 0.0, 0.0, 0.0, 1.621337507610261E9, 2021-05-18 13:31:47.610
15.0, 8.459653854370117, 339.0873718261719, 39.10626220703125, 11.872312545776367, -0.01600000075995922, -0.08000000566244125, 1.055999994277954, 0.0, 0.0, 0.0, 0.0, 0.0, 1.621337507611009E9, 2021-05-18 13:31:47.611
15.0, -81.5223388671875, 244.3108367919922, -68.28870391845703, -76.80445861816406, -0.01600000075995922, -0.08000000566244125, 1.055999994277954, 0.0, 0.0, 0.0, 0.0, 0.0, 1.621337507611009E9, 2021-05-18 13:31:47.611
16.0, -82.38251495361328, 251.69338989257812, -75.11028289794922, -79.33262634277344, -0.01600000075995922, -0.08000000566244125, 1.055999994277954, 0.0, 0.0, 0.0, 0.0, 0.0, 1.6213375076416032E9, 2021-05-18 13:31:47.641
16.0, -44.95359802246094, 300.7384338378906, -21.151004791259766, -32.24354934692383, -0.01600000075995922, -0.08000000566244125, 1.055999994277954, 0.0, 0.0, 0.0, 0.0, 0.0, 1.6213375076416032E9, 2021-05-18 13:31:47.641
17.0, 1.2566063404083252, 343.5902099609375, 31.88077735900879, 4.874959468841553, -0.01600000075995922, -0.08000000566244125, 1.055999994277954, 0.0, 0.0, 0.0, 0.0, 0.0, 1.6213375076424234E9, 2021-05-18 13:31:47.642
17.0, -79.3344955444336, 253.2529296875, -62.67885208129883, -79.69165802001953, -0.01600000075995922, -0.08000000566244125, 1.055999994277954, 0.0, 0.0, 0.0, 0.0, 0.0, 1.6213375076424234E9, 2021-05-18 13:31:47.642
18.0, -79.60751342773438, 259.99224853515625, -52.465187072753906, -69.42189025878906, -0.01600000075995922, -0.08000000566244125, 1.055999994277954, 0.0, 0.0, 0.0, 0.0, 0.0, 1.6213375076430347E9, 2021-05-18 13:31:47.643
18.0, -52.755027770996094, 293.47930908203125, -18.746248245239258, -52.510066986083984, -0.01600000075995922, -0.08000000566244125, 1.055999994277954, 0.0, 0.0, 0.0, 0.0, 0.0, 1.6213375076430347E9, 2021-05-18 13:31:47.643
19.0, -4.895529270172119, 339.1285095214844, 31.510526657104492, -3.356560230255127, -0.01600000075995922, -0.08000000566244125, 1.055999994277954, 0.0, 0.0, 0.0, 0.0, 0.0, 1.6213375076545575E9, 2021-05-18 13:31:47.654
19.0, -82.82756805419922, 245.68338012695312, -58.1535758972168, -80.4471206665039, -0.01600000075995922, -0.08000000566244125, 1.055999994277954, 0.0, 0.0, 0.0, 0.0, 0.0, 1.6213375076545575E9, 2021-05-18 13:31:47.654
20.0, -85.10142517089844, 265.6881103515625, -53.2991828918457, -73.46846771240234, -0.01600000075995922, -0.08000000566244125, 1.055999994277954, 0.0, 0.0, 0.0, 0.0, 0.0, 1.6213375076702428E9, 2021-05-18 13:31:47.670
20.0, -54.479122161865234, 298.16912841796875, -19.453088760375977, -36.00588607788086, -0.01600000075995922, -0.08000000566244125, 1.055999994277954, 0.0, 0.0, 0.0, 0.0, 0.0, 1.6213375076702428E9, 2021-05-18 13:31:47.670
21.0, 4.128849506378174, 339.67828369140625, 28.739261627197266, 10.140738487243652, -0.01600000075995922, -0.08000000566244125, 1.055999994277954, 0.0, 0.0, 0.0, 0.0, 0.0, 1.6213375076709564E9, 2021-05-18 13:31:47.670
21.0, -74.39035034179688, 243.7274169921875, -65.46881866455078, -75.09906005859375, -0.01600000075995922, -0.08000000566244125, 1.055999994277954, 0.0, 0.0, 0.0, 0.0, 0.0, 1.6213375076709564E9, 2021-05-18 13:31:47.670
22.0, -70.39239501953125, 249.88702392578125, -59.821571350097656, -74.65775299072266, -0.01600000075995922, -0.08000000566244125, 1.055999994277954, 0.0, 0.0, 0.0, 0.0, 0.0, 1.6213375077015884E9, 2021-05-18 13:31:47.701
22.0, -40.72751235961914, 282.88043212890625, -17.957130432128906, -41.24922561645508, -0.01600000075995922, -0.08000000566244125, 1.055999994277954, 0.0, 0.0, 0.0, 0.0, 0.0, 1.6213375077015884E9, 2021-05-18 13:31:47.701
23.0, 9.648941993713379, 326.4278259277344, 40.31425094604492, 9.624632835388184, -0.01600000075995922, -0.08000000566244125, 1.055999994277954, 0.0, 0.0, 0.0, 0.0, 0.0, 1.6213375077023425E9, 2021-05-18 13:31:47.702
23.0, -77.99187469482422, 240.97109985351562, -56.14898681640625, -69.63507080078125, -0.01600000075995922, -0.08000000566244125, 1.055999994277954, 0.0, 0.0, 0.0, 0.0, 0.0, 1.6213375077023425E9, 2021-05-18 13:31:47.702
24.0, -76.77640533447266, 239.0188751220703, -48.27649688720703, -69.6724624633789, -0.01600000075995922, -0.08000000566244125, 1.055999994277954, 0.0, 0.0, 0.0, 0.0, 0.0, 1.6213375077030687E9, 2021-05-18 13:31:47.703
24.0, -45.047096252441406, 290.5135498046875, -5.204070568084717, -29.11699104309082, -0.01600000075995922, -0.08000000566244125, 1.055999994277954, 0.0, 0.0, 0.0, 0.0, 0.0, 1.6213375077030687E9, 2021-05-18 13:31:47.703
25.0, 2.7039477825164795, 333.2306823730469, 44.57025909423828, 12.889565467834473, -0.01600000075995922, -0.08000000566244125, 1.055999994277954, 0.0, 0.0, 0.0, 0.0, 0.0, 1.6213375077145228E9, 2021-05-18 13:31:47.714
25.0, -84.90320587158203, 245.32809448242188, -60.98841857910156, -78.74920654296875, -0.01600000075995922, -0.08000000566244125, 1.055999994277954, 0.0, 0.0, 0.0, 0.0, 0.0, 1.6213375077145228E9, 2021-05-18 13:31:47.714
26.0, -90.92818450927734, 250.964111328125, -70.2297134399414, -81.85331726074219, -0.01600000075995922, -0.08000000566244125, 1.055999994277954, 0.0, 0.0, 0.0, 0.0, 0.0, 1.6213375077302537E9, 2021-05-18 13:31:47.730
26.0, -60.02913284301758, 292.52935791015625, -30.033266067504883, -42.614288330078125, -0.01600000075995922, -0.08000000566244125, 1.055999994277954, 0.0, 0.0, 0.0, 0.0, 0.0, 1.6213375077302537E9, 2021-05-18 13:31:47.730
27.0, -0.9013158679008484, 348.2575988769531, 23.58568000793457, 3.0124893188476562, -0.01600000075995922, -0.08000000566244125, 1.055999994277954, 0.0, 0.0, 0.0, 0.0, 0.0, 1.621337507730972E9, 2021-05-18 13:31:47.730
27.0, -82.42739868164062, 253.2155303955078, -66.50851440429688, -80.11800384521484, -0.01600000075995922, -0.08000000566244125, 1.055999994277954, 0.0, 0.0, 0.0, 0.0, 0.0, 1.621337507730972E9, 2021-05-18 13:31:47.730
28.0, -78.56034088134766, 250.39564514160156, -55.894676208496094, -78.19195556640625, -0.01600000075995922, -0.08000000566244125, 1.055999994277954, 0.0, 0.0, 0.0, 0.0, 0.0, 1.6213375077610805E9, 2021-05-18 13:31:47.761
28.0, -49.20960235595703, 283.9911804199219, -10.469849586486816, -44.42066192626953, -0.01600000075995922, -0.08000000566244125, 1.055999994277954, 0.0, 0.0, 0.0, 0.0, 0.0, 1.6213375077610805E9, 2021-05-18 13:31:47.761
29.0, 3.747379779815674, 324.9468078613281, 47.838932037353516, 5.42472505569458, -0.01600000075995922, -0.08000000566244125, 1.055999994277954, 0.0, 0.0, 0.0, 0.0, 0.0, 1.6213375077616923E9, 2021-05-18 13:31:47.761
29.0, -79.08018493652344, 247.81138610839844, -61.149234771728516, -74.72881317138672, -0.01600000075995922, -0.08000000566244125, 1.055999994277954, 0.0, 0.0, 0.0, 0.0, 0.0, 1.6213375077616923E9, 2021-05-18 13:31:47.761
30.0, -73.84432220458984, 241.19175720214844, -53.01495361328125, -72.1333236694336, -0.01600000075995922, -0.08000000566244125, 1.055999994277954, 0.0, 0.0, 0.0, 0.0, 0.0, 1.621337507762427E9, 2021-05-18 13:31:47.762
30.0, -44.34025573730469, 283.56109619140625, -13.11021900177002, -39.71586608886719, -0.01600000075995922, -0.08000000566244125, 1.055999994277954, 0.0, 0.0, 0.0, 0.0, 0.0, 1.621337507762427E9, 2021-05-18 13:31:47.762
31.0, 5.632289409637451, 330.63519287109375, 34.278053283691406, 3.7193305492401123, -0.01600000075995922, -0.08000000566244125, 1.055999994277954, 0.0, 0.0, 0.0, 0.0, 0.0, 1.6213375077746272E9, 2021-05-18 13:31:47.774
31.0, -75.85265350341797, 242.1042938232422, -57.33079528808594, -78.11715698242188, -0.01600000075995922, -0.08000000566244125, 1.055999994277954, 0.0, 0.0, 0.0, 0.0, 0.0, 1.6213375077746272E9, 2021-05-18 13:31:47.774
32.0, -77.2625961303711, 260.0857238769531, -57.8543815612793, -69.01798248291016, -0.01600000075995922, -0.08000000566244125, 1.055999994277954, 0.0, 0.0, 0.0, 0.0, 0.0, 1.621337507790661E9, 2021-05-18 13:31:47.790
32.0, -52.253883361816406, 279.65289306640625, -23.488441467285156, -39.132442474365234, -0.01600000075995922, -0.08000000566244125, 1.055999994277954, 0.0, 0.0, 0.0, 0.0, 0.0, 1.621337507790661E9, 2021-05-18 13:31:47.790
33.0, -0.6208233833312988, 328.4698181152344, 36.91094207763672, 6.527995586395264, -0.01600000075995922, -0.08000000566244125, 1.055999994277954, 0.0, 0.0, 0.0, 0.0, 0.0, 1.6213375078066564E9, 2021-05-18 13:31:47.806
33.0, -86.17477416992188, 237.65380859375, -62.15526580810547, -78.1583023071289, -0.01600000075995922, -0.08000000566244125, 1.055999994277954, 0.0, 0.0, 0.0, 0.0, 0.0, 1.6213375078066564E9, 2021-05-18 13:31:47.806
34.0, -88.49725341796875, 243.7124481201172, -59.53359603881836, -77.52625274658203, -0.01600000075995922, -0.08000000566244125, 1.055999994277954, 0.0, 0.0, 0.0, 0.0, 0.0, 1.6213375078074365E9, 2021-05-18 13:31:47.807
34.0, -56.5098876953125, 286.7998352050781, -20.818153381347656, -43.85593795776367, -0.01600000075995922, -0.08000000566244125, 1.055999994277954, 0.0, 0.0, 0.0, 0.0, 0.0, 1.6213375078074365E9, 2021-05-18 13:31:47.807
35.0, -6.421408176422119, 333.57476806640625, 31.824678421020508, 0.5030165314674377, -0.01600000075995922, -0.08000000566244125, 1.055999994277954, 0.0, 0.0, 0.0, 0.0, 0.0, 1.6213375078081107E9, 2021-05-18 13:31:47.808
35.0, -89.48832702636719, 245.54873657226562, -63.16130065917969, -82.48536682128906, -0.01600000075995922, -0.08000000566244125, 1.055999994277954, 0.0, 0.0, 0.0, 0.0, 0.0, 1.6213375078081107E9, 2021-05-18 13:31:47.808
36.0, -95.76387786865234, 249.08668518066406, -65.43889617919922, -88.76091766357422, -0.01600000075995922, -0.08000000566244125, 1.055999994277954, 0.0, 0.0, 0.0, 0.0, 0.0, 1.6213375078352654E9, 2021-05-18 13:31:47.835
36.0, -59.5317268371582, 277.6819763183594, -28.039899826049805, -48.29145812988281, -0.01600000075995922, -0.08000000566244125, 1.055999994277954, 0.0, 0.0, 0.0, 0.0, 0.0, 1.6213375078352654E9, 2021-05-18 13:31:47.835
37.0, -13.867548942565918, 330.9905090332031, 21.906463623046875, -4.848780155181885, -0.01600000075995922, -0.08000000566244125, 1.055999994277954, 0.0, 0.0, 0.0, 0.0, 0.0, 1.6213375078359585E9, 2021-05-18 13:31:47.835
37.0, -92.76821899414062, 253.6418914794922, -73.57318115234375, -87.40707397460938, -0.01600000075995922, -0.08000000566244125, 1.055999994277954, 0.0, 0.0, 0.0, 0.0, 0.0, 1.6213375078359585E9, 2021-05-18 13:31:47.835
38.0, -84.27490234375, 244.1761932373047, -61.30257034301758, -78.73424530029297, -0.01600000075995922, -0.08000000566244125, 1.055999994277954, 0.0, 0.0, 0.0, 0.0, 0.0, 1.6213375078502352E9, 2021-05-18 13:31:47.850
38.0, -47.06664276123047, 278.0484619140625, -14.886672019958496, -34.71562194824219, -0.01600000075995922, -0.08000000566244125, 1.055999994277954, 0.0, 0.0, 0.0, 0.0, 0.0, 1.6213375078502352E9, 2021-05-18 13:31:47.850
39.0, 1.9971065521240234, 321.4163513183594, 40.905155181884766, 4.313974380493164, -0.01600000075995922, -0.08000000566244125, 1.055999994277954, 0.0, 0.0, 0.0, 0.0, 0.0, 1.621337507850998E9, 2021-05-18 13:31:47.850
39.0, -72.18380737304688, 236.3074493408203, -52.738197326660156, -83.02017211914062, -0.01600000075995922, -0.08000000566244125, 1.055999994277954, 0.0, 0.0, 0.0, 0.0, 0.0, 1.621337507850998E9, 2021-05-18 13:31:47.850
40.0, -72.4680404663086, 233.40902709960938, -45.295799255371094, -86.43470001220703, -0.01600000075995922, -0.08000000566244125, 1.055999994277954, 0.0, 0.0, 0.0, 0.0, 0.0, 1.6213375078806863E9, 2021-05-18 13:31:47.880
40.0, -45.316368103027344, 271.05859375, -11.920930862426758, -47.625755310058594, -0.01600000075995922, -0.08000000566244125, 1.055999994277954, 0.0, 0.0, 0.0, 0.0, 0.0, 1.6213375078806863E9, 2021-05-18 13:31:47.880
41.0, 3.6763217449188232, 322.6168518066406, 31.368410110473633, -3.382739543914795, -0.01600000075995922, -0.08000000566244125, 1.055999994277954, 0.0, 0.0, 0.0, 0.0, 0.0, 1.62133750788147E9, 2021-05-18 13:31:47.881
41.0, -84.68255615234375, 236.35232543945312, -74.44084167480469, -95.642333984375, -0.01600000075995922, -0.08000000566244125, 1.055999994277954, 0.0, 0.0, 0.0, 0.0, 0.0, 1.62133750788147E9, 2021-05-18 13:31:47.881
42.0, -88.9684829711914, 247.78146362304688, -75.9928970336914, -88.4168472290039, -0.01600000075995922, -0.08000000566244125, 1.055999994277954, 0.0, 0.0, 0.0, 0.0, 0.0, 1.621337507911664E9, 2021-05-18 13:31:47.911
42.0, -65.22759246826172, 284.62322998046875, -38.702354431152344, -52.68210220336914, -0.01600000075995922, -0.08000000566244125, 1.055999994277954, 0.0, 0.0, 0.0, 0.0, 0.0, 1.621337507911664E9, 2021-05-18 13:31:47.911
43.0, -10.475460052490234, 343.7697448730469, 19.673744201660156, -3.0947673320770264, -0.01600000075995922, -0.08000000566244125, 1.055999994277954, 0.0, 0.0, 0.0, 0.0, 0.0, 1.6213375079124284E9, 2021-05-18 13:31:47.912
43.0, -89.09937286376953, 250.02914428710938, -68.23260498046875, -88.9404296875, -0.01600000075995922, -0.08000000566244125, 1.055999994277954, 0.0, 0.0, 0.0, 0.0, 0.0, 1.6213375079124284E9, 2021-05-18 13:31:47.912
44.0, -85.46419525146484, 247.63560485839844, -61.6092414855957, -80.71265411376953, -0.01600000075995922, -0.08000000566244125, 1.055999994277954, 0.0, 0.0, 0.0, 0.0, 0.0, 1.621337507913125E9, 2021-05-18 13:31:47.913
44.0, -50.993534088134766, 283.3105163574219, -18.99308204650879, -41.37638473510742, -0.01600000075995922, -0.08000000566244125, 1.055999994277954, 0.0, 0.0, 0.0, 0.0, 0.0, 1.621337507913125E9, 2021-05-18 13:31:47.913
45.0, -1.4810004234313965, 320.4776306152344, 35.1120491027832, -0.9854636192321777, -0.01600000075995922, -0.08000000566244125, 1.055999994277954, 0.0, 0.0, 0.0, 0.0, 0.0, 1.6213375079139507E9, 2021-05-18 13:31:47.913
45.0, -82.3451156616211, 240.6644287109375, -63.69610595703125, -85.55207824707031, -0.01600000075995922, -0.08000000566244125, 1.055999994277954, 0.0, 0.0, 0.0, 0.0, 0.0, 1.6213375079139507E9, 2021-05-18 13:31:47.913
46.0, -76.00598907470703, 244.13131713867188, -56.167686462402344, -82.06275177001953, -0.01600000075995922, -0.08000000566244125, 1.055999994277954, 0.0, 0.0, 0.0, 0.0, 0.0, 1.6213375079246075E9, 2021-05-18 13:31:47.924
46.0, -54.5501823425293, 278.6244201660156, -29.38626480102539, -48.867401123046875, -0.01600000075995922, -0.08000000566244125, 1.055999994277954, 0.0, 0.0, 0.0, 0.0, 0.0, 1.6213375079246075E9, 2021-05-18 13:31:47.924
47.0, -3.429488182067871, 334.7790222167969, 28.585926055908203, -2.37670636177063, -0.01600000075995922, -0.08000000566244125, 1.055999994277954, 0.0, 0.0, 0.0, 0.0, 0.0, 1.6213375079402504E9, 2021-05-18 13:31:47.940
47.0, -91.1189193725586, 255.2089080810547, -68.4046401977539, -82.35072326660156, -0.01600000075995922, -0.08000000566244125, 1.055999994277954, 0.0, 0.0, 0.0, 0.0, 0.0, 1.6213375079402504E9, 2021-05-18 13:31:47.940
48.0, -86.32063293457031, 258.099853515625, -55.06815719604492, -73.35626983642578, -0.01600000075995922, -0.08000000566244125, 1.055999994277954, 0.0, 0.0, 0.0, 0.0, 0.0, 1.6213375079410093E9, 2021-05-18 13:31:47.941
48.0, -61.03142547607422, 285.29638671875, -19.838298797607422, -40.3703498840332, -0.01600000075995922, -0.08000000566244125, 1.055999994277954, 0.0, 0.0, 0.0, 0.0, 0.0, 1.6213375079410093E9, 2021-05-18 13:31:47.941
49.0, -0.531065821647644, 328.8026428222656, 33.87040328979492, 3.147125720977783, -0.01600000075995922, -0.08000000566244125, 1.055999994277954, 0.0, 0.0, 0.0, 0.0, 0.0, 1.6213375079709792E9, 2021-05-18 13:31:47.970
49.0, -81.9225082397461, 248.43968200683594, -64.47774505615234, -90.51119232177734, -0.01600000075995922, -0.08000000566244125, 1.055999994277954, 0.0, 0.0, 0.0, 0.0, 0.0, 1.6213375079709792E9, 2021-05-18 13:31:47.970
50.0, -80.54248809814453, 246.7006378173828, -52.4951057434082, -85.6081771850586, -0.01600000075995922, -0.08000000566244125, 1.055999994277954, 0.0, 0.0, 0.0, 0.0, 0.0, 1.6213375079717083E9, 2021-05-18 13:31:47.971
50.0, -47.95673751831055, 291.504638671875, -15.638391494750977, -51.65736770629883, -0.01600000075995922, -0.08000000566244125, 1.055999994277954, 0.0, 0.0, 0.0, 0.0, 0.0, 1.6213375079717083E9, 2021-05-18 13:31:47.971
51.0, -1.7577530145645142, 336.7985534667969, 30.343677520751953, -12.941924095153809, -0.01600000075995922, -0.08000000566244125, 1.055999994277954, 0.0, 0.0, 0.0, 0.0, 0.0, 1.6213375079724505E9, 2021-05-18 13:31:47.972
51.0, -74.47636413574219, 251.45404052734375, -57.899261474609375, -85.94477081298828, -0.01600000075995922, -0.08000000566244125, 1.055999994277954, 0.0, 0.0, 0.0, 0.0, 0.0, 1.6213375079724505E9, 2021-05-18 13:31:47.972
52.0, -88.40001678466797, 254.34124755859375, -65.99988555908203, -87.51927185058594, -0.01600000075995922, -0.08000000566244125, 1.055999994277954, 0.0, 0.0, 0.0, 0.0, 0.0, 1.6213375079846485E9, 2021-05-18 13:31:47.984
52.0, -58.435935974121094, 295.81298828125, -25.01058006286621, -44.44309997558594, -0.01600000075995922, -0.08000000566244125, 1.055999994277954, 0.0, 0.0, 0.0, 0.0, 0.0, 1.6213375079846485E9, 2021-05-18 13:31:47.984
53.0, -13.18688678741455, 331.36822509765625, 25.57904624938965, -1.5165294408798218, -0.01600000075995922, -0.08000000566244125, 1.055999994277954, 0.0, 0.0, 0.0, 0.0, 0.0, 1.6213375080002923E9, 2021-05-18 13:31:48.000
53.0, -96.87088775634766, 242.29129028320312, -72.11087799072266, -81.47184753417969, -0.01600000075995922, -0.08000000566244125, 1.055999994277954, 0.0, 0.0, 0.0, 0.0, 0.0, 1.6213375080002923E9, 2021-05-18 13:31:48.000
54.0, -89.16669464111328, 253.62692260742188, -66.2766342163086, -80.6079330444336, -0.01600000075995922, -0.08000000566244125, 1.055999994277954, 0.0, 0.0, 0.0, 0.0, 0.0, 1.6213375080010164E9, 2021-05-18 13:31:48.001
54.0, -51.823795318603516, 285.89105224609375, -20.75831413269043, -50.00433349609375, -0.01600000075995922, -0.08000000566244125, 1.055999994277954, 0.0, 0.0, 0.0, 0.0, 0.0, 1.6213375080010164E9, 2021-05-18 13:31:48.001
55.0, -5.250819683074951, 320.1073913574219, 31.678823471069336, 3.4238784313201904, -0.01600000075995922, -0.08000000566244125, 1.055999994277954, 0.0, 0.0, 0.0, 0.0, 0.0, 1.6213375080146167E9, 2021-05-18 13:31:48.014
55.0, -83.4521255493164, 235.2415771484375, -64.03269958496094, -80.02450561523438, -0.01600000075995922, -0.08000000566244125, 1.055999994277954, 0.0, 0.0, 0.0, 0.0, 0.0, 1.6213375080146167E9, 2021-05-18 13:31:48.014
56.0, -83.59798431396484, 243.60025024414062, -57.3719367980957, -81.1689224243164, -0.01600000075995922, -0.08000000566244125, 1.055999994277954, 0.0, 0.0, 0.0, 0.0, 0.0, 1.621337508030272E9, 2021-05-18 13:31:48.030
56.0, -55.6945915222168, 283.9275817871094, -24.44585609436035, -47.42753982543945, -0.01600000075995922, -0.08000000566244125, 1.055999994277954, 0.0, 0.0, 0.0, 0.0, 0.0, 1.621337508030272E9, 2021-05-18 13:31:48.030
57.0, -1.1070103645324707, 331.9853210449219, 27.362977981567383, -3.4762370586395264, -0.01600000075995922, -0.08000000566244125, 1.055999994277954, 0.0, 0.0, 0.0, 0.0, 0.0, 1.621337508031031E9, 2021-05-18 13:31:48.031
57.0, -86.21591186523438, 243.8358612060547, -72.41381072998047, -87.34723663330078, -0.01600000075995922, -0.08000000566244125, 1.055999994277954, 0.0, 0.0, 0.0, 0.0, 0.0, 1.621337508031031E9, 2021-05-18 13:31:48.031
58.0, -79.88800048828125, 251.6186065673828, -64.27953338623047, -79.51588439941406, -0.01600000075995922, -0.08000000566244125, 1.055999994277954, 0.0, 0.0, 0.0, 0.0, 0.0, 1.6213375080446444E9, 2021-05-18 13:31:48.044
58.0, -49.53123474121094, 286.39593505859375, -14.520161628723145, -42.69656753540039, -0.01600000075995922, -0.08000000566244125, 1.055999994277954, 0.0, 0.0, 0.0, 0.0, 0.0, 1.6213375080446444E9, 2021-05-18 13:31:48.044
59.0, -1.8512505292892456, 333.39898681640625, 41.712974548339844, 7.02166223526001, -0.01600000075995922, -0.08000000566244125, 1.055999994277954, 0.0, 0.0, 0.0, 0.0, 0.0, 1.621337508060388E9, 2021-05-18 13:31:48.060
59.0, -87.18828582763672, 239.16847229003906, -62.7312126159668, -81.81966400146484, -0.01600000075995922, -0.08000000566244125, 1.055999994277954, 0.0, 0.0, 0.0, 0.0, 0.0, 1.621337508060388E9, 2021-05-18 13:31:48.060
60.0, -81.11469268798828, 245.2869415283203, -48.355037689208984, -76.04151916503906, -0.01600000075995922, -0.08000000566244125, 1.055999994277954, 0.0, 0.0, 0.0, 0.0, 0.0, 1.621337508061013E9, 2021-05-18 13:31:48.061
60.0, -53.35341262817383, 282.4690246582031, -14.25088882446289, -47.26298522949219, -0.01600000075995922, -0.08000000566244125, 1.055999994277954, 0.0, 0.0, 0.0, 0.0, 0.0, 1.621337508061013E9, 2021-05-18 13:31:48.061
61.0, 2.7002077102661133, 326.1174011230469, 37.64396286010742, -3.6669719219207764, -0.01600000075995922, -0.08000000566244125, 1.055999994277954, 0.0, 0.0, 0.0, 0.0, 0.0, 1.6213375080745595E9, 2021-05-18 13:31:48.074
61.0, -82.20674133300781, 240.10719299316406, -61.55314254760742, -84.20571899414062, -0.01600000075995922, -0.08000000566244125, 1.055999994277954, 0.0, 0.0, 0.0, 0.0, 0.0, 1.6213375080745595E9, 2021-05-18 13:31:48.074
62.0, -82.96968078613281, 248.13674926757812, -58.68463897705078, -73.04585266113281, -0.01600000075995922, -0.08000000566244125, 1.055999994277954, 0.0, 0.0, 0.0, 0.0, 0.0, 1.6213375081051383E9, 2021-05-18 13:31:48.105
62.0, -55.264503479003906, 286.8746337890625, -22.445009231567383, -45.060184478759766, -0.01600000075995922, -0.08000000566244125, 1.055999994277954, 0.0, 0.0, 0.0, 0.0, 0.0, 1.6213375081051383E9, 2021-05-18 13:31:48.105
63.0, -1.1855483055114746, 335.5270080566406, 32.797054290771484, 0.024309350177645683, -0.01600000075995922, -0.08000000566244125, 1.055999994277954, 0.0, 0.0, 0.0, 0.0, 0.0, 1.621337508122499E9, 2021-05-18 13:31:48.122
63.0, -79.94036102294922, 243.23001098632812, -64.44034576416016, -85.60443878173828, -0.01600000075995922, -0.08000000566244125, 1.055999994277954, 0.0, 0.0, 0.0, 0.0, 0.0, 1.621337508122499E9, 2021-05-18 13:31:48.122
64.0, -83.37732696533203, 241.24411010742188, -69.5079116821289, -83.19220733642578, -0.01600000075995922, -0.08000000566244125, 1.055999994277954, 0.0, 0.0, 0.0, 0.0, 0.0, 1.6213375081231525E9, 2021-05-18 13:31:48.123
64.0, -50.0959587097168, 283.2057800292969, -22.48988914489746, -40.97247314453125, -0.01600000075995922, -0.08000000566244125, 1.055999994277954, 0.0, 0.0, 0.0, 0.0, 0.0, 1.6213375081231525E9, 2021-05-18 13:31:48.123
65.0, 1.3463640213012695, 336.16278076171875, 26.18490982055664, 3.625833034515381, -0.01600000075995922, -0.08000000566244125, 1.055999994277954, 0.0, 0.0, 0.0, 0.0, 0.0, 1.6213375081238568E9, 2021-05-18 13:31:48.123
65.0, -76.9447021484375, 242.45584106445312, -67.39112854003906, -86.2701416015625, -0.01600000075995922, -0.08000000566244125, 1.055999994277954, 0.0, 0.0, 0.0, 0.0, 0.0, 1.6213375081238568E9, 2021-05-18 13:31:48.123
66.0, -78.36212158203125, 238.36813354492188, -66.05598449707031, -86.34494018554688, -0.01600000075995922, -0.08000000566244125, 1.055999994277954, 0.0, 0.0, 0.0, 0.0, 0.0, 1.6213375081246555E9, 2021-05-18 13:31:48.124
66.0, -42.01029586791992, 278.00732421875, -20.444162368774414, -48.212921142578125, -0.01600000075995922, -0.08000000566244125, 1.055999994277954, 0.0, 0.0, 0.0, 0.0, 0.0, 1.6213375081246555E9, 2021-05-18 13:31:48.124
67.0, -0.4001692831516266, 338.14117431640625, 38.06283187866211, -3.435098171234131, -0.01600000075995922, -0.08000000566244125, 1.055999994277954, 0.0, 0.0, 0.0, 0.0, 0.0, 1.6213375081345985E9, 2021-05-18 13:31:48.134
67.0, -85.96160125732422, 248.09561157226562, -57.34575653076172, -84.43385314941406, -0.01600000075995922, -0.08000000566244125, 1.055999994277954, 0.0, 0.0, 0.0, 0.0, 0.0, 1.6213375081345985E9, 2021-05-18 13:31:48.134
68.0, -84.90320587158203, 241.8537139892578, -53.25056457519531, -79.24286651611328, -0.01600000075995922, -0.08000000566244125, 1.055999994277954, 0.0, 0.0, 0.0, 0.0, 0.0, 1.6213375081510053E9, 2021-05-18 13:31:48.151
68.0, -59.55790710449219, 281.1974792480469, -20.582538604736328, -45.482791900634766, -0.01600000075995922, -0.08000000566244125, 1.055999994277954, 0.0, 0.0, 0.0, 0.0, 0.0, 1.6213375081510053E9, 2021-05-18 13:31:48.151
69.0, -5.924001693725586, 333.7467956542969, 36.49581527709961, -0.895706057548523, -0.01600000075995922, -0.08000000566244125, 1.055999994277954, 0.0, 0.0, 0.0, 0.0, 0.0, 1.621337508151748E9, 2021-05-18 13:31:48.151
69.0, -77.3673095703125, 244.66612243652344, -57.312095642089844, -82.62000274658203, -0.01600000075995922, -0.08000000566244125, 1.055999994277954, 0.0, 0.0, 0.0, 0.0, 0.0, 1.621337508151748E9, 2021-05-18 13:31:48.151
70.0, -73.48529052734375, 240.88882446289062, -53.82651138305664, -81.87950134277344, -0.01600000075995922, -0.08000000566244125, 1.055999994277954, 0.0, 0.0, 0.0, 0.0, 0.0, 1.6213375081646461E9, 2021-05-18 13:31:48.164
70.0, -39.48960494995117, 273.194091796875, -11.82369327545166, -48.56072998046875, -0.01600000075995922, -0.08000000566244125, 1.055999994277954, 0.0, 0.0, 0.0, 0.0, 0.0, 1.6213375081646461E9, 2021-05-18 13:31:48.164
71.0, 3.9044556617736816, 323.1180114746094, 43.03315734863281, 0.7573297619819641, -0.01600000075995922, -0.08000000566244125, 1.055999994277954, 0.0, 0.0, 0.0, 0.0, 0.0, 1.6213375081804338E9, 2021-05-18 13:31:48.180
71.0, -78.38455963134766, 238.34194946289062, -57.3906364440918, -82.80325317382812, -0.01600000075995922, -0.08000000566244125, 1.055999994277954, 0.0, 0.0, 0.0, 0.0, 0.0, 1.6213375081804338E9, 2021-05-18 13:31:48.180
72.0, -84.35718536376953, 241.984619140625, -56.134029388427734, -81.87201690673828, -0.01600000075995922, -0.08000000566244125, 1.055999994277954, 0.0, 0.0, 0.0, 0.0, 0.0, 1.621337508181032E9, 2021-05-18 13:31:48.181
72.0, -53.57780838012695, 275.1911926269531, -17.766395568847656, -52.22957229614258, -0.01600000075995922, -0.08000000566244125, 1.055999994277954, 0.0, 0.0, 0.0, 0.0, 0.0, 1.621337508181032E9, 2021-05-18 13:31:48.181
73.0, 1.5707579851150513, 325.3843994140625, 39.34935760498047, -1.905479073524475, -0.01600000075995922, -0.08000000566244125, 1.055999994277954, 0.0, 0.0, 0.0, 0.0, 0.0, 1.6213375081946356E9, 2021-05-18 13:31:48.194
73.0, -85.63623046875, 237.7099151611328, -65.7343521118164, -85.12199401855469, -0.01600000075995922, -0.08000000566244125, 1.055999994277954, 0.0, 0.0, 0.0, 0.0, 0.0, 1.6213375081946356E9, 2021-05-18 13:31:48.194
74.0, -82.90235900878906, 246.8053436279297, -71.96128845214844, -85.77647399902344, -0.01600000075995922, -0.08000000566244125, 1.055999994277954, 0.0, 0.0, 0.0, 0.0, 0.0, 1.6213375082102776E9, 2021-05-18 13:31:48.210
74.0, -56.22565460205078, 283.43768310546875, -37.812259674072266, -53.05609130859375, -0.01600000075995922, -0.08000000566244125, 1.055999994277954, 0.0, 0.0, 0.0, 0.0, 0.0, 1.6213375082102776E9, 2021-05-18 13:31:48.210
75.0, -3.160215377807617, 340.6244812011719, 18.046886444091797, -7.735982894897461, -0.01600000075995922, -0.08000000566244125, 1.055999994277954, 0.0, 0.0, 0.0, 0.0, 0.0, 1.6213375082109673E9, 2021-05-18 13:31:48.210
75.0, -77.33364868164062, 250.52281188964844, -64.4104232788086, -87.49308776855469, -0.01600000075995922, -0.08000000566244125, 1.055999994277954, 0.0, 0.0, 0.0, 0.0, 0.0, 1.6213375082109673E9, 2021-05-18 13:31:48.210
76.0, -82.52088928222656, 244.1387939453125, -56.82965087890625, -91.83137512207031, -0.01600000075995922, -0.08000000566244125, 1.055999994277954, 0.0, 0.0, 0.0, 0.0, 0.0, 1.6213375082246168E9, 2021-05-18 13:31:48.224
76.0, -55.44401550292969, 278.68426513671875, -19.655044555664062, -51.930381774902344, -0.01600000075995922, -0.08000000566244125, 1.055999994277954, 0.0, 0.0, 0.0, 0.0, 0.0, 1.6213375082246168E9, 2021-05-18 13:31:48.224
77.0, -4.158768653869629, 335.66162109375, 38.807071685791016, 2.9937899112701416, -0.01600000075995922, -0.08000000566244125, 1.055999994277954, 0.0, 0.0, 0.0, 0.0, 0.0, 1.6213375082403212E9, 2021-05-18 13:31:48.240
77.0, -93.347900390625, 242.88592529296875, -66.56460571289062, -82.30210876464844, -0.01600000075995922, -0.08000000566244125, 1.055999994277954, 0.0, 0.0, 0.0, 0.0, 0.0, 1.6213375082403212E9, 2021-05-18 13:31:48.240
78.0, -94.20807647705078, 249.38587951660156, -64.99385070800781, -85.89241027832031, -0.01600000075995922, -0.08000000566244125, 1.055999994277954, 0.0, 0.0, 0.0, 0.0, 0.0, 1.6213375082410042E9, 2021-05-18 13:31:48.241
78.0, -62.994873046875, 273.2987976074219, -26.050273895263672, -47.962345123291016, -0.01600000075995922, -0.08000000566244125, 1.055999994277954, 0.0, 0.0, 0.0, 0.0, 0.0, 1.6213375082410042E9, 2021-05-18 13:31:48.241
79.0, -7.191827774047852, 335.7887878417969, 21.880285263061523, -1.086440920829773, -0.01600000075995922, -0.08000000566244125, 1.055999994277954, 0.0, 0.0, 0.0, 0.0, 0.0, 1.6213375082546773E9, 2021-05-18 13:31:48.254
79.0, -84.01311492919922, 238.34194946289062, -77.54121398925781, -85.26785278320312, -0.01600000075995922, -0.08000000566244125, 1.055999994277954, 0.0, 0.0, 0.0, 0.0, 0.0, 1.6213375082546773E9, 2021-05-18 13:31:48.254
80.0, -83.09683990478516, 236.71136474609375, -70.57378387451172, -83.55123138427734, -0.01600000075995922, -0.08000000566244125, 1.055999994277954, 0.0, 0.0, 0.0, 0.0, 0.0, 1.6213375082703145E9, 2021-05-18 13:31:48.270
80.0, -50.14457702636719, 287.091552734375, -22.415090560913086, -46.331748962402344, -0.01600000075995922, -0.08000000566244125, 1.055999994277954, 0.0, 0.0, 0.0, 0.0, 0.0, 1.6213375082703145E9, 2021-05-18 13:31:48.270
81.0, 1.7876721620559692, 320.44024658203125, 37.53924560546875, -1.6324663162231445, -0.01600000075995922, -0.08000000566244125, 1.055999994277954, 0.0, 0.0, 0.0, 0.0, 0.0, 1.621337508271054E9, 2021-05-18 13:31:48.271
81.0, -87.41641998291016, 235.52206420898438, -64.07757568359375, -88.91425323486328, -0.01600000075995922, -0.08000000566244125, 1.055999994277954, 0.0, 0.0, 0.0, 0.0, 0.0, 1.621337508271054E9, 2021-05-18 13:31:48.271
82.0, -81.1184310913086, 239.96881103515625, -58.9688720703125, -80.40972137451172, -0.01600000075995922, -0.08000000566244125, 1.055999994277954, 0.0, 0.0, 0.0, 0.0, 0.0, 1.6213375082847066E9, 2021-05-18 13:31:48.284
82.0, -57.291526794433594, 282.0052795410156, -22.00370216369629, -51.62744903564453, -0.01600000075995922, -0.08000000566244125, 1.055999994277954, 0.0, 0.0, 0.0, 0.0, 0.0, 1.6213375082847066E9, 2021-05-18 13:31:48.284
83.0, -10.539037704467773, 338.30572509765625, 31.02433967590332, 2.2046709060668945, -0.01600000075995922, -0.08000000566244125, 1.055999994277954, 0.0, 0.0, 0.0, 0.0, 0.0, 1.62133750830025E9, 2021-05-18 13:31:48.300
83.0, -94.8550796508789, 235.81752014160156, -73.43480682373047, -85.49972534179688, -0.01600000075995922, -0.08000000566244125, 1.055999994277954, 0.0, 0.0, 0.0, 0.0, 0.0, 1.62133750830025E9, 2021-05-18 13:31:48.300
84.0, -94.11832427978516, 238.44293212890625, -71.7742919921875, -89.50141906738281, -0.01600000075995922, -0.08000000566244125, 1.055999994277954, 0.0, 0.0, 0.0, 0.0, 0.0, 1.6213375083009727E9, 2021-05-18 13:31:48.300
84.0, -53.95927810668945, 276.1037292480469, -28.959915161132812, -54.00228500366211, -0.01600000075995922, -0.08000000566244125, 1.055999994277954, 0.0, 0.0, 0.0, 0.0, 0.0, 1.6213375083009727E9, 2021-05-18 13:31:48.300
85.0, 3.403308868408203, 331.5627136230469, 29.984647750854492, -8.05761432647705, -0.01600000075995922, -0.08000000566244125, 1.055999994277954, 0.0, 0.0, 0.0, 0.0, 0.0, 1.6213375083146772E9, 2021-05-18 13:31:48.314
85.0, -82.91358184814453, 237.77723693847656, -68.16902923583984, -93.43205261230469, -0.01600000075995922, -0.08000000566244125, 1.055999994277954, 0.0, 0.0, 0.0, 0.0, 0.0, 1.6213375083146772E9, 2021-05-18 13:31:48.314
86.0, -87.16958618164062, 248.5144805908203, -61.25020980834961, -89.36678314208984, -0.01600000075995922, -0.08000000566244125, 1.055999994277954, 0.0, 0.0, 0.0, 0.0, 0.0, 1.6213375083474388E9, 2021-05-18 13:31:48.347
86.0, -58.80618667602539, 281.5976257324219, -21.379138946533203, -55.09807586669922, -0.01600000075995922, -0.08000000566244125, 1.055999994277954, 0.0, 0.0, 0.0, 0.0, 0.0, 1.6213375083474388E9, 2021-05-18 13:31:48.347
87.0, -10.740992546081543, 328.5782470703125, 34.56602478027344, -7.414351463317871, -0.01600000075995922, -0.08000000566244125, 1.055999994277954, 0.0, 0.0, 0.0, 0.0, 0.0, 1.6213375083481736E9, 2021-05-18 13:31:48.348
87.0, -84.38336181640625, 239.51254272460938, -61.564361572265625, -92.12682342529297, -0.01600000075995922, -0.08000000566244125, 1.055999994277954, 0.0, 0.0, 0.0, 0.0, 0.0, 1.6213375083481736E9, 2021-05-18 13:31:48.348
88.0, -88.605712890625, 237.54534912109375, -58.845455169677734, -85.07711791992188, -0.01600000075995922, -0.08000000566244125, 1.055999994277954, 0.0, 0.0, 0.0, 0.0, 0.0, 1.6213375083489451E9, 2021-05-18 13:31:48.348
88.0, -59.744903564453125, 279.9296569824219, -24.041946411132812, -52.831695556640625, -0.01600000075995922, -0.08000000566244125, 1.055999994277954, 0.0, 0.0, 0.0, 0.0, 0.0, 1.6213375083489451E9, 2021-05-18 13:31:48.348
89.0, -1.634336233139038, 328.70916748046875, 33.05510711669922, 0.39455944299697876, -0.01600000075995922, -0.08000000566244125, 1.055999994277954, 0.0, 0.0, 0.0, 0.0, 0.0, 1.6213375083495643E9, 2021-05-18 13:31:48.349
89.0, -87.06487274169922, 240.65321350097656, -60.719146728515625, -75.09532165527344, -0.01600000075995922, -0.08000000566244125, 1.055999994277954, 0.0, 0.0, 0.0, 0.0, 0.0, 1.6213375083495643E9, 2021-05-18 13:31:48.349
90.0, -82.36381530761719, 246.25184631347656, -51.38435363769531, -73.26651000976562, -0.01600000075995922, -0.08000000566244125, 1.055999994277954, 0.0, 0.0, 0.0, 0.0, 0.0, 1.6213375083596475E9, 2021-05-18 13:31:48.359
90.0, -56.60338592529297, 276.60113525390625, -18.503154754638672, -47.68559265136719, -0.01600000075995922, -0.08000000566244125, 1.055999994277954, 0.0, 0.0, 0.0, 0.0, 0.0, 1.6213375083596475E9, 2021-05-18 13:31:48.359
91.0, -5.1535820960998535, 316.1056823730469, 36.372398376464844, 0.7461100220680237, -0.01600000075995922, -0.08000000566244125, 1.055999994277954, 0.0, 0.0, 0.0, 0.0, 0.0, 1.6213375083746417E9, 2021-05-18 13:31:48.374
91.0, -87.85025024414062, 228.98846435546875, -61.88225555419922, -86.60673522949219, -0.01600000075995922, -0.08000000566244125, 1.055999994277954, 0.0, 0.0, 0.0, 0.0, 0.0, 1.6213375083746417E9, 2021-05-18 13:31:48.374
92.0, -89.1741714477539, 238.4204864501953, -55.26637268066406, -79.66173553466797, -0.01600000075995922, -0.08000000566244125, 1.055999994277954, 0.0, 0.0, 0.0, 0.0, 0.0, 1.6213375084064333E9, 2021-05-18 13:31:48.406
92.0, -62.5199089050293, 278.8263854980469, -26.154991149902344, -48.13438415527344, -0.01600000075995922, -0.08000000566244125, 1.055999994277954, 0.0, 0.0, 0.0, 0.0, 0.0, 1.6213375084064333E9, 2021-05-18 13:31:48.406
93.0, -10.654974937438965, 332.3031921386719, 23.533321380615234, 0.5815544724464417, -0.01600000075995922, -0.08000000566244125, 1.055999994277954, 0.0, 0.0, 0.0, 0.0, 0.0, 1.6213375084214485E9, 2021-05-18 13:31:48.421
93.0, -90.42330169677734, 244.84564208984375, -73.06829833984375, -80.65655517578125, -0.01600000075995922, -0.08000000566244125, 1.055999994277954, 0.0, 0.0, 0.0, 0.0, 0.0, 1.6213375084214485E9, 2021-05-18 13:31:48.421
94.0, -87.27056884765625, 244.5726318359375, -65.63337707519531, -80.3087387084961, -0.01600000075995922, -0.08000000566244125, 1.055999994277954, 0.0, 0.0, 0.0, 0.0, 0.0, 1.6213375084221838E9, 2021-05-18 13:31:48.422
94.0, -54.53895950317383, 284.74664306640625, -20.975229263305664, -40.359130859375, -0.01600000075995922, -0.08000000566244125, 1.055999994277954, 0.0, 0.0, 0.0, 0.0, 0.0, 1.6213375084221838E9, 2021-05-18 13:31:48.422
95.0, 0.7031012177467346, 328.1855773925781, 36.757606506347656, 3.5360753536224365, -0.01600000075995922, -0.08000000566244125, 1.055999994277954, 0.0, 0.0, 0.0, 0.0, 0.0, 1.6213375084228792E9, 2021-05-18 13:31:48.422
95.0, -86.09249877929688, 239.1011505126953, -60.131980895996094, -82.4554443359375, -0.01600000075995922, -0.08000000566244125, 1.055999994277954, 0.0, 0.0, 0.0, 0.0, 0.0, 1.6213375084228792E9, 2021-05-18 13:31:48.422
96.0, -84.66759490966797, 234.26171875, -55.34864807128906, -80.5069580078125, -0.01600000075995922, -0.08000000566244125, 1.055999994277954, 0.0, 0.0, 0.0, 0.0, 0.0, 1.6213375084352915E9, 2021-05-18 13:31:48.435
96.0, -46.3036994934082, 273.63165283203125, -10.11829948425293, -41.69801330566406, -0.01600000075995922, -0.08000000566244125, 1.055999994277954, 0.0, 0.0, 0.0, 0.0, 0.0, 1.6213375084352915E9, 2021-05-18 13:31:48.435
97.0, 4.779592037200928, 330.5978088378906, 40.24693298339844, 6.389618873596191, -0.01600000075995922, -0.08000000566244125, 1.055999994277954, 0.0, 0.0, 0.0, 0.0, 0.0, 1.6213375084360087E9, 2021-05-18 13:31:48.436
97.0, -79.955322265625, 239.49758911132812, -57.28965759277344, -84.13839721679688, -0.01600000075995922, -0.08000000566244125, 1.055999994277954, 0.0, 0.0, 0.0, 0.0, 0.0, 1.6213375084360087E9, 2021-05-18 13:31:48.436
98.0, -75.32532501220703, 235.21913146972656, -48.220401763916016, -74.3847427368164, -0.01600000075995922, -0.08000000566244125, 1.055999994277954, 0.0, 0.0, 0.0, 0.0, 0.0, 1.6213375084656732E9, 2021-05-18 13:31:48.465
98.0, -46.789886474609375, 281.6088562011719, -9.699430465698242, -43.493167877197266, -0.01600000075995922, -0.08000000566244125, 1.055999994277954, 0.0, 0.0, 0.0, 0.0, 0.0, 1.6213375084656732E9, 2021-05-18 13:31:48.465
99.0, 1.469780683517456, 334.7864990234375, 38.896827697753906, 2.215890645980835, -0.01600000075995922, -0.08000000566244125, 1.055999994277954, 0.0, 0.0, 0.0, 0.0, 0.0, 1.6213375084820971E9, 2021-05-18 13:31:48.482
99.0, -84.16271209716797, 241.9472198486328, -60.78646469116211, -86.29631805419922, -0.01600000075995922, -0.08000000566244125, 1.055999994277954, 0.0, 0.0, 0.0, 0.0, 0.0, 1.6213375084820971E9, 2021-05-18 13:31:48.482
100.0, -79.95906066894531, 241.28900146484375, -57.551448822021484, -78.23310089111328, -0.01600000075995922, -0.08000000566244125, 1.055999994277954, 0.0, 0.0, 0.0, 0.0, 0.0, 1.621337508482695E9, 2021-05-18 13:31:48.482
100.0, -44.08219909667969, 280.3298034667969, -21.9962215423584, -39.895381927490234, -0.01600000075995922, -0.08000000566244125, 1.055999994277954, 0.0, 0.0, 0.0, 0.0, 0.0, 1.621337508482695E9, 2021-05-18 13:31:48.482
0.0, 8.577460289001465, 318.553466796875, 34.66887283325195, 10.387572288513184, -0.01600000075995922, -0.08000000566244125, 1.055999994277954, 0.0, 0.0, 0.0, 0.0, 0.0, 1.6213375084834342E9, 2021-05-18 13:31:48.483
1.0, -82.78829193115234, 232.8274688720703, -66.79835510253906, -80.43589782714844, -0.01600000075995922, -0.08000000566244125, 1.055999994277954, 0.0, 0.0, 0.0, 0.0, 0.0, 1.621337508496058E9, 2021-05-18 13:31:48.496
1.0, -83.24830627441406, 232.2328338623047, -57.51218032836914, -79.0633544921875, -0.01600000075995922, -0.08000000566244125, 1.055999994277954, 0.0, 0.0, 0.0, 0.0, 0.0, 1.621337508496058E9, 2021-05-18 13:31:48.496
2.0, -44.76099395751953, 278.12139892578125, -15.352289199829102, -38.896827697753906, -0.01600000075995922, -0.08000000566244125, 1.055999994277954, 0.0, 0.0, 0.0, 0.0, 0.0, 1.6213375084967172E9, 2021-05-18 13:31:48.496
2.0, 5.981969833374023, 328.52777099609375, 39.62049865722656, 12.814766883850098, -0.01600000075995922, -0.08000000566244125, 1.055999994277954, 0.0, 0.0, 0.0, 0.0, 0.0, 1.6213375084967172E9, 2021-05-18 13:31:48.496
3.0, -78.85018157958984, 228.2872314453125, -59.31481170654297, -78.20691680908203, -0.01600000075995922, -0.08000000566244125, 1.055999994277954, 0.0, 0.0, 0.0, 0.0, 0.0, 1.6213375084974508E9, 2021-05-18 13:31:48.497
3.0, -74.75872802734375, 234.1813201904297, -51.83875274658203, -71.46387481689453, -0.01600000075995922, -0.08000000566244125, 1.055999994277954, 0.0, 0.0, 0.0, 0.0, 0.0, 1.6213375084974508E9, 2021-05-18 13:31:48.497
4.0, -42.382415771484375, 278.3121337890625, -17.674766540527344, -44.93302917480469, -0.01600000075995922, -0.08000000566244125, 1.055999994277954, 0.0, 0.0, 0.0, 0.0, 0.0, 1.6213375085259652E9, 2021-05-18 13:31:48.525
4.0, 7.661185264587402, 329.4627380371094, 38.3526725769043, 6.591573715209961, -0.01600000075995922, -0.08000000566244125, 1.055999994277954, 0.0, 0.0, 0.0, 0.0, 0.0, 1.6213375085259652E9, 2021-05-18 13:31:48.525
5.0, -74.8671875, 243.6844024658203, -50.20815658569336, -75.03922271728516, -0.01600000075995922, -0.08000000566244125, 1.055999994277954, 0.0, 0.0, 0.0, 0.0, 0.0, 1.62133750852677E9, 2021-05-18 13:31:48.526
5.0, -75.73858642578125, 244.96343994140625, -45.02839660644531, -78.80530548095703, -0.01600000075995922, -0.08000000566244125, 1.055999994277954, 0.0, 0.0, 0.0, 0.0, 0.0, 1.62133750852677E9, 2021-05-18 13:31:48.526
6.0, -36.263938903808594, 284.9392395019531, -0.007479799911379814, -39.132442474365234, -0.01600000075995922, -0.08000000566244125, 1.055999994277954, 0.0, 0.0, 0.0, 0.0, 0.0, 1.62133750852742E9, 2021-05-18 13:31:48.527
6.0, 7.2310967445373535, 335.06512451171875, 48.11007308959961, 5.899692058563232, -0.01600000075995922, -0.08000000566244125, 1.055999994277954, 0.0, 0.0, 0.0, 0.0, 0.0, 1.62133750852742E9, 2021-05-18 13:31:48.527
7.0, -80.07686614990234, 235.64361572265625, -57.61689758300781, -79.4036865234375, -0.01600000075995922, -0.08000000566244125, 1.055999994277954, 0.0, 0.0, 0.0, 0.0, 0.0, 1.6213375085397205E9, 2021-05-18 13:31:48.539
7.0, -82.55268096923828, 241.216064453125, -55.27198028564453, -74.35108184814453, -0.01600000075995922, -0.08000000566244125, 1.055999994277954, 0.0, 0.0, 0.0, 0.0, 0.0, 1.6213375085397205E9, 2021-05-18 13:31:48.539
8.0, -50.071651458740234, 292.778076171875, -13.916167259216309, -38.0403938293457, -0.01600000075995922, -0.08000000566244125, 1.055999994277954, 0.0, 0.0, 0.0, 0.0, 0.0, 1.6213375085553272E9, 2021-05-18 13:31:48.555
8.0, 1.9877568483352661, 342.720703125, 39.50456237792969, 11.988249778747559, -0.01600000075995922, -0.08000000566244125, 1.055999994277954, 0.0, 0.0, 0.0, 0.0, 0.0, 1.6213375085553272E9, 2021-05-18 13:31:48.555
9.0, -77.0512924194336, 249.63084411621094, -52.912105560302734, -73.7826156616211, -0.01600000075995922, -0.08000000566244125, 1.055999994277954, 0.0, 0.0, 0.0, 0.0, 0.0, 1.6213375085560539E9, 2021-05-18 13:31:48.556
9.0, -73.38992309570312, 253.06781005859375, -49.84164810180664, -72.84764099121094, -0.01600000075995922, -0.08000000566244125, 1.055999994277954, 0.0, 0.0, 0.0, 0.0, 0.0, 1.6213375085560539E9, 2021-05-18 13:31:48.556
10.0, -45.299537658691406, 282.7027893066406, -17.932819366455078, -46.78801727294922, -0.01600000075995922, -0.08000000566244125, 1.055999994277954, 0.0, 0.0, 0.0, 0.0, 0.0, 1.6213375085859537E9, 2021-05-18 13:31:48.585
10.0, 5.787495136260986, 335.9888610839844, 36.123695373535156, 6.2549824714660645, -0.01600000075995922, -0.08000000566244125, 1.055999994277954, 0.0, 0.0, 0.0, 0.0, 0.0, 1.6213375085859537E9, 2021-05-18 13:31:48.585
11.0, -79.83003234863281, 242.02761840820312, -62.12721633911133, -81.46810913085938, -0.01600000075995922, -0.08000000566244125, 1.055999994277954, 0.0, 0.0, 0.0, 0.0, 0.0, 1.6213375085866654E9, 2021-05-18 13:31:48.586
11.0, -78.98855590820312, 250.14694213867188, -59.546688079833984, -75.70492553710938, -0.01600000075995922, -0.08000000566244125, 1.055999994277954, 0.0, 0.0, 0.0, 0.0, 0.0, 1.6213375085866654E9, 2021-05-18 13:31:48.586
12.0, -42.36371612548828, 289.1354064941406, -14.331296920776367, -38.00673294067383, -0.01600000075995922, -0.08000000566244125, 1.055999994277954, 0.0, 0.0, 0.0, 0.0, 0.0, 1.621337508587402E9, 2021-05-18 13:31:48.587
12.0, 2.028895616531372, 329.3655090332031, 36.33686828613281, 5.1404924392700195, -0.01600000075995922, -0.08000000566244125, 1.055999994277954, 0.0, 0.0, 0.0, 0.0, 0.0, 1.621337508587402E9, 2021-05-18 13:31:48.587
13.0, -77.496337890625, 249.88516235351562, -58.7687873840332, -73.8274917602539, -0.01600000075995922, -0.08000000566244125, 1.055999994277954, 0.0, 0.0, 0.0, 0.0, 0.0, 1.6213375085995927E9, 2021-05-18 13:31:48.599
13.0, -72.66812896728516, 255.78671264648438, -49.78554916381836, -72.52974700927734, -0.01600000075995922, -0.08000000566244125, 1.055999994277954, 0.0, 0.0, 0.0, 0.0, 0.0, 1.6213375085995927E9, 2021-05-18 13:31:48.599
14.0, -39.07634353637695, 289.22515869140625, -5.763185977935791, -40.17961502075195, -0.01600000075995922, -0.08000000566244125, 1.055999994277954, 0.0, 0.0, 0.0, 0.0, 0.0, 1.6213375086450205E9, 2021-05-18 13:31:48.645
14.0, 7.047841548919678, 337.7391357421875, 40.74995040893555, 3.92502498626709, -0.01600000075995922, -0.08000000566244125, 1.055999994277954, 0.0, 0.0, 0.0, 0.0, 0.0, 1.6213375086450205E9, 2021-05-18 13:31:48.645
15.0, -72.18942260742188, 246.56787109375, -49.75563049316406, -71.9575424194336, -0.01600000075995922, -0.08000000566244125, 1.055999994277954, 0.0, 0.0, 0.0, 0.0, 0.0, 1.621337508661618E9, 2021-05-18 13:31:48.661
15.0, -68.83847045898438, 258.4644775390625, -47.07038116455078, -72.16323852539062, -0.01600000075995922, -0.08000000566244125, 1.055999994277954, 0.0, 0.0, 0.0, 0.0, 0.0, 1.621337508661618E9, 2021-05-18 13:31:48.661
16.0, -40.187095642089844, 287.2916259765625, -5.5350518226623535, -35.037254333496094, -0.01600000075995922, -0.08000000566244125, 1.055999994277954, 0.0, 0.0, 0.0, 0.0, 0.0, 1.6213375086624117E9, 2021-05-18 13:31:48.662
16.0, 14.232189178466797, 350.5632629394531, 48.30828857421875, 14.38552474975586, -0.01600000075995922, -0.08000000566244125, 1.055999994277954, 0.0, 0.0, 0.0, 0.0, 0.0, 1.6213375086624117E9, 2021-05-18 13:31:48.662
17.0, -72.75414276123047, 253.3034210205078, -46.45329666137695, -73.21788787841797, -0.01600000075995922, -0.08000000566244125, 1.055999994277954, 0.0, 0.0, 0.0, 0.0, 0.0, 1.6213375086773417E9, 2021-05-18 13:31:48.677
17.0, -74.4221420288086, 260.0801086425781, -47.10029983520508, -68.98432159423828, -0.01600000075995922, -0.08000000566244125, 1.055999994277954, 0.0, 0.0, 0.0, 0.0, 0.0, 1.6213375086773417E9, 2021-05-18 13:31:48.677
18.0, -35.8936882019043, 297.2846374511719, -0.044878799468278885, -31.323532104492188, -0.01600000075995922, -0.08000000566244125, 1.055999994277954, 0.0, 0.0, 0.0, 0.0, 0.0, 1.6213375086780562E9, 2021-05-18 13:31:48.678
18.0, 19.13519859313965, 344.1231689453125, 55.92646408081055, 14.57625961303711, -0.01600000075995922, -0.08000000566244125, 1.055999994277954, 0.0, 0.0, 0.0, 0.0, 0.0, 1.6213375086780562E9, 2021-05-18 13:31:48.678
19.0, -65.05742645263672, 255.87648010253906, -46.15784454345703, -72.24925994873047, -0.01600000075995922, -0.08000000566244125, 1.055999994277954, 0.0, 0.0, 0.0, 0.0, 0.0, 1.6213375086788027E9, 2021-05-18 13:31:48.678
19.0, -67.85113525390625, 255.98118591308594, -50.51108932495117, -73.14683532714844, -0.01600000075995922, -0.08000000566244125, 1.055999994277954, 0.0, 0.0, 0.0, 0.0, 0.0, 1.6213375086788027E9, 2021-05-18 13:31:48.678
20.0, -33.32811737060547, 296.921875, -16.025470733642578, -36.66410827636719, -0.01600000075995922, -0.08000000566244125, 1.055999994277954, 0.0, 0.0, 0.0, 0.0, 0.0, 1.6213375086795664E9, 2021-05-18 13:31:48.679
20.0, 15.380338668823242, 345.5069274902344, 43.53617477416992, 10.039761543273926, -0.01600000075995922, -0.08000000566244125, 1.055999994277954, 0.0, 0.0, 0.0, 0.0, 0.0, 1.6213375086795664E9, 2021-05-18 13:31:48.679
21.0, -74.01074981689453, 252.25625610351562, -44.62448501586914, -71.31802368164062, -0.01600000075995922, -0.08000000566244125, 1.055999994277954, 0.0, 0.0, 0.0, 0.0, 0.0, 1.621337508690299E9, 2021-05-18 13:31:48.690
21.0, -73.14683532714844, 260.6336364746094, -47.06290054321289, -68.845947265625, -0.01600000075995922, -0.08000000566244125, 1.055999994277954, 0.0, 0.0, 0.0, 0.0, 0.0, 1.621337508690299E9, 2021-05-18 13:31:48.690
22.0, -36.226539611816406, 299.7866516113281, -1.7203539609909058, -32.28842544555664, -0.01600000075995922, -0.08000000566244125, 1.055999994277954, 0.0, 0.0, 0.0, 0.0, 0.0, 1.6213375086909971E9, 2021-05-18 13:31:48.690
22.0, 11.505802154541016, 340.55902099609375, 50.12213897705078, 14.38552474975586, -0.01600000075995922, -0.08000000566244125, 1.055999994277954, 0.0, 0.0, 0.0, 0.0, 0.0, 1.6213375086909971E9, 2021-05-18 13:31:48.690
23.0, -80.43215942382812, 252.39462280273438, -56.760459899902344, -75.85452270507812, -0.01600000075995922, -0.08000000566244125, 1.055999994277954, 0.0, 0.0, 0.0, 0.0, 0.0, 1.621337508705366E9, 2021-05-18 13:31:48.705
23.0, -69.13391876220703, 261.0300598144531, -44.08967971801758, -62.237545013427734, -0.01600000075995922, -0.08000000566244125, 1.055999994277954, 0.0, 0.0, 0.0, 0.0, 0.0, 1.621337508705366E9, 2021-05-18 13:31:48.705
24.0, -39.046424865722656, 304.1361389160156, -12.207033157348633, -29.1730899810791, -0.01600000075995922, -0.08000000566244125, 1.055999994277954, 0.0, 0.0, 0.0, 0.0, 0.0, 1.6213375087061083E9, 2021-05-18 13:31:48.706
24.0, 13.04664134979248, 343.6855773925781, 45.15181350708008, 18.948204040527344, -0.01600000075995922, -0.08000000566244125, 1.055999994277954, 0.0, 0.0, 0.0, 0.0, 0.0, 1.6213375087061083E9, 2021-05-18 13:31:48.706
25.0, -67.6192626953125, 261.9874572753906, -51.97713088989258, -69.47798919677734, -0.01600000075995922, -0.08000000566244125, 1.055999994277954, 0.0, 0.0, 0.0, 0.0, 0.0, 1.6213375087195885E9, 2021-05-18 13:31:48.719
25.0, -68.21764373779297, 280.03997802734375, -38.498531341552734, -67.97080993652344, -0.01600000075995922, -0.08000000566244125, 1.055999994277954, 0.0, 0.0, 0.0, 0.0, 0.0, 1.6213375087195885E9, 2021-05-18 13:31:48.719
26.0, -38.893089294433594, 299.86517333984375, -0.41138899326324463, -31.248733520507812, -0.01600000075995922, -0.08000000566244125, 1.055999994277954, 0.0, 0.0, 0.0, 0.0, 0.0, 1.6213375087352636E9, 2021-05-18 13:31:48.735
26.0, 11.00091552734375, 346.9093933105469, 54.93539047241211, 24.39723777770996, -0.01600000075995922, -0.08000000566244125, 1.055999994277954, 0.0, 0.0, 0.0, 0.0, 0.0, 1.6213375087352636E9, 2021-05-18 13:31:48.735
27.0, -70.62614440917969, 261.3703918457031, -46.62907409667969, -60.244178771972656, -0.01600000075995922, -0.08000000566244125, 1.055999994277954, 0.0, 0.0, 0.0, 0.0, 0.0, 1.6213375087359767E9, 2021-05-18 13:31:48.735
27.0, -67.46218872070312, 262.90374755859375, -42.66477966308594, -66.20932006835938, -0.01600000075995922, -0.08000000566244125, 1.055999994277954, 0.0, 0.0, 0.0, 0.0, 0.0, 1.6213375087359767E9, 2021-05-18 13:31:48.735
28.0, -32.4417610168457, 299.2817687988281, -5.273259162902832, -34.13967514038086, -0.01600000075995922, -0.08000000566244125, 1.055999994277954, 0.0, 0.0, 0.0, 0.0, 0.0, 1.6213375087495968E9, 2021-05-18 13:31:48.749
28.0, 11.741415977478027, 343.9361572265625, 45.088233947753906, 15.933843612670898, -0.01600000075995922, -0.08000000566244125, 1.055999994277954, 0.0, 0.0, 0.0, 0.0, 0.0, 1.6213375087495968E9, 2021-05-18 13:31:48.749
29.0, -66.46736907958984, 256.8787536621094, -57.94601058959961, -68.20642852783203, -0.01600000075995922, -0.08000000566244125, 1.055999994277954, 0.0, 0.0, 0.0, 0.0, 0.0, 1.6213375087973206E9, 2021-05-18 13:31:48.797
29.0, -68.93570709228516, 275.6717529296875, -53.525447845458984, -64.79563903808594, -0.01600000075995922, -0.08000000566244125, 1.055999994277954, 0.0, 0.0, 0.0, 0.0, 0.0, 1.6213375087973206E9, 2021-05-18 13:31:48.797
30.0, -35.085872650146484, 293.8476867675781, -9.080476760864258, -25.807180404663086, -0.01600000075995922, -0.08000000566244125, 1.055999994277954, 0.0, 0.0, 0.0, 0.0, 0.0, 1.6213375087981093E9, 2021-05-18 13:31:48.798
30.0, 15.937583923339844, 340.0391845703125, 44.38887405395508, 16.693042755126953, -0.01600000075995922, -0.08000000566244125, 1.055999994277954, 0.0, 0.0, 0.0, 0.0, 0.0, 1.6213375087981093E9, 2021-05-18 13:31:48.798
31.0, -68.23634338378906, 255.13597106933594, -49.78180694580078, -70.94029235839844, -0.01600000075995922, -0.08000000566244125, 1.055999994277954, 0.0, 0.0, 0.0, 0.0, 0.0, 1.6213375087988017E9, 2021-05-18 13:31:48.798
31.0, -69.58271026611328, 257.5706481933594, -47.86323928833008, -69.34335327148438, -0.01600000075995922, -0.08000000566244125, 1.055999994277954, 0.0, 0.0, 0.0, 0.0, 0.0, 1.6213375087988017E9, 2021-05-18 13:31:48.798
32.0, -36.06198501586914, 288.4435119628906, -2.4047555923461914, -27.598590850830078, -0.01600000075995922, -0.08000000566244125, 1.055999994277954, 0.0, 0.0, 0.0, 0.0, 0.0, 1.6213375087995553E9, 2021-05-18 13:31:48.799
32.0, 6.370919704437256, 333.3709411621094, 43.14348602294922, 14.912851333618164, -0.01600000075995922, -0.08000000566244125, 1.055999994277954, 0.0, 0.0, 0.0, 0.0, 0.0, 1.6213375087995553E9, 2021-05-18 13:31:48.799
33.0, -73.27024841308594, 250.19557189941406, -55.12238693237305, -69.88189697265625, -0.01600000075995922, -0.08000000566244125, 1.055999994277954, 0.0, 0.0, 0.0, 0.0, 0.0, 1.6213375088102973E9, 2021-05-18 13:31:48.810
33.0, -61.616722106933594, 268.2293701171875, -43.109825134277344, -55.76751708984375, -0.01600000075995922, -0.08000000566244125, 1.055999994277954, 0.0, 0.0, 0.0, 0.0, 0.0, 1.6213375088102973E9, 2021-05-18 13:31:48.810
34.0, -36.1330451965332, 303.459228515625, -10.26976490020752, -27.6472110748291, -0.01600000075995922, -0.08000000566244125, 1.055999994277954, 0.0, 0.0, 0.0, 0.0, 0.0, 1.621337508811036E9, 2021-05-18 13:31:48.811
34.0, 16.150758743286133, 346.40447998046875, 43.54365539550781, 18.839746475219727, -0.01600000075995922, -0.08000000566244125, 1.055999994277954, 0.0, 0.0, 0.0, 0.0, 0.0, 1.621337508811036E9, 2021-05-18 13:31:48.811
35.0, -72.46990966796875, 252.7012939453125, -60.37694549560547, -66.52346801757812, -0.01600000075995922, -0.08000000566244125, 1.055999994277954, 0.0, 0.0, 0.0, 0.0, 0.0, 1.6213375088254561E9, 2021-05-18 13:31:48.825
35.0, -68.45326232910156, 264.8971252441406, -53.64512634277344, -63.83074188232422, -0.01600000075995922, -0.08000000566244125, 1.055999994277954, 0.0, 0.0, 0.0, 0.0, 0.0, 1.6213375088254561E9, 2021-05-18 13:31:48.825
36.0, -36.35369873046875, 309.8581848144531, -8.04078483581543, -25.571565628051758, -0.01600000075995922, -0.08000000566244125, 1.055999994277954, 0.0, 0.0, 0.0, 0.0, 0.0, 1.6213375088261845E9, 2021-05-18 13:31:48.826
36.0, 12.388418197631836, 362.7852478027344, 44.658145904541016, 21.057506561279297, -0.01600000075995922, -0.08000000566244125, 1.055999994277954, 0.0, 0.0, 0.0, 0.0, 0.0, 1.6213375088261845E9, 2021-05-18 13:31:48.826
37.0, -75.77972412109375, 265.86199951171875, -51.101993560791016, -66.1532211303711, -0.01600000075995922, -0.08000000566244125, 1.055999994277954, 0.0, 0.0, 0.0, 0.0, 0.0, 1.621337508839654E9, 2021-05-18 13:31:48.839
37.0, -71.4152603149414, 270.2377014160156, -41.04540252685547, -61.60550308227539, -0.01600000075995922, -0.08000000566244125, 1.055999994277954, 0.0, 0.0, 0.0, 0.0, 0.0, 1.621337508839654E9, 2021-05-18 13:31:48.839
38.0, -30.489534378051758, 319.19671630859375, 0.8601769804954529, -22.216875076293945, -0.01600000075995922, -0.08000000566244125, 1.055999994277954, 0.0, 0.0, 0.0, 0.0, 0.0, 1.621337508855998E9, 2021-05-18 13:31:48.855
38.0, 17.100692749023438, 343.2255859375, 49.609771728515625, 20.806934356689453, -0.01600000075995922, -0.08000000566244125, 1.055999994277954, 0.0, 0.0, 0.0, 0.0, 0.0, 1.621337508855998E9, 2021-05-18 13:31:48.855
39.0, -62.72747039794922, 261.8565673828125, -50.54100799560547, -62.97804641723633, -0.01600000075995922, -0.08000000566244125, 1.055999994277954, 0.0, 0.0, 0.0, 0.0, 0.0, 1.621337508856748E9, 2021-05-18 13:31:48.856
39.0, -65.71565246582031, 266.9989318847656, -37.48127746582031, -59.3615608215332, -0.01600000075995922, -0.08000000566244125, 1.055999994277954, 0.0, 0.0, 0.0, 0.0, 0.0, 1.621337508856748E9, 2021-05-18 13:31:48.856
40.0, -32.711036682128906, 311.6570739746094, -2.7824854850769043, -17.08573341369629, -0.01600000075995922, -0.08000000566244125, 1.055999994277954, 0.0, 0.0, 0.0, 0.0, 0.0, 1.621337508869603E9, 2021-05-18 13:31:48.869
40.0, 10.421231269836426, 343.1096496582031, 39.90099334716797, 23.13315200805664, -0.01600000075995922, -0.08000000566244125, 1.055999994277954, 0.0, 0.0, 0.0, 0.0, 0.0, 1.621337508869603E9, 2021-05-18 13:31:48.869
41.0, -75.21499633789062, 261.93511962890625, -60.3245849609375, -66.14199829101562, -0.01600000075995922, -0.08000000566244125, 1.055999994277954, 0.0, 0.0, 0.0, 0.0, 0.0, 1.6213375088857017E9, 2021-05-18 13:31:48.885
41.0, -65.98866271972656, 265.8507995605469, -50.959877014160156, -59.275543212890625, -0.01600000075995922, -0.08000000566244125, 1.055999994277954, 0.0, 0.0, 0.0, 0.0, 0.0, 1.6213375088857017E9, 2021-05-18 13:31:48.885
42.0, -28.94869613647461, 310.407958984375, -0.9686340689659119, -16.524747848510742, -0.01600000075995922, -0.08000000566244125, 1.055999994277954, 0.0, 0.0, 0.0, 0.0, 0.0, 1.6213375089003544E9, 2021-05-18 13:31:48.900
42.0, 15.342939376831055, 340.66375732421875, 51.61436080932617, 17.69159698486328, -0.01600000075995922, -0.08000000566244125, 1.055999994277954, 0.0, 0.0, 0.0, 0.0, 0.0, 1.6213375089003544E9, 2021-05-18 13:31:48.900
43.0, -61.51948547363281, 257.19293212890625, -36.26580810546875, -58.837974548339844, -0.01600000075995922, -0.08000000566244125, 1.055999994277954, 0.0, 0.0, 0.0, 0.0, 0.0, 1.6213375089010148E9, 2021-05-18 13:31:48.901
43.0, -63.46797180175781, 259.2610778808594, -37.5186767578125, -63.673667907714844, -0.01600000075995922, -0.08000000566244125, 1.055999994277954, 0.0, 0.0, 0.0, 0.0, 0.0, 1.6213375089010148E9, 2021-05-18 13:31:48.901
44.0, -29.47228240966797, 297.7558898925781, 0.8414775133132935, -27.52753448486328, -0.01600000075995922, -0.08000000566244125, 1.055999994277954, 0.0, 0.0, 0.0, 0.0, 0.0, 1.6213375089153347E9, 2021-05-18 13:31:48.915
44.0, 23.750234603881836, 341.1387023925781, 48.226009368896484, 14.867972373962402, -0.01600000075995922, -0.08000000566244125, 1.055999994277954, 0.0, 0.0, 0.0, 0.0, 0.0, 1.6213375089153347E9, 2021-05-18 13:31:48.915
45.0, -61.37736892700195, 265.7161560058594, -50.35027313232422, -63.150081634521484, -0.01600000075995922, -0.08000000566244125, 1.055999994277954, 0.0, 0.0, 0.0, 0.0, 0.0, 1.6213375089160302E9, 2021-05-18 13:31:48.916
45.0, -67.2789306640625, 270.57427978515625, -52.89340591430664, -62.88454818725586, -0.01600000075995922, -0.08000000566244125, 1.055999994277954, 0.0, 0.0, 0.0, 0.0, 0.0, 1.6213375089160302E9, 2021-05-18 13:31:48.916
46.0, -34.35285186767578, 297.09765625, -7.917368412017822, -21.64841079711914, -0.01600000075995922, -0.08000000566244125, 1.055999994277954, 0.0, 0.0, 0.0, 0.0, 0.0, 1.62133750894612E9, 2021-05-18 13:31:48.946
46.0, 14.269588470458984, 354.6360168457031, 44.71798324584961, 31.98549461364746, -0.01600000075995922, -0.08000000566244125, 1.055999994277954, 0.0, 0.0, 0.0, 0.0, 0.0, 1.62133750894612E9, 2021-05-18 13:31:48.946
47.0, -64.01399993896484, 255.83908081054688, -43.58853530883789, -54.35009765625, -0.01600000075995922, -0.08000000566244125, 1.055999994277954, 0.0, 0.0, 0.0, 0.0, 0.0, 1.6213375089466722E9, 2021-05-18 13:31:48.946
47.0, -63.5764274597168, 263.9733581542969, -41.61760711669922, -55.02701950073242, -0.01600000075995922, -0.08000000566244125, 1.055999994277954, 0.0, 0.0, 0.0, 0.0, 0.0, 1.6213375089466722E9, 2021-05-18 13:31:48.946
48.0, -31.60402488708496, 289.561767578125, -0.6544824838638306, -22.15703773498535, -0.01600000075995922, -0.08000000566244125, 1.055999994277954, 0.0, 0.0, 0.0, 0.0, 0.0, 1.6213375089474084E9, 2021-05-18 13:31:48.947
48.0, 18.865924835205078, 354.35552978515625, 52.48949432373047, 28.787879943847656, -0.01600000075995922, -0.08000000566244125, 1.055999994277954, 0.0, 0.0, 0.0, 0.0, 0.0, 1.6213375089474084E9, 2021-05-18 13:31:48.947
49.0, -60.02726364135742, 269.5158996582031, -40.91450500488281, -55.4945068359375, -0.01600000075995922, -0.08000000566244125, 1.055999994277954, 0.0, 0.0, 0.0, 0.0, 0.0, 1.6213375089596229E9, 2021-05-18 13:31:48.959
49.0, -62.0094108581543, 267.8778076171875, -41.034183502197266, -59.49245834350586, -0.01600000075995922, -0.08000000566244125, 1.055999994277954, 0.0, 0.0, 0.0, 0.0, 0.0, 1.6213375089596229E9, 2021-05-18 13:31:48.959
50.0, -27.707048416137695, 298.35052490234375, 1.047171950340271, -24.760007858276367, -0.01600000075995922, -0.08000000566244125, 1.055999994277954, 0.0, 0.0, 0.0, 0.0, 0.0, 1.6213375089752653E9, 2021-05-18 13:31:48.975
50.0, 23.039653778076172, 350.60064697265625, 46.565494537353516, 20.36188507080078, -0.01600000075995922, -0.08000000566244125, 1.055999994277954, 0.0, 0.0, 0.0, 0.0, 0.0, 1.6213375089752653E9, 2021-05-18 13:31:48.975
51.0, -62.73869323730469, 265.9068908691406, -55.043846130371094, -67.23405456542969, -0.01600000075995922, -0.08000000566244125, 1.055999994277954, 0.0, 0.0, 0.0, 0.0, 0.0, 1.6213375089760695E9, 2021-05-18 13:31:48.976
51.0, -63.69236755371094, 258.7449645996094, -43.04624938964844, -54.94847869873047, -0.01600000075995922, -0.08000000566244125, 1.055999994277954, 0.0, 0.0, 0.0, 0.0, 0.0, 1.6213375089760695E9, 2021-05-18 13:31:48.976
52.0, -30.194082260131836, 307.3749084472656, -3.130296230316162, -18.237621307373047, -0.01600000075995922, -0.08000000566244125, 1.055999994277954, 0.0, 0.0, 0.0, 0.0, 0.0, 1.621337508989613E9, 2021-05-18 13:31:48.989
52.0, 18.70884895324707, 351.7862243652344, 50.63450622558594, 23.495922088623047, -0.01600000075995922, -0.08000000566244125, 1.055999994277954, 0.0, 0.0, 0.0, 0.0, 0.0, 1.621337508989613E9, 2021-05-18 13:31:48.989
53.0, -64.84425354003906, 260.28955078125, -43.09486770629883, -60.625648498535156, -0.01600000075995922, -0.08000000566244125, 1.055999994277954, 0.0, 0.0, 0.0, 0.0, 0.0, 1.6213375090052664E9, 2021-05-18 13:31:49.005
53.0, -52.25575256347656, 265.0392150878906, -29.51902961730957, -47.259246826171875, -0.01600000075995922, -0.08000000566244125, 1.055999994277954, 0.0, 0.0, 0.0, 0.0, 0.0, 1.6213375090052664E9, 2021-05-18 13:31:49.005
54.0, -19.643823623657227, 306.49603271484375, 15.69636058807373, -11.801254272460938, -0.01600000075995922, -0.08000000566244125, 1.055999994277954, 0.0, 0.0, 0.0, 0.0, 0.0, 1.6213375090059888E9, 2021-05-18 13:31:49.005
54.0, 26.293367385864258, 349.5460205078125, 62.164615631103516, 24.356098175048828, -0.01600000075995922, -0.08000000566244125, 1.055999994277954, 0.0, 0.0, 0.0, 0.0, 0.0, 1.6213375090059888E9, 2021-05-18 13:31:49.005
55.0, -50.509220123291016, 256.25421142578125, -36.8267936706543, -57.76836395263672, -0.01600000075995922, -0.08000000566244125, 1.055999994277954, 0.0, 0.0, 0.0, 0.0, 0.0, 1.6213375090195773E9, 2021-05-18 13:31:49.019
55.0, -48.669189453125, 258.3298645019531, -29.481632232666016, -51.496551513671875, -0.01600000075995922, -0.08000000566244125, 1.055999994277954, 0.0, 0.0, 0.0, 0.0, 0.0, 1.6213375090195773E9, 2021-05-18 13:31:49.019
56.0, -21.117345809936523, 295.57177734375, 14.219099998474121, -15.754328727722168, -0.01600000075995922, -0.08000000566244125, 1.055999994277954, 0.0, 0.0, 0.0, 0.0, 0.0, 1.6213375090352535E9, 2021-05-18 13:31:49.035
56.0, 20.212289810180664, 351.0718994140625, 58.45463562011719, 26.125070571899414, -0.01600000075995922, -0.08000000566244125, 1.055999994277954, 0.0, 0.0, 0.0, 0.0, 0.0, 1.6213375090352535E9, 2021-05-18 13:31:49.035
57.0, -60.5059700012207, 255.34915161132812, -36.3854866027832, -56.88200759887695, -0.01600000075995922, -0.08000000566244125, 1.055999994277954, 0.0, 0.0, 0.0, 0.0, 0.0, 1.6213375090359752E9, 2021-05-18 13:31:49.035
57.0, -59.45505905151367, 262.1445617675781, -33.92089080810547, -52.08745574951172, -0.01600000075995922, -0.08000000566244125, 1.055999994277954, 0.0, 0.0, 0.0, 0.0, 0.0, 1.6213375090359752E9, 2021-05-18 13:31:49.035
58.0, -36.88102340698242, 304.97015380859375, -5.55001163482666, -24.573013305664062, -0.01600000075995922, -0.08000000566244125, 1.055999994277954, 0.0, 0.0, 0.0, 0.0, 0.0, 1.6213375090496027E9, 2021-05-18 13:31:49.049
58.0, 15.20456314086914, 351.90216064453125, 52.74380874633789, 27.217121124267578, -0.01600000075995922, -0.08000000566244125, 1.055999994277954, 0.0, 0.0, 0.0, 0.0, 0.0, 1.6213375090496027E9, 2021-05-18 13:31:49.049
59.0, -61.46338653564453, 260.76824951171875, -39.76261520385742, -58.47520446777344, -0.01600000075995922, -0.08000000566244125, 1.055999994277954, 0.0, 0.0, 0.0, 0.0, 0.0, 1.6213375090652468E9, 2021-05-18 13:31:49.065
59.0, -65.97744750976562, 263.91351318359375, -33.93211364746094, -60.876220703125, -0.01600000075995922, -0.08000000566244125, 1.055999994277954, 0.0, 0.0, 0.0, 0.0, 0.0, 1.6213375090652468E9, 2021-05-18 13:31:49.065
60.0, -30.46709442138672, 303.3582458496094, 3.2499730587005615, -17.029634475708008, -0.01600000075995922, -0.08000000566244125, 1.055999994277954, 0.0, 0.0, 0.0, 0.0, 0.0, 1.6213375090660677E9, 2021-05-18 13:31:49.066
60.0, 20.163671493530273, 348.4240417480469, 51.73403549194336, 24.258861541748047, -0.01600000075995922, -0.08000000566244125, 1.055999994277954, 0.0, 0.0, 0.0, 0.0, 0.0, 1.6213375090660677E9, 2021-05-18 13:31:49.066
61.0, -57.899261474609375, 264.1902770996094, -43.895206451416016, -53.44878005981445, -0.01600000075995922, -0.08000000566244125, 1.055999994277954, 0.0, 0.0, 0.0, 0.0, 0.0, 1.6213375090795636E9, 2021-05-18 13:31:49.079
61.0, -55.67776107788086, 272.45172119140625, -40.76116943359375, -44.914329528808594, -0.01600000075995922, -0.08000000566244125, 1.055999994277954, 0.0, 0.0, 0.0, 0.0, 0.0, 1.6213375090795636E9, 2021-05-18 13:31:49.079
62.0, -31.129056930541992, 313.1792297363281, -3.1751749515533447, -14.292027473449707, -0.01600000075995922, -0.08000000566244125, 1.055999994277954, 0.0, 0.0, 0.0, 0.0, 0.0, 1.6213375091265213E9, 2021-05-18 13:31:49.126
62.0, 19.292274475097656, 351.9096374511719, 52.2725830078125, 29.872451782226562, -0.01600000075995922, -0.08000000566244125, 1.055999994277954, 0.0, 0.0, 0.0, 0.0, 0.0, 1.6213375091265213E9, 2021-05-18 13:31:49.126
63.0, -61.5681037902832, 258.6327819824219, -39.426025390625, -60.22547912597656, -0.01600000075995922, -0.08000000566244125, 1.055999994277954, 0.0, 0.0, 0.0, 0.0, 0.0, 1.6213375091271253E9, 2021-05-18 13:31:49.127
63.0, -58.953914642333984, 267.5599365234375, -31.022470474243164, -53.186988830566406, -0.01600000075995922, -0.08000000566244125, 1.055999994277954, 0.0, 0.0, 0.0, 0.0, 0.0, 1.6213375091271253E9, 2021-05-18 13:31:49.127
64.0, -29.648056030273438, 300.6243896484375, 7.81265115737915, -20.156190872192383, -0.01600000075995922, -0.08000000566244125, 1.055999994277954, 0.0, 0.0, 0.0, 0.0, 0.0, 1.62133750912793E9, 2021-05-18 13:31:49.127
64.0, 25.766040802001953, 348.7942810058594, 59.9318962097168, 25.75482177734375, -0.01600000075995922, -0.08000000566244125, 1.055999994277954, 0.0, 0.0, 0.0, 0.0, 0.0, 1.62133750912793E9, 2021-05-18 13:31:49.127
65.0, -56.074188232421875, 260.6111755371094, -32.914859771728516, -56.429481506347656, -0.01600000075995922, -0.08000000566244125, 1.055999994277954, 0.0, 0.0, 0.0, 0.0, 0.0, 1.6213375091419444E9, 2021-05-18 13:31:49.141
65.0, -53.67691421508789, 264.6502685546875, -34.201385498046875, -54.65302658081055, -0.01600000075995922, -0.08000000566244125, 1.055999994277954, 0.0, 0.0, 0.0, 0.0, 0.0, 1.6213375091419444E9, 2021-05-18 13:31:49.141
66.0, -24.756267547607422, 299.2331237792969, 7.360123157501221, -18.99308204650879, -0.01600000075995922, -0.08000000566244125, 1.055999994277954, 0.0, 0.0, 0.0, 0.0, 0.0, 1.6213375091427426E9, 2021-05-18 13:31:49.142
66.0, 22.98355484008789, 363.88104248046875, 47.86323928833008, 22.654443740844727, -0.01600000075995922, -0.08000000566244125, 1.055999994277954, 0.0, 0.0, 0.0, 0.0, 0.0, 1.6213375091427426E9, 2021-05-18 13:31:49.142
67.0, -64.47774505615234, 266.9577941894531, -51.68541717529297, -61.040775299072266, -0.01600000075995922, -0.08000000566244125, 1.055999994277954, 0.0, 0.0, 0.0, 0.0, 0.0, 1.6213375091434662E9, 2021-05-18 13:31:49.143
67.0, -67.49584197998047, 273.03887939453125, -43.165924072265625, -58.950172424316406, -0.01600000075995922, -0.08000000566244125, 1.055999994277954, 0.0, 0.0, 0.0, 0.0, 0.0, 1.6213375091434662E9, 2021-05-18 13:31:49.143
68.0, -32.30338668823242, 309.0129699707031, 4.592597007751465, -19.023000717163086, -0.01600000075995922, -0.08000000566244125, 1.055999994277954, 0.0, 0.0, 0.0, 0.0, 0.0, 1.6213375091714442E9, 2021-05-18 13:31:49.171
68.0, 18.52559471130371, 362.57208251953125, 53.009342193603516, 23.17428970336914, -0.01600000075995922, -0.08000000566244125, 1.055999994277954, 0.0, 0.0, 0.0, 0.0, 0.0, 1.6213375091714442E9, 2021-05-18 13:31:49.171
69.0, -68.5654525756836, 262.0099182128906, -51.386226654052734, -63.71106719970703, -0.01600000075995922, -0.08000000566244125, 1.055999994277954, 0.0, 0.0, 0.0, 0.0, 0.0, 1.6213375091721056E9, 2021-05-18 13:31:49.172
69.0, -62.102909088134766, 272.1151123046875, -42.73209762573242, -55.97321319580078, -0.01600000075995922, -0.08000000566244125, 1.055999994277954, 0.0, 0.0, 0.0, 0.0, 0.0, 1.6213375091721056E9, 2021-05-18 13:31:49.172
70.0, -29.85749053955078, 303.88555908203125, -11.324417114257812, -27.73322868347168, -0.01600000075995922, -0.08000000566244125, 1.055999994277954, 0.0, 0.0, 0.0, 0.0, 0.0, 1.621337509186088E9, 2021-05-18 13:31:49.186
70.0, 24.91334342956543, 360.2271728515625, 51.1992301940918, 29.075851440429688, -0.01600000075995922, -0.08000000566244125, 1.055999994277954, 0.0, 0.0, 0.0, 0.0, 0.0, 1.621337509186088E9, 2021-05-18 13:31:49.186
71.0, -55.131736755371094, 275.95599365234375, -44.130821228027344, -59.410179138183594, -0.01600000075995922, -0.08000000566244125, 1.055999994277954, 0.0, 0.0, 0.0, 0.0, 0.0, 1.621337509186837E9, 2021-05-18 13:31:49.186
71.0, -57.26721954345703, 278.5514831542969, -39.53822326660156, -53.83024978637695, -0.01600000075995922, -0.08000000566244125, 1.055999994277954, 0.0, 0.0, 0.0, 0.0, 0.0, 1.621337509186837E9, 2021-05-18 13:31:49.186
72.0, -21.708250045776367, 300.11199951171875, 2.363616704940796, -13.888118743896484, -0.01600000075995922, -0.08000000566244125, 1.055999994277954, 0.0, 0.0, 0.0, 0.0, 0.0, 1.6213375091875799E9, 2021-05-18 13:31:49.187
72.0, 24.73008918762207, 357.9084167480469, 51.45354461669922, 29.539600372314453, -0.01600000075995922, -0.08000000566244125, 1.055999994277954, 0.0, 0.0, 0.0, 0.0, 0.0, 1.6213375091875799E9, 2021-05-18 13:31:49.187
73.0, -55.54312515258789, 262.8139953613281, -42.71339797973633, -49.42838668823242, -0.01600000075995922, -0.08000000566244125, 1.055999994277954, 0.0, 0.0, 0.0, 0.0, 0.0, 1.6213375091996415E9, 2021-05-18 13:31:49.199
73.0, -56.762332916259766, 269.1755676269531, -32.55208969116211, -45.61368942260742, -0.01600000075995922, -0.08000000566244125, 1.055999994277954, 0.0, 0.0, 0.0, 0.0, 0.0, 1.6213375091996415E9, 2021-05-18 13:31:49.199
