Sample Index, EXG Channel 0, EXG Channel 1, EXG Channel 2, EXG Channel 3, Accel Channel 0, Accel Channel 1, Accel Channel 2, Other, Other, Other, Other, Other, Timestamp, Timestamp (Formatted)
0.0, 130.649658203125, 23.486572265625, 240.08474731445312, -6.322300910949707, 0.0, 0.0, 0.0, 0.0, 0.0, 0.0, 0.0, 0.0, 1.6213404668869603E9, 2021-05-18 14:21:06.886
1.0, 44.92367935180664, -53.34593200683594, 143.61402893066406, -96.57357025146484, 0.0, -0.08000000566244125, 0.0, 0.0, 0.0, 0.0, 0.0, 0.0, 1.621340466900444E9, 2021-05-18 14:21:06.900
1.0, 63.85505294799805, -40.592872619628906, 161.15042114257812, -84.35531616210938, 0.0, -0.08000000566244125, 0.0, 0.0, 0.0, 0.0, 0.0, 0.0, 1.621340466900444E9, 2021-05-18 14:21:06.900
2.0, 95.75265502929688, -17.326955795288086, 194.97781372070312, -49.51814651489258, -0.01600000075995922, -0.08000000566244125, 0.0, 0.0, 0.0, 0.0, 0.0, 0.0, 1.6213404669171512E9, 2021-05-18 14:21:06.917
2.0, 136.35301208496094, 29.840662002563477, 245.31312561035156, -7.347033500671387, -0.01600000075995922, -0.08000000566244125, 0.0, 0.0, 0.0, 0.0, 0.0, 0.0, 1.6213404669171512E9, 2021-05-18 14:21:06.917
3.0, 58.29756164550781, -52.803646087646484, 158.00515747070312, -94.67743682861328, -0.01600000075995922, -0.08000000566244125, 0.0, 0.0, 0.0, 0.0, 0.0, 0.0, 1.6213404669178965E9, 2021-05-18 14:21:06.917
3.0, 70.0595474243164, -50.07352066040039, 172.31028747558594, -83.73448944091797, -0.01600000075995922, -0.08000000566244125, 0.0, 0.0, 0.0, 0.0, 0.0, 0.0, 1.6213404669178965E9, 2021-05-18 14:21:06.917
4.0, 108.92084503173828, -10.374482154846191, 214.45895385742188, -41.78777313232422, -0.01600000075995922, -0.08000000566244125, 0.0, 0.0, 0.0, 0.0, 0.0, 0.0, 1.6213404669620671E9, 2021-05-18 14:21:06.962
4.0, 152.97686767578125, 30.035137176513672, 260.8935546875, -1.29213547706604, -0.01600000075995922, -0.08000000566244125, 0.0, 0.0, 0.0, 0.0, 0.0, 0.0, 1.6213404669620671E9, 2021-05-18 14:21:06.962
5.0, 69.54344177246094, -59.02684020996094, 166.184326171875, -86.48705291748047, -0.01600000075995922, -0.08000000566244125, 0.0, 0.0, 0.0, 0.0, 0.0, 0.0, 1.6213404669627247E9, 2021-05-18 14:21:06.962
5.0, 78.6126937866211, -48.573822021484375, 176.6111602783203, -77.01014709472656, -0.01600000075995922, -0.08000000566244125, 0.0, 0.0, 0.0, 0.0, 0.0, 0.0, 1.6213404669627247E9, 2021-05-18 14:21:06.962
6.0, 111.20966339111328, -25.969865798950195, 214.5935821533203, -40.673282623291016, -0.01600000075995922, -0.08000000566244125, 0.0, 0.0, 0.0, 0.0, 0.0, 0.0, 1.621340466963444E9, 2021-05-18 14:21:06.963
6.0, 153.87445068359375, 23.942838668823242, 259.24798583984375, -1.5127894878387451, -0.01600000075995922, -0.08000000566244125, 0.0, 0.0, 0.0, 0.0, 0.0, 0.0, 1.621340466963444E9, 2021-05-18 14:21:06.963
7.0, 64.99945831298828, -63.37260437011719, 163.44297790527344, -90.34663391113281, -0.01600000075995922, -0.08000000566244125, 0.0, 0.0, 0.0, 0.0, 0.0, 0.0, 1.6213404669767132E9, 2021-05-18 14:21:06.976
7.0, 77.93951416015625, -37.79916763305664, 178.58583068847656, -68.67017364501953, -0.01600000075995922, -0.08000000566244125, 0.0, 0.0, 0.0, 0.0, 0.0, 0.0, 1.6213404669767132E9, 2021-05-18 14:21:06.976
8.0, 98.75205993652344, -14.92594051361084, 207.11378479003906, -40.45262908935547, -0.01600000075995922, -0.08000000566244125, 0.0, 0.0, 0.0, 0.0, 0.0, 0.0, 1.6213404669773607E9, 2021-05-18 14:21:06.977
8.0, 143.69444274902344, 32.74656295776367, 253.36138916015625, 1.7334436178207397, -0.01600000075995922, -0.08000000566244125, 0.0, 0.0, 0.0, 0.0, 0.0, 0.0, 1.6213404669773607E9, 2021-05-18 14:21:06.977
9.0, 53.79098129272461, -57.43364334106445, 162.90443420410156, -81.3334732055664, -0.01600000075995922, -0.08000000566244125, 0.0, 0.0, 0.0, 0.0, 0.0, 0.0, 1.6213404669779844E9, 2021-05-18 14:21:06.977
9.0, 61.899085998535156, -46.501914978027344, 171.47628784179688, -75.17759704589844, -0.01600000075995922, -0.08000000566244125, 0.0, 0.0, 0.0, 0.0, 0.0, 0.0, 1.6213404669779844E9, 2021-05-18 14:21:06.977
10.0, 89.3873519897461, -14.436014175415039, 204.48837280273438, -43.10795593261719, -0.01600000075995922, -0.08000000566244125, 1.055999994277954, 0.0, 0.0, 0.0, 0.0, 0.0, 1.6213404670066385E9, 2021-05-18 14:21:07.006
10.0, 138.1519012451172, 29.313335418701172, 248.32748413085938, -2.8516736030578613, -0.01600000075995922, -0.08000000566244125, 1.055999994277954, 0.0, 0.0, 0.0, 0.0, 0.0, 1.6213404670066385E9, 2021-05-18 14:21:07.006
11.0, 55.85166549682617, -49.16098403930664, 161.49075317382812, -91.05347442626953, -0.01600000075995922, -0.08000000566244125, 1.055999994277954, 0.0, 0.0, 0.0, 0.0, 0.0, 1.6213404670073092E9, 2021-05-18 14:21:07.007
11.0, 56.154598236083984, -51.12069320678711, 163.88803100585938, -91.44990539550781, -0.01600000075995922, -0.08000000566244125, 1.055999994277954, 0.0, 0.0, 0.0, 0.0, 0.0, 1.6213404670073092E9, 2021-05-18 14:21:07.007
12.0, 103.98043823242188, -3.938114643096924, 212.6376190185547, -45.250919342041016, -0.01600000075995922, -0.08000000566244125, 1.055999994277954, 0.0, 0.0, 0.0, 0.0, 0.0, 1.62134046700812E9, 2021-05-18 14:21:07.008
12.0, 145.94960021972656, 28.69251251220703, 257.0975646972656, -11.558160781860352, -0.01600000075995922, -0.08000000566244125, 1.055999994277954, 0.0, 0.0, 0.0, 0.0, 0.0, 1.62134046700812E9, 2021-05-18 14:21:07.008
13.0, 59.95059585571289, -61.543792724609375, 162.68377685546875, -93.29741668701172, -0.01600000075995922, -0.08000000566244125, 1.055999994277954, 0.0, 0.0, 0.0, 0.0, 0.0, 1.621340467020202E9, 2021-05-18 14:21:07.020
13.0, 73.2122802734375, -49.69205093383789, 175.2049560546875, -83.341796875, -0.01600000075995922, -0.08000000566244125, 1.055999994277954, 0.0, 0.0, 0.0, 0.0, 0.0, 1.621340467020202E9, 2021-05-18 14:21:07.020
14.0, 104.49280548095703, -21.085556030273438, 210.92848205566406, -44.18878936767578, -0.01600000075995922, -0.08000000566244125, 1.055999994277954, 0.0, 0.0, 0.0, 0.0, 0.0, 1.6213404670360465E9, 2021-05-18 14:21:07.036
14.0, 148.52264404296875, 27.529403686523438, 254.7900390625, -7.227356433868408, -0.01600000075995922, -0.08000000566244125, 1.055999994277954, 0.0, 0.0, 0.0, 0.0, 0.0, 1.6213404670360465E9, 2021-05-18 14:21:07.036
15.0, 61.10996627807617, -65.43702697753906, 160.7240753173828, -91.74161529541016, -0.01600000075995922, -0.08000000566244125, 1.055999994277954, 0.0, 0.0, 0.0, 0.0, 0.0, 1.6213404670366523E9, 2021-05-18 14:21:07.036
15.0, 72.22120666503906, -57.250389099121094, 177.9313507080078, -88.16627502441406, -0.01600000075995922, -0.08000000566244125, 1.055999994277954, 0.0, 0.0, 0.0, 0.0, 0.0, 1.6213404670366523E9, 2021-05-18 14:21:07.036
16.0, 105.52875518798828, -20.53205108642578, 209.3465118408203, -53.80781173706055, -0.01600000075995922, -0.08000000566244125, 1.055999994277954, 0.0, 0.0, 0.0, 0.0, 0.0, 1.621340467066497E9, 2021-05-18 14:21:07.066
16.0, 143.7580108642578, 28.367141723632812, 251.56997680664062, -16.532228469848633, -0.01600000075995922, -0.08000000566244125, 1.055999994277954, 0.0, 0.0, 0.0, 0.0, 0.0, 1.621340467066497E9, 2021-05-18 14:21:07.066
17.0, 54.59880065917969, -60.64995574951172, 156.15391540527344, -103.20440673828125, -0.01600000075995922, -0.08000000566244125, 1.055999994277954, 0.0, 0.0, 0.0, 0.0, 0.0, 1.6213404670672257E9, 2021-05-18 14:21:07.067
17.0, 58.71268844604492, -46.05686950683594, 160.22293090820312, -87.97179412841797, -0.01600000075995922, -0.08000000566244125, 1.055999994277954, 0.0, 0.0, 0.0, 0.0, 0.0, 1.6213404670672257E9, 2021-05-18 14:21:07.067
18.0, 94.70174407958984, -10.082770347595215, 204.95587158203125, -50.96548843383789, -0.01600000075995922, -0.08000000566244125, 1.055999994277954, 0.0, 0.0, 0.0, 0.0, 0.0, 1.6213404670679905E9, 2021-05-18 14:21:07.067
18.0, 138.7989044189453, 30.753196716308594, 251.20347595214844, -7.635005950927734, -0.01600000075995922, -0.08000000566244125, 1.055999994277954, 0.0, 0.0, 0.0, 0.0, 0.0, 1.6213404670679905E9, 2021-05-18 14:21:07.067
19.0, 53.398292541503906, -57.98714828491211, 158.2108612060547, -99.9843521118164, -0.01600000075995922, -0.08000000566244125, 1.055999994277954, 0.0, 0.0, 0.0, 0.0, 0.0, 1.6213404670802078E9, 2021-05-18 14:21:07.080
19.0, 63.402523040771484, -42.17485046386719, 168.46192932128906, -92.2689437866211, -0.01600000075995922, -0.08000000566244125, 1.055999994277954, 0.0, 0.0, 0.0, 0.0, 0.0, 1.6213404670802078E9, 2021-05-18 14:21:07.080
20.0, 95.9172134399414, -7.801431179046631, 206.4144287109375, -51.167442321777344, -0.01600000075995922, -0.08000000566244125, 1.055999994277954, 0.0, 0.0, 0.0, 0.0, 0.0, 1.6213404670960133E9, 2021-05-18 14:21:07.096
20.0, 144.1357421875, 33.303810119628906, 248.1741485595703, -8.790635108947754, -0.01600000075995922, -0.08000000566244125, 1.055999994277954, 0.0, 0.0, 0.0, 0.0, 0.0, 1.6213404670960133E9, 2021-05-18 14:21:07.096
21.0, 53.50300979614258, -58.57057189941406, 158.7157440185547, -95.16362762451172, -0.01600000075995922, -0.08000000566244125, 1.055999994277954, 0.0, 0.0, 0.0, 0.0, 0.0, 1.6213404670966475E9, 2021-05-18 14:21:07.096
21.0, 63.069671630859375, -50.49612808227539, 169.30714416503906, -83.4764404296875, -0.01600000075995922, -0.08000000566244125, 1.055999994277954, 0.0, 0.0, 0.0, 0.0, 0.0, 1.6213404670966475E9, 2021-05-18 14:21:07.096
22.0, 93.91636657714844, -17.031503677368164, 204.98204040527344, -47.2143669128418, -0.01600000075995922, -0.08000000566244125, 1.055999994277954, 0.0, 0.0, 0.0, 0.0, 0.0, 1.6213404671267295E9, 2021-05-18 14:21:07.126
22.0, 143.73184204101562, 27.01703643798828, 254.2290496826172, -1.1163601875305176, -0.01600000075995922, -0.08000000566244125, 1.055999994277954, 0.0, 0.0, 0.0, 0.0, 0.0, 1.6213404671267295E9, 2021-05-18 14:21:07.126
23.0, 51.958431243896484, -65.25751495361328, 158.32679748535156, -99.03816223144531, -0.01600000075995922, -0.08000000566244125, 1.055999994277954, 0.0, 0.0, 0.0, 0.0, 0.0, 1.6213404671274743E9, 2021-05-18 14:21:07.127
23.0, 64.16920471191406, -49.093666076660156, 170.7058563232422, -90.1035385131836, -0.01600000075995922, -0.08000000566244125, 1.055999994277954, 0.0, 0.0, 0.0, 0.0, 0.0, 1.6213404671274743E9, 2021-05-18 14:21:07.127
24.0, 95.80501556396484, -12.584763526916504, 208.85658264160156, -54.68668746948242, -0.01600000075995922, -0.08000000566244125, 1.055999994277954, 0.0, 0.0, 0.0, 0.0, 0.0, 1.6213404671281607E9, 2021-05-18 14:21:07.128
24.0, 138.7577667236328, 34.78854751586914, 257.26959228515625, -14.680976867675781, -0.01600000075995922, -0.08000000566244125, 1.055999994277954, 0.0, 0.0, 0.0, 0.0, 0.0, 1.6213404671281607E9, 2021-05-18 14:21:07.128
25.0, 55.765647888183594, -58.03202819824219, 169.68861389160156, -99.2401123046875, -0.01600000075995922, -0.08000000566244125, 1.055999994277954, 0.0, 0.0, 0.0, 0.0, 0.0, 1.6213404671402605E9, 2021-05-18 14:21:07.140
25.0, 67.75576782226562, -47.83332061767578, 182.18736267089844, -80.70890808105469, -0.01600000075995922, -0.08000000566244125, 1.055999994277954, 0.0, 0.0, 0.0, 0.0, 0.0, 1.6213404671402605E9, 2021-05-18 14:21:07.140
26.0, 102.45455932617188, -6.073597431182861, 221.00003051757812, -43.40340805053711, -0.01600000075995922, -0.08000000566244125, 1.055999994277954, 0.0, 0.0, 0.0, 0.0, 0.0, 1.621340467156008E9, 2021-05-18 14:21:07.156
26.0, 143.1184844970703, 34.717491149902344, 258.9974365234375, -4.063401222229004, -0.01600000075995922, -0.08000000566244125, 1.055999994277954, 0.0, 0.0, 0.0, 0.0, 0.0, 1.621340467156008E9, 2021-05-18 14:21:07.156
27.0, 54.105133056640625, -51.31142807006836, 170.5824432373047, -95.23841857910156, -0.01600000075995922, -0.08000000566244125, 1.055999994277954, 0.0, 0.0, 0.0, 0.0, 0.0, 1.621340467156775E9, 2021-05-18 14:21:07.156
27.0, 63.10707092285156, -45.469703674316406, 173.7277069091797, -88.4991226196289, -0.01600000075995922, -0.08000000566244125, 1.055999994277954, 0.0, 0.0, 0.0, 0.0, 0.0, 1.621340467156775E9, 2021-05-18 14:21:07.156
28.0, 92.64105987548828, -13.856328964233398, 203.9610595703125, -55.943294525146484, -0.01600000075995922, -0.08000000566244125, 1.055999994277954, 0.0, 0.0, 0.0, 0.0, 0.0, 1.6213404671864333E9, 2021-05-18 14:21:07.186
28.0, 145.7064971923828, 28.139007568359375, 251.97389221191406, -10.604486465454102, -0.01600000075995922, -0.08000000566244125, 1.055999994277954, 0.0, 0.0, 0.0, 0.0, 0.0, 1.6213404671864333E9, 2021-05-18 14:21:07.186
29.0, 56.01622009277344, -60.66865539550781, 156.12399291992188, -98.4173355102539, -0.01600000075995922, -0.08000000566244125, 1.055999994277954, 0.0, 0.0, 0.0, 0.0, 0.0, 1.6213404671871672E9, 2021-05-18 14:21:07.187
29.0, 61.19598388671875, -53.84333801269531, 163.44671630859375, -88.03911590576172, -0.01600000075995922, -0.08000000566244125, 1.055999994277954, 0.0, 0.0, 0.0, 0.0, 0.0, 1.6213404671871672E9, 2021-05-18 14:21:07.187
30.0, 102.03569030761719, -14.802523612976074, 207.65982055664062, -46.55614471435547, -0.01600000075995922, -0.08000000566244125, 1.055999994277954, 0.0, 0.0, 0.0, 0.0, 0.0, 1.6213404672009304E9, 2021-05-18 14:21:07.200
30.0, 151.78384399414062, 32.682987213134766, 255.4968719482422, -4.882439613342285, -0.01600000075995922, -0.08000000566244125, 1.055999994277954, 0.0, 0.0, 0.0, 0.0, 0.0, 1.6213404672009304E9, 2021-05-18 14:21:07.200
31.0, 59.56538772583008, -60.399383544921875, 160.17803955078125, -96.89894104003906, -0.01600000075995922, -0.08000000566244125, 1.055999994277954, 0.0, 0.0, 0.0, 0.0, 0.0, 1.621340467201578E9, 2021-05-18 14:21:07.201
31.0, 63.35016632080078, -48.97024917602539, 173.473388671875, -92.4334945678711, -0.01600000075995922, -0.08000000566244125, 1.055999994277954, 0.0, 0.0, 0.0, 0.0, 0.0, 1.621340467201578E9, 2021-05-18 14:21:07.201
32.0, 98.48652648925781, -8.205340385437012, 213.34072875976562, -54.3912353515625, -0.01600000075995922, -0.08000000566244125, 1.055999994277954, 0.0, 0.0, 0.0, 0.0, 0.0, 1.6213404672160227E9, 2021-05-18 14:21:07.216
32.0, 142.56124877929688, 28.101608276367188, 259.3265380859375, -12.960623741149902, -0.01600000075995922, -0.08000000566244125, 1.055999994277954, 0.0, 0.0, 0.0, 0.0, 0.0, 1.6213404672160227E9, 2021-05-18 14:21:07.216
33.0, 57.65803909301758, -61.03142547607422, 171.74929809570312, -98.46969604492188, -0.01600000075995922, -0.08000000566244125, 1.055999994277954, 0.0, 0.0, 0.0, 0.0, 0.0, 1.6213404672166789E9, 2021-05-18 14:21:07.216
33.0, 64.13180541992188, -44.53472900390625, 180.8970947265625, -81.90193939208984, -0.01600000075995922, -0.08000000566244125, 1.055999994277954, 0.0, 0.0, 0.0, 0.0, 0.0, 1.6213404672166789E9, 2021-05-18 14:21:07.216
34.0, 96.46324157714844, -0.8115583062171936, 220.80929565429688, -41.12955093383789, -0.01600000075995922, -0.08000000566244125, 1.055999994277954, 0.0, 0.0, 0.0, 0.0, 0.0, 1.6213404672302873E9, 2021-05-18 14:21:07.230
34.0, 133.27880859375, 39.94213104248047, 260.6167907714844, -2.9376914501190186, -0.01600000075995922, -0.08000000566244125, 1.055999994277954, 0.0, 0.0, 0.0, 0.0, 0.0, 1.6213404672302873E9, 2021-05-18 14:21:07.230
35.0, 46.9619255065918, -52.863487243652344, 169.38941955566406, -85.7839584350586, -0.01600000075995922, -0.08000000566244125, 1.055999994277954, 0.0, 0.0, 0.0, 0.0, 0.0, 1.6213404672616792E9, 2021-05-18 14:21:07.261
35.0, 63.03227233886719, -47.39949035644531, 177.030029296875, -76.27339172363281, -0.01600000075995922, -0.08000000566244125, 1.055999994277954, 0.0, 0.0, 0.0, 0.0, 0.0, 1.6213404672616792E9, 2021-05-18 14:21:07.261
36.0, 102.90708923339844, -5.430334568023682, 214.67587280273438, -38.65373611450195, -0.01600000075995922, -0.08000000566244125, 1.055999994277954, 0.0, 0.0, 0.0, 0.0, 0.0, 1.6213404672624085E9, 2021-05-18 14:21:07.262
36.0, 145.84487915039062, 27.04695701599121, 256.83575439453125, -7.178738117218018, -0.01600000075995922, -0.08000000566244125, 1.055999994277954, 0.0, 0.0, 0.0, 0.0, 0.0, 1.6213404672624085E9, 2021-05-18 14:21:07.262
37.0, 64.78254699707031, -59.88701629638672, 165.83651733398438, -92.7775650024414, -0.01600000075995922, -0.08000000566244125, 1.055999994277954, 0.0, 0.0, 0.0, 0.0, 0.0, 1.6213404672631152E9, 2021-05-18 14:21:07.263
37.0, 75.70305633544922, -56.98859405517578, 178.48484802246094, -82.27218627929688, -0.01600000075995922, -0.08000000566244125, 1.055999994277954, 0.0, 0.0, 0.0, 0.0, 0.0, 1.6213404672631152E9, 2021-05-18 14:21:07.263
38.0, 115.226318359375, -12.121015548706055, 216.2952423095703, -50.684993743896484, -0.01600000075995922, -0.08000000566244125, 1.055999994277954, 0.0, 0.0, 0.0, 0.0, 0.0, 1.6213404672760265E9, 2021-05-18 14:21:07.276
38.0, 155.56861877441406, 28.733652114868164, 257.2882995605469, -14.033974647521973, -0.01600000075995922, -0.08000000566244125, 1.055999994277954, 0.0, 0.0, 0.0, 0.0, 0.0, 1.6213404672760265E9, 2021-05-18 14:21:07.276
39.0, 64.35245513916016, -64.05326843261719, 168.6115264892578, -100.20500946044922, -0.01600000075995922, -0.08000000566244125, 1.055999994277954, 0.0, 0.0, 0.0, 0.0, 0.0, 1.6213404672765903E9, 2021-05-18 14:21:07.276
39.0, 74.0761947631836, -48.042755126953125, 182.8418426513672, -86.12428283691406, -0.01600000075995922, -0.08000000566244125, 1.055999994277954, 0.0, 0.0, 0.0, 0.0, 0.0, 1.6213404672765903E9, 2021-05-18 14:21:07.276
40.0, 113.56580352783203, -7.835090637207031, 225.6188201904297, -46.64590072631836, -0.01600000075995922, -0.08000000566244125, 1.055999994277954, 0.0, 0.0, 0.0, 0.0, 0.0, 1.6213404672903323E9, 2021-05-18 14:21:07.290
40.0, 145.26519775390625, 31.90882682800293, 262.17633056640625, -11.565640449523926, -0.01600000075995922, -0.08000000566244125, 1.055999994277954, 0.0, 0.0, 0.0, 0.0, 0.0, 1.6213404672903323E9, 2021-05-18 14:21:07.290
41.0, 55.84044647216797, -54.64741897583008, 173.9109649658203, -98.17798614501953, -0.01600000075995922, -0.08000000566244125, 1.055999994277954, 0.0, 0.0, 0.0, 0.0, 0.0, 1.6213404673059435E9, 2021-05-18 14:21:07.305
41.0, 66.82453155517578, -37.63835144042969, 186.50320434570312, -74.53433990478516, -0.01600000075995922, -0.08000000566244125, 1.055999994277954, 0.0, 0.0, 0.0, 0.0, 0.0, 1.6213404673059435E9, 2021-05-18 14:21:07.305
42.0, 95.64046478271484, 0.4749673008918762, 218.0193328857422, -47.00493240356445, -0.01600000075995922, -0.08000000566244125, 1.055999994277954, 0.0, 0.0, 0.0, 0.0, 0.0, 1.6213404673065765E9, 2021-05-18 14:21:07.306
42.0, 144.52842712402344, 43.371620178222656, 271.29046630859375, -1.239776849746704, -0.01600000075995922, -0.08000000566244125, 1.055999994277954, 0.0, 0.0, 0.0, 0.0, 0.0, 1.6213404673065765E9, 2021-05-18 14:21:07.306
43.0, 54.677337646484375, -52.777469635009766, 172.94232177734375, -88.8768539428711, -0.01600000075995922, -0.08000000566244125, 1.055999994277954, 0.0, 0.0, 0.0, 0.0, 0.0, 1.6213404673202825E9, 2021-05-18 14:21:07.320
43.0, 63.38756561279297, -44.452449798583984, 179.73023986816406, -80.45085906982422, -0.01600000075995922, -0.08000000566244125, 1.055999994277954, 0.0, 0.0, 0.0, 0.0, 0.0, 1.6213404673202825E9, 2021-05-18 14:21:07.320
44.0, 92.9851303100586, -10.3258638381958, 214.9713134765625, -46.141014099121094, -0.01600000075995922, -0.08000000566244125, 1.055999994277954, 0.0, 0.0, 0.0, 0.0, 0.0, 1.621340467335824E9, 2021-05-18 14:21:07.335
44.0, 144.08712768554688, 35.783363342285156, 258.40277099609375, -1.5240092277526855, -0.01600000075995922, -0.08000000566244125, 1.055999994277954, 0.0, 0.0, 0.0, 0.0, 0.0, 1.621340467335824E9, 2021-05-18 14:21:07.335
45.0, 58.53691482543945, -55.765647888183594, 168.88827514648438, -87.3921127319336, -0.01600000075995922, -0.08000000566244125, 1.055999994277954, 0.0, 0.0, 0.0, 0.0, 0.0, 1.6213404673365788E9, 2021-05-18 14:21:07.336
45.0, 73.50025177001953, -40.304901123046875, 177.26190185546875, -78.50611114501953, -0.01600000075995922, -0.08000000566244125, 1.055999994277954, 0.0, 0.0, 0.0, 0.0, 0.0, 1.6213404673365788E9, 2021-05-18 14:21:07.336
46.0, 105.8765640258789, -5.086264133453369, 212.70494079589844, -52.689579010009766, -0.01600000075995922, -0.08000000566244125, 1.055999994277954, 0.0, 0.0, 0.0, 0.0, 0.0, 1.6213404673501875E9, 2021-05-18 14:21:07.350
46.0, 145.10438537597656, 40.2001838684082, 256.9516906738281, -9.493736267089844, -0.01600000075995922, -0.08000000566244125, 1.055999994277954, 0.0, 0.0, 0.0, 0.0, 0.0, 1.6213404673501875E9, 2021-05-18 14:21:07.350
47.0, 65.43702697753906, -54.06025314331055, 166.37506103515625, -95.80314636230469, -0.01600000075995922, -0.08000000566244125, 1.055999994277954, 0.0, 0.0, 0.0, 0.0, 0.0, 1.621340467365812E9, 2021-05-18 14:21:07.365
47.0, 64.08692932128906, -45.40238571166992, 176.85426330566406, -92.13804626464844, -0.01600000075995922, -0.08000000566244125, 1.055999994277954, 0.0, 0.0, 0.0, 0.0, 0.0, 1.621340467365812E9, 2021-05-18 14:21:07.365
48.0, 102.14788818359375, 2.1354827880859375, 223.59927368164062, -48.878623962402344, -0.01600000075995922, -0.08000000566244125, 1.055999994277954, 0.0, 0.0, 0.0, 0.0, 0.0, 1.621340467366541E9, 2021-05-18 14:21:07.366
48.0, 144.7715301513672, 40.00571060180664, 272.2030029296875, -5.895952224731445, -0.01600000075995922, -0.08000000566244125, 1.055999994277954, 0.0, 0.0, 0.0, 0.0, 0.0, 1.621340467366541E9, 2021-05-18 14:21:07.366
49.0, 64.49083709716797, -46.06434631347656, 177.62841796875, -91.07217407226562, -0.01600000075995922, -0.08000000566244125, 1.055999994277954, 0.0, 0.0, 0.0, 0.0, 0.0, 1.6213404673803484E9, 2021-05-18 14:21:07.380
49.0, 66.83201599121094, -39.915950775146484, 189.84666442871094, -86.7151870727539, -0.01600000075995922, -0.08000000566244125, 1.055999994277954, 0.0, 0.0, 0.0, 0.0, 0.0, 1.6213404673803484E9, 2021-05-18 14:21:07.380
50.0, 101.17925262451172, -3.556644916534424, 223.7974853515625, -44.22992706298828, -0.01600000075995922, -0.08000000566244125, 1.055999994277954, 0.0, 0.0, 0.0, 0.0, 0.0, 1.6213404673959424E9, 2021-05-18 14:21:07.395
50.0, 148.87794494628906, 40.678890228271484, 272.419921875, -0.37585994601249695, -0.01600000075995922, -0.08000000566244125, 1.055999994277954, 0.0, 0.0, 0.0, 0.0, 0.0, 1.6213404673959424E9, 2021-05-18 14:21:07.395
51.0, 57.22794723510742, -47.751041412353516, 179.08697509765625, -87.70626068115234, -0.01600000075995922, -0.08000000566244125, 1.055999994277954, 0.0, 0.0, 0.0, 0.0, 0.0, 1.6213404673966672E9, 2021-05-18 14:21:07.396
51.0, 62.68072509765625, -43.36040115356445, 191.40994262695312, -79.73279571533203, -0.01600000075995922, -0.08000000566244125, 1.055999994277954, 0.0, 0.0, 0.0, 0.0, 0.0, 1.6213404673966672E9, 2021-05-18 14:21:07.396
52.0, 106.10469818115234, -11.16360092163086, 221.44882202148438, -36.66410827636719, -0.01600000075995922, -0.08000000566244125, 1.055999994277954, 0.0, 0.0, 0.0, 0.0, 0.0, 1.6213404674102564E9, 2021-05-18 14:21:07.410
52.0, 147.88311767578125, 40.256282806396484, 269.35693359375, 2.9937899112701416, -0.01600000075995922, -0.08000000566244125, 1.055999994277954, 0.0, 0.0, 0.0, 0.0, 0.0, 1.6213404674102564E9, 2021-05-18 14:21:07.410
53.0, 59.595306396484375, -52.56055450439453, 166.93231201171875, -85.73533630371094, -0.01600000075995922, -0.08000000566244125, 1.055999994277954, 0.0, 0.0, 0.0, 0.0, 0.0, 1.6213404674261854E9, 2021-05-18 14:21:07.426
53.0, 71.45452880859375, -44.325294494628906, 174.46820068359375, -85.67923736572266, -0.01600000075995922, -0.08000000566244125, 1.055999994277954, 0.0, 0.0, 0.0, 0.0, 0.0, 1.6213404674261854E9, 2021-05-18 14:21:07.426
54.0, 109.69126892089844, -5.572451114654541, 216.51963806152344, -48.82252502441406, -0.01600000075995922, -0.08000000566244125, 1.055999994277954, 0.0, 0.0, 0.0, 0.0, 0.0, 1.6213404674408815E9, 2021-05-18 14:21:07.440
54.0, 155.99122619628906, 35.379451751708984, 262.61016845703125, -8.719576835632324, -0.01600000075995922, -0.08000000566244125, 1.055999994277954, 0.0, 0.0, 0.0, 0.0, 0.0, 1.6213404674408815E9, 2021-05-18 14:21:07.440
55.0, 67.9315414428711, -58.3873176574707, 171.76425170898438, -101.4242172241211, -0.01600000075995922, -0.08000000566244125, 1.055999994277954, 0.0, 0.0, 0.0, 0.0, 0.0, 1.6213404674415565E9, 2021-05-18 14:21:07.441
55.0, 80.21337127685547, -47.19379806518555, 180.42959594726562, -91.12079620361328, -0.01600000075995922, -0.08000000566244125, 1.055999994277954, 0.0, 0.0, 0.0, 0.0, 0.0, 1.6213404674415565E9, 2021-05-18 14:21:07.441
56.0, 110.18119049072266, -18.157215118408203, 220.84669494628906, -54.4622917175293, -0.01600000075995922, -0.08000000566244125, 1.055999994277954, 0.0, 0.0, 0.0, 0.0, 0.0, 1.6213404674559004E9, 2021-05-18 14:21:07.455
56.0, 149.22201538085938, 27.95201301574707, 260.69158935546875, -9.08234691619873, -0.01600000075995922, -0.08000000566244125, 1.055999994277954, 0.0, 0.0, 0.0, 0.0, 0.0, 1.6213404674559004E9, 2021-05-18 14:21:07.455
57.0, 68.58976745605469, -55.956382751464844, 173.3499755859375, -87.30235290527344, -0.01600000075995922, -0.08000000566244125, 1.055999994277954, 0.0, 0.0, 0.0, 0.0, 0.0, 1.621340467456596E9, 2021-05-18 14:21:07.456
57.0, 66.86566925048828, -47.91185760498047, 177.3292236328125, -81.58404541015625, -0.01600000075995922, -0.08000000566244125, 1.055999994277954, 0.0, 0.0, 0.0, 0.0, 0.0, 1.621340467456596E9, 2021-05-18 14:21:07.456
58.0, 103.66629028320312, -3.8520970344543457, 221.2954864501953, -46.70948028564453, -0.01600000075995922, -0.08000000566244125, 1.055999994277954, 0.0, 0.0, 0.0, 0.0, 0.0, 1.6213404674701495E9, 2021-05-18 14:21:07.470
58.0, 140.42950439453125, 37.496238708496094, 261.809814453125, -5.507002830505371, -0.01600000075995922, -0.08000000566244125, 1.055999994277954, 0.0, 0.0, 0.0, 0.0, 0.0, 1.6213404674701495E9, 2021-05-18 14:21:07.470
59.0, 46.81232833862305, -50.623287200927734, 170.69464111328125, -91.76405334472656, -0.01600000075995922, -0.08000000566244125, 1.055999994277954, 0.0, 0.0, 0.0, 0.0, 0.0, 1.6213404674858973E9, 2021-05-18 14:21:07.485
59.0, 60.09271240234375, -36.95395278930664, 180.58294677734375, -81.58030700683594, -0.01600000075995922, -0.08000000566244125, 1.055999994277954, 0.0, 0.0, 0.0, 0.0, 0.0, 1.6213404674858973E9, 2021-05-18 14:21:07.485
60.0, 103.05668640136719, 2.580530881881714, 224.32107543945312, -35.90864944458008, -0.01600000075995922, -0.08000000566244125, 1.055999994277954, 0.0, 0.0, 0.0, 0.0, 0.0, 1.6213404674865317E9, 2021-05-18 14:21:07.486
60.0, 138.87744140625, 39.90099334716797, 258.9263610839844, -5.514482498168945, -0.01600000075995922, -0.08000000566244125, 1.055999994277954, 0.0, 0.0, 0.0, 0.0, 0.0, 1.6213404674865317E9, 2021-05-18 14:21:07.486
61.0, 52.44835662841797, -52.56803512573242, 162.4893035888672, -91.5097427368164, -0.01600000075995922, -0.08000000566244125, 1.055999994277954, 0.0, 0.0, 0.0, 0.0, 0.0, 1.6213404675172896E9, 2021-05-18 14:21:07.517
61.0, 63.888710021972656, -44.848880767822266, 175.83700561523438, -84.37775421142578, -0.01600000075995922, -0.08000000566244125, 1.055999994277954, 0.0, 0.0, 0.0, 0.0, 0.0, 1.6213404675172896E9, 2021-05-18 14:21:07.517
62.0, 106.66568756103516, -10.512858390808105, 213.69227600097656, -54.301475524902344, -0.01600000075995922, -0.08000000566244125, 1.055999994277954, 0.0, 0.0, 0.0, 0.0, 0.0, 1.6213404675179784E9, 2021-05-18 14:21:07.517
62.0, 149.6558380126953, 33.45340347290039, 263.79571533203125, -11.995729446411133, -0.01600000075995922, -0.08000000566244125, 1.055999994277954, 0.0, 0.0, 0.0, 0.0, 0.0, 1.6213404675179784E9, 2021-05-18 14:21:07.517
63.0, 60.81077194213867, -52.99812316894531, 173.65664672851562, -100.41070556640625, -0.01600000075995922, -0.08000000566244125, 1.055999994277954, 0.0, 0.0, 0.0, 0.0, 0.0, 1.6213404675187447E9, 2021-05-18 14:21:07.518
63.0, 69.0348129272461, -40.61905288696289, 184.13211059570312, -89.16856384277344, -0.01600000075995922, -0.08000000566244125, 1.055999994277954, 0.0, 0.0, 0.0, 0.0, 0.0, 1.6213404675187447E9, 2021-05-18 14:21:07.518
64.0, 102.0581283569336, -5.976360321044922, 223.89471435546875, -49.55928421020508, -0.01600000075995922, -0.08000000566244125, 1.055999994277954, 0.0, 0.0, 0.0, 0.0, 0.0, 1.6213404675301905E9, 2021-05-18 14:21:07.530
64.0, 145.05201721191406, 39.00341796875, 266.47723388671875, -8.173551559448242, -0.01600000075995922, -0.08000000566244125, 1.055999994277954, 0.0, 0.0, 0.0, 0.0, 0.0, 1.6213404675301905E9, 2021-05-18 14:21:07.530
65.0, 64.74888610839844, -51.625579833984375, 185.02967834472656, -92.9907455444336, -0.01600000075995922, -0.08000000566244125, 1.055999994277954, 0.0, 0.0, 0.0, 0.0, 0.0, 1.6213404675459723E9, 2021-05-18 14:21:07.545
65.0, 63.85505294799805, -46.62907409667969, 187.18760681152344, -84.77792358398438, -0.01600000075995922, -0.08000000566244125, 1.055999994277954, 0.0, 0.0, 0.0, 0.0, 0.0, 1.6213404675459723E9, 2021-05-18 14:21:07.545
66.0, 103.95800018310547, -2.2215006351470947, 225.33831787109375, -37.93193435668945, -0.01600000075995922, -0.08000000566244125, 1.055999994277954, 0.0, 0.0, 0.0, 0.0, 0.0, 1.6213404675466275E9, 2021-05-18 14:21:07.546
66.0, 142.4490509033203, 32.79518127441406, 260.0670471191406, -2.18597149848938, -0.01600000075995922, -0.08000000566244125, 1.055999994277954, 0.0, 0.0, 0.0, 0.0, 0.0, 1.6213404675466275E9, 2021-05-18 14:21:07.546
67.0, 57.27656936645508, -53.98545455932617, 167.6540985107422, -88.5813980102539, -0.01600000075995922, -0.08000000566244125, 1.055999994277954, 0.0, 0.0, 0.0, 0.0, 0.0, 1.6213404675601082E9, 2021-05-18 14:21:07.560
67.0, 68.39529418945312, -44.72172546386719, 181.27108764648438, -77.29064178466797, -0.01600000075995922, -0.08000000566244125, 1.055999994277954, 0.0, 0.0, 0.0, 0.0, 0.0, 1.6213404675601082E9, 2021-05-18 14:21:07.560
68.0, 103.80840301513672, -9.024378776550293, 217.70144653320312, -39.45781326293945, -0.01600000075995922, -0.08000000566244125, 1.055999994277954, 0.0, 0.0, 0.0, 0.0, 0.0, 1.6213404675759113E9, 2021-05-18 14:21:07.575
68.0, 153.2461395263672, 33.195350646972656, 264.532470703125, -8.394205093383789, -0.01600000075995922, -0.08000000566244125, 1.055999994277954, 0.0, 0.0, 0.0, 0.0, 0.0, 1.6213404675759113E9, 2021-05-18 14:21:07.575
69.0, 58.357398986816406, -54.1500129699707, 169.8232421875, -103.36522674560547, -0.01600000075995922, -0.08000000566244125, 1.055999994277954, 0.0, 0.0, 0.0, 0.0, 0.0, 1.6213404675765815E9, 2021-05-18 14:21:07.576
69.0, 69.96604919433594, -35.203678131103516, 181.93678283691406, -91.4648666381836, -0.01600000075995922, -0.08000000566244125, 1.055999994277954, 0.0, 0.0, 0.0, 0.0, 0.0, 1.6213404675765815E9, 2021-05-18 14:21:07.576
70.0, 108.18034362792969, -1.6380761861801147, 217.37982177734375, -60.55084991455078, -0.01600000075995922, -0.08000000566244125, 1.040000081062317, 0.0, 0.0, 0.0, 0.0, 0.0, 1.6213404675901716E9, 2021-05-18 14:21:07.590
70.0, 151.99327087402344, 42.20103073120117, 264.31182861328125, -14.781954765319824, -0.01600000075995922, -0.08000000566244125, 1.040000081062317, 0.0, 0.0, 0.0, 0.0, 0.0, 1.6213404675901716E9, 2021-05-18 14:21:07.590
71.0, 60.57516098022461, -49.72196960449219, 168.1365509033203, -104.53581237792969, -0.01600000075995922, -0.08000000566244125, 1.040000081062317, 0.0, 0.0, 0.0, 0.0, 0.0, 1.6213404676058967E9, 2021-05-18 14:21:07.605
71.0, 71.40216827392578, -41.79338073730469, 178.50355529785156, -91.77153778076172, -0.01600000075995922, -0.08000000566244125, 1.040000081062317, 0.0, 0.0, 0.0, 0.0, 0.0, 1.6213404676058967E9, 2021-05-18 14:21:07.605
72.0, 107.05089569091797, -5.579930782318115, 215.87637329101562, -52.502586364746094, -0.01600000075995922, -0.08000000566244125, 1.040000081062317, 0.0, 0.0, 0.0, 0.0, 0.0, 1.6213404676065867E9, 2021-05-18 14:21:07.606
72.0, 148.27581787109375, 40.31612014770508, 262.3595886230469, -4.291535377502441, -0.01600000075995922, -0.08000000566244125, 1.040000081062317, 0.0, 0.0, 0.0, 0.0, 0.0, 1.6213404676065867E9, 2021-05-18 14:21:07.606
73.0, 53.31601333618164, -53.921878814697266, 166.24041748046875, -97.41504669189453, -0.01600000075995922, -0.08000000566244125, 1.040000081062317, 0.0, 0.0, 0.0, 0.0, 0.0, 1.6213404676201901E9, 2021-05-18 14:21:07.620
73.0, 62.18705749511719, -39.24650955200195, 181.7049102783203, -76.84559631347656, -0.01600000075995922, -0.08000000566244125, 1.040000081062317, 0.0, 0.0, 0.0, 0.0, 0.0, 1.6213404676201901E9, 2021-05-18 14:21:07.620
74.0, 97.40943145751953, 0.6245632767677307, 222.81015014648438, -40.09733581542969, -0.01600000075995922, -0.08000000566244125, 1.040000081062317, 0.0, 0.0, 0.0, 0.0, 0.0, 1.6213404676669774E9, 2021-05-18 14:21:07.666
74.0, 137.02993774414062, 33.80869674682617, 263.27960205078125, -9.261861801147461, -0.01600000075995922, -0.08000000566244125, 1.040000081062317, 0.0, 0.0, 0.0, 0.0, 0.0, 1.6213404676669774E9, 2021-05-18 14:21:07.666
75.0, 50.21189498901367, -52.74380874633789, 172.0709228515625, -95.33940124511719, -0.01600000075995922, -0.08000000566244125, 1.040000081062317, 0.0, 0.0, 0.0, 0.0, 0.0, 1.6213404676677024E9, 2021-05-18 14:21:07.667
75.0, 54.774574279785156, -38.44243240356445, 181.1887969970703, -86.03079223632812, -0.01600000075995922, -0.08000000566244125, 1.040000081062317, 0.0, 0.0, 0.0, 0.0, 0.0, 1.6213404676677024E9, 2021-05-18 14:21:07.667
76.0, 89.81743621826172, -0.747979998588562, 212.42445373535156, -54.81758499145508, -0.01600000075995922, -0.08000000566244125, 1.040000081062317, 0.0, 0.0, 0.0, 0.0, 0.0, 1.62134046766843E9, 2021-05-18 14:21:07.668
76.0, 137.29547119140625, 40.00196838378906, 257.66229248046875, -19.340892791748047, -0.01600000075995922, -0.08000000566244125, 1.040000081062317, 0.0, 0.0, 0.0, 0.0, 0.0, 1.62134046766843E9, 2021-05-18 14:21:07.668
77.0, 61.495174407958984, -51.23289108276367, 167.44467163085938, -103.2941665649414, -0.01600000075995922, -0.08000000566244125, 1.040000081062317, 0.0, 0.0, 0.0, 0.0, 0.0, 1.621340467681569E9, 2021-05-18 14:21:07.681
77.0, 70.40735626220703, -44.130821228027344, 175.06658935546875, -95.0028076171875, -0.01600000075995922, -0.08000000566244125, 1.040000081062317, 0.0, 0.0, 0.0, 0.0, 0.0, 1.621340467681569E9, 2021-05-18 14:21:07.681
78.0, 109.74736785888672, -2.498253107070923, 222.6942138671875, -53.84894943237305, -0.01600000075995922, -0.08000000566244125, 1.040000081062317, 0.0, 0.0, 0.0, 0.0, 0.0, 1.6213404676822677E9, 2021-05-18 14:21:07.682
78.0, 146.71627807617188, 26.98337745666504, 258.50750732421875, -12.332320213317871, -0.01600000075995922, -0.08000000566244125, 1.040000081062317, 0.0, 0.0, 0.0, 0.0, 0.0, 1.6213404676822677E9, 2021-05-18 14:21:07.682
79.0, 57.80763244628906, -55.963863372802734, 169.89804077148438, -103.21936798095703, -0.01600000075995922, -0.08000000566244125, 1.040000081062317, 0.0, 0.0, 0.0, 0.0, 0.0, 1.6213404676830032E9, 2021-05-18 14:21:07.683
79.0, 74.21831512451172, -41.497928619384766, 186.5293731689453, -86.41600036621094, -0.01600000075995922, -0.08000000566244125, 1.040000081062317, 0.0, 0.0, 0.0, 0.0, 0.0, 1.6213404676830032E9, 2021-05-18 14:21:07.683
80.0, 101.53828430175781, -8.336236953735352, 224.8035125732422, -53.2580451965332, -0.01600000075995922, -0.08000000566244125, 1.055999994277954, 0.0, 0.0, 0.0, 0.0, 0.0, 1.6213404677115638E9, 2021-05-18 14:21:07.711
80.0, 146.9444122314453, 39.10065460205078, 270.2208557128906, -14.636098861694336, -0.01600000075995922, -0.08000000566244125, 1.055999994277954, 0.0, 0.0, 0.0, 0.0, 0.0, 1.6213404677115638E9, 2021-05-18 14:21:07.711
81.0, 63.466102600097656, -44.53472900390625, 180.3809814453125, -98.54823303222656, -0.01600000075995922, -0.08000000566244125, 1.055999994277954, 0.0, 0.0, 0.0, 0.0, 0.0, 1.621340467712237E9, 2021-05-18 14:21:07.712
81.0, 69.86881256103516, -32.12948226928711, 187.53541564941406, -87.20885467529297, -0.01600000075995922, -0.08000000566244125, 1.055999994277954, 0.0, 0.0, 0.0, 0.0, 0.0, 1.621340467712237E9, 2021-05-18 14:21:07.712
82.0, 92.8654556274414, 5.804324626922607, 222.58949279785156, -52.09867477416992, -0.03200000151991844, -0.08000000566244125, 1.055999994277954, 0.0, 0.0, 0.0, 0.0, 0.0, 1.62134046771303E9, 2021-05-18 14:21:07.713
82.0, 134.82713317871094, 46.04938888549805, 269.1400451660156, -7.399392127990723, -0.03200000151991844, -0.08000000566244125, 1.055999994277954, 0.0, 0.0, 0.0, 0.0, 0.0, 1.62134046771303E9, 2021-05-18 14:21:07.713
83.0, 52.145423889160156, -49.31058120727539, 173.96705627441406, -96.68202209472656, -0.03200000151991844, -0.08000000566244125, 1.055999994277954, 0.0, 0.0, 0.0, 0.0, 0.0, 1.621340467725946E9, 2021-05-18 14:21:07.725
83.0, 60.833213806152344, -43.37910079956055, 183.02134704589844, -92.62049102783203, -0.03200000151991844, -0.08000000566244125, 1.055999994277954, 0.0, 0.0, 0.0, 0.0, 0.0, 1.621340467725946E9, 2021-05-18 14:21:07.725
84.0, 102.24512481689453, -0.8339976668357849, 222.9522705078125, -50.2661247253418, -0.03200000151991844, -0.08000000566244125, 1.055999994277954, 0.0, 0.0, 0.0, 0.0, 0.0, 1.621340467726621E9, 2021-05-18 14:21:07.726
84.0, 149.5735626220703, 38.54340744018555, 269.8954772949219, -2.8853328227996826, -0.03200000151991844, -0.08000000566244125, 1.055999994277954, 0.0, 0.0, 0.0, 0.0, 0.0, 1.621340467726621E9, 2021-05-18 14:21:07.726
85.0, 52.56803512573242, -54.07521438598633, 166.80140686035156, -93.17399597167969, -0.03200000151991844, -0.08000000566244125, 1.055999994277954, 0.0, 0.0, 0.0, 0.0, 0.0, 1.6213404677401807E9, 2021-05-18 14:21:07.740
85.0, 69.62197875976562, -42.743316650390625, 171.63710021972656, -81.2100601196289, -0.03200000151991844, -0.08000000566244125, 1.055999994277954, 0.0, 0.0, 0.0, 0.0, 0.0, 1.6213404677401807E9, 2021-05-18 14:21:07.740
86.0, 101.20542907714844, -14.391135215759277, 213.42674255371094, -45.400516510009766, -0.03200000151991844, -0.08000000566244125, 1.055999994277954, 0.0, 0.0, 0.0, 0.0, 0.0, 1.6213404677729075E9, 2021-05-18 14:21:07.772
86.0, 148.8106231689453, 25.977344512939453, 255.74371337890625, -3.2331435680389404, -0.03200000151991844, -0.08000000566244125, 1.055999994277954, 0.0, 0.0, 0.0, 0.0, 0.0, 1.6213404677729075E9, 2021-05-18 14:21:07.772
87.0, 53.91813659667969, -56.99981689453125, 163.2597198486328, -98.7763671875, -0.03200000151991844, -0.08000000566244125, 1.055999994277954, 0.0, 0.0, 0.0, 0.0, 0.0, 1.62134046777358E9, 2021-05-18 14:21:07.773
87.0, 70.8411865234375, -45.34628677368164, 185.15309143066406, -85.466064453125, -0.03200000151991844, -0.08000000566244125, 1.055999994277954, 0.0, 0.0, 0.0, 0.0, 0.0, 1.62134046777358E9, 2021-05-18 14:21:07.773
88.0, 99.04003143310547, -10.879368782043457, 218.6999969482422, -57.955360412597656, -0.03200000151991844, -0.08000000566244125, 1.055999994277954, 0.0, 0.0, 0.0, 0.0, 0.0, 1.621340467774505E9, 2021-05-18 14:21:07.774
88.0, 144.84632873535156, 41.7447624206543, 268.08538818359375, -16.70426368713379, -0.03200000151991844, -0.08000000566244125, 1.055999994277954, 0.0, 0.0, 0.0, 0.0, 0.0, 1.621340467774505E9, 2021-05-18 14:21:07.774
89.0, 55.862884521484375, -52.17160415649414, 177.60597229003906, -100.6837158203125, -0.03200000151991844, -0.08000000566244125, 1.055999994277954, 0.0, 0.0, 0.0, 0.0, 0.0, 1.6213404677751129E9, 2021-05-18 14:21:07.775
89.0, 63.275367736816406, -38.304054260253906, 192.32247924804688, -89.51263427734375, -0.03200000151991844, -0.08000000566244125, 1.055999994277954, 0.0, 0.0, 0.0, 0.0, 0.0, 1.6213404677751129E9, 2021-05-18 14:21:07.775
90.0, 96.36600494384766, 1.2678260803222656, 231.0005340576172, -54.68668746948242, -0.03200000151991844, -0.08000000566244125, 1.055999994277954, 0.0, 0.0, 0.0, 0.0, 0.0, 1.6213404677852285E9, 2021-05-18 14:21:07.785
90.0, 148.14117431640625, 45.7988166809082, 280.6925964355469, -14.95398998260498, -0.03200000151991844, -0.08000000566244125, 1.055999994277954, 0.0, 0.0, 0.0, 0.0, 0.0, 1.6213404677852285E9, 2021-05-18 14:21:07.785
91.0, 59.70376205444336, -42.31696701049805, 191.67173767089844, -94.62507629394531, -0.03200000151991844, -0.08000000566244125, 1.055999994277954, 0.0, 0.0, 0.0, 0.0, 0.0, 1.6213404678001852E9, 2021-05-18 14:21:07.800
91.0, 67.9726791381836, -35.08399963378906, 199.82098388671875, -82.93415069580078, -0.03200000151991844, -0.08000000566244125, 1.055999994277954, 0.0, 0.0, 0.0, 0.0, 0.0, 1.6213404678001852E9, 2021-05-18 14:21:07.800
92.0, 106.33283233642578, -1.4922200441360474, 238.24098205566406, -38.8220329284668, -0.03200000151991844, -0.08000000566244125, 1.055999994277954, 0.0, 0.0, 0.0, 0.0, 0.0, 1.6213404678166008E9, 2021-05-18 14:21:07.816
92.0, 152.71881103515625, 34.85212707519531, 283.71441650390625, 3.9923431873321533, -0.03200000151991844, -0.08000000566244125, 1.055999994277954, 0.0, 0.0, 0.0, 0.0, 0.0, 1.6213404678166008E9, 2021-05-18 14:21:07.816
93.0, 63.510982513427734, -55.03636932373047, 187.23248291015625, -85.04719543457031, -0.03200000151991844, -0.08000000566244125, 1.055999994277954, 0.0, 0.0, 0.0, 0.0, 0.0, 1.6213404678173256E9, 2021-05-18 14:21:07.817
93.0, 73.57878875732422, -45.92597198486328, 198.2315216064453, -73.64797973632812, -0.03200000151991844, -0.08000000566244125, 1.055999994277954, 0.0, 0.0, 0.0, 0.0, 0.0, 1.6213404678173256E9, 2021-05-18 14:21:07.817
94.0, 102.28626251220703, -14.697806358337402, 223.59178161621094, -34.397727966308594, -0.03200000151991844, -0.08000000566244125, 1.055999994277954, 0.0, 0.0, 0.0, 0.0, 0.0, 1.6213404678303463E9, 2021-05-18 14:21:07.830
94.0, 150.2130889892578, 24.208372116088867, 265.83770751953125, 1.1163601875305176, -0.03200000151991844, -0.08000000566244125, 1.055999994277954, 0.0, 0.0, 0.0, 0.0, 0.0, 1.6213404678303463E9, 2021-05-18 14:21:07.830
95.0, 66.39070129394531, -58.28260040283203, 172.8450927734375, -86.7114486694336, -0.03200000151991844, -0.08000000566244125, 1.055999994277954, 0.0, 0.0, 0.0, 0.0, 0.0, 1.6213404678460548E9, 2021-05-18 14:21:07.846
95.0, 68.7356185913086, -47.01054382324219, 177.57980346679688, -77.0924301147461, -0.03200000151991844, -0.08000000566244125, 1.055999994277954, 0.0, 0.0, 0.0, 0.0, 0.0, 1.6213404678460548E9, 2021-05-18 14:21:07.846
96.0, 95.71526336669922, -16.317184448242188, 214.5935821533203, -50.95052719116211, -0.03200000151991844, -0.08000000566244125, 1.055999994277954, 0.0, 0.0, 0.0, 0.0, 0.0, 1.6213404678465908E9, 2021-05-18 14:21:07.846
96.0, 146.36097717285156, 29.537729263305664, 260.52703857421875, -7.822000980377197, -0.03200000151991844, -0.08000000566244125, 1.055999994277954, 0.0, 0.0, 0.0, 0.0, 0.0, 1.6213404678465908E9, 2021-05-18 14:21:07.846
97.0, 60.43304443359375, -56.42013168334961, 168.7686004638672, -95.38427734375, -0.03200000151991844, -0.08000000566244125, 1.055999994277954, 0.0, 0.0, 0.0, 0.0, 0.0, 1.6213404678602428E9, 2021-05-18 14:21:07.860
97.0, 66.14386749267578, -39.33252716064453, 180.71009826660156, -85.26410675048828, -0.03200000151991844, -0.08000000566244125, 1.055999994277954, 0.0, 0.0, 0.0, 0.0, 0.0, 1.6213404678602428E9, 2021-05-18 14:21:07.860
98.0, 96.62031555175781, -0.9835937023162842, 215.09474182128906, -51.60126876831055, -0.03200000151991844, -0.08000000566244125, 1.055999994277954, 0.0, 0.0, 0.0, 0.0, 0.0, 1.6213404678765397E9, 2021-05-18 14:21:07.876
98.0, 135.57138061523438, 37.342899322509766, 253.94107055664062, -17.067033767700195, -0.03200000151991844, -0.08000000566244125, 1.055999994277954, 0.0, 0.0, 0.0, 0.0, 0.0, 1.6213404678765397E9, 2021-05-18 14:21:07.876
99.0, 54.239768981933594, -54.875553131103516, 168.8097381591797, -99.19149780273438, -0.03200000151991844, -0.08000000566244125, 1.055999994277954, 0.0, 0.0, 0.0, 0.0, 0.0, 1.6213404678772724E9, 2021-05-18 14:21:07.877
99.0, 71.67518615722656, -31.650774002075195, 189.39414978027344, -87.76235961914062, -0.03200000151991844, -0.08000000566244125, 1.055999994277954, 0.0, 0.0, 0.0, 0.0, 0.0, 1.6213404678772724E9, 2021-05-18 14:21:07.877
100.0, 98.69596099853516, -2.0457253456115723, 216.62435913085938, -65.95874786376953, -0.03200000151991844, -0.08000000566244125, 1.055999994277954, 0.0, 0.0, 0.0, 0.0, 0.0, 1.6213404678916E9, 2021-05-18 14:21:07.891
100.0, 150.30284118652344, 45.4584846496582, 269.7832946777344, -15.870265007019043, -0.03200000151991844, -0.08000000566244125, 1.055999994277954, 0.0, 0.0, 0.0, 0.0, 0.0, 1.6213404678916E9, 2021-05-18 14:21:07.891
0.0, 61.835506439208984, -53.390811920166016, 177.2563018798828, -105.7120132446289, -0.03200000151991844, -0.08000000566244125, 1.055999994277954, 0.0, 0.0, 0.0, 0.0, 0.0, 1.621340467892261E9, 2021-05-18 14:21:07.892
1.0, 73.01406860351562, -38.23299789428711, 188.80885314941406, -94.54467010498047, -0.03200000151991844, -0.08000000566244125, 1.055999994277954, 0.0, 0.0, 0.0, 0.0, 0.0, 1.621340467905168E9, 2021-05-18 14:21:07.905
1.0, 102.3199234008789, -0.5647249221801758, 221.5591583251953, -53.22625732421875, -0.03200000151991844, -0.08000000566244125, 1.055999994277954, 0.0, 0.0, 0.0, 0.0, 0.0, 1.621340467905168E9, 2021-05-18 14:21:07.905
2.0, 146.95562744140625, 37.9525032043457, 269.7552490234375, -6.926294803619385, -0.01600000075995922, -0.08000000566244125, 1.055999994277954, 0.0, 0.0, 0.0, 0.0, 0.0, 1.6213404679209442E9, 2021-05-18 14:21:07.920
2.0, 55.870365142822266, -50.67564392089844, 174.55609130859375, -95.80501556396484, -0.01600000075995922, -0.08000000566244125, 1.055999994277954, 0.0, 0.0, 0.0, 0.0, 0.0, 1.6213404679209442E9, 2021-05-18 14:21:07.920
3.0, 69.05351257324219, -39.85611343383789, 194.35885620117188, -77.7076416015625, -0.01600000075995922, -0.08000000566244125, 1.055999994277954, 0.0, 0.0, 0.0, 0.0, 0.0, 1.6213404679216127E9, 2021-05-18 14:21:07.921
3.0, 100.71550750732422, -4.629996299743652, 226.42849731445312, -47.88941955566406, -0.01600000075995922, -0.08000000566244125, 1.055999994277954, 0.0, 0.0, 0.0, 0.0, 0.0, 1.6213404679216127E9, 2021-05-18 14:21:07.921
4.0, 137.46002197265625, 35.289695739746094, 268.8800964355469, -11.500192642211914, -0.01600000075995922, -0.08000000566244125, 1.055999994277954, 0.0, 0.0, 0.0, 0.0, 0.0, 1.6213404679513896E9, 2021-05-18 14:21:07.951
4.0, 50.72426223754883, -50.155799865722656, 175.87628173828125, -93.00009155273438, -0.01600000075995922, -0.08000000566244125, 1.055999994277954, 0.0, 0.0, 0.0, 0.0, 0.0, 1.6213404679513896E9, 2021-05-18 14:21:07.951
5.0, 62.15713882446289, -33.08689498901367, 190.8059539794922, -80.00768280029297, -0.01600000075995922, -0.08000000566244125, 1.055999994277954, 0.0, 0.0, 0.0, 0.0, 0.0, 1.6213404679521255E9, 2021-05-18 14:21:07.952
5.0, 88.56082916259766, -11.503931999206543, 213.3238983154297, -58.634151458740234, -0.01600000075995922, -0.08000000566244125, 1.055999994277954, 0.0, 0.0, 0.0, 0.0, 0.0, 1.6213404679521255E9, 2021-05-18 14:21:07.952
6.0, 141.10269165039062, 39.12309265136719, 265.4356689453125, -10.041631698608398, -0.01600000075995922, -0.08000000566244125, 1.055999994277954, 0.0, 0.0, 0.0, 0.0, 0.0, 1.6213404679986875E9, 2021-05-18 14:21:07.998
6.0, 51.55451965332031, -54.090171813964844, 170.1280517578125, -97.55529022216797, -0.01600000075995922, -0.08000000566244125, 1.055999994277954, 0.0, 0.0, 0.0, 0.0, 0.0, 1.6213404679986875E9, 2021-05-18 14:21:07.998
7.0, 62.886417388916016, -43.00885009765625, 176.25775146484375, -84.77979278564453, -0.01600000075995922, -0.08000000566244125, 1.055999994277954, 0.0, 0.0, 0.0, 0.0, 0.0, 1.6213404679993148E9, 2021-05-18 14:21:07.999
7.0, 106.74048614501953, -8.272658348083496, 217.56494140625, -43.86154556274414, -0.01600000075995922, -0.08000000566244125, 1.055999994277954, 0.0, 0.0, 0.0, 0.0, 0.0, 1.6213404679993148E9, 2021-05-18 14:21:07.999
8.0, 149.2332305908203, 37.80290985107422, 257.1218566894531, -6.320430755615234, -0.01600000075995922, -0.08000000566244125, 1.055999994277954, 0.0, 0.0, 0.0, 0.0, 0.0, 1.6213404680000648E9, 2021-05-18 14:21:08.000
8.0, 55.09620666503906, -52.99064254760742, 166.07398986816406, -88.54212951660156, -0.01600000075995922, -0.08000000566244125, 1.055999994277954, 0.0, 0.0, 0.0, 0.0, 0.0, 1.6213404680000648E9, 2021-05-18 14:21:08.000
9.0, 65.5641860961914, -36.26955032348633, 177.0805206298828, -82.77894592285156, -0.01600000075995922, -0.08000000566244125, 1.055999994277954, 0.0, 0.0, 0.0, 0.0, 0.0, 1.6213404680009959E9, 2021-05-18 14:21:08.000
9.0, 103.21749877929688, 1.3314043283462524, 223.8031005859375, -41.48670959472656, -0.01600000075995922, -0.08000000566244125, 1.055999994277954, 0.0, 0.0, 0.0, 0.0, 0.0, 1.6213404680009959E9, 2021-05-18 14:21:08.000
10.0, 137.37774658203125, 36.856712341308594, 260.3381652832031, -7.8163909912109375, -0.01600000075995922, -0.08000000566244125, 1.055999994277954, 0.0, 0.0, 0.0, 0.0, 0.0, 1.6213404680114627E9, 2021-05-18 14:21:08.011
10.0, 42.44412612915039, -46.53183364868164, 166.0104217529297, -96.04063415527344, -0.01600000075995922, -0.08000000566244125, 1.055999994277954, 0.0, 0.0, 0.0, 0.0, 0.0, 1.6213404680114627E9, 2021-05-18 14:21:08.011
11.0, 58.925865173339844, -40.951904296875, 178.81210327148438, -91.42933654785156, -0.01600000075995922, -0.08000000566244125, 1.055999994277954, 0.0, 0.0, 0.0, 0.0, 0.0, 1.6213404680121071E9, 2021-05-18 14:21:08.012
11.0, 95.49834442138672, 1.4174220561981201, 218.7916259765625, -46.599151611328125, -0.01600000075995922, -0.08000000566244125, 1.055999994277954, 0.0, 0.0, 0.0, 0.0, 0.0, 1.6213404680121071E9, 2021-05-18 14:21:08.012
12.0, 139.96575927734375, 35.42807388305664, 261.47137451171875, -9.488125801086426, -0.01600000075995922, -0.08000000566244125, 1.055999994277954, 0.0, 0.0, 0.0, 0.0, 0.0, 1.6213404680260017E9, 2021-05-18 14:21:08.026
12.0, 42.90413284301758, -57.830074310302734, 165.6775665283203, -98.95775604248047, -0.01600000075995922, -0.08000000566244125, 1.055999994277954, 0.0, 0.0, 0.0, 0.0, 0.0, 1.6213404680260017E9, 2021-05-18 14:21:08.026
13.0, 64.1205825805664, -40.05059051513672, 183.5655059814453, -81.67567443847656, -0.01600000075995922, -0.08000000566244125, 1.055999994277954, 0.0, 0.0, 0.0, 0.0, 0.0, 1.621340468026677E9, 2021-05-18 14:21:08.026
13.0, 106.2580337524414, -1.7203539609909058, 226.70899963378906, -45.0657958984375, -0.01600000075995922, -0.08000000566244125, 1.055999994277954, 0.0, 0.0, 0.0, 0.0, 0.0, 1.621340468026677E9, 2021-05-18 14:21:08.026
14.0, 143.27931213378906, 39.3848876953125, 263.6068420410156, -8.826164245605469, -0.01600000075995922, -0.08000000566244125, 1.055999994277954, 0.0, 0.0, 0.0, 0.0, 0.0, 1.6213404680409448E9, 2021-05-18 14:21:08.040
14.0, 56.03866195678711, -50.13710021972656, 171.3584747314453, -91.2760009765625, -0.01600000075995922, -0.08000000566244125, 1.055999994277954, 0.0, 0.0, 0.0, 0.0, 0.0, 1.6213404680409448E9, 2021-05-18 14:21:08.040
15.0, 70.33629608154297, -36.64353942871094, 185.74961853027344, -80.43402862548828, -0.01600000075995922, -0.08000000566244125, 1.055999994277954, 0.0, 0.0, 0.0, 0.0, 0.0, 1.621340468041572E9, 2021-05-18 14:21:08.041
15.0, 104.01783752441406, -0.5759446024894714, 225.25418090820312, -40.742469787597656, -0.01600000075995922, -0.08000000566244125, 1.055999994277954, 0.0, 0.0, 0.0, 0.0, 0.0, 1.621340468041572E9, 2021-05-18 14:21:08.041
16.0, 145.65040588378906, 40.22636413574219, 265.5291442871094, 1.9110888242721558, -0.01600000075995922, -0.08000000566244125, 1.055999994277954, 0.0, 0.0, 0.0, 0.0, 0.0, 1.621340468055158E9, 2021-05-18 14:21:08.055
16.0, 57.736576080322266, -50.275474548339844, 173.51266479492188, -87.30796813964844, -0.01600000075995922, -0.08000000566244125, 1.055999994277954, 0.0, 0.0, 0.0, 0.0, 0.0, 1.621340468055158E9, 2021-05-18 14:21:08.055
17.0, 67.73332977294922, -41.43809127807617, 186.53125, -76.23786163330078, -0.01600000075995922, -0.08000000566244125, 1.055999994277954, 0.0, 0.0, 0.0, 0.0, 0.0, 1.6213404680709236E9, 2021-05-18 14:21:08.070
17.0, 105.48014068603516, -0.05609849840402603, 226.39109802246094, -36.32938766479492, -0.01600000075995922, -0.08000000566244125, 1.055999994277954, 0.0, 0.0, 0.0, 0.0, 0.0, 1.6213404680709236E9, 2021-05-18 14:21:08.070
18.0, 146.3834228515625, 28.767311096191406, 263.97711181640625, 0.9798538088798523, -0.01600000075995922, -0.08000000566244125, 1.055999994277954, 0.0, 0.0, 0.0, 0.0, 0.0, 1.621340468071601E9, 2021-05-18 14:21:08.071
18.0, 52.429656982421875, -57.05217361450195, 171.68385314941406, -91.34331512451172, -0.01600000075995922, -0.08000000566244125, 1.055999994277954, 0.0, 0.0, 0.0, 0.0, 0.0, 1.621340468071601E9, 2021-05-18 14:21:08.071
19.0, 63.63065719604492, -48.4878044128418, 186.6172637939453, -81.9673843383789, -0.01600000075995922, -0.08000000566244125, 1.055999994277954, 0.0, 0.0, 0.0, 0.0, 0.0, 1.6213404680851345E9, 2021-05-18 14:21:08.085
19.0, 100.46867370605469, -11.365555763244629, 224.96620178222656, -46.228904724121094, -0.01600000075995922, -0.08000000566244125, 1.055999994277954, 0.0, 0.0, 0.0, 0.0, 0.0, 1.6213404680851345E9, 2021-05-18 14:21:08.085
20.0, 141.95912170410156, 36.052635192871094, 272.9229431152344, -0.8003385663032532, -0.01600000075995922, -0.08000000566244125, 1.055999994277954, 0.0, 0.0, 0.0, 0.0, 0.0, 1.6213404681010587E9, 2021-05-18 14:21:08.101
20.0, 52.713890075683594, -53.001861572265625, 181.08221435546875, -88.73286437988281, -0.01600000075995922, -0.08000000566244125, 1.055999994277954, 0.0, 0.0, 0.0, 0.0, 0.0, 1.6213404681010587E9, 2021-05-18 14:21:08.101
21.0, 61.786888122558594, -45.00221633911133, 189.39227294921875, -74.5960464477539, -0.01600000075995922, -0.08000000566244125, 1.055999994277954, 0.0, 0.0, 0.0, 0.0, 0.0, 1.621340468101674E9, 2021-05-18 14:21:08.101
21.0, 103.40449523925781, -0.8040785193443298, 229.53262329101562, -38.547149658203125, -0.01600000075995922, -0.08000000566244125, 1.055999994277954, 0.0, 0.0, 0.0, 0.0, 0.0, 1.621340468101674E9, 2021-05-18 14:21:08.101
22.0, 142.93898010253906, 29.107641220092773, 271.1763916015625, -5.138622760772705, -0.01600000075995922, -0.08000000566244125, 1.055999994277954, 0.0, 0.0, 0.0, 0.0, 0.0, 1.62134046811523E9, 2021-05-18 14:21:08.115
22.0, 60.305885314941406, -55.61979293823242, 179.39552307128906, -87.32292175292969, -0.01600000075995922, -0.08000000566244125, 1.055999994277954, 0.0, 0.0, 0.0, 0.0, 0.0, 1.62134046811523E9, 2021-05-18 14:21:08.115
23.0, 68.88521575927734, -45.75767517089844, 184.60145568847656, -74.43522644042969, -0.01600000075995922, -0.08000000566244125, 1.055999994277954, 0.0, 0.0, 0.0, 0.0, 0.0, 1.621340468130772E9, 2021-05-18 14:21:08.130
23.0, 107.46602630615234, -20.004724502563477, 220.7962188720703, -41.37451171875, -0.01600000075995922, -0.08000000566244125, 1.055999994277954, 0.0, 0.0, 0.0, 0.0, 0.0, 1.621340468130772E9, 2021-05-18 14:21:08.130
24.0, 147.47174072265625, 23.030303955078125, 258.88336181640625, 1.6492959260940552, -0.01600000075995922, -0.08000000566244125, 1.055999994277954, 0.0, 0.0, 0.0, 0.0, 0.0, 1.6213404681459749E9, 2021-05-18 14:21:08.145
24.0, 63.2641487121582, -63.3052864074707, 166.87059020996094, -87.33414459228516, -0.01600000075995922, -0.08000000566244125, 1.055999994277954, 0.0, 0.0, 0.0, 0.0, 0.0, 1.6213404681459749E9, 2021-05-18 14:21:08.145
25.0, 72.8719482421875, -51.35630798339844, 181.57962036132812, -75.71427154541016, -0.01600000075995922, -0.08000000566244125, 1.055999994277954, 0.0, 0.0, 0.0, 0.0, 0.0, 1.621340468146658E9, 2021-05-18 14:21:08.146
25.0, 110.0278549194336, -8.283878326416016, 224.70440673828125, -38.50226974487305, -0.01600000075995922, -0.08000000566244125, 1.055999994277954, 0.0, 0.0, 0.0, 0.0, 0.0, 1.621340468146658E9, 2021-05-18 14:21:08.146
26.0, 151.7688751220703, 30.54376220703125, 261.0001525878906, -10.01919174194336, -0.01600000075995922, -0.08000000566244125, 1.055999994277954, 0.0, 0.0, 0.0, 0.0, 0.0, 1.6213404681609747E9, 2021-05-18 14:21:08.160
26.0, 59.07545852661133, -66.82079315185547, 176.84490966796875, -95.16923522949219, -0.01600000075995922, -0.08000000566244125, 1.055999994277954, 0.0, 0.0, 0.0, 0.0, 0.0, 1.6213404681609747E9, 2021-05-18 14:21:08.160
27.0, 67.59869384765625, -49.950103759765625, 189.57179260253906, -90.84590911865234, -0.01600000075995922, -0.08000000566244125, 1.055999994277954, 0.0, 0.0, 0.0, 0.0, 0.0, 1.6213404681616828E9, 2021-05-18 14:21:08.161
27.0, 102.41342163085938, -7.14694881439209, 222.8269805908203, -54.576358795166016, -0.01600000075995922, -0.08000000566244125, 1.055999994277954, 0.0, 0.0, 0.0, 0.0, 0.0, 1.6213404681616828E9, 2021-05-18 14:21:08.161
28.0, 144.84632873535156, 36.11995315551758, 272.73968505859375, -11.990118980407715, -0.01600000075995922, -0.08000000566244125, 1.055999994277954, 0.0, 0.0, 0.0, 0.0, 0.0, 1.621340468175175E9, 2021-05-18 14:21:08.175
28.0, 51.21044921875, -51.898590087890625, 178.8046112060547, -97.93302154541016, -0.01600000075995922, -0.08000000566244125, 1.055999994277954, 0.0, 0.0, 0.0, 0.0, 0.0, 1.621340468175175E9, 2021-05-18 14:21:08.175
29.0, 57.84503173828125, -36.46402359008789, 190.0093536376953, -82.41243743896484, -0.01600000075995922, -0.08000000566244125, 1.055999994277954, 0.0, 0.0, 0.0, 0.0, 0.0, 1.6213404681909213E9, 2021-05-18 14:21:08.190
29.0, 91.14884185791016, -5.673428058624268, 224.40895080566406, -46.64777374267578, -0.01600000075995922, -0.08000000566244125, 1.055999994277954, 0.0, 0.0, 0.0, 0.0, 0.0, 1.6213404681909213E9, 2021-05-18 14:21:08.190
30.0, 140.75486755371094, 45.5183219909668, 267.4626770019531, -0.4749673008918762, -0.01600000075995922, -0.08000000566244125, 1.055999994277954, 0.0, 0.0, 0.0, 0.0, 0.0, 1.6213404681915965E9, 2021-05-18 14:21:08.191
30.0, 45.660438537597656, -54.89051055908203, 171.71376037597656, -91.5003890991211, -0.01600000075995922, -0.08000000566244125, 1.055999994277954, 0.0, 0.0, 0.0, 0.0, 0.0, 1.6213404681915965E9, 2021-05-18 14:21:08.191
31.0, 57.45234298706055, -46.68517303466797, 181.96856689453125, -78.66879272460938, -0.01600000075995922, -0.08000000566244125, 1.055999994277954, 0.0, 0.0, 0.0, 0.0, 0.0, 1.6213404682051613E9, 2021-05-18 14:21:08.205
31.0, 92.7607421875, -12.56606388092041, 213.2827606201172, -46.01198959350586, -0.01600000075995922, -0.08000000566244125, 1.055999994277954, 0.0, 0.0, 0.0, 0.0, 0.0, 1.6213404682051613E9, 2021-05-18 14:21:08.205
32.0, 139.6815185546875, 35.07278060913086, 259.20123291015625, -1.9709272384643555, -0.01600000075995922, -0.08000000566244125, 1.055999994277954, 0.0, 0.0, 0.0, 0.0, 0.0, 1.62134046822158E9, 2021-05-18 14:21:08.221
32.0, 47.57900619506836, -63.888710021972656, 165.1128387451172, -94.98223876953125, -0.01600000075995922, -0.08000000566244125, 1.055999994277954, 0.0, 0.0, 0.0, 0.0, 0.0, 1.62134046822158E9, 2021-05-18 14:21:08.221
33.0, 61.99258041381836, -50.331573486328125, 173.41915893554688, -85.12760162353516, -0.01600000075995922, -0.08000000566244125, 1.055999994277954, 0.0, 0.0, 0.0, 0.0, 0.0, 1.6213404682223089E9, 2021-05-18 14:21:08.222
33.0, 95.11687469482422, -11.904101371765137, 210.76954650878906, -45.985809326171875, -0.01600000075995922, -0.08000000566244125, 1.055999994277954, 0.0, 0.0, 0.0, 0.0, 0.0, 1.6213404682223089E9, 2021-05-18 14:21:08.222
34.0, 139.27761840820312, 32.26785659790039, 257.8436584472656, -7.1357293128967285, -0.01600000075995922, -0.08000000566244125, 1.055999994277954, 0.0, 0.0, 0.0, 0.0, 0.0, 1.621340468235258E9, 2021-05-18 14:21:08.235
34.0, 52.47453689575195, -60.51158142089844, 167.39791870117188, -95.34127044677734, -0.01600000075995922, -0.08000000566244125, 1.055999994277954, 0.0, 0.0, 0.0, 0.0, 0.0, 1.621340468235258E9, 2021-05-18 14:21:08.235
35.0, 66.07281494140625, -51.528343200683594, 180.02008056640625, -86.7619400024414, -0.01600000075995922, -0.08000000566244125, 1.055999994277954, 0.0, 0.0, 0.0, 0.0, 0.0, 1.6213404682510593E9, 2021-05-18 14:21:08.251
35.0, 105.9139633178711, -15.976852416992188, 218.93748474121094, -57.063392639160156, -0.01600000075995922, -0.08000000566244125, 1.055999994277954, 0.0, 0.0, 0.0, 0.0, 0.0, 1.6213404682510593E9, 2021-05-18 14:21:08.251
36.0, 148.35435485839844, 34.27244186401367, 269.4111633300781, -13.497299194335938, -0.01600000075995922, -0.08000000566244125, 1.055999994277954, 0.0, 0.0, 0.0, 0.0, 0.0, 1.6213404682516294E9, 2021-05-18 14:21:08.251
36.0, 56.60712432861328, -56.97737503051758, 169.91860961914062, -107.07333374023438, -0.01600000075995922, -0.08000000566244125, 1.055999994277954, 0.0, 0.0, 0.0, 0.0, 0.0, 1.6213404682516294E9, 2021-05-18 14:21:08.251
37.0, 66.83575439453125, -38.54340744018555, 186.3704376220703, -94.57833099365234, -0.01600000075995922, -0.08000000566244125, 1.055999994277954, 0.0, 0.0, 0.0, 0.0, 0.0, 1.6213404682652364E9, 2021-05-18 14:21:08.265
37.0, 103.51669311523438, -4.285925388336182, 225.12327575683594, -61.742008209228516, -0.01600000075995922, -0.08000000566244125, 1.055999994277954, 0.0, 0.0, 0.0, 0.0, 0.0, 1.6213404682652364E9, 2021-05-18 14:21:08.265
38.0, 145.77755737304688, 43.023807525634766, 268.96612548828125, -20.778884887695312, -0.01600000075995922, -0.08000000566244125, 1.055999994277954, 0.0, 0.0, 0.0, 0.0, 0.0, 1.6213404682979867E9, 2021-05-18 14:21:08.297
38.0, 58.14048385620117, -50.10343933105469, 176.1904296875, -108.96198272705078, -0.01600000075995922, -0.08000000566244125, 1.055999994277954, 0.0, 0.0, 0.0, 0.0, 0.0, 1.6213404682979867E9, 2021-05-18 14:21:08.297
39.0, 67.95024108886719, -36.149871826171875, 185.02406311035156, -89.19661712646484, -0.01600000075995922, -0.08000000566244125, 1.055999994277954, 0.0, 0.0, 0.0, 0.0, 0.0, 1.6213404682987027E9, 2021-05-18 14:21:08.298
39.0, 105.25200653076172, 2.041985273361206, 230.80044555664062, -45.1480712890625, -0.01600000075995922, -0.08000000566244125, 1.055999994277954, 0.0, 0.0, 0.0, 0.0, 0.0, 1.6213404682987027E9, 2021-05-18 14:21:08.298
40.0, 144.3900604248047, 42.455345153808594, 268.4761962890625, -5.400415420532227, -0.01600000075995922, -0.08000000566244125, 1.055999994277954, 0.0, 0.0, 0.0, 0.0, 0.0, 1.6213404682993517E9, 2021-05-18 14:21:08.299
40.0, 55.3542594909668, -49.26944351196289, 177.4208526611328, -92.28202819824219, -0.01600000075995922, -0.08000000566244125, 1.055999994277954, 0.0, 0.0, 0.0, 0.0, 0.0, 1.6213404682993517E9, 2021-05-18 14:21:08.299
41.0, 63.02479553222656, -38.640647888183594, 185.71595764160156, -77.06437683105469, -0.01600000075995922, -0.08000000566244125, 1.055999994277954, 0.0, 0.0, 0.0, 0.0, 0.0, 1.621340468300187E9, 2021-05-18 14:21:08.300
41.0, 98.5463638305664, -1.6380761861801147, 226.76882934570312, -37.0960693359375, -0.01600000075995922, -0.08000000566244125, 1.055999994277954, 0.0, 0.0, 0.0, 0.0, 0.0, 1.621340468300187E9, 2021-05-18 14:21:08.300
42.0, 140.7399139404297, 35.32709503173828, 262.55218505859375, -2.4047555923461914, -0.01600000075995922, -0.08000000566244125, 1.055999994277954, 0.0, 0.0, 0.0, 0.0, 0.0, 1.6213404683102033E9, 2021-05-18 14:21:08.310
42.0, 50.761661529541016, -61.56623458862305, 170.7152099609375, -87.40520477294922, -0.01600000075995922, -0.08000000566244125, 1.055999994277954, 0.0, 0.0, 0.0, 0.0, 0.0, 1.6213404683102033E9, 2021-05-18 14:21:08.310
43.0, 55.90402603149414, -47.44811248779297, 180.55862426757812, -71.52558898925781, -0.01600000075995922, -0.08000000566244125, 1.055999994277954, 0.0, 0.0, 0.0, 0.0, 0.0, 1.6213404683252249E9, 2021-05-18 14:21:08.325
43.0, 92.51764678955078, -7.715413570404053, 221.83216857910156, -31.845247268676758, -0.01600000075995922, -0.08000000566244125, 1.055999994277954, 0.0, 0.0, 0.0, 0.0, 0.0, 1.6213404683252249E9, 2021-05-18 14:21:08.325
44.0, 135.69105529785156, 34.57911682128906, 260.8804626464844, 2.0045864582061768, -0.01600000075995922, -0.08000000566244125, 1.055999994277954, 0.0, 0.0, 0.0, 0.0, 0.0, 1.621340468340845E9, 2021-05-18 14:21:08.340
44.0, 47.032981872558594, -62.30299377441406, 167.4951629638672, -84.37962341308594, -0.01600000075995922, -0.08000000566244125, 1.055999994277954, 0.0, 0.0, 0.0, 0.0, 0.0, 1.621340468340845E9, 2021-05-18 14:21:08.340
45.0, 62.25437545776367, -48.41300582885742, 183.67022705078125, -76.74274444580078, -0.01600000075995922, -0.08000000566244125, 1.055999994277954, 0.0, 0.0, 0.0, 0.0, 0.0, 1.6213404683415704E9, 2021-05-18 14:21:08.341
45.0, 93.97620391845703, -14.518291473388672, 217.45274353027344, -45.82499313354492, -0.01600000075995922, -0.08000000566244125, 1.055999994277954, 0.0, 0.0, 0.0, 0.0, 0.0, 1.6213404683415704E9, 2021-05-18 14:21:08.341
46.0, 142.97637939453125, 28.21380615234375, 265.0653991699219, -9.533004760742188, -0.01600000075995922, -0.08000000566244125, 1.055999994277954, 0.0, 0.0, 0.0, 0.0, 0.0, 1.6213404683551655E9, 2021-05-18 14:21:08.355
46.0, 65.66142272949219, -52.852264404296875, 181.1121368408203, -88.21302032470703, -0.01600000075995922, -0.08000000566244125, 1.055999994277954, 0.0, 0.0, 0.0, 0.0, 0.0, 1.6213404683551655E9, 2021-05-18 14:21:08.355
47.0, 58.3760986328125, -46.849727630615234, 181.5684051513672, -85.48289489746094, -0.01600000075995922, -0.08000000566244125, 1.055999994277954, 0.0, 0.0, 0.0, 0.0, 0.0, 1.621340468371317E9, 2021-05-18 14:21:08.371
47.0, 98.6884765625, -8.425994873046875, 216.3270263671875, -54.93539047241211, -0.01600000075995922, -0.08000000566244125, 1.055999994277954, 0.0, 0.0, 0.0, 0.0, 0.0, 1.621340468371317E9, 2021-05-18 14:21:08.371
48.0, 146.2039031982422, 29.21609878540039, 264.971923828125, -9.5629243850708, -0.01600000075995922, -0.08000000566244125, 1.055999994277954, 0.0, 0.0, 0.0, 0.0, 0.0, 1.6213404683859775E9, 2021-05-18 14:21:08.385
48.0, 55.152305603027344, -53.13275909423828, 173.385498046875, -100.90624237060547, -0.01600000075995922, -0.08000000566244125, 1.055999994277954, 0.0, 0.0, 0.0, 0.0, 0.0, 1.6213404683859775E9, 2021-05-18 14:21:08.385
49.0, 71.21143341064453, -43.99618148803711, 184.08909606933594, -87.6669921875, -0.01600000075995922, -0.08000000566244125, 1.055999994277954, 0.0, 0.0, 0.0, 0.0, 0.0, 1.621340468386676E9, 2021-05-18 14:21:08.386
49.0, 108.03449249267578, -9.192673683166504, 221.79476928710938, -53.52170944213867, -0.01600000075995922, -0.08000000566244125, 1.055999994277954, 0.0, 0.0, 0.0, 0.0, 0.0, 1.621340468386676E9, 2021-05-18 14:21:08.386
50.0, 157.5245819091797, 37.31298065185547, 268.5659484863281, -7.382562637329102, -0.01600000075995922, -0.08000000566244125, 1.055999994277954, 0.0, 0.0, 0.0, 0.0, 0.0, 1.621340468418054E9, 2021-05-18 14:21:08.418
50.0, 58.39105987548828, -53.757320404052734, 174.6196746826172, -93.3890380859375, -0.01600000075995922, -0.08000000566244125, 1.055999994277954, 0.0, 0.0, 0.0, 0.0, 0.0, 1.621340468418054E9, 2021-05-18 14:21:08.418
51.0, 67.8530044555664, -42.22346878051758, 187.36524963378906, -76.72404479980469, -0.01600000075995922, -0.08000000566244125, 1.055999994277954, 0.0, 0.0, 0.0, 0.0, 0.0, 1.6213404684187474E9, 2021-05-18 14:21:08.418
51.0, 94.00238800048828, -0.7517198920249939, 222.21737670898438, -38.52470779418945, -0.01600000075995922, -0.08000000566244125, 1.055999994277954, 0.0, 0.0, 0.0, 0.0, 0.0, 1.6213404684187474E9, 2021-05-18 14:21:08.418
52.0, 144.1731414794922, 42.22346878051758, 271.25494384765625, 11.87418270111084, -0.01600000075995922, -0.08000000566244125, 1.055999994277954, 0.0, 0.0, 0.0, 0.0, 0.0, 1.6213404684194808E9, 2021-05-18 14:21:08.419
52.0, 46.408416748046875, -59.43075180053711, 174.97869873046875, -81.48867797851562, -0.01600000075995922, -0.08000000566244125, 1.055999994277954, 0.0, 0.0, 0.0, 0.0, 0.0, 1.6213404684194808E9, 2021-05-18 14:21:08.419
53.0, 57.115753173828125, -43.50251770019531, 187.6382598876953, -70.54573059082031, -0.01600000075995922, -0.08000000566244125, 1.055999994277954, 0.0, 0.0, 0.0, 0.0, 0.0, 1.6213404684202344E9, 2021-05-18 14:21:08.420
53.0, 92.57374572753906, -13.228026390075684, 216.55142211914062, -42.38428497314453, -0.01600000075995922, -0.08000000566244125, 1.055999994277954, 0.0, 0.0, 0.0, 0.0, 0.0, 1.6213404684202344E9, 2021-05-18 14:21:08.420
54.0, 140.68382263183594, 31.078569412231445, 263.7414855957031, 1.0883108377456665, -0.01600000075995922, -0.08000000566244125, 1.055999994277954, 0.0, 0.0, 0.0, 0.0, 0.0, 1.621340468430209E9, 2021-05-18 14:21:08.430
54.0, 57.09331130981445, -56.50240707397461, 173.2620849609375, -85.79330444335938, -0.01600000075995922, -0.08000000566244125, 1.055999994277954, 0.0, 0.0, 0.0, 0.0, 0.0, 1.621340468430209E9, 2021-05-18 14:21:08.430
55.0, 55.765647888183594, -47.45185089111328, 179.97894287109375, -82.74154663085938, -0.01600000075995922, -0.08000000566244125, 1.055999994277954, 0.0, 0.0, 0.0, 0.0, 0.0, 1.621340468445252E9, 2021-05-18 14:21:08.445
55.0, 95.49834442138672, -3.0068795680999756, 220.62791442871094, -40.46945571899414, -0.01600000075995922, -0.08000000566244125, 1.055999994277954, 0.0, 0.0, 0.0, 0.0, 0.0, 1.621340468445252E9, 2021-05-18 14:21:08.445
56.0, 138.27906799316406, 26.388734817504883, 252.2861785888672, -10.363263130187988, -0.01600000075995922, -0.08000000566244125, 1.055999994277954, 0.0, 0.0, 0.0, 0.0, 0.0, 1.6213404684765592E9, 2021-05-18 14:21:08.476
56.0, 57.164371490478516, -57.164371490478516, 163.65428161621094, -94.4287338256836, -0.01600000075995922, -0.08000000566244125, 1.055999994277954, 0.0, 0.0, 0.0, 0.0, 0.0, 1.6213404684765592E9, 2021-05-18 14:21:08.476
57.0, 66.00923156738281, -41.14263916015625, 183.49444580078125, -81.52607727050781, -0.01600000075995922, -0.08000000566244125, 1.055999994277954, 0.0, 0.0, 0.0, 0.0, 0.0, 1.6213404684920151E9, 2021-05-18 14:21:08.492
57.0, 103.55783081054688, -6.986133098602295, 226.27890014648438, -45.98955154418945, -0.01600000075995922, -0.08000000566244125, 1.055999994277954, 0.0, 0.0, 0.0, 0.0, 0.0, 1.6213404684920151E9, 2021-05-18 14:21:08.492
58.0, 148.90411376953125, 37.03997039794922, 271.8196716308594, -5.909041881561279, -0.01600000075995922, -0.08000000566244125, 1.055999994277954, 0.0, 0.0, 0.0, 0.0, 0.0, 1.6213404684926994E9, 2021-05-18 14:21:08.492
58.0, 56.84647750854492, -55.50385665893555, 176.46343994140625, -94.20807647705078, -0.01600000075995922, -0.08000000566244125, 1.055999994277954, 0.0, 0.0, 0.0, 0.0, 0.0, 1.6213404684926994E9, 2021-05-18 14:21:08.492
59.0, 64.30010223388672, -36.94647216796875, 187.42507934570312, -81.24932861328125, -0.01600000075995922, -0.08000000566244125, 1.055999994277954, 0.0, 0.0, 0.0, 0.0, 0.0, 1.62134046849353E9, 2021-05-18 14:21:08.493
59.0, 100.24801635742188, -4.188687801361084, 221.0767059326172, -51.44606399536133, -0.01600000075995922, -0.08000000566244125, 1.055999994277954, 0.0, 0.0, 0.0, 0.0, 0.0, 1.62134046849353E9, 2021-05-18 14:21:08.493
60.0, 142.63978576660156, 36.98760986328125, 260.4204406738281, -6.342870235443115, -0.01600000075995922, -0.08000000566244125, 1.055999994277954, 0.0, 0.0, 0.0, 0.0, 0.0, 1.6213404685059173E9, 2021-05-18 14:21:08.505
60.0, 52.05940628051758, -55.88532638549805, 170.1729278564453, -94.07718658447266, -0.01600000075995922, -0.08000000566244125, 1.055999994277954, 0.0, 0.0, 0.0, 0.0, 0.0, 1.6213404685059173E9, 2021-05-18 14:21:08.505
61.0, 59.19513702392578, -43.180885314941406, 182.68663024902344, -76.67916870117188, -0.01600000075995922, -0.08000000566244125, 1.055999994277954, 0.0, 0.0, 0.0, 0.0, 0.0, 1.621340468506586E9, 2021-05-18 14:21:08.506
61.0, 96.14908599853516, -5.3966755867004395, 223.82553100585938, -37.77299118041992, -0.01600000075995922, -0.08000000566244125, 1.055999994277954, 0.0, 0.0, 0.0, 0.0, 0.0, 1.621340468506586E9, 2021-05-18 14:21:08.506
62.0, 142.7482452392578, 32.6007080078125, 263.19171142578125, -6.630842685699463, -0.01600000075995922, -0.08000000566244125, 1.055999994277954, 0.0, 0.0, 0.0, 0.0, 0.0, 1.6213404685366204E9, 2021-05-18 14:21:08.536
62.0, 57.45234298706055, -55.41409683227539, 174.5299072265625, -98.946533203125, -0.01600000075995922, -0.08000000566244125, 1.055999994277954, 0.0, 0.0, 0.0, 0.0, 0.0, 1.6213404685366204E9, 2021-05-18 14:21:08.536
63.0, 74.192138671875, -41.266056060791016, 189.13795471191406, -79.70475006103516, -0.01600000075995922, -0.08000000566244125, 1.055999994277954, 0.0, 0.0, 0.0, 0.0, 0.0, 1.6213404685372527E9, 2021-05-18 14:21:08.537
63.0, 97.48796844482422, -15.501885414123535, 216.53273010253906, -51.39370346069336, -0.01600000075995922, -0.08000000566244125, 1.055999994277954, 0.0, 0.0, 0.0, 0.0, 0.0, 1.6213404685372527E9, 2021-05-18 14:21:08.537
64.0, 144.229248046875, 34.814727783203125, 265.20751953125, -5.333097457885742, -0.01600000075995922, -0.08000000566244125, 1.055999994277954, 0.0, 0.0, 0.0, 0.0, 0.0, 1.6213404685380592E9, 2021-05-18 14:21:08.538
64.0, 58.682769775390625, -58.56309509277344, 172.7572021484375, -90.87208557128906, -0.01600000075995922, -0.08000000566244125, 1.055999994277954, 0.0, 0.0, 0.0, 0.0, 0.0, 1.6213404685380592E9, 2021-05-18 14:21:08.538
65.0, 65.25751495361328, -43.81666946411133, 179.98641967773438, -82.97341918945312, -0.01600000075995922, -0.08000000566244125, 1.055999994277954, 0.0, 0.0, 0.0, 0.0, 0.0, 1.6213404685510256E9, 2021-05-18 14:21:08.551
65.0, 97.925537109375, -5.441554546356201, 221.79103088378906, -41.640045166015625, -0.01600000075995922, -0.08000000566244125, 1.055999994277954, 0.0, 0.0, 0.0, 0.0, 0.0, 1.6213404685510256E9, 2021-05-18 14:21:08.551
66.0, 147.04913330078125, 42.86673355102539, 268.5360412597656, -1.8699499368667603, -0.01600000075995922, -0.08000000566244125, 1.055999994277954, 0.0, 0.0, 0.0, 0.0, 0.0, 1.6213404685516963E9, 2021-05-18 14:21:08.551
66.0, 59.80474090576172, -47.653804779052734, 176.68409729003906, -80.0600357055664, -0.01600000075995922, -0.08000000566244125, 1.055999994277954, 0.0, 0.0, 0.0, 0.0, 0.0, 1.6213404685516963E9, 2021-05-18 14:21:08.551
67.0, 53.47309112548828, -45.43604278564453, 174.9600067138672, -80.80802154541016, -0.01600000075995922, -0.08000000566244125, 1.055999994277954, 0.0, 0.0, 0.0, 0.0, 0.0, 1.6213404685651653E9, 2021-05-18 14:21:08.565
67.0, 94.873779296875, -7.072150707244873, 223.05885314941406, -35.611328125, -0.01600000075995922, -0.08000000566244125, 1.055999994277954, 0.0, 0.0, 0.0, 0.0, 0.0, 1.6213404685651653E9, 2021-05-18 14:21:08.565
68.0, 134.8570556640625, 37.46257781982422, 261.5873107910156, -4.3083648681640625, -0.01600000075995922, -0.08000000566244125, 1.055999994277954, 0.0, 0.0, 0.0, 0.0, 0.0, 1.621340468581583E9, 2021-05-18 14:21:08.581
68.0, 51.674198150634766, -47.96795654296875, 172.97410583496094, -91.06282043457031, -0.01600000075995922, -0.08000000566244125, 1.055999994277954, 0.0, 0.0, 0.0, 0.0, 0.0, 1.621340468581583E9, 2021-05-18 14:21:08.581
69.0, 61.31565856933594, -48.1063346862793, 181.04481506347656, -83.56058502197266, -0.01600000075995922, -0.08000000566244125, 1.055999994277954, 0.0, 0.0, 0.0, 0.0, 0.0, 1.6213404685823488E9, 2021-05-18 14:21:08.582
69.0, 95.16923522949219, -7.199307441711426, 216.61874389648438, -46.43833923339844, -0.01600000075995922, -0.08000000566244125, 1.055999994277954, 0.0, 0.0, 0.0, 0.0, 0.0, 1.6213404685823488E9, 2021-05-18 14:21:08.582
70.0, 137.47872924804688, 30.891572952270508, 262.1370544433594, -11.717106819152832, -0.01600000075995922, -0.08000000566244125, 1.055999994277954, 0.0, 0.0, 0.0, 0.0, 0.0, 1.6213404686115434E9, 2021-05-18 14:21:08.611
70.0, 50.671905517578125, -49.609771728515625, 168.2057342529297, -92.93651580810547, -0.01600000075995922, -0.08000000566244125, 1.055999994277954, 0.0, 0.0, 0.0, 0.0, 0.0, 1.6213404686115434E9, 2021-05-18 14:21:08.611
71.0, 60.350765228271484, -44.23179626464844, 182.99703979492188, -74.955078125, -0.01600000075995922, -0.08000000566244125, 1.055999994277954, 0.0, 0.0, 0.0, 0.0, 0.0, 1.6213404686122754E9, 2021-05-18 14:21:08.612
71.0, 97.41317749023438, 0.47122740745544434, 225.76280212402344, -34.4370002746582, -0.01600000075995922, -0.08000000566244125, 1.055999994277954, 0.0, 0.0, 0.0, 0.0, 0.0, 1.6213404686122754E9, 2021-05-18 14:21:08.612
72.0, 142.79312133789062, 42.22346878051758, 268.6519775390625, 9.630242347717285, -0.01600000075995922, -0.08000000566244125, 1.055999994277954, 0.0, 0.0, 0.0, 0.0, 0.0, 1.6213404686130335E9, 2021-05-18 14:21:08.613
72.0, 57.31022644042969, -56.74550247192383, 175.3414764404297, -81.39144134521484, -0.01600000075995922, -0.08000000566244125, 1.055999994277954, 0.0, 0.0, 0.0, 0.0, 0.0, 1.6213404686130335E9, 2021-05-18 14:21:08.613
73.0, 66.95916748046875, -53.98171615600586, 186.13482666015625, -72.98414611816406, -0.01600000075995922, -0.08000000566244125, 1.055999994277954, 0.0, 0.0, 0.0, 0.0, 0.0, 1.6213404686251757E9, 2021-05-18 14:21:08.625
73.0, 107.71659851074219, -16.642555236816406, 223.33560180664062, -36.314430236816406, -0.01600000075995922, -0.08000000566244125, 1.055999994277954, 0.0, 0.0, 0.0, 0.0, 0.0, 1.6213404686251757E9, 2021-05-18 14:21:08.625
74.0, 146.5517120361328, 29.107641220092773, 270.3311767578125, -1.0770912170410156, -0.01600000075995922, -0.08000000566244125, 1.055999994277954, 0.0, 0.0, 0.0, 0.0, 0.0, 1.6213404686415043E9, 2021-05-18 14:21:08.641
74.0, 53.93683624267578, -63.32772445678711, 173.15736389160156, -95.25899505615234, -0.01600000075995922, -0.08000000566244125, 1.055999994277954, 0.0, 0.0, 0.0, 0.0, 0.0, 1.6213404686415043E9, 2021-05-18 14:21:08.641
75.0, 64.97328186035156, -54.684818267822266, 180.65586853027344, -88.84506225585938, -0.01600000075995922, -0.08000000566244125, 1.055999994277954, 0.0, 0.0, 0.0, 0.0, 0.0, 1.6213404686422231E9, 2021-05-18 14:21:08.642
75.0, 97.58895111083984, -18.763078689575195, 217.6883544921875, -55.997520446777344, -0.01600000075995922, -0.08000000566244125, 1.055999994277954, 0.0, 0.0, 0.0, 0.0, 0.0, 1.6213404686422231E9, 2021-05-18 14:21:08.642
76.0, 136.35675048828125, 31.175806045532227, 257.8997497558594, -11.810604095458984, -0.01600000075995922, -0.08000000566244125, 1.055999994277954, 0.0, 0.0, 0.0, 0.0, 0.0, 1.6213404686551683E9, 2021-05-18 14:21:08.655
76.0, 49.800506591796875, -52.30624008178711, 164.09185791015625, -104.48906707763672, -0.01600000075995922, -0.08000000566244125, 1.055999994277954, 0.0, 0.0, 0.0, 0.0, 0.0, 1.6213404686551683E9, 2021-05-18 14:21:08.655
77.0, 59.12407684326172, -39.4559440612793, 173.84176635742188, -94.87004089355469, -0.01600000075995922, -0.08000000566244125, 1.055999994277954, 0.0, 0.0, 0.0, 0.0, 0.0, 1.6213404686708775E9, 2021-05-18 14:21:08.670
77.0, 89.30506896972656, -4.626256465911865, 207.72900390625, -65.13409423828125, -0.01600000075995922, -0.08000000566244125, 1.055999994277954, 0.0, 0.0, 0.0, 0.0, 0.0, 1.6213404686708775E9, 2021-05-18 14:21:08.670
78.0, 142.62857055664062, 43.222023010253906, 269.8562316894531, -11.23091983795166, -0.01600000075995922, -0.08000000566244125, 1.055999994277954, 0.0, 0.0, 0.0, 0.0, 0.0, 1.6213404686715324E9, 2021-05-18 14:21:08.671
78.0, 47.25737762451172, -52.373558044433594, 171.58287048339844, -105.12484741210938, -0.01600000075995922, -0.08000000566244125, 1.055999994277954, 0.0, 0.0, 0.0, 0.0, 0.0, 1.6213404686715324E9, 2021-05-18 14:21:08.671
79.0, 65.62028503417969, -37.71315002441406, 187.64573669433594, -89.49954223632812, -0.01600000075995922, -0.08000000566244125, 1.055999994277954, 0.0, 0.0, 0.0, 0.0, 0.0, 1.6213404686852262E9, 2021-05-18 14:21:08.685
79.0, 100.10216522216797, -0.47122740745544434, 226.75387573242188, -42.077613830566406, -0.01600000075995922, -0.08000000566244125, 1.055999994277954, 0.0, 0.0, 0.0, 0.0, 0.0, 1.6213404686852262E9, 2021-05-18 14:21:08.685
80.0, 147.2248992919922, 44.52724838256836, 279.22467041015625, 4.955367565155029, -0.01600000075995922, -0.08000000566244125, 1.055999994277954, 0.0, 0.0, 0.0, 0.0, 0.0, 1.6213404687163033E9, 2021-05-18 14:21:08.716
80.0, 57.063392639160156, -47.186317443847656, 180.9288787841797, -87.16584777832031, -0.01600000075995922, -0.08000000566244125, 1.055999994277954, 0.0, 0.0, 0.0, 0.0, 0.0, 1.6213404687163033E9, 2021-05-18 14:21:08.716
81.0, 68.82911682128906, -39.302608489990234, 198.16981506347656, -71.43209075927734, -0.01600000075995922, -0.08000000566244125, 1.055999994277954, 0.0, 0.0, 0.0, 0.0, 0.0, 1.6213404687170093E9, 2021-05-18 14:21:08.717
81.0, 102.3573226928711, -10.770912170410156, 232.4983673095703, -33.40852737426758, -0.01600000075995922, -0.08000000566244125, 1.055999994277954, 0.0, 0.0, 0.0, 0.0, 0.0, 1.6213404687170093E9, 2021-05-18 14:21:08.717
82.0, 145.20535278320312, 28.475597381591797, 271.0941162109375, 7.180607795715332, -0.01600000075995922, -0.08000000566244125, 1.055999994277954, 0.0, 0.0, 0.0, 0.0, 0.0, 1.6213404687315264E9, 2021-05-18 14:21:08.731
82.0, 58.492034912109375, -65.37718963623047, 177.00946044921875, -83.3885498046875, -0.01600000075995922, -0.08000000566244125, 1.055999994277954, 0.0, 0.0, 0.0, 0.0, 0.0, 1.6213404687315264E9, 2021-05-18 14:21:08.731
83.0, 61.925262451171875, -53.37211227416992, 184.61642456054688, -78.0292739868164, -0.01600000075995922, -0.08000000566244125, 1.055999994277954, 0.0, 0.0, 0.0, 0.0, 0.0, 1.6213404687323952E9, 2021-05-18 14:21:08.732
83.0, 93.1235122680664, -18.890233993530273, 215.37710571289062, -43.67455291748047, -0.01600000075995922, -0.08000000566244125, 1.055999994277954, 0.0, 0.0, 0.0, 0.0, 0.0, 1.6213404687323952E9, 2021-05-18 14:21:08.732
84.0, 139.4309539794922, 26.504671096801758, 257.7501525878906, -9.7686185836792, -0.01600000075995922, -0.08000000566244125, 1.055999994277954, 0.0, 0.0, 0.0, 0.0, 0.0, 1.6213404687331665E9, 2021-05-18 14:21:08.733
84.0, 47.653804779052734, -64.56563568115234, 160.02284240722656, -107.15935516357422, -0.01600000075995922, -0.08000000566244125, 1.055999994277954, 0.0, 0.0, 0.0, 0.0, 0.0, 1.6213404687331665E9, 2021-05-18 14:21:08.733
85.0, 61.93648147583008, -47.335914611816406, 177.80606079101562, -94.52597045898438, -0.01600000075995922, -0.08000000566244125, 1.055999994277954, 0.0, 0.0, 0.0, 0.0, 0.0, 1.6213404687451787E9, 2021-05-18 14:21:08.745
85.0, 93.09358978271484, -5.819284439086914, 210.68727111816406, -56.84273910522461, -0.01600000075995922, -0.08000000566244125, 1.055999994277954, 0.0, 0.0, 0.0, 0.0, 0.0, 1.6213404687451787E9, 2021-05-18 14:21:08.745
86.0, 134.37086486816406, 42.10379409790039, 260.9365539550781, -17.125001907348633, -0.01600000075995922, -0.08000000566244125, 1.055999994277954, 0.0, 0.0, 0.0, 0.0, 0.0, 1.621340468760994E9, 2021-05-18 14:21:08.760
86.0, 43.71569061279297, -46.67021179199219, 169.80641174316406, -105.72322845458984, -0.01600000075995922, -0.08000000566244125, 1.055999994277954, 0.0, 0.0, 0.0, 0.0, 0.0, 1.621340468760994E9, 2021-05-18 14:21:08.760
87.0, 66.52908325195312, -34.534236907958984, 192.0737762451172, -82.23291778564453, -0.01600000075995922, -0.08000000566244125, 1.055999994277954, 0.0, 0.0, 0.0, 0.0, 0.0, 1.6213404687616816E9, 2021-05-18 14:21:08.761
87.0, 99.55987548828125, -3.9829933643341064, 225.92361450195312, -48.64113998413086, -0.01600000075995922, -0.08000000566244125, 1.055999994277954, 0.0, 0.0, 0.0, 0.0, 0.0, 1.6213404687616816E9, 2021-05-18 14:21:08.761
88.0, 148.4216766357422, 30.842954635620117, 268.704345703125, -5.710827350616455, -0.01600000075995922, -0.08000000566244125, 1.055999994277954, 0.0, 0.0, 0.0, 0.0, 0.0, 1.6213404687751772E9, 2021-05-18 14:21:08.775
88.0, 65.6875991821289, -55.645973205566406, 181.63946533203125, -88.6244125366211, -0.01600000075995922, -0.08000000566244125, 1.055999994277954, 0.0, 0.0, 0.0, 0.0, 0.0, 1.6213404687751772E9, 2021-05-18 14:21:08.775
89.0, 78.25740814208984, -44.47114944458008, 196.68507385253906, -74.36791229248047, -0.01600000075995922, -0.08000000566244125, 1.055999994277954, 0.0, 0.0, 0.0, 0.0, 0.0, 1.621340468790995E9, 2021-05-18 14:21:08.790
89.0, 109.0816650390625, -10.367002487182617, 232.9209747314453, -38.54340744018555, -0.01600000075995922, -0.08000000566244125, 1.055999994277954, 0.0, 0.0, 0.0, 0.0, 0.0, 1.621340468790995E9, 2021-05-18 14:21:08.790
90.0, 158.5044403076172, 31.998584747314453, 276.991943359375, 3.1639554500579834, -0.01600000075995922, -0.08000000566244125, 1.055999994277954, 0.0, 0.0, 0.0, 0.0, 0.0, 1.6213404687916648E9, 2021-05-18 14:21:08.791
90.0, 67.13868713378906, -59.64766311645508, 183.0980224609375, -86.53006744384766, -0.01600000075995922, -0.08000000566244125, 1.055999994277954, 0.0, 0.0, 0.0, 0.0, 0.0, 1.6213404687916648E9, 2021-05-18 14:21:08.791
91.0, 70.82622528076172, -57.28030776977539, 191.33328247070312, -80.76687622070312, -0.01600000075995922, -0.08000000566244125, 1.055999994277954, 0.0, 0.0, 0.0, 0.0, 0.0, 1.6213404688051567E9, 2021-05-18 14:21:08.805
91.0, 107.58943939208984, -12.016298294067383, 227.06802368164062, -42.99388885498047, -0.01600000075995922, -0.08000000566244125, 1.055999994277954, 0.0, 0.0, 0.0, 0.0, 0.0, 1.6213404688051567E9, 2021-05-18 14:21:08.805
92.0, 152.10546875, 34.51553726196289, 264.8372802734375, -2.475813865661621, -0.01600000075995922, -0.08000000566244125, 1.055999994277954, 0.0, 0.0, 0.0, 0.0, 0.0, 1.6213404688208685E9, 2021-05-18 14:21:08.820
92.0, 58.22650146484375, -60.881832122802734, 164.51820373535156, -99.59727478027344, -0.01600000075995922, -0.08000000566244125, 1.055999994277954, 0.0, 0.0, 0.0, 0.0, 0.0, 1.6213404688208685E9, 2021-05-18 14:21:08.820
93.0, 64.00464630126953, -50.56718826293945, 172.55149841308594, -85.80078125, -0.01600000075995922, -0.08000000566244125, 1.055999994277954, 0.0, 0.0, 0.0, 0.0, 0.0, 1.6213404688215947E9, 2021-05-18 14:21:08.821
93.0, 90.16899108886719, -13.904948234558105, 210.4778289794922, -51.11695098876953, -0.01600000075995922, -0.08000000566244125, 1.055999994277954, 0.0, 0.0, 0.0, 0.0, 0.0, 1.6213404688215947E9, 2021-05-18 14:21:08.821
94.0, 131.0460968017578, 29.081462860107422, 249.03619384765625, -13.314043998718262, -0.01600000075995922, -0.08000000566244125, 1.055999994277954, 0.0, 0.0, 0.0, 0.0, 0.0, 1.621340468835204E9, 2021-05-18 14:21:08.835
94.0, 45.80629348754883, -59.5092887878418, 156.2230987548828, -96.19022369384766, -0.01600000075995922, -0.08000000566244125, 1.055999994277954, 0.0, 0.0, 0.0, 0.0, 0.0, 1.621340468835204E9, 2021-05-18 14:21:08.835
95.0, 62.45259094238281, -37.14094543457031, 178.4343719482422, -83.72139739990234, -0.01600000075995922, -0.08000000566244125, 1.055999994277954, 0.0, 0.0, 0.0, 0.0, 0.0, 1.6213404688510296E9, 2021-05-18 14:21:08.851
95.0, 90.21760559082031, -4.076490879058838, 212.61705017089844, -44.32903289794922, -0.01600000075995922, -0.08000000566244125, 1.055999994277954, 0.0, 0.0, 0.0, 0.0, 0.0, 1.6213404688510296E9, 2021-05-18 14:21:08.851
96.0, 134.11280822753906, 31.83028793334961, 259.2760314941406, -5.1797614097595215, -0.01600000075995922, -0.08000000566244125, 1.055999994277954, 0.0, 0.0, 0.0, 0.0, 0.0, 1.6213404688516407E9, 2021-05-18 14:21:08.851
96.0, 56.73802185058594, -52.01826858520508, 170.1280517578125, -90.02313232421875, -0.01600000075995922, -0.08000000566244125, 1.055999994277954, 0.0, 0.0, 0.0, 0.0, 0.0, 1.6213404688516407E9, 2021-05-18 14:21:08.851
97.0, 57.80389404296875, -50.21189498901367, 176.9945068359375, -88.0484619140625, -0.01600000075995922, -0.08000000566244125, 1.055999994277954, 0.0, 0.0, 0.0, 0.0, 0.0, 1.62134046886527E9, 2021-05-18 14:21:08.865
97.0, 102.69391632080078, -11.848003387451172, 226.2115936279297, -40.398399353027344, -0.01600000075995922, -0.08000000566244125, 1.055999994277954, 0.0, 0.0, 0.0, 0.0, 0.0, 1.62134046886527E9, 2021-05-18 14:21:08.865
98.0, 148.1112518310547, 33.42722702026367, 264.6016540527344, -3.283632278442383, -0.01600000075995922, -0.08000000566244125, 1.055999994277954, 0.0, 0.0, 0.0, 0.0, 0.0, 1.6213404688810103E9, 2021-05-18 14:21:08.881
98.0, 60.32084655761719, -50.30913543701172, 171.6501922607422, -94.40255737304688, -0.01600000075995922, -0.08000000566244125, 1.055999994277954, 0.0, 0.0, 0.0, 0.0, 0.0, 1.6213404688810103E9, 2021-05-18 14:21:08.881
99.0, 69.77157592773438, -48.663578033447266, 182.4958953857422, -84.55913543701172, -0.01600000075995922, -0.08000000566244125, 1.055999994277954, 0.0, 0.0, 0.0, 0.0, 0.0, 1.6213404688816204E9, 2021-05-18 14:21:08.881
99.0, 106.658203125, -9.095437049865723, 223.0663299560547, -45.72027587890625, -0.01600000075995922, -0.08000000566244125, 1.055999994277954, 0.0, 0.0, 0.0, 0.0, 0.0, 1.6213404688816204E9, 2021-05-18 14:21:08.881
100.0, 147.41937255859375, 37.36159896850586, 270.13671875, -2.150442361831665, -0.01600000075995922, -0.08000000566244125, 1.040000081062317, 0.0, 0.0, 0.0, 0.0, 0.0, 1.6213404688959684E9, 2021-05-18 14:21:08.895
100.0, 60.208648681640625, -57.403724670410156, 175.82391357421875, -93.27310180664062, -0.01600000075995922, -0.08000000566244125, 1.040000081062317, 0.0, 0.0, 0.0, 0.0, 0.0, 1.6213404688959684E9, 2021-05-18 14:21:08.895
0.0, 63.80830383300781, -42.969581604003906, 181.2000274658203, -87.73992156982422, -0.01600000075995922, -0.08000000566244125, 1.040000081062317, 0.0, 0.0, 0.0, 0.0, 0.0, 1.621340468896701E9, 2021-05-18 14:21:08.896
1.0, 102.64342498779297, -8.839253425598145, 221.87142944335938, -46.32801055908203, -0.01600000075995922, -0.08000000566244125, 1.040000081062317, 0.0, 0.0, 0.0, 0.0, 0.0, 1.6213404689101715E9, 2021-05-18 14:21:08.910
1.0, 147.38011169433594, 28.182016372680664, 265.3028869628906, -0.7087110280990601, -0.01600000075995922, -0.08000000566244125, 1.040000081062317, 0.0, 0.0, 0.0, 0.0, 0.0, 1.6213404689101715E9, 2021-05-18 14:21:08.910
2.0, 48.65796661376953, -54.656768798828125, 163.15875244140625, -97.63569641113281, -0.01600000075995922, -0.08000000566244125, 1.040000081062317, 0.0, 0.0, 0.0, 0.0, 0.0, 1.621340468926499E9, 2021-05-18 14:21:08.926
2.0, 51.67606735229492, -42.057044982910156, 172.01483154296875, -82.9378890991211, -0.01600000075995922, -0.08000000566244125, 1.040000081062317, 0.0, 0.0, 0.0, 0.0, 0.0, 1.621340468926499E9, 2021-05-18 14:21:08.926
3.0, 88.42806243896484, -12.713789939880371, 206.9193115234375, -45.37433624267578, -0.01600000075995922, -0.08000000566244125, 1.040000081062317, 0.0, 0.0, 0.0, 0.0, 0.0, 1.621340468927343E9, 2021-05-18 14:21:08.927
3.0, 133.3704376220703, 32.456722259521484, 252.1870574951172, -2.3954060077667236, -0.01600000075995922, -0.08000000566244125, 1.040000081062317, 0.0, 0.0, 0.0, 0.0, 0.0, 1.621340468927343E9, 2021-05-18 14:21:08.927
4.0, 41.372642517089844, -53.2991828918457, 155.26380920410156, -89.7669448852539, -0.01600000075995922, -0.08000000566244125, 1.040000081062317, 0.0, 0.0, 0.0, 0.0, 0.0, 1.6213404689401286E9, 2021-05-18 14:21:08.940
4.0, 58.81553649902344, -47.86137008666992, 176.71588134765625, -74.65401458740234, -0.01600000075995922, -0.08000000566244125, 1.040000081062317, 0.0, 0.0, 0.0, 0.0, 0.0, 1.6213404689401286E9, 2021-05-18 14:21:08.940
5.0, 91.8912124633789, -10.903677940368652, 209.6307373046875, -42.10566329956055, -0.01600000075995922, -0.08000000566244125, 1.040000081062317, 0.0, 0.0, 0.0, 0.0, 0.0, 1.621340468956032E9, 2021-05-18 14:21:08.956
5.0, 139.728271484375, 30.844825744628906, 260.5457458496094, -4.635605812072754, -0.01600000075995922, -0.08000000566244125, 1.040000081062317, 0.0, 0.0, 0.0, 0.0, 0.0, 1.621340468956032E9, 2021-05-18 14:21:08.956
6.0, 47.00493240356445, -54.05464553833008, 168.46192932128906, -92.7139892578125, -0.01600000075995922, -0.08000000566244125, 1.040000081062317, 0.0, 0.0, 0.0, 0.0, 0.0, 1.6213404689567473E9, 2021-05-18 14:21:08.956
6.0, 56.508018493652344, -41.36890411376953, 174.7898406982422, -78.1583023071289, -0.01600000075995922, -0.08000000566244125, 1.040000081062317, 0.0, 0.0, 0.0, 0.0, 0.0, 1.6213404689567473E9, 2021-05-18 14:21:08.956
7.0, 95.08882904052734, 0.9892035126686096, 219.86685180664062, -38.00673294067383, -0.01600000075995922, -0.08000000566244125, 1.040000081062317, 0.0, 0.0, 0.0, 0.0, 0.0, 1.6213404689865942E9, 2021-05-18 14:21:08.986
7.0, 135.41616821289062, 43.388450622558594, 261.71258544921875, -1.9316582679748535, -0.01600000075995922, -0.08000000566244125, 1.040000081062317, 0.0, 0.0, 0.0, 0.0, 0.0, 1.6213404689865942E9, 2021-05-18 14:21:08.986
8.0, 51.174922943115234, -50.94304656982422, 177.26939392089844, -85.7876968383789, -0.01600000075995922, -0.08000000566244125, 1.040000081062317, 0.0, 0.0, 0.0, 0.0, 0.0, 1.621340468987281E9, 2021-05-18 14:21:08.987
8.0, 52.99999237060547, -44.65253448486328, 176.03895568847656, -79.08953094482422, -0.01600000075995922, -0.08000000566244125, 1.040000081062317, 0.0, 0.0, 0.0, 0.0, 0.0, 1.621340468987281E9, 2021-05-18 14:21:08.987
9.0, 97.7329330444336, -5.290088653564453, 223.3599090576172, -33.48145294189453, -0.01600000075995922, -0.08000000566244125, 1.040000081062317, 0.0, 0.0, 0.0, 0.0, 0.0, 1.621340468988009E9, 2021-05-18 14:21:08.988
9.0, 142.19287109375, 39.94026184082031, 262.666259765625, 1.4679107666015625, -0.01600000075995922, -0.08000000566244125, 1.040000081062317, 0.0, 0.0, 0.0, 0.0, 0.0, 1.621340468988009E9, 2021-05-18 14:21:08.988
10.0, 54.331398010253906, -48.05958557128906, 161.6515655517578, -92.36244201660156, -0.01600000075995922, -0.08000000566244125, 1.055999994277954, 0.0, 0.0, 0.0, 0.0, 0.0, 1.6213404690003114E9, 2021-05-18 14:21:09.000
10.0, 63.02666473388672, -43.73625946044922, 181.16636657714844, -80.33492279052734, -0.01600000075995922, -0.08000000566244125, 1.055999994277954, 0.0, 0.0, 0.0, 0.0, 0.0, 1.6213404690003114E9, 2021-05-18 14:21:09.000
11.0, 99.86467742919922, -4.183078289031982, 216.34011840820312, -42.78258514404297, -0.01600000075995922, -0.08000000566244125, 1.055999994277954, 0.0, 0.0, 0.0, 0.0, 0.0, 1.6213404690159836E9, 2021-05-18 14:21:09.015
11.0, 140.76422119140625, 40.766780853271484, 256.9666442871094, -5.892212390899658, -0.01600000075995922, -0.08000000566244125, 1.055999994277954, 0.0, 0.0, 0.0, 0.0, 0.0, 1.6213404690159836E9, 2021-05-18 14:21:09.015
12.0, 49.95945358276367, -51.80696487426758, 160.59317016601562, -102.1086196899414, -0.01600000075995922, -0.08000000566244125, 1.055999994277954, 0.0, 0.0, 0.0, 0.0, 0.0, 1.6213404690166757E9, 2021-05-18 14:21:09.016
12.0, 56.2873649597168, -50.22124481201172, 173.6529083251953, -96.51747131347656, -0.01600000075995922, -0.08000000566244125, 1.055999994277954, 0.0, 0.0, 0.0, 0.0, 0.0, 1.6213404690166757E9, 2021-05-18 14:21:09.016
13.0, 96.86154174804688, -12.481916427612305, 214.3018798828125, -56.74363327026367, -0.01600000075995922, -0.08000000566244125, 1.055999994277954, 0.0, 0.0, 0.0, 0.0, 0.0, 1.6213404690301955E9, 2021-05-18 14:21:09.030
13.0, 145.83926391601562, 31.850858688354492, 263.6573486328125, -13.162577629089355, -0.01600000075995922, -0.08000000566244125, 1.055999994277954, 0.0, 0.0, 0.0, 0.0, 0.0, 1.6213404690301955E9, 2021-05-18 14:21:09.030
14.0, 57.16624069213867, -66.56460571289062, 168.54420471191406, -105.05565643310547, -0.01600000075995922, -0.08000000566244125, 1.055999994277954, 0.0, 0.0, 0.0, 0.0, 0.0, 1.6213404690458884E9, 2021-05-18 14:21:09.045
14.0, 67.24526977539062, -49.114234924316406, 184.78659057617188, -89.54255676269531, -0.01600000075995922, -0.08000000566244125, 1.055999994277954, 0.0, 0.0, 0.0, 0.0, 0.0, 1.6213404690458884E9, 2021-05-18 14:21:09.045
15.0, 99.58418273925781, -7.074020862579346, 224.36595153808594, -42.094444274902344, -0.01600000075995922, -0.08000000566244125, 1.055999994277954, 0.0, 0.0, 0.0, 0.0, 0.0, 1.6213404690465765E9, 2021-05-18 14:21:09.046
15.0, 139.5599822998047, 37.456966400146484, 265.6656494140625, -0.061708349734544754, -0.01600000075995922, -0.08000000566244125, 1.055999994277954, 0.0, 0.0, 0.0, 0.0, 0.0, 1.6213404690465765E9, 2021-05-18 14:21:09.046
16.0, 53.497398376464844, -43.98309326171875, 179.1991729736328, -80.76500701904297, -0.01600000075995922, -0.08000000566244125, 1.055999994277954, 0.0, 0.0, 0.0, 0.0, 0.0, 1.6213404690601523E9, 2021-05-18 14:21:09.060
16.0, 60.666786193847656, -38.48918151855469, 188.3619384765625, -71.00761413574219, -0.01600000075995922, -0.08000000566244125, 1.055999994277954, 0.0, 0.0, 0.0, 0.0, 0.0, 1.6213404690601523E9, 2021-05-18 14:21:09.060
17.0, 96.44267272949219, -5.86603307723999, 224.85214233398438, -32.389404296875, -0.01600000075995922, -0.08000000566244125, 1.055999994277954, 0.0, 0.0, 0.0, 0.0, 0.0, 1.6213404690759156E9, 2021-05-18 14:21:09.075
17.0, 142.9034423828125, 34.02000045776367, 268.33221435546875, 8.83177375793457, -0.01600000075995922, -0.08000000566244125, 1.055999994277954, 0.0, 0.0, 0.0, 0.0, 0.0, 1.6213404690759156E9, 2021-05-18 14:21:09.075
18.0, 48.91602325439453, -62.01314926147461, 166.73782348632812, -88.34952545166016, -0.01600000075995922, -0.08000000566244125, 1.055999994277954, 0.0, 0.0, 0.0, 0.0, 0.0, 1.62134046907656E9, 2021-05-18 14:21:09.076
18.0, 60.94728088378906, -51.63492965698242, 174.09046936035156, -78.53602600097656, -0.01600000075995922, -0.08000000566244125, 1.055999994277954, 0.0, 0.0, 0.0, 0.0, 0.0, 1.62134046907656E9, 2021-05-18 14:21:09.076
19.0, 92.96456146240234, -16.734182357788086, 211.4146728515625, -50.42694091796875, -0.01600000075995922, -0.08000000566244125, 1.055999994277954, 0.0, 0.0, 0.0, 0.0, 0.0, 1.6213404690902004E9, 2021-05-18 14:21:09.090
19.0, 139.892822265625, 32.01167297363281, 257.9427795410156, -8.513882637023926, -0.01600000075995922, -0.08000000566244125, 1.055999994277954, 0.0, 0.0, 0.0, 0.0, 0.0, 1.6213404690902004E9, 2021-05-18 14:21:09.090
20.0, 54.50343322753906, -66.06719970703125, 166.37879943847656, -102.46016693115234, -0.01600000075995922, -0.08000000566244125, 1.040000081062317, 0.0, 0.0, 0.0, 0.0, 0.0, 1.6213404691058807E9, 2021-05-18 14:21:09.105
20.0, 65.74931335449219, -54.29025650024414, 180.78115844726562, -89.9801254272461, -0.01600000075995922, -0.08000000566244125, 1.040000081062317, 0.0, 0.0, 0.0, 0.0, 0.0, 1.6213404691058807E9, 2021-05-18 14:21:09.105
21.0, 101.7047119140625, -9.198284149169922, 221.24313354492188, -54.507171630859375, -0.01600000075995922, -0.08000000566244125, 1.040000081062317, 0.0, 0.0, 0.0, 0.0, 0.0, 1.6213404691065807E9, 2021-05-18 14:21:09.106
21.0, 141.78147888183594, 29.075851440429688, 263.2983093261719, -12.47817611694336, -0.01600000075995922, -0.08000000566244125, 1.040000081062317, 0.0, 0.0, 0.0, 0.0, 0.0, 1.6213404691065807E9, 2021-05-18 14:21:09.106
22.0, 53.86016845703125, -57.843162536621094, 170.35804748535156, -99.96565246582031, -0.01600000075995922, -0.08000000566244125, 1.040000081062317, 0.0, 0.0, 0.0, 0.0, 0.0, 1.621340469120252E9, 2021-05-18 14:21:09.120
22.0, 66.18313598632812, -47.483638763427734, 185.3774871826172, -81.40453338623047, -0.01600000075995922, -0.08000000566244125, 1.040000081062317, 0.0, 0.0, 0.0, 0.0, 0.0, 1.621340469120252E9, 2021-05-18 14:21:09.120
23.0, 99.99931335449219, -6.374659538269043, 227.33543395996094, -43.29121017456055, -0.01600000075995922, -0.08000000566244125, 1.040000081062317, 0.0, 0.0, 0.0, 0.0, 0.0, 1.621340469135899E9, 2021-05-18 14:21:09.135
23.0, 139.63478088378906, 32.322086334228516, 264.86907958984375, -6.311081409454346, -0.01600000075995922, -0.08000000566244125, 1.040000081062317, 0.0, 0.0, 0.0, 0.0, 0.0, 1.621340469135899E9, 2021-05-18 14:21:09.135
24.0, 56.747371673583984, -53.893829345703125, 172.9311065673828, -83.940185546875, -0.01600000075995922, -0.08000000566244125, 1.040000081062317, 0.0, 0.0, 0.0, 0.0, 0.0, 1.6213404691365397E9, 2021-05-18 14:21:09.136
24.0, 64.61611938476562, -45.449134826660156, 189.71951293945312, -69.04790496826172, -0.01600000075995922, -0.08000000566244125, 1.040000081062317, 0.0, 0.0, 0.0, 0.0, 0.0, 1.6213404691365397E9, 2021-05-18 14:21:09.136
25.0, 105.6016845703125, -4.6206464767456055, 232.1898193359375, -24.251380920410156, -0.01600000075995922, -0.08000000566244125, 1.040000081062317, 0.0, 0.0, 0.0, 0.0, 0.0, 1.6213404691501513E9, 2021-05-18 14:21:09.150
25.0, 147.451171875, 38.848209381103516, 272.513427734375, 7.264755725860596, -0.01600000075995922, -0.08000000566244125, 1.040000081062317, 0.0, 0.0, 0.0, 0.0, 0.0, 1.6213404691501513E9, 2021-05-18 14:21:09.150
26.0, 57.31583786010742, -47.068511962890625, 178.6905517578125, -79.55328369140625, -0.01600000075995922, -0.08000000566244125, 1.040000081062317, 0.0, 0.0, 0.0, 0.0, 0.0, 1.6213404691829855E9, 2021-05-18 14:21:09.182
26.0, 62.66389465332031, -51.885501861572266, 180.7661895751953, -83.04634857177734, -0.01600000075995922, -0.08000000566244125, 1.040000081062317, 0.0, 0.0, 0.0, 0.0, 0.0, 1.6213404691829855E9, 2021-05-18 14:21:09.182
27.0, 105.7026596069336, -12.938183784484863, 221.71435546875, -43.26877212524414, -0.01600000075995922, -0.08000000566244125, 1.040000081062317, 0.0, 0.0, 0.0, 0.0, 0.0, 1.6213404691836672E9, 2021-05-18 14:21:09.183
27.0, 144.45176696777344, 32.8419303894043, 265.18695068359375, -10.05846118927002, -0.01600000075995922, -0.08000000566244125, 1.040000081062317, 0.0, 0.0, 0.0, 0.0, 0.0, 1.6213404691836672E9, 2021-05-18 14:21:09.183
28.0, 51.81818389892578, -54.555789947509766, 166.10952758789062, -99.2176742553711, -0.01600000075995922, -0.08000000566244125, 1.040000081062317, 0.0, 0.0, 0.0, 0.0, 0.0, 1.6213404691844232E9, 2021-05-18 14:21:09.184
28.0, 63.35951614379883, -44.39448165893555, 177.31800842285156, -93.1964340209961, -0.01600000075995922, -0.08000000566244125, 1.040000081062317, 0.0, 0.0, 0.0, 0.0, 0.0, 1.6213404691844232E9, 2021-05-18 14:21:09.184
29.0, 101.31949615478516, -3.4537975788116455, 211.796142578125, -59.010009765625, -0.01600000075995922, -0.08000000566244125, 1.040000081062317, 0.0, 0.0, 0.0, 0.0, 0.0, 1.6213404691851723E9, 2021-05-18 14:21:09.185
29.0, 144.305908203125, 34.40895080566406, 256.30096435546875, -20.373104095458984, -0.01600000075995922, -0.08000000566244125, 1.040000081062317, 0.0, 0.0, 0.0, 0.0, 0.0, 1.6213404691851723E9, 2021-05-18 14:21:09.185
30.0, 60.8650016784668, -51.60126876831055, 166.5695343017578, -114.08751678466797, -0.01600000075995922, -0.08000000566244125, 1.040000081062317, 0.0, 0.0, 0.0, 0.0, 0.0, 1.6213404691951294E9, 2021-05-18 14:21:09.195
30.0, 67.81747436523438, -39.955223083496094, 178.74664306640625, -98.79132843017578, -0.01600000075995922, -0.08000000566244125, 1.040000081062317, 0.0, 0.0, 0.0, 0.0, 0.0, 1.6213404691951294E9, 2021-05-18 14:21:09.195
31.0, 98.90726470947266, -3.7829089164733887, 217.55184936523438, -57.67486572265625, -0.01600000075995922, -0.08000000566244125, 1.040000081062317, 0.0, 0.0, 0.0, 0.0, 0.0, 1.6213404692101336E9, 2021-05-18 14:21:09.210
31.0, 146.8079071044922, 46.290611267089844, 264.8802795410156, -7.979076385498047, -0.01600000075995922, -0.08000000566244125, 1.040000081062317, 0.0, 0.0, 0.0, 0.0, 0.0, 1.6213404692101336E9, 2021-05-18 14:21:09.210
32.0, 54.903602600097656, -48.732765197753906, 162.52296447753906, -94.59142303466797, -0.03200000151991844, -0.08000000566244125, 1.040000081062317, 0.0, 0.0, 0.0, 0.0, 0.0, 1.6213404692579556E9, 2021-05-18 14:21:09.257
32.0, 64.07757568359375, -48.650489807128906, 175.28724670410156, -80.55931854248047, -0.03200000151991844, -0.08000000566244125, 1.040000081062317, 0.0, 0.0, 0.0, 0.0, 0.0, 1.6213404692579556E9, 2021-05-18 14:21:09.257
33.0, 100.23493194580078, -1.3295344114303589, 220.2670135498047, -37.572906494140625, -0.03200000151991844, -0.08000000566244125, 1.040000081062317, 0.0, 0.0, 0.0, 0.0, 0.0, 1.621340469258638E9, 2021-05-18 14:21:09.258
33.0, 142.7837677001953, 35.95726776123047, 268.429443359375, 0.43569833040237427, -0.03200000151991844, -0.08000000566244125, 1.040000081062317, 0.0, 0.0, 0.0, 0.0, 0.0, 1.621340469258638E9, 2021-05-18 14:21:09.258
34.0, 53.071048736572266, -51.51525115966797, 177.1197967529297, -87.4781265258789, -0.03200000151991844, -0.08000000566244125, 1.040000081062317, 0.0, 0.0, 0.0, 0.0, 0.0, 1.6213404692593715E9, 2021-05-18 14:21:09.259
34.0, 67.23779296875, -40.55360412597656, 191.46978759765625, -74.91206359863281, -0.03200000151991844, -0.08000000566244125, 1.040000081062317, 0.0, 0.0, 0.0, 0.0, 0.0, 1.6213404692593715E9, 2021-05-18 14:21:09.259
35.0, 95.982666015625, -12.504355430603027, 218.42698669433594, -42.475914001464844, -0.03200000151991844, -0.08000000566244125, 1.040000081062317, 0.0, 0.0, 0.0, 0.0, 0.0, 1.621340469260126E9, 2021-05-18 14:21:09.260
35.0, 145.94772338867188, 30.037006378173828, 264.2220764160156, -3.005009651184082, -0.03200000151991844, -0.08000000566244125, 1.040000081062317, 0.0, 0.0, 0.0, 0.0, 0.0, 1.621340469260126E9, 2021-05-18 14:21:09.260
36.0, 58.894073486328125, -52.43526840209961, 174.03811645507812, -86.19534301757812, -0.03200000151991844, -0.08000000566244125, 1.040000081062317, 0.0, 0.0, 0.0, 0.0, 0.0, 1.6213404692708983E9, 2021-05-18 14:21:09.270
36.0, 61.97575378417969, -41.24922561645508, 173.6080322265625, -92.02584838867188, -0.03200000151991844, -0.08000000566244125, 1.040000081062317, 0.0, 0.0, 0.0, 0.0, 0.0, 1.6213404692708983E9, 2021-05-18 14:21:09.270
37.0, 101.8917007446289, -2.406625509262085, 220.93272399902344, -49.64904022216797, -0.03200000151991844, -0.08000000566244125, 1.040000081062317, 0.0, 0.0, 0.0, 0.0, 0.0, 1.621340469271484E9, 2021-05-18 14:21:09.271
37.0, 145.81309509277344, 37.10167694091797, 265.52728271484375, -3.9736437797546387, -0.03200000151991844, -0.08000000566244125, 1.040000081062317, 0.0, 0.0, 0.0, 0.0, 0.0, 1.621340469271484E9, 2021-05-18 14:21:09.271
38.0, 58.329349517822266, -53.34406280517578, 166.9846649169922, -98.49961853027344, -0.03200000151991844, -0.08000000566244125, 1.040000081062317, 0.0, 0.0, 0.0, 0.0, 0.0, 1.6213404693016064E9, 2021-05-18 14:21:09.301
38.0, 67.58560180664062, -48.60934829711914, 177.14222717285156, -93.353515625, -0.03200000151991844, -0.08000000566244125, 1.040000081062317, 0.0, 0.0, 0.0, 0.0, 0.0, 1.6213404693016064E9, 2021-05-18 14:21:09.301
39.0, 108.59734344482422, -10.35765266418457, 215.43881225585938, -51.590049743652344, -0.03200000151991844, -0.08000000566244125, 1.040000081062317, 0.0, 0.0, 0.0, 0.0, 0.0, 1.621340469302357E9, 2021-05-18 14:21:09.302
39.0, 151.34814453125, 33.1635627746582, 260.295166015625, -9.41519832611084, -0.03200000151991844, -0.08000000566244125, 1.040000081062317, 0.0, 0.0, 0.0, 0.0, 0.0, 1.621340469302357E9, 2021-05-18 14:21:09.302
40.0, 61.32126998901367, -56.44443893432617, 166.95474243164062, -94.00051879882812, -0.03200000151991844, -0.08000000566244125, 1.055999994277954, 0.0, 0.0, 0.0, 0.0, 0.0, 1.621340469303051E9, 2021-05-18 14:21:09.303
40.0, 67.29389190673828, -38.84073257446289, 178.8551025390625, -83.67091369628906, -0.03200000151991844, -0.08000000566244125, 1.055999994277954, 0.0, 0.0, 0.0, 0.0, 0.0, 1.621340469303051E9, 2021-05-18 14:21:09.303
41.0, 98.20790100097656, -3.521115779876709, 208.1160888671875, -50.643856048583984, -0.03200000151991844, -0.08000000566244125, 1.055999994277954, 0.0, 0.0, 0.0, 0.0, 0.0, 1.6213404693159125E9, 2021-05-18 14:21:09.315
41.0, 143.22134399414062, 42.1954231262207, 257.9839172363281, -7.59386682510376, -0.03200000151991844, -0.08000000566244125, 1.055999994277954, 0.0, 0.0, 0.0, 0.0, 0.0, 1.6213404693159125E9, 2021-05-18 14:21:09.315
42.0, 53.25056457519531, -51.631187438964844, 163.2559814453125, -103.2492904663086, -0.01600000075995922, -0.08000000566244125, 1.055999994277954, 0.0, 0.0, 0.0, 0.0, 0.0, 1.6213404693165996E9, 2021-05-18 14:21:09.316
42.0, 66.25045776367188, -37.954376220703125, 179.44227600097656, -83.56245422363281, -0.01600000075995922, -0.08000000566244125, 1.055999994277954, 0.0, 0.0, 0.0, 0.0, 0.0, 1.6213404693165996E9, 2021-05-18 14:21:09.316
43.0, 99.78614044189453, 4.979676723480225, 215.3228759765625, -47.300384521484375, -0.01600000075995922, -0.08000000566244125, 1.055999994277954, 0.0, 0.0, 0.0, 0.0, 0.0, 1.6213404693301828E9, 2021-05-18 14:21:09.330
43.0, 140.31918334960938, 45.27335739135742, 260.04833984375, -7.227356433868408, -0.01600000075995922, -0.08000000566244125, 1.055999994277954, 0.0, 0.0, 0.0, 0.0, 0.0, 1.6213404693301828E9, 2021-05-18 14:21:09.330
44.0, 52.121116638183594, -47.962345123291016, 166.83880615234375, -100.39200592041016, -0.01600000075995922, -0.08000000566244125, 1.055999994277954, 0.0, 0.0, 0.0, 0.0, 0.0, 1.6213404693465023E9, 2021-05-18 14:21:09.346
44.0, 62.6713752746582, -40.037498474121094, 176.55133056640625, -85.68297576904297, -0.01600000075995922, -0.08000000566244125, 1.055999994277954, 0.0, 0.0, 0.0, 0.0, 0.0, 1.6213404693465023E9, 2021-05-18 14:21:09.346
45.0, 95.75078582763672, -14.280808448791504, 208.81918334960938, -49.117977142333984, -0.01600000075995922, -0.08000000566244125, 1.055999994277954, 0.0, 0.0, 0.0, 0.0, 0.0, 1.6213404693472335E9, 2021-05-18 14:21:09.347
45.0, 147.4923095703125, 25.941816329956055, 257.06390380859375, -6.490596294403076, -0.01600000075995922, -0.08000000566244125, 1.055999994277954, 0.0, 0.0, 0.0, 0.0, 0.0, 1.6213404693472335E9, 2021-05-18 14:21:09.347
46.0, 61.36614990234375, -62.16648864746094, 159.564697265625, -96.25567626953125, -0.01600000075995922, -0.08000000566244125, 1.055999994277954, 0.0, 0.0, 0.0, 0.0, 0.0, 1.6213404693601997E9, 2021-05-18 14:21:09.360
46.0, 66.1569595336914, -49.26757049560547, 166.771484375, -85.28654479980469, -0.01600000075995922, -0.08000000566244125, 1.055999994277954, 0.0, 0.0, 0.0, 0.0, 0.0, 1.6213404693601997E9, 2021-05-18 14:21:09.360
47.0, 103.47742462158203, -8.016475677490234, 206.31344604492188, -46.634681701660156, -0.01600000075995922, -0.08000000566244125, 1.055999994277954, 0.0, 0.0, 0.0, 0.0, 0.0, 1.621340469375897E9, 2021-05-18 14:21:09.375
47.0, 142.54815673828125, 32.3594856262207, 251.50265502929688, -11.659137725830078, -0.01600000075995922, -0.08000000566244125, 1.055999994277954, 0.0, 0.0, 0.0, 0.0, 0.0, 1.621340469375897E9, 2021-05-18 14:21:09.375
48.0, 56.57533645629883, -54.028465270996094, 162.4481658935547, -97.81521606445312, -0.01600000075995922, -0.08000000566244125, 1.055999994277954, 0.0, 0.0, 0.0, 0.0, 0.0, 1.621340469376557E9, 2021-05-18 14:21:09.376
48.0, 73.07951354980469, -40.905155181884766, 179.40487670898438, -91.05721282958984, -0.01600000075995922, -0.08000000566244125, 1.055999994277954, 0.0, 0.0, 0.0, 0.0, 0.0, 1.621340469376557E9, 2021-05-18 14:21:09.376
49.0, 99.58418273925781, -0.9480646252632141, 220.05010986328125, -58.55000305175781, -0.01600000075995922, -0.08000000566244125, 1.055999994277954, 0.0, 0.0, 0.0, 0.0, 0.0, 1.6213404693901954E9, 2021-05-18 14:21:09.390
49.0, 142.70896911621094, 42.947139739990234, 263.5526123046875, -16.521007537841797, -0.01600000075995922, -0.08000000566244125, 1.055999994277954, 0.0, 0.0, 0.0, 0.0, 0.0, 1.6213404693901954E9, 2021-05-18 14:21:09.390
50.0, 50.486778259277344, -54.53335189819336, 168.8097381591797, -109.6744384765625, -0.01600000075995922, -0.08000000566244125, 1.055999994277954, 0.0, 0.0, 0.0, 0.0, 0.0, 1.6213404694215477E9, 2021-05-18 14:21:09.421
50.0, 61.242733001708984, -34.569766998291016, 185.77392578125, -88.0765151977539, -0.01600000075995922, -0.08000000566244125, 1.055999994277954, 0.0, 0.0, 0.0, 0.0, 0.0, 1.6213404694215477E9, 2021-05-18 14:21:09.421
51.0, 97.41130065917969, -1.086440920829773, 223.64414978027344, -48.785125732421875, -0.01600000075995922, -0.08000000566244125, 1.055999994277954, 0.0, 0.0, 0.0, 0.0, 0.0, 1.6213404694222398E9, 2021-05-18 14:21:09.422
51.0, 140.65576171875, 45.15742111206055, 272.9435119628906, -3.981123447418213, -0.01600000075995922, -0.08000000566244125, 1.055999994277954, 0.0, 0.0, 0.0, 0.0, 0.0, 1.6213404694222398E9, 2021-05-18 14:21:09.422
52.0, 50.262386322021484, -51.631187438964844, 181.1439208984375, -87.84089660644531, -0.01600000075995922, -0.08000000566244125, 1.055999994277954, 0.0, 0.0, 0.0, 0.0, 0.0, 1.621340469422995E9, 2021-05-18 14:21:09.422
52.0, 66.07842254638672, -43.93073654174805, 189.3268280029297, -80.88468933105469, -0.01600000075995922, -0.08000000566244125, 1.055999994277954, 0.0, 0.0, 0.0, 0.0, 0.0, 1.621340469422995E9, 2021-05-18 14:21:09.422
53.0, 98.80628967285156, -7.46297025680542, 218.920654296875, -38.48918151855469, -0.01600000075995922, -0.08000000566244125, 1.055999994277954, 0.0, 0.0, 0.0, 0.0, 0.0, 1.621340469435876E9, 2021-05-18 14:21:09.435
53.0, 145.38673400878906, 24.543092727661133, 261.2301330566406, -2.649718999862671, -0.01600000075995922, -0.08000000566244125, 1.055999994277954, 0.0, 0.0, 0.0, 0.0, 0.0, 1.621340469435876E9, 2021-05-18 14:21:09.435
54.0, 53.16828918457031, -64.79563903808594, 169.71853637695312, -92.6541519165039, -0.01600000075995922, -0.08000000566244125, 1.055999994277954, 0.0, 0.0, 0.0, 0.0, 0.0, 1.621340469436566E9, 2021-05-18 14:21:09.436
54.0, 66.72168731689453, -49.65278244018555, 177.68077087402344, -80.29752349853516, -0.01600000075995922, -0.08000000566244125, 1.055999994277954, 0.0, 0.0, 0.0, 0.0, 0.0, 1.621340469436566E9, 2021-05-18 14:21:09.436
55.0, 103.5522232055664, -12.624032020568848, 213.25096130371094, -48.01096725463867, -0.01600000075995922, -0.08000000566244125, 1.055999994277954, 0.0, 0.0, 0.0, 0.0, 0.0, 1.621340469450146E9, 2021-05-18 14:21:09.450
55.0, 143.4158172607422, 27.890304565429688, 256.88812255859375, -6.101646900177002, -0.01600000075995922, -0.08000000566244125, 1.055999994277954, 0.0, 0.0, 0.0, 0.0, 0.0, 1.621340469450146E9, 2021-05-18 14:21:09.450
56.0, 51.3918342590332, -58.80805587768555, 163.19615173339844, -98.62303161621094, -0.01600000075995922, -0.08000000566244125, 1.055999994277954, 0.0, 0.0, 0.0, 0.0, 0.0, 1.6213404694665267E9, 2021-05-18 14:21:09.466
56.0, 64.01025390625, -36.01336669921875, 181.6114044189453, -88.60383605957031, -0.01600000075995922, -0.08000000566244125, 1.055999994277954, 0.0, 0.0, 0.0, 0.0, 0.0, 1.6213404694665267E9, 2021-05-18 14:21:09.466
57.0, 95.50395202636719, 2.7955751419067383, 216.3775177001953, -51.88176345825195, -0.01600000075995922, -0.08000000566244125, 1.055999994277954, 0.0, 0.0, 0.0, 0.0, 0.0, 1.6213404694672513E9, 2021-05-18 14:21:09.467
57.0, 139.84046936035156, 43.7811393737793, 256.76470947265625, -14.359345436096191, -0.01600000075995922, -0.08000000566244125, 1.055999994277954, 0.0, 0.0, 0.0, 0.0, 0.0, 1.6213404694672513E9, 2021-05-18 14:21:09.467
58.0, 48.833744049072266, -48.650489807128906, 162.55288696289062, -104.4348373413086, -0.01600000075995922, -0.08000000566244125, 1.055999994277954, 0.0, 0.0, 0.0, 0.0, 0.0, 1.621340469480154E9, 2021-05-18 14:21:09.480
58.0, 55.890933990478516, -33.59739303588867, 179.917236328125, -97.30658721923828, -0.01600000075995922, -0.08000000566244125, 1.055999994277954, 0.0, 0.0, 0.0, 0.0, 0.0, 1.621340469480154E9, 2021-05-18 14:21:09.480
59.0, 92.78878784179688, 0.06918814778327942, 217.07688903808594, -57.18120193481445, -0.01600000075995922, -0.08000000566244125, 1.055999994277954, 0.0, 0.0, 0.0, 0.0, 0.0, 1.6213404694958737E9, 2021-05-18 14:21:09.495
59.0, 132.96653747558594, 41.817691802978516, 260.10443115234375, -19.228694915771484, -0.01600000075995922, -0.08000000566244125, 1.055999994277954, 0.0, 0.0, 0.0, 0.0, 0.0, 1.6213404694958737E9, 2021-05-18 14:21:09.495
60.0, 49.641563415527344, -47.36022186279297, 167.7476043701172, -101.45413970947266, -0.01600000075995922, -0.08000000566244125, 1.055999994277954, 0.0, 0.0, 0.0, 0.0, 0.0, 1.621340469496544E9, 2021-05-18 14:21:09.496
60.0, 63.183738708496094, -41.140769958496094, 184.43128967285156, -84.72930145263672, -0.01600000075995922, -0.08000000566244125, 1.055999994277954, 0.0, 0.0, 0.0, 0.0, 0.0, 1.621340469496544E9, 2021-05-18 14:21:09.496
61.0, 107.0639877319336, 3.6632320880889893, 220.4053955078125, -40.950035095214844, -0.01600000075995922, -0.08000000566244125, 1.055999994277954, 0.0, 0.0, 0.0, 0.0, 0.0, 1.6213404695101955E9, 2021-05-18 14:21:09.510
61.0, 156.935546875, 42.27396011352539, 271.5709533691406, 6.70003080368042, -0.01600000075995922, -0.08000000566244125, 1.055999994277954, 0.0, 0.0, 0.0, 0.0, 0.0, 1.6213404695101955E9, 2021-05-18 14:21:09.510
62.0, 64.58246612548828, -49.63408279418945, 171.8091278076172, -87.30235290527344, -0.01600000075995922, -0.08000000566244125, 1.055999994277954, 0.0, 0.0, 0.0, 0.0, 0.0, 1.6213404695259323E9, 2021-05-18 14:21:09.525
62.0, 73.72651672363281, -34.3678092956543, 185.57569885253906, -74.34734344482422, -0.01600000075995922, -0.08000000566244125, 1.055999994277954, 0.0, 0.0, 0.0, 0.0, 0.0, 1.6213404695259323E9, 2021-05-18 14:21:09.525
63.0, 106.69373321533203, -10.600746154785156, 219.41432189941406, -44.28602600097656, -0.01600000075995922, -0.08000000566244125, 1.055999994277954, 0.0, 0.0, 0.0, 0.0, 0.0, 1.621340469526585E9, 2021-05-18 14:21:09.526
63.0, 145.4540557861328, 32.3781852722168, 256.8170471191406, -5.910912036895752, -0.01600000075995922, -0.08000000566244125, 1.055999994277954, 0.0, 0.0, 0.0, 0.0, 0.0, 1.621340469526585E9, 2021-05-18 14:21:09.526
64.0, 58.77813720703125, -52.78681945800781, 162.82589721679688, -92.65789031982422, -0.01600000075995922, -0.08000000566244125, 1.055999994277954, 0.0, 0.0, 0.0, 0.0, 0.0, 1.6213404695402057E9, 2021-05-18 14:21:09.540
64.0, 60.917362213134766, -50.04547119140625, 169.00794982910156, -92.08942413330078, -0.01600000075995922, -0.08000000566244125, 1.055999994277954, 0.0, 0.0, 0.0, 0.0, 0.0, 1.6213404695402057E9, 2021-05-18 14:21:09.540
65.0, 97.45992279052734, -2.6085801124572754, 205.62530517578125, -55.37482833862305, -0.01600000075995922, -0.08000000566244125, 1.055999994277954, 0.0, 0.0, 0.0, 0.0, 0.0, 1.621340469555915E9, 2021-05-18 14:21:09.555
65.0, 137.11033630371094, 38.69487380981445, 251.0950164794922, -15.649611473083496, -0.01600000075995922, -0.08000000566244125, 1.055999994277954, 0.0, 0.0, 0.0, 0.0, 0.0, 1.621340469555915E9, 2021-05-18 14:21:09.555
66.0, 46.27565383911133, -53.13836669921875, 161.11676025390625, -107.81196594238281, -0.01600000075995922, -0.08000000566244125, 1.055999994277954, 0.0, 0.0, 0.0, 0.0, 0.0, 1.6213404695565672E9, 2021-05-18 14:21:09.556
66.0, 55.9694709777832, -34.02000045776367, 174.54673767089844, -87.69878387451172, -0.01600000075995922, -0.08000000566244125, 1.055999994277954, 0.0, 0.0, 0.0, 0.0, 0.0, 1.6213404695565672E9, 2021-05-18 14:21:09.556
67.0, 88.3757095336914, -0.4244786500930786, 209.15577697753906, -47.356483459472656, -0.01600000075995922, -0.08000000566244125, 1.055999994277954, 0.0, 0.0, 0.0, 0.0, 0.0, 1.6213404695701885E9, 2021-05-18 14:21:09.570
67.0, 130.49819946289062, 38.24982833862305, 251.8467254638672, -2.8217544555664062, -0.01600000075995922, -0.08000000566244125, 1.055999994277954, 0.0, 0.0, 0.0, 0.0, 0.0, 1.6213404695701885E9, 2021-05-18 14:21:09.570
68.0, 45.11628341674805, -46.85907745361328, 153.35272216796875, -92.19414520263672, -0.01600000075995922, -0.08000000566244125, 1.055999994277954, 0.0, 0.0, 0.0, 0.0, 0.0, 1.6213404695858755E9, 2021-05-18 14:21:09.585
68.0, 60.902400970458984, -37.763641357421875, 176.5288848876953, -78.67814636230469, -0.01600000075995922, -0.08000000566244125, 1.055999994277954, 0.0, 0.0, 0.0, 0.0, 0.0, 1.6213404695858755E9, 2021-05-18 14:21:09.585
69.0, 100.38826751708984, 0.39455944299697876, 220.12115478515625, -39.16610336303711, -0.01600000075995922, -0.08000000566244125, 1.055999994277954, 0.0, 0.0, 0.0, 0.0, 0.0, 1.6213404695864928E9, 2021-05-18 14:21:09.586
69.0, 145.9514617919922, 42.50583267211914, 261.87713623046875, 5.402285575866699, -0.01600000075995922, -0.08000000566244125, 1.055999994277954, 0.0, 0.0, 0.0, 0.0, 0.0, 1.6213404695864928E9, 2021-05-18 14:21:09.586
70.0, 57.49909210205078, -52.95137405395508, 172.38882446289062, -82.5601577758789, -0.01600000075995922, -0.08000000566244125, 1.055999994277954, 0.0, 0.0, 0.0, 0.0, 0.0, 1.621340469600165E9, 2021-05-18 14:21:09.600
70.0, 68.44951629638672, -39.087562561035156, 184.88755798339844, -71.10858917236328, -0.01600000075995922, -0.08000000566244125, 1.055999994277954, 0.0, 0.0, 0.0, 0.0, 0.0, 1.621340469600165E9, 2021-05-18 14:21:09.600
71.0, 108.40287017822266, -2.1186532974243164, 224.6015625, -36.88850402832031, -0.01600000075995922, -0.08000000566244125, 1.055999994277954, 0.0, 0.0, 0.0, 0.0, 0.0, 1.6213404696158707E9, 2021-05-18 14:21:09.615
71.0, 151.0040740966797, 35.86376953125, 262.6138916015625, -2.3991458415985107, -0.01600000075995922, -0.08000000566244125, 1.055999994277954, 0.0, 0.0, 0.0, 0.0, 0.0, 1.6213404696158707E9, 2021-05-18 14:21:09.615
72.0, 55.39352798461914, -58.87911605834961, 158.7755889892578, -98.97084045410156, -0.03200000151991844, -0.08000000566244125, 1.055999994277954, 0.0, 0.0, 0.0, 0.0, 0.0, 1.621340469616495E9, 2021-05-18 14:21:09.616
72.0, 68.42707824707031, -46.84037780761719, 172.74411010742188, -88.9179916381836, -0.03200000151991844, -0.08000000566244125, 1.055999994277954, 0.0, 0.0, 0.0, 0.0, 0.0, 1.621340469616495E9, 2021-05-18 14:21:09.616
73.0, 103.70555877685547, -6.213843822479248, 214.18968200683594, -52.30437088012695, -0.03200000151991844, -0.08000000566244125, 1.055999994277954, 0.0, 0.0, 0.0, 0.0, 0.0, 1.6213404696455674E9, 2021-05-18 14:21:09.645
73.0, 144.2610321044922, 35.83759307861328, 260.0894775390625, -12.21264362335205, -0.03200000151991844, -0.08000000566244125, 1.055999994277954, 0.0, 0.0, 0.0, 0.0, 0.0, 1.6213404696455674E9, 2021-05-18 14:21:09.645
74.0, 56.182647705078125, -55.82361602783203, 162.17141723632812, -99.90581512451172, -0.03200000151991844, -0.08000000566244125, 1.055999994277954, 0.0, 0.0, 0.0, 0.0, 0.0, 1.6213404696619985E9, 2021-05-18 14:21:09.661
