Sample Index, EXG Channel 0, EXG Channel 1, EXG Channel 2, EXG Channel 3, Accel Channel 0, Accel Channel 1, Accel Channel 2, Other, Other, Other, Other, Other, Timestamp, Timestamp (Formatted)
0.0, 48.66170883178711, -58.25081253051758, 110.82632446289062, -64.26457214355469, 0.0, 0.0, 0.0, 0.0, 0.0, 0.0, 0.0, 0.0, 1.621340189054551E9, 2021-05-18 14:16:29.054
1.0, 58.65098190307617, -40.078636169433594, 132.61497497558594, -47.37144088745117, 0.0, -0.08000000566244125, 0.0, 0.0, 0.0, 0.0, 0.0, 0.0, 1.6213401890678928E9, 2021-05-18 14:16:29.067
1.0, 87.97927856445312, -5.652858734130859, 167.26141357421875, -5.697737693786621, 0.0, -0.08000000566244125, 0.0, 0.0, 0.0, 0.0, 0.0, 0.0, 1.6213401890678928E9, 2021-05-18 14:16:29.067
2.0, 136.01829528808594, 41.04353332519531, 213.26593017578125, 40.28059387207031, -0.03200000151991844, -0.08000000566244125, 0.0, 0.0, 0.0, 0.0, 0.0, 0.0, 1.6213401890846865E9, 2021-05-18 14:16:29.084
2.0, 46.862815856933594, -55.62540054321289, 128.22059631347656, -45.60247039794922, -0.03200000151991844, -0.08000000566244125, 0.0, 0.0, 0.0, 0.0, 0.0, 0.0, 1.6213401890846865E9, 2021-05-18 14:16:29.084
3.0, 63.920501708984375, -39.79440689086914, 135.80511474609375, -36.1330451965332, -0.03200000151991844, -0.08000000566244125, 0.0, 0.0, 0.0, 0.0, 0.0, 0.0, 1.621340189085269E9, 2021-05-18 14:16:29.085
3.0, 100.7435531616211, -14.946510314941406, 173.4696502685547, -0.2187841534614563, -0.03200000151991844, -0.08000000566244125, 0.0, 0.0, 0.0, 0.0, 0.0, 0.0, 1.621340189085269E9, 2021-05-18 14:16:29.085
4.0, 147.64190673828125, 29.868711471557617, 216.62062072753906, 35.414981842041016, -0.03200000151991844, -0.08000000566244125, 0.0, 0.0, 0.0, 0.0, 0.0, 0.0, 1.6213401891148107E9, 2021-05-18 14:16:29.114
4.0, 61.63167953491211, -57.0615234375, 118.58287811279297, -50.598976135253906, -0.03200000151991844, -0.08000000566244125, 0.0, 0.0, 0.0, 0.0, 0.0, 0.0, 1.6213401891148107E9, 2021-05-18 14:16:29.114
5.0, 67.578125, -48.58317184448242, 128.33279418945312, -48.029666900634766, -0.03200000151991844, -0.08000000566244125, 0.0, 0.0, 0.0, 0.0, 0.0, 0.0, 1.6213401891154826E9, 2021-05-18 14:16:29.115
5.0, 104.41987609863281, -20.3057861328125, 161.5244140625, -16.868818283081055, -0.03200000151991844, -0.08000000566244125, 0.0, 0.0, 0.0, 0.0, 0.0, 0.0, 1.6213401891154826E9, 2021-05-18 14:16:29.115
6.0, 153.8463897705078, 25.0479793548584, 206.21621704101562, 26.84313201904297, -0.03200000151991844, -0.08000000566244125, 0.0, 0.0, 0.0, 0.0, 0.0, 0.0, 1.621340189116374E9, 2021-05-18 14:16:29.116
6.0, 63.45675277709961, -63.5465087890625, 119.52532958984375, -55.29254913330078, -0.03200000151991844, -0.08000000566244125, 0.0, 0.0, 0.0, 0.0, 0.0, 0.0, 1.621340189116374E9, 2021-05-18 14:16:29.116
7.0, 57.66364669799805, -55.172874450683594, 119.42809295654297, -58.2171516418457, -0.03200000151991844, -0.08000000566244125, 0.0, 0.0, 0.0, 0.0, 0.0, 0.0, 1.6213401891277523E9, 2021-05-18 14:16:29.127
7.0, 90.4064712524414, -15.193343162536621, 155.09925842285156, -25.997915267944336, -0.03200000151991844, -0.08000000566244125, 0.0, 0.0, 0.0, 0.0, 0.0, 0.0, 1.6213401891277523E9, 2021-05-18 14:16:29.127
8.0, 129.49217224121094, 35.59449768066406, 201.3244171142578, 18.06558609008789, -0.03200000151991844, -0.08000000566244125, 0.0, 0.0, 0.0, 0.0, 0.0, 0.0, 1.6213401891434116E9, 2021-05-18 14:16:29.143
8.0, 42.40859603881836, -62.14030838012695, 112.26992797851562, -67.52950286865234, -0.03200000151991844, -0.08000000566244125, 0.0, 0.0, 0.0, 0.0, 0.0, 0.0, 1.6213401891434116E9, 2021-05-18 14:16:29.143
9.0, 46.79923629760742, -52.311851501464844, 118.7287368774414, -59.88888931274414, -0.03200000151991844, -0.08000000566244125, 0.0, 0.0, 0.0, 0.0, 0.0, 0.0, 1.6213401891441312E9, 2021-05-18 14:16:29.144
9.0, 90.53363037109375, -10.49976921081543, 160.2827606201172, -17.384925842285156, -0.03200000151991844, -0.08000000566244125, 0.0, 0.0, 0.0, 0.0, 0.0, 0.0, 1.6213401891441312E9, 2021-05-18 14:16:29.144
10.0, 127.4614028930664, 35.882469177246094, 199.072998046875, 26.420522689819336, -0.03200000151991844, -0.08000000566244125, 1.055999994277954, 0.0, 0.0, 0.0, 0.0, 0.0, 1.6213401891740477E9, 2021-05-18 14:16:29.174
10.0, 44.66001510620117, -53.650733947753906, 115.30672454833984, -48.81504440307617, -0.03200000151991844, -0.08000000566244125, 1.055999994277954, 0.0, 0.0, 0.0, 0.0, 0.0, 1.6213401891740477E9, 2021-05-18 14:16:29.174
11.0, 48.18674087524414, -46.769317626953125, 123.75141906738281, -40.759300231933594, -0.03200000151991844, -0.08000000566244125, 1.055999994277954, 0.0, 0.0, 0.0, 0.0, 0.0, 1.6213401891747525E9, 2021-05-18 14:16:29.174
11.0, 83.36424255371094, -10.817660331726074, 163.7234649658203, -1.2622162103652954, -0.03200000151991844, -0.08000000566244125, 1.055999994277954, 0.0, 0.0, 0.0, 0.0, 0.0, 1.6213401891747525E9, 2021-05-18 14:16:29.174
12.0, 131.60894775390625, 34.11723709106445, 215.4014129638672, 42.3076171875, -0.03200000151991844, -0.08000000566244125, 1.055999994277954, 0.0, 0.0, 0.0, 0.0, 0.0, 1.6213401891754951E9, 2021-05-18 14:16:29.175
12.0, 41.88127136230469, -56.762332916259766, 118.39588165283203, -53.646995544433594, -0.03200000151991844, -0.08000000566244125, 1.055999994277954, 0.0, 0.0, 0.0, 0.0, 0.0, 1.6213401891754951E9, 2021-05-18 14:16:29.175
13.0, 45.55759048461914, -48.61682891845703, 122.98847961425781, -51.80696487426758, -0.03200000151991844, -0.08000000566244125, 1.055999994277954, 0.0, 0.0, 0.0, 0.0, 0.0, 1.621340189187847E9, 2021-05-18 14:16:29.187
13.0, 82.48162078857422, -11.928410530090332, 161.16163635253906, -16.105878829956055, -0.03200000151991844, -0.08000000566244125, 1.055999994277954, 0.0, 0.0, 0.0, 0.0, 0.0, 1.621340189187847E9, 2021-05-18 14:16:29.187
14.0, 134.3839569091797, 25.17513656616211, 212.02427673339844, 27.194683074951172, -0.03200000151991844, -0.08000000566244125, 1.055999994277954, 0.0, 0.0, 0.0, 0.0, 0.0, 1.621340189203551E9, 2021-05-18 14:16:29.203
14.0, 54.267818450927734, -59.73555374145508, 120.39299011230469, -59.61961364746094, -0.03200000151991844, -0.08000000566244125, 1.055999994277954, 0.0, 0.0, 0.0, 0.0, 0.0, 1.621340189203551E9, 2021-05-18 14:16:29.203
15.0, 66.17192077636719, -45.73710632324219, 129.95965576171875, -46.29435348510742, -0.03200000151991844, -0.08000000566244125, 1.055999994277954, 0.0, 0.0, 0.0, 0.0, 0.0, 1.621340189204229E9, 2021-05-18 14:16:29.204
15.0, 99.77491760253906, -21.786787033081055, 161.79368591308594, -15.522455215454102, -0.03200000151991844, -0.08000000566244125, 1.055999994277954, 0.0, 0.0, 0.0, 0.0, 0.0, 1.621340189204229E9, 2021-05-18 14:16:29.204
16.0, 147.50726318359375, 28.668203353881836, 211.78118896484375, 27.18720245361328, -0.03200000151991844, -0.08000000566244125, 1.055999994277954, 0.0, 0.0, 0.0, 0.0, 0.0, 1.6213401892343016E9, 2021-05-18 14:16:29.234
16.0, 53.80406951904297, -60.72288513183594, 118.10791015625, -60.992156982421875, -0.03200000151991844, -0.08000000566244125, 1.055999994277954, 0.0, 0.0, 0.0, 0.0, 0.0, 1.6213401892343016E9, 2021-05-18 14:16:29.234
17.0, 59.58969497680664, -45.83808517456055, 131.86700439453125, -48.42235565185547, -0.03200000151991844, -0.08000000566244125, 1.055999994277954, 0.0, 0.0, 0.0, 0.0, 0.0, 1.621340189234894E9, 2021-05-18 14:16:29.234
17.0, 91.39006805419922, -17.568180084228516, 162.5753173828125, -18.514373779296875, -0.03200000151991844, -0.08000000566244125, 1.055999994277954, 0.0, 0.0, 0.0, 0.0, 0.0, 1.621340189234894E9, 2021-05-18 14:16:29.234
18.0, 137.50677490234375, 28.133398056030273, 209.17820739746094, 21.495075225830078, -0.03200000151991844, -0.08000000566244125, 1.055999994277954, 0.0, 0.0, 0.0, 0.0, 0.0, 1.621340189235673E9, 2021-05-18 14:16:29.235
18.0, 47.42753982543945, -64.25334930419922, 110.48599243164062, -73.73773956298828, -0.03200000151991844, -0.08000000566244125, 1.055999994277954, 0.0, 0.0, 0.0, 0.0, 0.0, 1.621340189235673E9, 2021-05-18 14:16:29.235
19.0, 55.030757904052734, -47.640716552734375, 123.42230987548828, -59.58595657348633, -0.03200000151991844, -0.08000000566244125, 1.055999994277954, 0.0, 0.0, 0.0, 0.0, 0.0, 1.6213401892476726E9, 2021-05-18 14:16:29.247
19.0, 87.23503875732422, -9.635851860046387, 157.62368774414062, -22.72176170349121, -0.03200000151991844, -0.08000000566244125, 1.055999994277954, 0.0, 0.0, 0.0, 0.0, 0.0, 1.6213401892476726E9, 2021-05-18 14:16:29.247
20.0, 134.69436645507812, 26.768333435058594, 203.3252716064453, 21.682069778442383, -0.03200000151991844, -0.08000000566244125, 1.055999994277954, 0.0, 0.0, 0.0, 0.0, 0.0, 1.621340189263831E9, 2021-05-18 14:16:29.263
20.0, 38.896827697753906, -60.30775833129883, 111.04698181152344, -62.69007110595703, -0.03200000151991844, -0.08000000566244125, 1.055999994277954, 0.0, 0.0, 0.0, 0.0, 0.0, 1.621340189263831E9, 2021-05-18 14:16:29.263
21.0, 55.59922409057617, -46.11857604980469, 120.99510955810547, -52.29689025878906, -0.03200000151991844, -0.08000000566244125, 1.055999994277954, 0.0, 0.0, 0.0, 0.0, 0.0, 1.6213401892798145E9, 2021-05-18 14:16:29.279
21.0, 89.49019622802734, -14.976428985595703, 158.6783447265625, -12.197683334350586, -0.03200000151991844, -0.08000000566244125, 1.055999994277954, 0.0, 0.0, 0.0, 0.0, 0.0, 1.6213401892798145E9, 2021-05-18 14:16:29.279
22.0, 132.3606719970703, 35.58327865600586, 203.28787231445312, 28.90381622314453, -0.03200000151991844, -0.08000000566244125, 1.055999994277954, 0.0, 0.0, 0.0, 0.0, 0.0, 1.6213401892806365E9, 2021-05-18 14:16:29.280
22.0, 44.540340423583984, -58.39292907714844, 116.67552947998047, -58.28446960449219, -0.03200000151991844, -0.08000000566244125, 1.055999994277954, 0.0, 0.0, 0.0, 0.0, 0.0, 1.6213401892806365E9, 2021-05-18 14:16:29.280
23.0, 55.29629135131836, -46.021339416503906, 124.76493072509766, -51.14500045776367, -0.03200000151991844, -0.08000000566244125, 1.055999994277954, 0.0, 0.0, 0.0, 0.0, 0.0, 1.6213401892811956E9, 2021-05-18 14:16:29.281
23.0, 93.48066711425781, -11.019615173339844, 167.08938598632812, -14.247148513793945, -0.03200000151991844, -0.08000000566244125, 1.055999994277954, 0.0, 0.0, 0.0, 0.0, 0.0, 1.6213401892811956E9, 2021-05-18 14:16:29.281
24.0, 137.0542449951172, 31.417030334472656, 213.66983032226562, 35.269126892089844, -0.03200000151991844, -0.08000000566244125, 1.055999994277954, 0.0, 0.0, 0.0, 0.0, 0.0, 1.6213401892926605E9, 2021-05-18 14:16:29.292
24.0, 46.23825454711914, -59.765472412109375, 126.10755920410156, -58.69960021972656, -0.03200000151991844, -0.08000000566244125, 1.055999994277954, 0.0, 0.0, 0.0, 0.0, 0.0, 1.6213401892926605E9, 2021-05-18 14:16:29.292
25.0, 55.83109664916992, -45.16864013671875, 134.73924255371094, -43.186492919921875, -0.03200000151991844, -0.08000000566244125, 1.055999994277954, 0.0, 0.0, 0.0, 0.0, 0.0, 1.6213401893076549E9, 2021-05-18 14:16:29.307
25.0, 86.95454406738281, -11.797513961791992, 161.93954467773438, -4.916098594665527, -0.03200000151991844, -0.08000000566244125, 1.055999994277954, 0.0, 0.0, 0.0, 0.0, 0.0, 1.6213401893076549E9, 2021-05-18 14:16:29.307
26.0, 134.1259002685547, 31.417030334472656, 207.32322692871094, 43.37348937988281, -0.03200000151991844, -0.08000000566244125, 1.055999994277954, 0.0, 0.0, 0.0, 0.0, 0.0, 1.621340189323393E9, 2021-05-18 14:16:29.323
26.0, 43.908294677734375, -64.63855743408203, 115.56478118896484, -55.01579666137695, -0.03200000151991844, -0.08000000566244125, 1.055999994277954, 0.0, 0.0, 0.0, 0.0, 0.0, 1.621340189323393E9, 2021-05-18 14:16:29.323
27.0, 53.44129943847656, -48.669189453125, 124.20394897460938, -52.225833892822266, -0.03200000151991844, -0.08000000566244125, 1.055999994277954, 0.0, 0.0, 0.0, 0.0, 0.0, 1.621340189324096E9, 2021-05-18 14:16:29.324
27.0, 86.26266479492188, -21.2332820892334, 155.44332885742188, -15.077406883239746, -0.03200000151991844, -0.08000000566244125, 1.055999994277954, 0.0, 0.0, 0.0, 0.0, 0.0, 1.621340189324096E9, 2021-05-18 14:16:29.324
28.0, 143.34849548339844, 21.86158561706543, 212.32347106933594, 27.669649124145508, -0.03200000151991844, -0.08000000566244125, 1.055999994277954, 0.0, 0.0, 0.0, 0.0, 0.0, 1.6213401893538272E9, 2021-05-18 14:16:29.353
28.0, 59.75425338745117, -59.799129486083984, 122.95855712890625, -59.3802604675293, -0.03200000151991844, -0.08000000566244125, 1.055999994277954, 0.0, 0.0, 0.0, 0.0, 0.0, 1.6213401893538272E9, 2021-05-18 14:16:29.353
29.0, 62.428279876708984, -55.09059524536133, 132.35693359375, -49.914573669433594, -0.03200000151991844, -0.08000000566244125, 1.055999994277954, 0.0, 0.0, 0.0, 0.0, 0.0, 1.6213401893545742E9, 2021-05-18 14:16:29.354
29.0, 92.88976287841797, -17.34752655029297, 164.5238037109375, -15.496275901794434, -0.03200000151991844, -0.08000000566244125, 1.055999994277954, 0.0, 0.0, 0.0, 0.0, 0.0, 1.6213401893545742E9, 2021-05-18 14:16:29.354
30.0, 140.89512634277344, 24.27756118774414, 216.19052124023438, 28.380229949951172, -0.03200000151991844, -0.08000000566244125, 1.055999994277954, 0.0, 0.0, 0.0, 0.0, 0.0, 1.6213401893685975E9, 2021-05-18 14:16:29.368
30.0, 52.03135681152344, -58.78935623168945, 123.87483978271484, -55.318729400634766, -0.03200000151991844, -0.08000000566244125, 1.055999994277954, 0.0, 0.0, 0.0, 0.0, 0.0, 1.6213401893685975E9, 2021-05-18 14:16:29.368
31.0, 56.82590866088867, -48.78886413574219, 122.22554016113281, -43.160316467285156, -0.03200000151991844, -0.08000000566244125, 1.055999994277954, 0.0, 0.0, 0.0, 0.0, 0.0, 1.621340189369236E9, 2021-05-18 14:16:29.369
31.0, 100.30224609375, -14.811873435974121, 163.78704833984375, -2.163532018661499, -0.03200000151991844, -0.08000000566244125, 1.055999994277954, 0.0, 0.0, 0.0, 0.0, 0.0, 1.621340189369236E9, 2021-05-18 14:16:29.369
32.0, 138.48287963867188, 22.92745590209961, 206.73231506347656, 31.23003387451172, -0.03200000151991844, -0.08000000566244125, 1.055999994277954, 0.0, 0.0, 0.0, 0.0, 0.0, 1.6213401893834405E9, 2021-05-18 14:16:29.383
32.0, 56.702491760253906, -68.69261169433594, 117.26643371582031, -53.84894943237305, -0.03200000151991844, -0.08000000566244125, 1.055999994277954, 0.0, 0.0, 0.0, 0.0, 0.0, 1.6213401893834405E9, 2021-05-18 14:16:29.383
33.0, 59.372779846191406, -61.25395202636719, 126.58626556396484, -47.94364929199219, -0.03200000151991844, -0.08000000566244125, 1.055999994277954, 0.0, 0.0, 0.0, 0.0, 0.0, 1.6213401893841472E9, 2021-05-18 14:16:29.384
33.0, 96.55487060546875, -24.726348876953125, 163.35696411132812, -18.948204040527344, -0.03200000151991844, -0.08000000566244125, 1.055999994277954, 0.0, 0.0, 0.0, 0.0, 0.0, 1.6213401893841472E9, 2021-05-18 14:16:29.384
34.0, 143.13531494140625, 17.732736587524414, 210.92474365234375, 24.307479858398438, -0.03200000151991844, -0.08000000566244125, 1.055999994277954, 0.0, 0.0, 0.0, 0.0, 0.0, 1.6213401893977506E9, 2021-05-18 14:16:29.397
34.0, 56.264923095703125, -60.70044708251953, 123.3026351928711, -62.529258728027344, -0.03200000151991844, -0.08000000566244125, 1.055999994277954, 0.0, 0.0, 0.0, 0.0, 0.0, 1.6213401893977506E9, 2021-05-18 14:16:29.397
35.0, 56.324764251708984, -53.983585357666016, 125.12022399902344, -61.79623794555664, -0.03200000151991844, -0.08000000566244125, 1.055999994277954, 0.0, 0.0, 0.0, 0.0, 0.0, 1.6213401894297717E9, 2021-05-18 14:16:29.429
35.0, 90.89266204833984, -12.885825157165527, 159.78909301757812, -24.546833038330078, -0.03200000151991844, -0.08000000566244125, 1.055999994277954, 0.0, 0.0, 0.0, 0.0, 0.0, 1.6213401894297717E9, 2021-05-18 14:16:29.429
36.0, 135.28152465820312, 26.56637954711914, 204.57814025878906, 23.970888137817383, -0.03200000151991844, -0.08000000566244125, 1.055999994277954, 0.0, 0.0, 0.0, 0.0, 0.0, 1.6213401894304693E9, 2021-05-18 14:16:29.430
36.0, 45.7109260559082, -60.91361999511719, 114.15857696533203, -59.50741958618164, -0.03200000151991844, -0.08000000566244125, 1.055999994277954, 0.0, 0.0, 0.0, 0.0, 0.0, 1.6213401894304693E9, 2021-05-18 14:16:29.430
37.0, 64.14863586425781, -47.70803451538086, 128.75914001464844, -39.712127685546875, -0.03200000151991844, -0.08000000566244125, 1.055999994277954, 0.0, 0.0, 0.0, 0.0, 0.0, 1.6213401894312477E9, 2021-05-18 14:16:29.431
37.0, 90.58598327636719, -9.98740291595459, 158.40533447265625, -4.2690958976745605, -0.03200000151991844, -0.08000000566244125, 1.055999994277954, 0.0, 0.0, 0.0, 0.0, 0.0, 1.6213401894312477E9, 2021-05-18 14:16:29.431
38.0, 139.7731475830078, 29.97342872619629, 211.01077270507812, 46.32427215576172, -0.03200000151991844, -0.08000000566244125, 1.055999994277954, 0.0, 0.0, 0.0, 0.0, 0.0, 1.6213401894319901E9, 2021-05-18 14:16:29.431
38.0, 49.19651412963867, -69.71360778808594, 116.70170593261719, -43.32113265991211, -0.03200000151991844, -0.08000000566244125, 1.055999994277954, 0.0, 0.0, 0.0, 0.0, 0.0, 1.6213401894319901E9, 2021-05-18 14:16:29.431
39.0, 52.05005645751953, -58.183494567871094, 127.05748748779297, -39.39423751831055, -0.03200000151991844, -0.08000000566244125, 1.055999994277954, 0.0, 0.0, 0.0, 0.0, 0.0, 1.6213401894426455E9, 2021-05-18 14:16:29.442
39.0, 83.90652465820312, -21.573612213134766, 163.12135314941406, -3.599653720855713, -0.03200000151991844, -0.08000000566244125, 1.055999994277954, 0.0, 0.0, 0.0, 0.0, 0.0, 1.6213401894426455E9, 2021-05-18 14:16:29.442
40.0, 131.70245361328125, 31.218814849853516, 206.6163787841797, 38.84073257446289, -0.03200000151991844, -0.08000000566244125, 1.055999994277954, 0.0, 0.0, 0.0, 0.0, 0.0, 1.6213401894745338E9, 2021-05-18 14:16:29.474
40.0, 52.22957229614258, -61.044517517089844, 116.30902099609375, -56.564117431640625, -0.03200000151991844, -0.08000000566244125, 1.055999994277954, 0.0, 0.0, 0.0, 0.0, 0.0, 1.6213401894745338E9, 2021-05-18 14:16:29.474
41.0, 63.396915435791016, -56.61647415161133, 128.38890075683594, -48.3699951171875, -0.03200000151991844, -0.08000000566244125, 1.055999994277954, 0.0, 0.0, 0.0, 0.0, 0.0, 1.6213401894751663E9, 2021-05-18 14:16:29.475
41.0, 98.0321273803711, -16.449949264526367, 165.40267944335938, -17.287687301635742, -0.03200000151991844, -0.08000000566244125, 1.055999994277954, 0.0, 0.0, 0.0, 0.0, 0.0, 1.6213401894751663E9, 2021-05-18 14:16:29.475
42.0, 141.1307373046875, 19.165117263793945, 210.3263702392578, 23.21916961669922, -0.03200000151991844, -0.08000000566244125, 1.055999994277954, 0.0, 0.0, 0.0, 0.0, 0.0, 1.6213401894884665E9, 2021-05-18 14:16:29.488
42.0, 57.319576263427734, -65.01628875732422, 119.82826232910156, -67.31632995605469, -0.03200000151991844, -0.08000000566244125, 1.055999994277954, 0.0, 0.0, 0.0, 0.0, 0.0, 1.6213401894884665E9, 2021-05-18 14:16:29.488
43.0, 62.196407318115234, -56.74363327026367, 130.1092529296875, -54.04716491699219, -0.03200000151991844, -0.08000000566244125, 1.055999994277954, 0.0, 0.0, 0.0, 0.0, 0.0, 1.6213401894891531E9, 2021-05-18 14:16:29.489
43.0, 93.3722152709961, -11.804994583129883, 165.76171875, -16.113359451293945, -0.03200000151991844, -0.08000000566244125, 1.055999994277954, 0.0, 0.0, 0.0, 0.0, 0.0, 1.6213401894891531E9, 2021-05-18 14:16:29.489
44.0, 130.55804443359375, 15.952543258666992, 209.78781127929688, 18.346078872680664, -0.03200000151991844, -0.08000000566244125, 1.055999994277954, 0.0, 0.0, 0.0, 0.0, 0.0, 1.6213401895034733E9, 2021-05-18 14:16:29.503
44.0, 52.128597259521484, -61.55314254760742, 119.20744323730469, -68.57667541503906, -0.03200000151991844, -0.08000000566244125, 1.055999994277954, 0.0, 0.0, 0.0, 0.0, 0.0, 1.6213401895034733E9, 2021-05-18 14:16:29.503
45.0, 61.515743255615234, -52.165992736816406, 129.4697265625, -54.409934997558594, -0.03200000151991844, -0.08000000566244125, 1.055999994277954, 0.0, 0.0, 0.0, 0.0, 0.0, 1.6213401895041275E9, 2021-05-18 14:16:29.504
45.0, 101.11380767822266, -13.158838272094727, 171.3603515625, -15.03626823425293, -0.03200000151991844, -0.08000000566244125, 1.055999994277954, 0.0, 0.0, 0.0, 0.0, 0.0, 1.6213401895041275E9, 2021-05-18 14:16:29.504
46.0, 148.82745361328125, 26.988988876342773, 220.6559600830078, 33.1224250793457, -0.03200000151991844, -0.08000000566244125, 1.055999994277954, 0.0, 0.0, 0.0, 0.0, 0.0, 1.6213401895177424E9, 2021-05-18 14:16:29.517
46.0, 60.801422119140625, -63.445533752441406, 127.55863952636719, -54.989620208740234, -0.03200000151991844, -0.08000000566244125, 1.055999994277954, 0.0, 0.0, 0.0, 0.0, 0.0, 1.6213401895177424E9, 2021-05-18 14:16:29.517
47.0, 65.21076202392578, -50.49799728393555, 140.9661865234375, -37.99177551269531, -0.03200000151991844, -0.08000000566244125, 1.055999994277954, 0.0, 0.0, 0.0, 0.0, 0.0, 1.6213401895335023E9, 2021-05-18 14:16:29.533
47.0, 98.55197143554688, -9.048687934875488, 175.8968505859375, -1.007902979850769, -0.03200000151991844, -0.08000000566244125, 1.055999994277954, 0.0, 0.0, 0.0, 0.0, 0.0, 1.6213401895335023E9, 2021-05-18 14:16:29.533
48.0, 141.1307373046875, 31.005640029907227, 222.1444549560547, 44.9779052734375, -0.03200000151991844, -0.08000000566244125, 1.055999994277954, 0.0, 0.0, 0.0, 0.0, 0.0, 1.6213401895341592E9, 2021-05-18 14:16:29.534
48.0, 53.33658218383789, -53.785369873046875, 128.30661010742188, -41.67931365966797, -0.03200000151991844, -0.08000000566244125, 1.055999994277954, 0.0, 0.0, 0.0, 0.0, 0.0, 1.6213401895341592E9, 2021-05-18 14:16:29.534
49.0, 53.28048324584961, -55.748817443847656, 128.7030487060547, -41.21930694580078, -0.03200000151991844, -0.08000000566244125, 1.055999994277954, 0.0, 0.0, 0.0, 0.0, 0.0, 1.6213401895477712E9, 2021-05-18 14:16:29.547
49.0, 90.13719940185547, -26.671096801757812, 168.56289672851562, -9.231943130493164, -0.03200000151991844, -0.08000000566244125, 1.055999994277954, 0.0, 0.0, 0.0, 0.0, 0.0, 1.6213401895477712E9, 2021-05-18 14:16:29.547
50.0, 134.61582946777344, 19.76350212097168, 206.60516357421875, 32.049072265625, -0.03200000151991844, -0.08000000566244125, 1.055999994277954, 0.0, 0.0, 0.0, 0.0, 0.0, 1.6213401895640135E9, 2021-05-18 14:16:29.564
50.0, 48.32137680053711, -59.51115798950195, 117.59554290771484, -55.34864807128906, -0.03200000151991844, -0.08000000566244125, 1.055999994277954, 0.0, 0.0, 0.0, 0.0, 0.0, 1.6213401895640135E9, 2021-05-18 14:16:29.564
51.0, 49.18903350830078, -59.84027099609375, 124.05061340332031, -46.249473571777344, -0.03200000151991844, -0.08000000566244125, 1.055999994277954, 0.0, 0.0, 0.0, 0.0, 0.0, 1.6213401895647268E9, 2021-05-18 14:16:29.564
51.0, 77.48511505126953, -21.278160095214844, 163.9366455078125, -16.46491050720215, -0.03200000151991844, -0.08000000566244125, 1.055999994277954, 0.0, 0.0, 0.0, 0.0, 0.0, 1.6213401895647268E9, 2021-05-18 14:16:29.564
52.0, 129.58566284179688, 24.46829605102539, 212.3496551513672, 23.22290802001953, -0.03200000151991844, -0.08000000566244125, 1.055999994277954, 0.0, 0.0, 0.0, 0.0, 0.0, 1.6213401895777051E9, 2021-05-18 14:16:29.577
52.0, 41.78403091430664, -58.463985443115234, 117.54692840576172, -67.30885314941406, -0.03200000151991844, -0.08000000566244125, 1.055999994277954, 0.0, 0.0, 0.0, 0.0, 0.0, 1.6213401895777051E9, 2021-05-18 14:16:29.577
53.0, 45.60995101928711, -63.340816497802734, 123.31385040283203, -64.46652221679688, -0.03200000151991844, -0.08000000566244125, 1.055999994277954, 0.0, 0.0, 0.0, 0.0, 0.0, 1.621340189593162E9, 2021-05-18 14:16:29.593
53.0, 89.0414047241211, -20.133750915527344, 166.88742065429688, -27.25078010559082, -0.03200000151991844, -0.08000000566244125, 1.055999994277954, 0.0, 0.0, 0.0, 0.0, 0.0, 1.621340189593162E9, 2021-05-18 14:16:29.593
54.0, 137.09912109375, 27.882823944091797, 214.4813995361328, 9.40397834777832, -0.03200000151991844, -0.08000000566244125, 1.055999994277954, 0.0, 0.0, 0.0, 0.0, 0.0, 1.621340189608457E9, 2021-05-18 14:16:29.608
54.0, 61.67655944824219, -60.8650016784668, 129.95591735839844, -77.48511505126953, -0.03200000151991844, -0.08000000566244125, 1.055999994277954, 0.0, 0.0, 0.0, 0.0, 0.0, 1.621340189608457E9, 2021-05-18 14:16:29.608
55.0, 72.27169799804688, -57.67860794067383, 137.21505737304688, -68.47196197509766, -0.03200000151991844, -0.08000000566244125, 1.055999994277954, 0.0, 0.0, 0.0, 0.0, 0.0, 1.6213401896090682E9, 2021-05-18 14:16:29.609
55.0, 102.08243560791016, -32.01541519165039, 168.731201171875, -37.232574462890625, -0.03200000151991844, -0.08000000566244125, 1.055999994277954, 0.0, 0.0, 0.0, 0.0, 0.0, 1.6213401896090682E9, 2021-05-18 14:16:29.609
56.0, 141.20553588867188, 19.468050003051758, 213.580078125, 8.293228149414062, -0.03200000151991844, -0.08000000566244125, 1.055999994277954, 0.0, 0.0, 0.0, 0.0, 0.0, 1.621340189623482E9, 2021-05-18 14:16:29.623
56.0, 61.07443618774414, -54.7427864074707, 128.61329650878906, -58.35178756713867, -0.03200000151991844, -0.08000000566244125, 1.055999994277954, 0.0, 0.0, 0.0, 0.0, 0.0, 1.621340189623482E9, 2021-05-18 14:16:29.623
57.0, 69.49668884277344, -58.20967102050781, 135.89112854003906, -47.356483459472656, -0.03200000151991844, -0.08000000566244125, 1.055999994277954, 0.0, 0.0, 0.0, 0.0, 0.0, 1.6213401896241755E9, 2021-05-18 14:16:29.624
57.0, 105.5007095336914, -19.441869735717773, 176.05392456054688, -10.10707950592041, -0.03200000151991844, -0.08000000566244125, 1.055999994277954, 0.0, 0.0, 0.0, 0.0, 0.0, 1.6213401896241755E9, 2021-05-18 14:16:29.624
58.0, 140.34535217285156, 14.176091194152832, 218.38584899902344, 31.779800415039062, -0.03200000151991844, -0.08000000566244125, 1.055999994277954, 0.0, 0.0, 0.0, 0.0, 0.0, 1.621340189637842E9, 2021-05-18 14:16:29.637
58.0, 56.085411071777344, -66.08589935302734, 127.31180572509766, -49.98937225341797, -0.03200000151991844, -0.08000000566244125, 1.055999994277954, 0.0, 0.0, 0.0, 0.0, 0.0, 1.621340189637842E9, 2021-05-18 14:16:29.637
59.0, 59.600914001464844, -46.7618408203125, 133.4901123046875, -38.833251953125, -0.03200000151991844, -0.08000000566244125, 1.055999994277954, 0.0, 0.0, 0.0, 0.0, 0.0, 1.6213401896534393E9, 2021-05-18 14:16:29.653
59.0, 89.13116455078125, -25.369611740112305, 165.79164123535156, -9.400238990783691, -0.03200000151991844, -0.08000000566244125, 1.055999994277954, 0.0, 0.0, 0.0, 0.0, 0.0, 1.6213401896534393E9, 2021-05-18 14:16:29.653
60.0, 136.95326232910156, 20.174890518188477, 224.60903930664062, 42.41607666015625, -0.03200000151991844, -0.08000000566244125, 1.055999994277954, 0.0, 0.0, 0.0, 0.0, 0.0, 1.6213401896541994E9, 2021-05-18 14:16:29.654
60.0, 48.923500061035156, -71.20956420898438, 126.7807388305664, -44.68993377685547, -0.03200000151991844, -0.08000000566244125, 1.055999994277954, 0.0, 0.0, 0.0, 0.0, 0.0, 1.6213401896541994E9, 2021-05-18 14:16:29.654
61.0, 47.84640884399414, -52.655921936035156, 130.12420654296875, -44.487979888916016, -0.03200000151991844, -0.08000000566244125, 1.055999994277954, 0.0, 0.0, 0.0, 0.0, 0.0, 1.6213401896677563E9, 2021-05-18 14:16:29.667
61.0, 81.58778381347656, -16.412551879882812, 162.6314239501953, -9.134705543518066, -0.03200000151991844, -0.08000000566244125, 1.055999994277954, 0.0, 0.0, 0.0, 0.0, 0.0, 1.6213401896677563E9, 2021-05-18 14:16:29.667
62.0, 127.19586944580078, 27.288179397583008, 209.83270263671875, 34.03495788574219, -0.01600000075995922, -0.08000000566244125, 1.055999994277954, 0.0, 0.0, 0.0, 0.0, 0.0, 1.621340189683406E9, 2021-05-18 14:16:29.683
62.0, 42.730228424072266, -51.03654479980469, 116.26788330078125, -58.54252243041992, -0.01600000075995922, -0.08000000566244125, 1.055999994277954, 0.0, 0.0, 0.0, 0.0, 0.0, 1.621340189683406E9, 2021-05-18 14:16:29.683
63.0, 49.35358810424805, -44.15886688232422, 126.13373565673828, -55.086856842041016, -0.01600000075995922, -0.08000000566244125, 1.055999994277954, 0.0, 0.0, 0.0, 0.0, 0.0, 1.6213401896841E9, 2021-05-18 14:16:29.684
63.0, 91.39754486083984, -14.740816116333008, 165.2867431640625, -22.415090560913086, -0.01600000075995922, -0.08000000566244125, 1.055999994277954, 0.0, 0.0, 0.0, 0.0, 0.0, 1.6213401896841E9, 2021-05-18 14:16:29.684
64.0, 139.64599609375, 28.55974578857422, 217.46209716796875, 24.041946411132812, -0.01600000075995922, -0.08000000566244125, 1.055999994277954, 0.0, 0.0, 0.0, 0.0, 0.0, 1.6213401896977344E9, 2021-05-18 14:16:29.697
64.0, 51.26841735839844, -53.80781173706055, 129.48094177246094, -59.03993225097656, -0.01600000075995922, -0.08000000566244125, 1.055999994277954, 0.0, 0.0, 0.0, 0.0, 0.0, 1.6213401896977344E9, 2021-05-18 14:16:29.697
65.0, 59.36530303955078, -53.347801208496094, 130.7861785888672, -53.70683288574219, -0.01600000075995922, -0.08000000566244125, 1.055999994277954, 0.0, 0.0, 0.0, 0.0, 0.0, 1.6213401897134705E9, 2021-05-18 14:16:29.713
65.0, 104.375, -13.140138626098633, 180.60911560058594, -3.5061562061309814, -0.01600000075995922, -0.08000000566244125, 1.055999994277954, 0.0, 0.0, 0.0, 0.0, 0.0, 1.6213401897134705E9, 2021-05-18 14:16:29.713
66.0, 152.90768432617188, 36.088165283203125, 231.16134643554688, 38.63503646850586, -0.01600000075995922, -0.08000000566244125, 1.055999994277954, 0.0, 0.0, 0.0, 0.0, 0.0, 1.6213401897141683E9, 2021-05-18 14:16:29.714
66.0, 54.49221420288086, -59.20074462890625, 138.7596435546875, -46.630943298339844, -0.01600000075995922, -0.08000000566244125, 1.055999994277954, 0.0, 0.0, 0.0, 0.0, 0.0, 1.6213401897141683E9, 2021-05-18 14:16:29.714
67.0, 68.32984161376953, -46.769317626953125, 154.10818481445312, -29.89488983154297, -0.01600000075995922, -0.08000000566244125, 1.055999994277954, 0.0, 0.0, 0.0, 0.0, 0.0, 1.6213401897277176E9, 2021-05-18 14:16:29.727
67.0, 96.81291961669922, -17.441022872924805, 184.7940673828125, 4.220477104187012, -0.01600000075995922, -0.08000000566244125, 1.055999994277954, 0.0, 0.0, 0.0, 0.0, 0.0, 1.6213401897277176E9, 2021-05-18 14:16:29.727
68.0, 135.84251403808594, 22.706802368164062, 230.18896484375, 49.13667678833008, -0.01600000075995922, -0.08000000566244125, 1.055999994277954, 0.0, 0.0, 0.0, 0.0, 0.0, 1.6213401897433996E9, 2021-05-18 14:16:29.743
68.0, 43.55674362182617, -66.67680358886719, 126.78821563720703, -46.20833206176758, -0.01600000075995922, -0.08000000566244125, 1.055999994277954, 0.0, 0.0, 0.0, 0.0, 0.0, 1.6213401897433996E9, 2021-05-18 14:16:29.743
69.0, 51.66484832763672, -58.64350128173828, 127.88774871826172, -41.36142349243164, -0.01600000075995922, -0.08000000566244125, 1.055999994277954, 0.0, 0.0, 0.0, 0.0, 0.0, 1.62134018974411E9, 2021-05-18 14:16:29.744
69.0, 81.86454010009766, -21.293121337890625, 168.36094665527344, -7.137598991394043, -0.01600000075995922, -0.08000000566244125, 1.055999994277954, 0.0, 0.0, 0.0, 0.0, 0.0, 1.62134018974411E9, 2021-05-18 14:16:29.744
70.0, 124.92948913574219, 30.35489845275879, 215.04611206054688, 35.53466033935547, -0.01600000075995922, -0.08000000566244125, 1.040000081062317, 0.0, 0.0, 0.0, 0.0, 0.0, 1.6213401897577157E9, 2021-05-18 14:16:29.757
70.0, 38.15633010864258, -69.99784088134766, 123.27271270751953, -55.86849594116211, -0.01600000075995922, -0.08000000566244125, 1.040000081062317, 0.0, 0.0, 0.0, 0.0, 0.0, 1.6213401897577157E9, 2021-05-18 14:16:29.757
71.0, 47.08721160888672, -59.907588958740234, 124.51809692382812, -52.5362434387207, -0.01600000075995922, -0.08000000566244125, 1.040000081062317, 0.0, 0.0, 0.0, 0.0, 0.0, 1.621340189773553E9, 2021-05-18 14:16:29.773
71.0, 96.22575378417969, -11.569380760192871, 172.26913452148438, -5.555621147155762, -0.01600000075995922, -0.08000000566244125, 1.040000081062317, 0.0, 0.0, 0.0, 0.0, 0.0, 1.621340189773553E9, 2021-05-18 14:16:29.773
72.0, 133.08621215820312, 22.60208511352539, 211.82606506347656, 19.449350357055664, -0.01600000075995922, -0.08000000566244125, 1.040000081062317, 0.0, 0.0, 0.0, 0.0, 0.0, 1.6213401897742426E9, 2021-05-18 14:16:29.774
72.0, 49.35358810424805, -60.958499908447266, 114.3119125366211, -70.53264617919922, -0.01600000075995922, -0.08000000566244125, 1.040000081062317, 0.0, 0.0, 0.0, 0.0, 0.0, 1.6213401897742426E9, 2021-05-18 14:16:29.774
73.0, 62.45446014404297, -47.59957504272461, 136.9607391357422, -53.06357192993164, -0.01600000075995922, -0.08000000566244125, 1.040000081062317, 0.0, 0.0, 0.0, 0.0, 0.0, 1.621340189787881E9, 2021-05-18 14:16:29.787
73.0, 89.48271942138672, -13.641284942626953, 166.06838989257812, -20.537660598754883, -0.01600000075995922, -0.08000000566244125, 1.040000081062317, 0.0, 0.0, 0.0, 0.0, 0.0, 1.621340189787881E9, 2021-05-18 14:16:29.787
74.0, 140.7866668701172, 39.45033645629883, 222.7727508544922, 31.16645622253418, -0.01600000075995922, -0.08000000566244125, 1.040000081062317, 0.0, 0.0, 0.0, 0.0, 0.0, 1.621340189803376E9, 2021-05-18 14:16:29.803
74.0, 47.491119384765625, -56.57907485961914, 121.69073486328125, -61.36988830566406, -0.01600000075995922, -0.08000000566244125, 1.040000081062317, 0.0, 0.0, 0.0, 0.0, 0.0, 1.621340189803376E9, 2021-05-18 14:16:29.803
75.0, 59.384002685546875, -47.12086868286133, 139.54501342773438, -44.92928695678711, -0.01600000075995922, -0.08000000566244125, 1.040000081062317, 0.0, 0.0, 0.0, 0.0, 0.0, 1.6213401898042207E9, 2021-05-18 14:16:29.804
75.0, 94.93174743652344, -12.324840545654297, 175.70611572265625, -9.299261093139648, -0.01600000075995922, -0.08000000566244125, 1.040000081062317, 0.0, 0.0, 0.0, 0.0, 0.0, 1.6213401898042207E9, 2021-05-18 14:16:29.804
76.0, 139.8068084716797, 28.02120018005371, 218.1016082763672, 37.034358978271484, -0.01600000075995922, -0.08000000566244125, 1.040000081062317, 0.0, 0.0, 0.0, 0.0, 0.0, 1.6213401898178244E9, 2021-05-18 14:16:29.817
76.0, 54.66050720214844, -62.910728454589844, 125.13143920898438, -50.112789154052734, -0.01600000075995922, -0.08000000566244125, 1.040000081062317, 0.0, 0.0, 0.0, 0.0, 0.0, 1.6213401898178244E9, 2021-05-18 14:16:29.817
77.0, 64.03643798828125, -57.278438568115234, 134.2081756591797, -43.48942565917969, -0.01600000075995922, -0.08000000566244125, 1.040000081062317, 0.0, 0.0, 0.0, 0.0, 0.0, 1.6213401898333929E9, 2021-05-18 14:16:29.833
77.0, 104.29271697998047, -10.727903366088867, 173.9333953857422, -10.05846118927002, -0.01600000075995922, -0.08000000566244125, 1.040000081062317, 0.0, 0.0, 0.0, 0.0, 0.0, 1.6213401898333929E9, 2021-05-18 14:16:29.833
78.0, 145.57373046875, 22.29915428161621, 215.24807739257812, 22.87883758544922, -0.01600000075995922, -0.08000000566244125, 1.040000081062317, 0.0, 0.0, 0.0, 0.0, 0.0, 1.6213401898340962E9, 2021-05-18 14:16:29.834
78.0, 51.18988037109375, -67.42852783203125, 113.74344635009766, -75.57776641845703, -0.01600000075995922, -0.08000000566244125, 1.040000081062317, 0.0, 0.0, 0.0, 0.0, 0.0, 1.6213401898340962E9, 2021-05-18 14:16:29.834
79.0, 65.68199157714844, -55.030757904052734, 129.6754150390625, -62.31234359741211, -0.01600000075995922, -0.08000000566244125, 1.040000081062317, 0.0, 0.0, 0.0, 0.0, 0.0, 1.621340189847736E9, 2021-05-18 14:16:29.847
79.0, 96.70072174072266, -19.61390495300293, 166.6854705810547, -22.57590675354004, -0.01600000075995922, -0.08000000566244125, 1.040000081062317, 0.0, 0.0, 0.0, 0.0, 0.0, 1.621340189847736E9, 2021-05-18 14:16:29.847
80.0, 142.06570434570312, 23.1406307220459, 205.42709350585938, 23.55575942993164, -0.01600000075995922, -0.08000000566244125, 1.055999994277954, 0.0, 0.0, 0.0, 0.0, 0.0, 1.6213401898805585E9, 2021-05-18 14:16:29.880
80.0, 49.33863067626953, -59.567256927490234, 114.91029357910156, -66.41875457763672, -0.01600000075995922, -0.08000000566244125, 1.055999994277954, 0.0, 0.0, 0.0, 0.0, 0.0, 1.6213401898805585E9, 2021-05-18 14:16:29.880
81.0, 61.61298370361328, -46.47760772705078, 132.098876953125, -48.594390869140625, -0.01600000075995922, -0.08000000566244125, 1.055999994277954, 0.0, 0.0, 0.0, 0.0, 0.0, 1.6213401898811877E9, 2021-05-18 14:16:29.881
81.0, 91.73039245605469, -6.774828910827637, 172.64312744140625, -10.062200546264648, -0.01600000075995922, -0.08000000566244125, 1.055999994277954, 0.0, 0.0, 0.0, 0.0, 0.0, 1.6213401898811877E9, 2021-05-18 14:16:29.881
82.0, 134.66070556640625, 37.53176498413086, 223.08689880371094, 33.85918426513672, -0.01600000075995922, -0.08000000566244125, 1.055999994277954, 0.0, 0.0, 0.0, 0.0, 0.0, 1.6213401898820195E9, 2021-05-18 14:16:29.882
82.0, 40.699462890625, -59.00627136230469, 128.29913330078125, -53.67691421508789, -0.01600000075995922, -0.08000000566244125, 1.055999994277954, 0.0, 0.0, 0.0, 0.0, 0.0, 1.6213401898820195E9, 2021-05-18 14:16:29.882
83.0, 55.2252311706543, -47.29664611816406, 138.77459716796875, -44.5552978515625, -0.01600000075995922, -0.08000000566244125, 1.055999994277954, 0.0, 0.0, 0.0, 0.0, 0.0, 1.621340189882737E9, 2021-05-18 14:16:29.882
83.0, 87.69878387451172, -15.099845886230469, 169.72601318359375, -8.839253425598145, -0.01600000075995922, -0.08000000566244125, 1.055999994277954, 0.0, 0.0, 0.0, 0.0, 0.0, 1.621340189882737E9, 2021-05-18 14:16:29.882
84.0, 135.40869140625, 30.9046630859375, 217.78746032714844, 38.53031921386719, -0.01600000075995922, -0.08000000566244125, 1.055999994277954, 0.0, 0.0, 0.0, 0.0, 0.0, 1.6213401898928392E9, 2021-05-18 14:16:29.892
84.0, 46.42898941040039, -58.84919738769531, 128.68434143066406, -55.39352798461914, -0.01600000075995922, -0.08000000566244125, 1.055999994277954, 0.0, 0.0, 0.0, 0.0, 0.0, 1.6213401898928392E9, 2021-05-18 14:16:29.892
85.0, 54.55205154418945, -51.00662612915039, 137.73117065429688, -44.22618865966797, -0.01600000075995922, -0.08000000566244125, 1.055999994277954, 0.0, 0.0, 0.0, 0.0, 0.0, 1.6213401899077115E9, 2021-05-18 14:16:29.907
85.0, 96.49128723144531, -19.11275863647461, 174.34104919433594, -11.83491325378418, -0.01600000075995922, -0.08000000566244125, 1.055999994277954, 0.0, 0.0, 0.0, 0.0, 0.0, 1.6213401899077115E9, 2021-05-18 14:16:29.907
86.0, 131.90440368652344, 27.15354347229004, 213.5239715576172, 25.567825317382812, -0.01600000075995922, -0.08000000566244125, 1.055999994277954, 0.0, 0.0, 0.0, 0.0, 0.0, 1.6213401899405649E9, 2021-05-18 14:16:29.940
86.0, 49.89213562011719, -61.108097076416016, 123.28767395019531, -61.100616455078125, -0.01600000075995922, -0.08000000566244125, 1.055999994277954, 0.0, 0.0, 0.0, 0.0, 0.0, 1.6213401899405649E9, 2021-05-18 14:16:29.940
87.0, 61.73265838623047, -58.64350128173828, 132.71221923828125, -54.989620208740234, -0.01600000075995922, -0.08000000566244125, 1.055999994277954, 0.0, 0.0, 0.0, 0.0, 0.0, 1.6213401899411807E9, 2021-05-18 14:16:29.941
87.0, 100.30972290039062, -20.997669219970703, 175.91554260253906, -23.07705307006836, -0.01600000075995922, -0.08000000566244125, 1.055999994277954, 0.0, 0.0, 0.0, 0.0, 0.0, 1.6213401899411807E9, 2021-05-18 14:16:29.941
88.0, 142.76881408691406, 31.59654426574707, 218.86830139160156, 23.615598678588867, -0.01600000075995922, -0.08000000566244125, 1.055999994277954, 0.0, 0.0, 0.0, 0.0, 0.0, 1.6213401899419355E9, 2021-05-18 14:16:29.941
88.0, 53.39268112182617, -63.41561508178711, 124.75745391845703, -68.07926940917969, -0.01600000075995922, -0.08000000566244125, 1.055999994277954, 0.0, 0.0, 0.0, 0.0, 0.0, 1.6213401899419355E9, 2021-05-18 14:16:29.941
89.0, 60.812644958496094, -48.46723175048828, 136.11178588867188, -52.60356140136719, -0.01600000075995922, -0.08000000566244125, 1.055999994277954, 0.0, 0.0, 0.0, 0.0, 0.0, 1.621340189942655E9, 2021-05-18 14:16:29.942
89.0, 97.24301147460938, -12.964363098144531, 180.0144805908203, -6.965563774108887, -0.01600000075995922, -0.08000000566244125, 1.055999994277954, 0.0, 0.0, 0.0, 0.0, 0.0, 1.621340189942655E9, 2021-05-18 14:16:29.942
90.0, 136.83358764648438, 42.9583625793457, 219.28341674804688, 36.50703430175781, -0.01600000075995922, -0.08000000566244125, 1.055999994277954, 0.0, 0.0, 0.0, 0.0, 0.0, 1.621340189952844E9, 2021-05-18 14:16:29.952
90.0, 47.52103805541992, -49.67896270751953, 127.27440643310547, -48.42983627319336, -0.01600000075995922, -0.08000000566244125, 1.055999994277954, 0.0, 0.0, 0.0, 0.0, 0.0, 1.621340189952844E9, 2021-05-18 14:16:29.952
91.0, 47.734214782714844, -53.51983642578125, 125.28103637695312, -44.57025909423828, -0.01600000075995922, -0.08000000566244125, 1.055999994277954, 0.0, 0.0, 0.0, 0.0, 0.0, 1.6213401899677196E9, 2021-05-18 14:16:29.967
91.0, 80.35736083984375, -17.646717071533203, 159.43380737304688, -13.577706336975098, -0.01600000075995922, -0.08000000566244125, 1.055999994277954, 0.0, 0.0, 0.0, 0.0, 0.0, 1.6213401899677196E9, 2021-05-18 14:16:29.967
92.0, 131.56033325195312, 46.8441162109375, 210.76766967773438, 36.09190368652344, -0.03200000151991844, -0.08000000566244125, 1.055999994277954, 0.0, 0.0, 0.0, 0.0, 0.0, 1.621340189984213E9, 2021-05-18 14:16:29.984
92.0, 40.7705192565918, -61.01833724975586, 115.93502807617188, -53.62081527709961, -0.03200000151991844, -0.08000000566244125, 1.055999994277954, 0.0, 0.0, 0.0, 0.0, 0.0, 1.621340189984213E9, 2021-05-18 14:16:29.984
93.0, 59.87766647338867, -51.61623001098633, 127.80547332763672, -50.81214904785156, -0.03200000151991844, -0.08000000566244125, 1.055999994277954, 0.0, 0.0, 0.0, 0.0, 0.0, 1.6213401899849164E9, 2021-05-18 14:16:29.984
93.0, 99.99183654785156, -16.46864891052246, 173.0133819580078, -13.394452095031738, -0.03200000151991844, -0.08000000566244125, 1.055999994277954, 0.0, 0.0, 0.0, 0.0, 0.0, 1.6213401899849164E9, 2021-05-18 14:16:29.984
94.0, 143.6701202392578, 26.682315826416016, 219.45172119140625, 21.84662628173828, -0.03200000151991844, -0.08000000566244125, 1.055999994277954, 0.0, 0.0, 0.0, 0.0, 0.0, 1.6213401899978576E9, 2021-05-18 14:16:29.997
94.0, 61.190372467041016, -67.87357330322266, 123.51954650878906, -67.83617401123047, -0.03200000151991844, -0.08000000566244125, 1.055999994277954, 0.0, 0.0, 0.0, 0.0, 0.0, 1.6213401899978576E9, 2021-05-18 14:16:29.997
95.0, 70.4316635131836, -58.187232971191406, 138.2061309814453, -51.30207824707031, -0.03200000151991844, -0.08000000566244125, 1.055999994277954, 0.0, 0.0, 0.0, 0.0, 0.0, 1.6213401900305376E9, 2021-05-18 14:16:30.030
95.0, 95.6610336303711, -16.550928115844727, 171.8240966796875, -17.594358444213867, -0.03200000151991844, -0.08000000566244125, 1.055999994277954, 0.0, 0.0, 0.0, 0.0, 0.0, 1.6213401900305376E9, 2021-05-18 14:16:30.030
96.0, 139.15980529785156, 24.70764923095703, 221.85647583007812, 23.540800094604492, -0.03200000151991844, -0.08000000566244125, 1.055999994277954, 0.0, 0.0, 0.0, 0.0, 0.0, 1.6213401900312047E9, 2021-05-18 14:16:30.031
96.0, 47.62949752807617, -59.574737548828125, 122.37887573242188, -59.522377014160156, -0.03200000151991844, -0.08000000566244125, 1.055999994277954, 0.0, 0.0, 0.0, 0.0, 0.0, 1.6213401900312047E9, 2021-05-18 14:16:30.031
97.0, 57.39811325073242, -44.383262634277344, 142.29010009765625, -44.40196228027344, -0.03200000151991844, -0.08000000566244125, 1.055999994277954, 0.0, 0.0, 0.0, 0.0, 0.0, 1.621340190031895E9, 2021-05-18 14:16:30.031
97.0, 100.61265563964844, 3.0723278522491455, 187.7485809326172, -7.466710090637207, -0.03200000151991844, -0.08000000566244125, 1.055999994277954, 0.0, 0.0, 0.0, 0.0, 0.0, 1.621340190031895E9, 2021-05-18 14:16:30.031
98.0, 133.4040985107422, 30.859785079956055, 224.9792938232422, 23.26778793334961, -0.03200000151991844, -0.08000000566244125, 1.055999994277954, 0.0, 0.0, 0.0, 0.0, 0.0, 1.6213401900326412E9, 2021-05-18 14:16:30.032
98.0, 43.59040451049805, -52.95137405395508, 133.54248046875, -57.278438568115234, -0.03200000151991844, -0.08000000566244125, 1.055999994277954, 0.0, 0.0, 0.0, 0.0, 0.0, 1.6213401900326412E9, 2021-05-18 14:16:30.032
99.0, 53.452518463134766, -43.84471893310547, 144.0441131591797, -48.58317184448242, -0.03200000151991844, -0.08000000566244125, 1.055999994277954, 0.0, 0.0, 0.0, 0.0, 0.0, 1.6213401900590813E9, 2021-05-18 14:16:30.059
99.0, 96.5473861694336, -5.686517715454102, 184.10218811035156, -6.292381763458252, -0.03200000151991844, -0.08000000566244125, 1.055999994277954, 0.0, 0.0, 0.0, 0.0, 0.0, 1.6213401900590813E9, 2021-05-18 14:16:30.059
100.0, 140.2705535888672, 33.702110290527344, 227.0998077392578, 33.37673568725586, -0.03200000151991844, -0.08000000566244125, 1.055999994277954, 0.0, 0.0, 0.0, 0.0, 0.0, 1.6213401900597868E9, 2021-05-18 14:16:30.059
100.0, 52.39786911010742, -59.376522064208984, 130.93576049804688, -57.510311126708984, -0.03200000151991844, -0.08000000566244125, 1.055999994277954, 0.0, 0.0, 0.0, 0.0, 0.0, 1.6213401900597868E9, 2021-05-18 14:16:30.059
0.0, 56.74176025390625, -53.16080856323242, 134.041748046875, -54.74465560913086, -0.03200000151991844, -0.08000000566244125, 1.055999994277954, 0.0, 0.0, 0.0, 0.0, 0.0, 1.6213401900604997E9, 2021-05-18 14:16:30.060
1.0, 96.6352767944336, -18.09550666809082, 169.83633422851562, -16.556537628173828, -0.03200000151991844, -0.08000000566244125, 1.055999994277954, 0.0, 0.0, 0.0, 0.0, 0.0, 1.6213401900889995E9, 2021-05-18 14:16:30.088
1.0, 139.79745483398438, 25.35839080810547, 216.3270263671875, 27.03947639465332, -0.03200000151991844, -0.08000000566244125, 1.055999994277954, 0.0, 0.0, 0.0, 0.0, 0.0, 1.6213401900889995E9, 2021-05-18 14:16:30.088
2.0, 50.64946365356445, -55.34864807128906, 120.0807113647461, -66.53656005859375, -0.03200000151991844, -0.08000000566244125, 1.055999994277954, 0.0, 0.0, 0.0, 0.0, 0.0, 1.6213401900897324E9, 2021-05-18 14:16:30.089
2.0, 63.11081314086914, -48.58317184448242, 138.0696258544922, -50.44002914428711, -0.03200000151991844, -0.08000000566244125, 1.055999994277954, 0.0, 0.0, 0.0, 0.0, 0.0, 1.6213401900897324E9, 2021-05-18 14:16:30.089
3.0, 94.24922180175781, -9.72560977935791, 168.4712677001953, -21.283771514892578, -0.03200000151991844, -0.08000000566244125, 1.055999994277954, 0.0, 0.0, 0.0, 0.0, 0.0, 1.6213401900904791E9, 2021-05-18 14:16:30.090
3.0, 139.8011932373047, 30.829864501953125, 219.0870819091797, 21.66897964477539, -0.03200000151991844, -0.08000000566244125, 1.055999994277954, 0.0, 0.0, 0.0, 0.0, 0.0, 1.6213401900904791E9, 2021-05-18 14:16:30.090
4.0, 52.908363342285156, -56.15272903442383, 130.0176239013672, -67.35186004638672, -0.03200000151991844, -0.08000000566244125, 1.055999994277954, 0.0, 0.0, 0.0, 0.0, 0.0, 1.621340190118798E9, 2021-05-18 14:16:30.118
4.0, 62.089820861816406, -38.616336822509766, 140.54544067382812, -56.41638946533203, -0.03200000151991844, -0.08000000566244125, 1.055999994277954, 0.0, 0.0, 0.0, 0.0, 0.0, 1.621340190118798E9, 2021-05-18 14:16:30.118
5.0, 89.30506896972656, -12.178984642028809, 181.21311950683594, -22.59647560119629, -0.03200000151991844, -0.08000000566244125, 1.055999994277954, 0.0, 0.0, 0.0, 0.0, 0.0, 1.621340190119645E9, 2021-05-18 14:16:30.119
5.0, 140.91943359375, 33.444053649902344, 230.43019104003906, 25.734251022338867, -0.03200000151991844, -0.08000000566244125, 1.055999994277954, 0.0, 0.0, 0.0, 0.0, 0.0, 1.621340190119645E9, 2021-05-18 14:16:30.119
6.0, 50.181976318359375, -52.566162109375, 133.0768585205078, -61.693389892578125, -0.03200000151991844, -0.08000000566244125, 1.055999994277954, 0.0, 0.0, 0.0, 0.0, 0.0, 1.6213401901333385E9, 2021-05-18 14:16:30.133
6.0, 53.03178024291992, -41.49980163574219, 141.8020477294922, -56.46126937866211, -0.03200000151991844, -0.08000000566244125, 1.055999994277954, 0.0, 0.0, 0.0, 0.0, 0.0, 1.6213401901333385E9, 2021-05-18 14:16:30.133
7.0, 88.34765625, -10.204317092895508, 179.23471069335938, -19.54471778869629, -0.03200000151991844, -0.08000000566244125, 1.055999994277954, 0.0, 0.0, 0.0, 0.0, 0.0, 1.621340190134065E9, 2021-05-18 14:16:30.134
7.0, 145.7027587890625, 46.30183029174805, 231.16322326660156, 34.781070709228516, -0.03200000151991844, -0.08000000566244125, 1.055999994277954, 0.0, 0.0, 0.0, 0.0, 0.0, 1.621340190134065E9, 2021-05-18 14:16:30.134
8.0, 53.96675491333008, -51.13378143310547, 139.5132293701172, -53.8695182800293, -0.03200000151991844, -0.08000000566244125, 1.055999994277954, 0.0, 0.0, 0.0, 0.0, 0.0, 1.621340190165433E9, 2021-05-18 14:16:30.165
8.0, 67.92780303955078, -44.27106475830078, 141.19244384765625, -44.82644271850586, -0.03200000151991844, -0.08000000566244125, 1.055999994277954, 0.0, 0.0, 0.0, 0.0, 0.0, 1.621340190165433E9, 2021-05-18 14:16:30.165
9.0, 106.03738403320312, -6.737429618835449, 183.2364044189453, -3.586564064025879, -0.03200000151991844, -0.08000000566244125, 1.055999994277954, 0.0, 0.0, 0.0, 0.0, 0.0, 1.621340190166147E9, 2021-05-18 14:16:30.166
9.0, 153.51914978027344, 34.79789733886719, 223.35804748535156, 39.459686279296875, -0.03200000151991844, -0.08000000566244125, 1.055999994277954, 0.0, 0.0, 0.0, 0.0, 0.0, 1.621340190166147E9, 2021-05-18 14:16:30.166
10.0, 59.875797271728516, -62.3497428894043, 132.02220153808594, -53.92561721801758, -0.03200000151991844, -0.08000000566244125, 1.055999994277954, 0.0, 0.0, 0.0, 0.0, 0.0, 1.6213401901669016E9, 2021-05-18 14:16:30.166
10.0, 64.3786392211914, -58.1535758972168, 139.61795043945312, -43.02006912231445, -0.03200000151991844, -0.08000000566244125, 1.055999994277954, 0.0, 0.0, 0.0, 0.0, 0.0, 1.6213401901669016E9, 2021-05-18 14:16:30.166
11.0, 101.01095581054688, -17.77013397216797, 175.52845764160156, -7.674274921417236, -0.03200000151991844, -0.08000000566244125, 1.055999994277954, 0.0, 0.0, 0.0, 0.0, 0.0, 1.6213401901676464E9, 2021-05-18 14:16:30.167
11.0, 142.80433654785156, 28.765439987182617, 221.0954132080078, 29.99399757385254, -0.03200000151991844, -0.08000000566244125, 1.055999994277954, 0.0, 0.0, 0.0, 0.0, 0.0, 1.6213401901676464E9, 2021-05-18 14:16:30.167
12.0, 51.92851257324219, -66.40005493164062, 126.47593688964844, -62.026241302490234, -0.03200000151991844, -0.08000000566244125, 1.055999994277954, 0.0, 0.0, 0.0, 0.0, 0.0, 1.6213401901777253E9, 2021-05-18 14:16:30.177
12.0, 53.21503829956055, -50.972965240478516, 133.81361389160156, -55.97882080078125, -0.03200000151991844, -0.08000000566244125, 1.055999994277954, 0.0, 0.0, 0.0, 0.0, 0.0, 1.6213401901777253E9, 2021-05-18 14:16:30.177
13.0, 94.27913665771484, -8.798114776611328, 169.6680450439453, -12.854036331176758, -0.03200000151991844, -0.08000000566244125, 1.055999994277954, 0.0, 0.0, 0.0, 0.0, 0.0, 1.6213401901926715E9, 2021-05-18 14:16:30.192
13.0, 128.77597045898438, 39.43537521362305, 216.01661682128906, 31.17206573486328, -0.03200000151991844, -0.08000000566244125, 1.055999994277954, 0.0, 0.0, 0.0, 0.0, 0.0, 1.6213401901926715E9, 2021-05-18 14:16:30.192
14.0, 35.248558044433594, -55.24393081665039, 121.89830017089844, -59.5915641784668, -0.03200000151991844, -0.08000000566244125, 1.055999994277954, 0.0, 0.0, 0.0, 0.0, 0.0, 1.621340190208418E9, 2021-05-18 14:16:30.208
14.0, 50.40262985229492, -39.59244918823242, 135.4479522705078, -48.25592803955078, -0.03200000151991844, -0.08000000566244125, 1.055999994277954, 0.0, 0.0, 0.0, 0.0, 0.0, 1.621340190208418E9, 2021-05-18 14:16:30.208
15.0, 85.66614532470703, 2.728256940841675, 174.066162109375, -11.331896781921387, -0.03200000151991844, -0.08000000566244125, 1.055999994277954, 0.0, 0.0, 0.0, 0.0, 0.0, 1.6213401902090857E9, 2021-05-18 14:16:30.209
15.0, 128.5328826904297, 49.08805847167969, 221.31231689453125, 34.0966682434082, -0.03200000151991844, -0.08000000566244125, 1.055999994277954, 0.0, 0.0, 0.0, 0.0, 0.0, 1.6213401902090857E9, 2021-05-18 14:16:30.209
16.0, 35.12887954711914, -49.42464828491211, 129.49777221679688, -57.13071060180664, -0.03200000151991844, -0.08000000566244125, 1.055999994277954, 0.0, 0.0, 0.0, 0.0, 0.0, 1.6213401902227836E9, 2021-05-18 14:16:30.222
16.0, 48.33820724487305, -47.04607009887695, 141.0465850830078, -48.44292449951172, -0.03200000151991844, -0.08000000566244125, 1.055999994277954, 0.0, 0.0, 0.0, 0.0, 0.0, 1.6213401902227836E9, 2021-05-18 14:16:30.222
17.0, 88.06342315673828, -5.136752605438232, 177.61158752441406, -14.503332138061523, -0.03200000151991844, -0.08000000566244125, 1.055999994277954, 0.0, 0.0, 0.0, 0.0, 0.0, 1.6213401902385595E9, 2021-05-18 14:16:30.238
17.0, 144.9884490966797, 39.31943893432617, 228.26104736328125, 31.0748291015625, -0.03200000151991844, -0.08000000566244125, 1.055999994277954, 0.0, 0.0, 0.0, 0.0, 0.0, 1.6213401902385595E9, 2021-05-18 14:16:30.238
18.0, 54.153751373291016, -62.585357666015625, 129.91664123535156, -67.35933685302734, -0.03200000151991844, -0.08000000566244125, 1.055999994277954, 0.0, 0.0, 0.0, 0.0, 0.0, 1.6213401902392075E9, 2021-05-18 14:16:30.239
18.0, 65.201416015625, -50.34840393066406, 137.54229736328125, -52.3025016784668, -0.03200000151991844, -0.08000000566244125, 1.055999994277954, 0.0, 0.0, 0.0, 0.0, 0.0, 1.6213401902392075E9, 2021-05-18 14:16:30.239
19.0, 101.44852447509766, -11.247749328613281, 171.3921356201172, -14.929680824279785, -0.03200000151991844, -0.08000000566244125, 1.055999994277954, 0.0, 0.0, 0.0, 0.0, 0.0, 1.6213401902527723E9, 2021-05-18 14:16:30.252
19.0, 146.5143280029297, 29.333906173706055, 215.55287170410156, 27.346147537231445, -0.03200000151991844, -0.08000000566244125, 1.055999994277954, 0.0, 0.0, 0.0, 0.0, 0.0, 1.6213401902527723E9, 2021-05-18 14:16:30.252
20.0, 54.94287109375, -61.07443618774414, 116.1313705444336, -63.44740295410156, -0.03200000151991844, -0.08000000566244125, 1.040000081062317, 0.0, 0.0, 0.0, 0.0, 0.0, 1.6213401902683892E9, 2021-05-18 14:16:30.268
20.0, 58.19284439086914, -50.460601806640625, 121.88707733154297, -54.00041580200195, -0.03200000151991844, -0.08000000566244125, 1.040000081062317, 0.0, 0.0, 0.0, 0.0, 0.0, 1.6213401902683892E9, 2021-05-18 14:16:30.268
21.0, 88.7515640258789, -17.601839065551758, 160.76707458496094, -16.620115280151367, -0.03200000151991844, -0.08000000566244125, 1.040000081062317, 0.0, 0.0, 0.0, 0.0, 0.0, 1.621340190269086E9, 2021-05-18 14:16:30.269
21.0, 132.515869140625, 31.125316619873047, 212.63949584960938, 26.620607376098633, -0.03200000151991844, -0.08000000566244125, 1.040000081062317, 0.0, 0.0, 0.0, 0.0, 0.0, 1.621340190269086E9, 2021-05-18 14:16:30.269
22.0, 43.80918884277344, -55.95451354980469, 121.98431396484375, -60.582637786865234, -0.01600000075995922, -0.08000000566244125, 1.040000081062317, 0.0, 0.0, 0.0, 0.0, 0.0, 1.6213401902827988E9, 2021-05-18 14:16:30.282
22.0, 49.38911819458008, -49.59294509887695, 131.58090209960938, -46.516876220703125, -0.01600000075995922, -0.08000000566244125, 1.040000081062317, 0.0, 0.0, 0.0, 0.0, 0.0, 1.6213401902827988E9, 2021-05-18 14:16:30.282
23.0, 86.67218017578125, -15.784247398376465, 176.4110870361328, -0.77415931224823, -0.01600000075995922, -0.08000000566244125, 1.040000081062317, 0.0, 0.0, 0.0, 0.0, 0.0, 1.6213401902981367E9, 2021-05-18 14:16:30.298
23.0, 131.87261962890625, 33.02518844604492, 221.49183654785156, 42.545101165771484, -0.01600000075995922, -0.08000000566244125, 1.040000081062317, 0.0, 0.0, 0.0, 0.0, 0.0, 1.6213401902981367E9, 2021-05-18 14:16:30.298
24.0, 45.36124801635742, -61.530704498291016, 129.7259063720703, -41.441829681396484, -0.01600000075995922, -0.08000000566244125, 1.040000081062317, 0.0, 0.0, 0.0, 0.0, 0.0, 1.6213401903133833E9, 2021-05-18 14:16:30.313
24.0, 55.81052780151367, -49.970672607421875, 138.8325653076172, -36.729557037353516, -0.01600000075995922, -0.08000000566244125, 1.040000081062317, 0.0, 0.0, 0.0, 0.0, 0.0, 1.6213401903133833E9, 2021-05-18 14:16:30.313
25.0, 92.33438873291016, -8.326887130737305, 183.5168914794922, -0.9761139154434204, -0.01600000075995922, -0.08000000566244125, 1.040000081062317, 0.0, 0.0, 0.0, 0.0, 0.0, 1.6213401903141289E9, 2021-05-18 14:16:30.314
25.0, 137.96490478515625, 27.45647621154785, 229.9402618408203, 34.50057601928711, -0.01600000075995922, -0.08000000566244125, 1.040000081062317, 0.0, 0.0, 0.0, 0.0, 0.0, 1.6213401903141289E9, 2021-05-18 14:16:30.314
26.0, 54.46042251586914, -53.66195297241211, 138.3762969970703, -58.0656852722168, -0.01600000075995922, -0.08000000566244125, 1.040000081062317, 0.0, 0.0, 0.0, 0.0, 0.0, 1.621340190328451E9, 2021-05-18 14:16:30.328
26.0, 61.23712158203125, -52.8541374206543, 144.00485229492188, -50.63450622558594, -0.01600000075995922, -0.08000000566244125, 1.040000081062317, 0.0, 0.0, 0.0, 0.0, 0.0, 1.621340190328451E9, 2021-05-18 14:16:30.328
27.0, 97.65626525878906, -20.492782592773438, 180.0836639404297, -15.984332084655762, -0.01600000075995922, -0.08000000566244125, 1.040000081062317, 0.0, 0.0, 0.0, 0.0, 0.0, 1.6213401903290858E9, 2021-05-18 14:16:30.329
27.0, 137.65823364257812, 20.227249145507812, 222.19866943359375, 29.582609176635742, -0.01600000075995922, -0.08000000566244125, 1.040000081062317, 0.0, 0.0, 0.0, 0.0, 0.0, 1.6213401903290858E9, 2021-05-18 14:16:30.329
28.0, 57.018516540527344, -56.72493362426758, 130.17843627929688, -56.00874328613281, -0.01600000075995922, -0.08000000566244125, 1.040000081062317, 0.0, 0.0, 0.0, 0.0, 0.0, 1.621340190342724E9, 2021-05-18 14:16:30.342
28.0, 60.126373291015625, -57.39811325073242, 136.8055419921875, -54.1500129699707, -0.01600000075995922, -0.08000000566244125, 1.040000081062317, 0.0, 0.0, 0.0, 0.0, 0.0, 1.621340190342724E9, 2021-05-18 14:16:30.342
29.0, 87.43511962890625, -20.33570671081543, 168.9387664794922, -18.628440856933594, -0.01600000075995922, -0.08000000566244125, 1.040000081062317, 0.0, 0.0, 0.0, 0.0, 0.0, 1.621340190358445E9, 2021-05-18 14:16:30.358
29.0, 131.89505004882812, 27.815505981445312, 217.17599487304688, 28.04924964904785, -0.01600000075995922, -0.08000000566244125, 1.040000081062317, 0.0, 0.0, 0.0, 0.0, 0.0, 1.621340190358445E9, 2021-05-18 14:16:30.358
30.0, 42.47030258178711, -58.36301040649414, 124.68452453613281, -60.878089904785156, -0.01600000075995922, -0.08000000566244125, 1.055999994277954, 0.0, 0.0, 0.0, 0.0, 0.0, 1.6213401903591604E9, 2021-05-18 14:16:30.359
30.0, 47.87445831298828, -52.64470291137695, 131.8015594482422, -51.46476364135742, -0.01600000075995922, -0.08000000566244125, 1.055999994277954, 0.0, 0.0, 0.0, 0.0, 0.0, 1.6213401903591604E9, 2021-05-18 14:16:30.359
31.0, 86.43656921386719, -14.254629135131836, 174.9899139404297, -13.706733703613281, -0.01600000075995922, -0.08000000566244125, 1.055999994277954, 0.0, 0.0, 0.0, 0.0, 0.0, 1.621340190372816E9, 2021-05-18 14:16:30.372
31.0, 130.29437255859375, 35.55335998535156, 223.13365173339844, 36.28824996948242, -0.01600000075995922, -0.08000000566244125, 1.055999994277954, 0.0, 0.0, 0.0, 0.0, 0.0, 1.621340190372816E9, 2021-05-18 14:16:30.372
32.0, 45.237831115722656, -65.16214752197266, 130.42527770996094, -50.82524108886719, -0.01600000075995922, -0.08000000566244125, 1.055999994277954, 0.0, 0.0, 0.0, 0.0, 0.0, 1.6213401903891518E9, 2021-05-18 14:16:30.389
32.0, 55.32807922363281, -48.295196533203125, 143.43264770507812, -37.5074577331543, -0.01600000075995922, -0.08000000566244125, 1.055999994277954, 0.0, 0.0, 0.0, 0.0, 0.0, 1.6213401903891518E9, 2021-05-18 14:16:30.389
33.0, 91.2947006225586, -12.029388427734375, 186.43026733398438, 2.124263286590576, -0.01600000075995922, -0.08000000566244125, 1.055999994277954, 0.0, 0.0, 0.0, 0.0, 0.0, 1.621340190389887E9, 2021-05-18 14:16:30.389
33.0, 131.26675415039062, 33.70958709716797, 226.7613525390625, 37.24192428588867, -0.01600000075995922, -0.08000000566244125, 1.055999994277954, 0.0, 0.0, 0.0, 0.0, 0.0, 1.621340190389887E9, 2021-05-18 14:16:30.389
34.0, 51.66297912597656, -51.51899337768555, 136.61480712890625, -52.78120803833008, -0.01600000075995922, -0.08000000566244125, 1.055999994277954, 0.0, 0.0, 0.0, 0.0, 0.0, 1.6213401904027276E9, 2021-05-18 14:16:30.402
34.0, 60.94915008544922, -42.49461364746094, 147.7447509765625, -45.64921951293945, -0.01600000075995922, -0.08000000566244125, 1.055999994277954, 0.0, 0.0, 0.0, 0.0, 0.0, 1.6213401904027276E9, 2021-05-18 14:16:30.402
35.0, 98.37432861328125, -10.884979248046875, 187.43630981445312, -8.81494426727295, -0.01600000075995922, -0.08000000566244125, 1.055999994277954, 0.0, 0.0, 0.0, 0.0, 0.0, 1.6213401904191165E9, 2021-05-18 14:16:30.419
35.0, 141.1699981689453, 29.2142276763916, 231.90371704101562, 32.48102951049805, -0.01600000075995922, -0.08000000566244125, 1.055999994277954, 0.0, 0.0, 0.0, 0.0, 0.0, 1.6213401904191165E9, 2021-05-18 14:16:30.419
36.0, 53.970497131347656, -60.943538665771484, 133.6565399169922, -58.540653228759766, -0.01600000075995922, -0.08000000566244125, 1.055999994277954, 0.0, 0.0, 0.0, 0.0, 0.0, 1.6213401904198112E9, 2021-05-18 14:16:30.419
36.0, 63.47358322143555, -51.115081787109375, 145.6242218017578, -50.46995162963867, -0.01600000075995922, -0.08000000566244125, 1.055999994277954, 0.0, 0.0, 0.0, 0.0, 0.0, 1.6213401904198112E9, 2021-05-18 14:16:30.419
37.0, 100.08346557617188, -17.328826904296875, 177.98184204101562, -14.062024116516113, -0.01600000075995922, -0.08000000566244125, 1.055999994277954, 0.0, 0.0, 0.0, 0.0, 0.0, 1.6213401904327555E9, 2021-05-18 14:16:30.432
37.0, 144.76031494140625, 21.483856201171875, 226.43972778320312, 27.36484718322754, -0.01600000075995922, -0.08000000566244125, 1.055999994277954, 0.0, 0.0, 0.0, 0.0, 0.0, 1.6213401904327555E9, 2021-05-18 14:16:30.432
38.0, 53.03178024291992, -72.18567657470703, 121.44950866699219, -67.45283508300781, -0.01600000075995922, -0.08000000566244125, 1.055999994277954, 0.0, 0.0, 0.0, 0.0, 0.0, 1.621340190448341E9, 2021-05-18 14:16:30.448
38.0, 66.82453155517578, -52.34177017211914, 135.2347869873047, -53.98919677734375, -0.01600000075995922, -0.08000000566244125, 1.055999994277954, 0.0, 0.0, 0.0, 0.0, 0.0, 1.621340190448341E9, 2021-05-18 14:16:30.448
39.0, 96.20144653320312, -25.2237548828125, 171.54547119140625, -20.797584533691406, -0.01600000075995922, -0.08000000566244125, 1.055999994277954, 0.0, 0.0, 0.0, 0.0, 0.0, 1.621340190449089E9, 2021-05-18 14:16:30.449
39.0, 141.7197723388672, 27.77436637878418, 219.3413848876953, 28.25494384765625, -0.01600000075995922, -0.08000000566244125, 1.055999994277954, 0.0, 0.0, 0.0, 0.0, 0.0, 1.621340190449089E9, 2021-05-18 14:16:30.449
40.0, 52.40347671508789, -69.33587646484375, 123.54385375976562, -61.46525573730469, -0.01600000075995922, -0.08000000566244125, 1.055999994277954, 0.0, 0.0, 0.0, 0.0, 0.0, 1.6213401904627447E9, 2021-05-18 14:16:30.462
40.0, 63.178131103515625, -47.03859329223633, 136.85415649414062, -50.473690032958984, -0.01600000075995922, -0.08000000566244125, 1.055999994277954, 0.0, 0.0, 0.0, 0.0, 0.0, 1.6213401904627447E9, 2021-05-18 14:16:30.462
41.0, 96.96438598632812, -14.026494979858398, 177.04685974121094, -11.571250915527344, -0.01600000075995922, -0.08000000566244125, 1.055999994277954, 0.0, 0.0, 0.0, 0.0, 0.0, 1.6213401904783876E9, 2021-05-18 14:16:30.478
41.0, 141.03163146972656, 46.638423919677734, 228.15260314941406, 39.972049713134766, -0.01600000075995922, -0.08000000566244125, 1.055999994277954, 0.0, 0.0, 0.0, 0.0, 0.0, 1.6213401904783876E9, 2021-05-18 14:16:30.478
42.0, 51.24784851074219, -53.02617263793945, 132.94223022460938, -51.32264709472656, -0.01600000075995922, -0.08000000566244125, 1.055999994277954, 0.0, 0.0, 0.0, 0.0, 0.0, 1.6213401904791906E9, 2021-05-18 14:16:30.479
42.0, 62.51616668701172, -47.016151428222656, 146.63400268554688, -40.974342346191406, -0.01600000075995922, -0.08000000566244125, 1.055999994277954, 0.0, 0.0, 0.0, 0.0, 0.0, 1.6213401904791906E9, 2021-05-18 14:16:30.479
43.0, 95.59184265136719, -4.934797763824463, 182.94094848632812, -5.830503940582275, -0.01600000075995922, -0.08000000566244125, 1.055999994277954, 0.0, 0.0, 0.0, 0.0, 0.0, 1.621340190492754E9, 2021-05-18 14:16:30.492
43.0, 144.96226501464844, 31.630203247070312, 233.927001953125, 33.87227249145508, -0.01600000075995922, -0.08000000566244125, 1.055999994277954, 0.0, 0.0, 0.0, 0.0, 0.0, 1.621340190492754E9, 2021-05-18 14:16:30.492
44.0, 57.362586975097656, -58.512603759765625, 140.68382263183594, -56.64452362060547, -0.01600000075995922, -0.08000000566244125, 1.055999994277954, 0.0, 0.0, 0.0, 0.0, 0.0, 1.6213401905084567E9, 2021-05-18 14:16:30.508
44.0, 63.10707092285156, -50.210025787353516, 156.0510711669922, -44.95359802246094, -0.01600000075995922, -0.08000000566244125, 1.055999994277954, 0.0, 0.0, 0.0, 0.0, 0.0, 1.6213401905084567E9, 2021-05-18 14:16:30.508
45.0, 100.75664520263672, -9.119746208190918, 193.5323486328125, 0.7704194188117981, -0.01600000075995922, -0.08000000566244125, 1.055999994277954, 0.0, 0.0, 0.0, 0.0, 0.0, 1.6213401905091953E9, 2021-05-18 14:16:30.509
45.0, 145.3250274658203, 35.67677688598633, 233.3361053466797, 42.99388885498047, -0.01600000075995922, -0.08000000566244125, 1.055999994277954, 0.0, 0.0, 0.0, 0.0, 0.0, 1.6213401905091953E9, 2021-05-18 14:16:30.509
46.0, 56.06483840942383, -68.0605697631836, 135.5003204345703, -49.3143196105957, -0.01600000075995922, -0.08000000566244125, 1.055999994277954, 0.0, 0.0, 0.0, 0.0, 0.0, 1.62134019052274E9, 2021-05-18 14:16:30.522
46.0, 61.68965148925781, -51.305816650390625, 137.0635986328125, -43.648372650146484, -0.01600000075995922, -0.08000000566244125, 1.055999994277954, 0.0, 0.0, 0.0, 0.0, 0.0, 1.62134019052274E9, 2021-05-18 14:16:30.522
47.0, 95.30013275146484, -18.13664436340332, 168.7667236328125, -5.650989055633545, -0.01600000075995922, -0.08000000566244125, 1.055999994277954, 0.0, 0.0, 0.0, 0.0, 0.0, 1.621340190538544E9, 2021-05-18 14:16:30.538
47.0, 132.0633544921875, 34.745540618896484, 214.09805297851562, 31.96492576599121, -0.01600000075995922, -0.08000000566244125, 1.055999994277954, 0.0, 0.0, 0.0, 0.0, 0.0, 1.621340190538544E9, 2021-05-18 14:16:30.538
48.0, 54.9540901184082, -56.848350524902344, 131.2891845703125, -50.380191802978516, -0.01600000075995922, -0.08000000566244125, 1.055999994277954, 0.0, 0.0, 0.0, 0.0, 0.0, 1.621340190539189E9, 2021-05-18 14:16:30.539
48.0, 55.68336868286133, -54.72408676147461, 131.51731872558594, -46.68891143798828, -0.01600000075995922, -0.08000000566244125, 1.055999994277954, 0.0, 0.0, 0.0, 0.0, 0.0, 1.621340190539189E9, 2021-05-18 14:16:30.539
49.0, 88.53091430664062, -18.114206314086914, 164.54063415527344, -10.172528266906738, -0.01600000075995922, -0.08000000566244125, 1.055999994277954, 0.0, 0.0, 0.0, 0.0, 0.0, 1.621340190552722E9, 2021-05-18 14:16:30.552
49.0, 137.1458740234375, 25.713682174682617, 215.62767028808594, 29.27967643737793, -0.01600000075995922, -0.08000000566244125, 1.055999994277954, 0.0, 0.0, 0.0, 0.0, 0.0, 1.621340190552722E9, 2021-05-18 14:16:30.552
50.0, 51.5395622253418, -58.041378021240234, 125.45868682861328, -60.98280715942383, -0.01600000075995922, -0.08000000566244125, 1.055999994277954, 0.0, 0.0, 0.0, 0.0, 0.0, 1.62134019058421E9, 2021-05-18 14:16:30.584
50.0, 67.09380340576172, -49.64904022216797, 133.80987548828125, -51.9846076965332, -0.01600000075995922, -0.08000000566244125, 1.055999994277954, 0.0, 0.0, 0.0, 0.0, 0.0, 1.62134019058421E9, 2021-05-18 14:16:30.584
51.0, 99.05499267578125, -12.205163955688477, 172.8357391357422, -17.85428237915039, -0.01600000075995922, -0.08000000566244125, 1.055999994277954, 0.0, 0.0, 0.0, 0.0, 0.0, 1.6213401905848267E9, 2021-05-18 14:16:30.584
51.0, 145.7925262451172, 33.49267578125, 219.61814880371094, 20.700345993041992, -0.01600000075995922, -0.08000000566244125, 1.055999994277954, 0.0, 0.0, 0.0, 0.0, 0.0, 1.6213401905848267E9, 2021-05-18 14:16:30.584
52.0, 52.73258972167969, -54.035945892333984, 134.2586669921875, -62.822837829589844, -0.01600000075995922, -0.08000000566244125, 1.055999994277954, 0.0, 0.0, 0.0, 0.0, 0.0, 1.621340190585648E9, 2021-05-18 14:16:30.585
52.0, 65.77362060546875, -41.529720306396484, 146.00942993164062, -50.32035446166992, -0.01600000075995922, -0.08000000566244125, 1.055999994277954, 0.0, 0.0, 0.0, 0.0, 0.0, 1.621340190585648E9, 2021-05-18 14:16:30.585
53.0, 96.48567962646484, -7.642485618591309, 182.51834106445312, -14.727725982666016, -0.01600000075995922, -0.08000000566244125, 1.055999994277954, 0.0, 0.0, 0.0, 0.0, 0.0, 1.621340190598384E9, 2021-05-18 14:16:30.598
53.0, 137.67694091796875, 35.64685821533203, 220.4035186767578, 20.46847152709961, -0.01600000075995922, -0.08000000566244125, 1.055999994277954, 0.0, 0.0, 0.0, 0.0, 0.0, 1.621340190598384E9, 2021-05-18 14:16:30.598
54.0, 51.1580924987793, -46.802978515625, 134.84957885742188, -55.582393646240234, -0.01600000075995922, -0.08000000566244125, 1.055999994277954, 0.0, 0.0, 0.0, 0.0, 0.0, 1.62134019059911E9, 2021-05-18 14:16:30.599
54.0, 59.692543029785156, -50.41946029663086, 139.1728973388672, -51.82753372192383, -0.01600000075995922, -0.08000000566244125, 1.055999994277954, 0.0, 0.0, 0.0, 0.0, 0.0, 1.62134019059911E9, 2021-05-18 14:16:30.599
55.0, 94.59703063964844, -11.617999076843262, 176.5756378173828, -10.636275291442871, -0.01600000075995922, -0.08000000566244125, 1.055999994277954, 0.0, 0.0, 0.0, 0.0, 0.0, 1.6213401906128316E9, 2021-05-18 14:16:30.612
55.0, 149.40151977539062, 42.31135940551758, 225.71792602539062, 44.665626525878906, -0.01600000075995922, -0.08000000566244125, 1.055999994277954, 0.0, 0.0, 0.0, 0.0, 0.0, 1.6213401906128316E9, 2021-05-18 14:16:30.612
56.0, 46.75249099731445, -58.336830139160156, 125.20063018798828, -51.195491790771484, -0.01600000075995922, -0.08000000566244125, 1.055999994277954, 0.0, 0.0, 0.0, 0.0, 0.0, 1.621340190644164E9, 2021-05-18 14:16:30.644
56.0, 50.241817474365234, -49.125457763671875, 129.99517822265625, -41.655006408691406, -0.01600000075995922, -0.08000000566244125, 1.055999994277954, 0.0, 0.0, 0.0, 0.0, 0.0, 1.621340190644164E9, 2021-05-18 14:16:30.644
57.0, 87.1434097290039, -12.339799880981445, 174.1933135986328, -6.963693618774414, -0.01600000075995922, -0.08000000566244125, 1.055999994277954, 0.0, 0.0, 0.0, 0.0, 0.0, 1.621340190659552E9, 2021-05-18 14:16:30.659
57.0, 134.96551513671875, 32.681114196777344, 221.2524871826172, 38.59202575683594, -0.01600000075995922, -0.08000000566244125, 1.055999994277954, 0.0, 0.0, 0.0, 0.0, 0.0, 1.621340190659552E9, 2021-05-18 14:16:30.659
58.0, 47.83332061767578, -64.09627532958984, 126.34130096435547, -53.70496368408203, -0.01600000075995922, -0.08000000566244125, 1.055999994277954, 0.0, 0.0, 0.0, 0.0, 0.0, 1.6213401906603384E9, 2021-05-18 14:16:30.660
58.0, 59.70750427246094, -45.789466857910156, 128.51417541503906, -51.04215621948242, -0.01600000075995922, -0.08000000566244125, 1.055999994277954, 0.0, 0.0, 0.0, 0.0, 0.0, 1.6213401906603384E9, 2021-05-18 14:16:30.660
59.0, 92.080078125, -11.546940803527832, 169.7316131591797, -11.144902229309082, -0.01600000075995922, -0.08000000566244125, 1.055999994277954, 0.0, 0.0, 0.0, 0.0, 0.0, 1.6213401906611364E9, 2021-05-18 14:16:30.661
59.0, 141.13259887695312, 29.40122413635254, 217.7033233642578, 29.260976791381836, -0.01600000075995922, -0.08000000566244125, 1.055999994277954, 0.0, 0.0, 0.0, 0.0, 0.0, 1.6213401906611364E9, 2021-05-18 14:16:30.661
60.0, 48.21105194091797, -56.238746643066406, 118.95499420166016, -65.81475830078125, -0.01600000075995922, -0.08000000566244125, 1.055999994277954, 0.0, 0.0, 0.0, 0.0, 0.0, 1.6213401906736042E9, 2021-05-18 14:16:30.673
60.0, 58.87724685668945, -49.308712005615234, 134.26614379882812, -52.635353088378906, -0.01600000075995922, -0.08000000566244125, 1.055999994277954, 0.0, 0.0, 0.0, 0.0, 0.0, 1.6213401906736042E9, 2021-05-18 14:16:30.673
61.0, 89.42100524902344, -9.056167602539062, 170.31130981445312, -18.42648696899414, -0.01600000075995922, -0.08000000566244125, 1.055999994277954, 0.0, 0.0, 0.0, 0.0, 0.0, 1.6213401906742039E9, 2021-05-18 14:16:30.674
61.0, 138.61190795898438, 46.61972427368164, 222.8643798828125, 25.880107879638672, -0.01600000075995922, -0.08000000566244125, 1.055999994277954, 0.0, 0.0, 0.0, 0.0, 0.0, 1.6213401906742039E9, 2021-05-18 14:16:30.674
62.0, 51.21044921875, -48.86366271972656, 133.40597534179688, -56.203216552734375, -0.01600000075995922, -0.08000000566244125, 1.055999994277954, 0.0, 0.0, 0.0, 0.0, 0.0, 1.6213401907047415E9, 2021-05-18 14:16:30.704
62.0, 61.81306457519531, -39.85050582885742, 138.01353454589844, -51.02345657348633, -0.01600000075995922, -0.08000000566244125, 1.055999994277954, 0.0, 0.0, 0.0, 0.0, 0.0, 1.6213401907047415E9, 2021-05-18 14:16:30.704
63.0, 91.07404327392578, -9.074867248535156, 168.7629852294922, -13.433720588684082, -0.01600000075995922, -0.08000000566244125, 1.055999994277954, 0.0, 0.0, 0.0, 0.0, 0.0, 1.6213401907056131E9, 2021-05-18 14:16:30.705
63.0, 136.21836853027344, 32.53525924682617, 219.92481994628906, 29.23853874206543, -0.01600000075995922, -0.08000000566244125, 1.055999994277954, 0.0, 0.0, 0.0, 0.0, 0.0, 1.6213401907056131E9, 2021-05-18 14:16:30.705
64.0, 53.40951156616211, -50.77475357055664, 124.10858154296875, -55.6945915222168, -0.01600000075995922, -0.08000000566244125, 1.055999994277954, 0.0, 0.0, 0.0, 0.0, 0.0, 1.6213401907062817E9, 2021-05-18 14:16:30.706
64.0, 53.532928466796875, -49.08431625366211, 124.90518188476562, -55.60109329223633, -0.01600000075995922, -0.08000000566244125, 1.055999994277954, 0.0, 0.0, 0.0, 0.0, 0.0, 1.6213401907062817E9, 2021-05-18 14:16:30.706
65.0, 96.46697998046875, -10.35765266418457, 166.33204650878906, -18.609743118286133, -0.01600000075995922, -0.08000000566244125, 1.055999994277954, 0.0, 0.0, 0.0, 0.0, 0.0, 1.621340190707102E9, 2021-05-18 14:16:30.707
65.0, 140.33226013183594, 33.96016311645508, 209.71115112304688, 25.84644889831543, -0.01600000075995922, -0.08000000566244125, 1.055999994277954, 0.0, 0.0, 0.0, 0.0, 0.0, 1.621340190707102E9, 2021-05-18 14:16:30.707
66.0, 54.6324577331543, -50.6887321472168, 120.87730407714844, -59.22505569458008, -0.01600000075995922, -0.08000000566244125, 1.055999994277954, 0.0, 0.0, 0.0, 0.0, 0.0, 1.621340190717666E9, 2021-05-18 14:16:30.717
66.0, 53.095359802246094, -41.94858932495117, 129.3444366455078, -49.392860412597656, -0.01600000075995922, -0.08000000566244125, 1.055999994277954, 0.0, 0.0, 0.0, 0.0, 0.0, 1.621340190717666E9, 2021-05-18 14:16:30.717
67.0, 91.44803619384766, -11.116852760314941, 167.7532196044922, -15.87961483001709, -0.01600000075995922, -0.08000000566244125, 1.055999994277954, 0.0, 0.0, 0.0, 0.0, 0.0, 1.621340190732685E9, 2021-05-18 14:16:30.732
67.0, 146.67514038085938, 36.91842269897461, 220.81491088867188, 36.067596435546875, -0.01600000075995922, -0.08000000566244125, 1.055999994277954, 0.0, 0.0, 0.0, 0.0, 0.0, 1.621340190732685E9, 2021-05-18 14:16:30.732
68.0, 44.21683883666992, -57.16250228881836, 116.19121551513672, -62.662025451660156, -0.01600000075995922, -0.08000000566244125, 1.055999994277954, 0.0, 0.0, 0.0, 0.0, 0.0, 1.6213401907490757E9, 2021-05-18 14:16:30.749
68.0, 61.20346450805664, -36.503292083740234, 140.53048706054688, -43.77552795410156, -0.01600000075995922, -0.08000000566244125, 1.055999994277954, 0.0, 0.0, 0.0, 0.0, 0.0, 1.6213401907490757E9, 2021-05-18 14:16:30.749
69.0, 95.81623840332031, -9.695691108703613, 180.0500030517578, -6.1596150398254395, -0.01600000075995922, -0.08000000566244125, 1.055999994277954, 0.0, 0.0, 0.0, 0.0, 0.0, 1.6213401907497668E9, 2021-05-18 14:16:30.749
69.0, 131.248046875, 40.78548049926758, 219.0048065185547, 34.31358337402344, -0.01600000075995922, -0.08000000566244125, 1.055999994277954, 0.0, 0.0, 0.0, 0.0, 0.0, 1.6213401907497668E9, 2021-05-18 14:16:30.749
70.0, 48.15495300292969, -44.66001510620117, 132.37002563476562, -50.70930480957031, -0.01600000075995922, -0.08000000566244125, 1.055999994277954, 0.0, 0.0, 0.0, 0.0, 0.0, 1.6213401907626605E9, 2021-05-18 14:16:30.762
70.0, 47.081600189208984, -36.798744201660156, 146.3385467529297, -46.277523040771484, -0.01600000075995922, -0.08000000566244125, 1.055999994277954, 0.0, 0.0, 0.0, 0.0, 0.0, 1.6213401907626605E9, 2021-05-18 14:16:30.762
71.0, 86.24583435058594, -12.590373039245605, 176.58311462402344, -16.287263870239258, -0.01600000075995922, -0.08000000566244125, 1.055999994277954, 0.0, 0.0, 0.0, 0.0, 0.0, 1.6213401907784364E9, 2021-05-18 14:16:30.778
71.0, 143.28305053710938, 41.88874816894531, 228.8295135498047, 28.894466400146484, -0.01600000075995922, -0.08000000566244125, 1.055999994277954, 0.0, 0.0, 0.0, 0.0, 0.0, 1.6213401907784364E9, 2021-05-18 14:16:30.778
72.0, 44.665626525878906, -48.497154235839844, 127.19400024414062, -61.106224060058594, -0.01600000075995922, -0.08000000566244125, 1.055999994277954, 0.0, 0.0, 0.0, 0.0, 0.0, 1.6213401907791417E9, 2021-05-18 14:16:30.779
72.0, 61.685909271240234, -46.30183029174805, 131.23309326171875, -59.74864196777344, -0.01600000075995922, -0.08000000566244125, 1.055999994277954, 0.0, 0.0, 0.0, 0.0, 0.0, 1.6213401907791417E9, 2021-05-18 14:16:30.779
73.0, 99.46263885498047, -17.534521102905273, 167.12490844726562, -22.570295333862305, -0.01600000075995922, -0.08000000566244125, 1.055999994277954, 0.0, 0.0, 0.0, 0.0, 0.0, 1.621340190792766E9, 2021-05-18 14:16:30.792
73.0, 147.01547241210938, 22.534767150878906, 216.69354248046875, 21.04815673828125, -0.01600000075995922, -0.08000000566244125, 1.055999994277954, 0.0, 0.0, 0.0, 0.0, 0.0, 1.621340190792766E9, 2021-05-18 14:16:30.792
74.0, 66.97039031982422, -46.960052490234375, 127.97563934326172, -57.6131591796875, -0.01600000075995922, -0.08000000566244125, 1.055999994277954, 0.0, 0.0, 0.0, 0.0, 0.0, 1.6213401908093543E9, 2021-05-18 14:16:30.809
74.0, 52.44087600708008, -46.672080993652344, 116.04161834716797, -61.353057861328125, -0.01600000075995922, -0.08000000566244125, 1.055999994277954, 0.0, 0.0, 0.0, 0.0, 0.0, 1.6213401908093543E9, 2021-05-18 14:16:30.809
75.0, 91.8033218383789, 0.3833397328853607, 167.19970703125, -19.04730987548828, -0.01600000075995922, -0.08000000566244125, 1.055999994277954, 0.0, 0.0, 0.0, 0.0, 0.0, 1.6213401908098474E9, 2021-05-18 14:16:30.809
75.0, 132.58692932128906, 34.7081413269043, 208.4358367919922, 21.242631912231445, -0.01600000075995922, -0.08000000566244125, 1.055999994277954, 0.0, 0.0, 0.0, 0.0, 0.0, 1.6213401908098474E9, 2021-05-18 14:16:30.809
76.0, 43.86154556274414, -51.03654479980469, 116.76715850830078, -66.01297760009766, -0.01600000075995922, -0.08000000566244125, 1.055999994277954, 0.0, 0.0, 0.0, 0.0, 0.0, 1.6213401908227968E9, 2021-05-18 14:16:30.822
76.0, 50.8401985168457, -33.43657684326172, 127.33611297607422, -56.88387680053711, -0.01600000075995922, -0.08000000566244125, 1.055999994277954, 0.0, 0.0, 0.0, 0.0, 0.0, 1.6213401908227968E9, 2021-05-18 14:16:30.822
77.0, 88.35887908935547, -2.2570295333862305, 169.58201599121094, -13.059730529785156, -0.01600000075995922, -0.08000000566244125, 1.055999994277954, 0.0, 0.0, 0.0, 0.0, 0.0, 1.6213401908384128E9, 2021-05-18 14:16:30.838
77.0, 137.433837890625, 37.95811462402344, 216.52525329589844, 28.70747184753418, -0.01600000075995922, -0.08000000566244125, 1.055999994277954, 0.0, 0.0, 0.0, 0.0, 0.0, 1.6213401908384128E9, 2021-05-18 14:16:30.838
78.0, 53.69748306274414, -44.630096435546875, 134.10533142089844, -51.54330062866211, -0.01600000075995922, -0.08000000566244125, 1.055999994277954, 0.0, 0.0, 0.0, 0.0, 0.0, 1.621340190839156E9, 2021-05-18 14:16:30.839
78.0, 53.820899963378906, -43.65398406982422, 135.59754943847656, -50.97483825683594, -0.01600000075995922, -0.08000000566244125, 1.055999994277954, 0.0, 0.0, 0.0, 0.0, 0.0, 1.621340190839156E9, 2021-05-18 14:16:30.839
79.0, 93.82660675048828, -1.2958753108978271, 175.21804809570312, -16.37702178955078, -0.01600000075995922, -0.08000000566244125, 1.055999994277954, 0.0, 0.0, 0.0, 0.0, 0.0, 1.6213401908526878E9, 2021-05-18 14:16:30.852
79.0, 138.82508850097656, 39.861724853515625, 224.03497314453125, 24.189672470092773, -0.01600000075995922, -0.08000000566244125, 1.055999994277954, 0.0, 0.0, 0.0, 0.0, 0.0, 1.6213401908526878E9, 2021-05-18 14:16:30.852
80.0, 49.62099075317383, -55.43092727661133, 126.13186645507812, -72.71113586425781, -0.01600000075995922, -0.08000000566244125, 1.055999994277954, 0.0, 0.0, 0.0, 0.0, 0.0, 1.6213401908690686E9, 2021-05-18 14:16:30.869
80.0, 59.064239501953125, -44.9068489074707, 136.49139404296875, -61.65599060058594, -0.01600000075995922, -0.08000000566244125, 1.055999994277954, 0.0, 0.0, 0.0, 0.0, 0.0, 1.6213401908690686E9, 2021-05-18 14:16:30.869
81.0, 97.46553039550781, -4.493489742279053, 177.21890258789062, -20.580669403076172, -0.01600000075995922, -0.08000000566244125, 1.055999994277954, 0.0, 0.0, 0.0, 0.0, 0.0, 1.6213401908697882E9, 2021-05-18 14:16:30.869
81.0, 142.41912841796875, 39.887901306152344, 223.0027618408203, 22.45435905456543, -0.01600000075995922, -0.08000000566244125, 1.055999994277954, 0.0, 0.0, 0.0, 0.0, 0.0, 1.6213401908697882E9, 2021-05-18 14:16:30.869
82.0, 50.383934020996094, -53.744232177734375, 122.31716918945312, -69.40505981445312, -0.01600000075995922, -0.08000000566244125, 1.055999994277954, 0.0, 0.0, 0.0, 0.0, 0.0, 1.6213401908827016E9, 2021-05-18 14:16:30.882
82.0, 58.21528244018555, -38.68739318847656, 132.21669006347656, -61.19224166870117, -0.01600000075995922, -0.08000000566244125, 1.055999994277954, 0.0, 0.0, 0.0, 0.0, 0.0, 1.6213401908827016E9, 2021-05-18 14:16:30.882
83.0, 96.26502227783203, -8.181031227111816, 168.8041229248047, -22.888187408447266, -0.01600000075995922, -0.08000000566244125, 1.055999994277954, 0.0, 0.0, 0.0, 0.0, 0.0, 1.6213401908984127E9, 2021-05-18 14:16:30.898
83.0, 137.61709594726562, 40.06741714477539, 212.6843719482422, 19.06974983215332, -0.01600000075995922, -0.08000000566244125, 1.055999994277954, 0.0, 0.0, 0.0, 0.0, 0.0, 1.6213401908984127E9, 2021-05-18 14:16:30.898
84.0, 49.07496643066406, -47.16948699951172, 122.51164245605469, -61.4166374206543, -0.01600000075995922, -0.08000000566244125, 1.055999994277954, 0.0, 0.0, 0.0, 0.0, 0.0, 1.6213401908991337E9, 2021-05-18 14:16:30.899
84.0, 52.332420349121094, -50.269866943359375, 126.89854431152344, -58.98570251464844, -0.01600000075995922, -0.08000000566244125, 1.055999994277954, 0.0, 0.0, 0.0, 0.0, 0.0, 1.6213401908991337E9, 2021-05-18 14:16:30.899
85.0, 86.8404769897461, -4.43739128112793, 168.95372009277344, -22.36834144592285, -0.01600000075995922, -0.08000000566244125, 1.055999994277954, 0.0, 0.0, 0.0, 0.0, 0.0, 1.6213401909127674E9, 2021-05-18 14:16:30.912
85.0, 132.84498596191406, 31.663862228393555, 217.19094848632812, 13.130788803100586, -0.01600000075995922, -0.08000000566244125, 1.055999994277954, 0.0, 0.0, 0.0, 0.0, 0.0, 1.6213401909127674E9, 2021-05-18 14:16:30.912
86.0, 48.69349670410156, -55.35987091064453, 121.23633575439453, -72.49422454833984, -0.01600000075995922, -0.08000000566244125, 1.055999994277954, 0.0, 0.0, 0.0, 0.0, 0.0, 1.6213401909283793E9, 2021-05-18 14:16:30.928
86.0, 54.68107604980469, -40.73685836791992, 138.81761169433594, -55.50759506225586, -0.01600000075995922, -0.08000000566244125, 1.055999994277954, 0.0, 0.0, 0.0, 0.0, 0.0, 1.6213401909283793E9, 2021-05-18 14:16:30.928
87.0, 88.3065185546875, -5.892212390899658, 170.5506591796875, -22.117769241333008, -0.01600000075995922, -0.08000000566244125, 1.055999994277954, 0.0, 0.0, 0.0, 0.0, 0.0, 1.6213401909292176E9, 2021-05-18 14:16:30.929
87.0, 143.36158752441406, 45.235958099365234, 222.03038024902344, 28.980484008789062, -0.01600000075995922, -0.08000000566244125, 1.055999994277954, 0.0, 0.0, 0.0, 0.0, 0.0, 1.6213401909292176E9, 2021-05-18 14:16:30.929
88.0, 51.84623336791992, -48.882362365722656, 128.20376586914062, -60.08897399902344, -0.01600000075995922, -0.08000000566244125, 1.055999994277954, 0.0, 0.0, 0.0, 0.0, 0.0, 1.621340190942839E9, 2021-05-18 14:16:30.942
88.0, 61.596153259277344, -41.55215835571289, 137.19448852539062, -47.53413009643555, -0.01600000075995922, -0.08000000566244125, 1.055999994277954, 0.0, 0.0, 0.0, 0.0, 0.0, 1.621340190942839E9, 2021-05-18 14:16:30.942
89.0, 86.14485931396484, -9.890165328979492, 169.49974060058594, -14.716506004333496, -0.01600000075995922, -0.08000000566244125, 1.055999994277954, 0.0, 0.0, 0.0, 0.0, 0.0, 1.6213401909585173E9, 2021-05-18 14:16:30.958
89.0, 138.5857391357422, 35.609458923339844, 216.89923095703125, 35.56644821166992, -0.01600000075995922, -0.08000000566244125, 1.055999994277954, 0.0, 0.0, 0.0, 0.0, 0.0, 1.6213401909585173E9, 2021-05-18 14:16:30.958
90.0, 53.45064926147461, -59.3802604675293, 122.80709838867188, -57.6430778503418, -0.01600000075995922, -0.08000000566244125, 1.055999994277954, 0.0, 0.0, 0.0, 0.0, 0.0, 1.6213401909592354E9, 2021-05-18 14:16:30.959
90.0, 61.454036712646484, -47.21810531616211, 134.83834838867188, -57.49348068237305, -0.01600000075995922, -0.08000000566244125, 1.055999994277954, 0.0, 0.0, 0.0, 0.0, 0.0, 1.6213401909592354E9, 2021-05-18 14:16:30.959
91.0, 93.4077377319336, -11.109373092651367, 168.41143798828125, -14.256498336791992, -0.01600000075995922, -0.08000000566244125, 1.055999994277954, 0.0, 0.0, 0.0, 0.0, 0.0, 1.6213401909727645E9, 2021-05-18 14:16:30.972
91.0, 142.99880981445312, 42.11314392089844, 220.9158935546875, 35.861900329589844, -0.01600000075995922, -0.08000000566244125, 1.055999994277954, 0.0, 0.0, 0.0, 0.0, 0.0, 1.6213401909727645E9, 2021-05-18 14:16:30.972
92.0, 40.1366081237793, -64.41790771484375, 114.16792297363281, -68.9151382446289, -0.01600000075995922, -0.08000000566244125, 1.055999994277954, 0.0, 0.0, 0.0, 0.0, 0.0, 1.6213401909886315E9, 2021-05-18 14:16:30.988
92.0, 57.50844192504883, -51.7920036315918, 131.30789184570312, -52.87470626831055, -0.01600000075995922, -0.08000000566244125, 1.055999994277954, 0.0, 0.0, 0.0, 0.0, 0.0, 1.6213401909886315E9, 2021-05-18 14:16:30.988
93.0, 84.22254943847656, -9.29552173614502, 165.74488830566406, -17.562570571899414, -0.01600000075995922, -0.08000000566244125, 1.055999994277954, 0.0, 0.0, 0.0, 0.0, 0.0, 1.6213401909892504E9, 2021-05-18 14:16:30.989
93.0, 130.2307891845703, 32.70729446411133, 213.1929931640625, 23.20233917236328, -0.01600000075995922, -0.08000000566244125, 1.055999994277954, 0.0, 0.0, 0.0, 0.0, 0.0, 1.6213401909892504E9, 2021-05-18 14:16:30.989
94.0, 45.06953430175781, -54.85872268676758, 120.11062622070312, -58.682769775390625, -0.01600000075995922, -0.08000000566244125, 1.055999994277954, 0.0, 0.0, 0.0, 0.0, 0.0, 1.621340191002735E9, 2021-05-18 14:16:31.002
94.0, 52.26884078979492, -48.93846130371094, 137.61709594726562, -47.36209487915039, -0.01600000075995922, -0.08000000566244125, 1.055999994277954, 0.0, 0.0, 0.0, 0.0, 0.0, 1.621340191002735E9, 2021-05-18 14:16:31.002
95.0, 85.4380111694336, -9.243163108825684, 175.94732666015625, -8.36241626739502, -0.01600000075995922, -0.08000000566244125, 1.055999994277954, 0.0, 0.0, 0.0, 0.0, 0.0, 1.6213401910184195E9, 2021-05-18 14:16:31.018
95.0, 140.21632385253906, 48.261539459228516, 229.9926300048828, 37.197044372558594, -0.01600000075995922, -0.08000000566244125, 1.055999994277954, 0.0, 0.0, 0.0, 0.0, 0.0, 1.6213401910184195E9, 2021-05-18 14:16:31.018
96.0, 50.45499038696289, -51.05150604248047, 131.341552734375, -59.778560638427734, -0.01600000075995922, -0.08000000566244125, 1.055999994277954, 0.0, 0.0, 0.0, 0.0, 0.0, 1.6213401910190663E9, 2021-05-18 14:16:31.019
96.0, 64.8386459350586, -48.635528564453125, 145.0594940185547, -51.004756927490234, -0.01600000075995922, -0.08000000566244125, 1.055999994277954, 0.0, 0.0, 0.0, 0.0, 0.0, 1.6213401910190663E9, 2021-05-18 14:16:31.019
97.0, 100.46493530273438, -1.699784517288208, 185.8954620361328, -6.436367988586426, -0.01600000075995922, -0.08000000566244125, 1.055999994277954, 0.0, 0.0, 0.0, 0.0, 0.0, 1.621340191032694E9, 2021-05-18 14:16:31.032
97.0, 144.33021545410156, 27.04134750366211, 229.6934356689453, 32.619407653808594, -0.01600000075995922, -0.08000000566244125, 1.055999994277954, 0.0, 0.0, 0.0, 0.0, 0.0, 1.621340191032694E9, 2021-05-18 14:16:31.032
98.0, 55.114906311035156, -56.380863189697266, 134.0380096435547, -54.95035171508789, -0.01600000075995922, -0.08000000566244125, 1.055999994277954, 0.0, 0.0, 0.0, 0.0, 0.0, 1.6213401910484953E9, 2021-05-18 14:16:31.048
98.0, 61.177284240722656, -50.81589126586914, 133.3162078857422, -48.35316467285156, -0.01600000075995922, -0.08000000566244125, 1.055999994277954, 0.0, 0.0, 0.0, 0.0, 0.0, 1.6213401910484953E9, 2021-05-18 14:16:31.048
99.0, 97.4019546508789, -14.729596138000488, 170.7264404296875, -9.675121307373047, -0.01600000075995922, -0.08000000566244125, 1.055999994277954, 0.0, 0.0, 0.0, 0.0, 0.0, 1.6213401910491831E9, 2021-05-18 14:16:31.049
99.0, 134.1726531982422, 26.8842716217041, 217.8155059814453, 34.193904876708984, -0.01600000075995922, -0.08000000566244125, 1.055999994277954, 0.0, 0.0, 0.0, 0.0, 0.0, 1.6213401910491831E9, 2021-05-18 14:16:31.049
100.0, 45.35002517700195, -67.7239761352539, 119.34394836425781, -61.66347122192383, -0.01600000075995922, -0.08000000566244125, 1.055999994277954, 0.0, 0.0, 0.0, 0.0, 0.0, 1.6213401910635154E9, 2021-05-18 14:16:31.063
100.0, 54.9952278137207, -56.17142868041992, 127.86717987060547, -53.12527847290039, -0.01600000075995922, -0.08000000566244125, 1.055999994277954, 0.0, 0.0, 0.0, 0.0, 0.0, 1.6213401910635154E9, 2021-05-18 14:16:31.063
0.0, 93.67888641357422, -17.55883026123047, 174.3279571533203, -18.559253692626953, -0.01600000075995922, -0.08000000566244125, 1.055999994277954, 0.0, 0.0, 0.0, 0.0, 0.0, 1.6213401910641646E9, 2021-05-18 14:16:31.064
1.0, 134.2904510498047, 24.48138427734375, 215.6613311767578, 25.833358764648438, -0.01600000075995922, -0.08000000566244125, 1.055999994277954, 0.0, 0.0, 0.0, 0.0, 0.0, 1.6213401910777297E9, 2021-05-18 14:16:31.077
1.0, 43.4408073425293, -59.17643737792969, 117.71334838867188, -65.71939086914062, -0.01600000075995922, -0.08000000566244125, 1.055999994277954, 0.0, 0.0, 0.0, 0.0, 0.0, 1.6213401910777297E9, 2021-05-18 14:16:31.077
2.0, 49.398468017578125, -50.67564392089844, 129.26589965820312, -53.48617935180664, -0.01600000075995922, -0.08000000566244125, 1.055999994277954, 0.0, 0.0, 0.0, 0.0, 0.0, 1.6213401910942647E9, 2021-05-18 14:16:31.094
2.0, 94.12393188476562, -7.936067581176758, 174.6271514892578, -18.00200843811035, -0.01600000075995922, -0.08000000566244125, 1.055999994277954, 0.0, 0.0, 0.0, 0.0, 0.0, 1.6213401910942647E9, 2021-05-18 14:16:31.094
3.0, 141.22048950195312, 36.12743377685547, 218.72056579589844, 25.59026527404785, -0.01600000075995922, -0.08000000566244125, 1.055999994277954, 0.0, 0.0, 0.0, 0.0, 0.0, 1.6213401910950215E9, 2021-05-18 14:16:31.095
3.0, 56.50053787231445, -59.5092887878418, 128.8806915283203, -61.55314254760742, -0.01600000075995922, -0.08000000566244125, 1.055999994277954, 0.0, 0.0, 0.0, 0.0, 0.0, 1.6213401910950215E9, 2021-05-18 14:16:31.095
4.0, 66.35891723632812, -46.73379135131836, 145.31007385253906, -55.135475158691406, -0.01600000075995922, -0.08000000566244125, 1.055999994277954, 0.0, 0.0, 0.0, 0.0, 0.0, 1.6213401911078105E9, 2021-05-18 14:16:31.107
4.0, 95.71338653564453, -15.995552062988281, 178.23240661621094, -19.815860748291016, -0.01600000075995922, -0.08000000566244125, 1.055999994277954, 0.0, 0.0, 0.0, 0.0, 0.0, 1.6213401911078105E9, 2021-05-18 14:16:31.107
5.0, 147.1519775390625, 36.99135208129883, 231.74290466308594, 31.09539794921875, -0.01600000075995922, -0.08000000566244125, 1.055999994277954, 0.0, 0.0, 0.0, 0.0, 0.0, 1.6213401911397693E9, 2021-05-18 14:16:31.139
5.0, 63.34455490112305, -55.918983459472656, 140.5417022705078, -55.172874450683594, -0.01600000075995922, -0.08000000566244125, 1.055999994277954, 0.0, 0.0, 0.0, 0.0, 0.0, 1.6213401911397693E9, 2021-05-18 14:16:31.139
6.0, 67.43226623535156, -46.81606674194336, 146.48440551757812, -45.88296127319336, -0.01600000075995922, -0.08000000566244125, 1.055999994277954, 0.0, 0.0, 0.0, 0.0, 0.0, 1.621340191140541E9, 2021-05-18 14:16:31.140
6.0, 98.93344116210938, -13.85258960723877, 185.2185516357422, -6.729949951171875, -0.01600000075995922, -0.08000000566244125, 1.055999994277954, 0.0, 0.0, 0.0, 0.0, 0.0, 1.621340191140541E9, 2021-05-18 14:16:31.140
7.0, 150.77967834472656, 35.861900329589844, 237.9473876953125, 42.094444274902344, -0.01600000075995922, -0.08000000566244125, 1.055999994277954, 0.0, 0.0, 0.0, 0.0, 0.0, 1.6213401911413221E9, 2021-05-18 14:16:31.141
7.0, 57.169979095458984, -59.41952896118164, 135.6573944091797, -50.37832260131836, -0.01600000075995922, -0.08000000566244125, 1.055999994277954, 0.0, 0.0, 0.0, 0.0, 0.0, 1.6213401911413221E9, 2021-05-18 14:16:31.141
8.0, 64.38050842285156, -56.16581726074219, 142.75946044921875, -46.462646484375, -0.01600000075995922, -0.08000000566244125, 1.055999994277954, 0.0, 0.0, 0.0, 0.0, 0.0, 1.621340191142014E9, 2021-05-18 14:16:31.142
8.0, 100.08533477783203, -12.390288352966309, 179.37307739257812, -11.431004524230957, -0.01600000075995922, -0.08000000566244125, 1.055999994277954, 0.0, 0.0, 0.0, 0.0, 0.0, 1.621340191142014E9, 2021-05-18 14:16:31.142
9.0, 143.26995849609375, 41.58768844604492, 221.95184326171875, 30.448394775390625, -0.01600000075995922, -0.08000000566244125, 1.055999994277954, 0.0, 0.0, 0.0, 0.0, 0.0, 1.6213401911527655E9, 2021-05-18 14:16:31.152
9.0, 52.61852264404297, -58.3760986328125, 124.6994857788086, -58.55000305175781, -0.01600000075995922, -0.08000000566244125, 1.055999994277954, 0.0, 0.0, 0.0, 0.0, 0.0, 1.6213401911527655E9, 2021-05-18 14:16:31.152
10.0, 56.96428680419922, -48.86553192138672, 132.88238525390625, -49.37602996826172, -0.01600000075995922, -0.08000000566244125, 1.055999994277954, 0.0, 0.0, 0.0, 0.0, 0.0, 1.6213401911677012E9, 2021-05-18 14:16:31.167
10.0, 89.92776489257812, -10.07903003692627, 168.983642578125, -11.116852760314941, -0.01600000075995922, -0.08000000566244125, 1.055999994277954, 0.0, 0.0, 0.0, 0.0, 0.0, 1.6213401911677012E9, 2021-05-18 14:16:31.167
11.0, 134.0922393798828, 35.876861572265625, 212.50111389160156, 33.746986389160156, -0.01600000075995922, -0.08000000566244125, 1.055999994277954, 0.0, 0.0, 0.0, 0.0, 0.0, 1.621340191183392E9, 2021-05-18 14:16:31.183
11.0, 44.27480697631836, -43.42771911621094, 122.72481536865234, -55.135475158691406, -0.01600000075995922, -0.08000000566244125, 1.055999994277954, 0.0, 0.0, 0.0, 0.0, 0.0, 1.621340191183392E9, 2021-05-18 14:16:31.183
12.0, 49.21147537231445, -47.95673751831055, 137.20570373535156, -50.29230499267578, -0.01600000075995922, -0.08000000566244125, 1.055999994277954, 0.0, 0.0, 0.0, 0.0, 0.0, 1.6213401911841211E9, 2021-05-18 14:16:31.184
12.0, 77.09990692138672, -11.530111312866211, 165.34471130371094, -19.69244384765625, -0.01600000075995922, -0.08000000566244125, 1.055999994277954, 0.0, 0.0, 0.0, 0.0, 0.0, 1.6213401911841211E9, 2021-05-18 14:16:31.184
13.0, 127.27440643310547, 37.74306869506836, 217.471435546875, 28.253074645996094, -0.01600000075995922, -0.08000000566244125, 1.055999994277954, 0.0, 0.0, 0.0, 0.0, 0.0, 1.621340191197642E9, 2021-05-18 14:16:31.197
13.0, 43.53056716918945, -51.59566116333008, 120.52201843261719, -67.70902252197266, -0.01600000075995922, -0.08000000566244125, 1.055999994277954, 0.0, 0.0, 0.0, 0.0, 0.0, 1.621340191197642E9, 2021-05-18 14:16:31.197
14.0, 56.18638610839844, -44.77408218383789, 130.85536193847656, -55.554344177246094, -0.01600000075995922, -0.08000000566244125, 1.055999994277954, 0.0, 0.0, 0.0, 0.0, 0.0, 1.62134019121347E9, 2021-05-18 14:16:31.213
14.0, 92.12308502197266, -8.276398658752441, 168.52737426757812, -16.607025146484375, -0.01600000075995922, -0.08000000566244125, 1.055999994277954, 0.0, 0.0, 0.0, 0.0, 0.0, 1.62134019121347E9, 2021-05-18 14:16:31.213
15.0, 141.58700561523438, 33.954551696777344, 219.5583038330078, 29.5844783782959, -0.01600000075995922, -0.08000000566244125, 1.055999994277954, 0.0, 0.0, 0.0, 0.0, 0.0, 1.6213401912141898E9, 2021-05-18 14:16:31.214
15.0, 46.0699577331543, -51.33012771606445, 121.7113037109375, -57.60380935668945, -0.01600000075995922, -0.08000000566244125, 1.055999994277954, 0.0, 0.0, 0.0, 0.0, 0.0, 1.6213401912141898E9, 2021-05-18 14:16:31.214
16.0, 55.37482833862305, -46.49817657470703, 134.26988220214844, -49.024478912353516, -0.01600000075995922, -0.08000000566244125, 1.055999994277954, 0.0, 0.0, 0.0, 0.0, 0.0, 1.621340191227685E9, 2021-05-18 14:16:31.227
16.0, 83.78684997558594, -2.528172254562378, 167.3605194091797, -14.336906433105469, -0.01600000075995922, -0.08000000566244125, 1.055999994277954, 0.0, 0.0, 0.0, 0.0, 0.0, 1.621340191227685E9, 2021-05-18 14:16:31.227
17.0, 136.91586303710938, 37.42517852783203, 217.306884765625, 29.805131912231445, -0.01600000075995922, -0.08000000566244125, 1.055999994277954, 0.0, 0.0, 0.0, 0.0, 0.0, 1.621340191243905E9, 2021-05-18 14:16:31.243
17.0, 44.813350677490234, -58.55187225341797, 115.39087677001953, -65.84281158447266, -0.01600000075995922, -0.08000000566244125, 1.055999994277954, 0.0, 0.0, 0.0, 0.0, 0.0, 1.621340191243905E9, 2021-05-18 14:16:31.243
18.0, 51.60874938964844, -45.21165084838867, 126.68537139892578, -56.48931884765625, -0.01600000075995922, -0.08000000566244125, 1.055999994277954, 0.0, 0.0, 0.0, 0.0, 0.0, 1.6213401912584825E9, 2021-05-18 14:16:31.258
18.0, 96.34169006347656, -4.547718524932861, 177.27499389648438, -4.830080986022949, -0.01600000075995922, -0.08000000566244125, 1.055999994277954, 0.0, 0.0, 0.0, 0.0, 0.0, 1.6213401912584825E9, 2021-05-18 14:16:31.258
19.0, 137.263671875, 29.18243980407715, 220.03701782226562, 26.846872329711914, -0.01600000075995922, -0.08000000566244125, 1.055999994277954, 0.0, 0.0, 0.0, 0.0, 0.0, 1.621340191259205E9, 2021-05-18 14:16:31.259
19.0, 47.76413345336914, -57.545841217041016, 130.1971435546875, -53.83024978637695, -0.01600000075995922, -0.08000000566244125, 1.055999994277954, 0.0, 0.0, 0.0, 0.0, 0.0, 1.621340191259205E9, 2021-05-18 14:16:31.259
20.0, 56.87826919555664, -42.90413284301758, 142.8716583251953, -46.13727569580078, -0.01600000075995922, -0.08000000566244125, 1.055999994277954, 0.0, 0.0, 0.0, 0.0, 0.0, 1.6213401912734065E9, 2021-05-18 14:16:31.273
20.0, 91.1694107055664, -8.986979484558105, 173.35557556152344, -11.730195999145508, -0.01600000075995922, -0.08000000566244125, 1.055999994277954, 0.0, 0.0, 0.0, 0.0, 0.0, 1.6213401912734065E9, 2021-05-18 14:16:31.273
21.0, 135.26283264160156, 31.66947364807129, 220.44091796875, 30.725147247314453, -0.01600000075995922, -0.08000000566244125, 1.055999994277954, 0.0, 0.0, 0.0, 0.0, 0.0, 1.6213401912742476E9, 2021-05-18 14:16:31.274
21.0, 47.315345764160156, -52.07810592651367, 123.68597412109375, -59.671974182128906, -0.01600000075995922, -0.08000000566244125, 1.055999994277954, 0.0, 0.0, 0.0, 0.0, 0.0, 1.6213401912742476E9, 2021-05-18 14:16:31.274
22.0, 54.78018569946289, -40.48067855834961, 133.69393920898438, -50.74483108520508, -0.01600000075995922, -0.08000000566244125, 1.055999994277954, 0.0, 0.0, 0.0, 0.0, 0.0, 1.6213401912877145E9, 2021-05-18 14:16:31.287
22.0, 85.15565490722656, -4.405601978302002, 171.5566864013672, -13.805840492248535, -0.01600000075995922, -0.08000000566244125, 1.055999994277954, 0.0, 0.0, 0.0, 0.0, 0.0, 1.6213401912877145E9, 2021-05-18 14:16:31.287
23.0, 128.63946533203125, 36.67720031738281, 209.8383026123047, 26.00165367126465, -0.01600000075995922, -0.08000000566244125, 1.055999994277954, 0.0, 0.0, 0.0, 0.0, 0.0, 1.6213401913035493E9, 2021-05-18 14:16:31.303
23.0, 38.851951599121094, -55.963863372802734, 119.79647827148438, -66.00736236572266, -0.01600000075995922, -0.08000000566244125, 1.055999994277954, 0.0, 0.0, 0.0, 0.0, 0.0, 1.6213401913035493E9, 2021-05-18 14:16:31.303
24.0, 47.02363204956055, -46.655250549316406, 120.60429382324219, -54.33513641357422, -0.01600000075995922, -0.08000000566244125, 1.055999994277954, 0.0, 0.0, 0.0, 0.0, 0.0, 1.6213401913041213E9, 2021-05-18 14:16:31.304
24.0, 84.52360534667969, -6.787918567657471, 165.22877502441406, -11.827433586120605, -0.01600000075995922, -0.08000000566244125, 1.055999994277954, 0.0, 0.0, 0.0, 0.0, 0.0, 1.6213401913041213E9, 2021-05-18 14:16:31.304
25.0, 137.2786407470703, 29.51902961730957, 214.88343811035156, 34.319190979003906, -0.01600000075995922, -0.08000000566244125, 1.055999994277954, 0.0, 0.0, 0.0, 0.0, 0.0, 1.6213401913176825E9, 2021-05-18 14:16:31.317
25.0, 41.35394287109375, -62.12721633911133, 115.82096099853516, -65.88768768310547, -0.01600000075995922, -0.08000000566244125, 1.055999994277954, 0.0, 0.0, 0.0, 0.0, 0.0, 1.6213401913176825E9, 2021-05-18 14:16:31.317
26.0, 52.311851501464844, -43.457637786865234, 129.82315063476562, -50.445640563964844, -0.01600000075995922, -0.08000000566244125, 1.055999994277954, 0.0, 0.0, 0.0, 0.0, 0.0, 1.621340191349121E9, 2021-05-18 14:16:31.349
26.0, 90.39899444580078, -4.259746074676514, 165.76358032226562, -21.0687255859375, -0.01600000075995922, -0.08000000566244125, 1.055999994277954, 0.0, 0.0, 0.0, 0.0, 0.0, 1.621340191349121E9, 2021-05-18 14:16:31.349
27.0, 131.75106811523438, 29.601308822631836, 215.1826171875, 16.827680587768555, -0.01600000075995922, -0.08000000566244125, 1.055999994277954, 0.0, 0.0, 0.0, 0.0, 0.0, 1.6213401913645244E9, 2021-05-18 14:16:31.364
27.0, 40.26189422607422, -53.001861572265625, 123.8580093383789, -65.31922149658203, -0.01600000075995922, -0.08000000566244125, 1.055999994277954, 0.0, 0.0, 0.0, 0.0, 0.0, 1.6213401913645244E9, 2021-05-18 14:16:31.364
28.0, 51.07020568847656, -41.95419692993164, 132.46725463867188, -54.23415756225586, -0.01600000075995922, -0.08000000566244125, 1.055999994277954, 0.0, 0.0, 0.0, 0.0, 0.0, 1.6213401913651977E9, 2021-05-18 14:16:31.365
28.0, 92.23902130126953, -12.820377349853516, 176.28765869140625, -12.85590648651123, -0.01600000075995922, -0.08000000566244125, 1.055999994277954, 0.0, 0.0, 0.0, 0.0, 0.0, 1.6213401913651977E9, 2021-05-18 14:16:31.365
29.0, 140.13218688964844, 40.951904296875, 226.34996032714844, 27.83046531677246, -0.01600000075995922, -0.08000000566244125, 1.055999994277954, 0.0, 0.0, 0.0, 0.0, 0.0, 1.6213401913659291E9, 2021-05-18 14:16:31.365
29.0, 57.274696350097656, -49.011390686035156, 135.1188507080078, -53.86016845703125, -0.01600000075995922, -0.08000000566244125, 1.055999994277954, 0.0, 0.0, 0.0, 0.0, 0.0, 1.6213401913659291E9, 2021-05-18 14:16:31.365
30.0, 56.24996566772461, -49.22456359863281, 139.72265625, -55.83857727050781, -0.01600000075995922, -0.08000000566244125, 1.055999994277954, 0.0, 0.0, 0.0, 0.0, 0.0, 1.621340191378556E9, 2021-05-18 14:16:31.378
30.0, 88.42432403564453, -21.553043365478516, 178.3483428955078, -18.394697189331055, -0.01600000075995922, -0.08000000566244125, 1.055999994277954, 0.0, 0.0, 0.0, 0.0, 0.0, 1.621340191378556E9, 2021-05-18 14:16:31.378
31.0, 143.18394470214844, 36.060115814208984, 226.52200317382812, 29.707895278930664, -0.01600000075995922, -0.08000000566244125, 1.055999994277954, 0.0, 0.0, 0.0, 0.0, 0.0, 1.621340191379201E9, 2021-05-18 14:16:31.379
31.0, 50.32970428466797, -59.969295501708984, 134.5952606201172, -59.31668472290039, -0.01600000075995922, -0.08000000566244125, 1.055999994277954, 0.0, 0.0, 0.0, 0.0, 0.0, 1.621340191379201E9, 2021-05-18 14:16:31.379
32.0, 59.87766647338867, -48.184871673583984, 146.5442352294922, -43.99431228637695, -0.01600000075995922, -0.08000000566244125, 1.055999994277954, 0.0, 0.0, 0.0, 0.0, 0.0, 1.6213401914105985E9, 2021-05-18 14:16:31.410
32.0, 89.10498809814453, -18.422746658325195, 176.88230895996094, -16.408811569213867, -0.01600000075995922, -0.08000000566244125, 1.055999994277954, 0.0, 0.0, 0.0, 0.0, 0.0, 1.6213401914105985E9, 2021-05-18 14:16:31.410
33.0, 137.62644958496094, 27.604202270507812, 222.8195037841797, 31.61898422241211, -0.01600000075995922, -0.08000000566244125, 1.055999994277954, 0.0, 0.0, 0.0, 0.0, 0.0, 1.6213401914112384E9, 2021-05-18 14:16:31.411
33.0, 46.8740348815918, -67.80064392089844, 119.7029800415039, -62.50681686401367, -0.01600000075995922, -0.08000000566244125, 1.055999994277954, 0.0, 0.0, 0.0, 0.0, 0.0, 1.6213401914112384E9, 2021-05-18 14:16:31.411
34.0, 54.86994171142578, -51.70037841796875, 132.54579162597656, -54.86620330810547, -0.01600000075995922, -0.08000000566244125, 1.055999994277954, 0.0, 0.0, 0.0, 0.0, 0.0, 1.6213401914120076E9, 2021-05-18 14:16:31.412
34.0, 94.40442657470703, -18.71072006225586, 172.30841064453125, -17.003454208374023, -0.01600000075995922, -0.08000000566244125, 1.055999994277954, 0.0, 0.0, 0.0, 0.0, 0.0, 1.6213401914120076E9, 2021-05-18 14:16:31.412
35.0, 134.29420471191406, 28.602754592895508, 216.85435485839844, 19.842039108276367, -0.01600000075995922, -0.08000000566244125, 1.055999994277954, 0.0, 0.0, 0.0, 0.0, 0.0, 1.6213401914127777E9, 2021-05-18 14:16:31.412
35.0, 41.286624908447266, -64.97702026367188, 117.18228912353516, -69.98287963867188, -0.01600000075995922, -0.08000000566244125, 1.055999994277954, 0.0, 0.0, 0.0, 0.0, 0.0, 1.6213401914127777E9, 2021-05-18 14:16:31.412
36.0, 50.9879264831543, -58.738868713378906, 128.21499633789062, -57.58137130737305, -0.01600000075995922, -0.08000000566244125, 1.055999994277954, 0.0, 0.0, 0.0, 0.0, 0.0, 1.6213401914227607E9, 2021-05-18 14:16:31.422
36.0, 91.03103637695312, -8.164201736450195, 170.32252502441406, -18.129165649414062, -0.01600000075995922, -0.08000000566244125, 1.055999994277954, 0.0, 0.0, 0.0, 0.0, 0.0, 1.6213401914227607E9, 2021-05-18 14:16:31.422
37.0, 139.3916778564453, 26.669225692749023, 216.00914001464844, 17.69907569885254, -0.01600000075995922, -0.08000000566244125, 1.055999994277954, 0.0, 0.0, 0.0, 0.0, 0.0, 1.6213401914377065E9, 2021-05-18 14:16:31.437
37.0, 46.88151550292969, -59.9131965637207, 122.5340805053711, -74.4857177734375, -0.01600000075995922, -0.08000000566244125, 1.055999994277954, 0.0, 0.0, 0.0, 0.0, 0.0, 1.6213401914377065E9, 2021-05-18 14:16:31.437
38.0, 54.18553924560547, -47.182579040527344, 132.80010986328125, -63.22113800048828, -0.01600000075995922, -0.08000000566244125, 1.055999994277954, 0.0, 0.0, 0.0, 0.0, 0.0, 1.6213401914697185E9, 2021-05-18 14:16:31.469
38.0, 91.85381317138672, -7.876229286193848, 173.7632293701172, -23.955928802490234, -0.01600000075995922, -0.08000000566244125, 1.055999994277954, 0.0, 0.0, 0.0, 0.0, 0.0, 1.6213401914697185E9, 2021-05-18 14:16:31.469
39.0, 133.1984100341797, 29.436752319335938, 222.0041961669922, 25.908157348632812, -0.01600000075995922, -0.08000000566244125, 1.055999994277954, 0.0, 0.0, 0.0, 0.0, 0.0, 1.6213401914705338E9, 2021-05-18 14:16:31.470
39.0, 40.864017486572266, -54.5726203918457, 124.7854995727539, -55.086856842041016, -0.01600000075995922, -0.08000000566244125, 1.055999994277954, 0.0, 0.0, 0.0, 0.0, 0.0, 1.6213401914705338E9, 2021-05-18 14:16:31.470
40.0, 51.7097282409668, -46.06434631347656, 135.08145141601562, -47.86885070800781, -0.01600000075995922, -0.08000000566244125, 1.055999994277954, 0.0, 0.0, 0.0, 0.0, 0.0, 1.62134019147126E9, 2021-05-18 14:16:31.471
40.0, 88.70855712890625, -15.43456745147705, 169.2753448486328, -13.04664134979248, -0.01600000075995922, -0.08000000566244125, 1.055999994277954, 0.0, 0.0, 0.0, 0.0, 0.0, 1.62134019147126E9, 2021-05-18 14:16:31.471
41.0, 135.63308715820312, 32.35387420654297, 217.8491668701172, 26.8842716217041, -0.01600000075995922, -0.08000000566244125, 1.055999994277954, 0.0, 0.0, 0.0, 0.0, 0.0, 1.6213401914719856E9, 2021-05-18 14:16:31.471
41.0, 48.601871490478516, -54.280906677246094, 124.19459533691406, -56.34346389770508, -0.01600000075995922, -0.08000000566244125, 1.055999994277954, 0.0, 0.0, 0.0, 0.0, 0.0, 1.6213401914719856E9, 2021-05-18 14:16:31.471
42.0, 57.226078033447266, -53.74236297607422, 130.84788513183594, -43.14909744262695, -0.01600000075995922, -0.08000000566244125, 1.055999994277954, 0.0, 0.0, 0.0, 0.0, 0.0, 1.6213401914827516E9, 2021-05-18 14:16:31.482
42.0, 96.5062484741211, -13.98348617553711, 182.02093505859375, -3.304201602935791, -0.01600000075995922, -0.08000000566244125, 1.055999994277954, 0.0, 0.0, 0.0, 0.0, 0.0, 1.6213401914827516E9, 2021-05-18 14:16:31.482
43.0, 132.42050170898438, 26.979639053344727, 220.8298797607422, 27.66217041015625, -0.01600000075995922, -0.08000000566244125, 1.055999994277954, 0.0, 0.0, 0.0, 0.0, 0.0, 1.6213401914977958E9, 2021-05-18 14:16:31.497
43.0, 41.45492172241211, -68.02503967285156, 118.9176025390625, -63.669925689697266, -0.01600000075995922, -0.08000000566244125, 1.055999994277954, 0.0, 0.0, 0.0, 0.0, 0.0, 1.6213401914977958E9, 2021-05-18 14:16:31.497
44.0, 51.462894439697266, -54.95035171508789, 131.6295166015625, -65.76052856445312, -0.01600000075995922, -0.08000000566244125, 1.055999994277954, 0.0, 0.0, 0.0, 0.0, 0.0, 1.6213401915140824E9, 2021-05-18 14:16:31.514
44.0, 86.46461486816406, -22.274843215942383, 165.83090209960938, -27.112403869628906, -0.01600000075995922, -0.08000000566244125, 1.055999994277954, 0.0, 0.0, 0.0, 0.0, 0.0, 1.6213401915140824E9, 2021-05-18 14:16:31.514
45.0, 133.81922912597656, 24.975051879882812, 215.3546600341797, 13.405671119689941, -0.01600000075995922, -0.08000000566244125, 1.055999994277954, 0.0, 0.0, 0.0, 0.0, 0.0, 1.621340191514877E9, 2021-05-18 14:16:31.514
45.0, 45.89418411254883, -61.28200149536133, 124.721923828125, -74.17530822753906, -0.01600000075995922, -0.08000000566244125, 1.055999994277954, 0.0, 0.0, 0.0, 0.0, 0.0, 1.621340191514877E9, 2021-05-18 14:16:31.514
46.0, 55.67401885986328, -48.02031707763672, 135.72845458984375, -64.65351867675781, -0.01600000075995922, -0.08000000566244125, 1.055999994277954, 0.0, 0.0, 0.0, 0.0, 0.0, 1.6213401915277882E9, 2021-05-18 14:16:31.527
46.0, 92.00714874267578, -9.622762680053711, 167.93272399902344, -25.403270721435547, -0.01600000075995922, -0.08000000566244125, 1.055999994277954, 0.0, 0.0, 0.0, 0.0, 0.0, 1.6213401915277882E9, 2021-05-18 14:16:31.527
47.0, 134.79161071777344, 29.22357749938965, 217.9838104248047, 18.9856014251709, -0.01600000075995922, -0.08000000566244125, 1.055999994277954, 0.0, 0.0, 0.0, 0.0, 0.0, 1.6213401915434055E9, 2021-05-18 14:16:31.543
47.0, 50.38954162597656, -62.089820861816406, 134.12777709960938, -58.14235305786133, -0.01600000075995922, -0.08000000566244125, 1.055999994277954, 0.0, 0.0, 0.0, 0.0, 0.0, 1.6213401915434055E9, 2021-05-18 14:16:31.543
48.0, 49.46578598022461, -53.839599609375, 140.7960205078125, -50.80841064453125, -0.01600000075995922, -0.08000000566244125, 1.055999994277954, 0.0, 0.0, 0.0, 0.0, 0.0, 1.621340191544265E9, 2021-05-18 14:16:31.544
48.0, 91.9697494506836, -10.748472213745117, 182.72776794433594, -12.171504020690918, -0.01600000075995922, -0.08000000566244125, 1.055999994277954, 0.0, 0.0, 0.0, 0.0, 0.0, 1.621340191544265E9, 2021-05-18 14:16:31.544
49.0, 143.43450927734375, 23.340715408325195, 232.7825927734375, 33.39169692993164, -0.01600000075995922, -0.08000000566244125, 1.055999994277954, 0.0, 0.0, 0.0, 0.0, 0.0, 1.6213401915577426E9, 2021-05-18 14:16:31.557
49.0, 52.34550857543945, -68.41024780273438, 133.3760528564453, -57.32331466674805, -0.01600000075995922, -0.08000000566244125, 1.055999994277954, 0.0, 0.0, 0.0, 0.0, 0.0, 1.6213401915577426E9, 2021-05-18 14:16:31.557
50.0, 64.46652221679688, -49.89026641845703, 146.69383239746094, -43.238853454589844, -0.01600000075995922, -0.08000000566244125, 1.055999994277954, 0.0, 0.0, 0.0, 0.0, 0.0, 1.6213401915740333E9, 2021-05-18 14:16:31.574
50.0, 99.54304504394531, -7.550858020782471, 189.5830078125, -6.172704696655273, -0.01600000075995922, -0.08000000566244125, 1.055999994277954, 0.0, 0.0, 0.0, 0.0, 0.0, 1.6213401915740333E9, 2021-05-18 14:16:31.574
51.0, 138.0415802001953, 26.452312469482422, 221.60403442382812, 20.369365692138672, -0.01600000075995922, -0.08000000566244125, 1.055999994277954, 0.0, 0.0, 0.0, 0.0, 0.0, 1.62134019157486E9, 2021-05-18 14:16:31.574
51.0, 47.06476974487305, -69.4162826538086, 130.72071838378906, -65.18458557128906, -0.01600000075995922, -0.08000000566244125, 1.055999994277954, 0.0, 0.0, 0.0, 0.0, 0.0, 1.62134019157486E9, 2021-05-18 14:16:31.574
52.0, 57.83942413330078, -50.18571853637695, 142.4714813232422, -53.927486419677734, -0.03200000151991844, -0.08000000566244125, 1.055999994277954, 0.0, 0.0, 0.0, 0.0, 0.0, 1.6213401915878527E9, 2021-05-18 14:16:31.587
52.0, 86.34494018554688, -15.195213317871094, 174.29429626464844, -18.59665298461914, -0.03200000151991844, -0.08000000566244125, 1.055999994277954, 0.0, 0.0, 0.0, 0.0, 0.0, 1.6213401915878527E9, 2021-05-18 14:16:31.587
53.0, 127.87652587890625, 29.09642219543457, 221.26370239257812, 21.367918014526367, -0.03200000151991844, -0.08000000566244125, 1.055999994277954, 0.0, 0.0, 0.0, 0.0, 0.0, 1.6213401916034117E9, 2021-05-18 14:16:31.603
53.0, 34.44260787963867, -61.708351135253906, 117.97140502929688, -74.87092590332031, -0.03200000151991844, -0.08000000566244125, 1.055999994277954, 0.0, 0.0, 0.0, 0.0, 0.0, 1.6213401916034117E9, 2021-05-18 14:16:31.603
54.0, 46.4215087890625, -52.83730697631836, 132.62432861328125, -65.0948257446289, -0.03200000151991844, -0.08000000566244125, 1.055999994277954, 0.0, 0.0, 0.0, 0.0, 0.0, 1.6213401916041524E9, 2021-05-18 14:16:31.604
54.0, 83.79432678222656, -8.844862937927246, 172.99655151367188, -26.51028060913086, -0.03200000151991844, -0.08000000566244125, 1.055999994277954, 0.0, 0.0, 0.0, 0.0, 0.0, 1.6213401916041524E9, 2021-05-18 14:16:31.604
55.0, 129.53704833984375, 47.694942474365234, 221.8807830810547, 17.60931968688965, -0.03200000151991844, -0.08000000566244125, 1.055999994277954, 0.0, 0.0, 0.0, 0.0, 0.0, 1.6213401916178677E9, 2021-05-18 14:16:31.617
55.0, 46.98249435424805, -55.65345001220703, 124.30305480957031, -78.98855590820312, -0.03200000151991844, -0.08000000566244125, 1.055999994277954, 0.0, 0.0, 0.0, 0.0, 0.0, 1.6213401916178677E9, 2021-05-18 14:16:31.617
56.0, 40.718162536621094, -56.8502197265625, 123.99264526367188, -74.35482025146484, -0.03200000151991844, -0.08000000566244125, 1.055999994277954, 0.0, 0.0, 0.0, 0.0, 0.0, 1.6213401916341045E9, 2021-05-18 14:16:31.634
56.0, 89.57247161865234, -15.270011901855469, 168.6807098388672, -25.3883113861084, -0.03200000151991844, -0.08000000566244125, 1.055999994277954, 0.0, 0.0, 0.0, 0.0, 0.0, 1.6213401916341045E9, 2021-05-18 14:16:31.634
57.0, 134.65696716308594, 36.25458908081055, 213.94097900390625, 23.37250518798828, -0.03200000151991844, -0.08000000566244125, 1.055999994277954, 0.0, 0.0, 0.0, 0.0, 0.0, 1.6213401916347976E9, 2021-05-18 14:16:31.634
57.0, 44.35334396362305, -61.52135467529297, 113.80889892578125, -71.14598846435547, -0.03200000151991844, -0.08000000566244125, 1.055999994277954, 0.0, 0.0, 0.0, 0.0, 0.0, 1.6213401916347976E9, 2021-05-18 14:16:31.634
58.0, 53.403900146484375, -46.53931427001953, 127.70636749267578, -53.934967041015625, -0.03200000151991844, -0.08000000566244125, 1.055999994277954, 0.0, 0.0, 0.0, 0.0, 0.0, 1.6213401916479511E9, 2021-05-18 14:16:31.647
58.0, 89.51263427734375, -17.72712516784668, 170.70025634765625, -15.735629081726074, -0.03200000151991844, -0.08000000566244125, 1.055999994277954, 0.0, 0.0, 0.0, 0.0, 0.0, 1.6213401916479511E9, 2021-05-18 14:16:31.647
59.0, 140.76048278808594, 24.769357681274414, 221.74989318847656, 29.18056869506836, -0.03200000151991844, -0.08000000566244125, 1.055999994277954, 0.0, 0.0, 0.0, 0.0, 0.0, 1.621340191663546E9, 2021-05-18 14:16:31.663
59.0, 53.12714767456055, -68.44764709472656, 133.794921875, -57.15127944946289, -0.03200000151991844, -0.08000000566244125, 1.055999994277954, 0.0, 0.0, 0.0, 0.0, 0.0, 1.621340191663546E9, 2021-05-18 14:16:31.663
60.0, 61.31005096435547, -65.81475830078125, 137.23562622070312, -50.86450958251953, -0.03200000151991844, -0.08000000566244125, 1.055999994277954, 0.0, 0.0, 0.0, 0.0, 0.0, 1.6213401916642888E9, 2021-05-18 14:16:31.664
60.0, 93.7349853515625, -22.35712242126465, 174.2382049560547, -19.21747589111328, -0.03200000151991844, -0.08000000566244125, 1.055999994277954, 0.0, 0.0, 0.0, 0.0, 0.0, 1.6213401916642888E9, 2021-05-18 14:16:31.664
61.0, 143.00816345214844, 25.046110153198242, 227.20640563964844, 28.48120880126953, -0.03200000151991844, -0.08000000566244125, 1.055999994277954, 0.0, 0.0, 0.0, 0.0, 0.0, 1.6213401916778665E9, 2021-05-18 14:16:31.677
61.0, 41.522239685058594, -75.83395385742188, 122.17131042480469, -71.4563980102539, -0.03200000151991844, -0.08000000566244125, 1.055999994277954, 0.0, 0.0, 0.0, 0.0, 0.0, 1.6213401916778665E9, 2021-05-18 14:16:31.677
62.0, 54.982139587402344, -59.580345153808594, 138.9634552001953, -58.44528579711914, -0.01600000075995922, -0.08000000566244125, 1.055999994277954, 0.0, 0.0, 0.0, 0.0, 0.0, 1.6213401916932693E9, 2021-05-18 14:16:31.693
62.0, 89.39295959472656, -21.93825340270996, 175.99221801757812, -21.39409828186035, -0.01600000075995922, -0.08000000566244125, 1.055999994277954, 0.0, 0.0, 0.0, 0.0, 0.0, 1.6213401916932693E9, 2021-05-18 14:16:31.693
63.0, 140.29673767089844, 27.458345413208008, 218.1894989013672, 19.673744201660156, -0.01600000075995922, -0.08000000566244125, 1.055999994277954, 0.0, 0.0, 0.0, 0.0, 0.0, 1.6213401917086308E9, 2021-05-18 14:16:31.708
63.0, 44.16634750366211, -72.0080337524414, 119.8675308227539, -71.44892120361328, -0.01600000075995922, -0.08000000566244125, 1.055999994277954, 0.0, 0.0, 0.0, 0.0, 0.0, 1.6213401917086308E9, 2021-05-18 14:16:31.708
64.0, 53.362762451171875, -52.3548583984375, 136.05381774902344, -63.31463623046875, -0.01600000075995922, -0.08000000566244125, 1.055999994277954, 0.0, 0.0, 0.0, 0.0, 0.0, 1.6213401917092214E9, 2021-05-18 14:16:31.709
64.0, 87.04804229736328, -25.45749855041504, 169.1893310546875, -32.7409553527832, -0.01600000075995922, -0.08000000566244125, 1.055999994277954, 0.0, 0.0, 0.0, 0.0, 0.0, 1.6213401917092214E9, 2021-05-18 14:16:31.709
65.0, 139.0999755859375, 30.023916244506836, 221.12905883789062, 10.49976921081543, -0.01600000075995922, -0.08000000566244125, 1.055999994277954, 0.0, 0.0, 0.0, 0.0, 0.0, 1.6213401917234068E9, 2021-05-18 14:16:31.723
65.0, 48.3587760925293, -65.07051849365234, 129.06768798828125, -79.867431640625, -0.01600000075995922, -0.08000000566244125, 1.055999994277954, 0.0, 0.0, 0.0, 0.0, 0.0, 1.6213401917234068E9, 2021-05-18 14:16:31.723
66.0, 52.128597259521484, -47.26111602783203, 136.48016357421875, -70.09507751464844, -0.01600000075995922, -0.08000000566244125, 1.055999994277954, 0.0, 0.0, 0.0, 0.0, 0.0, 1.6213401917241516E9, 2021-05-18 14:16:31.724
66.0, 92.78131103515625, -18.003877639770508, 173.66226196289062, -30.175382614135742, -0.01600000075995922, -0.08000000566244125, 1.055999994277954, 0.0, 0.0, 0.0, 0.0, 0.0, 1.6213401917241516E9, 2021-05-18 14:16:31.724
67.0, 137.2300262451172, 28.153966903686523, 224.9923858642578, 15.892704963684082, -0.01600000075995922, -0.08000000566244125, 1.055999994277954, 0.0, 0.0, 0.0, 0.0, 0.0, 1.6213401917376816E9, 2021-05-18 14:16:31.737
67.0, 50.90564727783203, -65.44451141357422, 128.80589294433594, -71.60973358154297, -0.01600000075995922, -0.08000000566244125, 1.055999994277954, 0.0, 0.0, 0.0, 0.0, 0.0, 1.6213401917376816E9, 2021-05-18 14:16:31.737
68.0, 58.14983367919922, -56.435089111328125, 134.7747802734375, -62.94812774658203, -0.01600000075995922, -0.08000000566244125, 1.055999994277954, 0.0, 0.0, 0.0, 0.0, 0.0, 1.6213401917533789E9, 2021-05-18 14:16:31.753
68.0, 94.95419311523438, -21.066856384277344, 167.3792266845703, -23.14811134338379, -0.01600000075995922, -0.08000000566244125, 1.055999994277954, 0.0, 0.0, 0.0, 0.0, 0.0, 1.6213401917533789E9, 2021-05-18 14:16:31.753
69.0, 136.64285278320312, 19.27544403076172, 218.24560546875, 18.11046600341797, -0.01600000075995922, -0.08000000566244125, 1.055999994277954, 0.0, 0.0, 0.0, 0.0, 0.0, 1.6213401917541723E9, 2021-05-18 14:16:31.754
69.0, 54.656768798828125, -69.19188690185547, 126.39366149902344, -60.07962417602539, -0.01600000075995922, -0.08000000566244125, 1.055999994277954, 0.0, 0.0, 0.0, 0.0, 0.0, 1.6213401917541723E9, 2021-05-18 14:16:31.754
70.0, 60.936058044433594, -65.22759246826172, 133.98939514160156, -52.32680892944336, -0.01600000075995922, -0.08000000566244125, 1.055999994277954, 0.0, 0.0, 0.0, 0.0, 0.0, 1.6213401917677283E9, 2021-05-18 14:16:31.767
70.0, 96.74185943603516, -22.689973831176758, 175.35643005371094, -10.855059623718262, -0.01600000075995922, -0.08000000566244125, 1.055999994277954, 0.0, 0.0, 0.0, 0.0, 0.0, 1.6213401917677283E9, 2021-05-18 14:16:31.767
71.0, 141.64683532714844, 24.668380737304688, 223.7058563232422, 27.856645584106445, -0.01600000075995922, -0.08000000566244125, 1.055999994277954, 0.0, 0.0, 0.0, 0.0, 0.0, 1.6213401917834685E9, 2021-05-18 14:16:31.783
71.0, 47.476158142089844, -61.33435821533203, 129.78575134277344, -62.83218765258789, -0.01600000075995922, -0.08000000566244125, 1.055999994277954, 0.0, 0.0, 0.0, 0.0, 0.0, 1.6213401917834685E9, 2021-05-18 14:16:31.783
72.0, 54.88490295410156, -54.815711975097656, 137.12716674804688, -58.68090057373047, -0.01600000075995922, -0.08000000566244125, 1.055999994277954, 0.0, 0.0, 0.0, 0.0, 0.0, 1.6213401917841544E9, 2021-05-18 14:16:31.784
72.0, 91.91738891601562, -18.99869155883789, 183.2364044189453, -13.757222175598145, -0.01600000075995922, -0.08000000566244125, 1.055999994277954, 0.0, 0.0, 0.0, 0.0, 0.0, 1.6213401917841544E9, 2021-05-18 14:16:31.784
73.0, 133.85289001464844, 18.359169006347656, 220.9420623779297, 19.314712524414062, -0.01600000075995922, -0.08000000566244125, 1.055999994277954, 0.0, 0.0, 0.0, 0.0, 0.0, 1.6213401918141367E9, 2021-05-18 14:16:31.814
73.0, 45.50523376464844, -67.17982482910156, 128.12149047851562, -63.763423919677734, -0.01600000075995922, -0.08000000566244125, 1.055999994277954, 0.0, 0.0, 0.0, 0.0, 0.0, 1.6213401918141367E9, 2021-05-18 14:16:31.814
74.0, 56.16020584106445, -53.955535888671875, 142.87539672851562, -56.986724853515625, -0.01600000075995922, -0.08000000566244125, 1.055999994277954, 0.0, 0.0, 0.0, 0.0, 0.0, 1.6213401918149097E9, 2021-05-18 14:16:31.814
