Sample Index, EXG Channel 0, EXG Channel 1, EXG Channel 2, EXG Channel 3, Accel Channel 0, Accel Channel 1, Accel Channel 2, Other, Other, Other, Other, Other, Timestamp, Timestamp (Formatted)
0.0, -33.042015075683594, 196.29612731933594, 2.545001983642578, -111.61170196533203, 0.0, 0.0, 0.0, 0.0, 0.0, 0.0, 0.0, 0.0, 1.62133834080816E9, 2021-05-18 13:45:40.808
1.0, 15.606602668762207, 250.70419311523438, 54.23415756225586, -60.431175231933594, 0.0, -0.08000000566244125, 0.0, 0.0, 0.0, 0.0, 0.0, 0.0, 1.6213383408214023E9, 2021-05-18 13:45:40.821
1.0, -5.737006664276123, 223.1486053466797, 26.22604751586914, -91.5920181274414, 0.0, -0.08000000566244125, 0.0, 0.0, 0.0, 0.0, 0.0, 0.0, 1.6213383408214023E9, 2021-05-18 13:45:40.821
2.0, -57.74031448364258, 172.86940002441406, -30.672788619995117, -143.965576171875, -0.01600000075995922, -0.08000000566244125, 0.0, 0.0, 0.0, 0.0, 0.0, 0.0, 1.6213383408544707E9, 2021-05-18 13:45:40.854
2.0, -37.70567321777344, 202.0518341064453, -2.159792184829712, -115.3777847290039, -0.01600000075995922, -0.08000000566244125, 0.0, 0.0, 0.0, 0.0, 0.0, 0.0, 1.6213383408544707E9, 2021-05-18 13:45:40.854
3.0, 0.13089649379253387, 249.54483032226562, 47.51355743408203, -68.30740356445312, -0.01600000075995922, -0.08000000566244125, 0.0, 0.0, 0.0, 0.0, 0.0, 0.0, 1.6213383408552139E9, 2021-05-18 13:45:40.855
3.0, -21.059375762939453, 230.8789825439453, 26.5738582611084, -85.23793029785156, -0.01600000075995922, -0.08000000566244125, 0.0, 0.0, 0.0, 0.0, 0.0, 0.0, 1.6213383408552139E9, 2021-05-18 13:45:40.855
4.0, -69.15823364257812, 181.24302673339844, -27.490135192871094, -139.01394653320312, -0.01600000075995922, -0.08000000566244125, 0.0, 0.0, 0.0, 0.0, 0.0, 0.0, 1.6213383408559525E9, 2021-05-18 13:45:40.855
4.0, -40.19270324707031, 208.86593627929688, 6.273682117462158, -105.56802368164062, -0.01600000075995922, -0.08000000566244125, 0.0, 0.0, 0.0, 0.0, 0.0, 0.0, 1.6213383408559525E9, 2021-05-18 13:45:40.855
5.0, 4.315844535827637, 256.4000549316406, 60.86874008178711, -58.47520446777344, -0.01600000075995922, -0.08000000566244125, 0.0, 0.0, 0.0, 0.0, 0.0, 0.0, 1.621338340866876E9, 2021-05-18 13:45:40.866
5.0, -13.396321296691895, 226.6005401611328, 30.384817123413086, -82.16747283935547, -0.01600000075995922, -0.08000000566244125, 0.0, 0.0, 0.0, 0.0, 0.0, 0.0, 1.621338340866876E9, 2021-05-18 13:45:40.866
6.0, -58.97822189331055, 171.34725952148438, -15.59725284576416, -133.98377990722656, -0.01600000075995922, -0.08000000566244125, 0.0, 0.0, 0.0, 0.0, 0.0, 0.0, 1.621338340867585E9, 2021-05-18 13:45:40.867
6.0, -30.98133087158203, 197.09646606445312, 10.828880310058594, -107.74090576171875, -0.01600000075995922, -0.08000000566244125, 0.0, 0.0, 0.0, 0.0, 0.0, 0.0, 1.621338340867585E9, 2021-05-18 13:45:40.867
7.0, 17.13996124267578, 246.2686767578125, 60.75654602050781, -57.67486572265625, -0.01600000075995922, -0.08000000566244125, 0.0, 0.0, 0.0, 0.0, 0.0, 0.0, 1.6213383408813455E9, 2021-05-18 13:45:40.881
7.0, 1.6904348134994507, 224.06488037109375, 30.3062801361084, -80.03572845458984, -0.01600000075995922, -0.08000000566244125, 0.0, 0.0, 0.0, 0.0, 0.0, 0.0, 1.6213383408813455E9, 2021-05-18 13:45:40.881
8.0, -50.49612808227539, 172.60386657714844, -26.416784286499023, -136.60919189453125, -0.01600000075995922, -0.08000000566244125, 0.0, 0.0, 0.0, 0.0, 0.0, 0.0, 1.6213383408975587E9, 2021-05-18 13:45:40.897
8.0, -32.29777526855469, 191.96533203125, -0.4880569577217102, -113.49661254882812, -0.01600000075995922, -0.08000000566244125, 0.0, 0.0, 0.0, 0.0, 0.0, 0.0, 1.6213383408975587E9, 2021-05-18 13:45:40.897
9.0, 10.610095977783203, 247.8618621826172, 46.75061798095703, -67.5182876586914, -0.01600000075995922, -0.08000000566244125, 0.0, 0.0, 0.0, 0.0, 0.0, 0.0, 1.62133834089829E9, 2021-05-18 13:45:40.898
9.0, -2.3860561847686768, 227.88706970214844, 23.129411697387695, -85.57826232910156, -0.01600000075995922, -0.08000000566244125, 0.0, 0.0, 0.0, 0.0, 0.0, 0.0, 1.62133834089829E9, 2021-05-18 13:45:40.898
10.0, -62.77796173095703, 176.33255004882812, -35.658077239990234, -141.53089904785156, -0.01600000075995922, -0.08000000566244125, 1.055999994277954, 0.0, 0.0, 0.0, 0.0, 0.0, 1.6213383409113214E9, 2021-05-18 13:45:40.911
10.0, -41.24361801147461, 205.53367614746094, 1.168718695640564, -109.58841705322266, -0.01600000075995922, -0.08000000566244125, 1.055999994277954, 0.0, 0.0, 0.0, 0.0, 0.0, 1.6213383409113214E9, 2021-05-18 13:45:40.911
11.0, 1.54831862449646, 247.7122802734375, 50.99540710449219, -68.38967895507812, -0.01600000075995922, -0.08000000566244125, 1.055999994277954, 0.0, 0.0, 0.0, 0.0, 0.0, 1.621338340926851E9, 2021-05-18 13:45:40.926
11.0, -18.63966178894043, 235.81190490722656, 27.220861434936523, -85.26410675048828, -0.01600000075995922, -0.08000000566244125, 1.055999994277954, 0.0, 0.0, 0.0, 0.0, 0.0, 1.621338340926851E9, 2021-05-18 13:45:40.926
12.0, -73.66854858398438, 175.2928466796875, -30.171642303466797, -139.3094024658203, -0.01600000075995922, -0.08000000566244125, 1.055999994277954, 0.0, 0.0, 0.0, 0.0, 0.0, 1.6213383409275973E9, 2021-05-18 13:45:40.927
12.0, -46.45703887939453, 208.5891876220703, -3.064847946166992, -116.25666046142578, -0.01600000075995922, -0.08000000566244125, 1.055999994277954, 0.0, 0.0, 0.0, 0.0, 0.0, 1.6213383409275973E9, 2021-05-18 13:45:40.927
13.0, 4.6075568199157715, 262.81024169921875, 51.15996170043945, -59.38774108886719, -0.01600000075995922, -0.08000000566244125, 1.055999994277954, 0.0, 0.0, 0.0, 0.0, 0.0, 1.6213383409412837E9, 2021-05-18 13:45:40.941
13.0, -11.414175033569336, 234.28602600097656, 28.174535751342773, -83.940185546875, -0.01600000075995922, -0.08000000566244125, 1.055999994277954, 0.0, 0.0, 0.0, 0.0, 0.0, 1.6213383409412837E9, 2021-05-18 13:45:40.941
14.0, -56.77915954589844, 177.43206787109375, -26.51028060913086, -135.21795654296875, -0.01600000075995922, -0.08000000566244125, 1.055999994277954, 0.0, 0.0, 0.0, 0.0, 0.0, 1.6213383409733372E9, 2021-05-18 13:45:40.973
14.0, -30.798076629638672, 199.1160125732422, 4.553328037261963, -108.84043884277344, -0.01600000075995922, -0.08000000566244125, 1.055999994277954, 0.0, 0.0, 0.0, 0.0, 0.0, 1.6213383409733372E9, 2021-05-18 13:45:40.973
15.0, 18.87153434753418, 242.1398162841797, 48.27275848388672, -63.105201721191406, -0.01600000075995922, -0.08000000566244125, 1.055999994277954, 0.0, 0.0, 0.0, 0.0, 0.0, 1.621338340973985E9, 2021-05-18 13:45:40.973
15.0, -0.11593689769506454, 224.50619506835938, 31.622724533081055, -86.45339965820312, -0.01600000075995922, -0.08000000566244125, 1.055999994277954, 0.0, 0.0, 0.0, 0.0, 0.0, 1.621338340973985E9, 2021-05-18 13:45:40.973
16.0, -50.664424896240234, 171.81100463867188, -27.06752586364746, -136.3324432373047, -0.01600000075995922, -0.08000000566244125, 1.055999994277954, 0.0, 0.0, 0.0, 0.0, 0.0, 1.6213383409748333E9, 2021-05-18 13:45:40.974
16.0, -28.318523406982422, 198.1959991455078, 0.7909888625144958, -107.54643249511719, -0.01600000075995922, -0.08000000566244125, 1.055999994277954, 0.0, 0.0, 0.0, 0.0, 0.0, 1.6213383409748333E9, 2021-05-18 13:45:40.974
17.0, 15.554244041442871, 246.84088134765625, 50.9879264831543, -59.40270233154297, -0.01600000075995922, -0.08000000566244125, 1.055999994277954, 0.0, 0.0, 0.0, 0.0, 0.0, 1.6213383409754128E9, 2021-05-18 13:45:40.975
17.0, -4.069011211395264, 231.73167419433594, 30.583032608032227, -79.97589111328125, -0.01600000075995922, -0.08000000566244125, 1.055999994277954, 0.0, 0.0, 0.0, 0.0, 0.0, 1.6213383409754128E9, 2021-05-18 13:45:40.975
18.0, -64.04204559326172, 171.62774658203125, -33.19722366333008, -137.93312072753906, -0.01600000075995922, -0.08000000566244125, 1.055999994277954, 0.0, 0.0, 0.0, 0.0, 0.0, 1.6213383409862635E9, 2021-05-18 13:45:40.986
18.0, -42.496482849121094, 199.58349609375, -6.89076566696167, -112.89823150634766, -0.01600000075995922, -0.08000000566244125, 1.055999994277954, 0.0, 0.0, 0.0, 0.0, 0.0, 1.6213383409862635E9, 2021-05-18 13:45:40.986
19.0, 1.795151948928833, 255.11727905273438, 51.23476028442383, -65.30052185058594, -0.01600000075995922, -0.08000000566244125, 1.055999994277954, 0.0, 0.0, 0.0, 0.0, 0.0, 1.6213383410011172E9, 2021-05-18 13:45:41.001
19.0, -12.498745918273926, 238.70285034179688, 22.205656051635742, -91.27413177490234, -0.01600000075995922, -0.08000000566244125, 1.055999994277954, 0.0, 0.0, 0.0, 0.0, 0.0, 1.6213383410011172E9, 2021-05-18 13:45:41.001
20.0, -72.12023162841797, 179.2047882080078, -38.096492767333984, -137.8246612548828, -0.01600000075995922, -0.08000000566244125, 1.055999994277954, 0.0, 0.0, 0.0, 0.0, 0.0, 1.6213383410176585E9, 2021-05-18 13:45:41.017
20.0, -46.33736038208008, 209.31097412109375, -4.317714691162109, -111.37609100341797, -0.01600000075995922, -0.08000000566244125, 1.055999994277954, 0.0, 0.0, 0.0, 0.0, 0.0, 1.6213383410176585E9, 2021-05-18 13:45:41.017
21.0, -3.6090035438537598, 255.7493133544922, 44.439361572265625, -67.56316375732422, -0.01600000075995922, -0.08000000566244125, 1.055999994277954, 0.0, 0.0, 0.0, 0.0, 0.0, 1.621338341018264E9, 2021-05-18 13:45:41.018
21.0, -17.48777198791504, 231.90745544433594, 26.873050689697266, -86.77503204345703, -0.01600000075995922, -0.08000000566244125, 1.055999994277954, 0.0, 0.0, 0.0, 0.0, 0.0, 1.621338341018264E9, 2021-05-18 13:45:41.018
22.0, -66.81705474853516, 175.6294403076172, -36.78004455566406, -137.6002655029297, -0.01600000075995922, -0.08000000566244125, 1.055999994277954, 0.0, 0.0, 0.0, 0.0, 0.0, 1.6213383410311432E9, 2021-05-18 13:45:41.031
22.0, -38.07966232299805, 205.57481384277344, -1.8157213926315308, -108.23457336425781, -0.01600000075995922, -0.08000000566244125, 1.055999994277954, 0.0, 0.0, 0.0, 0.0, 0.0, 1.6213383410311432E9, 2021-05-18 13:45:41.031
23.0, 8.261439323425293, 254.7058868408203, 49.01325988769531, -68.75618743896484, -0.01600000075995922, -0.08000000566244125, 1.055999994277954, 0.0, 0.0, 0.0, 0.0, 0.0, 1.6213383410469456E9, 2021-05-18 13:45:41.046
23.0, -6.638322353363037, 229.84303283691406, 19.453088760375977, -90.94501495361328, -0.01600000075995922, -0.08000000566244125, 1.055999994277954, 0.0, 0.0, 0.0, 0.0, 0.0, 1.6213383410469456E9, 2021-05-18 13:45:41.046
24.0, -59.486846923828125, 175.36764526367188, -37.43452835083008, -142.50328063964844, -0.01600000075995922, -0.08000000566244125, 1.055999994277954, 0.0, 0.0, 0.0, 0.0, 0.0, 1.6213383410476787E9, 2021-05-18 13:45:41.047
24.0, -35.55522918701172, 205.39157104492188, 0.3384609520435333, -110.75526428222656, -0.01600000075995922, -0.08000000566244125, 1.055999994277954, 0.0, 0.0, 0.0, 0.0, 0.0, 1.6213383410476787E9, 2021-05-18 13:45:41.047
25.0, 9.368449211120605, 259.4892272949219, 47.016151428222656, -64.38050842285156, -0.01600000075995922, -0.08000000566244125, 1.055999994277954, 0.0, 0.0, 0.0, 0.0, 0.0, 1.6213383410611212E9, 2021-05-18 13:45:41.061
25.0, -9.843416213989258, 242.00144958496094, 20.02529525756836, -88.57018280029297, -0.01600000075995922, -0.08000000566244125, 1.055999994277954, 0.0, 0.0, 0.0, 0.0, 0.0, 1.6213383410611212E9, 2021-05-18 13:45:41.061
26.0, -69.12831115722656, 183.3411102294922, -41.49605941772461, -150.22616577148438, -0.01600000075995922, -0.08000000566244125, 1.055999994277954, 0.0, 0.0, 0.0, 0.0, 0.0, 1.621338341077594E9, 2021-05-18 13:45:41.077
26.0, -33.614219665527344, 215.0330352783203, -3.109726905822754, -120.17233276367188, -0.01600000075995922, -0.08000000566244125, 1.055999994277954, 0.0, 0.0, 0.0, 0.0, 0.0, 1.621338341077594E9, 2021-05-18 13:45:41.077
27.0, 4.4990997314453125, 261.568603515625, 47.29664611816406, -67.578125, -0.01600000075995922, -0.08000000566244125, 1.055999994277954, 0.0, 0.0, 0.0, 0.0, 0.0, 1.6213383410783005E9, 2021-05-18 13:45:41.078
27.0, -17.199800491333008, 236.54867553710938, 25.092859268188477, -91.2703857421875, -0.01600000075995922, -0.08000000566244125, 1.055999994277954, 0.0, 0.0, 0.0, 0.0, 0.0, 1.6213383410783005E9, 2021-05-18 13:45:41.078
28.0, -67.3668212890625, 183.64404296875, -33.892845153808594, -139.50387573242188, -0.01600000075995922, -0.08000000566244125, 1.055999994277954, 0.0, 0.0, 0.0, 0.0, 0.0, 1.6213383410911317E9, 2021-05-18 13:45:41.091
28.0, -42.642337799072266, 214.42343139648438, -0.6376529335975647, -111.84732055664062, -0.01600000075995922, -0.08000000566244125, 1.055999994277954, 0.0, 0.0, 0.0, 0.0, 0.0, 1.6213383410911317E9, 2021-05-18 13:45:41.091
29.0, 3.4706270694732666, 256.5870666503906, 56.57907485961914, -63.718544006347656, -0.01600000075995922, -0.08000000566244125, 1.055999994277954, 0.0, 0.0, 0.0, 0.0, 0.0, 1.6213383411069193E9, 2021-05-18 13:45:41.106
29.0, -9.05429744720459, 240.3259735107422, 33.34681701660156, -89.022705078125, -0.01600000075995922, -0.08000000566244125, 1.055999994277954, 0.0, 0.0, 0.0, 0.0, 0.0, 1.6213383411069193E9, 2021-05-18 13:45:41.106
30.0, -58.95204162597656, 180.9363555908203, -27.164762496948242, -142.06570434570312, -0.01600000075995922, -0.08000000566244125, 1.055999994277954, 0.0, 0.0, 0.0, 0.0, 0.0, 1.6213383411075666E9, 2021-05-18 13:45:41.107
30.0, -31.19450569152832, 205.440185546875, 8.824294090270996, -110.6019287109375, -0.01600000075995922, -0.08000000566244125, 1.055999994277954, 0.0, 0.0, 0.0, 0.0, 0.0, 1.6213383411075666E9, 2021-05-18 13:45:41.107
31.0, 10.97286605834961, 251.5980224609375, 58.50138473510742, -61.65412139892578, -0.01600000075995922, -0.08000000566244125, 1.055999994277954, 0.0, 0.0, 0.0, 0.0, 0.0, 1.621338341121182E9, 2021-05-18 13:45:41.121
31.0, -4.899269104003906, 228.4256134033203, 28.245594024658203, -91.0871353149414, -0.01600000075995922, -0.08000000566244125, 1.055999994277954, 0.0, 0.0, 0.0, 0.0, 0.0, 1.621338341121182E9, 2021-05-18 13:45:41.121
32.0, -57.115753173828125, 175.67431640625, -29.13943099975586, -140.82406616210938, -0.01600000075995922, -0.08000000566244125, 1.055999994277954, 0.0, 0.0, 0.0, 0.0, 0.0, 1.621338341152286E9, 2021-05-18 13:45:41.152
32.0, -33.18787384033203, 200.50726318359375, 4.0222625732421875, -114.50638580322266, -0.01600000075995922, -0.08000000566244125, 1.055999994277954, 0.0, 0.0, 0.0, 0.0, 0.0, 1.621338341152286E9, 2021-05-18 13:45:41.152
33.0, 11.152381896972656, 251.75135803222656, 55.19905471801758, -69.42937469482422, -0.01600000075995922, -0.08000000566244125, 1.055999994277954, 0.0, 0.0, 0.0, 0.0, 0.0, 1.6213383411531513E9, 2021-05-18 13:45:41.153
33.0, -9.585363388061523, 229.4727783203125, 25.339693069458008, -94.94670867919922, -0.01600000075995922, -0.08000000566244125, 1.055999994277954, 0.0, 0.0, 0.0, 0.0, 0.0, 1.6213383411531513E9, 2021-05-18 13:45:41.153
34.0, -66.63379669189453, 175.1245574951172, -38.227386474609375, -140.4051971435547, -0.01600000075995922, -0.08000000566244125, 1.055999994277954, 0.0, 0.0, 0.0, 0.0, 0.0, 1.6213383411675782E9, 2021-05-18 13:45:41.167
34.0, -38.7341423034668, 204.91659545898438, 1.3818930387496948, -115.70315551757812, -0.01600000075995922, -0.08000000566244125, 1.055999994277954, 0.0, 0.0, 0.0, 0.0, 0.0, 1.6213383411675782E9, 2021-05-18 13:45:41.167
35.0, 9.087956428527832, 255.37533569335938, 54.42489242553711, -60.57328796386719, -0.01600000075995922, -0.08000000566244125, 1.055999994277954, 0.0, 0.0, 0.0, 0.0, 0.0, 1.6213383411682498E9, 2021-05-18 13:45:41.168
35.0, -10.576436996459961, 230.1160430908203, 27.621030807495117, -87.06300354003906, -0.01600000075995922, -0.08000000566244125, 1.055999994277954, 0.0, 0.0, 0.0, 0.0, 0.0, 1.6213383411682498E9, 2021-05-18 13:45:41.168
36.0, -68.51870727539062, 177.6751708984375, -28.312911987304688, -135.6106414794922, -0.01600000075995922, -0.08000000566244125, 1.055999994277954, 0.0, 0.0, 0.0, 0.0, 0.0, 1.621338341169018E9, 2021-05-18 13:45:41.169
36.0, -42.85177230834961, 212.4412841796875, 2.18597149848938, -107.62123107910156, -0.01600000075995922, -0.08000000566244125, 1.055999994277954, 0.0, 0.0, 0.0, 0.0, 0.0, 1.621338341169018E9, 2021-05-18 13:45:41.169
37.0, 7.120769500732422, 257.9932556152344, 56.57533645629883, -56.81843185424805, -0.01600000075995922, -0.08000000566244125, 1.055999994277954, 0.0, 0.0, 0.0, 0.0, 0.0, 1.6213383411813529E9, 2021-05-18 13:45:41.181
37.0, -16.175067901611328, 231.95980834960938, 18.652751922607422, -89.83800506591797, -0.01600000075995922, -0.08000000566244125, 1.055999994277954, 0.0, 0.0, 0.0, 0.0, 0.0, 1.6213383411813529E9, 2021-05-18 13:45:41.181
38.0, -63.832611083984375, 177.21142578125, -35.53839874267578, -140.47999572753906, -0.01600000075995922, -0.08000000566244125, 1.055999994277954, 0.0, 0.0, 0.0, 0.0, 0.0, 1.6213383411968353E9, 2021-05-18 13:45:41.196
38.0, -37.866485595703125, 208.18527221679688, -0.06918814778327942, -109.16207122802734, -0.01600000075995922, -0.08000000566244125, 1.055999994277954, 0.0, 0.0, 0.0, 0.0, 0.0, 1.6213383411968353E9, 2021-05-18 13:45:41.196
39.0, 1.2266871929168701, 255.7493133544922, 49.117977142333984, -66.70298767089844, -0.01600000075995922, -0.08000000566244125, 1.055999994277954, 0.0, 0.0, 0.0, 0.0, 0.0, 1.6213383411975377E9, 2021-05-18 13:45:41.197
39.0, -18.205833435058594, 237.29290771484375, 19.894397735595703, -95.87420654296875, -0.01600000075995922, -0.08000000566244125, 1.055999994277954, 0.0, 0.0, 0.0, 0.0, 0.0, 1.6213383411975377E9, 2021-05-18 13:45:41.197
40.0, -61.835506439208984, 181.67312622070312, -30.885963439941406, -138.90924072265625, -0.01600000075995922, -0.08000000566244125, 1.055999994277954, 0.0, 0.0, 0.0, 0.0, 0.0, 1.6213383412112324E9, 2021-05-18 13:45:41.211
40.0, -38.18437957763672, 212.15704345703125, 5.290088653564453, -118.65767669677734, -0.01600000075995922, -0.08000000566244125, 1.055999994277954, 0.0, 0.0, 0.0, 0.0, 0.0, 1.6213383412112324E9, 2021-05-18 13:45:41.211
41.0, 8.377375602722168, 258.1989440917969, 52.0911979675293, -74.38848114013672, -0.01600000075995922, -0.08000000566244125, 1.055999994277954, 0.0, 0.0, 0.0, 0.0, 0.0, 1.6213383412269096E9, 2021-05-18 13:45:41.226
41.0, -11.833043098449707, 226.31256103515625, 20.49652099609375, -94.34832763671875, -0.01600000075995922, -0.08000000566244125, 1.055999994277954, 0.0, 0.0, 0.0, 0.0, 0.0, 1.6213383412269096E9, 2021-05-18 13:45:41.226
42.0, -63.48854064941406, 183.08680725097656, -29.674236297607422, -144.71356201171875, -0.01600000075995922, -0.08000000566244125, 1.055999994277954, 0.0, 0.0, 0.0, 0.0, 0.0, 1.6213383412276423E9, 2021-05-18 13:45:41.227
42.0, -32.74656295776367, 211.31556701660156, 5.177891254425049, -116.74284362792969, -0.01600000075995922, -0.08000000566244125, 1.055999994277954, 0.0, 0.0, 0.0, 0.0, 0.0, 1.6213383412276423E9, 2021-05-18 13:45:41.227
43.0, 5.239599704742432, 250.2928009033203, 52.068756103515625, -69.5041732788086, -0.01600000075995922, -0.08000000566244125, 1.055999994277954, 0.0, 0.0, 0.0, 0.0, 0.0, 1.621338341241294E9, 2021-05-18 13:45:41.241
43.0, -11.761985778808594, 227.07923889160156, 22.953636169433594, -95.71713256835938, -0.01600000075995922, -0.08000000566244125, 1.055999994277954, 0.0, 0.0, 0.0, 0.0, 0.0, 1.621338341241294E9, 2021-05-18 13:45:41.241
44.0, -63.118289947509766, 179.94154357910156, -32.95412826538086, -145.06884765625, -0.01600000075995922, -0.08000000566244125, 1.055999994277954, 0.0, 0.0, 0.0, 0.0, 0.0, 1.6213383412568734E9, 2021-05-18 13:45:41.256
44.0, -42.17485046386719, 207.1867218017578, -3.192004680633545, -112.19512939453125, -0.01600000075995922, -0.08000000566244125, 1.055999994277954, 0.0, 0.0, 0.0, 0.0, 0.0, 1.6213383412568734E9, 2021-05-18 13:45:41.256
45.0, 5.80058479309082, 256.5608825683594, 54.473514556884766, -58.471466064453125, -0.01600000075995922, -0.08000000566244125, 1.055999994277954, 0.0, 0.0, 0.0, 0.0, 0.0, 1.6213383412575784E9, 2021-05-18 13:45:41.257
45.0, -16.814590454101562, 232.97332763671875, 25.335952758789062, -85.61940002441406, -0.01600000075995922, -0.08000000566244125, 1.055999994277954, 0.0, 0.0, 0.0, 0.0, 0.0, 1.6213383412575784E9, 2021-05-18 13:45:41.257
46.0, -72.93553161621094, 182.95590209960938, -43.0181999206543, -136.91586303710938, -0.01600000075995922, -0.08000000566244125, 1.055999994277954, 0.0, 0.0, 0.0, 0.0, 0.0, 1.6213383412712371E9, 2021-05-18 13:45:41.271
46.0, -41.38573455810547, 210.38058471679688, -2.3580069541931152, -115.94998931884766, -0.01600000075995922, -0.08000000566244125, 1.055999994277954, 0.0, 0.0, 0.0, 0.0, 0.0, 1.6213383412712371E9, 2021-05-18 13:45:41.271
47.0, 9.24503231048584, 254.12620544433594, 54.48099136352539, -64.67595672607422, -0.01600000075995922, -0.08000000566244125, 1.055999994277954, 0.0, 0.0, 0.0, 0.0, 0.0, 1.621338341286866E9, 2021-05-18 13:45:41.286
47.0, -6.784178733825684, 227.2774658203125, 25.93807601928711, -94.52410125732422, -0.01600000075995922, -0.08000000566244125, 1.055999994277954, 0.0, 0.0, 0.0, 0.0, 0.0, 1.621338341286866E9, 2021-05-18 13:45:41.286
48.0, -58.72016906738281, 184.8370819091797, -22.62452507019043, -140.55853271484375, -0.01600000075995922, -0.08000000566244125, 1.055999994277954, 0.0, 0.0, 0.0, 0.0, 0.0, 1.6213383412875557E9, 2021-05-18 13:45:41.287
48.0, -34.758628845214844, 209.9318084716797, 6.636452674865723, -107.96530151367188, -0.01600000075995922, -0.08000000566244125, 1.055999994277954, 0.0, 0.0, 0.0, 0.0, 0.0, 1.6213383412875557E9, 2021-05-18 13:45:41.287
49.0, 10.864409446716309, 259.8856506347656, 54.357574462890625, -63.8569221496582, -0.01600000075995922, -0.08000000566244125, 1.055999994277954, 0.0, 0.0, 0.0, 0.0, 0.0, 1.6213383413175488E9, 2021-05-18 13:45:41.317
49.0, -7.8986687660217285, 229.82058715820312, 28.963655471801758, -92.28390502929688, -0.01600000075995922, -0.08000000566244125, 1.055999994277954, 0.0, 0.0, 0.0, 0.0, 0.0, 1.6213383413175488E9, 2021-05-18 13:45:41.317
50.0, -55.36922073364258, 178.62510681152344, -30.88222312927246, -147.7353973388672, -0.01600000075995922, -0.08000000566244125, 1.055999994277954, 0.0, 0.0, 0.0, 0.0, 0.0, 1.6213383413182626E9, 2021-05-18 13:45:41.318
50.0, -37.05867004394531, 204.4154510498047, 0.787248969078064, -116.0995864868164, -0.01600000075995922, -0.08000000566244125, 1.055999994277954, 0.0, 0.0, 0.0, 0.0, 0.0, 1.6213383413182626E9, 2021-05-18 13:45:41.318
51.0, 10.497899055480957, 262.6120300292969, 62.02437210083008, -60.35263442993164, -0.01600000075995922, -0.08000000566244125, 1.055999994277954, 0.0, 0.0, 0.0, 0.0, 0.0, 1.6213383413190784E9, 2021-05-18 13:45:41.319
51.0, -9.69382095336914, 233.59788513183594, 31.30109214782715, -82.30584716796875, -0.01600000075995922, -0.08000000566244125, 1.055999994277954, 0.0, 0.0, 0.0, 0.0, 0.0, 1.6213383413190784E9, 2021-05-18 13:45:41.319
52.0, -66.30842590332031, 179.4628448486328, -32.16127014160156, -135.8686981201172, -0.01600000075995922, -0.08000000566244125, 1.055999994277954, 0.0, 0.0, 0.0, 0.0, 0.0, 1.6213383413311148E9, 2021-05-18 13:45:41.331
52.0, -40.41709899902344, 204.24342346191406, 5.204070568084717, -103.6718978881836, -0.01600000075995922, -0.08000000566244125, 1.055999994277954, 0.0, 0.0, 0.0, 0.0, 0.0, 1.6213383413311148E9, 2021-05-18 13:45:41.331
53.0, 6.95621395111084, 259.6949157714844, 53.179508209228516, -53.9798469543457, -0.01600000075995922, -0.08000000566244125, 1.055999994277954, 0.0, 0.0, 0.0, 0.0, 0.0, 1.621338341346995E9, 2021-05-18 13:45:41.346
53.0, -18.677061080932617, 234.33465576171875, 16.184417724609375, -84.90507507324219, -0.01600000075995922, -0.08000000566244125, 1.055999994277954, 0.0, 0.0, 0.0, 0.0, 0.0, 1.621338341346995E9, 2021-05-18 13:45:41.346
54.0, -74.12107849121094, 184.4630889892578, -38.26104736328125, -140.10226440429688, -0.01600000075995922, -0.08000000566244125, 1.055999994277954, 0.0, 0.0, 0.0, 0.0, 0.0, 1.6213383413476768E9, 2021-05-18 13:45:41.347
54.0, -47.26859664916992, 213.4510498046875, -10.765301704406738, -112.57659912109375, -0.01600000075995922, -0.08000000566244125, 1.055999994277954, 0.0, 0.0, 0.0, 0.0, 0.0, 1.6213383413476768E9, 2021-05-18 13:45:41.347
55.0, -2.1915814876556396, 265.2673645019531, 42.490875244140625, -71.19086456298828, -0.01600000075995922, -0.08000000566244125, 1.055999994277954, 0.0, 0.0, 0.0, 0.0, 0.0, 1.6213383413766897E9, 2021-05-18 13:45:41.376
55.0, -19.159507751464844, 233.99058532714844, 13.839499473571777, -102.62472534179688, -0.01600000075995922, -0.08000000566244125, 1.055999994277954, 0.0, 0.0, 0.0, 0.0, 0.0, 1.6213383413766897E9, 2021-05-18 13:45:41.376
56.0, -68.73188018798828, 177.7200469970703, -38.38072204589844, -155.86593627929688, -0.01600000075995922, -0.08000000566244125, 1.055999994277954, 0.0, 0.0, 0.0, 0.0, 0.0, 1.6213383414087217E9, 2021-05-18 13:45:41.408
56.0, -41.08654022216797, 206.93988037109375, -6.729949951171875, -127.9027099609375, -0.01600000075995922, -0.08000000566244125, 1.055999994277954, 0.0, 0.0, 0.0, 0.0, 0.0, 1.6213383414087217E9, 2021-05-18 13:45:41.408
57.0, 8.983240127563477, 259.8295593261719, 55.236454010009766, -72.11836242675781, -0.01600000075995922, -0.08000000566244125, 1.055999994277954, 0.0, 0.0, 0.0, 0.0, 0.0, 1.6213383414094324E9, 2021-05-18 13:45:41.409
57.0, -7.879969120025635, 234.3122100830078, 31.648902893066406, -91.90617370605469, -0.01600000075995922, -0.08000000566244125, 1.055999994277954, 0.0, 0.0, 0.0, 0.0, 0.0, 1.6213383414094324E9, 2021-05-18 13:45:41.409
58.0, -58.061946868896484, 184.4855194091797, -30.145463943481445, -139.79933166503906, -0.01600000075995922, -0.08000000566244125, 1.055999994277954, 0.0, 0.0, 0.0, 0.0, 0.0, 1.6213383414102209E9, 2021-05-18 13:45:41.410
58.0, -31.927526473999023, 207.33631896972656, 5.7126970291137695, -106.20755004882812, -0.01600000075995922, -0.08000000566244125, 1.055999994277954, 0.0, 0.0, 0.0, 0.0, 0.0, 1.6213383414102209E9, 2021-05-18 13:45:41.410
59.0, 16.133928298950195, 260.06890869140625, 61.2464714050293, -54.53335189819336, -0.01600000075995922, -0.08000000566244125, 1.055999994277954, 0.0, 0.0, 0.0, 0.0, 0.0, 1.6213383414108481E9, 2021-05-18 13:45:41.410
59.0, -2.718907356262207, 235.68101501464844, 30.123023986816406, -83.30440521240234, -0.01600000075995922, -0.08000000566244125, 1.055999994277954, 0.0, 0.0, 0.0, 0.0, 0.0, 1.6213383414108481E9, 2021-05-18 13:45:41.410
60.0, -67.58373260498047, 180.1248016357422, -32.29590606689453, -138.7035369873047, -0.01600000075995922, -0.08000000566244125, 1.055999994277954, 0.0, 0.0, 0.0, 0.0, 0.0, 1.621338341421832E9, 2021-05-18 13:45:41.421
60.0, -39.8785514831543, 212.10842895507812, -5.024555683135986, -106.74235534667969, -0.01600000075995922, -0.08000000566244125, 1.055999994277954, 0.0, 0.0, 0.0, 0.0, 0.0, 1.621338341421832E9, 2021-05-18 13:45:41.421
61.0, 2.7076876163482666, 263.4572448730469, 46.91517639160156, -57.278438568115234, -0.01600000075995922, -0.08000000566244125, 1.055999994277954, 0.0, 0.0, 0.0, 0.0, 0.0, 1.6213383414225755E9, 2021-05-18 13:45:41.422
61.0, -15.789857864379883, 241.96778869628906, 26.65239715576172, -78.80530548095703, -0.01600000075995922, -0.08000000566244125, 1.055999994277954, 0.0, 0.0, 0.0, 0.0, 0.0, 1.6213383414225755E9, 2021-05-18 13:45:41.422
62.0, -67.58373260498047, 187.04360961914062, -34.16211700439453, -146.3516387939453, -0.01600000075995922, -0.08000000566244125, 1.055999994277954, 0.0, 0.0, 0.0, 0.0, 0.0, 1.6213383414366243E9, 2021-05-18 13:45:41.436
62.0, -39.38862609863281, 210.78823852539062, 4.646825790405273, -108.54498291015625, -0.01600000075995922, -0.08000000566244125, 1.055999994277954, 0.0, 0.0, 0.0, 0.0, 0.0, 1.6213383414366243E9, 2021-05-18 13:45:41.436
63.0, 5.404155254364014, 268.10968017578125, 54.840023040771484, -64.36554718017578, -0.01600000075995922, -0.08000000566244125, 1.055999994277954, 0.0, 0.0, 0.0, 0.0, 0.0, 1.6213383414519222E9, 2021-05-18 13:45:41.451
63.0, -17.693466186523438, 245.48329162597656, 23.55575942993164, -97.21308898925781, -0.01600000075995922, -0.08000000566244125, 1.055999994277954, 0.0, 0.0, 0.0, 0.0, 0.0, 1.6213383414519222E9, 2021-05-18 13:45:41.451
64.0, -73.00284576416016, 184.5042266845703, -31.11783790588379, -153.50979614257812, -0.01600000075995922, -0.08000000566244125, 1.055999994277954, 0.0, 0.0, 0.0, 0.0, 0.0, 1.621338341452668E9, 2021-05-18 13:45:41.452
64.0, -40.99678421020508, 209.65879821777344, 0.8508272171020508, -120.78568267822266, -0.01600000075995922, -0.08000000566244125, 1.055999994277954, 0.0, 0.0, 0.0, 0.0, 0.0, 1.621338341452668E9, 2021-05-18 13:45:41.452
65.0, 2.038245439529419, 261.36663818359375, 53.976104736328125, -71.90518951416016, -0.01600000075995922, -0.08000000566244125, 1.055999994277954, 0.0, 0.0, 0.0, 0.0, 0.0, 1.6213383414668152E9, 2021-05-18 13:45:41.466
65.0, -13.766571998596191, 231.8177032470703, 31.52548599243164, -98.04335021972656, -0.01600000075995922, -0.08000000566244125, 1.055999994277954, 0.0, 0.0, 0.0, 0.0, 0.0, 1.6213383414668152E9, 2021-05-18 13:45:41.466
66.0, -67.99512481689453, 181.07847595214844, -30.130504608154297, -147.873779296875, -0.01600000075995922, -0.08000000566244125, 1.055999994277954, 0.0, 0.0, 0.0, 0.0, 0.0, 1.621338341467534E9, 2021-05-18 13:45:41.467
66.0, -38.91740036010742, 216.02035522460938, 4.407472133636475, -117.25521087646484, -0.01600000075995922, -0.08000000566244125, 1.055999994277954, 0.0, 0.0, 0.0, 0.0, 0.0, 1.621338341467534E9, 2021-05-18 13:45:41.467
67.0, 7.405002117156982, 257.3761901855469, 53.14210891723633, -70.54012298583984, -0.01600000075995922, -0.08000000566244125, 1.055999994277954, 0.0, 0.0, 0.0, 0.0, 0.0, 1.621338341481923E9, 2021-05-18 13:45:41.481
67.0, -6.249372959136963, 227.89828491210938, 31.712482452392578, -92.83740997314453, -0.01600000075995922, -0.08000000566244125, 1.055999994277954, 0.0, 0.0, 0.0, 0.0, 0.0, 1.621338341481923E9, 2021-05-18 13:45:41.481
68.0, -53.66008377075195, 176.75515747070312, -25.526687622070312, -141.7178955078125, -0.01600000075995922, -0.08000000566244125, 1.055999994277954, 0.0, 0.0, 0.0, 0.0, 0.0, 1.6213383414973643E9, 2021-05-18 13:45:41.497
68.0, -24.746917724609375, 213.51463317871094, 1.1986379623413086, -109.91378784179688, -0.01600000075995922, -0.08000000566244125, 1.055999994277954, 0.0, 0.0, 0.0, 0.0, 0.0, 1.6213383414973643E9, 2021-05-18 13:45:41.497
69.0, 17.469072341918945, 265.79095458984375, 55.54312515258789, -57.71974563598633, -0.01600000075995922, -0.08000000566244125, 1.055999994277954, 0.0, 0.0, 0.0, 0.0, 0.0, 1.6213383415119293E9, 2021-05-18 13:45:41.511
69.0, -13.818930625915527, 226.79501342773438, 21.46515655517578, -91.96601104736328, -0.01600000075995922, -0.08000000566244125, 1.055999994277954, 0.0, 0.0, 0.0, 0.0, 0.0, 1.6213383415119293E9, 2021-05-18 13:45:41.511
70.0, -67.05640411376953, 177.01693725585938, -36.86980438232422, -142.29757690429688, -0.01600000075995922, -0.08000000566244125, 1.055999994277954, 0.0, 0.0, 0.0, 0.0, 0.0, 1.6213383415125473E9, 2021-05-18 13:45:41.512
70.0, -34.732452392578125, 209.4643096923828, 0.5553751587867737, -108.03636169433594, -0.01600000075995922, -0.08000000566244125, 1.055999994277954, 0.0, 0.0, 0.0, 0.0, 0.0, 1.6213383415125473E9, 2021-05-18 13:45:41.512
71.0, 10.505378723144531, 255.41273498535156, 54.39871597290039, -56.91566848754883, -0.01600000075995922, -0.08000000566244125, 1.055999994277954, 0.0, 0.0, 0.0, 0.0, 0.0, 1.6213383415268583E9, 2021-05-18 13:45:41.526
71.0, -15.217653274536133, 232.9621124267578, 26.29710578918457, -86.01209259033203, -0.01600000075995922, -0.08000000566244125, 1.055999994277954, 0.0, 0.0, 0.0, 0.0, 0.0, 1.6213383415268583E9, 2021-05-18 13:45:41.526
72.0, -67.09754180908203, 180.48757934570312, -35.18684768676758, -144.8182830810547, -0.01600000075995922, -0.08000000566244125, 1.055999994277954, 0.0, 0.0, 0.0, 0.0, 0.0, 1.6213383415275788E9, 2021-05-18 13:45:41.527
72.0, -40.47693634033203, 202.1715087890625, 2.679638385772705, -114.71955871582031, -0.01600000075995922, -0.08000000566244125, 1.055999994277954, 0.0, 0.0, 0.0, 0.0, 0.0, 1.6213383415275788E9, 2021-05-18 13:45:41.527
73.0, 5.6696882247924805, 257.8586120605469, 53.00373077392578, -68.00820922851562, -0.01600000075995922, -0.08000000566244125, 1.055999994277954, 0.0, 0.0, 0.0, 0.0, 0.0, 1.6213383415412269E9, 2021-05-18 13:45:41.541
73.0, -8.500792503356934, 236.15972900390625, 25.736122131347656, -88.9217300415039, -0.01600000075995922, -0.08000000566244125, 1.055999994277954, 0.0, 0.0, 0.0, 0.0, 0.0, 1.6213383415412269E9, 2021-05-18 13:45:41.541
74.0, -60.492881774902344, 185.96652221679688, -24.561792373657227, -139.5188446044922, -0.01600000075995922, -0.08000000566244125, 1.055999994277954, 0.0, 0.0, 0.0, 0.0, 0.0, 1.6213383415574207E9, 2021-05-18 13:45:41.557
74.0, -40.346038818359375, 212.45249938964844, 10.98969554901123, -113.23481750488281, -0.01600000075995922, -0.08000000566244125, 1.055999994277954, 0.0, 0.0, 0.0, 0.0, 0.0, 1.6213383415574207E9, 2021-05-18 13:45:41.557
75.0, 6.615882873535156, 259.9417419433594, 62.633975982666016, -63.636268615722656, -0.01600000075995922, -0.08000000566244125, 1.055999994277954, 0.0, 0.0, 0.0, 0.0, 0.0, 1.6213383415718508E9, 2021-05-18 13:45:41.571
75.0, -18.168434143066406, 230.85279846191406, 24.419675827026367, -100.15264892578125, -0.01600000075995922, -0.08000000566244125, 1.055999994277954, 0.0, 0.0, 0.0, 0.0, 0.0, 1.6213383415718508E9, 2021-05-18 13:45:41.571
76.0, -58.3349609375, 183.33737182617188, -25.964256286621094, -140.11721801757812, -0.01600000075995922, -0.08000000566244125, 1.055999994277954, 0.0, 0.0, 0.0, 0.0, 0.0, 1.6213383415725975E9, 2021-05-18 13:45:41.572
76.0, -31.55353546142578, 202.16403198242188, 3.3416006565093994, -114.80931854248047, -0.01600000075995922, -0.08000000566244125, 1.055999994277954, 0.0, 0.0, 0.0, 0.0, 0.0, 1.6213383415725975E9, 2021-05-18 13:45:41.572
77.0, 17.498991012573242, 254.73207092285156, 61.26143264770508, -60.7939453125, -0.01600000075995922, -0.08000000566244125, 1.055999994277954, 0.0, 0.0, 0.0, 0.0, 0.0, 1.6213383415868928E9, 2021-05-18 13:45:41.586
77.0, -9.24503231048584, 231.8064727783203, 29.001054763793945, -85.73907470703125, -0.01600000075995922, -0.08000000566244125, 1.055999994277954, 0.0, 0.0, 0.0, 0.0, 0.0, 1.6213383415868928E9, 2021-05-18 13:45:41.586
78.0, -62.39274978637695, 178.27354431152344, -23.64925765991211, -139.75071716308594, -0.01600000075995922, -0.08000000566244125, 1.055999994277954, 0.0, 0.0, 0.0, 0.0, 0.0, 1.621338341587582E9, 2021-05-18 13:45:41.587
78.0, -36.02645492553711, 204.86050415039062, 11.318807601928711, -110.44111633300781, -0.01600000075995922, -0.08000000566244125, 1.055999994277954, 0.0, 0.0, 0.0, 0.0, 0.0, 1.621338341587582E9, 2021-05-18 13:45:41.587
79.0, 4.585117340087891, 263.67791748046875, 61.051998138427734, -66.96477508544922, -0.01600000075995922, -0.08000000566244125, 1.055999994277954, 0.0, 0.0, 0.0, 0.0, 0.0, 1.621338341617494E9, 2021-05-18 13:45:41.617
79.0, -16.1040096282959, 235.42295837402344, 24.591712951660156, -90.23443603515625, -0.01600000075995922, -0.08000000566244125, 1.055999994277954, 0.0, 0.0, 0.0, 0.0, 0.0, 1.621338341617494E9, 2021-05-18 13:45:41.617
80.0, -66.94420623779297, 187.38768005371094, -25.575305938720703, -135.326416015625, -0.01600000075995922, -0.08000000566244125, 1.055999994277954, 0.0, 0.0, 0.0, 0.0, 0.0, 1.6213383416330464E9, 2021-05-18 13:45:41.633
80.0, -45.15181350708008, 220.16043090820312, 9.056167602539062, -109.4986572265625, -0.01600000075995922, -0.08000000566244125, 1.055999994277954, 0.0, 0.0, 0.0, 0.0, 0.0, 1.6213383416330464E9, 2021-05-18 13:45:41.633
81.0, -2.4421546459198, 270.7837219238281, 56.69501495361328, -67.04331970214844, -0.01600000075995922, -0.08000000566244125, 1.055999994277954, 0.0, 0.0, 0.0, 0.0, 0.0, 1.621338341633687E9, 2021-05-18 13:45:41.633
81.0, -24.500083923339844, 239.29750061035156, 21.618492126464844, -99.15409851074219, -0.01600000075995922, -0.08000000566244125, 1.055999994277954, 0.0, 0.0, 0.0, 0.0, 0.0, 1.621338341633687E9, 2021-05-18 13:45:41.633
82.0, -73.1487045288086, 181.80775451660156, -30.64286994934082, -150.47674560546875, -0.01600000075995922, -0.08000000566244125, 1.055999994277954, 0.0, 0.0, 0.0, 0.0, 0.0, 1.6213383416344368E9, 2021-05-18 13:45:41.634
82.0, -44.063499450683594, 216.89549255371094, 2.5861408710479736, -120.3780288696289, -0.01600000075995922, -0.08000000566244125, 1.055999994277954, 0.0, 0.0, 0.0, 0.0, 0.0, 1.6213383416344368E9, 2021-05-18 13:45:41.634
83.0, 4.850650310516357, 262.5821228027344, 58.06755828857422, -65.48751831054688, -0.01600000075995922, -0.08000000566244125, 1.055999994277954, 0.0, 0.0, 0.0, 0.0, 0.0, 1.6213383416468818E9, 2021-05-18 13:45:41.646
83.0, -15.737499237060547, 231.3838653564453, 28.75048065185547, -99.9207763671875, -0.01600000075995922, -0.08000000566244125, 1.055999994277954, 0.0, 0.0, 0.0, 0.0, 0.0, 1.6213383416468818E9, 2021-05-18 13:45:41.646
84.0, -58.0469856262207, 179.9527587890625, -27.15354347229004, -149.0630645751953, -0.01600000075995922, -0.08000000566244125, 1.055999994277954, 0.0, 0.0, 0.0, 0.0, 0.0, 1.6213383416475432E9, 2021-05-18 13:45:41.647
84.0, -35.85816192626953, 212.28794860839844, 3.3752596378326416, -120.40046691894531, -0.01600000075995922, -0.08000000566244125, 1.055999994277954, 0.0, 0.0, 0.0, 0.0, 0.0, 1.6213383416475432E9, 2021-05-18 13:45:41.647
85.0, 9.933174133300781, 256.6543884277344, 50.6475944519043, -73.55448150634766, -0.01600000075995922, -0.08000000566244125, 1.055999994277954, 0.0, 0.0, 0.0, 0.0, 0.0, 1.621338341677566E9, 2021-05-18 13:45:41.677
85.0, -13.875028610229492, 230.359130859375, 17.06329345703125, -98.13310241699219, -0.01600000075995922, -0.08000000566244125, 1.055999994277954, 0.0, 0.0, 0.0, 0.0, 0.0, 1.621338341677566E9, 2021-05-18 13:45:41.677
86.0, -56.85770034790039, 182.7202911376953, -30.182863235473633, -142.76507568359375, -0.01600000075995922, -0.08000000566244125, 1.055999994277954, 0.0, 0.0, 0.0, 0.0, 0.0, 1.621338341678255E9, 2021-05-18 13:45:41.678
86.0, -41.28475570678711, 214.7974090576172, -2.350527048110962, -113.97905731201172, -0.01600000075995922, -0.08000000566244125, 1.055999994277954, 0.0, 0.0, 0.0, 0.0, 0.0, 1.621338341678255E9, 2021-05-18 13:45:41.678
87.0, 3.1976144313812256, 264.39971923828125, 56.39208221435547, -72.08096313476562, -0.01600000075995922, -0.08000000566244125, 1.055999994277954, 0.0, 0.0, 0.0, 0.0, 0.0, 1.6213383416790185E9, 2021-05-18 13:45:41.679
87.0, -17.970218658447266, 230.27685546875, 19.714881896972656, -97.5683822631836, -0.01600000075995922, -0.08000000566244125, 1.055999994277954, 0.0, 0.0, 0.0, 0.0, 0.0, 1.6213383416790185E9, 2021-05-18 13:45:41.679
88.0, -67.2508773803711, 193.58470153808594, -29.326425552368164, -142.8997039794922, -0.01600000075995922, -0.08000000566244125, 1.055999994277954, 0.0, 0.0, 0.0, 0.0, 0.0, 1.621338341691262E9, 2021-05-18 13:45:41.691
88.0, -39.930912017822266, 217.88282775878906, -1.7409234046936035, -114.2296371459961, -0.01600000075995922, -0.08000000566244125, 1.055999994277954, 0.0, 0.0, 0.0, 0.0, 0.0, 1.621338341691262E9, 2021-05-18 13:45:41.691
89.0, -0.8339976668357849, 261.9014587402344, 52.14729690551758, -71.56859588623047, -0.01600000075995922, -0.08000000566244125, 1.055999994277954, 0.0, 0.0, 0.0, 0.0, 0.0, 1.621338341706918E9, 2021-05-18 13:45:41.706
89.0, -17.730865478515625, 239.67897033691406, 22.931196212768555, -98.19668579101562, -0.01600000075995922, -0.08000000566244125, 1.055999994277954, 0.0, 0.0, 0.0, 0.0, 0.0, 1.621338341706918E9, 2021-05-18 13:45:41.706
90.0, -66.61883544921875, 193.0124969482422, -33.15234375, -143.13531494140625, -0.01600000075995922, -0.08000000566244125, 1.055999994277954, 0.0, 0.0, 0.0, 0.0, 0.0, 1.621338341707569E9, 2021-05-18 13:45:41.707
90.0, -46.77866744995117, 217.06005859375, -1.5464485883712769, -113.0889663696289, -0.01600000075995922, -0.08000000566244125, 1.055999994277954, 0.0, 0.0, 0.0, 0.0, 0.0, 1.621338341707569E9, 2021-05-18 13:45:41.707
91.0, -0.6881415843963623, 266.96527099609375, 49.71261978149414, -67.86609649658203, -0.01600000075995922, -0.08000000566244125, 1.055999994277954, 0.0, 0.0, 0.0, 0.0, 0.0, 1.6213383417376459E9, 2021-05-18 13:45:41.737
91.0, -22.951766967773438, 232.1804656982422, 15.107325553894043, -101.16990661621094, -0.01600000075995922, -0.08000000566244125, 1.055999994277954, 0.0, 0.0, 0.0, 0.0, 0.0, 1.6213383417376459E9, 2021-05-18 13:45:41.737
92.0, -68.41773223876953, 184.35089111328125, -31.394590377807617, -148.42727661132812, -0.01600000075995922, -0.08000000566244125, 1.055999994277954, 0.0, 0.0, 0.0, 0.0, 0.0, 1.6213383417383423E9, 2021-05-18 13:45:41.738
92.0, -39.7551383972168, 213.08453369140625, 2.4515044689178467, -116.90740203857422, -0.01600000075995922, -0.08000000566244125, 1.055999994277954, 0.0, 0.0, 0.0, 0.0, 0.0, 1.6213383417383423E9, 2021-05-18 13:45:41.738
93.0, 9.779838562011719, 268.3228759765625, 59.73929214477539, -66.69550323486328, -0.01600000075995922, -0.08000000566244125, 1.055999994277954, 0.0, 0.0, 0.0, 0.0, 0.0, 1.6213383417390893E9, 2021-05-18 13:45:41.739
93.0, -9.346010208129883, 234.67872619628906, 27.68461036682129, -93.51806640625, -0.01600000075995922, -0.08000000566244125, 1.055999994277954, 0.0, 0.0, 0.0, 0.0, 0.0, 1.6213383417390893E9, 2021-05-18 13:45:41.739
94.0, -61.65972900390625, 185.6299285888672, -27.164762496948242, -149.0630645751953, -0.01600000075995922, -0.08000000566244125, 1.055999994277954, 0.0, 0.0, 0.0, 0.0, 0.0, 1.6213383417511337E9, 2021-05-18 13:45:41.751
94.0, -32.286556243896484, 211.3417510986328, 1.5501885414123535, -120.99510955810547, -0.01600000075995922, -0.08000000566244125, 1.055999994277954, 0.0, 0.0, 0.0, 0.0, 0.0, 1.6213383417511337E9, 2021-05-18 13:45:41.751
95.0, 11.86296272277832, 258.43829345703125, 50.35588455200195, -70.3531265258789, -0.01600000075995922, -0.08000000566244125, 1.055999994277954, 0.0, 0.0, 0.0, 0.0, 0.0, 1.6213383417668586E9, 2021-05-18 13:45:41.766
95.0, -16.75849151611328, 228.69488525390625, 20.8218936920166, -100.6238784790039, -0.01600000075995922, -0.08000000566244125, 1.055999994277954, 0.0, 0.0, 0.0, 0.0, 0.0, 1.6213383417668586E9, 2021-05-18 13:45:41.766
96.0, -67.50145721435547, 182.76890563964844, -29.917329788208008, -149.76242065429688, -0.01600000075995922, -0.08000000566244125, 1.055999994277954, 0.0, 0.0, 0.0, 0.0, 0.0, 1.6213383417675786E9, 2021-05-18 13:45:41.767
96.0, -45.93345260620117, 210.50027465820312, -5.121792793273926, -128.0410919189453, -0.01600000075995922, -0.08000000566244125, 1.055999994277954, 0.0, 0.0, 0.0, 0.0, 0.0, 1.6213383417675786E9, 2021-05-18 13:45:41.767
97.0, -1.8849096298217773, 258.0456237792969, 51.23476028442383, -77.02136993408203, -0.01600000075995922, -0.08000000566244125, 1.055999994277954, 0.0, 0.0, 0.0, 0.0, 0.0, 1.6213383417975864E9, 2021-05-18 13:45:41.797
97.0, -19.49983787536621, 229.8692169189453, 24.58049201965332, -104.64427185058594, -0.01600000075995922, -0.08000000566244125, 1.055999994277954, 0.0, 0.0, 0.0, 0.0, 0.0, 1.6213383417975864E9, 2021-05-18 13:45:41.797
98.0, -68.9749755859375, 184.23495483398438, -30.72140884399414, -154.29144287109375, -0.01600000075995922, -0.08000000566244125, 1.055999994277954, 0.0, 0.0, 0.0, 0.0, 0.0, 1.6213383417982452E9, 2021-05-18 13:45:41.798
98.0, -43.6334114074707, 218.152099609375, -0.37585994601249695, -121.95626831054688, -0.01600000075995922, -0.08000000566244125, 1.055999994277954, 0.0, 0.0, 0.0, 0.0, 0.0, 1.6213383417982452E9, 2021-05-18 13:45:41.798
99.0, 6.821577548980713, 260.9515075683594, 54.31269836425781, -71.4339599609375, -0.01600000075995922, -0.08000000566244125, 1.055999994277954, 0.0, 0.0, 0.0, 0.0, 0.0, 1.621338341798977E9, 2021-05-18 13:45:41.798
99.0, -8.310057640075684, 238.13812255859375, 25.440670013427734, -95.54135131835938, -0.01600000075995922, -0.08000000566244125, 1.055999994277954, 0.0, 0.0, 0.0, 0.0, 0.0, 1.621338341798977E9, 2021-05-18 13:45:41.798
100.0, -60.48166275024414, 178.43063354492188, -23.619338989257812, -145.3717803955078, -0.01600000075995922, -0.08000000566244125, 1.055999994277954, 0.0, 0.0, 0.0, 0.0, 0.0, 1.6213383418118968E9, 2021-05-18 13:45:41.811
100.0, -31.587194442749023, 215.1564483642578, 8.906571388244629, -115.80786895751953, -0.01600000075995922, -0.08000000566244125, 1.055999994277954, 0.0, 0.0, 0.0, 0.0, 0.0, 1.6213383418118968E9, 2021-05-18 13:45:41.811
0.0, 11.156121253967285, 274.2618103027344, 59.671974182128906, -62.8826789855957, -0.01600000075995922, -0.08000000566244125, 1.055999994277954, 0.0, 0.0, 0.0, 0.0, 0.0, 1.621338341812605E9, 2021-05-18 13:45:41.812
1.0, -10.625055313110352, 240.18011474609375, 29.621877670288086, -93.99864196777344, -0.01600000075995922, -0.08000000566244125, 1.055999994277954, 0.0, 0.0, 0.0, 0.0, 0.0, 1.621338341826304E9, 2021-05-18 13:45:41.826
1.0, -60.94166946411133, 186.81922912597656, -17.8411922454834, -140.91943359375, -0.01600000075995922, -0.08000000566244125, 1.055999994277954, 0.0, 0.0, 0.0, 0.0, 0.0, 1.621338341826304E9, 2021-05-18 13:45:41.826
2.0, -34.30236053466797, 220.59051513671875, 10.735383033752441, -111.99878692626953, -0.01600000075995922, -0.08000000566244125, 1.055999994277954, 0.0, 0.0, 0.0, 0.0, 0.0, 1.6213383418425815E9, 2021-05-18 13:45:41.842
2.0, 18.276891708374023, 265.6114196777344, 64.19351196289062, -54.295867919921875, -0.01600000075995922, -0.08000000566244125, 1.055999994277954, 0.0, 0.0, 0.0, 0.0, 0.0, 1.6213383418425815E9, 2021-05-18 13:45:41.842
3.0, -8.407295227050781, 229.3119659423828, 35.463600158691406, -85.92046356201172, -0.01600000075995922, -0.08000000566244125, 1.055999994277954, 0.0, 0.0, 0.0, 0.0, 0.0, 1.6213383418432877E9, 2021-05-18 13:45:41.843
3.0, -60.89305114746094, 182.5894012451172, -26.667356491088867, -139.0980987548828, -0.01600000075995922, -0.08000000566244125, 1.055999994277954, 0.0, 0.0, 0.0, 0.0, 0.0, 1.6213383418432877E9, 2021-05-18 13:45:41.843
4.0, -38.158199310302734, 213.76519775390625, 2.219630718231201, -113.46856689453125, -0.01600000075995922, -0.08000000566244125, 1.055999994277954, 0.0, 0.0, 0.0, 0.0, 0.0, 1.6213383418562424E9, 2021-05-18 13:45:41.856
4.0, 3.7099807262420654, 266.6922607421875, 58.76691818237305, -59.50554656982422, -0.01600000075995922, -0.08000000566244125, 1.055999994277954, 0.0, 0.0, 0.0, 0.0, 0.0, 1.6213383418562424E9, 2021-05-18 13:45:41.856
5.0, -16.347103118896484, 237.00494384765625, 29.51342010498047, -96.05184936523438, -0.01600000075995922, -0.08000000566244125, 1.055999994277954, 0.0, 0.0, 0.0, 0.0, 0.0, 1.62133834187186E9, 2021-05-18 13:45:41.871
5.0, -59.96555709838867, 184.01429748535156, -20.66107749938965, -139.26638793945312, -0.01600000075995922, -0.08000000566244125, 1.055999994277954, 0.0, 0.0, 0.0, 0.0, 0.0, 1.62133834187186E9, 2021-05-18 13:45:41.871
6.0, -41.6737060546875, 208.30868530273438, 5.9857096672058105, -114.46711730957031, -0.01600000075995922, -0.08000000566244125, 1.055999994277954, 0.0, 0.0, 0.0, 0.0, 0.0, 1.6213383418725762E9, 2021-05-18 13:45:41.872
6.0, 12.352890014648438, 259.0852966308594, 58.87163543701172, -64.02708435058594, -0.01600000075995922, -0.08000000566244125, 1.055999994277954, 0.0, 0.0, 0.0, 0.0, 0.0, 1.6213383418725762E9, 2021-05-18 13:45:41.872
7.0, -11.148641586303711, 229.12123107910156, 27.27322006225586, -92.1436538696289, -0.01600000075995922, -0.08000000566244125, 1.055999994277954, 0.0, 0.0, 0.0, 0.0, 0.0, 1.6213383418862894E9, 2021-05-18 13:45:41.886
7.0, -69.59954071044922, 181.75540161132812, -30.19782257080078, -144.9136505126953, -0.01600000075995922, -0.08000000566244125, 1.055999994277954, 0.0, 0.0, 0.0, 0.0, 0.0, 1.6213383418862894E9, 2021-05-18 13:45:41.886
8.0, -37.810386657714844, 208.9108123779297, 4.310234546661377, -110.34201049804688, -0.01600000075995922, -0.08000000566244125, 1.055999994277954, 0.0, 0.0, 0.0, 0.0, 0.0, 1.6213383419018056E9, 2021-05-18 13:45:41.901
8.0, 10.39692211151123, 258.47943115234375, 59.14838790893555, -61.73078918457031, -0.01600000075995922, -0.08000000566244125, 1.055999994277954, 0.0, 0.0, 0.0, 0.0, 0.0, 1.6213383419018056E9, 2021-05-18 13:45:41.901
9.0, -14.80626392364502, 228.65374755859375, 20.81441307067871, -97.31219482421875, -0.01600000075995922, -0.08000000566244125, 1.055999994277954, 0.0, 0.0, 0.0, 0.0, 0.0, 1.6213383419025497E9, 2021-05-18 13:45:41.902
9.0, -62.90511703491211, 177.2450714111328, -29.74529457092285, -142.22091674804688, -0.01600000075995922, -0.08000000566244125, 1.055999994277954, 0.0, 0.0, 0.0, 0.0, 0.0, 1.6213383419025497E9, 2021-05-18 13:45:41.902
10.0, -33.12429428100586, 204.26585388183594, 3.9923431873321533, -114.30630493164062, -0.01600000075995922, -0.08000000566244125, 1.055999994277954, 0.0, 0.0, 0.0, 0.0, 0.0, 1.6213383419162576E9, 2021-05-18 13:45:41.916
10.0, 12.753058433532715, 255.7642822265625, 55.8460578918457, -60.32832717895508, -0.01600000075995922, -0.08000000566244125, 1.055999994277954, 0.0, 0.0, 0.0, 0.0, 0.0, 1.6213383419162576E9, 2021-05-18 13:45:41.916
11.0, -16.395721435546875, 228.0441436767578, 25.003101348876953, -95.22159576416016, -0.01600000075995922, -0.08000000566244125, 1.055999994277954, 0.0, 0.0, 0.0, 0.0, 0.0, 1.6213383419318073E9, 2021-05-18 13:45:41.931
11.0, -64.18416595458984, 180.7718048095703, -30.59425163269043, -147.41563415527344, -0.01600000075995922, -0.08000000566244125, 1.055999994277954, 0.0, 0.0, 0.0, 0.0, 0.0, 1.6213383419318073E9, 2021-05-18 13:45:41.931
12.0, -36.7445182800293, 207.55322265625, 1.7184840440750122, -116.91675567626953, -0.01600000075995922, -0.08000000566244125, 1.055999994277954, 0.0, 0.0, 0.0, 0.0, 0.0, 1.621338341932549E9, 2021-05-18 13:45:41.932
12.0, 10.310904502868652, 263.9696044921875, 57.83942413330078, -64.6778335571289, -0.01600000075995922, -0.08000000566244125, 1.055999994277954, 0.0, 0.0, 0.0, 0.0, 0.0, 1.621338341932549E9, 2021-05-18 13:45:41.932
13.0, -22.77972984313965, 231.1220703125, 12.081747055053711, -100.8314437866211, -0.01600000075995922, -0.08000000566244125, 1.055999994277954, 0.0, 0.0, 0.0, 0.0, 0.0, 1.6213383419463403E9, 2021-05-18 13:45:41.946
13.0, -70.4410171508789, 180.67831420898438, -38.88935089111328, -146.02066040039062, -0.01600000075995922, -0.08000000566244125, 1.055999994277954, 0.0, 0.0, 0.0, 0.0, 0.0, 1.6213383419463403E9, 2021-05-18 13:45:41.946
14.0, -33.113075256347656, 208.9706573486328, -2.238330125808716, -111.58365631103516, -0.01600000075995922, -0.08000000566244125, 1.055999994277954, 0.0, 0.0, 0.0, 0.0, 0.0, 1.6213383419618149E9, 2021-05-18 13:45:41.961
14.0, 8.639168739318848, 257.59307861328125, 50.453121185302734, -62.94625473022461, -0.01600000075995922, -0.08000000566244125, 1.055999994277954, 0.0, 0.0, 0.0, 0.0, 0.0, 1.6213383419618149E9, 2021-05-18 13:45:41.961
15.0, -14.16300106048584, 226.29013061523438, 16.577106475830078, -91.56397247314453, -0.01600000075995922, -0.08000000566244125, 1.055999994277954, 0.0, 0.0, 0.0, 0.0, 0.0, 1.62133834196265E9, 2021-05-18 13:45:41.962
15.0, -63.11081314086914, 177.2974395751953, -35.94978713989258, -142.50140380859375, -0.01600000075995922, -0.08000000566244125, 1.055999994277954, 0.0, 0.0, 0.0, 0.0, 0.0, 1.62133834196265E9, 2021-05-18 13:45:41.962
16.0, -34.31358337402344, 204.4341583251953, -1.8531204462051392, -108.44587707519531, -0.01600000075995922, -0.08000000566244125, 1.055999994277954, 0.0, 0.0, 0.0, 0.0, 0.0, 1.6213383419761548E9, 2021-05-18 13:45:41.976
16.0, 9.398368835449219, 254.6049041748047, 53.05234909057617, -65.74369812011719, -0.01600000075995922, -0.08000000566244125, 1.055999994277954, 0.0, 0.0, 0.0, 0.0, 0.0, 1.6213383419761548E9, 2021-05-18 13:45:41.976
17.0, -16.489219665527344, 220.93084716796875, 19.456829071044922, -97.1438980102539, -0.01600000075995922, -0.08000000566244125, 1.055999994277954, 0.0, 0.0, 0.0, 0.0, 0.0, 1.621338341991927E9, 2021-05-18 13:45:41.991
17.0, -67.68844604492188, 175.27041625976562, -39.188541412353516, -146.44326782226562, -0.01600000075995922, -0.08000000566244125, 1.055999994277954, 0.0, 0.0, 0.0, 0.0, 0.0, 1.621338341991927E9, 2021-05-18 13:45:41.991
18.0, -36.531341552734375, 210.67977905273438, 5.809934616088867, -113.8014144897461, -0.01600000075995922, -0.08000000566244125, 1.055999994277954, 0.0, 0.0, 0.0, 0.0, 0.0, 1.6213383419926648E9, 2021-05-18 13:45:41.992
18.0, 12.068656921386719, 257.2826843261719, 55.9470329284668, -63.61943817138672, -0.01600000075995922, -0.08000000566244125, 1.055999994277954, 0.0, 0.0, 0.0, 0.0, 0.0, 1.6213383419926648E9, 2021-05-18 13:45:41.992
19.0, -18.61722183227539, 224.23318481445312, 18.035667419433594, -98.22099304199219, -0.01600000075995922, -0.08000000566244125, 1.055999994277954, 0.0, 0.0, 0.0, 0.0, 0.0, 1.621338342006184E9, 2021-05-18 13:45:42.006
19.0, -64.3375015258789, 174.29803466796875, -34.38650894165039, -145.57186889648438, -0.01600000075995922, -0.08000000566244125, 1.055999994277954, 0.0, 0.0, 0.0, 0.0, 0.0, 1.621338342006184E9, 2021-05-18 13:45:42.006
20.0, -36.056373596191406, 214.71139526367188, 3.1284263134002686, -107.52212524414062, -0.01600000075995922, -0.08000000566244125, 1.055999994277954, 0.0, 0.0, 0.0, 0.0, 0.0, 1.6213383420219245E9, 2021-05-18 13:45:42.021
20.0, 11.309457778930664, 256.8899841308594, 61.40354919433594, -57.257869720458984, -0.01600000075995922, -0.08000000566244125, 1.055999994277954, 0.0, 0.0, 0.0, 0.0, 0.0, 1.6213383420219245E9, 2021-05-18 13:45:42.021
21.0, -16.20124626159668, 222.55770874023438, 22.321592330932617, -89.19661712646484, -0.01600000075995922, -0.08000000566244125, 1.055999994277954, 0.0, 0.0, 0.0, 0.0, 0.0, 1.621338342022636E9, 2021-05-18 13:45:42.022
21.0, -58.22276306152344, 170.28512573242188, -23.701616287231445, -131.5846405029297, -0.01600000075995922, -0.08000000566244125, 1.055999994277954, 0.0, 0.0, 0.0, 0.0, 0.0, 1.621338342022636E9, 2021-05-18 13:45:42.022
22.0, -35.693603515625, 197.4293212890625, 6.460677146911621, -105.04257202148438, -0.01600000075995922, -0.08000000566244125, 1.055999994277954, 0.0, 0.0, 0.0, 0.0, 0.0, 1.621338342036156E9, 2021-05-18 13:45:42.036
22.0, 15.150334358215332, 256.7740478515625, 60.999637603759766, -55.350521087646484, -0.01600000075995922, -0.08000000566244125, 1.055999994277954, 0.0, 0.0, 0.0, 0.0, 0.0, 1.621338342036156E9, 2021-05-18 13:45:42.036
23.0, -12.259391784667969, 218.55975341796875, 22.94241714477539, -90.38964080810547, -0.01600000075995922, -0.08000000566244125, 1.055999994277954, 0.0, 0.0, 0.0, 0.0, 0.0, 1.6213383420519776E9, 2021-05-18 13:45:42.051
23.0, -63.09585189819336, 174.08860778808594, -28.15583610534668, -134.0043487548828, -0.01600000075995922, -0.08000000566244125, 1.055999994277954, 0.0, 0.0, 0.0, 0.0, 0.0, 1.6213383420519776E9, 2021-05-18 13:45:42.051
24.0, -37.12224578857422, 209.0417022705078, 6.2026238441467285, -104.61248016357422, -0.01600000075995922, -0.08000000566244125, 1.055999994277954, 0.0, 0.0, 0.0, 0.0, 0.0, 1.621338342052706E9, 2021-05-18 13:45:42.052
24.0, 12.831596374511719, 258.58416748046875, 59.350341796875, -55.94890213012695, -0.01600000075995922, -0.08000000566244125, 1.055999994277954, 0.0, 0.0, 0.0, 0.0, 0.0, 1.621338342052706E9, 2021-05-18 13:45:42.052
25.0, -14.641708374023438, 223.09999084472656, 18.701370239257812, -93.46758270263672, -0.01600000075995922, -0.08000000566244125, 1.055999994277954, 0.0, 0.0, 0.0, 0.0, 0.0, 1.62133834208265E9, 2021-05-18 13:45:42.082
25.0, -61.8504638671875, 172.2036895751953, -37.15029525756836, -143.5111846923828, -0.01600000075995922, -0.08000000566244125, 1.055999994277954, 0.0, 0.0, 0.0, 0.0, 0.0, 1.62133834208265E9, 2021-05-18 13:45:42.082
26.0, -37.62339401245117, 205.9413299560547, 1.0901808738708496, -110.63372039794922, -0.01600000075995922, -0.08000000566244125, 1.055999994277954, 0.0, 0.0, 0.0, 0.0, 0.0, 1.621338342083419E9, 2021-05-18 13:45:42.083
26.0, 9.218852996826172, 256.9273986816406, 51.272159576416016, -64.91718292236328, -0.01600000075995922, -0.08000000566244125, 1.055999994277954, 0.0, 0.0, 0.0, 0.0, 0.0, 1.621338342083419E9, 2021-05-18 13:45:42.083
27.0, -17.192319869995117, 226.61175537109375, 15.903924942016602, -101.70658111572266, -0.01600000075995922, -0.08000000566244125, 1.055999994277954, 0.0, 0.0, 0.0, 0.0, 0.0, 1.621338342084041E9, 2021-05-18 13:45:42.084
27.0, -61.37923812866211, 180.2482147216797, -27.602331161499023, -145.60552978515625, -0.01600000075995922, -0.08000000566244125, 1.055999994277954, 0.0, 0.0, 0.0, 0.0, 0.0, 1.621338342084041E9, 2021-05-18 13:45:42.084
28.0, -33.84983444213867, 204.81936645507812, 2.8554136753082275, -119.05223846435547, -0.01600000075995922, -0.08000000566244125, 1.055999994277954, 0.0, 0.0, 0.0, 0.0, 0.0, 1.6213383420963085E9, 2021-05-18 13:45:42.096
28.0, 11.687187194824219, 254.7806854248047, 58.886592864990234, -64.87604522705078, -0.01600000075995922, -0.08000000566244125, 1.055999994277954, 0.0, 0.0, 0.0, 0.0, 0.0, 1.6213383420963085E9, 2021-05-18 13:45:42.096
29.0, -12.487525939941406, 226.73516845703125, 19.7186222076416, -99.2644271850586, -0.01600000075995922, -0.08000000566244125, 1.055999994277954, 0.0, 0.0, 0.0, 0.0, 0.0, 1.6213383421119273E9, 2021-05-18 13:45:42.111
29.0, -61.92152404785156, 179.08885192871094, -31.79475975036621, -146.6414794921875, -0.01600000075995922, -0.08000000566244125, 1.055999994277954, 0.0, 0.0, 0.0, 0.0, 0.0, 1.6213383421119273E9, 2021-05-18 13:45:42.111
30.0, -31.108488082885742, 208.37974548339844, 8.042654991149902, -110.95909118652344, -0.01600000075995922, -0.08000000566244125, 1.040000081062317, 0.0, 0.0, 0.0, 0.0, 0.0, 1.6213383421125998E9, 2021-05-18 13:45:42.112
30.0, 11.021485328674316, 255.21824645996094, 55.01205825805664, -70.24654388427734, -0.01600000075995922, -0.08000000566244125, 1.040000081062317, 0.0, 0.0, 0.0, 0.0, 0.0, 1.6213383421125998E9, 2021-05-18 13:45:42.112
31.0, -15.68887996673584, 225.73287963867188, 18.319900512695312, -97.45805358886719, -0.01600000075995922, -0.08000000566244125, 1.040000081062317, 0.0, 0.0, 0.0, 0.0, 0.0, 1.6213383421263597E9, 2021-05-18 13:45:42.126
31.0, -61.76070785522461, 179.07388305664062, -33.515113830566406, -144.40501403808594, -0.01600000075995922, -0.08000000566244125, 1.040000081062317, 0.0, 0.0, 0.0, 0.0, 0.0, 1.6213383421263597E9, 2021-05-18 13:45:42.126
32.0, -41.43061065673828, 206.55093383789062, -1.060261607170105, -117.63481140136719, -0.01600000075995922, -0.08000000566244125, 1.040000081062317, 0.0, 0.0, 0.0, 0.0, 0.0, 1.6213383421416445E9, 2021-05-18 13:45:42.141
32.0, 11.788165092468262, 267.2270812988281, 58.20219421386719, -62.306732177734375, -0.01600000075995922, -0.08000000566244125, 1.040000081062317, 0.0, 0.0, 0.0, 0.0, 0.0, 1.6213383421416445E9, 2021-05-18 13:45:42.141
33.0, -19.350242614746094, 228.99407958984375, 20.283348083496094, -97.66374969482422, -0.01600000075995922, -0.08000000566244125, 1.040000081062317, 0.0, 0.0, 0.0, 0.0, 0.0, 1.621338342156903E9, 2021-05-18 13:45:42.156
33.0, -65.06678009033203, 179.64984130859375, -29.072113037109375, -146.9668426513672, -0.01600000075995922, -0.08000000566244125, 1.040000081062317, 0.0, 0.0, 0.0, 0.0, 0.0, 1.621338342156903E9, 2021-05-18 13:45:42.156
34.0, -37.04370880126953, 215.21253967285156, 6.513035774230957, -120.75015258789062, -0.01600000075995922, -0.08000000566244125, 1.040000081062317, 0.0, 0.0, 0.0, 0.0, 0.0, 1.6213383421576858E9, 2021-05-18 13:45:42.157
34.0, 9.461946487426758, 269.37750244140625, 58.72203826904297, -62.80039978027344, -0.01600000075995922, -0.08000000566244125, 1.040000081062317, 0.0, 0.0, 0.0, 0.0, 0.0, 1.6213383421576858E9, 2021-05-18 13:45:42.157
35.0, -21.07059669494629, 234.443115234375, 18.170303344726562, -101.48218536376953, -0.01600000075995922, -0.08000000566244125, 1.040000081062317, 0.0, 0.0, 0.0, 0.0, 0.0, 1.6213383421718943E9, 2021-05-18 13:45:42.171
35.0, -62.740562438964844, 186.34799194335938, -25.964256286621094, -145.9234161376953, -0.01600000075995922, -0.08000000566244125, 1.040000081062317, 0.0, 0.0, 0.0, 0.0, 0.0, 1.6213383421718943E9, 2021-05-18 13:45:42.171
36.0, -37.95624542236328, 216.57760620117188, 7.380692481994629, -108.93206787109375, -0.01600000075995922, -0.08000000566244125, 1.040000081062317, 0.0, 0.0, 0.0, 0.0, 0.0, 1.6213383421725647E9, 2021-05-18 13:45:42.172
36.0, 17.884201049804688, 263.59564208984375, 64.85173797607422, -58.99692153930664, -0.01600000075995922, -0.08000000566244125, 1.040000081062317, 0.0, 0.0, 0.0, 0.0, 0.0, 1.6213383421725647E9, 2021-05-18 13:45:42.172
37.0, -13.486079216003418, 227.05307006835938, 23.30144691467285, -90.84217071533203, -0.01600000075995922, -0.08000000566244125, 1.040000081062317, 0.0, 0.0, 0.0, 0.0, 0.0, 1.6213383421863005E9, 2021-05-18 13:45:42.186
37.0, -57.781455993652344, 182.23036193847656, -27.247041702270508, -136.2221221923828, -0.01600000075995922, -0.08000000566244125, 1.040000081062317, 0.0, 0.0, 0.0, 0.0, 0.0, 1.6213383421863005E9, 2021-05-18 13:45:42.186
38.0, -31.246864318847656, 204.75204467773438, 0.8657868504524231, -111.16478729248047, -0.01600000075995922, -0.08000000566244125, 1.040000081062317, 0.0, 0.0, 0.0, 0.0, 0.0, 1.6213383422016313E9, 2021-05-18 13:45:42.201
38.0, 11.799384117126465, 251.42225646972656, 46.634681701660156, -57.03721237182617, -0.01600000075995922, -0.08000000566244125, 1.040000081062317, 0.0, 0.0, 0.0, 0.0, 0.0, 1.6213383422016313E9, 2021-05-18 13:45:42.201
39.0, -19.754152297973633, 226.02085876464844, 10.802700996398926, -93.6695327758789, -0.01600000075995922, -0.08000000566244125, 1.040000081062317, 0.0, 0.0, 0.0, 0.0, 0.0, 1.6213383422169087E9, 2021-05-18 13:45:42.216
39.0, -62.927555084228516, 174.6271514892578, -33.219661712646484, -138.9971160888672, -0.01600000075995922, -0.08000000566244125, 1.040000081062317, 0.0, 0.0, 0.0, 0.0, 0.0, 1.6213383422169087E9, 2021-05-18 13:45:42.216
40.0, -41.00052261352539, 208.67893981933594, -6.464416980743408, -115.24127960205078, -0.01600000075995922, -0.08000000566244125, 1.040000081062317, 0.0, 0.0, 0.0, 0.0, 0.0, 1.62133834221761E9, 2021-05-18 13:45:42.217
40.0, 6.275552272796631, 260.2783508300781, 47.76413345336914, -67.78569030761719, -0.01600000075995922, -0.08000000566244125, 1.040000081062317, 0.0, 0.0, 0.0, 0.0, 0.0, 1.62133834221761E9, 2021-05-18 13:45:42.217
41.0, -19.638214111328125, 228.4069061279297, 15.675790786743164, -102.18528747558594, -0.01600000075995922, -0.08000000566244125, 1.040000081062317, 0.0, 0.0, 0.0, 0.0, 0.0, 1.62133834223255E9, 2021-05-18 13:45:42.232
41.0, -67.65479278564453, 188.3114471435547, -37.92071533203125, -152.43832397460938, -0.01600000075995922, -0.08000000566244125, 1.040000081062317, 0.0, 0.0, 0.0, 0.0, 0.0, 1.62133834223255E9, 2021-05-18 13:45:42.232
42.0, -33.60300064086914, 219.1356964111328, 0.23000384867191315, -117.50765991210938, -0.01600000075995922, -0.08000000566244125, 1.040000081062317, 0.0, 0.0, 0.0, 0.0, 0.0, 1.621338342233272E9, 2021-05-18 13:45:42.233
42.0, 7.984686374664307, 269.8262939453125, 53.01495361328125, -65.76988220214844, -0.01600000075995922, -0.08000000566244125, 1.040000081062317, 0.0, 0.0, 0.0, 0.0, 0.0, 1.621338342233272E9, 2021-05-18 13:45:42.233
43.0, -20.008464813232422, 232.17672729492188, 18.701370239257812, -101.1755142211914, -0.01600000075995922, -0.08000000566244125, 1.040000081062317, 0.0, 0.0, 0.0, 0.0, 0.0, 1.6213383422464457E9, 2021-05-18 13:45:42.246
43.0, -62.01502227783203, 188.7826690673828, -27.78184700012207, -148.27207946777344, -0.01600000075995922, -0.08000000566244125, 1.040000081062317, 0.0, 0.0, 0.0, 0.0, 0.0, 1.6213383422464457E9, 2021-05-18 13:45:42.246
44.0, -34.208866119384766, 216.49533081054688, 11.26270866394043, -112.16333770751953, -0.01600000075995922, -0.08000000566244125, 1.040000081062317, 0.0, 0.0, 0.0, 0.0, 0.0, 1.6213383422624176E9, 2021-05-18 13:45:42.262
44.0, 17.652328491210938, 269.59442138671875, 65.37532043457031, -59.8720588684082, -0.01600000075995922, -0.08000000566244125, 1.040000081062317, 0.0, 0.0, 0.0, 0.0, 0.0, 1.6213383422624176E9, 2021-05-18 13:45:42.262
45.0, -13.66185474395752, 233.65773010253906, 25.220014572143555, -96.20144653320312, -0.01600000075995922, -0.08000000566244125, 1.040000081062317, 0.0, 0.0, 0.0, 0.0, 0.0, 1.6213383422769728E9, 2021-05-18 13:45:42.276
45.0, -57.74031448364258, 185.49156188964844, -18.884624481201172, -138.2753143310547, -0.01600000075995922, -0.08000000566244125, 1.040000081062317, 0.0, 0.0, 0.0, 0.0, 0.0, 1.6213383422769728E9, 2021-05-18 13:45:42.276
46.0, -29.45545196533203, 214.75253295898438, 13.577706336975098, -106.19819641113281, -0.01600000075995922, -0.08000000566244125, 1.040000081062317, 0.0, 0.0, 0.0, 0.0, 0.0, 1.6213383422775812E9, 2021-05-18 13:45:42.277
46.0, 15.393427848815918, 271.2511901855469, 65.99240112304688, -56.251834869384766, -0.01600000075995922, -0.08000000566244125, 1.040000081062317, 0.0, 0.0, 0.0, 0.0, 0.0, 1.6213383422775812E9, 2021-05-18 13:45:42.277
47.0, -13.31778335571289, 226.70899963378906, 23.241607666015625, -93.1646499633789, -0.01600000075995922, -0.08000000566244125, 1.040000081062317, 0.0, 0.0, 0.0, 0.0, 0.0, 1.6213383422919612E9, 2021-05-18 13:45:42.291
47.0, -56.54728698730469, 178.70364379882812, -27.404117584228516, -134.2586669921875, -0.01600000075995922, -0.08000000566244125, 1.040000081062317, 0.0, 0.0, 0.0, 0.0, 0.0, 1.6213383422919612E9, 2021-05-18 13:45:42.291
48.0, -29.657405853271484, 209.47927856445312, 8.56998062133789, -107.45854187011719, -0.01600000075995922, -0.08000000566244125, 1.040000081062317, 0.0, 0.0, 0.0, 0.0, 0.0, 1.6213383422926052E9, 2021-05-18 13:45:42.292
48.0, 15.146595001220703, 264.3024597167969, 62.62275314331055, -57.02973556518555, -0.01600000075995922, -0.08000000566244125, 1.040000081062317, 0.0, 0.0, 0.0, 0.0, 0.0, 1.6213383422926052E9, 2021-05-18 13:45:42.292
49.0, -15.718799591064453, 224.34912109375, 14.591219902038574, -103.5840072631836, -0.01600000075995922, -0.08000000566244125, 1.040000081062317, 0.0, 0.0, 0.0, 0.0, 0.0, 1.6213383423062117E9, 2021-05-18 13:45:42.306
49.0, -62.216976165771484, 178.89064025878906, -30.3062801361084, -147.58018493652344, -0.01600000075995922, -0.08000000566244125, 1.040000081062317, 0.0, 0.0, 0.0, 0.0, 0.0, 1.6213383423062117E9, 2021-05-18 13:45:42.306
50.0, -35.73848342895508, 212.905029296875, 2.6160600185394287, -115.62274932861328, -0.01600000075995922, -0.08000000566244125, 1.040000081062317, 0.0, 0.0, 0.0, 0.0, 0.0, 1.621338342322432E9, 2021-05-18 13:45:42.322
50.0, 11.429134368896484, 261.0824279785156, 57.54022979736328, -64.65164947509766, -0.01600000075995922, -0.08000000566244125, 1.040000081062317, 0.0, 0.0, 0.0, 0.0, 0.0, 1.621338342322432E9, 2021-05-18 13:45:42.322
51.0, -16.807109832763672, 230.05245971679688, 22.23557472229004, -99.20458984375, -0.01600000075995922, -0.08000000566244125, 1.040000081062317, 0.0, 0.0, 0.0, 0.0, 0.0, 1.621338342337273E9, 2021-05-18 13:45:42.337
51.0, -67.5313720703125, 184.38455200195312, -31.53296661376953, -142.2433624267578, -0.01600000075995922, -0.08000000566244125, 1.040000081062317, 0.0, 0.0, 0.0, 0.0, 0.0, 1.621338342337273E9, 2021-05-18 13:45:42.337
52.0, -44.44123077392578, 213.71658325195312, 1.3818930387496948, -113.69670104980469, -0.01600000075995922, -0.08000000566244125, 1.040000081062317, 0.0, 0.0, 0.0, 0.0, 0.0, 1.6213383423526533E9, 2021-05-18 13:45:42.352
52.0, 8.063223838806152, 263.094482421875, 57.60380935668945, -57.777713775634766, -0.01600000075995922, -0.08000000566244125, 1.040000081062317, 0.0, 0.0, 0.0, 0.0, 0.0, 1.6213383423526533E9, 2021-05-18 13:45:42.352
53.0, -18.101116180419922, 229.24838256835938, 26.618738174438477, -93.42643737792969, -0.01600000075995922, -0.08000000566244125, 1.040000081062317, 0.0, 0.0, 0.0, 0.0, 0.0, 1.6213383423533595E9, 2021-05-18 13:45:42.353
53.0, -59.56538772583008, 190.5516357421875, -24.169103622436523, -142.46774291992188, -0.01600000075995922, -0.08000000566244125, 1.040000081062317, 0.0, 0.0, 0.0, 0.0, 0.0, 1.6213383423533595E9, 2021-05-18 13:45:42.353
54.0, -30.102455139160156, 211.90272521972656, 11.229049682617188, -112.83277893066406, -0.01600000075995922, -0.08000000566244125, 1.040000081062317, 0.0, 0.0, 0.0, 0.0, 0.0, 1.6213383423540912E9, 2021-05-18 13:45:42.354
54.0, 19.417560577392578, 264.949462890625, 65.36410522460938, -60.71353530883789, -0.01600000075995922, -0.08000000566244125, 1.040000081062317, 0.0, 0.0, 0.0, 0.0, 0.0, 1.6213383423540912E9, 2021-05-18 13:45:42.354
55.0, -7.098330020904541, 230.46011352539062, 23.8736515045166, -92.31942749023438, -0.01600000075995922, -0.08000000566244125, 1.040000081062317, 0.0, 0.0, 0.0, 0.0, 0.0, 1.6213383423833458E9, 2021-05-18 13:45:42.383
55.0, -54.868072509765625, 179.5675506591797, -32.464202880859375, -134.3372039794922, -0.01600000075995922, -0.08000000566244125, 1.040000081062317, 0.0, 0.0, 0.0, 0.0, 0.0, 1.6213383423833458E9, 2021-05-18 13:45:42.383
56.0, -32.342655181884766, 208.67893981933594, -0.35716044902801514, -110.7945327758789, -0.01600000075995922, -0.08000000566244125, 1.040000081062317, 0.0, 0.0, 0.0, 0.0, 0.0, 1.6213383423840127E9, 2021-05-18 13:45:42.384
56.0, 10.3258638381958, 263.083251953125, 53.13462829589844, -65.85589599609375, -0.01600000075995922, -0.08000000566244125, 1.040000081062317, 0.0, 0.0, 0.0, 0.0, 0.0, 1.6213383423840127E9, 2021-05-18 13:45:42.384
57.0, -19.58585548400879, 227.318603515625, 17.11191177368164, -95.5731430053711, -0.01600000075995922, -0.08000000566244125, 1.040000081062317, 0.0, 0.0, 0.0, 0.0, 0.0, 1.62133834238479E9, 2021-05-18 13:45:42.384
57.0, -64.12806701660156, 184.6613006591797, -30.627910614013672, -144.02728271484375, -0.01600000075995922, -0.08000000566244125, 1.040000081062317, 0.0, 0.0, 0.0, 0.0, 0.0, 1.62133834238479E9, 2021-05-18 13:45:42.384
58.0, -36.64727783203125, 216.04653930664062, 5.174151420593262, -112.8739242553711, -0.01600000075995922, -0.08000000566244125, 1.040000081062317, 0.0, 0.0, 0.0, 0.0, 0.0, 1.6213383423962977E9, 2021-05-18 13:45:42.396
58.0, 20.962139129638672, 269.68792724609375, 67.89227294921875, -58.593013763427734, -0.01600000075995922, -0.08000000566244125, 1.040000081062317, 0.0, 0.0, 0.0, 0.0, 0.0, 1.6213383423962977E9, 2021-05-18 13:45:42.396
59.0, -19.080968856811523, 233.51934814453125, 20.97148895263672, -102.70886993408203, -0.01600000075995922, -0.08000000566244125, 1.040000081062317, 0.0, 0.0, 0.0, 0.0, 0.0, 1.621338342411894E9, 2021-05-18 13:45:42.411
59.0, -65.44451141357422, 186.4527130126953, -23.192989349365234, -141.11390686035156, -0.01600000075995922, -0.08000000566244125, 1.040000081062317, 0.0, 0.0, 0.0, 0.0, 0.0, 1.621338342411894E9, 2021-05-18 13:45:42.411
60.0, -39.676597595214844, 216.77207946777344, 8.360546112060547, -113.69670104980469, -0.01600000075995922, -0.08000000566244125, 1.055999994277954, 0.0, 0.0, 0.0, 0.0, 0.0, 1.6213383424127192E9, 2021-05-18 13:45:42.412
60.0, 7.2441864013671875, 273.3455505371094, 65.72312927246094, -56.71184158325195, -0.01600000075995922, -0.08000000566244125, 1.055999994277954, 0.0, 0.0, 0.0, 0.0, 0.0, 1.6213383424127192E9, 2021-05-18 13:45:42.412
61.0, -16.70987319946289, 239.5106658935547, 27.785587310791016, -89.11433410644531, -0.01600000075995922, -0.08000000566244125, 1.055999994277954, 0.0, 0.0, 0.0, 0.0, 0.0, 1.6213383424425845E9, 2021-05-18 13:45:42.442
61.0, -57.11949157714844, 183.29249572753906, -16.63320541381836, -130.35421752929688, -0.01600000075995922, -0.08000000566244125, 1.055999994277954, 0.0, 0.0, 0.0, 0.0, 0.0, 1.6213383424425845E9, 2021-05-18 13:45:42.442
62.0, -27.503223419189453, 217.57615661621094, 18.177783966064453, -104.69850158691406, -0.01600000075995922, -0.08000000566244125, 1.055999994277954, 0.0, 0.0, 0.0, 0.0, 0.0, 1.621338342443282E9, 2021-05-18 13:45:42.443
62.0, 27.99315071105957, 271.2325134277344, 71.7144546508789, -51.41614532470703, -0.01600000075995922, -0.08000000566244125, 1.055999994277954, 0.0, 0.0, 0.0, 0.0, 0.0, 1.621338342443282E9, 2021-05-18 13:45:42.443
63.0, -6.735559940338135, 221.32728576660156, 21.367918014526367, -96.86341094970703, -0.01600000075995922, -0.08000000566244125, 1.055999994277954, 0.0, 0.0, 0.0, 0.0, 0.0, 1.6213383424440253E9, 2021-05-18 13:45:42.444
63.0, -49.849124908447266, 181.72921752929688, -27.25078010559082, -140.5791015625, -0.01600000075995922, -0.08000000566244125, 1.055999994277954, 0.0, 0.0, 0.0, 0.0, 0.0, 1.6213383424440253E9, 2021-05-18 13:45:42.444
64.0, -26.845001220703125, 212.6881103515625, 5.316267967224121, -114.12678527832031, -0.01600000075995922, -0.08000000566244125, 1.055999994277954, 0.0, 0.0, 0.0, 0.0, 0.0, 1.6213383424563844E9, 2021-05-18 13:45:42.456
64.0, 12.749319076538086, 262.7055358886719, 54.45481491088867, -64.84612274169922, -0.01600000075995922, -0.08000000566244125, 1.055999994277954, 0.0, 0.0, 0.0, 0.0, 0.0, 1.6213383424563844E9, 2021-05-18 13:45:42.456
65.0, -20.939699172973633, 234.23741149902344, 11.330026626586914, -101.5345458984375, -0.01600000075995922, -0.08000000566244125, 1.055999994277954, 0.0, 0.0, 0.0, 0.0, 0.0, 1.6213383424718823E9, 2021-05-18 13:45:42.471
65.0, -62.80788040161133, 183.14663696289062, -37.50184631347656, -142.15359497070312, -0.01600000075995922, -0.08000000566244125, 1.055999994277954, 0.0, 0.0, 0.0, 0.0, 0.0, 1.6213383424718823E9, 2021-05-18 13:45:42.471
66.0, -35.394412994384766, 214.6739959716797, -3.678191661834717, -119.98346710205078, -0.01600000075995922, -0.08000000566244125, 1.055999994277954, 0.0, 0.0, 0.0, 0.0, 0.0, 1.6213383424725463E9, 2021-05-18 13:45:42.472
66.0, 12.786718368530273, 272.41058349609375, 57.461692810058594, -69.274169921875, -0.01600000075995922, -0.08000000566244125, 1.055999994277954, 0.0, 0.0, 0.0, 0.0, 0.0, 1.6213383424725463E9, 2021-05-18 13:45:42.472
67.0, -20.326356887817383, 236.40655517578125, 17.343786239624023, -100.12086486816406, -0.01600000075995922, -0.08000000566244125, 1.055999994277954, 0.0, 0.0, 0.0, 0.0, 0.0, 1.6213383425016084E9, 2021-05-18 13:45:42.501
67.0, -62.9836540222168, 187.06605529785156, -30.612951278686523, -137.433837890625, -0.01600000075995922, -0.08000000566244125, 1.055999994277954, 0.0, 0.0, 0.0, 0.0, 0.0, 1.6213383425016084E9, 2021-05-18 13:45:42.501
68.0, -34.508056640625, 219.27407836914062, 10.323993682861328, -102.94822692871094, -0.01600000075995922, -0.08000000566244125, 1.055999994277954, 0.0, 0.0, 0.0, 0.0, 0.0, 1.6213383425187635E9, 2021-05-18 13:45:42.518
68.0, 8.138022422790527, 267.64593505859375, 60.012306213378906, -56.401432037353516, -0.01600000075995922, -0.08000000566244125, 1.055999994277954, 0.0, 0.0, 0.0, 0.0, 0.0, 1.6213383425187635E9, 2021-05-18 13:45:42.518
69.0, -23.920400619506836, 231.978515625, 23.997068405151367, -85.37069702148438, -0.01600000075995922, -0.08000000566244125, 1.055999994277954, 0.0, 0.0, 0.0, 0.0, 0.0, 1.6213383425194952E9, 2021-05-18 13:45:42.519
69.0, -66.73103332519531, 190.82839965820312, -26.682315826416016, -133.1179962158203, -0.01600000075995922, -0.08000000566244125, 1.055999994277954, 0.0, 0.0, 0.0, 0.0, 0.0, 1.6213383425194952E9, 2021-05-18 13:45:42.519
70.0, -39.18667221069336, 217.048828125, 5.379846096038818, -106.06729888916016, -0.01600000075995922, -0.08000000566244125, 1.055999994277954, 0.0, 0.0, 0.0, 0.0, 0.0, 1.6213383425202029E9, 2021-05-18 13:45:42.520
70.0, 16.945486068725586, 268.2779846191406, 63.65122604370117, -49.800506591796875, -0.01600000075995922, -0.08000000566244125, 1.055999994277954, 0.0, 0.0, 0.0, 0.0, 0.0, 1.6213383425202029E9, 2021-05-18 13:45:42.520
71.0, -13.205586433410645, 227.0979461669922, 28.937475204467773, -86.3580322265625, -0.01600000075995922, -0.08000000566244125, 1.055999994277954, 0.0, 0.0, 0.0, 0.0, 0.0, 1.6213383425316792E9, 2021-05-18 13:45:42.531
71.0, -57.2204704284668, 182.974609375, -22.66566276550293, -139.78623962402344, -0.01600000075995922, -0.08000000566244125, 1.055999994277954, 0.0, 0.0, 0.0, 0.0, 0.0, 1.6213383425316792E9, 2021-05-18 13:45:42.531
72.0, -31.96492576599121, 205.32424926757812, 7.350773334503174, -114.37361907958984, -0.01600000075995922, -0.08000000566244125, 1.055999994277954, 0.0, 0.0, 0.0, 0.0, 0.0, 1.6213383425633285E9, 2021-05-18 13:45:42.563
72.0, 26.153120040893555, 263.21417236328125, 66.56460571289062, -57.85625076293945, -0.01600000075995922, -0.08000000566244125, 1.055999994277954, 0.0, 0.0, 0.0, 0.0, 0.0, 1.6213383425633285E9, 2021-05-18 13:45:42.563
73.0, -7.255405902862549, 226.95956420898438, 18.248842239379883, -100.5359878540039, -0.01600000075995922, -0.08000000566244125, 1.055999994277954, 0.0, 0.0, 0.0, 0.0, 0.0, 1.621338342564036E9, 2021-05-18 13:45:42.564
73.0, -58.7687873840332, 175.56585693359375, -29.461061477661133, -143.44760131835938, -0.01600000075995922, -0.08000000566244125, 1.055999994277954, 0.0, 0.0, 0.0, 0.0, 0.0, 1.621338342564036E9, 2021-05-18 13:45:42.564
74.0, -27.750057220458984, 212.70680236816406, 12.160284996032715, -108.41221618652344, -0.01600000075995922, -0.08000000566244125, 1.055999994277954, 0.0, 0.0, 0.0, 0.0, 0.0, 1.6213383425647883E9, 2021-05-18 13:45:42.564
74.0, 19.286664962768555, 265.0205383300781, 67.16299438476562, -59.157737731933594, -0.01600000075995922, -0.08000000566244125, 1.055999994277954, 0.0, 0.0, 0.0, 0.0, 0.0, 1.6213383425647883E9, 2021-05-18 13:45:42.564
75.0, -12.308011054992676, 226.1629638671875, 28.956174850463867, -91.9791030883789, -0.01600000075995922, -0.08000000566244125, 1.055999994277954, 0.0, 0.0, 0.0, 0.0, 0.0, 1.6213383425655372E9, 2021-05-18 13:45:42.565
75.0, -60.358245849609375, 183.5655059814453, -16.58458709716797, -130.5299835205078, -0.01600000075995922, -0.08000000566244125, 1.055999994277954, 0.0, 0.0, 0.0, 0.0, 0.0, 1.6213383425655372E9, 2021-05-18 13:45:42.565
76.0, -31.43385887145996, 218.2717742919922, 14.841793060302734, -103.52043151855469, -0.01600000075995922, -0.08000000566244125, 1.055999994277954, 0.0, 0.0, 0.0, 0.0, 0.0, 1.621338342576196E9, 2021-05-18 13:45:42.576
76.0, 14.017145156860352, 261.9538269042969, 66.96477508544922, -54.69977569580078, -0.01600000075995922, -0.08000000566244125, 1.055999994277954, 0.0, 0.0, 0.0, 0.0, 0.0, 1.621338342576196E9, 2021-05-18 13:45:42.576
77.0, -13.53095817565918, 232.99951171875, 27.056306838989258, -87.54731750488281, -0.01600000075995922, -0.08000000566244125, 1.055999994277954, 0.0, 0.0, 0.0, 0.0, 0.0, 1.6213383425919137E9, 2021-05-18 13:45:42.591
77.0, -56.827781677246094, 183.0531463623047, -21.779308319091797, -135.55267333984375, -0.01600000075995922, -0.08000000566244125, 1.055999994277954, 0.0, 0.0, 0.0, 0.0, 0.0, 1.6213383425919137E9, 2021-05-18 13:45:42.591
78.0, -25.502378463745117, 218.44007873535156, 13.633805274963379, -109.13401794433594, -0.01600000075995922, -0.08000000566244125, 1.055999994277954, 0.0, 0.0, 0.0, 0.0, 0.0, 1.6213383425925791E9, 2021-05-18 13:45:42.592
78.0, 21.49320411682129, 266.6324157714844, 73.54326629638672, -56.91379928588867, -0.01600000075995922, -0.08000000566244125, 1.055999994277954, 0.0, 0.0, 0.0, 0.0, 0.0, 1.6213383425925791E9, 2021-05-18 13:45:42.592
79.0, -12.248172760009766, 228.4069061279297, 26.413043975830078, -98.36685180664062, -0.01600000075995922, -0.08000000566244125, 1.055999994277954, 0.0, 0.0, 0.0, 0.0, 0.0, 1.6213383426224163E9, 2021-05-18 13:45:42.622
79.0, -57.22420883178711, 181.97979736328125, -24.60293197631836, -142.4415740966797, -0.01600000075995922, -0.08000000566244125, 1.055999994277954, 0.0, 0.0, 0.0, 0.0, 0.0, 1.6213383426224163E9, 2021-05-18 13:45:42.622
80.0, -33.55064392089844, 223.1074676513672, 9.549834251403809, -105.82794952392578, -0.01600000075995922, -0.08000000566244125, 1.055999994277954, 0.0, 0.0, 0.0, 0.0, 0.0, 1.6213383426231036E9, 2021-05-18 13:45:42.623
80.0, 19.600814819335938, 271.52423095703125, 62.005672454833984, -59.46440887451172, -0.01600000075995922, -0.08000000566244125, 1.055999994277954, 0.0, 0.0, 0.0, 0.0, 0.0, 1.6213383426231036E9, 2021-05-18 13:45:42.623
81.0, -20.03838348388672, 231.70924377441406, 13.446810722351074, -103.524169921875, -0.01600000075995922, -0.08000000566244125, 1.055999994277954, 0.0, 0.0, 0.0, 0.0, 0.0, 1.6213383426368864E9, 2021-05-18 13:45:42.636
81.0, -61.61859130859375, 187.55224609375, -33.12990188598633, -147.269775390625, -0.01600000075995922, -0.08000000566244125, 1.055999994277954, 0.0, 0.0, 0.0, 0.0, 0.0, 1.6213383426368864E9, 2021-05-18 13:45:42.636
82.0, -37.06614685058594, 221.7573699951172, -2.8591535091400146, -114.41475677490234, -0.01600000075995922, -0.08000000566244125, 1.055999994277954, 0.0, 0.0, 0.0, 0.0, 0.0, 1.6213383426375964E9, 2021-05-18 13:45:42.637
82.0, 11.092543601989746, 268.63702392578125, 48.26527786254883, -68.52618408203125, -0.01600000075995922, -0.08000000566244125, 1.055999994277954, 0.0, 0.0, 0.0, 0.0, 0.0, 1.6213383426375964E9, 2021-05-18 13:45:42.637
83.0, -23.576330184936523, 224.83155822753906, 6.479376792907715, -97.99285888671875, -0.01600000075995922, -0.08000000566244125, 1.055999994277954, 0.0, 0.0, 0.0, 0.0, 0.0, 1.6213383426518726E9, 2021-05-18 13:45:42.651
83.0, -65.61654663085938, 186.94638061523438, -38.20494842529297, -143.99362182617188, -0.01600000075995922, -0.08000000566244125, 1.055999994277954, 0.0, 0.0, 0.0, 0.0, 0.0, 1.6213383426518726E9, 2021-05-18 13:45:42.651
84.0, -37.17086410522461, 224.1284637451172, -1.67360520362854, -108.39726257324219, -0.01600000075995922, -0.08000000566244125, 1.055999994277954, 0.0, 0.0, 0.0, 0.0, 0.0, 1.6213383426525576E9, 2021-05-18 13:45:42.652
84.0, 8.699007034301758, 265.8545227050781, 56.6276969909668, -56.78664016723633, -0.01600000075995922, -0.08000000566244125, 1.055999994277954, 0.0, 0.0, 0.0, 0.0, 0.0, 1.6213383426525576E9, 2021-05-18 13:45:42.652
85.0, -16.881908416748047, 232.05331420898438, 19.318452835083008, -92.72334289550781, -0.01600000075995922, -0.08000000566244125, 1.055999994277954, 0.0, 0.0, 0.0, 0.0, 0.0, 1.6213383426823134E9, 2021-05-18 13:45:42.682
85.0, -56.61086654663086, 193.59217834472656, -20.537660598754883, -138.64556884765625, -0.01600000075995922, -0.08000000566244125, 1.055999994277954, 0.0, 0.0, 0.0, 0.0, 0.0, 1.6213383426823134E9, 2021-05-18 13:45:42.682
86.0, -37.56355667114258, 220.60174560546875, 3.977383613586426, -110.87307739257812, -0.01600000075995922, -0.08000000566244125, 1.055999994277954, 0.0, 0.0, 0.0, 0.0, 0.0, 1.6213383426829977E9, 2021-05-18 13:45:42.682
86.0, 13.493558883666992, 268.89508056640625, 56.39582061767578, -63.881229400634766, -0.01600000075995922, -0.08000000566244125, 1.055999994277954, 0.0, 0.0, 0.0, 0.0, 0.0, 1.6213383426829977E9, 2021-05-18 13:45:42.682
87.0, -14.776344299316406, 232.4385223388672, 15.107325553894043, -99.52247619628906, -0.01600000075995922, -0.08000000566244125, 1.055999994277954, 0.0, 0.0, 0.0, 0.0, 0.0, 1.621338342697024E9, 2021-05-18 13:45:42.697
87.0, -58.17414474487305, 184.8370819091797, -30.257659912109375, -137.7442626953125, -0.01600000075995922, -0.08000000566244125, 1.055999994277954, 0.0, 0.0, 0.0, 0.0, 0.0, 1.621338342697024E9, 2021-05-18 13:45:42.697
88.0, -28.815929412841797, 219.09829711914062, 10.507248878479004, -105.13980865478516, -0.01600000075995922, -0.08000000566244125, 1.055999994277954, 0.0, 0.0, 0.0, 0.0, 0.0, 1.6213383426977627E9, 2021-05-18 13:45:42.697
88.0, 23.228519439697266, 271.83837890625, 66.82266235351562, -54.98774719238281, -0.01600000075995922, -0.08000000566244125, 1.055999994277954, 0.0, 0.0, 0.0, 0.0, 0.0, 1.6213383426977627E9, 2021-05-18 13:45:42.697
89.0, -8.179161071777344, 227.45323181152344, 27.931442260742188, -94.42125701904297, -0.01600000075995922, -0.08000000566244125, 1.055999994277954, 0.0, 0.0, 0.0, 0.0, 0.0, 1.6213383427119195E9, 2021-05-18 13:45:42.711
89.0, -49.50131607055664, 185.9702606201172, -23.62681770324707, -136.55870056152344, -0.01600000075995922, -0.08000000566244125, 1.055999994277954, 0.0, 0.0, 0.0, 0.0, 0.0, 1.6213383427119195E9, 2021-05-18 13:45:42.711
90.0, -25.685632705688477, 210.6835174560547, 8.139892578125, -106.16454315185547, -0.01600000075995922, -0.08000000566244125, 1.055999994277954, 0.0, 0.0, 0.0, 0.0, 0.0, 1.621338342712611E9, 2021-05-18 13:45:42.712
90.0, 25.367740631103516, 258.0830078125, 54.00602340698242, -68.72066497802734, -0.01600000075995922, -0.08000000566244125, 1.055999994277954, 0.0, 0.0, 0.0, 0.0, 0.0, 1.621338342712611E9, 2021-05-18 13:45:42.712
91.0, -7.726633071899414, 221.9368896484375, 15.754328727722168, -99.8515853881836, -0.01600000075995922, -0.08000000566244125, 1.055999994277954, 0.0, 0.0, 0.0, 0.0, 0.0, 1.621338342726392E9, 2021-05-18 13:45:42.726
91.0, -57.46730422973633, 176.6953125, -36.8959846496582, -142.84173583984375, -0.01600000075995922, -0.08000000566244125, 1.055999994277954, 0.0, 0.0, 0.0, 0.0, 0.0, 1.621338342726392E9, 2021-05-18 13:45:42.726
92.0, -29.0029239654541, 210.95278930664062, -1.430511713027954, -107.3613052368164, -0.01600000075995922, -0.08000000566244125, 1.055999994277954, 0.0, 0.0, 0.0, 0.0, 0.0, 1.6213383427418296E9, 2021-05-18 13:45:42.741
92.0, 22.805910110473633, 271.920654296875, 65.63711547851562, -51.12443161010742, -0.01600000075995922, -0.08000000566244125, 1.055999994277954, 0.0, 0.0, 0.0, 0.0, 0.0, 1.6213383427418296E9, 2021-05-18 13:45:42.741
93.0, -13.02981185913086, 227.6215362548828, 26.203609466552734, -88.6692886352539, -0.01600000075995922, -0.08000000566244125, 1.055999994277954, 0.0, 0.0, 0.0, 0.0, 0.0, 1.6213383427425673E9, 2021-05-18 13:45:42.742
93.0, -59.1091194152832, 192.53004455566406, -22.205656051635742, -133.29751586914062, -0.01600000075995922, -0.08000000566244125, 1.055999994277954, 0.0, 0.0, 0.0, 0.0, 0.0, 1.6213383427425673E9, 2021-05-18 13:45:42.742
94.0, -35.727264404296875, 212.4861602783203, 2.4515044689178467, -110.80201721191406, -0.01600000075995922, -0.08000000566244125, 1.055999994277954, 0.0, 0.0, 0.0, 0.0, 0.0, 1.621338342772627E9, 2021-05-18 13:45:42.772
94.0, 16.941747665405273, 262.9785461425781, 55.808658599853516, -61.01272964477539, -0.01600000075995922, -0.08000000566244125, 1.055999994277954, 0.0, 0.0, 0.0, 0.0, 0.0, 1.621338342772627E9, 2021-05-18 13:45:42.772
95.0, -24.8366756439209, 227.19517517089844, 10.413751602172852, -101.54576110839844, -0.01600000075995922, -0.08000000566244125, 1.055999994277954, 0.0, 0.0, 0.0, 0.0, 0.0, 1.6213383427732835E9, 2021-05-18 13:45:42.773
95.0, -63.82139205932617, 186.93142700195312, -31.34223175048828, -144.14695739746094, -0.01600000075995922, -0.08000000566244125, 1.055999994277954, 0.0, 0.0, 0.0, 0.0, 0.0, 1.6213383427732835E9, 2021-05-18 13:45:42.773
96.0, -33.89471435546875, 222.16127014160156, 8.334366798400879, -117.0326919555664, -0.01600000075995922, -0.08000000566244125, 1.055999994277954, 0.0, 0.0, 0.0, 0.0, 0.0, 1.6213383427741103E9, 2021-05-18 13:45:42.774
96.0, 10.9130277633667, 271.74859619140625, 61.85233688354492, -68.34667205810547, -0.01600000075995922, -0.08000000566244125, 1.055999994277954, 0.0, 0.0, 0.0, 0.0, 0.0, 1.6213383427741103E9, 2021-05-18 13:45:42.774
97.0, -16.60515594482422, 235.00035095214844, 16.218076705932617, -109.20881652832031, -0.01600000075995922, -0.08000000566244125, 1.055999994277954, 0.0, 0.0, 0.0, 0.0, 0.0, 1.6213383427861252E9, 2021-05-18 13:45:42.786
97.0, -52.096805572509766, 195.4808349609375, -27.20964241027832, -147.17254638671875, -0.01600000075995922, -0.08000000566244125, 1.055999994277954, 0.0, 0.0, 0.0, 0.0, 0.0, 1.6213383427861252E9, 2021-05-18 13:45:42.786
98.0, -29.189918518066406, 222.28469848632812, 0.626433253288269, -118.92881774902344, -0.01600000075995922, -0.08000000566244125, 1.055999994277954, 0.0, 0.0, 0.0, 0.0, 0.0, 1.621338342801606E9, 2021-05-18 13:45:42.801
98.0, 20.128141403198242, 279.82305908203125, 60.00856399536133, -65.40711212158203, -0.01600000075995922, -0.08000000566244125, 1.055999994277954, 0.0, 0.0, 0.0, 0.0, 0.0, 1.621338342801606E9, 2021-05-18 13:45:42.801
99.0, -14.409834861755371, 228.59764099121094, 19.92431640625, -100.55094909667969, -0.01600000075995922, -0.08000000566244125, 1.055999994277954, 0.0, 0.0, 0.0, 0.0, 0.0, 1.6213383428175337E9, 2021-05-18 13:45:42.817
99.0, -54.72221755981445, 186.29563903808594, -22.336551666259766, -138.8811798095703, -0.01600000075995922, -0.08000000566244125, 1.055999994277954, 0.0, 0.0, 0.0, 0.0, 0.0, 1.6213383428175337E9, 2021-05-18 13:45:42.817
100.0, -22.888187408447266, 211.5063018798828, 14.669757843017578, -112.64579010009766, -0.01600000075995922, -0.08000000566244125, 1.055999994277954, 0.0, 0.0, 0.0, 0.0, 0.0, 1.6213383428182533E9, 2021-05-18 13:45:42.818
100.0, 23.1051025390625, 269.1568603515625, 69.77718353271484, -56.55850601196289, -0.01600000075995922, -0.08000000566244125, 1.055999994277954, 0.0, 0.0, 0.0, 0.0, 0.0, 1.6213383428182533E9, 2021-05-18 13:45:42.818
0.0, -12.627772331237793, 223.81057739257812, 20.97709846496582, -92.8654556274414, -0.01600000075995922, -0.08000000566244125, 1.055999994277954, 0.0, 0.0, 0.0, 0.0, 0.0, 1.6213383428190105E9, 2021-05-18 13:45:42.819
1.0, -55.38604736328125, 181.13832092285156, -19.051050186157227, -134.19508361816406, -0.01600000075995922, -0.08000000566244125, 1.055999994277954, 0.0, 0.0, 0.0, 0.0, 0.0, 1.6213383428311946E9, 2021-05-18 13:45:42.831
1.0, -26.102632522583008, 210.02903747558594, 15.88709545135498, -110.22232818603516, -0.01600000075995922, -0.08000000566244125, 1.055999994277954, 0.0, 0.0, 0.0, 0.0, 0.0, 1.6213383428311946E9, 2021-05-18 13:45:42.831
2.0, 15.821646690368652, 266.8904724121094, 68.17837524414062, -56.79785919189453, -0.01600000075995922, -0.08000000566244125, 1.055999994277954, 0.0, 0.0, 0.0, 0.0, 0.0, 1.6213383428468568E9, 2021-05-18 13:45:42.846
2.0, -24.382278442382812, 227.7038116455078, 24.414066314697266, -98.34815216064453, -0.01600000075995922, -0.08000000566244125, 1.055999994277954, 0.0, 0.0, 0.0, 0.0, 0.0, 1.6213383428468568E9, 2021-05-18 13:45:42.846
3.0, -59.54855728149414, 189.4147186279297, -21.14165496826172, -138.06214904785156, -0.01600000075995922, -0.08000000566244125, 1.055999994277954, 0.0, 0.0, 0.0, 0.0, 0.0, 1.621338342847572E9, 2021-05-18 13:45:42.847
3.0, -31.701261520385742, 216.30833435058594, 7.939807415008545, -114.45589447021484, -0.01600000075995922, -0.08000000566244125, 1.055999994277954, 0.0, 0.0, 0.0, 0.0, 0.0, 1.621338342847572E9, 2021-05-18 13:45:42.847
4.0, 13.364532470703125, 271.0604553222656, 58.91838455200195, -61.8504638671875, -0.01600000075995922, -0.08000000566244125, 1.055999994277954, 0.0, 0.0, 0.0, 0.0, 0.0, 1.6213383428611913E9, 2021-05-18 13:45:42.861
4.0, -22.74420166015625, 227.44949340820312, 19.23804473876953, -103.10530090332031, -0.01600000075995922, -0.08000000566244125, 1.055999994277954, 0.0, 0.0, 0.0, 0.0, 0.0, 1.6213383428611913E9, 2021-05-18 13:45:42.861
5.0, -57.7534065246582, 189.0631561279297, -29.380653381347656, -144.89120483398438, -0.01600000075995922, -0.08000000566244125, 1.055999994277954, 0.0, 0.0, 0.0, 0.0, 0.0, 1.62133834287695E9, 2021-05-18 13:45:42.876
5.0, -38.941707611083984, 214.15414428710938, 2.9283416271209717, -117.76944732666016, -0.01600000075995922, -0.08000000566244125, 1.055999994277954, 0.0, 0.0, 0.0, 0.0, 0.0, 1.62133834287695E9, 2021-05-18 13:45:42.876
6.0, 12.9905424118042, 263.0421142578125, 62.53860855102539, -68.13723754882812, -0.01600000075995922, -0.08000000566244125, 1.055999994277954, 0.0, 0.0, 0.0, 0.0, 0.0, 1.621338342877623E9, 2021-05-18 13:45:42.877
6.0, -21.809226989746094, 221.87330627441406, 15.875875473022461, -105.89900970458984, -0.01600000075995922, -0.08000000566244125, 1.055999994277954, 0.0, 0.0, 0.0, 0.0, 0.0, 1.621338342877623E9, 2021-05-18 13:45:42.877
7.0, -58.78561782836914, 187.44004821777344, -25.117168426513672, -145.09689331054688, -0.01600000075995922, -0.08000000566244125, 1.055999994277954, 0.0, 0.0, 0.0, 0.0, 0.0, 1.6213383428912547E9, 2021-05-18 13:45:42.891
7.0, -34.506187438964844, 212.7741241455078, 7.532158374786377, -113.6593017578125, -0.01600000075995922, -0.08000000566244125, 1.055999994277954, 0.0, 0.0, 0.0, 0.0, 0.0, 1.6213383428912547E9, 2021-05-18 13:45:42.891
8.0, 19.131458282470703, 271.7149658203125, 62.67324447631836, -64.19164276123047, -0.01600000075995922, -0.08000000566244125, 1.055999994277954, 0.0, 0.0, 0.0, 0.0, 0.0, 1.6213383429066703E9, 2021-05-18 13:45:42.906
8.0, -21.427757263183594, 226.45468139648438, 14.780084609985352, -103.99913787841797, -0.01600000075995922, -0.08000000566244125, 1.055999994277954, 0.0, 0.0, 0.0, 0.0, 0.0, 1.6213383429066703E9, 2021-05-18 13:45:42.906
9.0, -63.41935348510742, 191.08644104003906, -27.791196823120117, -145.05201721191406, -0.01600000075995922, -0.08000000566244125, 1.055999994277954, 0.0, 0.0, 0.0, 0.0, 0.0, 1.6213383429220324E9, 2021-05-18 13:45:42.922
9.0, -43.41462707519531, 220.5194549560547, 2.8685033321380615, -121.41585540771484, -0.01600000075995922, -0.08000000566244125, 1.055999994277954, 0.0, 0.0, 0.0, 0.0, 0.0, 1.6213383429220324E9, 2021-05-18 13:45:42.922
10.0, 2.2009310722351074, 274.3927307128906, 58.37236022949219, -68.56732940673828, -0.01600000075995922, -0.08000000566244125, 1.055999994277954, 0.0, 0.0, 0.0, 0.0, 0.0, 1.6213383429226751E9, 2021-05-18 13:45:42.922
10.0, -27.617290496826172, 236.63095092773438, 18.411527633666992, -109.38833618164062, -0.01600000075995922, -0.08000000566244125, 1.055999994277954, 0.0, 0.0, 0.0, 0.0, 0.0, 1.6213383429226751E9, 2021-05-18 13:45:42.922
11.0, -68.18772888183594, 187.88134765625, -31.40768051147461, -150.80398559570312, -0.01600000075995922, -0.08000000566244125, 1.055999994277954, 0.0, 0.0, 0.0, 0.0, 0.0, 1.6213383429368985E9, 2021-05-18 13:45:42.936
11.0, -42.77510452270508, 218.79910278320312, 2.801185131072998, -117.73579406738281, -0.01600000075995922, -0.08000000566244125, 1.055999994277954, 0.0, 0.0, 0.0, 0.0, 0.0, 1.6213383429368985E9, 2021-05-18 13:45:42.936
12.0, 11.625478744506836, 265.60394287109375, 63.24918746948242, -66.43932342529297, -0.01600000075995922, -0.08000000566244125, 1.055999994277954, 0.0, 0.0, 0.0, 0.0, 0.0, 1.621338342937601E9, 2021-05-18 13:45:42.937
12.0, -19.531627655029297, 231.64939880371094, 16.896867752075195, -108.8423080444336, -0.01600000075995922, -0.08000000566244125, 1.055999994277954, 0.0, 0.0, 0.0, 0.0, 0.0, 1.621338342937601E9, 2021-05-18 13:45:42.937
13.0, -58.10495376586914, 192.20468139648438, -25.82400894165039, -142.3480682373047, -0.01600000075995922, -0.08000000566244125, 1.055999994277954, 0.0, 0.0, 0.0, 0.0, 0.0, 1.6213383429512348E9, 2021-05-18 13:45:42.951
13.0, -32.37444305419922, 220.79995727539062, 6.76547908782959, -117.38423919677734, -0.01600000075995922, -0.08000000566244125, 1.055999994277954, 0.0, 0.0, 0.0, 0.0, 0.0, 1.6213383429512348E9, 2021-05-18 13:45:42.951
14.0, 19.56528663635254, 269.81134033203125, 64.28140258789062, -59.31481170654297, -0.01600000075995922, -0.08000000566244125, 1.055999994277954, 0.0, 0.0, 0.0, 0.0, 0.0, 1.621338342966643E9, 2021-05-18 13:45:42.966
14.0, -18.3572998046875, 219.37130737304688, 10.954167366027832, -102.47325897216797, -0.01600000075995922, -0.08000000566244125, 1.055999994277954, 0.0, 0.0, 0.0, 0.0, 0.0, 1.621338342966643E9, 2021-05-18 13:45:42.966
15.0, -58.74073791503906, 186.26571655273438, -31.437599182128906, -140.29112243652344, -0.01600000075995922, -0.08000000566244125, 1.055999994277954, 0.0, 0.0, 0.0, 0.0, 0.0, 1.6213383429818892E9, 2021-05-18 13:45:42.981
15.0, -35.26164627075195, 212.32533264160156, -2.6515891551971436, -113.55458068847656, -0.01600000075995922, -0.08000000566244125, 1.055999994277954, 0.0, 0.0, 0.0, 0.0, 0.0, 1.6213383429818892E9, 2021-05-18 13:45:42.981
16.0, 17.328826904296875, 265.1476745605469, 57.60942077636719, -64.72644805908203, -0.01600000075995922, -0.08000000566244125, 1.055999994277954, 0.0, 0.0, 0.0, 0.0, 0.0, 1.6213383429825628E9, 2021-05-18 13:45:42.982
16.0, -24.70764923095703, 226.1293182373047, 7.232966423034668, -109.75858306884766, -0.01600000075995922, -0.08000000566244125, 1.055999994277954, 0.0, 0.0, 0.0, 0.0, 0.0, 1.6213383429825628E9, 2021-05-18 13:45:42.982
17.0, -62.11412811279297, 191.39312744140625, -32.09208297729492, -144.04598999023438, -0.01600000075995922, -0.08000000566244125, 1.055999994277954, 0.0, 0.0, 0.0, 0.0, 0.0, 1.6213383429968603E9, 2021-05-18 13:45:42.996
17.0, -40.41522979736328, 218.76918029785156, -3.403308868408203, -115.22257995605469, -0.01600000075995922, -0.08000000566244125, 1.055999994277954, 0.0, 0.0, 0.0, 0.0, 0.0, 1.6213383429968603E9, 2021-05-18 13:45:42.996
18.0, 10.484809875488281, 274.4039306640625, 62.71064376831055, -56.42013168334961, -0.01600000075995922, -0.08000000566244125, 1.055999994277954, 0.0, 0.0, 0.0, 0.0, 0.0, 1.6213383429975924E9, 2021-05-18 13:45:42.997
18.0, -29.771472930908203, 233.14161682128906, 16.362062454223633, -96.02567291259766, -0.01600000075995922, -0.08000000566244125, 1.055999994277954, 0.0, 0.0, 0.0, 0.0, 0.0, 1.6213383429975924E9, 2021-05-18 13:45:42.997
19.0, -68.81603240966797, 190.2187957763672, -29.889280319213867, -135.62747192382812, -0.01600000075995922, -0.08000000566244125, 1.055999994277954, 0.0, 0.0, 0.0, 0.0, 0.0, 1.6213383430282333E9, 2021-05-18 13:45:43.028
19.0, -48.0184440612793, 216.77955627441406, 1.6231166124343872, -117.12244415283203, -0.01600000075995922, -0.08000000566244125, 1.055999994277954, 0.0, 0.0, 0.0, 0.0, 0.0, 1.6213383430282333E9, 2021-05-18 13:45:43.028
20.0, 7.216136932373047, 274.9013366699219, 60.66865539550781, -65.12287902832031, -0.01600000075995922, -0.08000000566244125, 1.055999994277954, 0.0, 0.0, 0.0, 0.0, 0.0, 1.6213383430289695E9, 2021-05-18 13:45:43.028
20.0, -28.167057037353516, 231.05850219726562, 13.57957649230957, -108.33367919921875, -0.01600000075995922, -0.08000000566244125, 1.055999994277954, 0.0, 0.0, 0.0, 0.0, 0.0, 1.6213383430289695E9, 2021-05-18 13:45:43.028
21.0, -59.69441223144531, 189.6391143798828, -28.060468673706055, -143.99737548828125, -0.01600000075995922, -0.08000000566244125, 1.055999994277954, 0.0, 0.0, 0.0, 0.0, 0.0, 1.621338343029782E9, 2021-05-18 13:45:43.029
21.0, -37.7411994934082, 217.25453186035156, 4.888049125671387, -113.32644653320312, -0.01600000075995922, -0.08000000566244125, 1.055999994277954, 0.0, 0.0, 0.0, 0.0, 0.0, 1.621338343029782E9, 2021-05-18 13:45:43.029
22.0, 15.27562141418457, 268.1695251464844, 61.36427688598633, -51.569480895996094, -0.01600000075995922, -0.08000000566244125, 1.055999994277954, 0.0, 0.0, 0.0, 0.0, 0.0, 1.62133834304124E9, 2021-05-18 13:45:43.041
22.0, -25.93059539794922, 224.3341522216797, 9.746179580688477, -95.90599822998047, -0.01600000075995922, -0.08000000566244125, 1.055999994277954, 0.0, 0.0, 0.0, 0.0, 0.0, 1.62133834304124E9, 2021-05-18 13:45:43.041
23.0, -64.93401336669922, 179.72837829589844, -34.4968376159668, -131.6257781982422, -0.01600000075995922, -0.08000000566244125, 1.055999994277954, 0.0, 0.0, 0.0, 0.0, 0.0, 1.6213383430732615E9, 2021-05-18 13:45:43.073
23.0, -33.09998321533203, 210.75083923339844, -3.9493343830108643, -102.21520233154297, -0.01600000075995922, -0.08000000566244125, 1.055999994277954, 0.0, 0.0, 0.0, 0.0, 0.0, 1.6213383430732615E9, 2021-05-18 13:45:43.073
24.0, 14.097553253173828, 266.4940490722656, 51.50590133666992, -56.71558380126953, -0.01600000075995922, -0.08000000566244125, 1.055999994277954, 0.0, 0.0, 0.0, 0.0, 0.0, 1.6213383430739512E9, 2021-05-18 13:45:43.073
24.0, -21.78304672241211, 223.34307861328125, 3.257452964782715, -99.93386840820312, -0.01600000075995922, -0.08000000566244125, 1.055999994277954, 0.0, 0.0, 0.0, 0.0, 0.0, 1.6213383430739512E9, 2021-05-18 13:45:43.073
25.0, -60.894920349121094, 191.43052673339844, -35.5814094543457, -142.94271850585938, -0.01600000075995922, -0.08000000566244125, 1.055999994277954, 0.0, 0.0, 0.0, 0.0, 0.0, 1.6213383430747118E9, 2021-05-18 13:45:43.074
25.0, -38.1226692199707, 221.12158203125, -3.4668872356414795, -113.13571166992188, -0.01600000075995922, -0.08000000566244125, 1.055999994277954, 0.0, 0.0, 0.0, 0.0, 0.0, 1.6213383430747118E9, 2021-05-18 13:45:43.074
26.0, 7.53402853012085, 271.60650634765625, 52.25762176513672, -65.4407730102539, -0.01600000075995922, -0.08000000566244125, 1.055999994277954, 0.0, 0.0, 0.0, 0.0, 0.0, 1.6213383430754635E9, 2021-05-18 13:45:43.075
26.0, -24.2850399017334, 230.47882080078125, 13.01859188079834, -110.17745208740234, -0.01600000075995922, -0.08000000566244125, 1.055999994277954, 0.0, 0.0, 0.0, 0.0, 0.0, 1.6213383430754635E9, 2021-05-18 13:45:43.075
27.0, -64.37303161621094, 192.20094299316406, -33.382347106933594, -152.49441528320312, -0.01600000075995922, -0.08000000566244125, 1.055999994277954, 0.0, 0.0, 0.0, 0.0, 0.0, 1.6213383430861964E9, 2021-05-18 13:45:43.086
27.0, -40.243194580078125, 218.01747131347656, -0.5198460817337036, -121.78610229492188, -0.01600000075995922, -0.08000000566244125, 1.055999994277954, 0.0, 0.0, 0.0, 0.0, 0.0, 1.6213383430861964E9, 2021-05-18 13:45:43.086
28.0, 7.103940010070801, 271.3821105957031, 57.115753173828125, -66.75721740722656, -0.01600000075995922, -0.08000000566244125, 1.055999994277954, 0.0, 0.0, 0.0, 0.0, 0.0, 1.6213383431011944E9, 2021-05-18 13:45:43.101
28.0, -30.343677520751953, 233.29495239257812, 12.824116706848145, -108.7226333618164, -0.01600000075995922, -0.08000000566244125, 1.055999994277954, 0.0, 0.0, 0.0, 0.0, 0.0, 1.6213383431011944E9, 2021-05-18 13:45:43.101
29.0, -75.80963897705078, 195.69773864746094, -35.12887954711914, -148.971435546875, -0.01600000075995922, -0.08000000566244125, 1.055999994277954, 0.0, 0.0, 0.0, 0.0, 0.0, 1.6213383431168437E9, 2021-05-18 13:45:43.116
29.0, -43.302433013916016, 225.7964630126953, -2.176621675491333, -115.64144897460938, -0.01600000075995922, -0.08000000566244125, 1.055999994277954, 0.0, 0.0, 0.0, 0.0, 0.0, 1.6213383431168437E9, 2021-05-18 13:45:43.116
30.0, 10.496028900146484, 271.909423828125, 53.484310150146484, -62.29551315307617, -0.01600000075995922, -0.08000000566244125, 1.055999994277954, 0.0, 0.0, 0.0, 0.0, 0.0, 1.6213383431175952E9, 2021-05-18 13:45:43.117
30.0, -25.8109188079834, 228.5078887939453, 7.670534610748291, -103.68124389648438, -0.01600000075995922, -0.08000000566244125, 1.055999994277954, 0.0, 0.0, 0.0, 0.0, 0.0, 1.6213383431175952E9, 2021-05-18 13:45:43.117
31.0, -61.67655944824219, 195.99319458007812, -25.289203643798828, -134.393310546875, -0.01600000075995922, -0.08000000566244125, 1.055999994277954, 0.0, 0.0, 0.0, 0.0, 0.0, 1.6213383431312747E9, 2021-05-18 13:45:43.131
31.0, -36.6154899597168, 220.92710876464844, 7.771512031555176, -105.31932067871094, -0.01600000075995922, -0.08000000566244125, 1.055999994277954, 0.0, 0.0, 0.0, 0.0, 0.0, 1.6213383431312747E9, 2021-05-18 13:45:43.131
32.0, 9.673251152038574, 273.6073303222656, 53.74984359741211, -51.909812927246094, -0.01600000075995922, -0.08000000566244125, 1.055999994277954, 0.0, 0.0, 0.0, 0.0, 0.0, 1.6213383431631737E9, 2021-05-18 13:45:43.163
32.0, -28.477468490600586, 223.85919189453125, 8.968279838562012, -94.23052215576172, -0.01600000075995922, -0.08000000566244125, 1.055999994277954, 0.0, 0.0, 0.0, 0.0, 0.0, 1.6213383431631737E9, 2021-05-18 13:45:43.163
33.0, -62.56665802001953, 184.43316650390625, -31.284263610839844, -137.5236053466797, -0.01600000075995922, -0.08000000566244125, 1.055999994277954, 0.0, 0.0, 0.0, 0.0, 0.0, 1.6213383431638167E9, 2021-05-18 13:45:43.163
33.0, -32.17622756958008, 214.07186889648438, -0.3552905023097992, -107.73155975341797, -0.01600000075995922, -0.08000000566244125, 1.055999994277954, 0.0, 0.0, 0.0, 0.0, 0.0, 1.6213383431638167E9, 2021-05-18 13:45:43.163
34.0, 14.284547805786133, 261.5611267089844, 54.10139465332031, -56.99233627319336, -0.01600000075995922, -0.08000000566244125, 1.055999994277954, 0.0, 0.0, 0.0, 0.0, 0.0, 1.6213383431644504E9, 2021-05-18 13:45:43.164
34.0, -24.40471649169922, 222.71104431152344, 4.218606948852539, -104.99768829345703, -0.01600000075995922, -0.08000000566244125, 1.055999994277954, 0.0, 0.0, 0.0, 0.0, 0.0, 1.6213383431644504E9, 2021-05-18 13:45:43.164
35.0, -66.69550323486328, 183.7412872314453, -33.94333267211914, -144.3376922607422, -0.01600000075995922, -0.08000000566244125, 1.055999994277954, 0.0, 0.0, 0.0, 0.0, 0.0, 1.6213383431768625E9, 2021-05-18 13:45:43.176
35.0, -37.69632339477539, 214.91708374023438, 2.146702527999878, -118.1546630859375, -0.01600000075995922, -0.08000000566244125, 1.055999994277954, 0.0, 0.0, 0.0, 0.0, 0.0, 1.6213383431768625E9, 2021-05-18 13:45:43.176
36.0, 12.437037467956543, 270.0207824707031, 55.48515701293945, -73.25716400146484, -0.01600000075995922, -0.08000000566244125, 1.055999994277954, 0.0, 0.0, 0.0, 0.0, 0.0, 1.62133834317763E9, 2021-05-18 13:45:43.177
36.0, -25.362131118774414, 227.823486328125, 14.069503784179688, -117.56001281738281, -0.01600000075995922, -0.08000000566244125, 1.055999994277954, 0.0, 0.0, 0.0, 0.0, 0.0, 1.62133834317763E9, 2021-05-18 13:45:43.177
37.0, -62.151527404785156, 195.48831176757812, -24.604801177978516, -158.11175537109375, -0.01600000075995922, -0.08000000566244125, 1.055999994277954, 0.0, 0.0, 0.0, 0.0, 0.0, 1.6213383432076573E9, 2021-05-18 13:45:43.207
37.0, -34.14341735839844, 228.82577514648438, 8.953320503234863, -128.85076904296875, -0.01600000075995922, -0.08000000566244125, 1.055999994277954, 0.0, 0.0, 0.0, 0.0, 0.0, 1.6213383432076573E9, 2021-05-18 13:45:43.207
38.0, 14.856752395629883, 280.0773620605469, 63.89619064331055, -80.2358169555664, -0.01600000075995922, -0.08000000566244125, 1.055999994277954, 0.0, 0.0, 0.0, 0.0, 0.0, 1.621338343208272E9, 2021-05-18 13:45:43.208
38.0, -10.720423698425293, 234.1439208984375, 23.21729850769043, -114.24272155761719, -0.01600000075995922, -0.08000000566244125, 1.055999994277954, 0.0, 0.0, 0.0, 0.0, 0.0, 1.621338343208272E9, 2021-05-18 13:45:43.208
39.0, -52.04631805419922, 198.6148681640625, -18.508764266967773, -150.04478454589844, -0.01600000075995922, -0.08000000566244125, 1.055999994277954, 0.0, 0.0, 0.0, 0.0, 0.0, 1.6213383432090292E9, 2021-05-18 13:45:43.209
39.0, -32.703556060791016, 223.0738067626953, 11.7432861328125, -120.71649169921875, -0.01600000075995922, -0.08000000566244125, 1.055999994277954, 0.0, 0.0, 0.0, 0.0, 0.0, 1.6213383432090292E9, 2021-05-18 13:45:43.209
40.0, 21.83914566040039, 277.69879150390625, 64.943359375, -60.3133659362793, -0.01600000075995922, -0.08000000566244125, 1.055999994277954, 0.0, 0.0, 0.0, 0.0, 0.0, 1.6213383432211876E9, 2021-05-18 13:45:43.221
40.0, -21.83914566040039, 225.53466796875, 15.210172653198242, -105.00517272949219, -0.01600000075995922, -0.08000000566244125, 1.055999994277954, 0.0, 0.0, 0.0, 0.0, 0.0, 1.6213383432211876E9, 2021-05-18 13:45:43.221
41.0, -62.802268981933594, 184.7921905517578, -36.08255386352539, -142.58743286132812, -0.01600000075995922, -0.08000000566244125, 1.055999994277954, 0.0, 0.0, 0.0, 0.0, 0.0, 1.6213383432368476E9, 2021-05-18 13:45:43.236
41.0, -40.950035095214844, 212.99478149414062, -5.183501243591309, -117.18602752685547, -0.01600000075995922, -0.08000000566244125, 1.055999994277954, 0.0, 0.0, 0.0, 0.0, 0.0, 1.6213383432368476E9, 2021-05-18 13:45:43.236
42.0, 9.942523956298828, 263.7115783691406, 53.102840423583984, -62.935035705566406, -0.01600000075995922, -0.08000000566244125, 1.055999994277954, 0.0, 0.0, 0.0, 0.0, 0.0, 1.6213383432376857E9, 2021-05-18 13:45:43.237
42.0, -22.946155548095703, 219.07960510253906, 3.837137460708618, -102.78740692138672, -0.01600000075995922, -0.08000000566244125, 1.055999994277954, 0.0, 0.0, 0.0, 0.0, 0.0, 1.6213383432376857E9, 2021-05-18 13:45:43.237
43.0, -66.91242218017578, 178.10525512695312, -38.737884521484375, -144.75656127929688, -0.01600000075995922, -0.08000000566244125, 1.055999994277954, 0.0, 0.0, 0.0, 0.0, 0.0, 1.621338343283758E9, 2021-05-18 13:45:43.283
43.0, -36.54443359375, 213.21543884277344, 0.26179298758506775, -112.47000885009766, -0.01600000075995922, -0.08000000566244125, 1.055999994277954, 0.0, 0.0, 0.0, 0.0, 0.0, 1.621338343283758E9, 2021-05-18 13:45:43.283
44.0, 11.315067291259766, 264.4034423828125, 55.16726303100586, -60.46296310424805, -0.01600000075995922, -0.08000000566244125, 1.055999994277954, 0.0, 0.0, 0.0, 0.0, 0.0, 1.6213383432846055E9, 2021-05-18 13:45:43.284
44.0, -34.09853744506836, 217.29193115234375, 8.066964149475098, -108.63287353515625, -0.01600000075995922, -0.08000000566244125, 1.055999994277954, 0.0, 0.0, 0.0, 0.0, 0.0, 1.6213383432846055E9, 2021-05-18 13:45:43.284
45.0, -61.49330520629883, 188.5732421875, -30.738237380981445, -139.92462158203125, -0.01600000075995922, -0.08000000566244125, 1.055999994277954, 0.0, 0.0, 0.0, 0.0, 0.0, 1.6213383432982223E9, 2021-05-18 13:45:43.298
45.0, -32.35200500488281, 218.47373962402344, 6.039938449859619, -112.96367645263672, -0.01600000075995922, -0.08000000566244125, 1.055999994277954, 0.0, 0.0, 0.0, 0.0, 0.0, 1.6213383432982223E9, 2021-05-18 13:45:43.298
46.0, 25.807180404663086, 263.3899230957031, 66.78339385986328, -56.59590530395508, -0.01600000075995922, -0.08000000566244125, 1.055999994277954, 0.0, 0.0, 0.0, 0.0, 0.0, 1.621338343299032E9, 2021-05-18 13:45:43.299
46.0, -15.814167022705078, 219.47976684570312, 14.316336631774902, -106.28421783447266, -0.01600000075995922, -0.08000000566244125, 1.055999994277954, 0.0, 0.0, 0.0, 0.0, 0.0, 1.621338343299032E9, 2021-05-18 13:45:43.299
47.0, -48.669189453125, 189.59796142578125, -22.428180694580078, -140.20884704589844, -0.01600000075995922, -0.08000000566244125, 1.055999994277954, 0.0, 0.0, 0.0, 0.0, 0.0, 1.6213383432998087E9, 2021-05-18 13:45:43.299
47.0, -18.832265853881836, 216.47288513183594, 16.67621421813965, -107.596923828125, -0.01600000075995922, -0.08000000566244125, 1.055999994277954, 0.0, 0.0, 0.0, 0.0, 0.0, 1.6213383432998087E9, 2021-05-18 13:45:43.299
48.0, 30.758808135986328, 269.90484619140625, 76.36127471923828, -45.652957916259766, -0.01600000075995922, -0.08000000566244125, 1.055999994277954, 0.0, 0.0, 0.0, 0.0, 0.0, 1.6213383433004584E9, 2021-05-18 13:45:43.300
48.0, -8.349327087402344, 219.98838806152344, 23.782024383544922, -88.3252182006836, -0.01600000075995922, -0.08000000566244125, 1.055999994277954, 0.0, 0.0, 0.0, 0.0, 0.0, 1.6213383433004584E9, 2021-05-18 13:45:43.300
49.0, -42.48713302612305, 185.087646484375, -16.694913864135742, -120.2452621459961, -0.01600000075995922, -0.08000000566244125, 1.055999994277954, 0.0, 0.0, 0.0, 0.0, 0.0, 1.6213383433276744E9, 2021-05-18 13:45:43.327
49.0, -25.328472137451172, 217.16851806640625, 12.670781135559082, -91.08526611328125, -0.01600000075995922, -0.08000000566244125, 1.055999994277954, 0.0, 0.0, 0.0, 0.0, 0.0, 1.6213383433276744E9, 2021-05-18 13:45:43.327
50.0, 21.225801467895508, 269.7253112792969, 62.64332580566406, -50.93743896484375, -0.01600000075995922, -0.08000000566244125, 1.055999994277954, 0.0, 0.0, 0.0, 0.0, 0.0, 1.6213383433283715E9, 2021-05-18 13:45:43.328
50.0, -26.405563354492188, 213.63430786132812, 4.529018878936768, -101.20542907714844, -0.01600000075995922, -0.08000000566244125, 1.055999994277954, 0.0, 0.0, 0.0, 0.0, 0.0, 1.6213383433283715E9, 2021-05-18 13:45:43.328
51.0, -58.92025375366211, 184.00308227539062, -33.26641082763672, -133.88467407226562, -0.01600000075995922, -0.08000000566244125, 1.055999994277954, 0.0, 0.0, 0.0, 0.0, 0.0, 1.6213383433290083E9, 2021-05-18 13:45:43.329
51.0, -36.82866668701172, 207.2652587890625, -5.2059407234191895, -116.3108901977539, -0.01600000075995922, -0.08000000566244125, 1.055999994277954, 0.0, 0.0, 0.0, 0.0, 0.0, 1.6213383433290083E9, 2021-05-18 13:45:43.329
52.0, 10.043500900268555, 268.84271240234375, 50.387672424316406, -64.78628540039062, -0.01600000075995922, -0.08000000566244125, 1.055999994277954, 0.0, 0.0, 0.0, 0.0, 0.0, 1.6213383433412983E9, 2021-05-18 13:45:43.341
52.0, -34.652042388916016, 227.39340209960938, 2.745086669921875, -119.16817474365234, -0.01600000075995922, -0.08000000566244125, 1.055999994277954, 0.0, 0.0, 0.0, 0.0, 0.0, 1.6213383433412983E9, 2021-05-18 13:45:43.341
53.0, -64.38798522949219, 192.65347290039062, -30.820514678955078, -153.5453338623047, -0.01600000075995922, -0.08000000566244125, 1.055999994277954, 0.0, 0.0, 0.0, 0.0, 0.0, 1.6213383433570557E9, 2021-05-18 13:45:43.357
53.0, -40.25815200805664, 216.52525329589844, 7.786471843719482, -122.61261749267578, -0.01600000075995922, -0.08000000566244125, 1.055999994277954, 0.0, 0.0, 0.0, 0.0, 0.0, 1.6213383433570557E9, 2021-05-18 13:45:43.357
54.0, 15.821646690368652, 274.1383972167969, 62.9537353515625, -65.09669494628906, -0.01600000075995922, -0.08000000566244125, 1.055999994277954, 0.0, 0.0, 0.0, 0.0, 0.0, 1.6213383433576815E9, 2021-05-18 13:45:43.357
54.0, -24.374797821044922, 227.1016845703125, 13.889988899230957, -110.36071014404297, -0.01600000075995922, -0.08000000566244125, 1.055999994277954, 0.0, 0.0, 0.0, 0.0, 0.0, 1.6213383433576815E9, 2021-05-18 13:45:43.357
55.0, -52.48014450073242, 184.85577392578125, -24.88529396057129, -141.78709411621094, -0.01600000075995922, -0.08000000566244125, 1.055999994277954, 0.0, 0.0, 0.0, 0.0, 0.0, 1.6213383433872917E9, 2021-05-18 13:45:43.387
55.0, -24.980661392211914, 221.27491760253906, 14.978299140930176, -106.0897445678711, -0.01600000075995922, -0.08000000566244125, 1.055999994277954, 0.0, 0.0, 0.0, 0.0, 0.0, 1.6213383433872917E9, 2021-05-18 13:45:43.387
56.0, 27.07500648498535, 274.05987548828125, 66.95169067382812, -51.55078125, -0.01600000075995922, -0.08000000566244125, 1.055999994277954, 0.0, 0.0, 0.0, 0.0, 0.0, 1.6213383433880076E9, 2021-05-18 13:45:43.388
56.0, -10.567087173461914, 223.421630859375, 16.13018798828125, -91.13761901855469, -0.01600000075995922, -0.08000000566244125, 1.055999994277954, 0.0, 0.0, 0.0, 0.0, 0.0, 1.6213383433880076E9, 2021-05-18 13:45:43.388
57.0, -50.38580322265625, 186.7107696533203, -24.8067569732666, -124.45265197753906, -0.01600000075995922, -0.08000000566244125, 1.055999994277954, 0.0, 0.0, 0.0, 0.0, 0.0, 1.6213383434019763E9, 2021-05-18 13:45:43.401
57.0, -31.74614143371582, 213.5894317626953, 12.865256309509277, -94.03230285644531, -0.01600000075995922, -0.08000000566244125, 1.055999994277954, 0.0, 0.0, 0.0, 0.0, 0.0, 1.6213383434019763E9, 2021-05-18 13:45:43.401
58.0, 20.111312866210938, 270.1666259765625, 59.25123596191406, -43.05746841430664, -0.01600000075995922, -0.08000000566244125, 1.055999994277954, 0.0, 0.0, 0.0, 0.0, 0.0, 1.6213383434025795E9, 2021-05-18 13:45:43.402
58.0, -28.48120880126953, 224.18081665039062, 4.75341272354126, -87.31544494628906, -0.01600000075995922, -0.08000000566244125, 1.055999994277954, 0.0, 0.0, 0.0, 0.0, 0.0, 1.6213383434025795E9, 2021-05-18 13:45:43.402
59.0, -67.48462677001953, 190.1402587890625, -34.73619079589844, -131.2069091796875, -0.01600000075995922, -0.08000000566244125, 1.055999994277954, 0.0, 0.0, 0.0, 0.0, 0.0, 1.6213383434169292E9, 2021-05-18 13:45:43.416
59.0, -39.240901947021484, 220.34742736816406, -3.7137205600738525, -111.1947021484375, -0.01600000075995922, -0.08000000566244125, 1.055999994277954, 0.0, 0.0, 0.0, 0.0, 0.0, 1.6213383434169292E9, 2021-05-18 13:45:43.416
60.0, 9.138445854187012, 272.8967590332031, 56.40517044067383, -65.48564910888672, -0.01600000075995922, -0.08000000566244125, 1.055999994277954, 0.0, 0.0, 0.0, 0.0, 0.0, 1.6213383434175751E9, 2021-05-18 13:45:43.417
60.0, -28.63828468322754, 225.0596923828125, 2.0457253456115723, -116.7708969116211, -0.01600000075995922, -0.08000000566244125, 1.055999994277954, 0.0, 0.0, 0.0, 0.0, 0.0, 1.6213383434175751E9, 2021-05-18 13:45:43.417
61.0, -61.82615661621094, 187.4550018310547, -32.64932632446289, -157.9995574951172, -0.01600000075995922, -0.08000000566244125, 1.055999994277954, 0.0, 0.0, 0.0, 0.0, 0.0, 1.6213383434472482E9, 2021-05-18 13:45:43.447
61.0, -33.12990188598633, 214.4346466064453, -0.8751366138458252, -135.21981811523438, -0.01600000075995922, -0.08000000566244125, 1.055999994277954, 0.0, 0.0, 0.0, 0.0, 0.0, 1.6213383434472482E9, 2021-05-18 13:45:43.447
62.0, 19.7186222076416, 270.6416015625, 62.29177474975586, -77.48324584960938, -0.01600000075995922, -0.08000000566244125, 1.055999994277954, 0.0, 0.0, 0.0, 0.0, 0.0, 1.6213383434479735E9, 2021-05-18 13:45:43.447
62.0, -24.090564727783203, 230.2319793701172, 13.213066101074219, -122.65001678466797, -0.01600000075995922, -0.08000000566244125, 1.055999994277954, 0.0, 0.0, 0.0, 0.0, 0.0, 1.6213383434479735E9, 2021-05-18 13:45:43.447
63.0, -66.76282501220703, 194.86375427246094, -23.411773681640625, -154.32322692871094, -0.01600000075995922, -0.08000000566244125, 1.055999994277954, 0.0, 0.0, 0.0, 0.0, 0.0, 1.6213383434618783E9, 2021-05-18 13:45:43.461
63.0, -38.807071685791016, 233.65025329589844, 16.79589080810547, -113.97344970703125, -0.01600000075995922, -0.08000000566244125, 1.055999994277954, 0.0, 0.0, 0.0, 0.0, 0.0, 1.6213383434618783E9, 2021-05-18 13:45:43.461
64.0, 20.6461181640625, 284.4867248535156, 77.42340850830078, -52.381038665771484, -0.01600000075995922, -0.08000000566244125, 1.055999994277954, 0.0, 0.0, 0.0, 0.0, 0.0, 1.6213383434625866E9, 2021-05-18 13:45:43.462
64.0, -18.5742130279541, 227.79356384277344, 22.5590763092041, -97.83952331542969, -0.01600000075995922, -0.08000000566244125, 1.055999994277954, 0.0, 0.0, 0.0, 0.0, 0.0, 1.6213383434625866E9, 2021-05-18 13:45:43.462
65.0, -54.76522445678711, 192.31687927246094, -16.171327590942383, -128.2935333251953, -0.01600000075995922, -0.08000000566244125, 1.055999994277954, 0.0, 0.0, 0.0, 0.0, 0.0, 1.621338343476921E9, 2021-05-18 13:45:43.476
65.0, -23.76145362854004, 223.59739685058594, 19.02113151550293, -93.46009826660156, -0.01600000075995922, -0.08000000566244125, 1.055999994277954, 0.0, 0.0, 0.0, 0.0, 0.0, 1.621338343476921E9, 2021-05-18 13:45:43.476
66.0, 24.251380920410156, 269.2503662109375, 71.99681091308594, -43.10608673095703, -0.01600000075995922, -0.08000000566244125, 1.055999994277954, 0.0, 0.0, 0.0, 0.0, 0.0, 1.6213383434776397E9, 2021-05-18 13:45:43.477
66.0, -18.387218475341797, 223.4066619873047, 19.14828872680664, -88.62066650390625, -0.01600000075995922, -0.08000000566244125, 1.055999994277954, 0.0, 0.0, 0.0, 0.0, 0.0, 1.6213383434776397E9, 2021-05-18 13:45:43.477
67.0, -63.1126823425293, 185.9478302001953, -27.34988784790039, -128.39076232910156, -0.01600000075995922, -0.08000000566244125, 1.055999994277954, 0.0, 0.0, 0.0, 0.0, 0.0, 1.6213383434912753E9, 2021-05-18 13:45:43.491
67.0, -39.768226623535156, 215.50051879882812, -4.125109672546387, -108.25514221191406, -0.01600000075995922, -0.08000000566244125, 1.055999994277954, 0.0, 0.0, 0.0, 0.0, 0.0, 1.6213383434912753E9, 2021-05-18 13:45:43.491
68.0, 10.533428192138672, 266.62493896484375, 55.55247497558594, -59.18017578125, -0.01600000075995922, -0.08000000566244125, 1.055999994277954, 0.0, 0.0, 0.0, 0.0, 0.0, 1.6213383435068393E9, 2021-05-18 13:45:43.506
68.0, -27.635990142822266, 227.19517517089844, 14.705286979675293, -102.24512481689453, -0.01600000075995922, -0.08000000566244125, 1.055999994277954, 0.0, 0.0, 0.0, 0.0, 0.0, 1.6213383435068393E9, 2021-05-18 13:45:43.506
69.0, -71.10110473632812, 182.22288513183594, -32.50720977783203, -145.7850341796875, -0.01600000075995922, -0.08000000566244125, 1.055999994277954, 0.0, 0.0, 0.0, 0.0, 0.0, 1.6213383435076456E9, 2021-05-18 13:45:43.507
69.0, -40.49376678466797, 219.60691833496094, 3.051758289337158, -120.4659194946289, -0.01600000075995922, -0.08000000566244125, 1.055999994277954, 0.0, 0.0, 0.0, 0.0, 0.0, 1.6213383435076456E9, 2021-05-18 13:45:43.507
70.0, 13.009242057800293, 268.7417297363281, 65.69134521484375, -70.74020385742188, -0.01600000075995922, -0.08000000566244125, 1.055999994277954, 0.0, 0.0, 0.0, 0.0, 0.0, 1.621338343537637E9, 2021-05-18 13:45:43.537
70.0, -23.44356346130371, 221.81346130371094, 13.964786529541016, -114.1006088256836, -0.01600000075995922, -0.08000000566244125, 1.055999994277954, 0.0, 0.0, 0.0, 0.0, 0.0, 1.621338343537637E9, 2021-05-18 13:45:43.537
71.0, -62.046810150146484, 186.2283172607422, -23.056482315063477, -147.4904327392578, -0.01600000075995922, -0.08000000566244125, 1.055999994277954, 0.0, 0.0, 0.0, 0.0, 0.0, 1.6213383435383887E9, 2021-05-18 13:45:43.538
71.0, -31.996713638305664, 219.79391479492188, 12.330450057983398, -115.03184509277344, -0.01600000075995922, -0.08000000566244125, 1.055999994277954, 0.0, 0.0, 0.0, 0.0, 0.0, 1.6213383435383887E9, 2021-05-18 13:45:43.538
72.0, 13.345832824707031, 272.90423583984375, 64.09440612792969, -60.98280715942383, -0.01600000075995922, -0.08000000566244125, 1.055999994277954, 0.0, 0.0, 0.0, 0.0, 0.0, 1.621338343539153E9, 2021-05-18 13:45:43.539
72.0, -28.971134185791016, 226.86607360839844, 15.752458572387695, -104.10011291503906, -0.01600000075995922, -0.08000000566244125, 1.055999994277954, 0.0, 0.0, 0.0, 0.0, 0.0, 1.621338343539153E9, 2021-05-18 13:45:43.539
73.0, -60.4648323059082, 194.19430541992188, -17.75704574584961, -135.51153564453125, -0.01600000075995922, -0.08000000566244125, 1.055999994277954, 0.0, 0.0, 0.0, 0.0, 0.0, 1.6213383435512323E9, 2021-05-18 13:45:43.551
