Sample Index, EXG Channel 0, EXG Channel 1, EXG Channel 2, EXG Channel 3, Accel Channel 0, Accel Channel 1, Accel Channel 2, Other, Other, Other, Other, Other, Timestamp, Timestamp (Formatted)
0.0, 147.92800903320312, 32.19492721557617, -80.76500701904297, 80.66029357910156, 0.0, 0.0, 0.0, 0.0, 0.0, 0.0, 0.0, 0.0, 1.6213487478862872E9, 2021-05-18 16:39:07.886
1.0, 163.3064727783203, -52.27819061279297, -58.52382278442383, 100.14143371582031, 0.0, -0.08000000566244125, 0.0, 0.0, 0.0, 0.0, 0.0, 0.0, 1.6213487478997004E9, 2021-05-18 16:39:07.899
1.0, 100.46493530273438, -82.08893585205078, -102.0263442993164, 35.788970947265625, 0.0, -0.08000000566244125, 0.0, 0.0, 0.0, 0.0, 0.0, 0.0, 1.6213487478997004E9, 2021-05-18 16:39:07.899
2.0, 124.33297729492188, -58.86415481567383, -91.99967193603516, 60.4648323059082, -0.01600000075995922, -0.08000000566244125, 0.0, 0.0, 0.0, 0.0, 0.0, 0.0, 1.6213487479163003E9, 2021-05-18 16:39:07.916
2.0, 155.72943115234375, 7.201177597045898, -54.649288177490234, 101.34941864013672, -0.01600000075995922, -0.08000000566244125, 0.0, 0.0, 0.0, 0.0, 0.0, 0.0, 1.6213487479163003E9, 2021-05-18 16:39:07.916
3.0, 148.4216766357422, 15.193343162536621, -38.133888244628906, 113.00294494628906, -0.01600000075995922, -0.08000000566244125, 0.0, 0.0, 0.0, 0.0, 0.0, 0.0, 1.621348747917081E9, 2021-05-18 16:39:07.917
3.0, 107.7203369140625, -77.836669921875, -105.21647644042969, 39.06138610839844, -0.01600000075995922, -0.08000000566244125, 0.0, 0.0, 0.0, 0.0, 0.0, 0.0, 1.621348747917081E9, 2021-05-18 16:39:07.917
4.0, 99.8515853881836, -66.92363739013672, -107.15748596191406, 49.832298278808594, -0.01600000075995922, -0.08000000566244125, 0.0, 0.0, 0.0, 0.0, 0.0, 0.0, 1.621348747929377E9, 2021-05-18 16:39:07.929
4.0, 136.58114624023438, -20.840593338012695, -69.82205963134766, 93.77238464355469, -0.01600000075995922, -0.08000000566244125, 0.0, 0.0, 0.0, 0.0, 0.0, 0.0, 1.621348747929377E9, 2021-05-18 16:39:07.929
5.0, 170.25894165039062, 12.08548641204834, -52.28940963745117, 113.73970794677734, -0.01600000075995922, -0.08000000566244125, 0.0, 0.0, 0.0, 0.0, 0.0, 0.0, 1.621348747960585E9, 2021-05-18 16:39:07.960
5.0, 101.88235473632812, -58.55000305175781, -118.21263122558594, 30.07814598083496, -0.01600000075995922, -0.08000000566244125, 0.0, 0.0, 0.0, 0.0, 0.0, 0.0, 1.621348747960585E9, 2021-05-18 16:39:07.960
6.0, 94.87752532958984, -66.77778625488281, -120.0152587890625, 51.115081787109375, -0.01600000075995922, -0.08000000566244125, 0.0, 0.0, 0.0, 0.0, 0.0, 0.0, 1.6213487479613142E9, 2021-05-18 16:39:07.961
6.0, 135.66860961914062, -11.068233489990234, -83.32310485839844, 101.2634048461914, -0.01600000075995922, -0.08000000566244125, 0.0, 0.0, 0.0, 0.0, 0.0, 0.0, 1.6213487479613142E9, 2021-05-18 16:39:07.961
7.0, 162.93247985839844, 0.843347430229187, -52.03135681152344, 127.8017349243164, -0.01600000075995922, -0.08000000566244125, 0.0, 0.0, 0.0, 0.0, 0.0, 0.0, 1.6213487479758613E9, 2021-05-18 16:39:07.975
7.0, 86.0999755859375, -57.95909881591797, -123.8075180053711, 41.9261474609375, -0.01600000075995922, -0.08000000566244125, 0.0, 0.0, 0.0, 0.0, 0.0, 0.0, 1.6213487479758613E9, 2021-05-18 16:39:07.975
8.0, 100.2330551147461, -73.84993743896484, -112.0268325805664, 55.8460578918457, -0.01600000075995922, -0.08000000566244125, 0.0, 0.0, 0.0, 0.0, 0.0, 0.0, 1.6213487479765515E9, 2021-05-18 16:39:07.976
8.0, 126.04210662841797, -21.569873809814453, -79.78515625, 100.16387176513672, -0.01600000075995922, -0.08000000566244125, 0.0, 0.0, 0.0, 0.0, 0.0, 0.0, 1.6213487479765515E9, 2021-05-18 16:39:07.976
9.0, 167.0201873779297, 16.13579750061035, -51.646148681640625, 118.09668731689453, -0.01600000075995922, -0.08000000566244125, 0.0, 0.0, 0.0, 0.0, 0.0, 0.0, 1.6213487479772725E9, 2021-05-18 16:39:07.977
9.0, 91.35453796386719, -96.90641784667969, -119.02044677734375, 37.44200897216797, -0.01600000075995922, -0.08000000566244125, 0.0, 0.0, 0.0, 0.0, 0.0, 0.0, 1.6213487479772725E9, 2021-05-18 16:39:07.977
10.0, 117.26456451416016, -40.3292121887207, -107.57635498046875, 54.86620330810547, -0.01600000075995922, -0.08000000566244125, 1.055999994277954, 0.0, 0.0, 0.0, 0.0, 0.0, 1.6213487479893951E9, 2021-05-18 16:39:07.989
10.0, 154.78697204589844, -22.22061538696289, -71.59851837158203, 95.90038299560547, -0.01600000075995922, -0.08000000566244125, 1.055999994277954, 0.0, 0.0, 0.0, 0.0, 0.0, 1.6213487479893951E9, 2021-05-18 16:39:07.989
11.0, 171.9044952392578, -1.4604309797286987, -44.40570068359375, 114.5737075805664, -0.01600000075995922, -0.08000000566244125, 1.055999994277954, 0.0, 0.0, 0.0, 0.0, 0.0, 1.6213487480052545E9, 2021-05-18 16:39:08.005
11.0, 100.04232025146484, -51.017845153808594, -108.30937194824219, 31.43572998046875, -0.01600000075995922, -0.08000000566244125, 1.055999994277954, 0.0, 0.0, 0.0, 0.0, 0.0, 1.6213487480052545E9, 2021-05-18 16:39:08.005
12.0, 107.51838684082031, -15.40651798248291, -100.93428802490234, 46.03629684448242, -0.01600000075995922, -0.08000000566244125, 1.055999994277954, 0.0, 0.0, 0.0, 0.0, 0.0, 1.621348748005934E9, 2021-05-18 16:39:08.005
12.0, 138.18556213378906, 7.21239709854126, -69.73604583740234, 84.703125, -0.01600000075995922, -0.08000000566244125, 1.055999994277954, 0.0, 0.0, 0.0, 0.0, 0.0, 1.621348748005934E9, 2021-05-18 16:39:08.005
13.0, 174.12600708007812, 4.067141056060791, -31.170196533203125, 120.06013488769531, -0.01600000075995922, -0.08000000566244125, 1.055999994277954, 0.0, 0.0, 0.0, 0.0, 0.0, 1.621348748019514E9, 2021-05-18 16:39:08.019
13.0, 114.51199340820312, -87.0966567993164, -97.2317886352539, 43.15657424926758, -0.01600000075995922, -0.08000000566244125, 1.055999994277954, 0.0, 0.0, 0.0, 0.0, 0.0, 1.621348748019514E9, 2021-05-18 16:39:08.019
14.0, 100.68558502197266, -85.1893081665039, -101.21478271484375, 58.568702697753906, -0.01600000075995922, -0.08000000566244125, 1.055999994277954, 0.0, 0.0, 0.0, 0.0, 0.0, 1.6213487480357184E9, 2021-05-18 16:39:08.035
14.0, 132.32139587402344, -10.424971580505371, -61.90095520019531, 112.7860336303711, -0.01600000075995922, -0.08000000566244125, 1.055999994277954, 0.0, 0.0, 0.0, 0.0, 0.0, 1.6213487480357184E9, 2021-05-18 16:39:08.035
15.0, 160.5389404296875, 11.12059211730957, -41.32402420043945, 130.7525177001953, -0.01600000075995922, -0.08000000566244125, 1.055999994277954, 0.0, 0.0, 0.0, 0.0, 0.0, 1.6213487480501835E9, 2021-05-18 16:39:08.050
15.0, 82.92854309082031, -76.78575897216797, -111.03575897216797, 47.03485107421875, -0.01600000075995922, -0.08000000566244125, 1.055999994277954, 0.0, 0.0, 0.0, 0.0, 0.0, 1.6213487480501835E9, 2021-05-18 16:39:08.050
16.0, 98.17611694335938, -67.16673278808594, -107.54269409179688, 65.40149688720703, -0.01600000075995922, -0.08000000566244125, 1.055999994277954, 0.0, 0.0, 0.0, 0.0, 0.0, 1.62134874805085E9, 2021-05-18 16:39:08.050
16.0, 143.9188232421875, -6.599053382873535, -75.19255828857422, 107.1911392211914, -0.01600000075995922, -0.08000000566244125, 1.055999994277954, 0.0, 0.0, 0.0, 0.0, 0.0, 1.62134874805085E9, 2021-05-18 16:39:08.050
17.0, 164.24143981933594, 16.15823745727539, -48.99829864501953, 126.42170715332031, -0.01600000075995922, -0.08000000566244125, 1.055999994277954, 0.0, 0.0, 0.0, 0.0, 0.0, 1.6213487480650828E9, 2021-05-18 16:39:08.065
17.0, 81.8626708984375, -73.41236877441406, -114.44654846191406, 49.31245040893555, -0.01600000075995922, -0.08000000566244125, 1.055999994277954, 0.0, 0.0, 0.0, 0.0, 0.0, 1.6213487480650828E9, 2021-05-18 16:39:08.065
18.0, 93.2843246459961, -35.43368148803711, -108.64222717285156, 58.845455169677734, -0.01600000075995922, -0.08000000566244125, 1.055999994277954, 0.0, 0.0, 0.0, 0.0, 0.0, 1.6213487480658245E9, 2021-05-18 16:39:08.065
18.0, 139.16542053222656, -30.26140022277832, -71.8752670288086, 104.68914794921875, -0.01600000075995922, -0.08000000566244125, 1.055999994277954, 0.0, 0.0, 0.0, 0.0, 0.0, 1.6213487480658245E9, 2021-05-18 16:39:08.065
19.0, 151.4659423828125, 10.410011291503906, -50.99540710449219, 123.55694580078125, -0.01600000075995922, -0.08000000566244125, 1.055999994277954, 0.0, 0.0, 0.0, 0.0, 0.0, 1.6213487480794332E9, 2021-05-18 16:39:08.079
19.0, 103.45310974121094, -69.39571380615234, -108.60482788085938, 50.68125534057617, -0.01600000075995922, -0.08000000566244125, 1.055999994277954, 0.0, 0.0, 0.0, 0.0, 0.0, 1.6213487480794332E9, 2021-05-18 16:39:08.079
20.0, 108.67027282714844, -24.52439308166504, -104.25906372070312, 63.07528305053711, -0.01600000075995922, -0.08000000566244125, 1.055999994277954, 0.0, 0.0, 0.0, 0.0, 0.0, 1.6213487480951736E9, 2021-05-18 16:39:08.095
20.0, 135.84439086914062, -36.858585357666016, -71.26192474365234, 100.29850769042969, -0.01600000075995922, -0.08000000566244125, 1.055999994277954, 0.0, 0.0, 0.0, 0.0, 0.0, 1.6213487480951736E9, 2021-05-18 16:39:08.095
21.0, 162.63328552246094, -2.5524816513061523, -40.385311126708984, 119.25605773925781, -0.01600000075995922, -0.08000000566244125, 1.055999994277954, 0.0, 0.0, 0.0, 0.0, 0.0, 1.6213487480958607E9, 2021-05-18 16:39:08.095
21.0, 103.55409240722656, -80.62663269042969, -102.30309295654297, 35.62067794799805, -0.01600000075995922, -0.08000000566244125, 1.055999994277954, 0.0, 0.0, 0.0, 0.0, 0.0, 1.6213487480958607E9, 2021-05-18 16:39:08.095
22.0, 116.752197265625, -36.69028854370117, -91.94357299804688, 53.2879638671875, -0.01600000075995922, -0.08000000566244125, 1.055999994277954, 0.0, 0.0, 0.0, 0.0, 0.0, 1.6213487481249976E9, 2021-05-18 16:39:08.124
22.0, 146.77236938476562, -30.971981048583984, -60.726627349853516, 94.19873046875, -0.01600000075995922, -0.08000000566244125, 1.055999994277954, 0.0, 0.0, 0.0, 0.0, 0.0, 1.6213487481249976E9, 2021-05-18 16:39:08.124
23.0, 173.21347045898438, 4.635605812072754, -36.88850402832031, 111.11429595947266, -0.01600000075995922, -0.08000000566244125, 1.055999994277954, 0.0, 0.0, 0.0, 0.0, 0.0, 1.6213487481570797E9, 2021-05-18 16:39:08.157
23.0, 116.50162506103516, -78.599609375, -98.86986541748047, 38.78837203979492, -0.01600000075995922, -0.08000000566244125, 1.055999994277954, 0.0, 0.0, 0.0, 0.0, 0.0, 1.6213487481570797E9, 2021-05-18 16:39:08.157
24.0, 109.205078125, -52.266971588134766, -95.8480224609375, 60.752803802490234, -0.01600000075995922, -0.08000000566244125, 1.055999994277954, 0.0, 0.0, 0.0, 0.0, 0.0, 1.6213487481577325E9, 2021-05-18 16:39:08.157
24.0, 126.97708129882812, -20.919130325317383, -67.98950958251953, 106.8096694946289, -0.01600000075995922, -0.08000000566244125, 1.055999994277954, 0.0, 0.0, 0.0, 0.0, 0.0, 1.6213487481577325E9, 2021-05-18 16:39:08.157
25.0, 145.39234924316406, 0.08414775133132935, -44.970428466796875, 134.41387939453125, -0.01600000075995922, -0.08000000566244125, 1.055999994277954, 0.0, 0.0, 0.0, 0.0, 0.0, 1.6213487481585693E9, 2021-05-18 16:39:08.158
25.0, 94.72044372558594, -40.13099670410156, -106.31226348876953, 60.06466293334961, -0.01600000075995922, -0.08000000566244125, 1.055999994277954, 0.0, 0.0, 0.0, 0.0, 0.0, 1.6213487481585693E9, 2021-05-18 16:39:08.158
26.0, 85.22109985351562, -37.7411994934082, -108.35799407958984, 72.38389587402344, -0.01600000075995922, -0.08000000566244125, 1.055999994277954, 0.0, 0.0, 0.0, 0.0, 0.0, 1.6213487481593149E9, 2021-05-18 16:39:08.159
26.0, 139.7600555419922, -39.92156219482422, -67.26396942138672, 131.6239013671875, -0.01600000075995922, -0.08000000566244125, 1.055999994277954, 0.0, 0.0, 0.0, 0.0, 0.0, 1.6213487481593149E9, 2021-05-18 16:39:08.159
27.0, 149.58851623535156, -3.573474407196045, -53.2356071472168, 137.07293701171875, -0.01600000075995922, -0.08000000566244125, 1.055999994277954, 0.0, 0.0, 0.0, 0.0, 0.0, 1.6213487481716607E9, 2021-05-18 16:39:08.171
27.0, 105.43900299072266, -79.80011749267578, -123.11190032958984, 64.45156860351562, -0.01600000075995922, -0.08000000566244125, 1.055999994277954, 0.0, 0.0, 0.0, 0.0, 0.0, 1.6213487481716607E9, 2021-05-18 16:39:08.171
28.0, 91.85194396972656, -77.66463470458984, -117.78253936767578, 68.32610321044922, -0.01600000075995922, -0.08000000566244125, 1.055999994277954, 0.0, 0.0, 0.0, 0.0, 0.0, 1.6213487481723096E9, 2021-05-18 16:39:08.172
28.0, 131.43504333496094, -30.72140884399414, -82.68357849121094, 108.90027618408203, -0.01600000075995922, -0.08000000566244125, 1.055999994277954, 0.0, 0.0, 0.0, 0.0, 0.0, 1.6213487481723096E9, 2021-05-18 16:39:08.172
29.0, 155.44520568847656, -2.5225625038146973, -58.84919738769531, 117.35619354248047, -0.01600000075995922, -0.08000000566244125, 1.055999994277954, 0.0, 0.0, 0.0, 0.0, 0.0, 1.6213487481729736E9, 2021-05-18 16:39:08.172
29.0, 100.02362060546875, -100.62761688232422, -128.68809509277344, 35.4710807800293, -0.01600000075995922, -0.08000000566244125, 1.055999994277954, 0.0, 0.0, 0.0, 0.0, 0.0, 1.6213487481729736E9, 2021-05-18 16:39:08.172
30.0, 120.98202514648438, -68.1054458618164, -106.76105499267578, 54.67546844482422, -0.01600000075995922, -0.08000000566244125, 1.055999994277954, 0.0, 0.0, 0.0, 0.0, 0.0, 1.621348748184498E9, 2021-05-18 16:39:08.184
30.0, 136.2445526123047, -7.649965286254883, -75.38703155517578, 98.92596435546875, -0.01600000075995922, -0.08000000566244125, 1.055999994277954, 0.0, 0.0, 0.0, 0.0, 0.0, 1.621348748184498E9, 2021-05-18 16:39:08.184
31.0, 163.1830596923828, -0.6787918210029602, -41.481101989746094, 122.91368103027344, -0.01600000075995922, -0.08000000566244125, 1.055999994277954, 0.0, 0.0, 0.0, 0.0, 0.0, 1.6213487481994593E9, 2021-05-18 16:39:08.199
31.0, 106.30665588378906, -71.21330261230469, -104.12442779541016, 52.71202087402344, -0.01600000075995922, -0.08000000566244125, 1.055999994277954, 0.0, 0.0, 0.0, 0.0, 0.0, 1.6213487481994593E9, 2021-05-18 16:39:08.199
32.0, 107.2752914428711, -53.759193420410156, -104.54329681396484, 54.219200134277344, -0.01600000075995922, -0.08000000566244125, 1.055999994277954, 0.0, 0.0, 0.0, 0.0, 0.0, 1.6213487482151744E9, 2021-05-18 16:39:08.215
32.0, 144.08712768554688, -14.243409156799316, -69.32465362548828, 90.72062683105469, -0.01600000075995922, -0.08000000566244125, 1.055999994277954, 0.0, 0.0, 0.0, 0.0, 0.0, 1.6213487482151744E9, 2021-05-18 16:39:08.215
33.0, 181.72547912597656, -5.0843939781188965, -43.46698760986328, 110.32144165039062, -0.01600000075995922, -0.08000000566244125, 1.055999994277954, 0.0, 0.0, 0.0, 0.0, 0.0, 1.6213487482159047E9, 2021-05-18 16:39:08.215
33.0, 102.42463684082031, -74.36978149414062, -109.58841705322266, 39.74578857421875, -0.01600000075995922, -0.08000000566244125, 1.055999994277954, 0.0, 0.0, 0.0, 0.0, 0.0, 1.6213487482159047E9, 2021-05-18 16:39:08.215
34.0, 106.78162384033203, -48.485931396484375, -107.59505462646484, 50.56157684326172, -0.01600000075995922, -0.08000000566244125, 1.055999994277954, 0.0, 0.0, 0.0, 0.0, 0.0, 1.6213487482465835E9, 2021-05-18 16:39:08.246
34.0, 127.85221862792969, -31.686302185058594, -71.31053924560547, 97.30658721923828, -0.01600000075995922, -0.08000000566244125, 1.055999994277954, 0.0, 0.0, 0.0, 0.0, 0.0, 1.6213487482465835E9, 2021-05-18 16:39:08.246
35.0, 163.8450164794922, 0.4469180405139923, -36.694026947021484, 123.77385711669922, -0.01600000075995922, -0.08000000566244125, 1.055999994277954, 0.0, 0.0, 0.0, 0.0, 0.0, 1.621348748247212E9, 2021-05-18 16:39:08.247
35.0, 106.87886047363281, -88.93669128417969, -115.30672454833984, 50.10157012939453, -0.01600000075995922, -0.08000000566244125, 1.055999994277954, 0.0, 0.0, 0.0, 0.0, 0.0, 1.621348748247212E9, 2021-05-18 16:39:08.247
36.0, 116.08649444580078, -46.20833206176758, -110.0970458984375, 61.39232635498047, -0.01600000075995922, -0.08000000566244125, 1.055999994277954, 0.0, 0.0, 0.0, 0.0, 0.0, 1.6213487482481136E9, 2021-05-18 16:39:08.248
36.0, 126.25154113769531, -16.16571807861328, -86.48705291748047, 105.1977767944336, -0.01600000075995922, -0.08000000566244125, 1.055999994277954, 0.0, 0.0, 0.0, 0.0, 0.0, 1.6213487482481136E9, 2021-05-18 16:39:08.248
37.0, 148.93777465820312, -7.440530776977539, -59.084808349609375, 126.7358627319336, -0.01600000075995922, -0.08000000566244125, 1.055999994277954, 0.0, 0.0, 0.0, 0.0, 0.0, 1.6213487482596176E9, 2021-05-18 16:39:08.259
37.0, 94.8924789428711, -55.786216735839844, -119.80582427978516, 53.33658218383789, -0.01600000075995922, -0.08000000566244125, 1.055999994277954, 0.0, 0.0, 0.0, 0.0, 0.0, 1.6213487482596176E9, 2021-05-18 16:39:08.259
38.0, 96.998046875, -52.319332122802734, -113.38441467285156, 61.13801574707031, -0.01600000075995922, -0.08000000566244125, 1.055999994277954, 0.0, 0.0, 0.0, 0.0, 0.0, 1.6213487482752278E9, 2021-05-18 16:39:08.275
38.0, 132.54953002929688, -9.7742280960083, -75.64134979248047, 99.32239532470703, -0.01600000075995922, -0.08000000566244125, 1.055999994277954, 0.0, 0.0, 0.0, 0.0, 0.0, 1.6213487482752278E9, 2021-05-18 16:39:08.275
39.0, 159.76478576660156, 20.713436126708984, -52.1323356628418, 124.2338638305664, -0.01600000075995922, -0.08000000566244125, 1.055999994277954, 0.0, 0.0, 0.0, 0.0, 0.0, 1.6213487482759235E9, 2021-05-18 16:39:08.275
39.0, 97.32341766357422, -67.26396942138672, -125.10900115966797, 41.5334587097168, -0.01600000075995922, -0.08000000566244125, 1.055999994277954, 0.0, 0.0, 0.0, 0.0, 0.0, 1.6213487482759235E9, 2021-05-18 16:39:08.275
40.0, 105.27070617675781, -62.7125129699707, -113.67613220214844, 53.59089660644531, -0.01600000075995922, -0.08000000566244125, 1.055999994277954, 0.0, 0.0, 0.0, 0.0, 0.0, 1.6213487482895975E9, 2021-05-18 16:39:08.289
40.0, 136.14732360839844, -0.6376529335975647, -78.34529113769531, 94.9205322265625, -0.01600000075995922, -0.08000000566244125, 1.055999994277954, 0.0, 0.0, 0.0, 0.0, 0.0, 1.6213487482895975E9, 2021-05-18 16:39:08.289
41.0, 169.58950805664062, 15.571073532104492, -47.04607009887695, 112.09789276123047, -0.01600000075995922, -0.08000000566244125, 1.055999994277954, 0.0, 0.0, 0.0, 0.0, 0.0, 1.6213487483055208E9, 2021-05-18 16:39:08.305
41.0, 118.32295227050781, -76.80445861816406, -114.36801147460938, 41.4923210144043, -0.01600000075995922, -0.08000000566244125, 1.055999994277954, 0.0, 0.0, 0.0, 0.0, 0.0, 1.6213487483055208E9, 2021-05-18 16:39:08.305
42.0, 117.60115051269531, -79.07831573486328, -109.86143493652344, 52.457706451416016, -0.01600000075995922, -0.08000000566244125, 1.055999994277954, 0.0, 0.0, 0.0, 0.0, 0.0, 1.621348748320246E9, 2021-05-18 16:39:08.320
42.0, 153.4293975830078, 43.59040451049805, -75.70866394042969, 86.62543487548828, -0.01600000075995922, -0.08000000566244125, 1.055999994277954, 0.0, 0.0, 0.0, 0.0, 0.0, 1.621348748320246E9, 2021-05-18 16:39:08.320
43.0, 156.095947265625, -12.912004470825195, -48.03340530395508, 107.6100082397461, -0.01600000075995922, -0.08000000566244125, 1.055999994277954, 0.0, 0.0, 0.0, 0.0, 0.0, 1.6213487483210013E9, 2021-05-18 16:39:08.321
43.0, 110.85811614990234, -89.46775817871094, -99.44207000732422, 39.82058334350586, -0.01600000075995922, -0.08000000566244125, 1.055999994277954, 0.0, 0.0, 0.0, 0.0, 0.0, 1.6213487483210013E9, 2021-05-18 16:39:08.321
44.0, 125.742919921875, -56.95680618286133, -89.67719268798828, 64.70587921142578, -0.01600000075995922, -0.08000000566244125, 1.055999994277954, 0.0, 0.0, 0.0, 0.0, 0.0, 1.6213487483350873E9, 2021-05-18 16:39:08.335
44.0, 133.9744415283203, -8.326887130737305, -60.0721435546875, 101.53641510009766, -0.01600000075995922, -0.08000000566244125, 1.055999994277954, 0.0, 0.0, 0.0, 0.0, 0.0, 1.6213487483350873E9, 2021-05-18 16:39:08.335
45.0, 143.3765411376953, 21.9962215423584, -41.712974548339844, 130.30372619628906, -0.01600000075995922, -0.08000000566244125, 1.055999994277954, 0.0, 0.0, 0.0, 0.0, 0.0, 1.6213487483358102E9, 2021-05-18 16:39:08.335
45.0, 97.75350189208984, -48.03340530395508, -101.85430908203125, 63.66618728637695, -0.01600000075995922, -0.08000000566244125, 1.055999994277954, 0.0, 0.0, 0.0, 0.0, 0.0, 1.6213487483358102E9, 2021-05-18 16:39:08.335
46.0, 93.86026763916016, -90.29427337646484, -109.72305297851562, 66.979736328125, -0.01600000075995922, -0.08000000566244125, 1.055999994277954, 0.0, 0.0, 0.0, 0.0, 0.0, 1.6213487483664253E9, 2021-05-18 16:39:08.366
46.0, 129.03402709960938, -11.14303207397461, -68.83098602294922, 115.76299285888672, -0.01600000075995922, -0.08000000566244125, 1.055999994277954, 0.0, 0.0, 0.0, 0.0, 0.0, 1.6213487483664253E9, 2021-05-18 16:39:08.366
47.0, 160.00039672851562, 16.2853946685791, -44.1214714050293, 135.5769805908203, -0.01600000075995922, -0.08000000566244125, 1.055999994277954, 0.0, 0.0, 0.0, 0.0, 0.0, 1.6213487483671381E9, 2021-05-18 16:39:08.367
47.0, 93.1235122680664, -76.72217559814453, -115.36282348632812, 48.60560989379883, -0.01600000075995922, -0.08000000566244125, 1.055999994277954, 0.0, 0.0, 0.0, 0.0, 0.0, 1.6213487483671381E9, 2021-05-18 16:39:08.367
48.0, 102.63033294677734, -64.73580169677734, -115.0785903930664, 60.16189956665039, -0.01600000075995922, -0.08000000566244125, 1.055999994277954, 0.0, 0.0, 0.0, 0.0, 0.0, 1.6213487483680081E9, 2021-05-18 16:39:08.368
48.0, 132.01846313476562, -20.676036834716797, -84.620849609375, 95.806884765625, -0.01600000075995922, -0.08000000566244125, 1.055999994277954, 0.0, 0.0, 0.0, 0.0, 0.0, 1.6213487483680081E9, 2021-05-18 16:39:08.368
49.0, 162.25555419921875, 9.61715316772461, -53.19446563720703, 116.89617919921875, -0.01600000075995922, -0.08000000566244125, 1.055999994277954, 0.0, 0.0, 0.0, 0.0, 0.0, 1.621348748379418E9, 2021-05-18 16:39:08.379
49.0, 114.27264404296875, -65.90264892578125, -115.63957977294922, 45.965240478515625, -0.01600000075995922, -0.08000000566244125, 1.055999994277954, 0.0, 0.0, 0.0, 0.0, 0.0, 1.621348748379418E9, 2021-05-18 16:39:08.379
50.0, 116.72602081298828, -52.24079132080078, -102.5274887084961, 54.929779052734375, -0.01600000075995922, -0.08000000566244125, 1.055999994277954, 0.0, 0.0, 0.0, 0.0, 0.0, 1.6213487483952696E9, 2021-05-18 16:39:08.395
50.0, 142.23587036132812, -19.426910400390625, -80.47703552246094, 89.94646453857422, -0.01600000075995922, -0.08000000566244125, 1.055999994277954, 0.0, 0.0, 0.0, 0.0, 0.0, 1.6213487483952696E9, 2021-05-18 16:39:08.395
51.0, 174.39154052734375, 63.1650390625, -42.423553466796875, 115.7779541015625, -0.01600000075995922, -0.08000000566244125, 1.055999994277954, 0.0, 0.0, 0.0, 0.0, 0.0, 1.6213487483958318E9, 2021-05-18 16:39:08.395
51.0, 99.68329620361328, -115.87145233154297, -118.32482147216797, 28.462509155273438, -0.01600000075995922, -0.08000000566244125, 1.055999994277954, 0.0, 0.0, 0.0, 0.0, 0.0, 1.6213487483958318E9, 2021-05-18 16:39:08.395
52.0, 127.093017578125, -54.38749694824219, -95.87794494628906, 48.36251449584961, -0.01600000075995922, -0.08000000566244125, 1.055999994277954, 0.0, 0.0, 0.0, 0.0, 0.0, 1.6213487484266267E9, 2021-05-18 16:39:08.426
52.0, 141.07650756835938, -42.86860275268555, -64.01773834228516, 83.99254608154297, -0.01600000075995922, -0.08000000566244125, 1.055999994277954, 0.0, 0.0, 0.0, 0.0, 0.0, 1.6213487484266267E9, 2021-05-18 16:39:08.426
53.0, 176.18295288085938, 10.275375366210938, -23.200469970703125, 117.9657974243164, -0.01600000075995922, -0.08000000566244125, 1.055999994277954, 0.0, 0.0, 0.0, 0.0, 0.0, 1.621348748427346E9, 2021-05-18 16:39:08.427
53.0, 115.09542083740234, -69.42189025878906, -91.2890853881836, 37.367210388183594, -0.01600000075995922, -0.08000000566244125, 1.055999994277954, 0.0, 0.0, 0.0, 0.0, 0.0, 1.621348748427346E9, 2021-05-18 16:39:08.427
54.0, 95.70030212402344, -60.053443908691406, -96.81291961669922, 54.29025650024414, -0.01600000075995922, -0.08000000566244125, 1.055999994277954, 0.0, 0.0, 0.0, 0.0, 0.0, 1.621348748427996E9, 2021-05-18 16:39:08.427
54.0, 129.052734375, -5.3835859298706055, -66.34021759033203, 112.26244354248047, -0.01600000075995922, -0.08000000566244125, 1.055999994277954, 0.0, 0.0, 0.0, 0.0, 0.0, 1.621348748427996E9, 2021-05-18 16:39:08.427
55.0, 153.291015625, -9.179584503173828, -40.0075798034668, 138.29588317871094, -0.01600000075995922, -0.08000000566244125, 1.055999994277954, 0.0, 0.0, 0.0, 0.0, 0.0, 1.621348748439531E9, 2021-05-18 16:39:08.439
55.0, 94.03604125976562, -76.13127136230469, -107.64366912841797, 67.320068359375, -0.01600000075995922, -0.08000000566244125, 1.055999994277954, 0.0, 0.0, 0.0, 0.0, 0.0, 1.621348748439531E9, 2021-05-18 16:39:08.439
56.0, 102.59293365478516, -72.53349304199219, -107.03406524658203, 75.49175262451172, -0.01600000075995922, -0.08000000566244125, 1.055999994277954, 0.0, 0.0, 0.0, 0.0, 0.0, 1.621348748455106E9, 2021-05-18 16:39:08.455
56.0, 115.91819763183594, -17.179229736328125, -74.53807830810547, 112.427001953125, -0.01600000075995922, -0.08000000566244125, 1.055999994277954, 0.0, 0.0, 0.0, 0.0, 0.0, 1.621348748455106E9, 2021-05-18 16:39:08.455
57.0, 153.8931427001953, -15.866525650024414, -45.89044189453125, 140.86146545410156, -0.01600000075995922, -0.08000000566244125, 1.055999994277954, 0.0, 0.0, 0.0, 0.0, 0.0, 1.621348748455825E9, 2021-05-18 16:39:08.455
57.0, 100.45745086669922, -74.06684875488281, -111.74259948730469, 60.520931243896484, -0.01600000075995922, -0.08000000566244125, 1.055999994277954, 0.0, 0.0, 0.0, 0.0, 0.0, 1.621348748455825E9, 2021-05-18 16:39:08.455
58.0, 95.83867645263672, -47.04981231689453, -105.13045501708984, 71.87152862548828, -0.01600000075995922, -0.08000000566244125, 1.055999994277954, 0.0, 0.0, 0.0, 0.0, 0.0, 1.6213487484858327E9, 2021-05-18 16:39:08.485
58.0, 134.15020751953125, -14.075113296508789, -78.37147521972656, 107.86432647705078, -0.01600000075995922, -0.08000000566244125, 1.055999994277954, 0.0, 0.0, 0.0, 0.0, 0.0, 1.6213487484858327E9, 2021-05-18 16:39:08.485
59.0, 171.47067260742188, -5.634159088134766, -50.789710998535156, 131.3770751953125, -0.01600000075995922, -0.08000000566244125, 1.055999994277954, 0.0, 0.0, 0.0, 0.0, 0.0, 1.6213487484865577E9, 2021-05-18 16:39:08.486
59.0, 95.16923522949219, -63.090240478515625, -109.46500396728516, 56.986724853515625, -0.01600000075995922, -0.08000000566244125, 1.055999994277954, 0.0, 0.0, 0.0, 0.0, 0.0, 1.6213487484865577E9, 2021-05-18 16:39:08.486
60.0, 104.18987274169922, -63.995296478271484, -107.66985321044922, 60.704185485839844, -0.01600000075995922, -0.08000000566244125, 1.055999994277954, 0.0, 0.0, 0.0, 0.0, 0.0, 1.6213487484872577E9, 2021-05-18 16:39:08.487
60.0, 129.804443359375, -33.76568603515625, -88.39814758300781, 88.259765625, -0.01600000075995922, -0.08000000566244125, 1.055999994277954, 0.0, 0.0, 0.0, 0.0, 0.0, 1.6213487484872577E9, 2021-05-18 16:39:08.487
61.0, 166.88182067871094, 11.075714111328125, -43.17901611328125, 122.6444091796875, -0.01600000075995922, -0.08000000566244125, 1.055999994277954, 0.0, 0.0, 0.0, 0.0, 0.0, 1.6213487485158179E9, 2021-05-18 16:39:08.515
61.0, 111.1348648071289, -78.84644317626953, -115.7181167602539, 41.9560661315918, -0.01600000075995922, -0.08000000566244125, 1.055999994277954, 0.0, 0.0, 0.0, 0.0, 0.0, 1.6213487485158179E9, 2021-05-18 16:39:08.515
62.0, 126.2066650390625, -52.32307052612305, -106.93309020996094, 49.75749969482422, -0.01600000075995922, -0.08000000566244125, 1.055999994277954, 0.0, 0.0, 0.0, 0.0, 0.0, 1.6213487485164945E9, 2021-05-18 16:39:08.516
62.0, 133.06564331054688, -11.879792213439941, -83.41659545898438, 77.75064849853516, -0.01600000075995922, -0.08000000566244125, 1.055999994277954, 0.0, 0.0, 0.0, 0.0, 0.0, 1.6213487485164945E9, 2021-05-18 16:39:08.516
63.0, 176.14181518554688, -29.692935943603516, -42.382415771484375, 109.00873565673828, -0.01600000075995922, -0.08000000566244125, 1.055999994277954, 0.0, 0.0, 0.0, 0.0, 0.0, 1.6213487485172484E9, 2021-05-18 16:39:08.517
63.0, 127.36603546142578, -128.5721435546875, -103.46620178222656, 39.46155548095703, -0.01600000075995922, -0.08000000566244125, 1.055999994277954, 0.0, 0.0, 0.0, 0.0, 0.0, 1.6213487485172484E9, 2021-05-18 16:39:08.517
64.0, 110.76835632324219, -97.54594421386719, -99.59540557861328, 55.19905471801758, -0.01600000075995922, -0.08000000566244125, 1.055999994277954, 0.0, 0.0, 0.0, 0.0, 0.0, 1.6213487485458012E9, 2021-05-18 16:39:08.545
64.0, 143.86273193359375, -29.06837272644043, -65.4762954711914, 103.68685913085938, -0.01600000075995922, -0.08000000566244125, 1.055999994277954, 0.0, 0.0, 0.0, 0.0, 0.0, 1.6213487485458012E9, 2021-05-18 16:39:08.545
65.0, 168.5460662841797, 0.0953674465417862, -40.568565368652344, 133.85662841796875, -0.01600000075995922, -0.08000000566244125, 1.055999994277954, 0.0, 0.0, 0.0, 0.0, 0.0, 1.6213487485465064E9, 2021-05-18 16:39:08.546
65.0, 116.61007690429688, -104.71158599853516, -112.0268325805664, 50.89816665649414, -0.01600000075995922, -0.08000000566244125, 1.055999994277954, 0.0, 0.0, 0.0, 0.0, 0.0, 1.6213487485465064E9, 2021-05-18 16:39:08.546
66.0, 94.46239471435547, -95.05142974853516, -111.41349029541016, 69.61637115478516, -0.01600000075995922, -0.08000000566244125, 1.055999994277954, 0.0, 0.0, 0.0, 0.0, 0.0, 1.6213487485473523E9, 2021-05-18 16:39:08.547
66.0, 121.2662582397461, -63.348297119140625, -84.7218246459961, 115.85275268554688, -0.01600000075995922, -0.08000000566244125, 1.055999994277954, 0.0, 0.0, 0.0, 0.0, 0.0, 1.6213487485473523E9, 2021-05-18 16:39:08.547
67.0, 161.11863708496094, -24.703908920288086, -47.84267044067383, 143.18394470214844, -0.01600000075995922, -0.08000000566244125, 1.055999994277954, 0.0, 0.0, 0.0, 0.0, 0.0, 1.6213487485595276E9, 2021-05-18 16:39:08.559
67.0, 107.96343231201172, -84.7255630493164, -116.90740203857422, 57.607547760009766, -0.01600000075995922, -0.08000000566244125, 1.055999994277954, 0.0, 0.0, 0.0, 0.0, 0.0, 1.6213487485595276E9, 2021-05-18 16:39:08.559
68.0, 105.95136260986328, -74.00701141357422, -115.69193267822266, 59.290504455566406, -0.01600000075995922, -0.08000000566244125, 1.055999994277954, 0.0, 0.0, 0.0, 0.0, 0.0, 1.6213487485756192E9, 2021-05-18 16:39:08.575
68.0, 129.475341796875, -61.77753829956055, -93.55546569824219, 89.61735534667969, -0.01600000075995922, -0.08000000566244125, 1.055999994277954, 0.0, 0.0, 0.0, 0.0, 0.0, 1.6213487485756192E9, 2021-05-18 16:39:08.575
69.0, 169.30526733398438, -16.595806121826172, -49.364810943603516, 120.75202178955078, -0.01600000075995922, -0.08000000566244125, 1.055999994277954, 0.0, 0.0, 0.0, 0.0, 0.0, 1.6213487485916471E9, 2021-05-18 16:39:08.591
69.0, 108.25514221191406, -98.42481994628906, -115.13095092773438, 41.73915481567383, -0.01600000075995922, -0.08000000566244125, 1.055999994277954, 0.0, 0.0, 0.0, 0.0, 0.0, 1.6213487485916471E9, 2021-05-18 16:39:08.591
70.0, 111.50511932373047, -84.56475067138672, -111.73138427734375, 48.57194900512695, -0.01600000075995922, -0.08000000566244125, 1.055999994277954, 0.0, 0.0, 0.0, 0.0, 0.0, 1.6213487485923955E9, 2021-05-18 16:39:08.592
70.0, 140.1527557373047, -44.2149658203125, -76.92787170410156, 89.54629516601562, -0.01600000075995922, -0.08000000566244125, 1.055999994277954, 0.0, 0.0, 0.0, 0.0, 0.0, 1.6213487485923955E9, 2021-05-18 16:39:08.592
71.0, 172.3794708251953, -3.824047803878784, -38.990325927734375, 116.99342346191406, -0.01600000075995922, -0.08000000566244125, 1.055999994277954, 0.0, 0.0, 0.0, 0.0, 0.0, 1.6213487485930967E9, 2021-05-18 16:39:08.593
71.0, 110.89177703857422, -35.55335998535156, -113.32083892822266, 35.29156494140625, -0.01600000075995922, -0.08000000566244125, 1.055999994277954, 0.0, 0.0, 0.0, 0.0, 0.0, 1.6213487485930967E9, 2021-05-18 16:39:08.593
72.0, 124.11605834960938, -133.0226287841797, -108.02513885498047, 52.24827194213867, -0.01600000075995922, -0.08000000566244125, 1.055999994277954, 0.0, 0.0, 0.0, 0.0, 0.0, 1.6213487486044135E9, 2021-05-18 16:39:08.604
72.0, 139.2626495361328, -49.349849700927734, -74.20148468017578, 90.20451354980469, -0.01600000075995922, -0.08000000566244125, 1.055999994277954, 0.0, 0.0, 0.0, 0.0, 0.0, 1.6213487486044135E9, 2021-05-18 16:39:08.604
73.0, 167.39791870117188, -25.16765594482422, -49.1030158996582, 116.84382629394531, -0.01600000075995922, -0.08000000566244125, 1.055999994277954, 0.0, 0.0, 0.0, 0.0, 0.0, 1.6213487486195507E9, 2021-05-18 16:39:08.619
73.0, 113.19181060791016, -92.89724731445312, -113.16002655029297, 37.44200897216797, -0.01600000075995922, -0.08000000566244125, 1.055999994277954, 0.0, 0.0, 0.0, 0.0, 0.0, 1.6213487486195507E9, 2021-05-18 16:39:08.619
74.0, 130.0662384033203, -90.39524841308594, -104.51337432861328, 51.64988708496094, -0.01600000075995922, -0.08000000566244125, 1.055999994277954, 0.0, 0.0, 0.0, 0.0, 0.0, 1.6213487486357615E9, 2021-05-18 16:39:08.635
74.0, 136.588623046875, -45.950279235839844, -78.40887451171875, 94.24735260009766, -0.01600000075995922, -0.08000000566244125, 1.055999994277954, 0.0, 0.0, 0.0, 0.0, 0.0, 1.6213487486357615E9, 2021-05-18 16:39:08.635
75.0, 147.5689697265625, -29.28528594970703, -55.27385330200195, 126.9041519165039, -0.01600000075995922, -0.08000000566244125, 1.055999994277954, 0.0, 0.0, 0.0, 0.0, 0.0, 1.621348748636462E9, 2021-05-18 16:39:08.636
75.0, 111.62479400634766, -115.89762878417969, -111.52568817138672, 57.97031784057617, -0.01600000075995922, -0.08000000566244125, 1.055999994277954, 0.0, 0.0, 0.0, 0.0, 0.0, 1.621348748636462E9, 2021-05-18 16:39:08.636
76.0, 103.01180267333984, -105.71388244628906, -119.08028411865234, 63.482933044433594, -0.01600000075995922, -0.08000000566244125, 1.055999994277954, 0.0, 0.0, 0.0, 0.0, 0.0, 1.6213487486655989E9, 2021-05-18 16:39:08.665
76.0, 134.3858184814453, -57.62250900268555, -89.31816101074219, 101.26714324951172, -0.01600000075995922, -0.08000000566244125, 1.055999994277954, 0.0, 0.0, 0.0, 0.0, 0.0, 1.6213487486655989E9, 2021-05-18 16:39:08.665
77.0, 170.77505493164062, -14.359345436096191, -48.89358139038086, 131.76602172851562, -0.01600000075995922, -0.08000000566244125, 1.055999994277954, 0.0, 0.0, 0.0, 0.0, 0.0, 1.6213487486661994E9, 2021-05-18 16:39:08.666
77.0, 107.91107177734375, -88.08025360107422, -115.11225128173828, 49.53684616088867, -0.01600000075995922, -0.08000000566244125, 1.055999994277954, 0.0, 0.0, 0.0, 0.0, 0.0, 1.6213487486661994E9, 2021-05-18 16:39:08.666
78.0, 108.75629425048828, -80.1030502319336, -122.01610565185547, 46.67582321166992, -0.01600000075995922, -0.08000000566244125, 1.055999994277954, 0.0, 0.0, 0.0, 0.0, 0.0, 1.6213487486801336E9, 2021-05-18 16:39:08.680
78.0, 128.16262817382812, -17.844932556152344, -86.52071380615234, 93.96685791015625, -0.01600000075995922, -0.08000000566244125, 1.055999994277954, 0.0, 0.0, 0.0, 0.0, 0.0, 1.6213487486801336E9, 2021-05-18 16:39:08.680
79.0, 169.31649780273438, -6.1465253829956055, -46.058738708496094, 130.76747131347656, -0.01600000075995922, -0.08000000566244125, 1.055999994277954, 0.0, 0.0, 0.0, 0.0, 0.0, 1.6213487486808283E9, 2021-05-18 16:39:08.680
79.0, 118.73060607910156, -102.38911437988281, -114.33061218261719, 42.26274108886719, -0.01600000075995922, -0.08000000566244125, 1.055999994277954, 0.0, 0.0, 0.0, 0.0, 0.0, 1.6213487486808283E9, 2021-05-18 16:39:08.680
80.0, 105.76062774658203, -99.25133514404297, -114.21841430664062, 53.89008712768555, -0.01600000075995922, -0.08000000566244125, 1.055999994277954, 0.0, 0.0, 0.0, 0.0, 0.0, 1.6213487486951964E9, 2021-05-18 16:39:08.695
80.0, 146.3011474609375, -45.871742248535156, -78.9997787475586, 95.99014282226562, -0.01600000075995922, -0.08000000566244125, 1.055999994277954, 0.0, 0.0, 0.0, 0.0, 0.0, 1.6213487486951964E9, 2021-05-18 16:39:08.695
81.0, 182.22662353515625, -18.462017059326172, -46.34297180175781, 126.62740325927734, -0.01600000075995922, -0.08000000566244125, 1.055999994277954, 0.0, 0.0, 0.0, 0.0, 0.0, 1.6213487486957731E9, 2021-05-18 16:39:08.695
81.0, 115.95185852050781, -93.1365966796875, -109.2518310546875, 51.167442321777344, -0.01600000075995922, -0.08000000566244125, 1.055999994277954, 0.0, 0.0, 0.0, 0.0, 0.0, 1.6213487486957731E9, 2021-05-18 16:39:08.695
82.0, 113.38628387451172, -80.8285903930664, -105.72135925292969, 56.25370407104492, -0.01600000075995922, -0.08000000566244125, 1.055999994277954, 0.0, 0.0, 0.0, 0.0, 0.0, 1.6213487487093856E9, 2021-05-18 16:39:08.709
82.0, 145.59056091308594, -57.97406005859375, -75.60395050048828, 101.0464859008789, -0.01600000075995922, -0.08000000566244125, 1.055999994277954, 0.0, 0.0, 0.0, 0.0, 0.0, 1.6213487487093856E9, 2021-05-18 16:39:08.709
83.0, 152.49441528320312, -34.6370849609375, -47.51355743408203, 125.7186050415039, -0.01600000075995922, -0.08000000566244125, 1.055999994277954, 0.0, 0.0, 0.0, 0.0, 0.0, 1.621348748725215E9, 2021-05-18 16:39:08.725
83.0, 101.44478607177734, -99.54678344726562, -111.87723541259766, 58.886592864990234, -0.01600000075995922, -0.08000000566244125, 1.055999994277954, 0.0, 0.0, 0.0, 0.0, 0.0, 1.621348748725215E9, 2021-05-18 16:39:08.725
84.0, 108.35237884521484, -70.15117645263672, -107.4454574584961, 77.04754638671875, -0.01600000075995922, -0.08000000566244125, 1.055999994277954, 0.0, 0.0, 0.0, 0.0, 0.0, 1.621348748725882E9, 2021-05-18 16:39:08.725
84.0, 131.44252014160156, -44.65253448486328, -71.8378677368164, 120.40420532226562, -0.01600000075995922, -0.08000000566244125, 1.055999994277954, 0.0, 0.0, 0.0, 0.0, 0.0, 1.621348748725882E9, 2021-05-18 16:39:08.725
85.0, 167.04263305664062, -2.1448326110839844, -34.48374938964844, 143.59158325195312, -0.01600000075995922, -0.08000000566244125, 1.055999994277954, 0.0, 0.0, 0.0, 0.0, 0.0, 1.6213487487394357E9, 2021-05-18 16:39:08.739
85.0, 111.0712890625, -113.47791290283203, -102.59854888916016, 65.94378662109375, -0.01600000075995922, -0.08000000566244125, 1.055999994277954, 0.0, 0.0, 0.0, 0.0, 0.0, 1.6213487487394357E9, 2021-05-18 16:39:08.739
86.0, 113.90613555908203, -89.198486328125, -99.5168685913086, 69.79588317871094, -0.01600000075995922, -0.08000000566244125, 1.055999994277954, 0.0, 0.0, 0.0, 0.0, 0.0, 1.6213487487551136E9, 2021-05-18 16:39:08.755
86.0, 147.37075805664062, -31.45442771911621, -72.22307586669922, 110.55705261230469, -0.01600000075995922, -0.08000000566244125, 1.055999994277954, 0.0, 0.0, 0.0, 0.0, 0.0, 1.6213487487551136E9, 2021-05-18 16:39:08.755
87.0, 166.2647247314453, 5.447164058685303, -38.29096603393555, 138.59507751464844, -0.01600000075995922, -0.08000000566244125, 1.055999994277954, 0.0, 0.0, 0.0, 0.0, 0.0, 1.6213487487558887E9, 2021-05-18 16:39:08.755
87.0, 108.71141052246094, -92.10064697265625, -106.06917572021484, 60.06840133666992, -0.01600000075995922, -0.08000000566244125, 1.055999994277954, 0.0, 0.0, 0.0, 0.0, 0.0, 1.6213487487558887E9, 2021-05-18 16:39:08.755
88.0, 112.8776626586914, -87.29487609863281, -103.26799011230469, 64.07009887695312, -0.01600000075995922, -0.08000000566244125, 1.055999994277954, 0.0, 0.0, 0.0, 0.0, 0.0, 1.6213487487693837E9, 2021-05-18 16:39:08.769
88.0, 139.2738800048828, -37.62900161743164, -64.62360382080078, 105.64656066894531, -0.01600000075995922, -0.08000000566244125, 1.055999994277954, 0.0, 0.0, 0.0, 0.0, 0.0, 1.6213487487693837E9, 2021-05-18 16:39:08.769
89.0, 166.84068298339844, 13.222415924072266, -35.32896423339844, 132.38685607910156, -0.01600000075995922, -0.08000000566244125, 1.055999994277954, 0.0, 0.0, 0.0, 0.0, 0.0, 1.6213487488169525E9, 2021-05-18 16:39:08.816
89.0, 106.02242279052734, -63.295936584472656, -97.00739288330078, 52.566162109375, -0.01600000075995922, -0.08000000566244125, 1.055999994277954, 0.0, 0.0, 0.0, 0.0, 0.0, 1.6213487488169525E9, 2021-05-18 16:39:08.816
90.0, 109.11906433105469, -58.82675552368164, -93.99303436279297, 63.20243835449219, -0.01600000075995922, -0.08000000566244125, 1.055999994277954, 0.0, 0.0, 0.0, 0.0, 0.0, 1.6213487488176992E9, 2021-05-18 16:39:08.817
90.0, 147.46424865722656, -40.50124740600586, -62.60405349731445, 109.53231811523438, -0.01600000075995922, -0.08000000566244125, 1.055999994277954, 0.0, 0.0, 0.0, 0.0, 0.0, 1.6213487488176992E9, 2021-05-18 16:39:08.817
91.0, 179.27584838867188, 9.370319366455078, -26.222309112548828, 144.99404907226562, -0.01600000075995922, -0.08000000566244125, 1.055999994277954, 0.0, 0.0, 0.0, 0.0, 0.0, 1.6213487488185685E9, 2021-05-18 16:39:08.818
91.0, 116.0528335571289, -88.0765151977539, -90.7468032836914, 55.1242561340332, -0.01600000075995922, -0.08000000566244125, 1.055999994277954, 0.0, 0.0, 0.0, 0.0, 0.0, 1.6213487488185685E9, 2021-05-18 16:39:08.818
92.0, 100.1096420288086, -84.52735137939453, -95.7021713256836, 61.83737564086914, -0.01600000075995922, -0.08000000566244125, 1.055999994277954, 0.0, 0.0, 0.0, 0.0, 0.0, 1.6213487488192582E9, 2021-05-18 16:39:08.819
92.0, 135.8780517578125, -31.81719970703125, -63.714805603027344, 107.1275634765625, -0.01600000075995922, -0.08000000566244125, 1.055999994277954, 0.0, 0.0, 0.0, 0.0, 0.0, 1.6213487488192582E9, 2021-05-18 16:39:08.819
93.0, 167.04637145996094, -9.766748428344727, -30.99816131591797, 135.4872283935547, -0.01600000075995922, -0.08000000566244125, 1.055999994277954, 0.0, 0.0, 0.0, 0.0, 0.0, 1.6213487488300853E9, 2021-05-18 16:39:08.830
93.0, 108.64409637451172, -65.21450805664062, -93.24505615234375, 60.72288513183594, -0.01600000075995922, -0.08000000566244125, 1.055999994277954, 0.0, 0.0, 0.0, 0.0, 0.0, 1.6213487488300853E9, 2021-05-18 16:39:08.830
94.0, 109.83338165283203, -73.41610717773438, -102.6509017944336, 63.24357986450195, -0.01600000075995922, -0.08000000566244125, 1.055999994277954, 0.0, 0.0, 0.0, 0.0, 0.0, 1.6213487488308125E9, 2021-05-18 16:39:08.830
94.0, 136.341796875, -10.653104782104492, -68.93944549560547, 100.560302734375, -0.01600000075995922, -0.08000000566244125, 1.055999994277954, 0.0, 0.0, 0.0, 0.0, 0.0, 1.6213487488308125E9, 2021-05-18 16:39:08.830
95.0, 178.50917053222656, -32.688594818115234, -39.49521255493164, 132.36441040039062, -0.01600000075995922, -0.08000000566244125, 1.055999994277954, 0.0, 0.0, 0.0, 0.0, 0.0, 1.6213487488451734E9, 2021-05-18 16:39:08.845
95.0, 109.38085174560547, -61.276390075683594, -105.57176208496094, 56.10036849975586, -0.01600000075995922, -0.08000000566244125, 1.055999994277954, 0.0, 0.0, 0.0, 0.0, 0.0, 1.6213487488451734E9, 2021-05-18 16:39:08.845
96.0, 102.15910339355469, -98.73896789550781, -109.44630432128906, 57.64868927001953, -0.01600000075995922, -0.08000000566244125, 1.055999994277954, 0.0, 0.0, 0.0, 0.0, 0.0, 1.621348748845817E9, 2021-05-18 16:39:08.845
96.0, 126.36000061035156, -43.242591857910156, -73.94717407226562, 106.58901977539062, -0.01600000075995922, -0.08000000566244125, 1.055999994277954, 0.0, 0.0, 0.0, 0.0, 0.0, 1.621348748845817E9, 2021-05-18 16:39:08.845
97.0, 164.6565704345703, -15.53741455078125, -36.9558219909668, 136.22024536132812, -0.01600000075995922, -0.08000000566244125, 1.055999994277954, 0.0, 0.0, 0.0, 0.0, 0.0, 1.6213487488594313E9, 2021-05-18 16:39:08.859
97.0, 120.69405364990234, -66.98722076416016, -100.42566680908203, 63.755943298339844, -0.01600000075995922, -0.08000000566244125, 1.055999994277954, 0.0, 0.0, 0.0, 0.0, 0.0, 1.6213487488594313E9, 2021-05-18 16:39:08.859
98.0, 113.65181732177734, -80.4658203125, -98.34628295898438, 66.44119262695312, -0.01600000075995922, -0.08000000566244125, 1.055999994277954, 0.0, 0.0, 0.0, 0.0, 0.0, 1.6213487488750632E9, 2021-05-18 16:39:08.875
98.0, 117.18976593017578, -53.86391067504883, -76.90917205810547, 103.7354736328125, -0.01600000075995922, -0.08000000566244125, 1.055999994277954, 0.0, 0.0, 0.0, 0.0, 0.0, 1.6213487488750632E9, 2021-05-18 16:39:08.875
99.0, 165.8795166015625, 1.48287034034729, -37.41209030151367, 141.759033203125, -0.01600000075995922, -0.08000000566244125, 1.055999994277954, 0.0, 0.0, 0.0, 0.0, 0.0, 1.6213487488757646E9, 2021-05-18 16:39:08.875
99.0, 101.17925262451172, -67.22657012939453, -103.13335418701172, 59.57847595214844, -0.01600000075995922, -0.08000000566244125, 1.055999994277954, 0.0, 0.0, 0.0, 0.0, 0.0, 1.6213487488757646E9, 2021-05-18 16:39:08.875
100.0, 95.90225219726562, -72.9000015258789, -107.43049621582031, 56.3098030090332, -0.01600000075995922, -0.08000000566244125, 1.055999994277954, 0.0, 0.0, 0.0, 0.0, 0.0, 1.6213487488898666E9, 2021-05-18 16:39:08.889
100.0, 135.36941528320312, -48.14186096191406, -83.30814361572266, 93.10293579101562, -0.01600000075995922, -0.08000000566244125, 1.055999994277954, 0.0, 0.0, 0.0, 0.0, 0.0, 1.6213487488898666E9, 2021-05-18 16:39:08.889
0.0, 176.37181091308594, -13.203717231750488, -37.197044372558594, 130.16722106933594, -0.01600000075995922, -0.08000000566244125, 1.055999994277954, 0.0, 0.0, 0.0, 0.0, 0.0, 1.621348748905561E9, 2021-05-18 16:39:08.905
1.0, 116.02852630615234, -78.56594848632812, -100.8725814819336, 52.57551193237305, -0.01600000075995922, -0.08000000566244125, 1.055999994277954, 0.0, 0.0, 0.0, 0.0, 0.0, 1.621348748920954E9, 2021-05-18 16:39:08.920
1.0, 122.21057891845703, -60.958499908447266, -93.38529968261719, 62.886417388916016, -0.01600000075995922, -0.08000000566244125, 1.055999994277954, 0.0, 0.0, 0.0, 0.0, 0.0, 1.621348748920954E9, 2021-05-18 16:39:08.920
2.0, 136.6802520751953, -26.11385154724121, -69.61449432373047, 95.47590637207031, -0.01600000075995922, -0.08000000566244125, 1.055999994277954, 0.0, 0.0, 0.0, 0.0, 0.0, 1.6213487489215603E9, 2021-05-18 16:39:08.921
2.0, 174.6626739501953, 58.718299865722656, -33.36738586425781, 127.94945526123047, -0.01600000075995922, -0.08000000566244125, 1.055999994277954, 0.0, 0.0, 0.0, 0.0, 0.0, 1.6213487489215603E9, 2021-05-18 16:39:08.921
3.0, 120.00404357910156, -76.18363189697266, -95.71151733398438, 60.51531982421875, -0.01600000075995922, -0.08000000566244125, 1.055999994277954, 0.0, 0.0, 0.0, 0.0, 0.0, 1.621348748922378E9, 2021-05-18 16:39:08.922
3.0, 129.19297790527344, -67.07323455810547, -93.59847259521484, 58.47707748413086, -0.01600000075995922, -0.08000000566244125, 1.055999994277954, 0.0, 0.0, 0.0, 0.0, 0.0, 1.621348748922378E9, 2021-05-18 16:39:08.922
4.0, 157.76580810546875, -12.811027526855469, -63.271629333496094, 98.4827880859375, -0.01600000075995922, -0.08000000566244125, 1.055999994277954, 0.0, 0.0, 0.0, 0.0, 0.0, 1.621348748934394E9, 2021-05-18 16:39:08.934
4.0, 178.72421264648438, 69.1638412475586, -35.611328125, 127.6502685546875, -0.01600000075995922, -0.08000000566244125, 1.055999994277954, 0.0, 0.0, 0.0, 0.0, 0.0, 1.621348748934394E9, 2021-05-18 16:39:08.934
5.0, 109.50240325927734, -68.98432159423828, -99.78427124023438, 55.298160552978516, -0.01600000075995922, -0.08000000566244125, 1.055999994277954, 0.0, 0.0, 0.0, 0.0, 0.0, 1.6213487489499E9, 2021-05-18 16:39:08.949
5.0, 101.97024536132812, -68.5243148803711, -104.73963928222656, 55.27946090698242, -0.01600000075995922, -0.08000000566244125, 1.055999994277954, 0.0, 0.0, 0.0, 0.0, 0.0, 1.6213487489499E9, 2021-05-18 16:39:08.949
6.0, 134.74298095703125, -5.652858734130859, -70.1792221069336, 100.72672271728516, -0.01600000075995922, -0.08000000566244125, 1.055999994277954, 0.0, 0.0, 0.0, 0.0, 0.0, 1.621348748965178E9, 2021-05-18 16:39:08.965
6.0, 176.28579711914062, 19.307233810424805, -34.911964416503906, 135.4890899658203, -0.01600000075995922, -0.08000000566244125, 1.055999994277954, 0.0, 0.0, 0.0, 0.0, 0.0, 1.621348748965178E9, 2021-05-18 16:39:08.965
7.0, 108.55994415283203, -49.00204086303711, -100.38265228271484, 56.36029052734375, -0.01600000075995922, -0.08000000566244125, 1.055999994277954, 0.0, 0.0, 0.0, 0.0, 0.0, 1.6213487489658637E9, 2021-05-18 16:39:08.965
7.0, 105.01825714111328, -42.778846740722656, -107.60813903808594, 58.87724685668945, -0.01600000075995922, -0.08000000566244125, 1.055999994277954, 0.0, 0.0, 0.0, 0.0, 0.0, 1.6213487489658637E9, 2021-05-18 16:39:08.965
8.0, 130.13168334960938, 0.8583070635795593, -78.92684936523438, 95.04207611083984, -0.01600000075995922, -0.08000000566244125, 1.055999994277954, 0.0, 0.0, 0.0, 0.0, 0.0, 1.621348748980276E9, 2021-05-18 16:39:08.980
8.0, 163.24850463867188, 40.72563934326172, -37.27184295654297, 133.95947265625, -0.01600000075995922, -0.08000000566244125, 1.055999994277954, 0.0, 0.0, 0.0, 0.0, 0.0, 1.621348748980276E9, 2021-05-18 16:39:08.980
9.0, 107.91667938232422, -43.328609466552734, -101.2577896118164, 57.04095458984375, -0.01600000075995922, -0.08000000566244125, 1.055999994277954, 0.0, 0.0, 0.0, 0.0, 0.0, 1.6213487489808967E9, 2021-05-18 16:39:08.980
9.0, 105.74005889892578, -19.976675033569336, -95.73021697998047, 63.776512145996094, -0.01600000075995922, -0.08000000566244125, 1.055999994277954, 0.0, 0.0, 0.0, 0.0, 0.0, 1.6213487489808967E9, 2021-05-18 16:39:08.980
10.0, 114.72330474853516, 60.02726364135742, -70.86736297607422, 102.30122375488281, -0.01600000075995922, -0.08000000566244125, 1.055999994277954, 0.0, 0.0, 0.0, 0.0, 0.0, 1.6213487489944065E9, 2021-05-18 16:39:08.994
10.0, 155.7948760986328, 30.908403396606445, -39.826194763183594, 123.876708984375, -0.01600000075995922, -0.08000000566244125, 1.055999994277954, 0.0, 0.0, 0.0, 0.0, 0.0, 1.6213487489944065E9, 2021-05-18 16:39:08.994
11.0, 102.34049224853516, -44.67497634887695, -104.84435272216797, 49.82668685913086, -0.01600000075995922, -0.08000000566244125, 1.055999994277954, 0.0, 0.0, 0.0, 0.0, 0.0, 1.621348749010748E9, 2021-05-18 16:39:09.010
11.0, 83.41285705566406, -42.35997772216797, -110.99275207519531, 55.83296585083008, -0.01600000075995922, -0.08000000566244125, 1.055999994277954, 0.0, 0.0, 0.0, 0.0, 0.0, 1.621348749010748E9, 2021-05-18 16:39:09.010
12.0, 112.58782196044922, 2.7245171070098877, -84.27864837646484, 101.34381103515625, -0.01600000075995922, -0.08000000566244125, 1.055999994277954, 0.0, 0.0, 0.0, 0.0, 0.0, 1.621348749025597E9, 2021-05-18 16:39:09.025
12.0, 145.80935668945312, 45.00034713745117, -48.9627685546875, 131.93618774414062, -0.01600000075995922, -0.08000000566244125, 1.055999994277954, 0.0, 0.0, 0.0, 0.0, 0.0, 1.621348749025597E9, 2021-05-18 16:39:09.025
13.0, 95.7657470703125, -40.576045989990234, -113.26287078857422, 54.725955963134766, -0.01600000075995922, -0.08000000566244125, 1.055999994277954, 0.0, 0.0, 0.0, 0.0, 0.0, 1.6213487490408168E9, 2021-05-18 16:39:09.040
13.0, 71.13102722167969, -19.266094207763672, -123.04270935058594, 47.90437698364258, -0.01600000075995922, -0.08000000566244125, 1.055999994277954, 0.0, 0.0, 0.0, 0.0, 0.0, 1.6213487490408168E9, 2021-05-18 16:39:09.040
14.0, 102.31431579589844, -2.975090503692627, -83.29131317138672, 100.1919174194336, -0.01600000075995922, -0.08000000566244125, 1.055999994277954, 0.0, 0.0, 0.0, 0.0, 0.0, 1.6213487490415523E9, 2021-05-18 16:39:09.041
14.0, 137.1402587890625, 54.43985366821289, -44.71050262451172, 132.80384826660156, -0.01600000075995922, -0.08000000566244125, 1.055999994277954, 0.0, 0.0, 0.0, 0.0, 0.0, 1.6213487490415523E9, 2021-05-18 16:39:09.041
15.0, 85.52216339111328, -36.892242431640625, -116.411865234375, 49.15350341796875, -0.01600000075995922, -0.08000000566244125, 1.055999994277954, 0.0, 0.0, 0.0, 0.0, 0.0, 1.621348749042247E9, 2021-05-18 16:39:09.042
15.0, 80.42093658447266, -25.55660629272461, -117.27204132080078, 57.64681625366211, -0.01600000075995922, -0.08000000566244125, 1.055999994277954, 0.0, 0.0, 0.0, 0.0, 0.0, 1.621348749042247E9, 2021-05-18 16:39:09.042
16.0, 110.50843048095703, 12.66517162322998, -88.35139465332031, 95.18793487548828, -0.01600000075995922, -0.08000000566244125, 1.055999994277954, 0.0, 0.0, 0.0, 0.0, 0.0, 1.6213487490545888E9, 2021-05-18 16:39:09.054
16.0, 162.13027954101562, 23.230388641357422, -40.30864334106445, 138.21922302246094, -0.01600000075995922, -0.08000000566244125, 1.055999994277954, 0.0, 0.0, 0.0, 0.0, 0.0, 1.6213487490545888E9, 2021-05-18 16:39:09.054
17.0, 96.95877838134766, -59.26432418823242, -107.97090911865234, 64.86856842041016, -0.01600000075995922, -0.08000000566244125, 1.055999994277954, 0.0, 0.0, 0.0, 0.0, 0.0, 1.621348749070558E9, 2021-05-18 16:39:09.070
17.0, 84.91255950927734, -44.36456298828125, -110.05777740478516, 63.967247009277344, -0.01600000075995922, -0.08000000566244125, 1.055999994277954, 0.0, 0.0, 0.0, 0.0, 0.0, 1.621348749070558E9, 2021-05-18 16:39:09.070
18.0, 125.53160858154297, 13.364532470703125, -73.79944610595703, 98.74457550048828, -0.01600000075995922, -0.08000000566244125, 1.055999994277954, 0.0, 0.0, 0.0, 0.0, 0.0, 1.6213487490852387E9, 2021-05-18 16:39:09.085
18.0, 153.74916076660156, 25.137737274169922, -44.82644271850586, 128.40573120117188, -0.01600000075995922, -0.08000000566244125, 1.055999994277954, 0.0, 0.0, 0.0, 0.0, 0.0, 1.6213487490852387E9, 2021-05-18 16:39:09.085
19.0, 87.42203521728516, -56.41078186035156, -106.9573974609375, 48.614959716796875, -0.01600000075995922, -0.08000000566244125, 1.055999994277954, 0.0, 0.0, 0.0, 0.0, 0.0, 1.62134874908597E9, 2021-05-18 16:39:09.085
19.0, 113.2086410522461, -39.2969970703125, -99.6870346069336, 57.553321838378906, -0.01600000075995922, -0.08000000566244125, 1.055999994277954, 0.0, 0.0, 0.0, 0.0, 0.0, 1.62134874908597E9, 2021-05-18 16:39:09.085
20.0, 114.63728332519531, -4.414951801300049, -75.71427154541016, 93.53863525390625, -0.01600000075995922, -0.08000000566244125, 1.055999994277954, 0.0, 0.0, 0.0, 0.0, 0.0, 1.6213487491002283E9, 2021-05-18 16:39:09.100
20.0, 149.62779235839844, 29.677976608276367, -36.340606689453125, 134.5615997314453, -0.01600000075995922, -0.08000000566244125, 1.055999994277954, 0.0, 0.0, 0.0, 0.0, 0.0, 1.6213487491002283E9, 2021-05-18 16:39:09.100
21.0, 84.2393798828125, -32.793312072753906, -99.4327163696289, 59.303592681884766, -0.01600000075995922, -0.08000000566244125, 1.055999994277954, 0.0, 0.0, 0.0, 0.0, 0.0, 1.621348749100957E9, 2021-05-18 16:39:09.100
21.0, 91.40502166748047, -58.463985443115234, -106.71430206298828, 68.48130798339844, -0.01600000075995922, -0.08000000566244125, 1.055999994277954, 0.0, 0.0, 0.0, 0.0, 0.0, 1.621348749100957E9, 2021-05-18 16:39:09.100
22.0, 105.983154296875, -10.12951946258545, -81.86640930175781, 105.47639465332031, -0.01600000075995922, -0.08000000566244125, 1.055999994277954, 0.0, 0.0, 0.0, 0.0, 0.0, 1.6213487491307817E9, 2021-05-18 16:39:09.130
22.0, 146.3441619873047, 26.072711944580078, -40.8808479309082, 143.2344207763672, -0.01600000075995922, -0.08000000566244125, 1.055999994277954, 0.0, 0.0, 0.0, 0.0, 0.0, 1.6213487491307817E9, 2021-05-18 16:39:09.130
23.0, 86.60673522949219, -37.87583541870117, -107.0172348022461, 66.18126678466797, -0.01600000075995922, -0.08000000566244125, 1.055999994277954, 0.0, 0.0, 0.0, 0.0, 0.0, 1.6213487491462877E9, 2021-05-18 16:39:09.146
23.0, 89.6435317993164, -46.537445068359375, -110.08021545410156, 65.19767761230469, -0.01600000075995922, -0.08000000566244125, 1.055999994277954, 0.0, 0.0, 0.0, 0.0, 0.0, 1.6213487491462877E9, 2021-05-18 16:39:09.146
24.0, 117.8685531616211, -6.445717811584473, -75.5010986328125, 97.18878173828125, -0.01600000075995922, -0.08000000566244125, 1.055999994277954, 0.0, 0.0, 0.0, 0.0, 0.0, 1.6213487491471467E9, 2021-05-18 16:39:09.147
24.0, 166.25538635253906, 23.533321380615234, -41.11272048950195, 133.9220733642578, -0.01600000075995922, -0.08000000566244125, 1.055999994277954, 0.0, 0.0, 0.0, 0.0, 0.0, 1.6213487491471467E9, 2021-05-18 16:39:09.147
25.0, 97.05975341796875, -58.43780517578125, -116.16129302978516, 47.279815673828125, -0.01600000075995922, -0.08000000566244125, 1.055999994277954, 0.0, 0.0, 0.0, 0.0, 0.0, 1.6213487491477845E9, 2021-05-18 16:39:09.147
25.0, 94.03417205810547, -40.991172790527344, -110.96656799316406, 58.10682678222656, -0.01600000075995922, -0.08000000566244125, 1.055999994277954, 0.0, 0.0, 0.0, 0.0, 0.0, 1.6213487491477845E9, 2021-05-18 16:39:09.147
26.0, 121.5635757446289, -14.759514808654785, -82.31893920898438, 91.90804290771484, -0.01600000075995922, -0.08000000566244125, 1.055999994277954, 0.0, 0.0, 0.0, 0.0, 0.0, 1.621348749160063E9, 2021-05-18 16:39:09.160
26.0, 157.10385131835938, 15.993681907653809, -47.949256896972656, 131.25552368164062, -0.01600000075995922, -0.08000000566244125, 1.055999994277954, 0.0, 0.0, 0.0, 0.0, 0.0, 1.621348749160063E9, 2021-05-18 16:39:09.160
27.0, 104.04962921142578, -42.397377014160156, -100.28915405273438, 62.9013786315918, -0.01600000075995922, -0.08000000566244125, 1.055999994277954, 0.0, 0.0, 0.0, 0.0, 0.0, 1.6213487491608205E9, 2021-05-18 16:39:09.160
27.0, 96.8877182006836, -34.96619415283203, -114.54191589355469, 58.72016906738281, -0.01600000075995922, -0.08000000566244125, 1.055999994277954, 0.0, 0.0, 0.0, 0.0, 0.0, 1.6213487491608205E9, 2021-05-18 16:39:09.160
28.0, 110.08956146240234, -39.26333999633789, -83.56806182861328, 98.85303497314453, -0.01600000075995922, -0.08000000566244125, 1.055999994277954, 0.0, 0.0, 0.0, 0.0, 0.0, 1.6213487491908941E9, 2021-05-18 16:39:09.190
28.0, 153.70802307128906, 28.428850173950195, -42.97145080566406, 137.26181030273438, -0.01600000075995922, -0.08000000566244125, 1.055999994277954, 0.0, 0.0, 0.0, 0.0, 0.0, 1.6213487491908941E9, 2021-05-18 16:39:09.190
29.0, 97.11211395263672, -29.079591751098633, -108.31497955322266, 61.450294494628906, -0.01600000075995922, -0.08000000566244125, 1.055999994277954, 0.0, 0.0, 0.0, 0.0, 0.0, 1.621348749191618E9, 2021-05-18 16:39:09.191
29.0, 93.26001739501953, -55.976951599121094, -111.15730285644531, 63.892452239990234, -0.01600000075995922, -0.08000000566244125, 1.055999994277954, 0.0, 0.0, 0.0, 0.0, 0.0, 1.621348749191618E9, 2021-05-18 16:39:09.191
30.0, 128.0784912109375, -27.84542465209961, -75.11589050292969, 102.72756958007812, -0.01600000075995922, -0.08000000566244125, 1.055999994277954, 0.0, 0.0, 0.0, 0.0, 0.0, 1.6213487491923797E9, 2021-05-18 16:39:09.192
30.0, 151.58375549316406, 23.989587783813477, -30.985071182250977, 145.04080200195312, -0.01600000075995922, -0.08000000566244125, 1.055999994277954, 0.0, 0.0, 0.0, 0.0, 0.0, 1.6213487491923797E9, 2021-05-18 16:39:09.192
31.0, 91.38632202148438, -37.24753189086914, -101.73275756835938, 64.180419921875, -0.01600000075995922, -0.08000000566244125, 1.055999994277954, 0.0, 0.0, 0.0, 0.0, 0.0, 1.621348749204508E9, 2021-05-18 16:39:09.204
31.0, 98.00220489501953, -41.522239685058594, -102.4620361328125, 70.6018295288086, -0.01600000075995922, -0.08000000566244125, 1.055999994277954, 0.0, 0.0, 0.0, 0.0, 0.0, 1.621348749204508E9, 2021-05-18 16:39:09.204
32.0, 116.89617919921875, -34.72310256958008, -77.90585327148438, 101.1942138671875, -0.01600000075995922, -0.08000000566244125, 1.055999994277954, 0.0, 0.0, 0.0, 0.0, 0.0, 1.6213487492201571E9, 2021-05-18 16:39:09.220
32.0, 162.34718322753906, 12.040607452392578, -31.968664169311523, 134.89071655273438, -0.01600000075995922, -0.08000000566244125, 1.055999994277954, 0.0, 0.0, 0.0, 0.0, 0.0, 1.6213487492201571E9, 2021-05-18 16:39:09.220
33.0, 100.21248626708984, -66.68054962158203, -105.4950942993164, 58.873504638671875, -0.01600000075995922, -0.08000000566244125, 1.055999994277954, 0.0, 0.0, 0.0, 0.0, 0.0, 1.6213487492208133E9, 2021-05-18 16:39:09.220
33.0, 102.89773559570312, -40.47880554199219, -104.68354034423828, 62.553565979003906, -0.01600000075995922, -0.08000000566244125, 1.055999994277954, 0.0, 0.0, 0.0, 0.0, 0.0, 1.6213487492208133E9, 2021-05-18 16:39:09.220
34.0, 137.46189880371094, -41.095890045166016, -79.26344299316406, 101.04835510253906, -0.01600000075995922, -0.08000000566244125, 1.055999994277954, 0.0, 0.0, 0.0, 0.0, 0.0, 1.6213487492514627E9, 2021-05-18 16:39:09.251
34.0, 173.6790771484375, 26.345726013183594, -39.747657775878906, 139.311279296875, -0.01600000075995922, -0.08000000566244125, 1.055999994277954, 0.0, 0.0, 0.0, 0.0, 0.0, 1.6213487492514627E9, 2021-05-18 16:39:09.251
35.0, 107.76334381103516, -46.720699310302734, -102.92205047607422, 67.01152801513672, -0.01600000075995922, -0.08000000566244125, 1.055999994277954, 0.0, 0.0, 0.0, 0.0, 0.0, 1.6213487492522619E9, 2021-05-18 16:39:09.252
35.0, 95.0252456665039, -8.40168571472168, -108.8236083984375, 67.9539794921875, -0.01600000075995922, -0.08000000566244125, 1.055999994277954, 0.0, 0.0, 0.0, 0.0, 0.0, 1.6213487492522619E9, 2021-05-18 16:39:09.252
36.0, 118.96808624267578, 32.976566314697266, -87.57723999023438, 95.16175079345703, -0.01600000075995922, -0.08000000566244125, 1.055999994277954, 0.0, 0.0, 0.0, 0.0, 0.0, 1.6213487492530088E9, 2021-05-18 16:39:09.253
36.0, 156.62139892578125, -19.30349349975586, -45.18547058105469, 139.2551727294922, -0.01600000075995922, -0.08000000566244125, 1.055999994277954, 0.0, 0.0, 0.0, 0.0, 0.0, 1.6213487492530088E9, 2021-05-18 16:39:09.253
37.0, 97.6543960571289, -67.660400390625, -106.90503692626953, 57.87495040893555, -0.01600000075995922, -0.08000000566244125, 1.055999994277954, 0.0, 0.0, 0.0, 0.0, 0.0, 1.6213487492646403E9, 2021-05-18 16:39:09.264
37.0, 95.62737274169922, -30.9046630859375, -110.68608093261719, 64.79376983642578, -0.01600000075995922, -0.08000000566244125, 1.055999994277954, 0.0, 0.0, 0.0, 0.0, 0.0, 1.6213487492646403E9, 2021-05-18 16:39:09.264
38.0, 116.02478790283203, -4.572027683258057, -90.96932983398438, 96.47445678710938, -0.01600000075995922, -0.08000000566244125, 1.055999994277954, 0.0, 0.0, 0.0, 0.0, 0.0, 1.6213487492807412E9, 2021-05-18 16:39:09.280
38.0, 151.9764404296875, 64.01025390625, -45.81751251220703, 142.8267822265625, -0.01600000075995922, -0.08000000566244125, 1.055999994277954, 0.0, 0.0, 0.0, 0.0, 0.0, 1.6213487492807412E9, 2021-05-18 16:39:09.280
39.0, 90.86273956298828, -37.14281463623047, -112.58594512939453, 56.57346725463867, -0.01600000075995922, -0.08000000566244125, 1.055999994277954, 0.0, 0.0, 0.0, 0.0, 0.0, 1.6213487492815073E9, 2021-05-18 16:39:09.281
39.0, 83.80181121826172, -41.30906677246094, -120.1667251586914, 60.13385009765625, -0.01600000075995922, -0.08000000566244125, 1.055999994277954, 0.0, 0.0, 0.0, 0.0, 0.0, 1.6213487492815073E9, 2021-05-18 16:39:09.281
40.0, 112.60277557373047, 8.955190658569336, -89.50702667236328, 101.25031280517578, -0.01600000075995922, -0.08000000566244125, 1.055999994277954, 0.0, 0.0, 0.0, 0.0, 0.0, 1.6213487493107588E9, 2021-05-18 16:39:09.310
40.0, 148.78257751464844, 47.588356018066406, -51.82005310058594, 130.04754638671875, -0.01600000075995922, -0.08000000566244125, 1.055999994277954, 0.0, 0.0, 0.0, 0.0, 0.0, 1.6213487493107588E9, 2021-05-18 16:39:09.310
41.0, 83.80554962158203, -40.78548049926758, -118.54734802246094, 44.30659484863281, -0.01600000075995922, -0.08000000566244125, 1.055999994277954, 0.0, 0.0, 0.0, 0.0, 0.0, 1.621348749311504E9, 2021-05-18 16:39:09.311
41.0, 84.0448989868164, -50.269866943359375, -116.29592895507812, 54.83815383911133, -0.01600000075995922, -0.08000000566244125, 1.055999994277954, 0.0, 0.0, 0.0, 0.0, 0.0, 1.621348749311504E9, 2021-05-18 16:39:09.311
42.0, 122.97351837158203, -8.70087718963623, -87.33414459228516, 92.41666412353516, -0.01600000075995922, -0.08000000566244125, 1.055999994277954, 0.0, 0.0, 0.0, 0.0, 0.0, 1.621348749312208E9, 2021-05-18 16:39:09.312
42.0, 144.41436767578125, 8.356806755065918, -54.27342987060547, 125.21185302734375, -0.01600000075995922, -0.08000000566244125, 1.055999994277954, 0.0, 0.0, 0.0, 0.0, 0.0, 1.621348749312208E9, 2021-05-18 16:39:09.312
43.0, 90.5261459350586, -36.31629943847656, -106.37397766113281, 59.67010498046875, -0.01600000075995922, -0.08000000566244125, 1.055999994277954, 0.0, 0.0, 0.0, 0.0, 0.0, 1.6213487493244452E9, 2021-05-18 16:39:09.324
43.0, 82.78455352783203, -41.27166748046875, -121.24755859375, 49.16846466064453, -0.01600000075995922, -0.08000000566244125, 1.055999994277954, 0.0, 0.0, 0.0, 0.0, 0.0, 1.6213487493244452E9, 2021-05-18 16:39:09.324
44.0, 107.28463745117188, 3.027449131011963, -85.66614532470703, 91.94918060302734, -0.01600000075995922, -0.08000000566244125, 1.055999994277954, 0.0, 0.0, 0.0, 0.0, 0.0, 1.6213487493732827E9, 2021-05-18 16:39:09.373
44.0, 151.62115478515625, 59.084808349609375, -46.599151611328125, 127.6502685546875, -0.01600000075995922, -0.08000000566244125, 1.055999994277954, 0.0, 0.0, 0.0, 0.0, 0.0, 1.6213487493732827E9, 2021-05-18 16:39:09.373
45.0, 93.87335968017578, -78.73798370361328, -111.71829223632812, 47.272335052490234, -0.01600000075995922, -0.08000000566244125, 1.055999994277954, 0.0, 0.0, 0.0, 0.0, 0.0, 1.621348749373973E9, 2021-05-18 16:39:09.373
45.0, 85.48102569580078, -57.716007232666016, -113.78645324707031, 51.31516647338867, -0.01600000075995922, -0.08000000566244125, 1.055999994277954, 0.0, 0.0, 0.0, 0.0, 0.0, 1.621348749373973E9, 2021-05-18 16:39:09.373
46.0, 112.23252868652344, -15.27562141418457, -87.6482925415039, 84.94060516357422, -0.01600000075995922, -0.08000000566244125, 1.055999994277954, 0.0, 0.0, 0.0, 0.0, 0.0, 1.6213487493746896E9, 2021-05-18 16:39:09.374
46.0, 158.296875, 37.72249984741211, -41.76720428466797, 125.52973937988281, -0.01600000075995922, -0.08000000566244125, 1.055999994277954, 0.0, 0.0, 0.0, 0.0, 0.0, 1.6213487493746896E9, 2021-05-18 16:39:09.374
47.0, 95.76200866699219, -63.58390808105469, -106.09722137451172, 48.0876350402832, -0.01600000075995922, -0.08000000566244125, 1.055999994277954, 0.0, 0.0, 0.0, 0.0, 0.0, 1.6213487493754728E9, 2021-05-18 16:39:09.375
47.0, 91.52470397949219, -48.48967361450195, -105.50631713867188, 62.878936767578125, -0.01600000075995922, -0.08000000566244125, 1.055999994277954, 0.0, 0.0, 0.0, 0.0, 0.0, 1.6213487493754728E9, 2021-05-18 16:39:09.375
48.0, 117.03082275390625, 4.695444583892822, -76.27152252197266, 102.09178924560547, -0.01600000075995922, -0.08000000566244125, 1.055999994277954, 0.0, 0.0, 0.0, 0.0, 0.0, 1.621348749385612E9, 2021-05-18 16:39:09.385
48.0, 147.4960479736328, 20.029033660888672, -35.70856475830078, 143.01751708984375, -0.01600000075995922, -0.08000000566244125, 1.055999994277954, 0.0, 0.0, 0.0, 0.0, 0.0, 1.621348749385612E9, 2021-05-18 16:39:09.385
49.0, 100.13394927978516, -53.76667022705078, -97.84326171875, 72.7260971069336, -0.01600000075995922, -0.08000000566244125, 1.055999994277954, 0.0, 0.0, 0.0, 0.0, 0.0, 1.6213487494008608E9, 2021-05-18 16:39:09.400
49.0, 81.26615905761719, -62.75739288330078, -107.83627319335938, 62.878936767578125, -0.01600000075995922, -0.08000000566244125, 1.055999994277954, 0.0, 0.0, 0.0, 0.0, 0.0, 1.6213487494008608E9, 2021-05-18 16:39:09.400
50.0, 102.70700073242188, -12.867125511169434, -80.32930755615234, 101.12315368652344, -0.01600000075995922, -0.08000000566244125, 1.055999994277954, 0.0, 0.0, 0.0, 0.0, 0.0, 1.6213487494016216E9, 2021-05-18 16:39:09.401
50.0, 154.6168212890625, 69.21994018554688, -33.382347106933594, 143.10726928710938, -0.01600000075995922, -0.08000000566244125, 1.055999994277954, 0.0, 0.0, 0.0, 0.0, 0.0, 1.6213487494016216E9, 2021-05-18 16:39:09.401
51.0, 100.56777954101562, -50.73735427856445, -105.26322174072266, 56.01622009277344, -0.01600000075995922, -0.09600000083446503, 1.055999994277954, 0.0, 0.0, 0.0, 0.0, 0.0, 1.6213487494023852E9, 2021-05-18 16:39:09.402
51.0, 100.6201400756836, -50.79719161987305, -117.60863494873047, 54.45668411254883, -0.01600000075995922, -0.09600000083446503, 1.055999994277954, 0.0, 0.0, 0.0, 0.0, 0.0, 1.6213487494023852E9, 2021-05-18 16:39:09.402
52.0, 104.49093627929688, -33.73576736450195, -91.60137176513672, 94.3277587890625, -0.01600000075995922, -0.09600000083446503, 1.055999994277954, 0.0, 0.0, 0.0, 0.0, 0.0, 1.6213487494307268E9, 2021-05-18 16:39:09.430
52.0, 153.18443298339844, 25.059200286865234, -46.6328125, 134.83460998535156, -0.01600000075995922, -0.09600000083446503, 1.055999994277954, 0.0, 0.0, 0.0, 0.0, 0.0, 1.6213487494307268E9, 2021-05-18 16:39:09.430
53.0, 90.25687408447266, -49.630340576171875, -112.4961929321289, 49.92392349243164, -0.01600000075995922, -0.09600000083446503, 1.055999994277954, 0.0, 0.0, 0.0, 0.0, 0.0, 1.6213487494313588E9, 2021-05-18 16:39:09.431
53.0, 97.3926010131836, -55.72637939453125, -113.0609130859375, 55.54873275756836, -0.01600000075995922, -0.09600000083446503, 1.055999994277954, 0.0, 0.0, 0.0, 0.0, 0.0, 1.6213487494313588E9, 2021-05-18 16:39:09.431
54.0, 117.92839813232422, -17.067033767700195, -82.45357513427734, 92.11373901367188, -0.01600000075995922, -0.09600000083446503, 1.055999994277954, 0.0, 0.0, 0.0, 0.0, 0.0, 1.6213487494451058E9, 2021-05-18 16:39:09.445
54.0, 143.35223388671875, 80.39849853515625, -53.671302795410156, 122.66123962402344, -0.01600000075995922, -0.09600000083446503, 1.055999994277954, 0.0, 0.0, 0.0, 0.0, 0.0, 1.6213487494451058E9, 2021-05-18 16:39:09.445
55.0, 96.22575378417969, -57.701045989990234, -103.25863647460938, 50.24555587768555, -0.01600000075995922, -0.09600000083446503, 1.055999994277954, 0.0, 0.0, 0.0, 0.0, 0.0, 1.6213487494458172E9, 2021-05-18 16:39:09.445
55.0, 90.93379974365234, -57.66364669799805, -108.62913513183594, 54.89051055908203, -0.01600000075995922, -0.09600000083446503, 1.055999994277954, 0.0, 0.0, 0.0, 0.0, 0.0, 1.6213487494458172E9, 2021-05-18 16:39:09.445
56.0, 102.57984924316406, -14.942770004272461, -91.36949920654297, 86.00273895263672, -0.01600000075995922, -0.09600000083446503, 1.055999994277954, 0.0, 0.0, 0.0, 0.0, 0.0, 1.621348749476501E9, 2021-05-18 16:39:09.476
56.0, 155.8472442626953, 18.54803466796875, -41.10523986816406, 128.27108764648438, -0.01600000075995922, -0.09600000083446503, 1.055999994277954, 0.0, 0.0, 0.0, 0.0, 0.0, 1.621348749476501E9, 2021-05-18 16:39:09.476
57.0, 92.62797546386719, -31.869558334350586, -109.41451263427734, 54.10887145996094, -0.01600000075995922, -0.09600000083446503, 1.055999994277954, 0.0, 0.0, 0.0, 0.0, 0.0, 1.621348749477168E9, 2021-05-18 16:39:09.477
57.0, 91.98471069335938, -74.96068572998047, -118.40897369384766, 56.36403274536133, -0.01600000075995922, -0.09600000083446503, 1.055999994277954, 0.0, 0.0, 0.0, 0.0, 0.0, 1.621348749477168E9, 2021-05-18 16:39:09.477
58.0, 115.83405303955078, -11.483363151550293, -83.50448608398438, 100.66688537597656, -0.01600000075995922, -0.09600000083446503, 1.055999994277954, 0.0, 0.0, 0.0, 0.0, 0.0, 1.621348749477959E9, 2021-05-18 16:39:09.477
58.0, 168.82469177246094, 5.226510047912598, -43.498775482177734, 138.9634552001953, -0.01600000075995922, -0.09600000083446503, 1.055999994277954, 0.0, 0.0, 0.0, 0.0, 0.0, 1.621348749477959E9, 2021-05-18 16:39:09.477
59.0, 96.89894104003906, -61.9383544921875, -119.96476745605469, 58.540653228759766, -0.01600000075995922, -0.09600000083446503, 1.055999994277954, 0.0, 0.0, 0.0, 0.0, 0.0, 1.6213487494786685E9, 2021-05-18 16:39:09.478
59.0, 122.43497467041016, -49.67148208618164, -104.57134246826172, 79.77206420898438, -0.01600000075995922, -0.09600000083446503, 1.055999994277954, 0.0, 0.0, 0.0, 0.0, 0.0, 1.6213487494786685E9, 2021-05-18 16:39:09.478
60.0, 107.8905029296875, -16.334012985229492, -84.60027313232422, 101.99081420898438, -0.01600000075995922, -0.09600000083446503, 1.055999994277954, 0.0, 0.0, 0.0, 0.0, 0.0, 1.6213487494894943E9, 2021-05-18 16:39:09.489
60.0, 151.3070068359375, 22.890058517456055, -46.04564666748047, 139.1728973388672, -0.01600000075995922, -0.09600000083446503, 1.055999994277954, 0.0, 0.0, 0.0, 0.0, 0.0, 1.6213487494894943E9, 2021-05-18 16:39:09.489
61.0, 98.55197143554688, -42.27021789550781, -105.1136245727539, 61.592411041259766, -0.01600000075995922, -0.08000000566244125, 1.055999994277954, 0.0, 0.0, 0.0, 0.0, 0.0, 1.6213487495044885E9, 2021-05-18 16:39:09.504
61.0, 88.0765151977539, -58.995052337646484, -121.94317626953125, 57.205509185791016, -0.01600000075995922, -0.08000000566244125, 1.055999994277954, 0.0, 0.0, 0.0, 0.0, 0.0, 1.6213487495044885E9, 2021-05-18 16:39:09.504
62.0, 110.61315155029297, -8.25956916809082, -91.68738555908203, 101.26901245117188, -0.01600000075995922, -0.08000000566244125, 1.055999994277954, 0.0, 0.0, 0.0, 0.0, 0.0, 1.6213487495366478E9, 2021-05-18 16:39:09.536
62.0, 159.0186767578125, 22.91249656677246, -48.813175201416016, 138.7989044189453, -0.01600000075995922, -0.08000000566244125, 1.055999994277954, 0.0, 0.0, 0.0, 0.0, 0.0, 1.6213487495366478E9, 2021-05-18 16:39:09.536
63.0, 97.42252349853516, -47.13208770751953, -110.80949401855469, 57.41494369506836, -0.01600000075995922, -0.08000000566244125, 1.055999994277954, 0.0, 0.0, 0.0, 0.0, 0.0, 1.621348749537273E9, 2021-05-18 16:39:09.537
63.0, 95.08134460449219, -58.568702697753906, -111.0488510131836, 62.647064208984375, -0.01600000075995922, -0.08000000566244125, 1.055999994277954, 0.0, 0.0, 0.0, 0.0, 0.0, 1.621348749537273E9, 2021-05-18 16:39:09.537
64.0, 117.83863830566406, -8.895352363586426, -85.378173828125, 101.2166519165039, -0.01600000075995922, -0.08000000566244125, 1.055999994277954, 0.0, 0.0, 0.0, 0.0, 0.0, 1.6213487495381768E9, 2021-05-18 16:39:09.538
64.0, 153.70428466796875, 31.536706924438477, -50.16327667236328, 135.22731018066406, -0.01600000075995922, -0.08000000566244125, 1.055999994277954, 0.0, 0.0, 0.0, 0.0, 0.0, 1.6213487495381768E9, 2021-05-18 16:39:09.538
65.0, 101.62991333007812, -56.01435089111328, -119.8675308227539, 56.45378875732422, -0.01600000075995922, -0.08000000566244125, 1.055999994277954, 0.0, 0.0, 0.0, 0.0, 0.0, 1.621348749538884E9, 2021-05-18 16:39:09.538
65.0, 89.04515075683594, -55.894676208496094, -118.5361328125, 58.402278900146484, -0.01600000075995922, -0.08000000566244125, 1.055999994277954, 0.0, 0.0, 0.0, 0.0, 0.0, 1.621348749538884E9, 2021-05-18 16:39:09.538
66.0, 109.56971740722656, -26.300846099853516, -94.95980072021484, 89.15921783447266, -0.01600000075995922, -0.08000000566244125, 1.055999994277954, 0.0, 0.0, 0.0, 0.0, 0.0, 1.6213487495495193E9, 2021-05-18 16:39:09.549
66.0, 156.0865936279297, 41.24922561645508, -47.47428894042969, 135.29087829589844, -0.01600000075995922, -0.08000000566244125, 1.055999994277954, 0.0, 0.0, 0.0, 0.0, 0.0, 1.6213487495495193E9, 2021-05-18 16:39:09.549
67.0, 107.69976806640625, -39.39423751831055, -112.4924545288086, 61.01272964477539, -0.01600000075995922, -0.08000000566244125, 1.055999994277954, 0.0, 0.0, 0.0, 0.0, 0.0, 1.6213487495646105E9, 2021-05-18 16:39:09.564
67.0, 94.65499877929688, -70.42044830322266, -121.14657592773438, 55.86662673950195, -0.01600000075995922, -0.08000000566244125, 1.055999994277954, 0.0, 0.0, 0.0, 0.0, 0.0, 1.6213487495646105E9, 2021-05-18 16:39:09.564
68.0, 115.64331817626953, -6.24750280380249, -93.81539154052734, 96.6764144897461, -0.01600000075995922, -0.08000000566244125, 1.055999994277954, 0.0, 0.0, 0.0, 0.0, 0.0, 1.6213487495800683E9, 2021-05-18 16:39:09.580
68.0, 162.18263244628906, 19.213735580444336, -48.64487838745117, 132.09326171875, -0.01600000075995922, -0.08000000566244125, 1.055999994277954, 0.0, 0.0, 0.0, 0.0, 0.0, 1.6213487495800683E9, 2021-05-18 16:39:09.580
69.0, 138.90174865722656, -46.971275329589844, -102.10675048828125, 59.9318962097168, -0.01600000075995922, -0.08000000566244125, 1.055999994277954, 0.0, 0.0, 0.0, 0.0, 0.0, 1.6213487495807998E9, 2021-05-18 16:39:09.580
69.0, 75.28231811523438, 9.590973854064941, -125.64942169189453, 50.87759780883789, -0.01600000075995922, -0.08000000566244125, 1.055999994277954, 0.0, 0.0, 0.0, 0.0, 0.0, 1.6213487495807998E9, 2021-05-18 16:39:09.580
70.0, 101.15120697021484, -33.268280029296875, -97.95172119140625, 90.60281372070312, -0.01600000075995922, -0.08000000566244125, 1.055999994277954, 0.0, 0.0, 0.0, 0.0, 0.0, 1.6213487495944147E9, 2021-05-18 16:39:09.594
70.0, 153.98477172851562, 33.739505767822266, -44.78904342651367, 138.125732421875, -0.01600000075995922, -0.08000000566244125, 1.055999994277954, 0.0, 0.0, 0.0, 0.0, 0.0, 1.6213487495944147E9, 2021-05-18 16:39:09.594
71.0, 97.21308898925781, -51.7733039855957, -116.57268524169922, 59.20261764526367, -0.01600000075995922, -0.08000000566244125, 1.055999994277954, 0.0, 0.0, 0.0, 0.0, 0.0, 1.621348749610112E9, 2021-05-18 16:39:09.610
71.0, 92.72895050048828, -51.167442321777344, -123.5139389038086, 55.74320983886719, -0.01600000075995922, -0.08000000566244125, 1.055999994277954, 0.0, 0.0, 0.0, 0.0, 0.0, 1.621348749610112E9, 2021-05-18 16:39:09.610
72.0, 112.7074966430664, -38.964149475097656, -90.92070770263672, 92.7794418334961, -0.01600000075995922, -0.08000000566244125, 1.055999994277954, 0.0, 0.0, 0.0, 0.0, 0.0, 1.6213487496108284E9, 2021-05-18 16:39:09.610
72.0, 158.7606201171875, 19.950496673583984, -46.06808853149414, 135.9453582763672, -0.01600000075995922, -0.08000000566244125, 1.055999994277954, 0.0, 0.0, 0.0, 0.0, 0.0, 1.6213487496108284E9, 2021-05-18 16:39:09.610
73.0, 110.80762481689453, -40.7929573059082, -99.52247619628906, 60.91923141479492, -0.01600000075995922, -0.08000000566244125, 1.055999994277954, 0.0, 0.0, 0.0, 0.0, 0.0, 1.621348749624456E9, 2021-05-18 16:39:09.624
73.0, 96.5099868774414, -44.45431900024414, -111.69585418701172, 50.993534088134766, -0.01600000075995922, -0.08000000566244125, 1.055999994277954, 0.0, 0.0, 0.0, 0.0, 0.0, 1.621348749624456E9, 2021-05-18 16:39:09.624
74.0, 136.22398376464844, -8.33062744140625, -75.59085845947266, 92.24462890625, -0.01600000075995922, -0.08000000566244125, 1.055999994277954, 0.0, 0.0, 0.0, 0.0, 0.0, 1.6213487496401849E9, 2021-05-18 16:39:09.640
74.0, 151.74456787109375, 11.812474250793457, -45.7988166809082, 124.65460205078125, -0.01600000075995922, -0.08000000566244125, 1.055999994277954, 0.0, 0.0, 0.0, 0.0, 0.0, 1.6213487496401849E9, 2021-05-18 16:39:09.640
75.0, 105.642822265625, -38.8743896484375, -103.34839630126953, 52.852264404296875, -0.01600000075995922, -0.08000000566244125, 1.055999994277954, 0.0, 0.0, 0.0, 0.0, 0.0, 1.6213487496409023E9, 2021-05-18 16:39:09.640
75.0, 98.28643798828125, -71.56859588623047, -116.44178771972656, 48.82439422607422, -0.01600000075995922, -0.08000000566244125, 1.055999994277954, 0.0, 0.0, 0.0, 0.0, 0.0, 1.6213487496409023E9, 2021-05-18 16:39:09.640
76.0, 139.87039184570312, -4.4598307609558105, -80.71077728271484, 98.74083709716797, -0.01600000075995922, -0.08000000566244125, 1.055999994277954, 0.0, 0.0, 0.0, 0.0, 0.0, 1.6213487496543777E9, 2021-05-18 16:39:09.654
76.0, 161.9918975830078, 41.660614013671875, -42.86299514770508, 135.37315368652344, -0.01600000075995922, -0.08000000566244125, 1.055999994277954, 0.0, 0.0, 0.0, 0.0, 0.0, 1.6213487496543777E9, 2021-05-18 16:39:09.654
77.0, 102.03755950927734, -73.82001495361328, -105.94388580322266, 55.21588134765625, -0.01600000075995922, -0.08000000566244125, 1.055999994277954, 0.0, 0.0, 0.0, 0.0, 0.0, 1.6213487496702309E9, 2021-05-18 16:39:09.670
77.0, 102.98749542236328, -55.939552307128906, -110.44672393798828, 59.269935607910156, -0.01600000075995922, -0.08000000566244125, 1.055999994277954, 0.0, 0.0, 0.0, 0.0, 0.0, 1.6213487496702309E9, 2021-05-18 16:39:09.670
78.0, 126.3543930053711, -29.969688415527344, -89.32376861572266, 95.7938003540039, -0.01600000075995922, -0.08000000566244125, 1.055999994277954, 0.0, 0.0, 0.0, 0.0, 0.0, 1.621348749670823E9, 2021-05-18 16:39:09.670
78.0, 152.451416015625, 26.44670295715332, -49.46391677856445, 134.28111267089844, -0.01600000075995922, -0.08000000566244125, 1.055999994277954, 0.0, 0.0, 0.0, 0.0, 0.0, 1.621348749670823E9, 2021-05-18 16:39:09.670
79.0, 118.29864501953125, -41.01735305786133, -100.50607299804688, 59.969295501708984, -0.01600000075995922, -0.08000000566244125, 1.055999994277954, 0.0, 0.0, 0.0, 0.0, 0.0, 1.6213487496844528E9, 2021-05-18 16:39:09.684
79.0, 88.96661376953125, -63.93545913696289, -109.2462158203125, 55.36922073364258, -0.01600000075995922, -0.08000000566244125, 1.055999994277954, 0.0, 0.0, 0.0, 0.0, 0.0, 1.6213487496844528E9, 2021-05-18 16:39:09.684
80.0, 121.67203521728516, 0.7386302351951599, -76.80632781982422, 93.54985809326172, -0.01600000075995922, -0.08000000566244125, 1.055999994277954, 0.0, 0.0, 0.0, 0.0, 0.0, 1.6213487497002025E9, 2021-05-18 16:39:09.700
80.0, 179.46844482421875, 32.797054290771484, -33.479583740234375, 137.0224609375, -0.01600000075995922, -0.08000000566244125, 1.055999994277954, 0.0, 0.0, 0.0, 0.0, 0.0, 1.6213487497002025E9, 2021-05-18 16:39:09.700
81.0, 111.35365295410156, -82.72097778320312, -102.53309631347656, 51.1580924987793, -0.01600000075995922, -0.08000000566244125, 1.055999994277954, 0.0, 0.0, 0.0, 0.0, 0.0, 1.6213487497009432E9, 2021-05-18 16:39:09.700
81.0, 103.9935302734375, -64.46652221679688, -108.13920593261719, 50.814022064208984, -0.01600000075995922, -0.08000000566244125, 1.055999994277954, 0.0, 0.0, 0.0, 0.0, 0.0, 1.6213487497009432E9, 2021-05-18 16:39:09.700
82.0, 112.40082550048828, 37.63648223876953, -84.09539031982422, 82.49097442626953, -0.01600000075995922, -0.08000000566244125, 1.055999994277954, 0.0, 0.0, 0.0, 0.0, 0.0, 1.6213487497144935E9, 2021-05-18 16:39:09.714
82.0, 164.142333984375, 29.229188919067383, -40.9406852722168, 132.02220153808594, -0.01600000075995922, -0.08000000566244125, 1.055999994277954, 0.0, 0.0, 0.0, 0.0, 0.0, 1.6213487497144935E9, 2021-05-18 16:39:09.714
83.0, 118.78857421875, -73.99205017089844, -96.56795501708984, 60.638736724853516, -0.01600000075995922, -0.08000000566244125, 1.055999994277954, 0.0, 0.0, 0.0, 0.0, 0.0, 1.621348749730081E9, 2021-05-18 16:39:09.730
83.0, 109.64825439453125, -72.8775634765625, -108.43091583251953, 53.207557678222656, -0.01600000075995922, -0.08000000566244125, 1.055999994277954, 0.0, 0.0, 0.0, 0.0, 0.0, 1.621348749730081E9, 2021-05-18 16:39:09.730
84.0, 116.32023620605469, -5.854813575744629, -81.36526489257812, 93.11976623535156, -0.01600000075995922, -0.08000000566244125, 1.055999994277954, 0.0, 0.0, 0.0, 0.0, 0.0, 1.621348749730812E9, 2021-05-18 16:39:09.730
84.0, 159.13087463378906, 12.377199172973633, -44.261714935302734, 137.99856567382812, -0.01600000075995922, -0.08000000566244125, 1.055999994277954, 0.0, 0.0, 0.0, 0.0, 0.0, 1.621348749730812E9, 2021-05-18 16:39:09.730
85.0, 110.87494659423828, -64.79937744140625, -104.0066146850586, 67.55755615234375, -0.01600000075995922, -0.08000000566244125, 1.055999994277954, 0.0, 0.0, 0.0, 0.0, 0.0, 1.6213487497443955E9, 2021-05-18 16:39:09.744
85.0, 103.40636444091797, -80.12922668457031, -112.1147232055664, 63.402523040771484, -0.01600000075995922, -0.08000000566244125, 1.055999994277954, 0.0, 0.0, 0.0, 0.0, 0.0, 1.6213487497443955E9, 2021-05-18 16:39:09.744
86.0, 134.24557495117188, -32.99900817871094, -87.81658935546875, 91.12640380859375, -0.01600000075995922, -0.08000000566244125, 1.055999994277954, 0.0, 0.0, 0.0, 0.0, 0.0, 1.6213487497602246E9, 2021-05-18 16:39:09.760
86.0, 159.45999145507812, 16.176937103271484, -48.4878044128418, 141.19244384765625, -0.01600000075995922, -0.08000000566244125, 1.055999994277954, 0.0, 0.0, 0.0, 0.0, 0.0, 1.6213487497602246E9, 2021-05-18 16:39:09.760
87.0, 108.11116027832031, -46.70948028564453, -106.0934829711914, 63.888710021972656, -0.01600000075995922, -0.08000000566244125, 1.055999994277954, 0.0, 0.0, 0.0, 0.0, 0.0, 1.6213487497609165E9, 2021-05-18 16:39:09.760
87.0, 107.21358489990234, -65.19580841064453, -116.7334976196289, 59.112857818603516, -0.01600000075995922, -0.08000000566244125, 1.055999994277954, 0.0, 0.0, 0.0, 0.0, 0.0, 1.6213487497609165E9, 2021-05-18 16:39:09.760
88.0, 123.80004119873047, -47.28168487548828, -88.2055435180664, 90.9169692993164, -0.01600000075995922, -0.08000000566244125, 1.055999994277954, 0.0, 0.0, 0.0, 0.0, 0.0, 1.621348749774424E9, 2021-05-18 16:39:09.774
88.0, 168.57786560058594, 4.534628868103027, -41.53158950805664, 141.02789306640625, -0.01600000075995922, -0.08000000566244125, 1.055999994277954, 0.0, 0.0, 0.0, 0.0, 0.0, 1.621348749774424E9, 2021-05-18 16:39:09.774
89.0, 120.10501861572266, -77.99000549316406, -102.06935119628906, 61.14736557006836, -0.01600000075995922, -0.08000000566244125, 1.055999994277954, 0.0, 0.0, 0.0, 0.0, 0.0, 1.6213487497901545E9, 2021-05-18 16:39:09.790
89.0, 95.83306884765625, -69.82205963134766, -117.30196380615234, 50.30539321899414, -0.01600000075995922, -0.08000000566244125, 1.055999994277954, 0.0, 0.0, 0.0, 0.0, 0.0, 1.6213487497901545E9, 2021-05-18 16:39:09.790
90.0, 120.22843170166016, -38.750972747802734, -84.60401916503906, 88.06342315673828, -0.01600000075995922, -0.08000000566244125, 1.055999994277954, 0.0, 0.0, 0.0, 0.0, 0.0, 1.6213487497908444E9, 2021-05-18 16:39:09.790
90.0, 176.6635284423828, 0.8321277499198914, -35.66742706298828, 138.5072021484375, -0.01600000075995922, -0.08000000566244125, 1.055999994277954, 0.0, 0.0, 0.0, 0.0, 0.0, 1.6213487497908444E9, 2021-05-18 16:39:09.790
91.0, 111.46585083007812, -56.130287170410156, -97.43561553955078, 65.17523956298828, -0.01600000075995922, -0.08000000566244125, 1.055999994277954, 0.0, 0.0, 0.0, 0.0, 0.0, 1.621348749804372E9, 2021-05-18 16:39:09.804
91.0, 100.82583618164062, -73.79383850097656, -107.5782241821289, 56.068580627441406, -0.01600000075995922, -0.08000000566244125, 1.055999994277954, 0.0, 0.0, 0.0, 0.0, 0.0, 1.621348749804372E9, 2021-05-18 16:39:09.804
92.0, 132.67108154296875, -48.59812927246094, -77.35983276367188, 96.10047149658203, -0.01600000075995922, -0.08000000566244125, 1.055999994277954, 0.0, 0.0, 0.0, 0.0, 0.0, 1.6213487498200967E9, 2021-05-18 16:39:09.820
92.0, 181.20750427246094, -0.7498499155044556, -34.76985168457031, 137.49742126464844, -0.01600000075995922, -0.08000000566244125, 1.055999994277954, 0.0, 0.0, 0.0, 0.0, 0.0, 1.6213487498200967E9, 2021-05-18 16:39:09.820
93.0, 136.30625915527344, -19.90935707092285, -89.5519027709961, 65.33605194091797, -0.01600000075995922, -0.08000000566244125, 1.055999994277954, 0.0, 0.0, 0.0, 0.0, 0.0, 1.62134874982084E9, 2021-05-18 16:39:09.820
93.0, 88.31212615966797, -80.55931854248047, -109.23125457763672, 53.80594253540039, -0.01600000075995922, -0.08000000566244125, 1.055999994277954, 0.0, 0.0, 0.0, 0.0, 0.0, 1.62134874982084E9, 2021-05-18 16:39:09.820
94.0, 118.1490478515625, -46.821678161621094, -70.76264953613281, 106.87138366699219, -0.01600000075995922, -0.08000000566244125, 1.055999994277954, 0.0, 0.0, 0.0, 0.0, 0.0, 1.6213487498510969E9, 2021-05-18 16:39:09.851
94.0, 158.13232421875, 25.3995304107666, -34.64643478393555, 142.57994079589844, -0.01600000075995922, -0.08000000566244125, 1.055999994277954, 0.0, 0.0, 0.0, 0.0, 0.0, 1.6213487498510969E9, 2021-05-18 16:39:09.851
95.0, 109.92501068115234, -50.15018844604492, -89.5107650756836, 67.83804321289062, -0.01600000075995922, -0.08000000566244125, 1.055999994277954, 0.0, 0.0, 0.0, 0.0, 0.0, 1.6213487498515923E9, 2021-05-18 16:39:09.851
95.0, 103.3315658569336, -66.54216766357422, -106.08226013183594, 56.41265106201172, -0.01600000075995922, -0.08000000566244125, 1.055999994277954, 0.0, 0.0, 0.0, 0.0, 0.0, 1.6213487498515923E9, 2021-05-18 16:39:09.851
96.0, 127.33424377441406, -22.112157821655273, -75.89752960205078, 97.70862579345703, -0.01600000075995922, -0.08000000566244125, 1.055999994277954, 0.0, 0.0, 0.0, 0.0, 0.0, 1.6213487498522873E9, 2021-05-18 16:39:09.852
96.0, 175.14512634277344, 29.225448608398438, -21.93077278137207, 147.37823486328125, -0.01600000075995922, -0.08000000566244125, 1.055999994277954, 0.0, 0.0, 0.0, 0.0, 0.0, 1.6213487498522873E9, 2021-05-18 16:39:09.852
97.0, 116.0584487915039, -70.207275390625, -92.36431121826172, 60.91175079345703, -0.01600000075995922, -0.08000000566244125, 1.055999994277954, 0.0, 0.0, 0.0, 0.0, 0.0, 1.6213487498644373E9, 2021-05-18 16:39:09.864
97.0, 107.13130187988281, -66.04102325439453, -102.80610656738281, 56.8502197265625, -0.01600000075995922, -0.08000000566244125, 1.055999994277954, 0.0, 0.0, 0.0, 0.0, 0.0, 1.6213487498644373E9, 2021-05-18 16:39:09.864
98.0, 134.80282592773438, -12.104186058044434, -72.25860595703125, 93.43018341064453, -0.01600000075995922, -0.08000000566244125, 1.055999994277954, 0.0, 0.0, 0.0, 0.0, 0.0, 1.6213487499112608E9, 2021-05-18 16:39:09.911
98.0, 157.34693908691406, -7.3956522941589355, -36.19101333618164, 133.1591339111328, -0.01600000075995922, -0.08000000566244125, 1.055999994277954, 0.0, 0.0, 0.0, 0.0, 0.0, 1.6213487499112608E9, 2021-05-18 16:39:09.911
99.0, 111.43592834472656, -65.55109405517578, -87.25186920166016, 61.54005432128906, -0.01600000075995922, -0.08000000566244125, 1.055999994277954, 0.0, 0.0, 0.0, 0.0, 0.0, 1.6213487499119766E9, 2021-05-18 16:39:09.911
99.0, 102.99871826171875, -57.32331466674805, -102.70513153076172, 54.31830596923828, -0.01600000075995922, -0.08000000566244125, 1.055999994277954, 0.0, 0.0, 0.0, 0.0, 0.0, 1.6213487499119766E9, 2021-05-18 16:39:09.911
100.0, 146.2132568359375, -8.947710990905762, -63.81765365600586, 96.94568634033203, -0.01600000075995922, -0.08000000566244125, 1.055999994277954, 0.0, 0.0, 0.0, 0.0, 0.0, 1.621348749912692E9, 2021-05-18 16:39:09.912
100.0, 181.58523559570312, 35.564579010009766, -25.79783058166504, 127.78115844726562, -0.01600000075995922, -0.08000000566244125, 1.055999994277954, 0.0, 0.0, 0.0, 0.0, 0.0, 1.621348749912692E9, 2021-05-18 16:39:09.912
0.0, 106.54039764404297, -45.1592903137207, -90.5317611694336, 52.29315185546875, -0.01600000075995922, -0.08000000566244125, 1.055999994277954, 0.0, 0.0, 0.0, 0.0, 0.0, 1.6213487499264927E9, 2021-05-18 16:39:09.926
1.0, 97.50479888916016, -83.57180786132812, -104.50776672363281, 54.18928146362305, -0.01600000075995922, -0.09600000083446503, 1.055999994277954, 0.0, 0.0, 0.0, 0.0, 0.0, 1.6213487499271903E9, 2021-05-18 16:39:09.927
1.0, 129.12191772460938, -40.90328598022461, -77.84601593017578, 90.1072769165039, -0.01600000075995922, -0.09600000083446503, 1.055999994277954, 0.0, 0.0, 0.0, 0.0, 0.0, 1.6213487499271903E9, 2021-05-18 16:39:09.927
2.0, 165.14837646484375, 16.51913833618164, -35.55522918701172, 124.53679656982422, -0.01600000075995922, -0.09600000083446503, 1.055999994277954, 0.0, 0.0, 0.0, 0.0, 0.0, 1.621348749927951E9, 2021-05-18 16:39:09.927
2.0, 123.0670166015625, -68.40277099609375, -83.43716430664062, 57.71226501464844, -0.01600000075995922, -0.09600000083446503, 1.055999994277954, 0.0, 0.0, 0.0, 0.0, 0.0, 1.621348749927951E9, 2021-05-18 16:39:09.927
3.0, 113.41807556152344, -2.9545209407806396, -102.01325225830078, 55.53190612792969, -0.01600000075995922, -0.09600000083446503, 1.055999994277954, 0.0, 0.0, 0.0, 0.0, 0.0, 1.6213487499286888E9, 2021-05-18 16:39:09.928
3.0, 142.98947143554688, -50.27921676635742, -77.96943664550781, 82.5564193725586, -0.01600000075995922, -0.09600000083446503, 1.055999994277954, 0.0, 0.0, 0.0, 0.0, 0.0, 1.6213487499286888E9, 2021-05-18 16:39:09.928
4.0, 182.60623168945312, -12.6146821975708, -35.49913024902344, 134.02117919921875, -0.01600000075995922, -0.09600000083446503, 1.055999994277954, 0.0, 0.0, 0.0, 0.0, 0.0, 1.6213487499566112E9, 2021-05-18 16:39:09.956
4.0, 117.39733123779297, -67.82682800292969, -97.78716278076172, 58.02641677856445, -0.01600000075995922, -0.09600000083446503, 1.055999994277954, 0.0, 0.0, 0.0, 0.0, 0.0, 1.6213487499566112E9, 2021-05-18 16:39:09.956
5.0, 111.84732055664062, -64.18416595458984, -106.10095977783203, 56.77729034423828, -0.01600000075995922, -0.09600000083446503, 1.055999994277954, 0.0, 0.0, 0.0, 0.0, 0.0, 1.6213487499572885E9, 2021-05-18 16:39:09.957
5.0, 128.7928009033203, -16.597675323486328, -84.58531951904297, 94.10523223876953, -0.01600000075995922, -0.09600000083446503, 1.055999994277954, 0.0, 0.0, 0.0, 0.0, 0.0, 1.6213487499572885E9, 2021-05-18 16:39:09.957
6.0, 178.80274963378906, 16.77345085144043, -31.220684051513672, 144.44802856445312, -0.01600000075995922, -0.09600000083446503, 1.055999994277954, 0.0, 0.0, 0.0, 0.0, 0.0, 1.6213487499580579E9, 2021-05-18 16:39:09.958
6.0, 137.97425842285156, -61.63355255126953, -93.99116516113281, 64.90409088134766, -0.01600000075995922, -0.09600000083446503, 1.055999994277954, 0.0, 0.0, 0.0, 0.0, 0.0, 1.6213487499580579E9, 2021-05-18 16:39:09.958
7.0, 123.21661376953125, -77.3860092163086, -108.15042877197266, 57.551448822021484, -0.01600000075995922, -0.09600000083446503, 1.055999994277954, 0.0, 0.0, 0.0, 0.0, 0.0, 1.621348749969541E9, 2021-05-18 16:39:09.969
7.0, 118.39962005615234, -29.148780822753906, -86.82177734375, 90.64208221435547, -0.01600000075995922, -0.09600000083446503, 1.055999994277954, 0.0, 0.0, 0.0, 0.0, 0.0, 1.621348749969541E9, 2021-05-18 16:39:09.969
8.0, 168.91819763183594, 22.824609756469727, -42.52640151977539, 136.44837951660156, -0.01600000075995922, -0.09600000083446503, 1.055999994277954, 0.0, 0.0, 0.0, 0.0, 0.0, 1.6213487499851213E9, 2021-05-18 16:39:09.985
8.0, 116.2641372680664, -48.629920959472656, -104.75460052490234, 59.84027099609375, -0.01600000075995922, -0.09600000083446503, 1.055999994277954, 0.0, 0.0, 0.0, 0.0, 0.0, 1.6213487499851213E9, 2021-05-18 16:39:09.985
9.0, 101.15120697021484, -55.17100524902344, -121.72252655029297, 56.79973220825195, -0.01600000075995922, -0.09600000083446503, 1.055999994277954, 0.0, 0.0, 0.0, 0.0, 0.0, 1.621348749985864E9, 2021-05-18 16:39:09.985
9.0, 132.76083374023438, -52.54933547973633, -92.0389404296875, 91.1245346069336, -0.01600000075995922, -0.09600000083446503, 1.055999994277954, 0.0, 0.0, 0.0, 0.0, 0.0, 1.621348749985864E9, 2021-05-18 16:39:09.985
10.0, 178.06973266601562, -6.230673313140869, -42.53388214111328, 134.41761779785156, -0.01600000075995922, -0.09600000083446503, 1.055999994277954, 0.0, 0.0, 0.0, 0.0, 0.0, 1.6213487500158155E9, 2021-05-18 16:39:10.015
10.0, 117.8685531616211, -63.806434631347656, -105.33802032470703, 57.846900939941406, -0.01600000075995922, -0.09600000083446503, 1.055999994277954, 0.0, 0.0, 0.0, 0.0, 0.0, 1.6213487500158155E9, 2021-05-18 16:39:10.015
11.0, 100.23118591308594, -49.78554916381836, -113.4835205078125, 44.30846405029297, -0.01600000075995922, -0.09600000083446503, 1.055999994277954, 0.0, 0.0, 0.0, 0.0, 0.0, 1.6213487500165439E9, 2021-05-18 16:39:10.016
11.0, 127.41651916503906, -31.022470474243164, -89.9333724975586, 75.98542022705078, -0.01600000075995922, -0.09600000083446503, 1.055999994277954, 0.0, 0.0, 0.0, 0.0, 0.0, 1.6213487500165439E9, 2021-05-18 16:39:10.016
12.0, 185.02593994140625, 21.538084030151367, -37.825347900390625, 125.83080291748047, -0.01600000075995922, -0.09600000083446503, 1.055999994277954, 0.0, 0.0, 0.0, 0.0, 0.0, 1.621348750017357E9, 2021-05-18 16:39:10.017
12.0, 117.47586822509766, -13.418761253356934, -97.8245620727539, 55.00831985473633, -0.01600000075995922, -0.09600000083446503, 1.055999994277954, 0.0, 0.0, 0.0, 0.0, 0.0, 1.621348750017357E9, 2021-05-18 16:39:10.017
13.0, 114.66720581054688, -85.21736145019531, -114.19784545898438, 46.17841339111328, -0.01600000075995922, -0.09600000083446503, 1.055999994277954, 0.0, 0.0, 0.0, 0.0, 0.0, 1.6213487500294535E9, 2021-05-18 16:39:10.029
13.0, 143.47190856933594, -15.083016395568848, -76.42111206054688, 89.41539764404297, -0.01600000075995922, -0.09600000083446503, 1.055999994277954, 0.0, 0.0, 0.0, 0.0, 0.0, 1.6213487500294535E9, 2021-05-18 16:39:10.029
14.0, 185.8599395751953, 95.30760955810547, -33.56560134887695, 127.33050537109375, -0.01600000075995922, -0.09600000083446503, 1.055999994277954, 0.0, 0.0, 0.0, 0.0, 0.0, 1.6213487500451984E9, 2021-05-18 16:39:10.045
14.0, 120.63982391357422, -95.68907928466797, -106.9798355102539, 53.42634201049805, -0.01600000075995922, -0.09600000083446503, 1.055999994277954, 0.0, 0.0, 0.0, 0.0, 0.0, 1.6213487500451984E9, 2021-05-18 16:39:10.045
15.0, 110.51217651367188, -78.77725219726562, -111.9763412475586, 60.12076187133789, -0.01600000075995922, -0.09600000083446503, 1.055999994277954, 0.0, 0.0, 0.0, 0.0, 0.0, 1.621348750045853E9, 2021-05-18 16:39:10.045
15.0, 139.10745239257812, -53.27487564086914, -88.7478256225586, 91.96227264404297, -0.01600000075995922, -0.09600000083446503, 1.055999994277954, 0.0, 0.0, 0.0, 0.0, 0.0, 1.621348750045853E9, 2021-05-18 16:39:10.045
16.0, 197.07215881347656, 16.938007354736328, -31.007511138916016, 143.18020629882812, -0.01600000075995922, -0.09600000083446503, 1.055999994277954, 0.0, 0.0, 0.0, 0.0, 0.0, 1.6213487500929615E9, 2021-05-18 16:39:10.092
16.0, 151.8118896484375, -49.53871536254883, -94.20807647705078, 56.11906814575195, -0.01600000075995922, -0.09600000083446503, 1.055999994277954, 0.0, 0.0, 0.0, 0.0, 0.0, 1.6213487500929615E9, 2021-05-18 16:39:10.092
17.0, 114.80184173583984, -60.14881134033203, -104.3282470703125, 46.155975341796875, -0.01600000075995922, -0.09600000083446503, 1.055999994277954, 0.0, 0.0, 0.0, 0.0, 0.0, 1.6213487500935256E9, 2021-05-18 16:39:10.093
17.0, 143.7598876953125, -46.801109313964844, -84.39458465576172, 77.08494567871094, -0.01600000075995922, -0.09600000083446503, 1.055999994277954, 0.0, 0.0, 0.0, 0.0, 0.0, 1.6213487500935256E9, 2021-05-18 16:39:10.093
18.0, 184.43878173828125, 20.790103912353516, -29.485370635986328, 119.81330871582031, -0.01600000075995922, -0.09600000083446503, 1.055999994277954, 0.0, 0.0, 0.0, 0.0, 0.0, 1.6213487500944552E9, 2021-05-18 16:39:10.094
18.0, 135.16558837890625, -57.9534912109375, -82.71537017822266, 48.968379974365234, -0.01600000075995922, -0.09600000083446503, 1.055999994277954, 0.0, 0.0, 0.0, 0.0, 0.0, 1.6213487500944552E9, 2021-05-18 16:39:10.094
19.0, 145.12120056152344, -59.63270568847656, -95.1542739868164, 41.20808792114258, -0.01600000075995922, -0.09600000083446503, 1.055999994277954, 0.0, 0.0, 0.0, 0.0, 0.0, 1.6213487500952556E9, 2021-05-18 16:39:10.095
19.0, 153.32281494140625, -37.496238708496094, -75.21686553955078, 65.58475494384766, -0.01600000075995922, -0.09600000083446503, 1.055999994277954, 0.0, 0.0, 0.0, 0.0, 0.0, 1.6213487500952556E9, 2021-05-18 16:39:10.095
20.0, 188.89674377441406, 36.55378341674805, -30.5175838470459, 114.16231536865234, -0.01600000075995922, -0.09600000083446503, 1.055999994277954, 0.0, 0.0, 0.0, 0.0, 0.0, 1.6213487501052785E9, 2021-05-18 16:39:10.105
20.0, 135.831298828125, -65.39962768554688, -91.32835388183594, 42.46469497680664, -0.01600000075995922, -0.09600000083446503, 1.055999994277954, 0.0, 0.0, 0.0, 0.0, 0.0, 1.6213487501052785E9, 2021-05-18 16:39:10.105
21.0, 131.1190185546875, -65.46694946289062, -99.73564910888672, 43.900814056396484, -0.01600000075995922, -0.09600000083446503, 1.055999994277954, 0.0, 0.0, 0.0, 0.0, 0.0, 1.621348750106047E9, 2021-05-18 16:39:10.106
21.0, 166.59945678710938, -35.83946228027344, -73.86676025390625, 83.80554962158203, -0.01600000075995922, -0.09600000083446503, 1.055999994277954, 0.0, 0.0, 0.0, 0.0, 0.0, 1.621348750106047E9, 2021-05-18 16:39:10.106
22.0, 201.14117431640625, 23.935359954833984, -26.68044662475586, 131.9642333984375, -0.01600000075995922, -0.09600000083446503, 1.055999994277954, 0.0, 0.0, 0.0, 0.0, 0.0, 1.62134875013567E9, 2021-05-18 16:39:10.135
22.0, 155.5405731201172, -55.16726303100586, -85.22483825683594, 58.63976287841797, -0.01600000075995922, -0.09600000083446503, 1.055999994277954, 0.0, 0.0, 0.0, 0.0, 0.0, 1.62134875013567E9, 2021-05-18 16:39:10.135
23.0, 123.41482543945312, -74.10237884521484, -102.21146392822266, 48.27275848388672, -0.01600000075995922, -0.09600000083446503, 1.055999994277954, 0.0, 0.0, 0.0, 0.0, 0.0, 1.6213487501363127E9, 2021-05-18 16:39:10.136
23.0, 139.82925415039062, -51.99583053588867, -82.11324310302734, 83.80554962158203, -0.01600000075995922, -0.09600000083446503, 1.055999994277954, 0.0, 0.0, 0.0, 0.0, 0.0, 1.6213487501363127E9, 2021-05-18 16:39:10.136
24.0, 192.39727783203125, 13.272905349731445, -29.54146957397461, 136.1304931640625, -0.01600000075995922, -0.09600000083446503, 1.055999994277954, 0.0, 0.0, 0.0, 0.0, 0.0, 1.6213487501501381E9, 2021-05-18 16:39:10.150
24.0, 151.0040740966797, -50.02864074707031, -84.40206146240234, 66.93486022949219, -0.01600000075995922, -0.09600000083446503, 1.055999994277954, 0.0, 0.0, 0.0, 0.0, 0.0, 1.6213487501501381E9, 2021-05-18 16:39:10.150
25.0, 128.69931030273438, -41.26979446411133, -100.30411529541016, 51.27589797973633, -0.01600000075995922, -0.09600000083446503, 1.055999994277954, 0.0, 0.0, 0.0, 0.0, 0.0, 1.621348750150878E9, 2021-05-18 16:39:10.150
25.0, 140.50991821289062, -23.561368942260742, -74.51750946044922, 74.45205688476562, -0.01600000075995922, -0.09600000083446503, 1.055999994277954, 0.0, 0.0, 0.0, 0.0, 0.0, 1.621348750150878E9, 2021-05-18 16:39:10.150
26.0, 200.2174072265625, -4.704793930053711, -22.188825607299805, 126.70967864990234, -0.01600000075995922, -0.09600000083446503, 1.055999994277954, 0.0, 0.0, 0.0, 0.0, 0.0, 1.6213487501652305E9, 2021-05-18 16:39:10.165
26.0, 140.408935546875, -66.76095581054688, -84.532958984375, 54.832542419433594, -0.01600000075995922, -0.09600000083446503, 1.055999994277954, 0.0, 0.0, 0.0, 0.0, 0.0, 1.6213487501652305E9, 2021-05-18 16:39:10.165
27.0, 128.2280731201172, -83.61668395996094, -99.83663177490234, 45.56507110595703, -0.01600000075995922, -0.09600000083446503, 1.055999994277954, 0.0, 0.0, 0.0, 0.0, 0.0, 1.6213487501660163E9, 2021-05-18 16:39:10.166
27.0, 161.8273468017578, -36.11995315551758, -71.26753234863281, 84.14962005615234, -0.01600000075995922, -0.09600000083446503, 1.055999994277954, 0.0, 0.0, 0.0, 0.0, 0.0, 1.6213487501660163E9, 2021-05-18 16:39:10.166
28.0, 187.95802307128906, 0.7853789925575256, -37.98990249633789, 117.10935974121094, -0.01600000075995922, -0.09600000083446503, 1.055999994277954, 0.0, 0.0, 0.0, 0.0, 0.0, 1.621348750195528E9, 2021-05-18 16:39:10.195
28.0, 145.667236328125, -63.510982513427734, -88.90863800048828, 43.68764114379883, -0.01600000075995922, -0.09600000083446503, 1.055999994277954, 0.0, 0.0, 0.0, 0.0, 0.0, 1.621348750195528E9, 2021-05-18 16:39:10.195
29.0, 140.24063110351562, -96.82975006103516, -103.23993682861328, 37.06427764892578, -0.01600000075995922, -0.09600000083446503, 1.055999994277954, 0.0, 0.0, 0.0, 0.0, 0.0, 1.6213487501962764E9, 2021-05-18 16:39:10.196
29.0, 160.23414611816406, -42.23469161987305, -78.8333511352539, 74.36604309082031, -0.01600000075995922, -0.09600000083446503, 1.055999994277954, 0.0, 0.0, 0.0, 0.0, 0.0, 1.6213487501962764E9, 2021-05-18 16:39:10.196
30.0, 192.41224670410156, 29.750904083251953, -26.650527954101562, 130.0307159423828, -0.01600000075995922, -0.09600000083446503, 1.055999994277954, 0.0, 0.0, 0.0, 0.0, 0.0, 1.621348750210214E9, 2021-05-18 16:39:10.210
30.0, 164.74072265625, -86.2981948852539, -81.4400634765625, 55.43092727661133, -0.01600000075995922, -0.09600000083446503, 1.055999994277954, 0.0, 0.0, 0.0, 0.0, 0.0, 1.621348750210214E9, 2021-05-18 16:39:10.210
31.0, 118.26498413085938, -82.85000610351562, -100.93241882324219, 40.359130859375, -0.01600000075995922, -0.08000000566244125, 1.055999994277954, 0.0, 0.0, 0.0, 0.0, 0.0, 1.6213487502108788E9, 2021-05-18 16:39:10.210
31.0, 134.62704467773438, -35.592628479003906, -71.69762420654297, 83.52879333496094, -0.01600000075995922, -0.08000000566244125, 1.055999994277954, 0.0, 0.0, 0.0, 0.0, 0.0, 1.6213487502108788E9, 2021-05-18 16:39:10.210
32.0, 191.4473419189453, 6.1072564125061035, -20.34879493713379, 129.3837127685547, -0.01600000075995922, -0.08000000566244125, 1.055999994277954, 0.0, 0.0, 0.0, 0.0, 0.0, 1.6213487502251227E9, 2021-05-18 16:39:10.225
32.0, 146.6807403564453, -63.462364196777344, -72.05290985107422, 65.92134857177734, -0.01600000075995922, -0.08000000566244125, 1.055999994277954, 0.0, 0.0, 0.0, 0.0, 0.0, 1.6213487502251227E9, 2021-05-18 16:39:10.225
33.0, 128.1457977294922, -67.62487030029297, -89.63043975830078, 52.121116638183594, -0.01600000075995922, -0.08000000566244125, 1.055999994277954, 0.0, 0.0, 0.0, 0.0, 0.0, 1.6213487502258332E9, 2021-05-18 16:39:10.225
33.0, 154.3587646484375, -44.321556091308594, -56.62956619262695, 97.74789428710938, -0.01600000075995922, -0.08000000566244125, 1.055999994277954, 0.0, 0.0, 0.0, 0.0, 0.0, 1.6213487502258332E9, 2021-05-18 16:39:10.225
34.0, 199.929443359375, 8.736406326293945, -12.536144256591797, 146.5573272705078, -0.01600000075995922, -0.08000000566244125, 1.055999994277954, 0.0, 0.0, 0.0, 0.0, 0.0, 1.6213487502393684E9, 2021-05-18 16:39:10.239
34.0, 143.73370361328125, -82.49845123291016, -76.81006622314453, 66.28785705566406, -0.01600000075995922, -0.08000000566244125, 1.055999994277954, 0.0, 0.0, 0.0, 0.0, 0.0, 1.6213487502393684E9, 2021-05-18 16:39:10.239
35.0, 127.38660430908203, -37.103546142578125, -89.22279357910156, 50.153926849365234, -0.01600000075995922, -0.08000000566244125, 1.055999994277954, 0.0, 0.0, 0.0, 0.0, 0.0, 1.621348750255119E9, 2021-05-18 16:39:10.255
35.0, 150.1887664794922, -59.71872329711914, -75.28044891357422, 84.24685668945312, -0.01600000075995922, -0.08000000566244125, 1.055999994277954, 0.0, 0.0, 0.0, 0.0, 0.0, 1.621348750255119E9, 2021-05-18 16:39:10.255
36.0, 198.53819274902344, -11.249619483947754, -21.74751853942871, 136.8148956298828, -0.01600000075995922, -0.08000000566244125, 1.055999994277954, 0.0, 0.0, 0.0, 0.0, 0.0, 1.621348750255856E9, 2021-05-18 16:39:10.255
36.0, 149.51559448242188, -64.8012466430664, -78.29106903076172, 66.8563232421875, -0.01600000075995922, -0.08000000566244125, 1.055999994277954, 0.0, 0.0, 0.0, 0.0, 0.0, 1.621348750255856E9, 2021-05-18 16:39:10.255
37.0, 128.61703491210938, -107.11447143554688, -92.83553314208984, 45.434173583984375, -0.01600000075995922, -0.08000000566244125, 1.055999994277954, 0.0, 0.0, 0.0, 0.0, 0.0, 1.621348750269384E9, 2021-05-18 16:39:10.269
37.0, 155.76870727539062, -56.12093734741211, -69.50604248046875, 79.94971466064453, -0.01600000075995922, -0.08000000566244125, 1.055999994277954, 0.0, 0.0, 0.0, 0.0, 0.0, 1.621348750269384E9, 2021-05-18 16:39:10.269
38.0, 206.5939483642578, 13.183147430419922, -17.9814395904541, 133.35548400878906, -0.01600000075995922, -0.08000000566244125, 1.055999994277954, 0.0, 0.0, 0.0, 0.0, 0.0, 1.6213487502852483E9, 2021-05-18 16:39:10.285
38.0, 154.6205596923828, -36.35182571411133, -77.76000213623047, 53.35154342651367, -0.01600000075995922, -0.08000000566244125, 1.055999994277954, 0.0, 0.0, 0.0, 0.0, 0.0, 1.6213487502852483E9, 2021-05-18 16:39:10.285
39.0, 120.09005737304688, -80.38915252685547, -89.32750701904297, 39.02398681640625, -0.01600000075995922, -0.08000000566244125, 1.055999994277954, 0.0, 0.0, 0.0, 0.0, 0.0, 1.6213487502859452E9, 2021-05-18 16:39:10.285
39.0, 155.2077178955078, -63.967247009277344, -70.19792175292969, 78.08350372314453, -0.01600000075995922, -0.08000000566244125, 1.055999994277954, 0.0, 0.0, 0.0, 0.0, 0.0, 1.6213487502859452E9, 2021-05-18 16:39:10.285
40.0, 189.27821350097656, 5.0974836349487305, -30.768156051635742, 126.34690856933594, -0.01600000075995922, -0.08000000566244125, 1.055999994277954, 0.0, 0.0, 0.0, 0.0, 0.0, 1.6213487502995188E9, 2021-05-18 16:39:10.299
40.0, 125.10900115966797, -89.80622100830078, -99.06246948242188, 54.746524810791016, -0.01600000075995922, -0.08000000566244125, 1.055999994277954, 0.0, 0.0, 0.0, 0.0, 0.0, 1.6213487502995188E9, 2021-05-18 16:39:10.299
41.0, 125.23616027832031, -96.44828033447266, -106.62828826904297, 59.25310516357422, -0.01600000075995922, -0.08000000566244125, 1.055999994277954, 0.0, 0.0, 0.0, 0.0, 0.0, 1.6213487503150747E9, 2021-05-18 16:39:10.315
41.0, 151.03399658203125, -69.38636016845703, -74.61474609375, 101.7234115600586, -0.01600000075995922, -0.08000000566244125, 1.055999994277954, 0.0, 0.0, 0.0, 0.0, 0.0, 1.6213487503150747E9, 2021-05-18 16:39:10.315
42.0, 198.15672302246094, -3.9530742168426514, -24.429025650024414, 149.23883056640625, -0.01600000075995922, -0.08000000566244125, 1.055999994277954, 0.0, 0.0, 0.0, 0.0, 0.0, 1.62134875031584E9, 2021-05-18 16:39:10.315
42.0, 133.99501037597656, -84.94435119628906, -82.61813354492188, 78.81652069091797, -0.01600000075995922, -0.08000000566244125, 1.055999994277954, 0.0, 0.0, 0.0, 0.0, 0.0, 1.62134875031584E9, 2021-05-18 16:39:10.315
43.0, 130.17657470703125, -99.77679443359375, -90.83843231201172, 71.40778350830078, -0.01600000075995922, -0.08000000566244125, 1.055999994277954, 0.0, 0.0, 0.0, 0.0, 0.0, 1.6213487503457932E9, 2021-05-18 16:39:10.345
43.0, 142.64540100097656, -66.90306854248047, -76.03964233398438, 94.54280090332031, -0.01600000075995922, -0.08000000566244125, 1.055999994277954, 0.0, 0.0, 0.0, 0.0, 0.0, 1.6213487503457932E9, 2021-05-18 16:39:10.345
44.0, 189.13609313964844, 0.11967679858207703, -31.32914161682129, 142.50701904296875, -0.01600000075995922, -0.08000000566244125, 1.055999994277954, 0.0, 0.0, 0.0, 0.0, 0.0, 1.6213487503464985E9, 2021-05-18 16:39:10.346
44.0, 141.91986083984375, -89.94085693359375, -84.87702941894531, 62.338523864746094, -0.01600000075995922, -0.08000000566244125, 1.055999994277954, 0.0, 0.0, 0.0, 0.0, 0.0, 1.6213487503464985E9, 2021-05-18 16:39:10.346
45.0, 129.09573364257812, -100.44623565673828, -96.52307891845703, 48.7626838684082, -0.01600000075995922, -0.08000000566244125, 1.055999994277954, 0.0, 0.0, 0.0, 0.0, 0.0, 1.621348750347237E9, 2021-05-18 16:39:10.347
45.0, 145.75698852539062, -55.07002639770508, -70.87484741210938, 78.42383575439453, -0.01600000075995922, -0.08000000566244125, 1.055999994277954, 0.0, 0.0, 0.0, 0.0, 0.0, 1.621348750347237E9, 2021-05-18 16:39:10.347
46.0, 195.50888061523438, 0.991073489189148, -18.078676223754883, 135.4947052001953, -0.01600000075995922, -0.08000000566244125, 1.055999994277954, 0.0, 0.0, 0.0, 0.0, 0.0, 1.6213487503595572E9, 2021-05-18 16:39:10.359
46.0, 131.7959442138672, -83.92709350585938, -81.75421142578125, 63.049102783203125, -0.01600000075995922, -0.08000000566244125, 1.055999994277954, 0.0, 0.0, 0.0, 0.0, 0.0, 1.6213487503595572E9, 2021-05-18 16:39:10.359
47.0, 123.61304473876953, -86.62730407714844, -90.35972595214844, 55.322471618652344, -0.01600000075995922, -0.08000000566244125, 1.055999994277954, 0.0, 0.0, 0.0, 0.0, 0.0, 1.6213487503751025E9, 2021-05-18 16:39:10.375
47.0, 148.39361572265625, -41.72232437133789, -71.43582916259766, 72.70552825927734, -0.01600000075995922, -0.08000000566244125, 1.055999994277954, 0.0, 0.0, 0.0, 0.0, 0.0, 1.6213487503751025E9, 2021-05-18 16:39:10.375
48.0, 194.19992065429688, 0.856437087059021, -25.45749855041504, 129.2677764892578, -0.01600000075995922, -0.08000000566244125, 1.055999994277954, 0.0, 0.0, 0.0, 0.0, 0.0, 1.6213487503760283E9, 2021-05-18 16:39:10.376
48.0, 130.5168914794922, -70.38865661621094, -71.08802032470703, 69.94174194335938, -0.01600000075995922, -0.08000000566244125, 1.055999994277954, 0.0, 0.0, 0.0, 0.0, 0.0, 1.6213487503760283E9, 2021-05-18 16:39:10.376
49.0, 123.49337005615234, -87.40520477294922, -89.42475128173828, 55.277591705322266, -0.01600000075995922, -0.08000000566244125, 1.055999994277954, 0.0, 0.0, 0.0, 0.0, 0.0, 1.6213487503894892E9, 2021-05-18 16:39:10.389
49.0, 140.59593200683594, -52.47453689575195, -74.5923080444336, 85.5072021484375, -0.01600000075995922, -0.08000000566244125, 1.055999994277954, 0.0, 0.0, 0.0, 0.0, 0.0, 1.6213487503894892E9, 2021-05-18 16:39:10.389
50.0, 185.0970001220703, 14.765125274658203, -21.377267837524414, 136.5493621826172, -0.01600000075995922, -0.08000000566244125, 1.055999994277954, 0.0, 0.0, 0.0, 0.0, 0.0, 1.6213487504051397E9, 2021-05-18 16:39:10.405
50.0, 137.53294372558594, -81.9673843383789, -78.43318176269531, 64.12993621826172, -0.01600000075995922, -0.08000000566244125, 1.055999994277954, 0.0, 0.0, 0.0, 0.0, 0.0, 1.6213487504051397E9, 2021-05-18 16:39:10.405
51.0, 142.439697265625, -84.71621704101562, -94.22303771972656, 49.589202880859375, -0.01600000075995922, -0.08000000566244125, 1.055999994277954, 0.0, 0.0, 0.0, 0.0, 0.0, 1.6213487504058511E9, 2021-05-18 16:39:10.405
51.0, 144.7659149169922, -53.342193603515625, -68.54862976074219, 93.1964340209961, -0.01600000075995922, -0.08000000566244125, 1.055999994277954, 0.0, 0.0, 0.0, 0.0, 0.0, 1.6213487504058511E9, 2021-05-18 16:39:10.405
52.0, 187.90191650390625, -5.823024272918701, -29.201139450073242, 133.4040985107422, -0.01600000075995922, -0.08000000566244125, 1.055999994277954, 0.0, 0.0, 0.0, 0.0, 0.0, 1.6213487504194295E9, 2021-05-18 16:39:10.419
52.0, 126.95651245117188, -69.23302459716797, -80.7818374633789, 64.32067108154297, -0.01600000075995922, -0.08000000566244125, 1.055999994277954, 0.0, 0.0, 0.0, 0.0, 0.0, 1.6213487504194295E9, 2021-05-18 16:39:10.419
53.0, 117.4048080444336, -93.39278411865234, -98.59498596191406, 54.70164489746094, -0.01600000075995922, -0.08000000566244125, 1.055999994277954, 0.0, 0.0, 0.0, 0.0, 0.0, 1.621348750435141E9, 2021-05-18 16:39:10.435
53.0, 138.25100708007812, -23.72592544555664, -69.44994354248047, 89.81182861328125, -0.01600000075995922, -0.08000000566244125, 1.055999994277954, 0.0, 0.0, 0.0, 0.0, 0.0, 1.621348750435141E9, 2021-05-18 16:39:10.435
54.0, 183.9525909423828, -13.927387237548828, -21.283771514892578, 132.97401428222656, -0.01600000075995922, -0.08000000566244125, 1.055999994277954, 0.0, 0.0, 0.0, 0.0, 0.0, 1.6213487504358797E9, 2021-05-18 16:39:10.435
54.0, 142.5593719482422, -79.0914077758789, -73.52268981933594, 61.92713165283203, -0.01600000075995922, -0.08000000566244125, 1.055999994277954, 0.0, 0.0, 0.0, 0.0, 0.0, 1.6213487504358797E9, 2021-05-18 16:39:10.435
55.0, 120.70339965820312, -92.13617706298828, -96.93072509765625, 42.08696365356445, -0.01600000075995922, -0.08000000566244125, 1.055999994277954, 0.0, 0.0, 0.0, 0.0, 0.0, 1.621348750465936E9, 2021-05-18 16:39:10.465
55.0, 137.4357147216797, -50.7766227722168, -70.46345520019531, 82.54146575927734, -0.01600000075995922, -0.08000000566244125, 1.055999994277954, 0.0, 0.0, 0.0, 0.0, 0.0, 1.621348750465936E9, 2021-05-18 16:39:10.465
56.0, 184.3153533935547, -9.12161636352539, -28.307302474975586, 121.12226867675781, -0.01600000075995922, -0.08000000566244125, 1.055999994277954, 0.0, 0.0, 0.0, 0.0, 0.0, 1.6213487504666655E9, 2021-05-18 16:39:10.466
56.0, 133.4564666748047, -58.076908111572266, -88.42245483398438, 51.61248779296875, -0.01600000075995922, -0.08000000566244125, 1.055999994277954, 0.0, 0.0, 0.0, 0.0, 0.0, 1.6213487504666655E9, 2021-05-18 16:39:10.466
57.0, 112.29236602783203, -73.8705062866211, -94.78028106689453, 49.64904022216797, -0.01600000075995922, -0.08000000566244125, 1.055999994277954, 0.0, 0.0, 0.0, 0.0, 0.0, 1.62134875046731E9, 2021-05-18 16:39:10.467
57.0, 135.43112182617188, -24.739439010620117, -81.99730682373047, 71.90144348144531, -0.01600000075995922, -0.08000000566244125, 1.055999994277954, 0.0, 0.0, 0.0, 0.0, 0.0, 1.62134875046731E9, 2021-05-18 16:39:10.467
58.0, 174.00445556640625, -12.480046272277832, -34.50431823730469, 124.9145278930664, -0.01600000075995922, -0.08000000566244125, 1.055999994277954, 0.0, 0.0, 0.0, 0.0, 0.0, 1.6213487504794695E9, 2021-05-18 16:39:10.479
58.0, 138.57264709472656, -63.320247650146484, -77.15413665771484, 68.17276763916016, -0.01600000075995922, -0.08000000566244125, 1.055999994277954, 0.0, 0.0, 0.0, 0.0, 0.0, 1.6213487504794695E9, 2021-05-18 16:39:10.479
59.0, 128.1981658935547, -79.77954864501953, -100.32655334472656, 52.75315856933594, -0.01600000075995922, -0.08000000566244125, 1.055999994277954, 0.0, 0.0, 0.0, 0.0, 0.0, 1.6213487504951923E9, 2021-05-18 16:39:10.495
59.0, 133.72573852539062, -65.27995300292969, -81.140869140625, 83.6409912109375, -0.01600000075995922, -0.08000000566244125, 1.055999994277954, 0.0, 0.0, 0.0, 0.0, 0.0, 1.6213487504951923E9, 2021-05-18 16:39:10.495
60.0, 177.35540771484375, -2.528172254562378, -37.75429153442383, 138.98028564453125, -0.01600000075995922, -0.08000000566244125, 1.055999994277954, 0.0, 0.0, 0.0, 0.0, 0.0, 1.6213487504959826E9, 2021-05-18 16:39:10.495
60.0, 136.3773193359375, -78.79969024658203, -89.75759887695312, 76.7969741821289, -0.01600000075995922, -0.08000000566244125, 1.055999994277954, 0.0, 0.0, 0.0, 0.0, 0.0, 1.6213487504959826E9, 2021-05-18 16:39:10.495
61.0, 132.58132934570312, -87.6445541381836, -104.67231750488281, 64.57872009277344, -0.01600000075995922, -0.09600000083446503, 1.055999994277954, 0.0, 0.0, 0.0, 0.0, 0.0, 1.621348750509445E9, 2021-05-18 16:39:10.509
61.0, 142.54067993164062, -75.61329650878906, -90.37842559814453, 84.8265380859375, -0.01600000075995922, -0.09600000083446503, 1.055999994277954, 0.0, 0.0, 0.0, 0.0, 0.0, 1.621348750509445E9, 2021-05-18 16:39:10.509
62.0, 192.300048828125, 4.450480937957764, -32.83258056640625, 145.81683349609375, -0.01600000075995922, -0.09600000083446503, 1.055999994277954, 0.0, 0.0, 0.0, 0.0, 0.0, 1.6213487505252292E9, 2021-05-18 16:39:10.525
62.0, 126.45536804199219, -75.74793243408203, -95.80127716064453, 64.1448974609375, -0.01600000075995922, -0.09600000083446503, 1.055999994277954, 0.0, 0.0, 0.0, 0.0, 0.0, 1.6213487505252292E9, 2021-05-18 16:39:10.525
63.0, 124.88835144042969, -100.00492858886719, -102.22642517089844, 54.499691009521484, -0.01600000075995922, -0.09600000083446503, 1.055999994277954, 0.0, 0.0, 0.0, 0.0, 0.0, 1.6213487505260336E9, 2021-05-18 16:39:10.526
63.0, 135.26283264160156, -67.35933685302734, -75.29540252685547, 86.28136444091797, -0.01600000075995922, -0.09600000083446503, 1.055999994277954, 0.0, 0.0, 0.0, 0.0, 0.0, 1.6213487505260336E9, 2021-05-18 16:39:10.526
64.0, 189.78309631347656, 16.01051139831543, -20.169281005859375, 135.068359375, -0.01600000075995922, -0.09600000083446503, 1.055999994277954, 0.0, 0.0, 0.0, 0.0, 0.0, 1.6213487505393963E9, 2021-05-18 16:39:10.539
64.0, 151.8118896484375, -71.30119323730469, -70.73272705078125, 67.05827331542969, -0.01600000075995922, -0.09600000083446503, 1.055999994277954, 0.0, 0.0, 0.0, 0.0, 0.0, 1.6213487505393963E9, 2021-05-18 16:39:10.539
65.0, 110.8786849975586, -76.08826446533203, -96.02193450927734, 42.778846740722656, -0.01600000075995922, -0.09600000083446503, 1.055999994277954, 0.0, 0.0, 0.0, 0.0, 0.0, 1.6213487505714927E9, 2021-05-18 16:39:10.571
65.0, 133.60231018066406, -41.66996383666992, -72.56901550292969, 80.40223693847656, -0.01600000075995922, -0.09600000083446503, 1.055999994277954, 0.0, 0.0, 0.0, 0.0, 0.0, 1.6213487505714927E9, 2021-05-18 16:39:10.571
66.0, 185.05960083007812, -14.47341251373291, -27.368587493896484, 127.91018676757812, -0.01600000075995922, -0.09600000083446503, 1.055999994277954, 0.0, 0.0, 0.0, 0.0, 0.0, 1.621348750572214E9, 2021-05-18 16:39:10.572
66.0, 136.26885986328125, -69.78279113769531, -77.14291381835938, 60.528411865234375, -0.01600000075995922, -0.09600000083446503, 1.055999994277954, 0.0, 0.0, 0.0, 0.0, 0.0, 1.621348750572214E9, 2021-05-18 16:39:10.572
67.0, 114.64102172851562, -93.15716552734375, -97.74976348876953, 39.81684494018555, -0.01600000075995922, -0.09600000083446503, 1.055999994277954, 0.0, 0.0, 0.0, 0.0, 0.0, 1.6213487505729852E9, 2021-05-18 16:39:10.572
67.0, 141.75155639648438, -47.17509841918945, -69.3340072631836, 83.3006591796875, -0.01600000075995922, -0.09600000083446503, 1.055999994277954, 0.0, 0.0, 0.0, 0.0, 0.0, 1.6213487505729852E9, 2021-05-18 16:39:10.572
68.0, 177.21328735351562, 14.53325080871582, -25.349040985107422, 129.3837127685547, -0.01600000075995922, -0.09600000083446503, 1.055999994277954, 0.0, 0.0, 0.0, 0.0, 0.0, 1.621348750573737E9, 2021-05-18 16:39:10.573
68.0, 126.94903564453125, -78.5715560913086, -78.27610778808594, 60.031005859375, -0.01600000075995922, -0.09600000083446503, 1.055999994277954, 0.0, 0.0, 0.0, 0.0, 0.0, 1.621348750573737E9, 2021-05-18 16:39:10.573
69.0, 114.76818084716797, -72.4493408203125, -92.12869262695312, 51.45915222167969, -0.01600000075995922, -0.09600000083446503, 1.055999994277954, 0.0, 0.0, 0.0, 0.0, 0.0, 1.6213487505844588E9, 2021-05-18 16:39:10.584
69.0, 131.87074279785156, -36.0227165222168, -68.44390869140625, 89.92776489257812, -0.01600000075995922, -0.09600000083446503, 1.055999994277954, 0.0, 0.0, 0.0, 0.0, 0.0, 1.6213487505844588E9, 2021-05-18 16:39:10.584
70.0, 172.55337524414062, 22.873228073120117, -23.767065048217773, 143.48313903808594, -0.01600000075995922, -0.09600000083446503, 1.055999994277954, 0.0, 0.0, 0.0, 0.0, 0.0, 1.621348750599514E9, 2021-05-18 16:39:10.599
70.0, 132.2783966064453, -76.31266021728516, -80.38915252685547, 72.74666595458984, -0.01600000075995922, -0.09600000083446503, 1.055999994277954, 0.0, 0.0, 0.0, 0.0, 0.0, 1.621348750599514E9, 2021-05-18 16:39:10.599
71.0, 119.83574676513672, -88.14196014404297, -99.74687194824219, 58.35178756713867, -0.01600000075995922, -0.09600000083446503, 1.055999994277954, 0.0, 0.0, 0.0, 0.0, 0.0, 1.6213487506151028E9, 2021-05-18 16:39:10.615
71.0, 134.06980895996094, -49.16846466064453, -79.31205749511719, 83.51009368896484, -0.01600000075995922, -0.09600000083446503, 1.055999994277954, 0.0, 0.0, 0.0, 0.0, 0.0, 1.6213487506151028E9, 2021-05-18 16:39:10.615
72.0, 178.02859497070312, 4.712274074554443, -33.51324462890625, 133.8304443359375, -0.01600000075995922, -0.09600000083446503, 1.055999994277954, 0.0, 0.0, 0.0, 0.0, 0.0, 1.6213487506158202E9, 2021-05-18 16:39:10.615
72.0, 127.00513458251953, -77.98439025878906, -85.74842834472656, 64.2907485961914, -0.01600000075995922, -0.09600000083446503, 1.055999994277954, 0.0, 0.0, 0.0, 0.0, 0.0, 1.6213487506158202E9, 2021-05-18 16:39:10.615
73.0, 108.9114990234375, -84.43572235107422, -108.61043548583984, 53.115928649902344, -0.01600000075995922, -0.09600000083446503, 1.055999994277954, 0.0, 0.0, 0.0, 0.0, 0.0, 1.621348750629495E9, 2021-05-18 16:39:10.629
73.0, 127.93262481689453, -49.45643615722656, -81.27176666259766, 89.83426666259766, -0.01600000075995922, -0.09600000083446503, 1.055999994277954, 0.0, 0.0, 0.0, 0.0, 0.0, 1.621348750629495E9, 2021-05-18 16:39:10.629
