Sample Index, EXG Channel 0, EXG Channel 1, EXG Channel 2, EXG Channel 3, Accel Channel 0, Accel Channel 1, Accel Channel 2, Other, Other, Other, Other, Other, Timestamp, Timestamp (Formatted)
0.0, 82.32828521728516, -38.88747787475586, -156.1352081298828, 7.145078659057617, 0.0, 0.0, 0.0, 0.0, 0.0, 0.0, 0.0, 0.0, 1.6213506555662596E9, 2021-05-18 17:10:55.566
1.0, 73.18048858642578, -75.23556518554688, -150.42063903808594, -6.2549824714660645, 0.0, -0.08000000566244125, 0.0, 0.0, 0.0, 0.0, 0.0, 0.0, 1.6213506555670035E9, 2021-05-18 17:10:55.567
1.0, 40.23197555541992, -144.6967315673828, -198.46339416503906, -61.09687423706055, 0.0, -0.08000000566244125, 0.0, 0.0, 0.0, 0.0, 0.0, 0.0, 1.6213506555670035E9, 2021-05-18 17:10:55.567
2.0, 52.61852264404297, -107.98213195800781, -184.1171417236328, -33.24958038330078, -0.01600000075995922, -0.08000000566244125, 0.0, 0.0, 0.0, 0.0, 0.0, 0.0, 1.6213506555677505E9, 2021-05-18 17:10:55.567
2.0, 90.54110717773438, -48.92537307739258, -142.76133728027344, 13.899337768554688, -0.01600000075995922, -0.08000000566244125, 0.0, 0.0, 0.0, 0.0, 0.0, 0.0, 1.6213506555677505E9, 2021-05-18 17:10:55.567
3.0, 94.46800231933594, -73.56757354736328, -139.14111328125, 1.0453020334243774, -0.01600000075995922, -0.08000000566244125, 0.0, 0.0, 0.0, 0.0, 0.0, 0.0, 1.6213506555684865E9, 2021-05-18 17:10:55.568
3.0, 52.94389343261719, -118.83158111572266, -183.9039764404297, -55.13921356201172, -0.01600000075995922, -0.08000000566244125, 0.0, 0.0, 0.0, 0.0, 0.0, 0.0, 1.6213506555684865E9, 2021-05-18 17:10:55.568
4.0, 45.527671813964844, -100.35273742675781, -185.16806030273438, -42.83120346069336, -0.01600000075995922, -0.08000000566244125, 0.0, 0.0, 0.0, 0.0, 0.0, 0.0, 1.6213506555794113E9, 2021-05-18 17:10:55.579
4.0, 88.67115783691406, -27.114274978637695, -139.64599609375, 10.432451248168945, -0.01600000075995922, -0.08000000566244125, 0.0, 0.0, 0.0, 0.0, 0.0, 0.0, 1.6213506555794113E9, 2021-05-18 17:10:55.579
5.0, 89.50141906738281, -52.96446228027344, -146.6732635498047, -16.558406829833984, -0.01600000075995922, -0.08000000566244125, 0.0, 0.0, 0.0, 0.0, 0.0, 0.0, 1.621350655593928E9, 2021-05-18 17:10:55.593
5.0, 48.538291931152344, -141.82823181152344, -195.04513549804688, -78.26301574707031, -0.01600000075995922, -0.08000000566244125, 0.0, 0.0, 0.0, 0.0, 0.0, 0.0, 1.621350655593928E9, 2021-05-18 17:10:55.593
6.0, 55.9058952331543, -93.7293701171875, -175.5004119873047, -50.28856658935547, -0.01600000075995922, -0.08000000566244125, 0.0, 0.0, 0.0, 0.0, 0.0, 0.0, 1.6213506555945425E9, 2021-05-18 17:10:55.594
6.0, 100.7061538696289, -40.95564270019531, -129.2528076171875, 8.517621994018555, -0.01600000075995922, -0.08000000566244125, 0.0, 0.0, 0.0, 0.0, 0.0, 0.0, 1.6213506555945425E9, 2021-05-18 17:10:55.594
7.0, 95.63111114501953, -42.71713638305664, -132.33074951171875, -10.89245891571045, -0.01600000075995922, -0.08000000566244125, 0.0, 0.0, 0.0, 0.0, 0.0, 0.0, 1.6213506556247995E9, 2021-05-18 17:10:55.624
7.0, 52.18843460083008, -127.92327880859375, -186.76499938964844, -59.821571350097656, -0.01600000075995922, -0.08000000566244125, 0.0, 0.0, 0.0, 0.0, 0.0, 0.0, 1.6213506556247995E9, 2021-05-18 17:10:55.624
8.0, 65.5136947631836, -118.9400405883789, -172.05970764160156, -35.14570999145508, -0.01600000075995922, -0.08000000566244125, 0.0, 0.0, 0.0, 0.0, 0.0, 0.0, 1.6213506556253617E9, 2021-05-18 17:10:55.625
8.0, 97.79651641845703, -49.55741500854492, -130.52438354492188, 19.87569808959961, -0.01600000075995922, -0.08000000566244125, 0.0, 0.0, 0.0, 0.0, 0.0, 0.0, 1.6213506556253617E9, 2021-05-18 17:10:55.625
9.0, 99.71508026123047, -64.4197769165039, -129.1256561279297, 11.288887977600098, -0.01600000075995922, -0.08000000566244125, 0.0, 0.0, 0.0, 0.0, 0.0, 0.0, 1.6213506556261673E9, 2021-05-18 17:10:55.626
9.0, 44.85823059082031, -146.91075134277344, -188.46290588378906, -53.362762451171875, -0.01600000075995922, -0.08000000566244125, 0.0, 0.0, 0.0, 0.0, 0.0, 0.0, 1.6213506556261673E9, 2021-05-18 17:10:55.626
10.0, 59.42140197753906, -95.2365493774414, -174.43453979492188, -18.742507934570312, -0.01600000075995922, -0.08000000566244125, 1.055999994277954, 0.0, 0.0, 0.0, 0.0, 0.0, 1.6213506556382575E9, 2021-05-18 17:10:55.638
10.0, 109.8165512084961, -25.715551376342773, -130.88714599609375, 27.164762496948242, -0.01600000075995922, -0.08000000566244125, 1.055999994277954, 0.0, 0.0, 0.0, 0.0, 0.0, 1.6213506556382575E9, 2021-05-18 17:10:55.638
11.0, 92.66162872314453, -74.13229370117188, -140.07608032226562, 3.7567296028137207, -0.01600000075995922, -0.08000000566244125, 1.055999994277954, 0.0, 0.0, 0.0, 0.0, 0.0, 1.6213506556710377E9, 2021-05-18 17:10:55.671
11.0, 54.20798110961914, -111.96886444091797, -186.66775512695312, -50.509220123291016, -0.01600000075995922, -0.08000000566244125, 1.055999994277954, 0.0, 0.0, 0.0, 0.0, 0.0, 1.6213506556710377E9, 2021-05-18 17:10:55.671
12.0, 70.4541015625, -102.87716674804688, -176.29701232910156, -25.657583236694336, -0.01600000075995922, -0.08000000566244125, 1.055999994277954, 0.0, 0.0, 0.0, 0.0, 0.0, 1.6213506556716845E9, 2021-05-18 17:10:55.671
12.0, 117.69651794433594, -31.88638687133789, -127.53245544433594, 32.8232307434082, -0.01600000075995922, -0.08000000566244125, 1.055999994277954, 0.0, 0.0, 0.0, 0.0, 0.0, 1.6213506556716845E9, 2021-05-18 17:10:55.671
13.0, 96.05371856689453, -58.55935287475586, -127.39408111572266, 13.828280448913574, -0.01600000075995922, -0.08000000566244125, 1.055999994277954, 0.0, 0.0, 0.0, 0.0, 0.0, 1.62135065567239E9, 2021-05-18 17:10:55.672
13.0, 53.57219696044922, -115.52176666259766, -175.10398864746094, -43.25755310058594, -0.01600000075995922, -0.08000000566244125, 1.055999994277954, 0.0, 0.0, 0.0, 0.0, 0.0, 1.62135065567239E9, 2021-05-18 17:10:55.672
14.0, 60.84256362915039, -90.08296966552734, -163.11012268066406, -18.89958381652832, -0.01600000075995922, -0.08000000566244125, 1.055999994277954, 0.0, 0.0, 0.0, 0.0, 0.0, 1.6213506556731596E9, 2021-05-18 17:10:55.673
14.0, 97.41504669189453, -34.18268585205078, -121.12226867675781, 35.57953643798828, -0.01600000075995922, -0.08000000566244125, 1.055999994277954, 0.0, 0.0, 0.0, 0.0, 0.0, 1.6213506556731596E9, 2021-05-18 17:10:55.673
15.0, 103.85889434814453, -54.51652145385742, -118.65767669677734, 15.481315612792969, -0.01600000075995922, -0.08000000566244125, 1.055999994277954, 0.0, 0.0, 0.0, 0.0, 0.0, 1.6213506556833367E9, 2021-05-18 17:10:55.683
15.0, 62.435760498046875, -87.01251220703125, -162.17141723632812, -36.49581527709961, -0.01600000075995922, -0.08000000566244125, 1.055999994277954, 0.0, 0.0, 0.0, 0.0, 0.0, 1.6213506556833367E9, 2021-05-18 17:10:55.683
16.0, 65.29304504394531, -69.04228973388672, -155.30496215820312, -15.746849060058594, -0.01600000075995922, -0.08000000566244125, 1.055999994277954, 0.0, 0.0, 0.0, 0.0, 0.0, 1.6213506556981924E9, 2021-05-18 17:10:55.698
16.0, 105.85599517822266, -31.848987579345703, -119.1513442993164, 29.88741111755371, -0.01600000075995922, -0.08000000566244125, 1.055999994277954, 0.0, 0.0, 0.0, 0.0, 0.0, 1.6213506556981924E9, 2021-05-18 17:10:55.698
17.0, 99.06433868408203, -71.00199890136719, -120.26583099365234, 14.621138572692871, -0.01600000075995922, -0.08000000566244125, 1.055999994277954, 0.0, 0.0, 0.0, 0.0, 0.0, 1.6213506557138684E9, 2021-05-18 17:10:55.713
17.0, 64.34684753417969, -115.1664810180664, -167.38482666015625, -41.41378402709961, -0.01600000075995922, -0.08000000566244125, 1.055999994277954, 0.0, 0.0, 0.0, 0.0, 0.0, 1.6213506557138684E9, 2021-05-18 17:10:55.713
18.0, 73.96587371826172, -87.14714813232422, -158.00889587402344, -15.761808395385742, -0.01600000075995922, -0.08000000566244125, 1.055999994277954, 0.0, 0.0, 0.0, 0.0, 0.0, 1.6213506557146077E9, 2021-05-18 17:10:55.714
18.0, 105.16411590576172, -37.76176834106445, -121.21576690673828, 30.384817123413086, -0.01600000075995922, -0.08000000566244125, 1.055999994277954, 0.0, 0.0, 0.0, 0.0, 0.0, 1.6213506557146077E9, 2021-05-18 17:10:55.714
19.0, 102.68082427978516, -52.82234573364258, -125.0342025756836, 13.566487312316895, -0.01600000075995922, -0.08000000566244125, 1.055999994277954, 0.0, 0.0, 0.0, 0.0, 0.0, 1.6213506557446663E9, 2021-05-18 17:10:55.744
19.0, 54.56700897216797, -108.83856964111328, -174.55795288085938, -39.091304779052734, -0.01600000075995922, -0.08000000566244125, 1.055999994277954, 0.0, 0.0, 0.0, 0.0, 0.0, 1.6213506557446663E9, 2021-05-18 17:10:55.744
20.0, 77.30186462402344, -75.20565032958984, -158.28565979003906, -4.762762546539307, -0.01600000075995922, -0.08000000566244125, 1.055999994277954, 0.0, 0.0, 0.0, 0.0, 0.0, 1.6213506557453132E9, 2021-05-18 17:10:55.745
20.0, 106.39080047607422, -13.583316802978516, -122.76034545898438, 35.94231033325195, -0.01600000075995922, -0.08000000566244125, 1.055999994277954, 0.0, 0.0, 0.0, 0.0, 0.0, 1.6213506557453132E9, 2021-05-18 17:10:55.745
21.0, 104.0571060180664, -55.08498764038086, -126.38430786132812, 18.720069885253906, -0.01600000075995922, -0.08000000566244125, 1.055999994277954, 0.0, 0.0, 0.0, 0.0, 0.0, 1.6213506557461278E9, 2021-05-18 17:10:55.746
21.0, 60.0609245300293, -96.12664794921875, -170.75448608398438, -39.35683822631836, -0.01600000075995922, -0.08000000566244125, 1.055999994277954, 0.0, 0.0, 0.0, 0.0, 0.0, 1.6213506557461278E9, 2021-05-18 17:10:55.746
22.0, 73.69285583496094, -68.90017700195312, -159.54600524902344, -13.88063907623291, -0.01600000075995922, -0.08000000566244125, 1.055999994277954, 0.0, 0.0, 0.0, 0.0, 0.0, 1.621350655758324E9, 2021-05-18 17:10:55.758
22.0, 115.18704986572266, -32.70168685913086, -111.72016143798828, 39.15114212036133, -0.01600000075995922, -0.08000000566244125, 1.055999994277954, 0.0, 0.0, 0.0, 0.0, 0.0, 1.621350655758324E9, 2021-05-18 17:10:55.758
23.0, 106.44316101074219, -49.74066925048828, -111.23023223876953, 22.583385467529297, -0.01600000075995922, -0.08000000566244125, 1.055999994277954, 0.0, 0.0, 0.0, 0.0, 0.0, 1.6213506557739563E9, 2021-05-18 17:10:55.773
23.0, 63.8980598449707, -108.29627990722656, -167.51573181152344, -37.10167694091797, -0.01600000075995922, -0.08000000566244125, 1.055999994277954, 0.0, 0.0, 0.0, 0.0, 0.0, 1.6213506557739563E9, 2021-05-18 17:10:55.773
24.0, 77.5374755859375, -55.76190948486328, -157.26466369628906, -10.458630561828613, -0.01600000075995922, -0.08000000566244125, 1.055999994277954, 0.0, 0.0, 0.0, 0.0, 0.0, 1.621350655774672E9, 2021-05-18 17:10:55.774
24.0, 116.16316223144531, -24.126094818115234, -111.79869842529297, 43.7213020324707, -0.01600000075995922, -0.08000000566244125, 1.055999994277954, 0.0, 0.0, 0.0, 0.0, 0.0, 1.621350655774672E9, 2021-05-18 17:10:55.774
25.0, 118.37718200683594, -43.85032653808594, -102.74066162109375, 35.699214935302734, -0.01600000075995922, -0.08000000566244125, 1.055999994277954, 0.0, 0.0, 0.0, 0.0, 0.0, 1.6213506558036995E9, 2021-05-18 17:10:55.803
25.0, 68.49440002441406, -120.6267318725586, -158.8990020751953, -23.495922088623047, -0.01600000075995922, -0.08000000566244125, 1.055999994277954, 0.0, 0.0, 0.0, 0.0, 0.0, 1.6213506558036995E9, 2021-05-18 17:10:55.803
26.0, 80.00206756591797, -73.38057708740234, -149.27249145507812, 6.513035774230957, -0.01600000075995922, -0.08000000566244125, 1.055999994277954, 0.0, 0.0, 0.0, 0.0, 0.0, 1.6213506558359497E9, 2021-05-18 17:10:55.835
26.0, 123.83744049072266, -15.097975730895996, -108.39913177490234, 55.43092727661133, -0.01600000075995922, -0.08000000566244125, 1.055999994277954, 0.0, 0.0, 0.0, 0.0, 0.0, 1.6213506558359497E9, 2021-05-18 17:10:55.835
27.0, 108.00643920898438, -39.76261520385742, -110.62437438964844, 36.5855712890625, -0.01600000075995922, -0.08000000566244125, 1.055999994277954, 0.0, 0.0, 0.0, 0.0, 0.0, 1.6213506558366733E9, 2021-05-18 17:10:55.836
27.0, 71.32176208496094, -93.50872039794922, -156.1053009033203, -20.167409896850586, -0.01600000075995922, -0.08000000566244125, 1.055999994277954, 0.0, 0.0, 0.0, 0.0, 0.0, 1.6213506558366733E9, 2021-05-18 17:10:55.836
28.0, 88.33456420898438, -59.75612258911133, -150.5814666748047, -0.5927741527557373, -0.01600000075995922, -0.08000000566244125, 1.055999994277954, 0.0, 0.0, 0.0, 0.0, 0.0, 1.6213506558374107E9, 2021-05-18 17:10:55.837
28.0, 112.21382904052734, -29.59756851196289, -122.84636688232422, 41.08467102050781, -0.01600000075995922, -0.08000000566244125, 1.055999994277954, 0.0, 0.0, 0.0, 0.0, 0.0, 1.6213506558374107E9, 2021-05-18 17:10:55.837
29.0, 123.53824615478516, -54.288387298583984, -115.19452667236328, 28.772920608520508, -0.01600000075995922, -0.08000000566244125, 1.055999994277954, 0.0, 0.0, 0.0, 0.0, 0.0, 1.621350655838168E9, 2021-05-18 17:10:55.838
29.0, 78.38643646240234, -113.57701873779297, -164.5799102783203, -32.8531494140625, -0.01600000075995922, -0.08000000566244125, 1.055999994277954, 0.0, 0.0, 0.0, 0.0, 0.0, 1.621350655838168E9, 2021-05-18 17:10:55.838
30.0, 80.02450561523438, -94.84012603759766, -154.11566162109375, -6.3073410987854, -0.01600000075995922, -0.08000000566244125, 1.055999994277954, 0.0, 0.0, 0.0, 0.0, 0.0, 1.6213506558489501E9, 2021-05-18 17:10:55.848
30.0, 118.75491333007812, -6.799138069152832, -119.79086303710938, 43.80731964111328, -0.01600000075995922, -0.08000000566244125, 1.055999994277954, 0.0, 0.0, 0.0, 0.0, 0.0, 1.6213506558489501E9, 2021-05-18 17:10:55.848
31.0, 110.23168182373047, -46.2812614440918, -124.42459869384766, 19.49422836303711, -0.01600000075995922, -0.08000000566244125, 1.055999994277954, 0.0, 0.0, 0.0, 0.0, 0.0, 1.6213506558497114E9, 2021-05-18 17:10:55.849
31.0, 74.66522979736328, -83.78498077392578, -167.205322265625, -25.324731826782227, -0.01600000075995922, -0.08000000566244125, 1.055999994277954, 0.0, 0.0, 0.0, 0.0, 0.0, 1.6213506558497114E9, 2021-05-18 17:10:55.849
32.0, 85.54460144042969, -65.26873779296875, -153.28167724609375, 1.669865369796753, -0.01600000075995922, -0.08000000566244125, 1.055999994277954, 0.0, 0.0, 0.0, 0.0, 0.0, 1.6213506558638968E9, 2021-05-18 17:10:55.863
32.0, 117.89099884033203, -20.326356887817383, -121.92634582519531, 48.48967361450195, -0.01600000075995922, -0.08000000566244125, 1.055999994277954, 0.0, 0.0, 0.0, 0.0, 0.0, 1.6213506558638968E9, 2021-05-18 17:10:55.863
33.0, 116.00608825683594, -21.422147750854492, -120.96519470214844, 31.970535278320312, -0.01600000075995922, -0.08000000566244125, 1.055999994277954, 0.0, 0.0, 0.0, 0.0, 0.0, 1.621350655864611E9, 2021-05-18 17:10:55.864
33.0, 68.49813842773438, -93.41522216796875, -168.24874877929688, -23.9035701751709, -0.01600000075995922, -0.08000000566244125, 1.055999994277954, 0.0, 0.0, 0.0, 0.0, 0.0, 1.621350655864611E9, 2021-05-18 17:10:55.864
34.0, 75.14019775390625, -65.69134521484375, -157.05897521972656, 4.082100868225098, -0.01600000075995922, -0.08000000566244125, 1.055999994277954, 0.0, 0.0, 0.0, 0.0, 0.0, 1.6213506558782687E9, 2021-05-18 17:10:55.878
34.0, 111.31251525878906, -35.521568298339844, -109.13963317871094, 60.61442947387695, -0.01600000075995922, -0.08000000566244125, 1.055999994277954, 0.0, 0.0, 0.0, 0.0, 0.0, 1.6213506558782687E9, 2021-05-18 17:10:55.878
35.0, 106.63389587402344, -42.66477966308594, -109.36402130126953, 44.68993377685547, -0.01600000075995922, -0.08000000566244125, 1.055999994277954, 0.0, 0.0, 0.0, 0.0, 0.0, 1.6213506558940208E9, 2021-05-18 17:10:55.894
35.0, 66.94233703613281, -104.45166778564453, -156.69993591308594, -13.884378433227539, -0.01600000075995922, -0.08000000566244125, 1.055999994277954, 0.0, 0.0, 0.0, 0.0, 0.0, 1.6213506558940208E9, 2021-05-18 17:10:55.894
36.0, 80.9894027709961, -75.55719757080078, -145.2857666015625, 10.63066577911377, -0.01600000075995922, -0.08000000566244125, 1.055999994277954, 0.0, 0.0, 0.0, 0.0, 0.0, 1.6213506558946526E9, 2021-05-18 17:10:55.894
36.0, 120.93901824951172, 1.2117276191711426, -103.81401062011719, 61.55314254760742, -0.01600000075995922, -0.08000000566244125, 1.055999994277954, 0.0, 0.0, 0.0, 0.0, 0.0, 1.6213506558946526E9, 2021-05-18 17:10:55.894
37.0, 121.3765869140625, -36.157352447509766, -102.15723419189453, 39.98139953613281, -0.01600000075995922, -0.08000000566244125, 1.055999994277954, 0.0, 0.0, 0.0, 0.0, 0.0, 1.621350655908208E9, 2021-05-18 17:10:55.908
37.0, 78.3228530883789, -109.59777069091797, -153.79029846191406, -26.431743621826172, -0.01600000075995922, -0.08000000566244125, 1.055999994277954, 0.0, 0.0, 0.0, 0.0, 0.0, 1.621350655908208E9, 2021-05-18 17:10:55.908
38.0, 90.57850646972656, -76.29769897460938, -139.9451904296875, 0.9555444121360779, -0.01600000075995922, -0.08000000566244125, 1.055999994277954, 0.0, 0.0, 0.0, 0.0, 0.0, 1.6213506559238985E9, 2021-05-18 17:10:55.923
38.0, 120.90909576416016, -3.5454251766204834, -106.99666595458984, 48.22787857055664, -0.01600000075995922, -0.08000000566244125, 1.055999994277954, 0.0, 0.0, 0.0, 0.0, 0.0, 1.6213506559238985E9, 2021-05-18 17:10:55.923
39.0, 119.56272888183594, -34.20512390136719, -110.25038146972656, 28.18575668334961, -0.01600000075995922, -0.08000000566244125, 1.055999994277954, 0.0, 0.0, 0.0, 0.0, 0.0, 1.6213506559247537E9, 2021-05-18 17:10:55.924
39.0, 86.5281982421875, -80.25825500488281, -153.28915405273438, -28.41762924194336, -0.01600000075995922, -0.08000000566244125, 1.055999994277954, 0.0, 0.0, 0.0, 0.0, 0.0, 1.6213506559247537E9, 2021-05-18 17:10:55.924
40.0, 83.80554962158203, -62.65080261230469, -152.24945068359375, -9.119746208190918, -0.01600000075995922, -0.08000000566244125, 1.055999994277954, 0.0, 0.0, 0.0, 0.0, 0.0, 1.6213506559709995E9, 2021-05-18 17:10:55.970
40.0, 126.80317687988281, -7.644355297088623, -103.45872497558594, 48.98707962036133, -0.01600000075995922, -0.08000000566244125, 1.055999994277954, 0.0, 0.0, 0.0, 0.0, 0.0, 1.6213506559709995E9, 2021-05-18 17:10:55.970
41.0, 108.39913177490234, -35.54774856567383, -112.086669921875, 24.41219711303711, -0.01600000075995922, -0.09600000083446503, 1.055999994277954, 0.0, 0.0, 0.0, 0.0, 0.0, 1.6213506559716897E9, 2021-05-18 17:10:55.971
41.0, 60.94728088378906, -79.49905395507812, -165.39520263671875, -29.763994216918945, -0.01600000075995922, -0.09600000083446503, 1.055999994277954, 0.0, 0.0, 0.0, 0.0, 0.0, 1.6213506559716897E9, 2021-05-18 17:10:55.971
42.0, 73.62554168701172, -45.05831527709961, -151.81936645507812, 4.276575565338135, -0.01600000075995922, -0.09600000083446503, 1.055999994277954, 0.0, 0.0, 0.0, 0.0, 0.0, 1.6213506559724436E9, 2021-05-18 17:10:55.972
42.0, 111.05819702148438, -12.165894508361816, -114.4353256225586, 51.68354797363281, -0.01600000075995922, -0.09600000083446503, 1.055999994277954, 0.0, 0.0, 0.0, 0.0, 0.0, 1.6213506559724436E9, 2021-05-18 17:10:55.972
43.0, 112.767333984375, -26.7028865814209, -112.61026000976562, 36.645408630371094, -0.01600000075995922, -0.09600000083446503, 1.055999994277954, 0.0, 0.0, 0.0, 0.0, 0.0, 1.621350655973184E9, 2021-05-18 17:10:55.973
43.0, 60.56581115722656, -83.63164520263672, -166.84628295898438, -19.714881896972656, -0.01600000075995922, -0.09600000083446503, 1.055999994277954, 0.0, 0.0, 0.0, 0.0, 0.0, 1.621350655973184E9, 2021-05-18 17:10:55.973
44.0, 81.12403869628906, -70.48589324951172, -150.98910522460938, 8.547541618347168, -0.01600000075995922, -0.09600000083446503, 1.055999994277954, 0.0, 0.0, 0.0, 0.0, 0.0, 1.6213506559840384E9, 2021-05-18 17:10:55.984
44.0, 122.59578704833984, -22.47679901123047, -106.45812225341797, 65.8166275024414, -0.01600000075995922, -0.09600000083446503, 1.055999994277954, 0.0, 0.0, 0.0, 0.0, 0.0, 1.6213506559840384E9, 2021-05-18 17:10:55.984
45.0, 119.25979614257812, -40.951904296875, -101.41674041748047, 56.42573928833008, -0.01600000075995922, -0.09600000083446503, 1.055999994277954, 0.0, 0.0, 0.0, 0.0, 0.0, 1.6213506559847808E9, 2021-05-18 17:10:55.984
45.0, 76.01533508300781, -81.6233139038086, -148.49085998535156, 1.1649788618087769, -0.01600000075995922, -0.09600000083446503, 1.055999994277954, 0.0, 0.0, 0.0, 0.0, 0.0, 1.6213506559847808E9, 2021-05-18 17:10:55.984
46.0, 87.52674865722656, -47.089080810546875, -136.98318481445312, 19.243656158447266, -0.01600000075995922, -0.09600000083446503, 1.055999994277954, 0.0, 0.0, 0.0, 0.0, 0.0, 1.621350655998244E9, 2021-05-18 17:10:55.998
46.0, 119.71981048583984, -33.08315658569336, -103.0323715209961, 68.29991912841797, -0.01600000075995922, -0.09600000083446503, 1.055999994277954, 0.0, 0.0, 0.0, 0.0, 0.0, 1.621350655998244E9, 2021-05-18 17:10:55.998
47.0, 124.82102966308594, -48.97772979736328, -92.10438537597656, 57.55519104003906, -0.01600000075995922, -0.09600000083446503, 1.055999994277954, 0.0, 0.0, 0.0, 0.0, 0.0, 1.621350656014141E9, 2021-05-18 17:10:56.014
47.0, 76.59127807617188, -118.53238677978516, -147.96353149414062, -9.763009071350098, -0.01600000075995922, -0.09600000083446503, 1.055999994277954, 0.0, 0.0, 0.0, 0.0, 0.0, 1.621350656014141E9, 2021-05-18 17:10:56.014
48.0, 92.33625793457031, -77.18405151367188, -139.11119079589844, 8.943970680236816, -0.01600000075995922, -0.09600000083446503, 1.055999994277954, 0.0, 0.0, 0.0, 0.0, 0.0, 1.6213506560146227E9, 2021-05-18 17:10:56.014
48.0, 133.93890380859375, -5.553751468658447, -92.0108871459961, 60.83134460449219, -0.01600000075995922, -0.09600000083446503, 1.055999994277954, 0.0, 0.0, 0.0, 0.0, 0.0, 1.6213506560146227E9, 2021-05-18 17:10:56.014
49.0, 134.1857452392578, -33.876014709472656, -94.69239807128906, 40.142215728759766, -0.01600000075995922, -0.09600000083446503, 1.055999994277954, 0.0, 0.0, 0.0, 0.0, 0.0, 1.6213506560283089E9, 2021-05-18 17:10:56.028
49.0, 87.38088989257812, -92.53260803222656, -146.4339141845703, -22.57590675354004, -0.01600000075995922, -0.09600000083446503, 1.055999994277954, 0.0, 0.0, 0.0, 0.0, 0.0, 1.6213506560283089E9, 2021-05-18 17:10:56.028
50.0, 95.42167663574219, -72.37828063964844, -141.65057373046875, -7.481669902801514, -0.01600000075995922, -0.09600000083446503, 1.055999994277954, 0.0, 0.0, 0.0, 0.0, 0.0, 1.621350656043872E9, 2021-05-18 17:10:56.043
50.0, 129.63427734375, -3.257452964782715, -100.2012710571289, 42.06826400756836, -0.01600000075995922, -0.09600000083446503, 1.055999994277954, 0.0, 0.0, 0.0, 0.0, 0.0, 1.621350656043872E9, 2021-05-18 17:10:56.043
51.0, 131.19381713867188, -24.533742904663086, -95.85176849365234, 28.17079734802246, -0.01600000075995922, -0.08000000566244125, 1.055999994277954, 0.0, 0.0, 0.0, 0.0, 0.0, 1.6213506560445952E9, 2021-05-18 17:10:56.044
51.0, 85.32020568847656, -100.68558502197266, -154.4447784423828, -23.548280715942383, -0.01600000075995922, -0.08000000566244125, 1.055999994277954, 0.0, 0.0, 0.0, 0.0, 0.0, 1.6213506560445952E9, 2021-05-18 17:10:56.044
52.0, 110.46355438232422, -55.877845764160156, -130.59918212890625, 7.582647323608398, -0.01600000075995922, -0.08000000566244125, 1.055999994277954, 0.0, 0.0, 0.0, 0.0, 0.0, 1.6213506560583827E9, 2021-05-18 17:10:56.058
52.0, 124.634033203125, -22.013051986694336, -104.32263946533203, 56.48183822631836, -0.01600000075995922, -0.08000000566244125, 1.055999994277954, 0.0, 0.0, 0.0, 0.0, 0.0, 1.6213506560583827E9, 2021-05-18 17:10:56.058
53.0, 134.5559844970703, -33.13551330566406, -99.2401123046875, 50.79719161987305, -0.01600000075995922, -0.08000000566244125, 1.055999994277954, 0.0, 0.0, 0.0, 0.0, 0.0, 1.6213506560738492E9, 2021-05-18 17:10:56.073
53.0, 93.68262481689453, -95.0719985961914, -151.03399658203125, -3.655752182006836, -0.01600000075995922, -0.08000000566244125, 1.055999994277954, 0.0, 0.0, 0.0, 0.0, 0.0, 1.6213506560738492E9, 2021-05-18 17:10:56.073
54.0, 88.5813980102539, -63.33894729614258, -145.3643035888672, 27.32931900024414, -0.01600000075995922, -0.08000000566244125, 1.055999994277954, 0.0, 0.0, 0.0, 0.0, 0.0, 1.621350656074613E9, 2021-05-18 17:10:56.074
54.0, 128.2280731201172, -9.368449211120605, -101.48405456542969, 76.21729278564453, -0.01600000075995922, -0.08000000566244125, 1.055999994277954, 0.0, 0.0, 0.0, 0.0, 0.0, 1.621350656074613E9, 2021-05-18 17:10:56.074
55.0, 129.66046142578125, -32.69794464111328, -94.37450408935547, 68.85717010498047, -0.01600000075995922, -0.08000000566244125, 1.055999994277954, 0.0, 0.0, 0.0, 0.0, 0.0, 1.6213506560881824E9, 2021-05-18 17:10:56.088
55.0, 79.4261245727539, -71.60786437988281, -142.7837677001953, 6.172704696655273, -0.01600000075995922, -0.08000000566244125, 1.055999994277954, 0.0, 0.0, 0.0, 0.0, 0.0, 1.6213506560881824E9, 2021-05-18 17:10:56.088
56.0, 98.20790100097656, -72.62886047363281, -131.91188049316406, 24.47577476501465, -0.01600000075995922, -0.08000000566244125, 1.055999994277954, 0.0, 0.0, 0.0, 0.0, 0.0, 1.621350656103836E9, 2021-05-18 17:10:56.103
56.0, 130.67398071289062, -11.204740524291992, -95.466552734375, 79.25782775878906, -0.01600000075995922, -0.08000000566244125, 1.055999994277954, 0.0, 0.0, 0.0, 0.0, 0.0, 1.621350656103836E9, 2021-05-18 17:10:56.103
57.0, 127.4614028930664, -29.163740158081055, -86.9732437133789, 57.510311126708984, -0.01600000075995922, -0.08000000566244125, 1.055999994277954, 0.0, 0.0, 0.0, 0.0, 0.0, 1.6213506561045892E9, 2021-05-18 17:10:56.104
57.0, 92.68781280517578, -112.34659576416016, -140.98861694335938, -9.108526229858398, -0.01600000075995922, -0.08000000566244125, 1.055999994277954, 0.0, 0.0, 0.0, 0.0, 0.0, 1.6213506561045892E9, 2021-05-18 17:10:56.104
58.0, 100.41444396972656, -75.80403137207031, -130.67771911621094, 11.075714111328125, -0.01600000075995922, -0.08000000566244125, 1.055999994277954, 0.0, 0.0, 0.0, 0.0, 0.0, 1.6213506561182325E9, 2021-05-18 17:10:56.118
58.0, 136.65782165527344, -5.650989055633545, -88.27098846435547, 67.91844940185547, -0.01600000075995922, -0.08000000566244125, 1.055999994277954, 0.0, 0.0, 0.0, 0.0, 0.0, 1.6213506561182325E9, 2021-05-18 17:10:56.118
59.0, 135.93601989746094, -36.41166687011719, -84.50116729736328, 46.8740348815918, -0.01600000075995922, -0.08000000566244125, 1.055999994277954, 0.0, 0.0, 0.0, 0.0, 0.0, 1.6213506561338394E9, 2021-05-18 17:10:56.133
59.0, 94.6811752319336, -101.90105438232422, -133.04507446289062, -10.342693328857422, -0.01600000075995922, -0.08000000566244125, 1.055999994277954, 0.0, 0.0, 0.0, 0.0, 0.0, 1.6213506561338394E9, 2021-05-18 17:10:56.133
60.0, 99.03067779541016, -81.31664276123047, -131.82586669921875, 1.9615775346755981, -0.01600000075995922, -0.08000000566244125, 1.055999994277954, 0.0, 0.0, 0.0, 0.0, 0.0, 1.6213506561345615E9, 2021-05-18 17:10:56.134
60.0, 131.6800079345703, -13.478599548339844, -91.9286117553711, 56.00313186645508, -0.01600000075995922, -0.08000000566244125, 1.055999994277954, 0.0, 0.0, 0.0, 0.0, 0.0, 1.6213506561345615E9, 2021-05-18 17:10:56.134
61.0, 135.75650024414062, -35.00920486450195, -98.16302490234375, 40.950035095214844, -0.01600000075995922, -0.08000000566244125, 1.055999994277954, 0.0, 0.0, 0.0, 0.0, 0.0, 1.6213506561482067E9, 2021-05-18 17:10:56.148
61.0, 97.37016296386719, -88.43741607666016, -142.29383850097656, -14.527641296386719, -0.01600000075995922, -0.08000000566244125, 1.055999994277954, 0.0, 0.0, 0.0, 0.0, 0.0, 1.6213506561482067E9, 2021-05-18 17:10:56.148
62.0, 95.44037628173828, -70.32508087158203, -135.1057586669922, 10.3202543258667, -0.01600000075995922, -0.08000000566244125, 1.055999994277954, 0.0, 0.0, 0.0, 0.0, 0.0, 1.621350656163932E9, 2021-05-18 17:10:56.163
62.0, 133.29190063476562, 10.45676040649414, -88.86936950683594, 69.91555786132812, -0.01600000075995922, -0.08000000566244125, 1.055999994277954, 0.0, 0.0, 0.0, 0.0, 0.0, 1.621350656163932E9, 2021-05-18 17:10:56.163
63.0, 125.83828735351562, -25.580915451049805, -90.548583984375, 55.9881706237793, -0.01600000075995922, -0.08000000566244125, 1.055999994277954, 0.0, 0.0, 0.0, 0.0, 0.0, 1.6213506561646516E9, 2021-05-18 17:10:56.164
63.0, 82.25723266601562, -94.97850036621094, -142.54067993164062, 4.227956771850586, -0.01600000075995922, -0.08000000566244125, 1.055999994277954, 0.0, 0.0, 0.0, 0.0, 0.0, 1.6213506561646516E9, 2021-05-18 17:10:56.164
64.0, 103.08473205566406, -64.13180541992188, -132.7010040283203, 26.89175033569336, -0.01600000075995922, -0.08000000566244125, 1.055999994277954, 0.0, 0.0, 0.0, 0.0, 0.0, 1.6213506561781638E9, 2021-05-18 17:10:56.178
64.0, 127.2856216430664, -14.551950454711914, -99.76370239257812, 69.8258056640625, -0.01600000075995922, -0.08000000566244125, 1.055999994277954, 0.0, 0.0, 0.0, 0.0, 0.0, 1.6213506561781638E9, 2021-05-18 17:10:56.178
65.0, 128.73297119140625, -7.771512031555176, -88.77213287353516, 61.80371856689453, -0.01600000075995922, -0.08000000566244125, 1.055999994277954, 0.0, 0.0, 0.0, 0.0, 0.0, 1.621350656193951E9, 2021-05-18 17:10:56.193
65.0, 83.97758483886719, -74.39408874511719, -134.4325714111328, 8.124932289123535, -0.01600000075995922, -0.08000000566244125, 1.055999994277954, 0.0, 0.0, 0.0, 0.0, 0.0, 1.621350656193951E9, 2021-05-18 17:10:56.193
66.0, 88.49164581298828, -63.260406494140625, -126.76951599121094, 26.880531311035156, -0.01600000075995922, -0.08000000566244125, 1.055999994277954, 0.0, 0.0, 0.0, 0.0, 0.0, 1.621350656194688E9, 2021-05-18 17:10:56.194
66.0, 124.75371551513672, 3.9268949031829834, -88.36822509765625, 82.08519744873047, -0.01600000075995922, -0.08000000566244125, 1.055999994277954, 0.0, 0.0, 0.0, 0.0, 0.0, 1.621350656194688E9, 2021-05-18 17:10:56.194
67.0, 129.5071258544922, -23.935359954833984, -85.4847640991211, 63.55398941040039, -0.01600000075995922, -0.08000000566244125, 1.055999994277954, 0.0, 0.0, 0.0, 0.0, 0.0, 1.62135065620823E9, 2021-05-18 17:10:56.208
67.0, 82.92293548583984, -88.93482208251953, -138.1986541748047, -0.21504424512386322, -0.01600000075995922, -0.08000000566244125, 1.055999994277954, 0.0, 0.0, 0.0, 0.0, 0.0, 1.62135065620823E9, 2021-05-18 17:10:56.208
68.0, 103.26799011230469, -42.395503997802734, -115.53112030029297, 33.178524017333984, -0.01600000075995922, -0.08000000566244125, 1.055999994277954, 0.0, 0.0, 0.0, 0.0, 0.0, 1.6213506562240632E9, 2021-05-18 17:10:56.224
68.0, 140.76795959472656, -0.9723739624023438, -78.42383575439453, 70.94029235839844, -0.01600000075995922, -0.08000000566244125, 1.055999994277954, 0.0, 0.0, 0.0, 0.0, 0.0, 1.6213506562240632E9, 2021-05-18 17:10:56.224
69.0, 123.83369445800781, -29.163740158081055, -81.93560028076172, 52.32307052612305, -0.01600000075995922, -0.08000000566244125, 1.055999994277954, 0.0, 0.0, 0.0, 0.0, 0.0, 1.621350656224746E9, 2021-05-18 17:10:56.224
69.0, 82.88927459716797, -81.04363250732422, -135.16932678222656, -12.773628234863281, -0.01600000075995922, -0.08000000566244125, 1.055999994277954, 0.0, 0.0, 0.0, 0.0, 0.0, 1.621350656224746E9, 2021-05-18 17:10:56.224
70.0, 103.27546691894531, -34.94562530517578, -122.77904510498047, 12.743709564208984, -0.01600000075995922, -0.08000000566244125, 1.055999994277954, 0.0, 0.0, 0.0, 0.0, 0.0, 1.6213506562381604E9, 2021-05-18 17:10:56.238
70.0, 132.37936401367188, 12.102315902709961, -93.31611633300781, 61.381107330322266, -0.01600000075995922, -0.08000000566244125, 1.055999994277954, 0.0, 0.0, 0.0, 0.0, 0.0, 1.6213506562381604E9, 2021-05-18 17:10:56.238
71.0, 138.46792602539062, -30.087495803833008, -94.20620727539062, 44.1439094543457, -0.01600000075995922, -0.08000000566244125, 1.055999994277954, 0.0, 0.0, 0.0, 0.0, 0.0, 1.6213506562538333E9, 2021-05-18 17:10:56.253
71.0, 85.53712463378906, -95.61054229736328, -146.8079071044922, -13.196236610412598, -0.01600000075995922, -0.08000000566244125, 1.055999994277954, 0.0, 0.0, 0.0, 0.0, 0.0, 1.6213506562538333E9, 2021-05-18 17:10:56.253
72.0, 99.12043762207031, -62.647064208984375, -133.57240295410156, 8.865432739257812, -0.01600000075995922, -0.08000000566244125, 1.055999994277954, 0.0, 0.0, 0.0, 0.0, 0.0, 1.62135065625456E9, 2021-05-18 17:10:56.254
72.0, 134.83274841308594, 1.1518892049789429, -94.21369171142578, 71.02256774902344, -0.01600000075995922, -0.08000000566244125, 1.055999994277954, 0.0, 0.0, 0.0, 0.0, 0.0, 1.62135065625456E9, 2021-05-18 17:10:56.254
73.0, 126.31324768066406, -19.342761993408203, -96.2294921875, 59.27180480957031, -0.01600000075995922, -0.08000000566244125, 1.055999994277954, 0.0, 0.0, 0.0, 0.0, 0.0, 1.621350656268159E9, 2021-05-18 17:10:56.268
73.0, 86.78624725341797, -72.88317108154297, -141.8562774658203, 8.050134658813477, -0.01600000075995922, -0.08000000566244125, 1.055999994277954, 0.0, 0.0, 0.0, 0.0, 0.0, 1.621350656268159E9, 2021-05-18 17:10:56.268
74.0, 94.47174072265625, -46.991844177246094, -127.52871704101562, 37.89079666137695, -0.01600000075995922, -0.08000000566244125, 1.055999994277954, 0.0, 0.0, 0.0, 0.0, 0.0, 1.6213506562839315E9, 2021-05-18 17:10:56.283
74.0, 134.91128540039062, 9.117876052856445, -87.68008422851562, 85.0247573852539, -0.01600000075995922, -0.08000000566244125, 1.055999994277954, 0.0, 0.0, 0.0, 0.0, 0.0, 1.6213506562839315E9, 2021-05-18 17:10:56.283
75.0, 127.14724731445312, -10.40066146850586, -87.67634582519531, 66.12329864501953, -0.01600000075995922, -0.08000000566244125, 1.055999994277954, 0.0, 0.0, 0.0, 0.0, 0.0, 1.6213506562845635E9, 2021-05-18 17:10:56.284
75.0, 85.30899047851562, -95.03833770751953, -126.0364990234375, 13.955436706542969, -0.01600000075995922, -0.08000000566244125, 1.055999994277954, 0.0, 0.0, 0.0, 0.0, 0.0, 1.6213506562845635E9, 2021-05-18 17:10:56.284
76.0, 97.168212890625, -73.54138946533203, -120.36681365966797, 32.71477508544922, -0.01600000075995922, -0.08000000566244125, 1.055999994277954, 0.0, 0.0, 0.0, 0.0, 0.0, 1.6213506562981966E9, 2021-05-18 17:10:56.298
76.0, 135.03843688964844, -11.713366508483887, -84.14962005615234, 81.04550170898438, -0.01600000075995922, -0.08000000566244125, 1.055999994277954, 0.0, 0.0, 0.0, 0.0, 0.0, 1.6213506562981966E9, 2021-05-18 17:10:56.298
77.0, 130.6926727294922, -45.62303924560547, -78.06854248046875, 68.4869155883789, -0.01600000075995922, -0.08000000566244125, 1.055999994277954, 0.0, 0.0, 0.0, 0.0, 0.0, 1.6213506563309364E9, 2021-05-18 17:10:56.330
77.0, 87.7137451171875, -90.70379638671875, -128.6282501220703, 7.608826637268066, -0.01600000075995922, -0.08000000566244125, 1.055999994277954, 0.0, 0.0, 0.0, 0.0, 0.0, 1.6213506563309364E9, 2021-05-18 17:10:56.330
78.0, 98.15180206298828, -65.32109069824219, -118.95687103271484, 23.45104217529297, -0.01600000075995922, -0.08000000566244125, 1.055999994277954, 0.0, 0.0, 0.0, 0.0, 0.0, 1.6213506563316567E9, 2021-05-18 17:10:56.331
78.0, 132.12506103515625, 3.8745362758636475, -79.10823059082031, 75.46931457519531, -0.01600000075995922, -0.08000000566244125, 1.055999994277954, 0.0, 0.0, 0.0, 0.0, 0.0, 1.6213506563316567E9, 2021-05-18 17:10:56.331
79.0, 130.34112548828125, -31.755491256713867, -78.61457061767578, 58.05633544921875, -0.01600000075995922, -0.08000000566244125, 1.055999994277954, 0.0, 0.0, 0.0, 0.0, 0.0, 1.6213506563324049E9, 2021-05-18 17:10:56.332
79.0, 97.34398651123047, -73.0477294921875, -125.96917724609375, 2.8890726566314697, -0.01600000075995922, -0.08000000566244125, 1.055999994277954, 0.0, 0.0, 0.0, 0.0, 0.0, 1.6213506563324049E9, 2021-05-18 17:10:56.332
80.0, 89.08628845214844, -62.99113464355469, -124.00947570800781, 5.723917007446289, -0.01600000075995922, -0.08000000566244125, 1.055999994277954, 0.0, 0.0, 0.0, 0.0, 0.0, 1.621350656333233E9, 2021-05-18 17:10:56.333
80.0, 137.08416748046875, 0.6432628035545349, -74.85596466064453, 62.585357666015625, -0.01600000075995922, -0.08000000566244125, 1.055999994277954, 0.0, 0.0, 0.0, 0.0, 0.0, 1.621350656333233E9, 2021-05-18 17:10:56.333
81.0, 137.66758728027344, -15.337329864501953, -71.93136596679688, 45.56133270263672, -0.01600000075995922, -0.08000000566244125, 1.055999994277954, 0.0, 0.0, 0.0, 0.0, 0.0, 1.6213506563908916E9, 2021-05-18 17:10:56.390
81.0, 98.88856506347656, -65.06304168701172, -119.5103759765625, -8.921531677246094, -0.01600000075995922, -0.08000000566244125, 1.055999994277954, 0.0, 0.0, 0.0, 0.0, 0.0, 1.6213506563908916E9, 2021-05-18 17:10:56.390
82.0, 111.55560302734375, -61.13988494873047, -114.8167953491211, 14.699676513671875, -0.01600000075995922, -0.08000000566244125, 1.055999994277954, 0.0, 0.0, 0.0, 0.0, 0.0, 1.621350656391652E9, 2021-05-18 17:10:56.391
82.0, 144.130126953125, -11.66100788116455, -88.71977996826172, 77.80674743652344, -0.01600000075995922, -0.08000000566244125, 1.055999994277954, 0.0, 0.0, 0.0, 0.0, 0.0, 1.621350656391652E9, 2021-05-18 17:10:56.391
83.0, 141.33642578125, -4.7982916831970215, -89.82304382324219, 64.3281478881836, -0.01600000075995922, -0.08000000566244125, 1.055999994277954, 0.0, 0.0, 0.0, 0.0, 0.0, 1.6213506563924031E9, 2021-05-18 17:10:56.392
83.0, 91.87998962402344, -106.24681854248047, -139.8142852783203, 8.192251205444336, -0.01600000075995922, -0.08000000566244125, 1.055999994277954, 0.0, 0.0, 0.0, 0.0, 0.0, 1.6213506563924031E9, 2021-05-18 17:10:56.392
84.0, 96.3865737915039, -68.29057312011719, -128.1121368408203, 39.2147216796875, -0.01600000075995922, -0.08000000566244125, 1.055999994277954, 0.0, 0.0, 0.0, 0.0, 0.0, 1.6213506563931525E9, 2021-05-18 17:10:56.393
84.0, 135.94723510742188, -18.931373596191406, -90.44013214111328, 89.363037109375, -0.01600000075995922, -0.08000000566244125, 1.055999994277954, 0.0, 0.0, 0.0, 0.0, 0.0, 1.6213506563931525E9, 2021-05-18 17:10:56.393
85.0, 136.36236572265625, -40.596614837646484, -92.58683013916016, 69.6313247680664, -0.01600000075995922, -0.08000000566244125, 1.055999994277954, 0.0, 0.0, 0.0, 0.0, 0.0, 1.6213506564045389E9, 2021-05-18 17:10:56.404
85.0, 80.63037109375, -96.95316314697266, -149.85218811035156, 11.423524856567383, -0.01600000075995922, -0.08000000566244125, 1.055999994277954, 0.0, 0.0, 0.0, 0.0, 0.0, 1.6213506564045389E9, 2021-05-18 17:10:56.404
86.0, 96.96251678466797, -57.09331130981445, -134.27175903320312, 36.9782600402832, -0.01600000075995922, -0.08000000566244125, 1.055999994277954, 0.0, 0.0, 0.0, 0.0, 0.0, 1.6213506564052525E9, 2021-05-18 17:10:56.405
86.0, 128.52352905273438, 7.446140766143799, -95.806884765625, 84.33661651611328, -0.01600000075995922, -0.08000000566244125, 1.055999994277954, 0.0, 0.0, 0.0, 0.0, 0.0, 1.6213506564052525E9, 2021-05-18 17:10:56.405
87.0, 119.89558410644531, -30.498884201049805, -90.30549621582031, 71.0300521850586, -0.01600000075995922, -0.08000000566244125, 1.055999994277954, 0.0, 0.0, 0.0, 0.0, 0.0, 1.6213506564060016E9, 2021-05-18 17:10:56.406
87.0, 78.06480407714844, -87.38650512695312, -140.3715362548828, 6.382139205932617, -0.01600000075995922, -0.08000000566244125, 1.055999994277954, 0.0, 0.0, 0.0, 0.0, 0.0, 1.6213506564060016E9, 2021-05-18 17:10:56.406
88.0, 92.3549575805664, -37.84778594970703, -131.0741424560547, 25.43692970275879, -0.01600000075995922, -0.08000000566244125, 1.055999994277954, 0.0, 0.0, 0.0, 0.0, 0.0, 1.6213506564182563E9, 2021-05-18 17:10:56.418
88.0, 127.62969207763672, 2.3000385761260986, -96.3454360961914, 71.9164047241211, -0.01600000075995922, -0.08000000566244125, 1.055999994277954, 0.0, 0.0, 0.0, 0.0, 0.0, 1.6213506564182563E9, 2021-05-18 17:10:56.418
89.0, 120.74079895019531, -34.62773513793945, -92.17918395996094, 57.383155822753906, -0.01600000075995922, -0.08000000566244125, 1.055999994277954, 0.0, 0.0, 0.0, 0.0, 0.0, 1.6213506564345102E9, 2021-05-18 17:10:56.434
89.0, 74.91580963134766, -74.54742431640625, -141.0372314453125, -7.477930068969727, -0.01600000075995922, -0.08000000566244125, 1.055999994277954, 0.0, 0.0, 0.0, 0.0, 0.0, 1.6213506564345102E9, 2021-05-18 17:10:56.434
90.0, 92.25398254394531, -52.03696823120117, -132.3531951904297, 11.909711837768555, -0.01600000075995922, -0.08000000566244125, 1.055999994277954, 0.0, 0.0, 0.0, 0.0, 0.0, 1.6213506564352515E9, 2021-05-18 17:10:56.435
90.0, 129.17800903320312, -10.767171859741211, -92.0146255493164, 66.35517120361328, -0.01600000075995922, -0.08000000566244125, 1.055999994277954, 0.0, 0.0, 0.0, 0.0, 0.0, 1.6213506564352515E9, 2021-05-18 17:10:56.435
91.0, 136.99066162109375, -16.03295135498047, -85.41744232177734, 50.60271453857422, -0.01600000075995922, -0.08000000566244125, 1.055999994277954, 0.0, 0.0, 0.0, 0.0, 0.0, 1.6213506564482353E9, 2021-05-18 17:10:56.448
91.0, 92.7962646484375, -85.90176391601562, -142.68280029296875, -9.42641830444336, -0.01600000075995922, -0.08000000566244125, 1.055999994277954, 0.0, 0.0, 0.0, 0.0, 0.0, 1.6213506564482353E9, 2021-05-18 17:10:56.448
92.0, 101.58502960205078, -51.54704284667969, -127.5810775756836, 22.804040908813477, -0.03200000151991844, -0.08000000566244125, 1.055999994277954, 0.0, 0.0, 0.0, 0.0, 0.0, 1.6213506564638984E9, 2021-05-18 17:10:56.463
92.0, 121.14845275878906, 5.572451114654541, -101.49527740478516, 69.08155822753906, -0.03200000151991844, -0.08000000566244125, 1.055999994277954, 0.0, 0.0, 0.0, 0.0, 0.0, 1.6213506564638984E9, 2021-05-18 17:10:56.463
93.0, 132.03155517578125, -9.286171913146973, -90.49623107910156, 69.29473876953125, -0.03200000151991844, -0.08000000566244125, 1.055999994277954, 0.0, 0.0, 0.0, 0.0, 0.0, 1.621350656464599E9, 2021-05-18 17:10:56.464
93.0, 89.09002685546875, -84.00936889648438, -136.96449279785156, 22.65070343017578, -0.03200000151991844, -0.08000000566244125, 1.055999994277954, 0.0, 0.0, 0.0, 0.0, 0.0, 1.621350656464599E9, 2021-05-18 17:10:56.464
94.0, 97.82643127441406, -50.039859771728516, -131.2910614013672, 43.246334075927734, -0.03200000151991844, -0.08000000566244125, 1.055999994277954, 0.0, 0.0, 0.0, 0.0, 0.0, 1.62135065647821E9, 2021-05-18 17:10:56.478
94.0, 125.7186050415039, 20.962139129638672, -92.96456146240234, 98.43603515625, -0.03200000151991844, -0.08000000566244125, 1.055999994277954, 0.0, 0.0, 0.0, 0.0, 0.0, 1.62135065647821E9, 2021-05-18 17:10:56.478
95.0, 130.4121856689453, -29.462932586669922, -88.18497467041016, 81.13526153564453, -0.03200000151991844, -0.08000000566244125, 1.055999994277954, 0.0, 0.0, 0.0, 0.0, 0.0, 1.6213506564945493E9, 2021-05-18 17:10:56.494
95.0, 92.7364273071289, -92.86919403076172, -139.3468017578125, 18.140384674072266, -0.03200000151991844, -0.08000000566244125, 1.055999994277954, 0.0, 0.0, 0.0, 0.0, 0.0, 1.6213506564945493E9, 2021-05-18 17:10:56.494
96.0, 86.06818389892578, -48.558860778808594, -130.17657470703125, 39.64107131958008, -0.03200000151991844, -0.08000000566244125, 1.055999994277954, 0.0, 0.0, 0.0, 0.0, 0.0, 1.6213506564952424E9, 2021-05-18 17:10:56.495
96.0, 132.15872192382812, -26.433612823486328, -87.84838104248047, 90.72062683105469, -0.03200000151991844, -0.08000000566244125, 1.055999994277954, 0.0, 0.0, 0.0, 0.0, 0.0, 1.6213506564952424E9, 2021-05-18 17:10:56.495
97.0, 124.62655639648438, -34.90448760986328, -90.12972259521484, 72.51104736328125, -0.03200000151991844, -0.08000000566244125, 1.055999994277954, 0.0, 0.0, 0.0, 0.0, 0.0, 1.621350656508172E9, 2021-05-18 17:10:56.508
97.0, 79.1643295288086, -86.42908477783203, -137.3197784423828, 10.436190605163574, -0.03200000151991844, -0.08000000566244125, 1.055999994277954, 0.0, 0.0, 0.0, 0.0, 0.0, 1.621350656508172E9, 2021-05-18 17:10:56.508
98.0, 86.27761840820312, -49.194644927978516, -130.2364044189453, 24.875944137573242, -0.03200000151991844, -0.08000000566244125, 1.055999994277954, 0.0, 0.0, 0.0, 0.0, 0.0, 1.62135065652386E9, 2021-05-18 17:10:56.523
98.0, 122.83888244628906, -0.44878798723220825, -88.31961059570312, 79.4859619140625, -0.03200000151991844, -0.08000000566244125, 1.055999994277954, 0.0, 0.0, 0.0, 0.0, 0.0, 1.62135065652386E9, 2021-05-18 17:10:56.523
99.0, 129.21914672851562, -15.64026165008545, -89.28076171875, 71.1160659790039, -0.03200000151991844, -0.08000000566244125, 1.055999994277954, 0.0, 0.0, 0.0, 0.0, 0.0, 1.6213506565246046E9, 2021-05-18 17:10:56.524
99.0, 79.77393341064453, -94.06596374511719, -145.2895050048828, 4.160638809204102, -0.03200000151991844, -0.08000000566244125, 1.055999994277954, 0.0, 0.0, 0.0, 0.0, 0.0, 1.6213506565246046E9, 2021-05-18 17:10:56.524
100.0, 91.2068099975586, -69.79027557373047, -137.1028594970703, 18.282501220703125, -0.03200000151991844, -0.08000000566244125, 1.055999994277954, 0.0, 0.0, 0.0, 0.0, 0.0, 1.6213506565393207E9, 2021-05-18 17:10:56.539
100.0, 136.83358764648438, 9.297390937805176, -100.04045104980469, 66.00362396240234, -0.03200000151991844, -0.08000000566244125, 1.055999994277954, 0.0, 0.0, 0.0, 0.0, 0.0, 1.6213506565393207E9, 2021-05-18 17:10:56.539
0.0, 133.20401000976562, -10.193097114562988, -99.99931335449219, 45.26026916503906, -0.03200000151991844, -0.08000000566244125, 1.055999994277954, 0.0, 0.0, 0.0, 0.0, 0.0, 1.6213506565552604E9, 2021-05-18 17:10:56.555
1.0, 92.75699615478516, -92.33251953125, -148.13931274414062, -14.159261703491211, -0.03200000151991844, -0.08000000566244125, 1.055999994277954, 0.0, 0.0, 0.0, 0.0, 0.0, 1.62135065655603E9, 2021-05-18 17:10:56.556
1.0, 108.47953796386719, -66.28411865234375, -132.62246704101562, 16.713613510131836, -0.03200000151991844, -0.08000000566244125, 1.055999994277954, 0.0, 0.0, 0.0, 0.0, 0.0, 1.62135065655603E9, 2021-05-18 17:10:56.556
2.0, 147.7410125732422, -17.321346282958984, -94.17255401611328, 69.58831787109375, -0.01600000075995922, -0.08000000566244125, 1.055999994277954, 0.0, 0.0, 0.0, 0.0, 0.0, 1.621350656556808E9, 2021-05-18 17:10:56.556
2.0, 132.88612365722656, -30.773767471313477, -90.89266204833984, 62.00380325317383, -0.01600000075995922, -0.08000000566244125, 1.055999994277954, 0.0, 0.0, 0.0, 0.0, 0.0, 1.621350656556808E9, 2021-05-18 17:10:56.556
3.0, 87.51365661621094, -86.18038177490234, -136.76626586914062, 6.757999420166016, -0.01600000075995922, -0.08000000566244125, 1.055999994277954, 0.0, 0.0, 0.0, 0.0, 0.0, 1.6213506565682423E9, 2021-05-18 17:10:56.568
3.0, 101.62429809570312, -61.06695556640625, -129.6081085205078, 34.83342742919922, -0.01600000075995922, -0.08000000566244125, 1.055999994277954, 0.0, 0.0, 0.0, 0.0, 0.0, 1.6213506565682423E9, 2021-05-18 17:10:56.568
4.0, 141.31959533691406, -12.063047409057617, -86.9695053100586, 87.67821502685547, -0.01600000075995922, -0.08000000566244125, 1.055999994277954, 0.0, 0.0, 0.0, 0.0, 0.0, 1.6213506565833423E9, 2021-05-18 17:10:56.583
4.0, 136.78683471679688, -9.744309425354004, -73.52082061767578, 76.99706268310547, -0.01600000075995922, -0.08000000566244125, 1.055999994277954, 0.0, 0.0, 0.0, 0.0, 0.0, 1.6213506565833423E9, 2021-05-18 17:10:56.583
5.0, 83.1117935180664, -69.4667739868164, -138.8269500732422, 22.420700073242188, -0.01600000075995922, -0.08000000566244125, 1.055999994277954, 0.0, 0.0, 0.0, 0.0, 0.0, 1.6213506565990036E9, 2021-05-18 17:10:56.599
5.0, 97.32341766357422, -54.25659942626953, -125.83828735351562, 40.84718704223633, -0.01600000075995922, -0.08000000566244125, 1.055999994277954, 0.0, 0.0, 0.0, 0.0, 0.0, 1.6213506565990036E9, 2021-05-18 17:10:56.599
6.0, 132.41116333007812, -7.683624267578125, -89.84174346923828, 89.57060241699219, -0.01600000075995922, -0.08000000566244125, 1.055999994277954, 0.0, 0.0, 0.0, 0.0, 0.0, 1.621350656599778E9, 2021-05-18 17:10:56.599
6.0, 146.1739959716797, -37.36347198486328, -83.08748626708984, 71.0057373046875, -0.01600000075995922, -0.08000000566244125, 1.055999994277954, 0.0, 0.0, 0.0, 0.0, 0.0, 1.621350656599778E9, 2021-05-18 17:10:56.599
7.0, 88.59822845458984, -81.53543090820312, -137.1439971923828, 5.867903232574463, -0.01600000075995922, -0.08000000566244125, 1.055999994277954, 0.0, 0.0, 0.0, 0.0, 0.0, 1.6213506566131988E9, 2021-05-18 17:10:56.613
7.0, 86.64226531982422, -65.32295989990234, -130.7786865234375, 28.2287654876709, -0.01600000075995922, -0.08000000566244125, 1.055999994277954, 0.0, 0.0, 0.0, 0.0, 0.0, 1.6213506566131988E9, 2021-05-18 17:10:56.613
8.0, 129.8418426513672, -5.780015468597412, -92.52325439453125, 77.97691345214844, -0.01600000075995922, -0.08000000566244125, 1.055999994277954, 0.0, 0.0, 0.0, 0.0, 0.0, 1.621350656628948E9, 2021-05-18 17:10:56.628
8.0, 130.1859130859375, -17.807533264160156, -91.6331558227539, 58.67903137207031, -0.01600000075995922, -0.08000000566244125, 1.055999994277954, 0.0, 0.0, 0.0, 0.0, 0.0, 1.621350656628948E9, 2021-05-18 17:10:56.628
9.0, 84.20758819580078, -82.25348663330078, -143.30361938476562, -4.046571731567383, -0.01600000075995922, -0.08000000566244125, 1.055999994277954, 0.0, 0.0, 0.0, 0.0, 0.0, 1.621350656629598E9, 2021-05-18 17:10:56.629
9.0, 98.35189056396484, -63.16878128051758, -132.93287658691406, 29.649927139282227, -0.01600000075995922, -0.08000000566244125, 1.055999994277954, 0.0, 0.0, 0.0, 0.0, 0.0, 1.621350656629598E9, 2021-05-18 17:10:56.629
10.0, 130.5711212158203, 4.235436916351318, -97.56464385986328, 76.82876586914062, -0.01600000075995922, -0.08000000566244125, 1.040000081062317, 0.0, 0.0, 0.0, 0.0, 0.0, 1.621350656643174E9, 2021-05-18 17:10:56.643
10.0, 137.19822692871094, -30.1417236328125, -95.87420654296875, 57.64681625366211, -0.01600000075995922, -0.08000000566244125, 1.040000081062317, 0.0, 0.0, 0.0, 0.0, 0.0, 1.621350656643174E9, 2021-05-18 17:10:56.643
11.0, 96.00323486328125, -80.60419464111328, -143.47938537597656, 6.526125431060791, -0.01600000075995922, -0.08000000566244125, 1.040000081062317, 0.0, 0.0, 0.0, 0.0, 0.0, 1.6213506566752253E9, 2021-05-18 17:10:56.675
11.0, 110.9291763305664, -43.98309326171875, -132.779541015625, 35.51034927368164, -0.01600000075995922, -0.08000000566244125, 1.040000081062317, 0.0, 0.0, 0.0, 0.0, 0.0, 1.6213506566752253E9, 2021-05-18 17:10:56.675
12.0, 141.39439392089844, -14.6921968460083, -97.25796508789062, 77.95447540283203, -0.01600000075995922, -0.08000000566244125, 1.040000081062317, 0.0, 0.0, 0.0, 0.0, 0.0, 1.6213506566760452E9, 2021-05-18 17:10:56.676
12.0, 138.454833984375, -18.903324127197266, -89.16856384277344, 67.80064392089844, -0.01600000075995922, -0.08000000566244125, 1.040000081062317, 0.0, 0.0, 0.0, 0.0, 0.0, 1.6213506566760452E9, 2021-05-18 17:10:56.676
13.0, 104.17491149902344, -48.99829864501953, -133.82296752929688, 8.369895935058594, -0.01600000075995922, -0.08000000566244125, 1.040000081062317, 0.0, 0.0, 0.0, 0.0, 0.0, 1.621350656676674E9, 2021-05-18 17:10:56.676
13.0, 105.12484741210938, -70.34191131591797, -123.97207641601562, 29.777084350585938, -0.01600000075995922, -0.08000000566244125, 1.040000081062317, 0.0, 0.0, 0.0, 0.0, 0.0, 1.621350656676674E9, 2021-05-18 17:10:56.676
14.0, 136.6334991455078, -12.283700942993164, -86.45339965820312, 91.14136505126953, -0.01600000075995922, -0.08000000566244125, 1.040000081062317, 0.0, 0.0, 0.0, 0.0, 0.0, 1.6213506566774507E9, 2021-05-18 17:10:56.677
14.0, 131.248046875, -32.86811065673828, -80.79119110107422, 77.58796691894531, -0.01600000075995922, -0.08000000566244125, 1.040000081062317, 0.0, 0.0, 0.0, 0.0, 0.0, 1.6213506566774507E9, 2021-05-18 17:10:56.677
15.0, 92.71585845947266, -76.81193542480469, -126.57130432128906, 20.980838775634766, -0.01600000075995922, -0.08000000566244125, 1.040000081062317, 0.0, 0.0, 0.0, 0.0, 0.0, 1.6213506566882944E9, 2021-05-18 17:10:56.688
15.0, 103.59149169921875, -84.69938659667969, -117.83863830566406, 39.889774322509766, -0.01600000075995922, -0.08000000566244125, 1.040000081062317, 0.0, 0.0, 0.0, 0.0, 0.0, 1.6213506566882944E9, 2021-05-18 17:10:56.688
16.0, 133.3311767578125, -18.15908432006836, -87.44447326660156, 80.43029022216797, -0.01600000075995922, -0.08000000566244125, 1.040000081062317, 0.0, 0.0, 0.0, 0.0, 0.0, 1.621350656703189E9, 2021-05-18 17:10:56.703
16.0, 132.46351623535156, -36.87354278564453, -85.76899719238281, 59.90945816040039, -0.01600000075995922, -0.08000000566244125, 1.040000081062317, 0.0, 0.0, 0.0, 0.0, 0.0, 1.621350656703189E9, 2021-05-18 17:10:56.703
17.0, 105.73818969726562, -86.74884796142578, -122.79026794433594, 15.860916137695312, -0.01600000075995922, -0.08000000566244125, 1.040000081062317, 0.0, 0.0, 0.0, 0.0, 0.0, 1.6213506567188892E9, 2021-05-18 17:10:56.718
17.0, 106.22438049316406, -62.087947845458984, -129.3425750732422, 25.45749855041504, -0.01600000075995922, -0.08000000566244125, 1.040000081062317, 0.0, 0.0, 0.0, 0.0, 0.0, 1.6213506567188892E9, 2021-05-18 17:10:56.718
18.0, 137.75921630859375, -2.3393073081970215, -92.51203155517578, 74.74189758300781, -0.01600000075995922, -0.08000000566244125, 1.040000081062317, 0.0, 0.0, 0.0, 0.0, 0.0, 1.6213506567196937E9, 2021-05-18 17:10:56.719
18.0, 136.7270050048828, -1.3332743644714355, -86.6329116821289, 61.96266174316406, -0.01600000075995922, -0.08000000566244125, 1.040000081062317, 0.0, 0.0, 0.0, 0.0, 0.0, 1.6213506567196937E9, 2021-05-18 17:10:56.719
19.0, 82.95098114013672, -67.00965881347656, -139.5225830078125, 4.080230712890625, -0.01600000075995922, -0.08000000566244125, 1.040000081062317, 0.0, 0.0, 0.0, 0.0, 0.0, 1.6213506567332642E9, 2021-05-18 17:10:56.733
19.0, 99.07743072509766, -59.67571258544922, -134.9374542236328, 27.649080276489258, -0.01600000075995922, -0.08000000566244125, 1.040000081062317, 0.0, 0.0, 0.0, 0.0, 0.0, 1.6213506567332642E9, 2021-05-18 17:10:56.733
20.0, 135.49282836914062, -7.410611629486084, -100.22744750976562, 72.11274719238281, -0.01600000075995922, -0.08000000566244125, 1.055999994277954, 0.0, 0.0, 0.0, 0.0, 0.0, 1.6213506567488987E9, 2021-05-18 17:10:56.748
20.0, 142.351806640625, -17.4597225189209, -94.04913330078125, 66.29346466064453, -0.01600000075995922, -0.08000000566244125, 1.055999994277954, 0.0, 0.0, 0.0, 0.0, 0.0, 1.6213506567488987E9, 2021-05-18 17:10:56.748
21.0, 103.5017318725586, -76.4117660522461, -138.52027893066406, 13.893728256225586, -0.01600000075995922, -0.08000000566244125, 1.055999994277954, 0.0, 0.0, 0.0, 0.0, 0.0, 1.6213506567496383E9, 2021-05-18 17:10:56.749
21.0, 111.25454711914062, -62.48811721801758, -127.59603881835938, 32.41745376586914, -0.01600000075995922, -0.08000000566244125, 1.055999994277954, 0.0, 0.0, 0.0, 0.0, 0.0, 1.6213506567496383E9, 2021-05-18 17:10:56.749
22.0, 139.38607788085938, 12.006948471069336, -92.23528289794922, 84.82840728759766, -0.01600000075995922, -0.08000000566244125, 1.055999994277954, 0.0, 0.0, 0.0, 0.0, 0.0, 1.6213506567632143E9, 2021-05-18 17:10:56.763
22.0, 147.4044189453125, -15.283101081848145, -82.89301300048828, 76.85868072509766, -0.01600000075995922, -0.08000000566244125, 1.055999994277954, 0.0, 0.0, 0.0, 0.0, 0.0, 1.6213506567632143E9, 2021-05-18 17:10:56.763
23.0, 97.51789093017578, -65.0125503540039, -128.99476623535156, 17.038984298706055, -0.01600000075995922, -0.08000000566244125, 1.055999994277954, 0.0, 0.0, 0.0, 0.0, 0.0, 1.62135065677892E9, 2021-05-18 17:10:56.778
23.0, 99.66459655761719, -54.133182525634766, -133.29563903808594, 33.03079605102539, -0.01600000075995922, -0.08000000566244125, 1.055999994277954, 0.0, 0.0, 0.0, 0.0, 0.0, 1.62135065677892E9, 2021-05-18 17:10:56.778
24.0, 133.05816650390625, -6.572874069213867, -89.62483215332031, 88.90489959716797, -0.01600000075995922, -0.08000000566244125, 1.055999994277954, 0.0, 0.0, 0.0, 0.0, 0.0, 1.6213506567796376E9, 2021-05-18 17:10:56.779
24.0, 140.51925659179688, -25.0068416595459, -81.43819427490234, 79.06896209716797, -0.01600000075995922, -0.08000000566244125, 1.055999994277954, 0.0, 0.0, 0.0, 0.0, 0.0, 1.6213506567796376E9, 2021-05-18 17:10:56.779
25.0, 95.52452087402344, -67.20787048339844, -134.7317657470703, 10.976606369018555, -0.01600000075995922, -0.08000000566244125, 1.055999994277954, 0.0, 0.0, 0.0, 0.0, 0.0, 1.6213506567932851E9, 2021-05-18 17:10:56.793
25.0, 106.96113586425781, -59.11472702026367, -130.3299102783203, 32.93355941772461, -0.01600000075995922, -0.08000000566244125, 1.055999994277954, 0.0, 0.0, 0.0, 0.0, 0.0, 1.6213506567932851E9, 2021-05-18 17:10:56.793
26.0, 148.90411376953125, -8.887872695922852, -88.18122863769531, 78.68749237060547, -0.01600000075995922, -0.08000000566244125, 1.055999994277954, 0.0, 0.0, 0.0, 0.0, 0.0, 1.6213506568089113E9, 2021-05-18 17:10:56.808
26.0, 134.92062377929688, -8.618599891662598, -84.75548553466797, 59.412052154541016, -0.01600000075995922, -0.08000000566244125, 1.055999994277954, 0.0, 0.0, 0.0, 0.0, 0.0, 1.6213506568089113E9, 2021-05-18 17:10:56.808
27.0, 96.26502227783203, -78.2181396484375, -133.23207092285156, 3.3621699810028076, -0.01600000075995922, -0.08000000566244125, 1.055999994277954, 0.0, 0.0, 0.0, 0.0, 0.0, 1.6213506568096309E9, 2021-05-18 17:10:56.809
27.0, 108.59173583984375, -66.50102996826172, -128.75540161132812, 25.15456771850586, -0.01600000075995922, -0.08000000566244125, 1.055999994277954, 0.0, 0.0, 0.0, 0.0, 0.0, 1.6213506568096309E9, 2021-05-18 17:10:56.809
28.0, 146.26748657226562, -3.2967216968536377, -91.34892272949219, 76.12940216064453, -0.01600000075995922, -0.08000000566244125, 1.055999994277954, 0.0, 0.0, 0.0, 0.0, 0.0, 1.6213506568233185E9, 2021-05-18 17:10:56.823
28.0, 148.31695556640625, -16.01238250732422, -90.63086700439453, 60.829471588134766, -0.01600000075995922, -0.08000000566244125, 1.055999994277954, 0.0, 0.0, 0.0, 0.0, 0.0, 1.6213506568233185E9, 2021-05-18 17:10:56.823
29.0, 104.3469467163086, -64.9901123046875, -138.78207397460938, 6.391489028930664, -0.01600000075995922, -0.08000000566244125, 1.055999994277954, 0.0, 0.0, 0.0, 0.0, 0.0, 1.6213506568391225E9, 2021-05-18 17:10:56.839
29.0, 103.18009948730469, -38.02543258666992, -133.23207092285156, 30.188472747802734, -0.01600000075995922, -0.08000000566244125, 1.055999994277954, 0.0, 0.0, 0.0, 0.0, 0.0, 1.6213506568391225E9, 2021-05-18 17:10:56.839
30.0, 138.42117309570312, -12.190203666687012, -90.92631530761719, 77.92081451416016, -0.01600000075995922, -0.08000000566244125, 1.055999994277954, 0.0, 0.0, 0.0, 0.0, 0.0, 1.6213506568396432E9, 2021-05-18 17:10:56.839
30.0, 141.70106506347656, -20.45538330078125, -89.38922119140625, 70.02214813232422, -0.01600000075995922, -0.08000000566244125, 1.055999994277954, 0.0, 0.0, 0.0, 0.0, 0.0, 1.6213506568396432E9, 2021-05-18 17:10:56.839
31.0, 95.90599822998047, -57.01290512084961, -135.4498291015625, 10.610095977783203, -0.01600000075995922, -0.09600000083446503, 1.055999994277954, 0.0, 0.0, 0.0, 0.0, 0.0, 1.6213506568533387E9, 2021-05-18 17:10:56.853
31.0, 108.3823013305664, -43.23511505126953, -122.3676528930664, 37.98990249633789, -0.01600000075995922, -0.09600000083446503, 1.055999994277954, 0.0, 0.0, 0.0, 0.0, 0.0, 1.6213506568533387E9, 2021-05-18 17:10:56.853
32.0, 147.85694885253906, 8.70087718963623, -81.66632843017578, 94.41751098632812, -0.01600000075995922, -0.09600000083446503, 1.055999994277954, 0.0, 0.0, 0.0, 0.0, 0.0, 1.621350656868883E9, 2021-05-18 17:10:56.868
32.0, 140.60902404785156, -1.5838476419448853, -84.11969757080078, 75.98728942871094, -0.01600000075995922, -0.09600000083446503, 1.055999994277954, 0.0, 0.0, 0.0, 0.0, 0.0, 1.621350656868883E9, 2021-05-18 17:10:56.868
33.0, 94.56710815429688, -64.61611938476562, -134.72055053710938, 14.256498336791992, -0.01600000075995922, -0.09600000083446503, 1.055999994277954, 0.0, 0.0, 0.0, 0.0, 0.0, 1.6213506568696198E9, 2021-05-18 17:10:56.869
33.0, 111.11616516113281, -47.498600006103516, -122.53221130371094, 37.52615737915039, -0.01600000075995922, -0.09600000083446503, 1.055999994277954, 0.0, 0.0, 0.0, 0.0, 0.0, 1.6213506568696198E9, 2021-05-18 17:10:56.869
34.0, 139.55810546875, 4.901138782501221, -83.13984680175781, 88.26911926269531, -0.01600000075995922, -0.09600000083446503, 1.055999994277954, 0.0, 0.0, 0.0, 0.0, 0.0, 1.6213506568832202E9, 2021-05-18 17:10:56.883
34.0, 138.6680145263672, -27.254520416259766, -75.5889892578125, 72.06039428710938, -0.01600000075995922, -0.09600000083446503, 1.055999994277954, 0.0, 0.0, 0.0, 0.0, 0.0, 1.6213506568832202E9, 2021-05-18 17:10:56.883
35.0, 99.6870346069336, -79.75523376464844, -122.13578033447266, 9.140315055847168, -0.01600000075995922, -0.09600000083446503, 1.055999994277954, 0.0, 0.0, 0.0, 0.0, 0.0, 1.6213506568989863E9, 2021-05-18 17:10:56.898
35.0, 115.13282012939453, -52.259490966796875, -114.19597625732422, 33.41226577758789, -0.01600000075995922, -0.09600000083446503, 1.055999994277954, 0.0, 0.0, 0.0, 0.0, 0.0, 1.6213506568989863E9, 2021-05-18 17:10:56.898
36.0, 144.54339599609375, -1.669865369796753, -73.73400115966797, 79.873046875, -0.01600000075995922, -0.09600000083446503, 1.055999994277954, 0.0, 0.0, 0.0, 0.0, 0.0, 1.6213506568997495E9, 2021-05-18 17:10:56.899
36.0, 140.8633270263672, -8.274528503417969, -77.20088195800781, 70.80752563476562, -0.01600000075995922, -0.09600000083446503, 1.055999994277954, 0.0, 0.0, 0.0, 0.0, 0.0, 1.6213506568997495E9, 2021-05-18 17:10:56.899
37.0, 93.3666000366211, -80.02825164794922, -130.92454528808594, 4.727233409881592, -0.01600000075995922, -0.09600000083446503, 1.055999994277954, 0.0, 0.0, 0.0, 0.0, 0.0, 1.6213506569297676E9, 2021-05-18 17:10:56.929
37.0, 97.7011489868164, -64.75450134277344, -119.36077880859375, 35.75344467163086, -0.01600000075995922, -0.09600000083446503, 1.055999994277954, 0.0, 0.0, 0.0, 0.0, 0.0, 1.6213506569297676E9, 2021-05-18 17:10:56.929
38.0, 143.6682586669922, 10.03602123260498, -76.01907348632812, 82.96968078613281, -0.01600000075995922, -0.09600000083446503, 1.055999994277954, 0.0, 0.0, 0.0, 0.0, 0.0, 1.6213506569305165E9, 2021-05-18 17:10:56.930
38.0, 140.17144775390625, 5.286348819732666, -81.65884399414062, 65.63150787353516, -0.01600000075995922, -0.09600000083446503, 1.055999994277954, 0.0, 0.0, 0.0, 0.0, 0.0, 1.6213506569305165E9, 2021-05-18 17:10:56.930
39.0, 91.317138671875, -73.12065124511719, -136.08935546875, 6.728079795837402, -0.01600000075995922, -0.09600000083446503, 1.055999994277954, 0.0, 0.0, 0.0, 0.0, 0.0, 1.621350656931126E9, 2021-05-18 17:10:56.931
39.0, 104.5676040649414, -57.18120193481445, -131.38455200195312, 29.863101959228516, -0.01600000075995922, -0.09600000083446503, 1.055999994277954, 0.0, 0.0, 0.0, 0.0, 0.0, 1.621350656931126E9, 2021-05-18 17:10:56.931
40.0, 137.6058807373047, 5.323747634887695, -91.4274673461914, 83.58676147460938, -0.01600000075995922, -0.09600000083446503, 1.055999994277954, 0.0, 0.0, 0.0, 0.0, 0.0, 1.621350656943225E9, 2021-05-18 17:10:56.943
40.0, 131.32284545898438, -12.500616073608398, -86.5094985961914, 72.12023162841797, -0.01600000075995922, -0.09600000083446503, 1.055999994277954, 0.0, 0.0, 0.0, 0.0, 0.0, 1.621350656943225E9, 2021-05-18 17:10:56.943
41.0, 90.80477142333984, -77.53373718261719, -136.0369873046875, 17.29703712463379, -0.01600000075995922, -0.08000000566244125, 1.055999994277954, 0.0, 0.0, 0.0, 0.0, 0.0, 1.6213506569588976E9, 2021-05-18 17:10:56.958
41.0, 101.16429138183594, -58.49016571044922, -125.56900787353516, 39.26520919799805, -0.01600000075995922, -0.08000000566244125, 1.055999994277954, 0.0, 0.0, 0.0, 0.0, 0.0, 1.6213506569588976E9, 2021-05-18 17:10:56.958
42.0, 130.3242950439453, 21.21084213256836, -88.4542465209961, 86.02891540527344, -0.01600000075995922, -0.08000000566244125, 1.055999994277954, 0.0, 0.0, 0.0, 0.0, 0.0, 1.621350656959601E9, 2021-05-18 17:10:56.959
42.0, 131.82772827148438, -10.473589897155762, -91.92112731933594, 71.26005554199219, -0.01600000075995922, -0.08000000566244125, 1.055999994277954, 0.0, 0.0, 0.0, 0.0, 0.0, 1.621350656959601E9, 2021-05-18 17:10:56.959
43.0, 91.6761703491211, -80.1067886352539, -140.92129516601562, 18.325510025024414, -0.01600000075995922, -0.08000000566244125, 1.055999994277954, 0.0, 0.0, 0.0, 0.0, 0.0, 1.6213506569732397E9, 2021-05-18 17:10:56.973
43.0, 99.43646240234375, -44.297245025634766, -121.47382354736328, 45.379947662353516, -0.01600000075995922, -0.08000000566244125, 1.055999994277954, 0.0, 0.0, 0.0, 0.0, 0.0, 1.6213506569732397E9, 2021-05-18 17:10:56.973
44.0, 131.40512084960938, 15.937583923339844, -90.23817443847656, 88.04472351074219, -0.01600000075995922, -0.08000000566244125, 1.055999994277954, 0.0, 0.0, 0.0, 0.0, 0.0, 1.6213506569888752E9, 2021-05-18 17:10:56.988
44.0, 136.91400146484375, -1.2435166835784912, -84.11595916748047, 76.17053985595703, -0.01600000075995922, -0.08000000566244125, 1.055999994277954, 0.0, 0.0, 0.0, 0.0, 0.0, 1.6213506569888752E9, 2021-05-18 17:10:56.988
45.0, 86.28323364257812, -71.86779022216797, -134.2904510498047, 14.888542175292969, -0.01600000075995922, -0.08000000566244125, 1.055999994277954, 0.0, 0.0, 0.0, 0.0, 0.0, 1.6213506569896927E9, 2021-05-18 17:10:56.989
45.0, 105.36045837402344, -19.19129753112793, -112.60651397705078, 43.03876876831055, -0.01600000075995922, -0.08000000566244125, 1.055999994277954, 0.0, 0.0, 0.0, 0.0, 0.0, 1.6213506569896927E9, 2021-05-18 17:10:56.989
46.0, 133.8397979736328, -5.817414283752441, -82.84813690185547, 83.20903778076172, -0.01600000075995922, -0.08000000566244125, 1.055999994277954, 0.0, 0.0, 0.0, 0.0, 0.0, 1.6213506570031886E9, 2021-05-18 17:10:57.003
46.0, 145.47088623046875, -8.416645050048828, -72.82520294189453, 70.87484741210938, -0.01600000075995922, -0.08000000566244125, 1.055999994277954, 0.0, 0.0, 0.0, 0.0, 0.0, 1.6213506570031886E9, 2021-05-18 17:10:57.003
47.0, 91.28347778320312, -66.2392349243164, -120.50892639160156, 10.247325897216797, -0.01600000075995922, -0.08000000566244125, 1.055999994277954, 0.0, 0.0, 0.0, 0.0, 0.0, 1.62135065701888E9, 2021-05-18 17:10:57.018
47.0, 106.80780029296875, -58.512603759765625, -109.7567138671875, 32.2902946472168, -0.01600000075995922, -0.08000000566244125, 1.055999994277954, 0.0, 0.0, 0.0, 0.0, 0.0, 1.62135065701888E9, 2021-05-18 17:10:57.018
48.0, 138.02101135253906, -11.670357704162598, -79.1456298828125, 80.3143539428711, -0.01600000075995922, -0.08000000566244125, 1.055999994277954, 0.0, 0.0, 0.0, 0.0, 0.0, 1.621350657019594E9, 2021-05-18 17:10:57.019
48.0, 134.59152221679688, -1.8979992866516113, -80.1479263305664, 64.80872344970703, -0.01600000075995922, -0.08000000566244125, 1.055999994277954, 0.0, 0.0, 0.0, 0.0, 0.0, 1.621350657019594E9, 2021-05-18 17:10:57.019
49.0, 90.07923126220703, -61.20907211303711, -129.2490692138672, 5.714567184448242, -0.01600000075995922, -0.08000000566244125, 1.055999994277954, 0.0, 0.0, 0.0, 0.0, 0.0, 1.6213506570332885E9, 2021-05-18 17:10:57.033
49.0, 104.25344848632812, -37.082977294921875, -117.70026397705078, 37.204524993896484, -0.01600000075995922, -0.08000000566244125, 1.055999994277954, 0.0, 0.0, 0.0, 0.0, 0.0, 1.6213506570332885E9, 2021-05-18 17:10:57.033
50.0, 135.6199951171875, 3.524855613708496, -77.59357452392578, 85.64370727539062, -0.01600000075995922, -0.08000000566244125, 1.055999994277954, 0.0, 0.0, 0.0, 0.0, 0.0, 1.6213506570488296E9, 2021-05-18 17:10:57.048
50.0, 134.56907653808594, 12.579153060913086, -72.05477905273438, 81.19696807861328, -0.01600000075995922, -0.08000000566244125, 1.055999994277954, 0.0, 0.0, 0.0, 0.0, 0.0, 1.6213506570488296E9, 2021-05-18 17:10:57.048
51.0, 91.3994140625, -80.57427215576172, -124.31988525390625, 20.528310775756836, -0.01600000075995922, -0.08000000566244125, 1.055999994277954, 0.0, 0.0, 0.0, 0.0, 0.0, 1.6213506570495632E9, 2021-05-18 17:10:57.049
51.0, 112.8776626586914, -53.58341598510742, -112.00813293457031, 48.24470901489258, -0.01600000075995922, -0.08000000566244125, 1.055999994277954, 0.0, 0.0, 0.0, 0.0, 0.0, 1.6213506570495632E9, 2021-05-18 17:10:57.049
52.0, 135.60877990722656, -4.30649471282959, -77.12234497070312, 97.14764404296875, -0.01600000075995922, -0.08000000566244125, 1.055999994277954, 0.0, 0.0, 0.0, 0.0, 0.0, 1.6213506570631857E9, 2021-05-18 17:10:57.063
52.0, 133.82110595703125, -25.100337982177734, -75.68248748779297, 79.9328842163086, -0.01600000075995922, -0.08000000566244125, 1.055999994277954, 0.0, 0.0, 0.0, 0.0, 0.0, 1.6213506570631857E9, 2021-05-18 17:10:57.063
53.0, 94.76158142089844, -80.64533233642578, -124.5928955078125, 23.89422035217285, -0.01600000075995922, -0.08000000566244125, 1.055999994277954, 0.0, 0.0, 0.0, 0.0, 0.0, 1.6213506570788395E9, 2021-05-18 17:10:57.078
53.0, 103.4194564819336, -59.3204231262207, -115.82283020019531, 38.644386291503906, -0.01600000075995922, -0.08000000566244125, 1.055999994277954, 0.0, 0.0, 0.0, 0.0, 0.0, 1.6213506570788395E9, 2021-05-18 17:10:57.078
54.0, 138.28280639648438, -16.693042755126953, -77.28316497802734, 86.7170639038086, -0.01600000075995922, -0.08000000566244125, 1.055999994277954, 0.0, 0.0, 0.0, 0.0, 0.0, 1.621350657079548E9, 2021-05-18 17:10:57.079
54.0, 133.84353637695312, -16.715482711791992, -73.04959869384766, 71.54802703857422, -0.01600000075995922, -0.08000000566244125, 1.055999994277954, 0.0, 0.0, 0.0, 0.0, 0.0, 1.621350657079548E9, 2021-05-18 17:10:57.079
55.0, 96.7998275756836, -76.43794250488281, -126.42170715332031, 14.959599494934082, -0.01600000075995922, -0.08000000566244125, 1.055999994277954, 0.0, 0.0, 0.0, 0.0, 0.0, 1.6213506570933168E9, 2021-05-18 17:10:57.093
55.0, 106.40763092041016, -69.32465362548828, -116.1407241821289, 33.13551330566406, -0.01600000075995922, -0.08000000566244125, 1.055999994277954, 0.0, 0.0, 0.0, 0.0, 0.0, 1.6213506570933168E9, 2021-05-18 17:10:57.093
56.0, 143.8926544189453, -2.485163450241089, -69.5901870727539, 85.20240020751953, -0.01600000075995922, -0.08000000566244125, 1.055999994277954, 0.0, 0.0, 0.0, 0.0, 0.0, 1.62135065710889E9, 2021-05-18 17:10:57.108
56.0, 139.28509521484375, -15.432697296142578, -71.1534652709961, 66.2635498046875, -0.01600000075995922, -0.08000000566244125, 1.055999994277954, 0.0, 0.0, 0.0, 0.0, 0.0, 1.62135065710889E9, 2021-05-18 17:10:57.108
57.0, 94.76532745361328, -64.47400665283203, -122.02732849121094, 10.46798038482666, -0.01600000075995922, -0.08000000566244125, 1.055999994277954, 0.0, 0.0, 0.0, 0.0, 0.0, 1.6213506571096656E9, 2021-05-18 17:10:57.109
57.0, 98.67352294921875, -69.98287963867188, -121.59723663330078, 28.57283592224121, -0.01600000075995922, -0.08000000566244125, 1.055999994277954, 0.0, 0.0, 0.0, 0.0, 0.0, 1.6213506571096656E9, 2021-05-18 17:10:57.109
58.0, 137.54229736328125, -11.015874862670898, -77.9002456665039, 78.0666732788086, -0.01600000075995922, -0.08000000566244125, 1.055999994277954, 0.0, 0.0, 0.0, 0.0, 0.0, 1.6213506571233137E9, 2021-05-18 17:10:57.123
58.0, 143.92257690429688, -20.698476791381836, -75.2710952758789, 68.28683471679688, -0.01600000075995922, -0.08000000566244125, 1.055999994277954, 0.0, 0.0, 0.0, 0.0, 0.0, 1.6213506571233137E9, 2021-05-18 17:10:57.123
59.0, 104.9490737915039, -82.63495635986328, -124.69387817382812, 10.954167366027832, -0.01600000075995922, -0.08000000566244125, 1.055999994277954, 0.0, 0.0, 0.0, 0.0, 0.0, 1.6213506571553545E9, 2021-05-18 17:10:57.155
59.0, 109.6089859008789, -65.3117446899414, -116.9410629272461, 29.148780822753906, -0.01600000075995922, -0.08000000566244125, 1.055999994277954, 0.0, 0.0, 0.0, 0.0, 0.0, 1.6213506571553545E9, 2021-05-18 17:10:57.155
60.0, 141.3457794189453, -9.400238990783691, -78.91749572753906, 79.22604370117188, -0.01600000075995922, -0.08000000566244125, 1.055999994277954, 0.0, 0.0, 0.0, 0.0, 0.0, 1.6213506571560612E9, 2021-05-18 17:10:57.156
60.0, 146.36097717285156, -18.06558609008789, -74.36604309082031, 73.74708557128906, -0.01600000075995922, -0.08000000566244125, 1.055999994277954, 0.0, 0.0, 0.0, 0.0, 0.0, 1.6213506571560612E9, 2021-05-18 17:10:57.156
61.0, 90.24752807617188, -76.9166488647461, -131.9305877685547, 14.226579666137695, -0.01600000075995922, -0.08000000566244125, 1.055999994277954, 0.0, 0.0, 0.0, 0.0, 0.0, 1.621350657156665E9, 2021-05-18 17:10:57.156
61.0, 104.67980194091797, -48.52333068847656, -122.74164581298828, 31.224424362182617, -0.01600000075995922, -0.08000000566244125, 1.055999994277954, 0.0, 0.0, 0.0, 0.0, 0.0, 1.621350657156665E9, 2021-05-18 17:10:57.156
62.0, 133.99313354492188, 13.708602905273438, -91.00485229492188, 87.49495697021484, -0.01600000075995922, -0.08000000566244125, 1.055999994277954, 0.0, 0.0, 0.0, 0.0, 0.0, 1.6213506571574712E9, 2021-05-18 17:10:57.157
62.0, 140.55665588378906, -2.978830337524414, -78.94367980957031, 79.2559585571289, -0.01600000075995922, -0.08000000566244125, 1.055999994277954, 0.0, 0.0, 0.0, 0.0, 0.0, 1.6213506571574712E9, 2021-05-18 17:10:57.157
63.0, 91.24981689453125, -53.24308395385742, -127.23326873779297, 15.965632438659668, -0.01600000075995922, -0.08000000566244125, 1.055999994277954, 0.0, 0.0, 0.0, 0.0, 0.0, 1.6213506571683135E9, 2021-05-18 17:10:57.168
63.0, 108.43466186523438, -61.99445343017578, -121.54862213134766, 30.50262451171875, -0.01600000075995922, -0.08000000566244125, 1.055999994277954, 0.0, 0.0, 0.0, 0.0, 0.0, 1.6213506571683135E9, 2021-05-18 17:10:57.168
64.0, 137.07107543945312, -14.972689628601074, -79.8861312866211, 86.81430053710938, -0.01600000075995922, -0.08000000566244125, 1.055999994277954, 0.0, 0.0, 0.0, 0.0, 0.0, 1.6213506571832314E9, 2021-05-18 17:10:57.183
64.0, 142.351806640625, 2.7394766807556152, -68.1428451538086, 81.91128540039062, -0.01600000075995922, -0.08000000566244125, 1.055999994277954, 0.0, 0.0, 0.0, 0.0, 0.0, 1.6213506571832314E9, 2021-05-18 17:10:57.183
65.0, 95.63671875, -64.94523620605469, -122.3676528930664, 17.27459716796875, -0.01600000075995922, -0.08000000566244125, 1.055999994277954, 0.0, 0.0, 0.0, 0.0, 0.0, 1.6213506571996813E9, 2021-05-18 17:10:57.199
65.0, 104.69850158691406, -61.325008392333984, -111.1778793334961, 34.481876373291016, -0.01600000075995922, -0.08000000566244125, 1.055999994277954, 0.0, 0.0, 0.0, 0.0, 0.0, 1.6213506571996813E9, 2021-05-18 17:10:57.199
66.0, 136.56619262695312, 0.9256252646446228, -71.97998809814453, 85.70729064941406, -0.01600000075995922, -0.08000000566244125, 1.055999994277954, 0.0, 0.0, 0.0, 0.0, 0.0, 1.6213506572004037E9, 2021-05-18 17:10:57.200
66.0, 142.26953125, -14.239668846130371, -67.6828384399414, 69.66311645507812, -0.01600000075995922, -0.08000000566244125, 1.055999994277954, 0.0, 0.0, 0.0, 0.0, 0.0, 1.6213506572004037E9, 2021-05-18 17:10:57.200
67.0, 101.10071563720703, -74.25384521484375, -124.0655746459961, 18.0225772857666, -0.01600000075995922, -0.08000000566244125, 1.055999994277954, 0.0, 0.0, 0.0, 0.0, 0.0, 1.6213506572132125E9, 2021-05-18 17:10:57.213
67.0, 104.10759735107422, -41.140769958496094, -119.64875030517578, 29.18243980407715, -0.01600000075995922, -0.08000000566244125, 1.055999994277954, 0.0, 0.0, 0.0, 0.0, 0.0, 1.6213506572132125E9, 2021-05-18 17:10:57.213
68.0, 132.9459686279297, 7.219876766204834, -82.63870239257812, 78.03301239013672, -0.01600000075995922, -0.08000000566244125, 1.055999994277954, 0.0, 0.0, 0.0, 0.0, 0.0, 1.621350657229012E9, 2021-05-18 17:10:57.229
68.0, 143.39151000976562, -4.074621200561523, -71.55363464355469, 71.84722137451172, -0.01600000075995922, -0.08000000566244125, 1.055999994277954, 0.0, 0.0, 0.0, 0.0, 0.0, 1.621350657229012E9, 2021-05-18 17:10:57.229
69.0, 93.53863525390625, -81.90193939208984, -131.95301818847656, 9.82845687866211, -0.01600000075995922, -0.08000000566244125, 1.055999994277954, 0.0, 0.0, 0.0, 0.0, 0.0, 1.6213506572296934E9, 2021-05-18 17:10:57.229
69.0, 103.13896179199219, -62.7947883605957, -120.26956939697266, 33.341209411621094, -0.01600000075995922, -0.08000000566244125, 1.055999994277954, 0.0, 0.0, 0.0, 0.0, 0.0, 1.6213506572296934E9, 2021-05-18 17:10:57.229
70.0, 137.35903930664062, -1.5726279020309448, -82.04779815673828, 83.69522094726562, -0.01600000075995922, -0.08000000566244125, 1.055999994277954, 0.0, 0.0, 0.0, 0.0, 0.0, 1.6213506572432306E9, 2021-05-18 17:10:57.243
70.0, 148.27581787109375, -39.042686462402344, -78.02740478515625, 74.83165740966797, -0.01600000075995922, -0.08000000566244125, 1.055999994277954, 0.0, 0.0, 0.0, 0.0, 0.0, 1.6213506572432306E9, 2021-05-18 17:10:57.243
71.0, 96.92324829101562, -63.8980598449707, -122.73416900634766, 17.065162658691406, -0.01600000075995922, -0.09600000083446503, 1.055999994277954, 0.0, 0.0, 0.0, 0.0, 0.0, 1.6213506572595432E9, 2021-05-18 17:10:57.259
71.0, 108.27384185791016, -49.555545806884766, -120.38551330566406, 42.67973709106445, -0.01600000075995922, -0.09600000083446503, 1.055999994277954, 0.0, 0.0, 0.0, 0.0, 0.0, 1.6213506572595432E9, 2021-05-18 17:10:57.259
72.0, 138.89988708496094, -1.3968526124954224, -84.24685668945312, 91.56397247314453, -0.01600000075995922, -0.09600000083446503, 1.055999994277954, 0.0, 0.0, 0.0, 0.0, 0.0, 1.6213506572603528E9, 2021-05-18 17:10:57.260
72.0, 138.85501098632812, -27.205902099609375, -80.30126190185547, 77.8123550415039, -0.01600000075995922, -0.09600000083446503, 1.055999994277954, 0.0, 0.0, 0.0, 0.0, 0.0, 1.6213506572603528E9, 2021-05-18 17:10:57.260
73.0, 100.58834838867188, -75.05044555664062, -122.42749786376953, 25.547256469726562, -0.01600000075995922, -0.09600000083446503, 1.055999994277954, 0.0, 0.0, 0.0, 0.0, 0.0, 1.6213506572732067E9, 2021-05-18 17:10:57.273
73.0, 102.87716674804688, -60.74158477783203, -120.4378662109375, 37.78046798706055, -0.01600000075995922, -0.09600000083446503, 1.055999994277954, 0.0, 0.0, 0.0, 0.0, 0.0, 1.6213506572732067E9, 2021-05-18 17:10:57.273
74.0, 133.2526397705078, -5.9557905197143555, -85.42866516113281, 85.41183471679688, -0.01600000075995922, -0.09600000083446503, 1.055999994277954, 0.0, 0.0, 0.0, 0.0, 0.0, 1.6213506572890165E9, 2021-05-18 17:10:57.289
74.0, 142.9950714111328, -6.741169452667236, -65.28182220458984, 77.16535949707031, -0.01600000075995922, -0.09600000083446503, 1.055999994277954, 0.0, 0.0, 0.0, 0.0, 0.0, 1.6213506572890165E9, 2021-05-18 17:10:57.289
75.0, 98.35936737060547, -86.6104736328125, -121.5, 15.56920337677002, -0.01600000075995922, -0.09600000083446503, 1.055999994277954, 0.0, 0.0, 0.0, 0.0, 0.0, 1.6213506572897573E9, 2021-05-18 17:10:57.289
75.0, 105.05378723144531, -50.677513122558594, -115.59469604492188, 32.716644287109375, -0.01600000075995922, -0.09600000083446503, 1.055999994277954, 0.0, 0.0, 0.0, 0.0, 0.0, 1.6213506572897573E9, 2021-05-18 17:10:57.289
76.0, 138.94850158691406, 5.566841125488281, -75.630126953125, 80.7780990600586, -0.01600000075995922, -0.09600000083446503, 1.055999994277954, 0.0, 0.0, 0.0, 0.0, 0.0, 1.6213506573032286E9, 2021-05-18 17:10:57.303
76.0, 144.78648376464844, -17.287687301635742, -73.63675689697266, 69.24798583984375, -0.01600000075995922, -0.09600000083446503, 1.055999994277954, 0.0, 0.0, 0.0, 0.0, 0.0, 1.6213506573032286E9, 2021-05-18 17:10:57.303
77.0, 91.26477813720703, -74.98312377929688, -130.8684539794922, 0.8676567673683167, -0.01600000075995922, -0.09600000083446503, 1.055999994277954, 0.0, 0.0, 0.0, 0.0, 0.0, 1.6213506573192651E9, 2021-05-18 17:10:57.319
77.0, 99.09613037109375, -57.91421890258789, -118.73621368408203, 23.20233917236328, -0.01600000075995922, -0.09600000083446503, 1.055999994277954, 0.0, 0.0, 0.0, 0.0, 0.0, 1.6213506573192651E9, 2021-05-18 17:10:57.319
78.0, 142.51637268066406, 5.9557905197143555, -80.96696472167969, 79.08766174316406, -0.01600000075995922, -0.09600000083446503, 1.055999994277954, 0.0, 0.0, 0.0, 0.0, 0.0, 1.6213506573339424E9, 2021-05-18 17:10:57.333
78.0, 144.16192626953125, -11.883532524108887, -79.18302917480469, 62.96869659423828, -0.01600000075995922, -0.09600000083446503, 1.055999994277954, 0.0, 0.0, 0.0, 0.0, 0.0, 1.6213506573339424E9, 2021-05-18 17:10:57.333
79.0, 102.88090515136719, -78.9997787475586, -130.66648864746094, 3.1452558040618896, -0.01600000075995922, -0.09600000083446503, 1.055999994277954, 0.0, 0.0, 0.0, 0.0, 0.0, 1.6213506573347135E9, 2021-05-18 17:10:57.334
79.0, 99.9899673461914, -48.05958557128906, -131.11154174804688, 28.6513729095459, -0.01600000075995922, -0.09600000083446503, 1.055999994277954, 0.0, 0.0, 0.0, 0.0, 0.0, 1.6213506573347135E9, 2021-05-18 17:10:57.334
80.0, 146.15528869628906, 13.798360824584961, -86.9283676147461, 86.95267486572266, -0.01600000075995922, -0.09600000083446503, 1.055999994277954, 0.0, 0.0, 0.0, 0.0, 0.0, 1.6213506573488655E9, 2021-05-18 17:10:57.348
80.0, 147.36328125, -23.24534797668457, -79.83003234863281, 82.9659423828125, -0.01600000075995922, -0.09600000083446503, 1.055999994277954, 0.0, 0.0, 0.0, 0.0, 0.0, 1.6213506573488655E9, 2021-05-18 17:10:57.348
81.0, 96.16030883789062, -52.741939544677734, -129.23037719726562, 20.131881713867188, -0.01600000075995922, -0.08000000566244125, 1.055999994277954, 0.0, 0.0, 0.0, 0.0, 0.0, 1.621350657349608E9, 2021-05-18 17:10:57.349
81.0, 107.43610382080078, -29.56951904296875, -130.21771240234375, 39.938392639160156, -0.01600000075995922, -0.08000000566244125, 1.055999994277954, 0.0, 0.0, 0.0, 0.0, 0.0, 1.621350657349608E9, 2021-05-18 17:10:57.349
82.0, 139.9395751953125, 19.142677307128906, -92.06324768066406, 92.00154113769531, -0.01600000075995922, -0.08000000566244125, 1.055999994277954, 0.0, 0.0, 0.0, 0.0, 0.0, 1.6213506573632512E9, 2021-05-18 17:10:57.363
82.0, 134.55038452148438, 8.300707817077637, -84.56100463867188, 81.98983001708984, -0.01600000075995922, -0.08000000566244125, 1.055999994277954, 0.0, 0.0, 0.0, 0.0, 0.0, 1.6213506573632512E9, 2021-05-18 17:10:57.363
83.0, 91.78836822509766, -100.1788330078125, -135.33389282226562, 18.228271484375, -0.01600000075995922, -0.08000000566244125, 1.055999994277954, 0.0, 0.0, 0.0, 0.0, 0.0, 1.6213506573789132E9, 2021-05-18 17:10:57.378
83.0, 110.7533950805664, -83.32310485839844, -121.38406372070312, 46.000770568847656, -0.01600000075995922, -0.08000000566244125, 1.055999994277954, 0.0, 0.0, 0.0, 0.0, 0.0, 1.6213506573789132E9, 2021-05-18 17:10:57.378
84.0, 145.38113403320312, -16.939876556396484, -81.74112701416016, 92.9888687133789, -0.01600000075995922, -0.08000000566244125, 1.055999994277954, 0.0, 0.0, 0.0, 0.0, 0.0, 1.62135065737959E9, 2021-05-18 17:10:57.379
84.0, 146.23756408691406, -6.367179870605469, -76.29582977294922, 77.7263412475586, -0.01600000075995922, -0.08000000566244125, 1.055999994277954, 0.0, 0.0, 0.0, 0.0, 0.0, 1.62135065737959E9, 2021-05-18 17:10:57.379
85.0, 105.53623962402344, -74.82978820800781, -123.02961730957031, 18.232011795043945, -0.01600000075995922, -0.08000000566244125, 1.055999994277954, 0.0, 0.0, 0.0, 0.0, 0.0, 1.621350657393324E9, 2021-05-18 17:10:57.393
85.0, 108.9245834350586, -39.35309600830078, -115.44509887695312, 37.873966217041016, -0.01600000075995922, -0.08000000566244125, 1.055999994277954, 0.0, 0.0, 0.0, 0.0, 0.0, 1.621350657393324E9, 2021-05-18 17:10:57.393
86.0, 141.02789306640625, -6.50929594039917, -79.4672622680664, 84.92190551757812, -0.01600000075995922, -0.08000000566244125, 1.055999994277954, 0.0, 0.0, 0.0, 0.0, 0.0, 1.6213506574088795E9, 2021-05-18 17:10:57.408
86.0, 161.2233428955078, -16.995975494384766, -69.30221557617188, 70.17174530029297, -0.01600000075995922, -0.08000000566244125, 1.055999994277954, 0.0, 0.0, 0.0, 0.0, 0.0, 1.6213506574088795E9, 2021-05-18 17:10:57.408
87.0, 91.63128662109375, -73.22163391113281, -128.8750762939453, -4.719753742218018, -0.01600000075995922, -0.08000000566244125, 1.055999994277954, 0.0, 0.0, 0.0, 0.0, 0.0, 1.621350657409601E9, 2021-05-18 17:10:57.409
87.0, 117.56375885009766, -40.841575622558594, -103.38018798828125, 27.907133102416992, -0.01600000075995922, -0.08000000566244125, 1.055999994277954, 0.0, 0.0, 0.0, 0.0, 0.0, 1.621350657409601E9, 2021-05-18 17:10:57.409
88.0, 133.6976776123047, 18.275020599365234, -76.71843719482422, 62.41144943237305, -0.01600000075995922, -0.08000000566244125, 1.055999994277954, 0.0, 0.0, 0.0, 0.0, 0.0, 1.621350657423201E9, 2021-05-18 17:10:57.423
88.0, 143.33914184570312, 11.741415977478027, -72.9598388671875, 60.33206558227539, -0.01600000075995922, -0.08000000566244125, 1.055999994277954, 0.0, 0.0, 0.0, 0.0, 0.0, 1.621350657423201E9, 2021-05-18 17:10:57.423
89.0, 93.27684783935547, -79.60189819335938, -123.93467712402344, 4.517799377441406, -0.01600000075995922, -0.08000000566244125, 1.055999994277954, 0.0, 0.0, 0.0, 0.0, 0.0, 1.6213506574389656E9, 2021-05-18 17:10:57.438
89.0, 99.9488296508789, -60.25539779663086, -124.35728454589844, 33.93959045410156, -0.01600000075995922, -0.08000000566244125, 1.055999994277954, 0.0, 0.0, 0.0, 0.0, 0.0, 1.6213506574389656E9, 2021-05-18 17:10:57.438
90.0, 128.60394287109375, -9.041208267211914, -92.13430786132812, 78.53790283203125, -0.01600000075995922, -0.08000000566244125, 1.055999994277954, 0.0, 0.0, 0.0, 0.0, 0.0, 1.6213506574396043E9, 2021-05-18 17:10:57.439
90.0, 135.9154510498047, -11.804994583129883, -89.89036560058594, 75.73297119140625, -0.01600000075995922, -0.08000000566244125, 1.055999994277954, 0.0, 0.0, 0.0, 0.0, 0.0, 1.6213506574396043E9, 2021-05-18 17:10:57.439
91.0, 85.62874603271484, -52.52128601074219, -130.1952667236328, 13.478599548339844, -0.01600000075995922, -0.08000000566244125, 1.055999994277954, 0.0, 0.0, 0.0, 0.0, 0.0, 1.621350657453241E9, 2021-05-18 17:10:57.453
91.0, 87.12844848632812, -76.8343734741211, -132.16993713378906, 33.969512939453125, -0.01600000075995922, -0.08000000566244125, 1.055999994277954, 0.0, 0.0, 0.0, 0.0, 0.0, 1.621350657453241E9, 2021-05-18 17:10:57.453
92.0, 130.55990600585938, -16.057260513305664, -95.54135131835938, 88.3289566040039, -0.01600000075995922, -0.08000000566244125, 1.055999994277954, 0.0, 0.0, 0.0, 0.0, 0.0, 1.6213506574689968E9, 2021-05-18 17:10:57.468
92.0, 132.7888946533203, -7.9379377365112305, -85.94103240966797, 81.67941284179688, -0.01600000075995922, -0.08000000566244125, 1.055999994277954, 0.0, 0.0, 0.0, 0.0, 0.0, 1.6213506574689968E9, 2021-05-18 17:10:57.468
93.0, 94.36515808105469, -76.95404815673828, -130.0232391357422, 21.4034481048584, -0.01600000075995922, -0.08000000566244125, 1.055999994277954, 0.0, 0.0, 0.0, 0.0, 0.0, 1.6213506574697676E9, 2021-05-18 17:10:57.469
93.0, 102.32366180419922, -53.48617935180664, -121.2195053100586, 40.170265197753906, -0.01600000075995922, -0.08000000566244125, 1.055999994277954, 0.0, 0.0, 0.0, 0.0, 0.0, 1.6213506574697676E9, 2021-05-18 17:10:57.469
94.0, 143.4999542236328, 2.7731359004974365, -77.58235168457031, 94.86630249023438, -0.01600000075995922, -0.08000000566244125, 1.055999994277954, 0.0, 0.0, 0.0, 0.0, 0.0, 1.6213506574997132E9, 2021-05-18 17:10:57.499
94.0, 140.9643096923828, -10.686763763427734, -64.17481231689453, 79.2970962524414, -0.01600000075995922, -0.08000000566244125, 1.055999994277954, 0.0, 0.0, 0.0, 0.0, 0.0, 1.6213506574997132E9, 2021-05-18 17:10:57.499
95.0, 103.25489807128906, -71.0711898803711, -121.3990249633789, 12.008818626403809, -0.01600000075995922, -0.08000000566244125, 1.055999994277954, 0.0, 0.0, 0.0, 0.0, 0.0, 1.621350657500276E9, 2021-05-18 17:10:57.500
95.0, 112.60839080810547, -41.73167419433594, -104.94346618652344, 42.4254264831543, -0.01600000075995922, -0.08000000566244125, 1.055999994277954, 0.0, 0.0, 0.0, 0.0, 0.0, 1.621350657500276E9, 2021-05-18 17:10:57.500
96.0, 140.88951110839844, 23.74649429321289, -67.55194091796875, 80.97257232666016, -0.01600000075995922, -0.08000000566244125, 1.055999994277954, 0.0, 0.0, 0.0, 0.0, 0.0, 1.621350657501181E9, 2021-05-18 17:10:57.501
96.0, 144.67054748535156, 2.541261911392212, -63.389434814453125, 64.45343780517578, -0.01600000075995922, -0.08000000566244125, 1.055999994277954, 0.0, 0.0, 0.0, 0.0, 0.0, 1.621350657501181E9, 2021-05-18 17:10:57.501
97.0, 106.28795623779297, -67.06575775146484, -117.81993865966797, -1.7614928483963013, -0.01600000075995922, -0.08000000566244125, 1.055999994277954, 0.0, 0.0, 0.0, 0.0, 0.0, 1.6213506575131633E9, 2021-05-18 17:10:57.513
97.0, 117.62733459472656, -45.46035385131836, -115.11225128173828, 20.22911834716797, -0.01600000075995922, -0.08000000566244125, 1.055999994277954, 0.0, 0.0, 0.0, 0.0, 0.0, 1.6213506575131633E9, 2021-05-18 17:10:57.513
98.0, 136.49887084960938, 10.982215881347656, -82.02161407470703, 67.01152801513672, -0.01600000075995922, -0.08000000566244125, 1.055999994277954, 0.0, 0.0, 0.0, 0.0, 0.0, 1.621350657528882E9, 2021-05-18 17:10:57.528
98.0, 142.59117126464844, -4.4037322998046875, -76.77079772949219, 63.39878463745117, -0.01600000075995922, -0.08000000566244125, 1.055999994277954, 0.0, 0.0, 0.0, 0.0, 0.0, 1.621350657528882E9, 2021-05-18 17:10:57.528
99.0, 94.27913665771484, -65.23694610595703, -126.3543930053711, 4.757152557373047, -0.01600000075995922, -0.08000000566244125, 1.055999994277954, 0.0, 0.0, 0.0, 0.0, 0.0, 1.6213506575295937E9, 2021-05-18 17:10:57.529
99.0, 108.23270416259766, -49.79863739013672, -121.65707397460938, 28.30356216430664, -0.01600000075995922, -0.08000000566244125, 1.055999994277954, 0.0, 0.0, 0.0, 0.0, 0.0, 1.6213506575295937E9, 2021-05-18 17:10:57.529
100.0, 138.21922302246094, 6.539215087890625, -91.36014556884766, 88.97969818115234, -0.01600000075995922, -0.08000000566244125, 1.055999994277954, 0.0, 0.0, 0.0, 0.0, 0.0, 1.6213506575439112E9, 2021-05-18 17:10:57.543
100.0, 142.79312133789062, -21.45767593383789, -83.79058837890625, 73.1935806274414, -0.01600000075995922, -0.08000000566244125, 1.055999994277954, 0.0, 0.0, 0.0, 0.0, 0.0, 1.6213506575439112E9, 2021-05-18 17:10:57.543
0.0, 93.69010162353516, -71.18899536132812, -137.88824462890625, 14.744555473327637, -0.01600000075995922, -0.08000000566244125, 1.055999994277954, 0.0, 0.0, 0.0, 0.0, 0.0, 1.621350657544602E9, 2021-05-18 17:10:57.544
1.0, 103.78783416748047, -58.159183502197266, -130.21771240234375, 40.359130859375, -0.01600000075995922, -0.09600000083446503, 1.055999994277954, 0.0, 0.0, 0.0, 0.0, 0.0, 1.6213506575582092E9, 2021-05-18 17:10:57.558
1.0, 134.48118591308594, 24.4252872467041, -94.4979248046875, 83.68212890625, -0.01600000075995922, -0.09600000083446503, 1.055999994277954, 0.0, 0.0, 0.0, 0.0, 0.0, 1.6213506575582092E9, 2021-05-18 17:10:57.558
2.0, 150.6637420654297, -30.951412200927734, -86.06444549560547, 74.68767547607422, -0.01600000075995922, -0.09600000083446503, 1.055999994277954, 0.0, 0.0, 0.0, 0.0, 0.0, 1.6213506575739615E9, 2021-05-18 17:10:57.573
2.0, 105.79989624023438, -83.84107971191406, -127.18464660644531, 14.39300537109375, -0.01600000075995922, -0.09600000083446503, 1.055999994277954, 0.0, 0.0, 0.0, 0.0, 0.0, 1.6213506575739615E9, 2021-05-18 17:10:57.573
3.0, 108.89653778076172, -48.73837661743164, -120.89039611816406, 33.04762649536133, -0.01600000075995922, -0.09600000083446503, 1.055999994277954, 0.0, 0.0, 0.0, 0.0, 0.0, 1.621350657574634E9, 2021-05-18 17:10:57.574
3.0, 146.01504516601562, 10.198707580566406, -85.09580993652344, 80.03572845458984, -0.01600000075995922, -0.09600000083446503, 1.055999994277954, 0.0, 0.0, 0.0, 0.0, 0.0, 1.621350657574634E9, 2021-05-18 17:10:57.574
4.0, 156.46432495117188, -9.346010208129883, -74.85596466064453, 70.95899200439453, -0.01600000075995922, -0.09600000083446503, 1.055999994277954, 0.0, 0.0, 0.0, 0.0, 0.0, 1.6213506575882363E9, 2021-05-18 17:10:57.588
4.0, 107.1051254272461, -80.53500366210938, -127.9625473022461, 11.490842819213867, -0.01600000075995922, -0.09600000083446503, 1.055999994277954, 0.0, 0.0, 0.0, 0.0, 0.0, 1.6213506575882363E9, 2021-05-18 17:10:57.588
5.0, 115.50494384765625, -43.48755645751953, -120.2733154296875, 34.05365753173828, -0.01600000075995922, -0.09600000083446503, 1.055999994277954, 0.0, 0.0, 0.0, 0.0, 0.0, 1.6213506576046371E9, 2021-05-18 17:10:57.604
5.0, 138.52401733398438, 17.40175437927246, -77.60853576660156, 87.42577362060547, -0.01600000075995922, -0.09600000083446503, 1.055999994277954, 0.0, 0.0, 0.0, 0.0, 0.0, 1.6213506576046371E9, 2021-05-18 17:10:57.604
6.0, 149.28372192382812, -15.419607162475586, -64.6273422241211, 74.5866928100586, -0.01600000075995922, -0.09600000083446503, 1.055999994277954, 0.0, 0.0, 0.0, 0.0, 0.0, 1.6213506576053345E9, 2021-05-18 17:10:57.605
6.0, 105.00704193115234, -78.96051025390625, -119.45801544189453, 5.488303184509277, -0.01600000075995922, -0.09600000083446503, 1.055999994277954, 0.0, 0.0, 0.0, 0.0, 0.0, 1.6213506576053345E9, 2021-05-18 17:10:57.605
7.0, 111.64910125732422, -60.257266998291016, -109.68939208984375, 26.981508255004883, -0.01600000075995922, -0.09600000083446503, 1.055999994277954, 0.0, 0.0, 0.0, 0.0, 0.0, 1.621350657618224E9, 2021-05-18 17:10:57.618
7.0, 137.2225341796875, 8.586810111999512, -75.41321563720703, 70.42418670654297, -0.01600000075995922, -0.09600000083446503, 1.055999994277954, 0.0, 0.0, 0.0, 0.0, 0.0, 1.621350657618224E9, 2021-05-18 17:10:57.618
8.0, 145.94772338867188, -1.5183993577957153, -65.90638732910156, 61.88973617553711, -0.01600000075995922, -0.09600000083446503, 1.055999994277954, 0.0, 0.0, 0.0, 0.0, 0.0, 1.6213506576341224E9, 2021-05-18 17:10:57.634
8.0, 98.694091796875, -65.54548645019531, -125.87567901611328, -0.2000846415758133, -0.01600000075995922, -0.09600000083446503, 1.055999994277954, 0.0, 0.0, 0.0, 0.0, 0.0, 1.6213506576341224E9, 2021-05-18 17:10:57.634
9.0, 101.09136199951172, -51.2403678894043, -126.40674591064453, 18.189002990722656, -0.01600000075995922, -0.09600000083446503, 1.055999994277954, 0.0, 0.0, 0.0, 0.0, 0.0, 1.6213506576346028E9, 2021-05-18 17:10:57.634
9.0, 140.18453979492188, 18.041276931762695, -83.46147918701172, 75.3122329711914, -0.01600000075995922, -0.09600000083446503, 1.055999994277954, 0.0, 0.0, 0.0, 0.0, 0.0, 1.6213506576346028E9, 2021-05-18 17:10:57.634
10.0, 140.4538116455078, 24.11487579345703, -85.76899719238281, 66.6207046508789, -0.01600000075995922, -0.09600000083446503, 1.055999994277954, 0.0, 0.0, 0.0, 0.0, 0.0, 1.6213506576482017E9, 2021-05-18 17:10:57.648
10.0, 98.46221923828125, -75.38516235351562, -140.37527465820312, 5.922131538391113, -0.01600000075995922, -0.09600000083446503, 1.055999994277954, 0.0, 0.0, 0.0, 0.0, 0.0, 1.6213506576482017E9, 2021-05-18 17:10:57.648
11.0, 99.539306640625, -40.03936767578125, -135.97715759277344, 33.04762649536133, -0.01600000075995922, -0.09600000083446503, 1.055999994277954, 0.0, 0.0, 0.0, 0.0, 0.0, 1.6213506576640155E9, 2021-05-18 17:10:57.664
11.0, 138.202392578125, -17.053943634033203, -96.28185272216797, 85.88493347167969, -0.01600000075995922, -0.09600000083446503, 1.055999994277954, 0.0, 0.0, 0.0, 0.0, 0.0, 1.6213506576640155E9, 2021-05-18 17:10:57.664
12.0, 145.5849609375, -21.69890022277832, -78.29667663574219, 84.89759826660156, -0.01600000075995922, -0.09600000083446503, 1.055999994277954, 0.0, 0.0, 0.0, 0.0, 0.0, 1.6213506576647925E9, 2021-05-18 17:10:57.664
12.0, 100.17508697509766, -65.90825653076172, -128.51231384277344, 27.621030807495117, -0.01600000075995922, -0.09600000083446503, 1.055999994277954, 0.0, 0.0, 0.0, 0.0, 0.0, 1.6213506576647925E9, 2021-05-18 17:10:57.664
13.0, 106.40202331542969, -54.01537322998047, -117.35619354248047, 41.45117950439453, -0.01600000075995922, -0.09600000083446503, 1.055999994277954, 0.0, 0.0, 0.0, 0.0, 0.0, 1.6213506576782067E9, 2021-05-18 17:10:57.678
13.0, 144.4854278564453, -4.072751045227051, -87.8147201538086, 89.7632064819336, -0.01600000075995922, -0.09600000083446503, 1.055999994277954, 0.0, 0.0, 0.0, 0.0, 0.0, 1.6213506576782067E9, 2021-05-18 17:10:57.678
14.0, 143.5990753173828, -7.090850353240967, -74.43335723876953, 78.95489501953125, -0.01600000075995922, -0.09600000083446503, 1.055999994277954, 0.0, 0.0, 0.0, 0.0, 0.0, 1.6213506576940317E9, 2021-05-18 17:10:57.694
14.0, 99.9207763671875, -95.2365493774414, -120.52014923095703, 20.773273468017578, -0.01600000075995922, -0.09600000083446503, 1.055999994277954, 0.0, 0.0, 0.0, 0.0, 0.0, 1.6213506576940317E9, 2021-05-18 17:10:57.694
15.0, 110.22420501708984, -44.403831481933594, -108.7132797241211, 41.26044464111328, -0.01600000075995922, -0.09600000083446503, 1.055999994277954, 0.0, 0.0, 0.0, 0.0, 0.0, 1.6213506576947265E9, 2021-05-18 17:10:57.694
15.0, 146.86773681640625, -8.777544975280762, -73.22537231445312, 88.67863464355469, -0.01600000075995922, -0.09600000083446503, 1.055999994277954, 0.0, 0.0, 0.0, 0.0, 0.0, 1.6213506576947265E9, 2021-05-18 17:10:57.694
16.0, 149.87088012695312, -17.872982025146484, -68.62529754638672, 74.37351989746094, -0.01600000075995922, -0.09600000083446503, 1.055999994277954, 0.0, 0.0, 0.0, 0.0, 0.0, 1.6213506577082336E9, 2021-05-18 17:10:57.708
16.0, 99.90956115722656, -63.690494537353516, -119.45801544189453, 8.300707817077637, -0.01600000075995922, -0.09600000083446503, 1.055999994277954, 0.0, 0.0, 0.0, 0.0, 0.0, 1.6213506577082336E9, 2021-05-18 17:10:57.708
17.0, 106.25242614746094, -58.967002868652344, -107.09764862060547, 31.921916961669922, -0.01600000075995922, -0.09600000083446503, 1.055999994277954, 0.0, 0.0, 0.0, 0.0, 0.0, 1.621350657723951E9, 2021-05-18 17:10:57.723
17.0, 141.3887939453125, -4.674874782562256, -78.00870513916016, 73.3001708984375, -0.01600000075995922, -0.09600000083446503, 1.055999994277954, 0.0, 0.0, 0.0, 0.0, 0.0, 1.621350657723951E9, 2021-05-18 17:10:57.723
18.0, 149.33981323242188, -16.515398025512695, -68.22886657714844, 61.35492706298828, -0.01600000075995922, -0.09600000083446503, 1.055999994277954, 0.0, 0.0, 0.0, 0.0, 0.0, 1.6213506577248368E9, 2021-05-18 17:10:57.724
18.0, 102.73692321777344, -100.05728149414062, -118.09294891357422, 13.895598411560059, -0.01600000075995922, -0.09600000083446503, 1.055999994277954, 0.0, 0.0, 0.0, 0.0, 0.0, 1.6213506577248368E9, 2021-05-18 17:10:57.724
19.0, 110.9646987915039, -51.6218376159668, -110.9833984375, 39.9888801574707, -0.01600000075995922, -0.09600000083446503, 1.055999994277954, 0.0, 0.0, 0.0, 0.0, 0.0, 1.6213506577383852E9, 2021-05-18 17:10:57.738
19.0, 149.3211212158203, -4.383162975311279, -71.9575424194336, 89.97264099121094, -0.01600000075995922, -0.09600000083446503, 1.055999994277954, 0.0, 0.0, 0.0, 0.0, 0.0, 1.6213506577383852E9, 2021-05-18 17:10:57.738
20.0, 146.90139770507812, -11.245879173278809, -64.5488052368164, 92.38861846923828, -0.01600000075995922, -0.09600000083446503, 1.055999994277954, 0.0, 0.0, 0.0, 0.0, 0.0, 1.6213506577539368E9, 2021-05-18 17:10:57.753
20.0, 94.6400375366211, -56.51362991333008, -130.85348510742188, 17.549480438232422, -0.01600000075995922, -0.09600000083446503, 1.055999994277954, 0.0, 0.0, 0.0, 0.0, 0.0, 1.6213506577539368E9, 2021-05-18 17:10:57.753
21.0, 110.16810607910156, -49.35919952392578, -121.65333557128906, 45.486534118652344, -0.01600000075995922, -0.09600000083446503, 1.055999994277954, 0.0, 0.0, 0.0, 0.0, 0.0, 1.621350657754594E9, 2021-05-18 17:10:57.754
21.0, 138.0341033935547, -16.549057006835938, -86.1280288696289, 94.52410125732422, -0.01600000075995922, -0.09600000083446503, 1.055999994277954, 0.0, 0.0, 0.0, 0.0, 0.0, 1.621350657754594E9, 2021-05-18 17:10:57.754
22.0, 154.47470092773438, 4.405601978302002, -84.52360534667969, 91.98844909667969, -0.01600000075995922, -0.09600000083446503, 1.055999994277954, 0.0, 0.0, 0.0, 0.0, 0.0, 1.6213506578017228E9, 2021-05-18 17:10:57.801
22.0, 103.82149505615234, -71.44330596923828, -144.6088409423828, 21.581092834472656, -0.01600000075995922, -0.09600000083446503, 1.055999994277954, 0.0, 0.0, 0.0, 0.0, 0.0, 1.6213506578017228E9, 2021-05-18 17:10:57.801
23.0, 113.88556671142578, -54.40058517456055, -129.6903839111328, 44.009273529052734, -0.01600000075995922, -0.09600000083446503, 1.055999994277954, 0.0, 0.0, 0.0, 0.0, 0.0, 1.6213506578024805E9, 2021-05-18 17:10:57.802
23.0, 149.7661590576172, -16.683692932128906, -97.37764739990234, 91.23673248291016, -0.01600000075995922, -0.09600000083446503, 1.055999994277954, 0.0, 0.0, 0.0, 0.0, 0.0, 1.6213506578024805E9, 2021-05-18 17:10:57.802
24.0, 156.77847290039062, -18.606002807617188, -83.12862396240234, 89.96890258789062, -0.01600000075995922, -0.09600000083446503, 1.055999994277954, 0.0, 0.0, 0.0, 0.0, 0.0, 1.6213506578032358E9, 2021-05-18 17:10:57.803
24.0, 106.77601623535156, -75.38890075683594, -129.9334716796875, 25.766040802001953, -0.01600000075995922, -0.09600000083446503, 1.055999994277954, 0.0, 0.0, 0.0, 0.0, 0.0, 1.6213506578032358E9, 2021-05-18 17:10:57.803
25.0, 115.31794738769531, -38.98097610473633, -127.51750183105469, 49.45830535888672, -0.01600000075995922, -0.09600000083446503, 1.055999994277954, 0.0, 0.0, 0.0, 0.0, 0.0, 1.6213506578039896E9, 2021-05-18 17:10:57.803
25.0, 143.6626434326172, 9.95935344696045, -88.6599349975586, 87.54918670654297, -0.01600000075995922, -0.09600000083446503, 1.055999994277954, 0.0, 0.0, 0.0, 0.0, 0.0, 1.6213506578039896E9, 2021-05-18 17:10:57.803
26.0, 158.1173553466797, -19.866348266601562, -87.21260070800781, 76.39680480957031, -0.01600000075995922, -0.09600000083446503, 1.055999994277954, 0.0, 0.0, 0.0, 0.0, 0.0, 1.621350657813944E9, 2021-05-18 17:10:57.813
26.0, 103.88133239746094, -90.32232666015625, -136.6802520751953, 14.766995429992676, -0.01600000075995922, -0.09600000083446503, 1.055999994277954, 0.0, 0.0, 0.0, 0.0, 0.0, 1.621350657813944E9, 2021-05-18 17:10:57.813
27.0, 108.66840362548828, -45.75019454956055, -125.80088806152344, 36.78004455566406, -0.01600000075995922, -0.09600000083446503, 1.055999994277954, 0.0, 0.0, 0.0, 0.0, 0.0, 1.62135065781467E9, 2021-05-18 17:10:57.814
27.0, 132.37562561035156, 23.74088478088379, -88.56644439697266, 85.84379577636719, -0.01600000075995922, -0.09600000083446503, 1.055999994277954, 0.0, 0.0, 0.0, 0.0, 0.0, 1.62135065781467E9, 2021-05-18 17:10:57.814
28.0, 142.1405029296875, -7.348903179168701, -89.91280364990234, 81.23997497558594, -0.01600000075995922, -0.09600000083446503, 1.055999994277954, 0.0, 0.0, 0.0, 0.0, 0.0, 1.6213506578283916E9, 2021-05-18 17:10:57.828
28.0, 98.00968933105469, -59.628963470458984, -139.45899963378906, 18.218923568725586, -0.01600000075995922, -0.09600000083446503, 1.055999994277954, 0.0, 0.0, 0.0, 0.0, 0.0, 1.6213506578283916E9, 2021-05-18 17:10:57.828
29.0, 112.09040832519531, -63.39878463745117, -131.82212829589844, 45.718406677246094, -0.01600000075995922, -0.09600000083446503, 1.055999994277954, 0.0, 0.0, 0.0, 0.0, 0.0, 1.6213506578595777E9, 2021-05-18 17:10:57.859
29.0, 144.728515625, -18.849096298217773, -98.30513763427734, 93.4956283569336, -0.01600000075995922, -0.09600000083446503, 1.055999994277954, 0.0, 0.0, 0.0, 0.0, 0.0, 1.6213506578595777E9, 2021-05-18 17:10:57.859
30.0, 145.37551879882812, -0.4861869812011719, -93.00569915771484, 84.620849609375, -0.01600000075995922, -0.09600000083446503, 1.055999994277954, 0.0, 0.0, 0.0, 0.0, 0.0, 1.6213506578750644E9, 2021-05-18 17:10:57.875
30.0, 97.82643127441406, -62.033721923828125, -144.0852508544922, 28.627063751220703, -0.01600000075995922, -0.09600000083446503, 1.055999994277954, 0.0, 0.0, 0.0, 0.0, 0.0, 1.6213506578750644E9, 2021-05-18 17:10:57.875
31.0, 116.67926788330078, -63.39878463745117, -136.160400390625, 47.43128204345703, -0.01600000075995922, -0.09600000083446503, 1.055999994277954, 0.0, 0.0, 0.0, 0.0, 0.0, 1.6213506578757777E9, 2021-05-18 17:10:57.875
31.0, 146.41146850585938, -15.741238594055176, -96.17713928222656, 88.95539093017578, -0.01600000075995922, -0.09600000083446503, 1.055999994277954, 0.0, 0.0, 0.0, 0.0, 0.0, 1.6213506578757777E9, 2021-05-18 17:10:57.875
32.0, 160.6305694580078, -27.080615997314453, -80.39476013183594, 87.16024017333984, -0.01600000075995922, -0.09600000083446503, 1.055999994277954, 0.0, 0.0, 0.0, 0.0, 0.0, 1.6213506578764565E9, 2021-05-18 17:10:57.876
32.0, 107.61749267578125, -70.41109466552734, -137.53294372558594, 16.22181510925293, -0.01600000075995922, -0.09600000083446503, 1.055999994277954, 0.0, 0.0, 0.0, 0.0, 0.0, 1.6213506578764565E9, 2021-05-18 17:10:57.876
33.0, 113.80702209472656, -49.54993438720703, -129.3350830078125, 34.644561767578125, -0.01600000075995922, -0.09600000083446503, 1.055999994277954, 0.0, 0.0, 0.0, 0.0, 0.0, 1.6213506578888545E9, 2021-05-18 17:10:57.888
33.0, 150.84326171875, -0.2730126976966858, -93.06179809570312, 85.8699722290039, -0.01600000075995922, -0.09600000083446503, 1.055999994277954, 0.0, 0.0, 0.0, 0.0, 0.0, 1.6213506578888545E9, 2021-05-18 17:10:57.888
34.0, 154.07826232910156, -31.916305541992188, -78.89505767822266, 78.69310760498047, -0.01600000075995922, -0.09600000083446503, 1.055999994277954, 0.0, 0.0, 0.0, 0.0, 0.0, 1.6213506578895705E9, 2021-05-18 17:10:57.889
34.0, 112.85709381103516, -72.27356719970703, -128.57589721679688, 13.140138626098633, -0.01600000075995922, -0.09600000083446503, 1.055999994277954, 0.0, 0.0, 0.0, 0.0, 0.0, 1.6213506578895705E9, 2021-05-18 17:10:57.889
35.0, 117.20659637451172, -27.615421295166016, -120.0339584350586, 39.2670783996582, -0.01600000075995922, -0.09600000083446503, 1.055999994277954, 0.0, 0.0, 0.0, 0.0, 0.0, 1.6213506579202726E9, 2021-05-18 17:10:57.920
35.0, 145.64479064941406, 19.69805335998535, -86.47209930419922, 80.53687286376953, -0.01600000075995922, -0.09600000083446503, 1.055999994277954, 0.0, 0.0, 0.0, 0.0, 0.0, 1.6213506579202726E9, 2021-05-18 17:10:57.920
36.0, 155.11422729492188, -4.7721123695373535, -77.73568725585938, 73.79757690429688, -0.01600000075995922, -0.09600000083446503, 1.055999994277954, 0.0, 0.0, 0.0, 0.0, 0.0, 1.6213506579210129E9, 2021-05-18 17:10:57.921
36.0, 105.24639129638672, -61.30818176269531, -124.73875427246094, 15.040007591247559, -0.01600000075995922, -0.09600000083446503, 1.055999994277954, 0.0, 0.0, 0.0, 0.0, 0.0, 1.6213506579210129E9, 2021-05-18 17:10:57.921
37.0, 111.05445861816406, -49.6957893371582, -123.17921447753906, 34.48000717163086, -0.01600000075995922, -0.09600000083446503, 1.055999994277954, 0.0, 0.0, 0.0, 0.0, 0.0, 1.6213506579217312E9, 2021-05-18 17:10:57.921
37.0, 134.78038024902344, 38.6930046081543, -88.11017608642578, 85.806396484375, -0.01600000075995922, -0.09600000083446503, 1.055999994277954, 0.0, 0.0, 0.0, 0.0, 0.0, 1.6213506579217312E9, 2021-05-18 17:10:57.921
38.0, 136.3399200439453, 3.612743377685547, -76.36314392089844, 88.0353775024414, -0.01600000075995922, -0.09600000083446503, 1.055999994277954, 0.0, 0.0, 0.0, 0.0, 0.0, 1.6213506579224603E9, 2021-05-18 17:10:57.922
38.0, 82.7733383178711, -63.567081451416016, -137.67132568359375, 22.10841941833496, -0.01600000075995922, -0.09600000083446503, 1.055999994277954, 0.0, 0.0, 0.0, 0.0, 0.0, 1.6213506579224603E9, 2021-05-18 17:10:57.922
39.0, 101.18486022949219, -41.42313003540039, -124.04312896728516, 47.30412292480469, -0.01600000075995922, -0.09600000083446503, 1.055999994277954, 0.0, 0.0, 0.0, 0.0, 0.0, 1.6213506579332583E9, 2021-05-18 17:10:57.933
39.0, 136.841064453125, -9.44698715209961, -92.78878784179688, 92.12308502197266, -0.01600000075995922, -0.09600000083446503, 1.055999994277954, 0.0, 0.0, 0.0, 0.0, 0.0, 1.6213506579332583E9, 2021-05-18 17:10:57.933
40.0, 140.73805236816406, 0.508626401424408, -85.14069366455078, 74.08928680419922, -0.01600000075995922, -0.09600000083446503, 1.040000081062317, 0.0, 0.0, 0.0, 0.0, 0.0, 1.6213506579481595E9, 2021-05-18 17:10:57.948
40.0, 90.33541107177734, -70.28019714355469, -136.24642944335938, 5.761315822601318, -0.01600000075995922, -0.09600000083446503, 1.040000081062317, 0.0, 0.0, 0.0, 0.0, 0.0, 1.6213506579481595E9, 2021-05-18 17:10:57.948
41.0, 119.2710189819336, -36.80061721801758, -120.23591613769531, 33.31315994262695, -0.01600000075995922, -0.08000000566244125, 1.040000081062317, 0.0, 0.0, 0.0, 0.0, 0.0, 1.6213506579646912E9, 2021-05-18 17:10:57.964
41.0, 143.284912109375, 12.68574047088623, -91.56210327148438, 80.45085906982422, -0.01600000075995922, -0.08000000566244125, 1.040000081062317, 0.0, 0.0, 0.0, 0.0, 0.0, 1.6213506579646912E9, 2021-05-18 17:10:57.964
42.0, 149.9456787109375, -0.5161061882972717, -75.6525650024414, 78.26301574707031, -0.03200000151991844, -0.08000000566244125, 1.040000081062317, 0.0, 0.0, 0.0, 0.0, 0.0, 1.6213506579653077E9, 2021-05-18 17:10:57.965
42.0, 103.11090850830078, -57.639339447021484, -130.7113800048828, 20.174890518188477, -0.03200000151991844, -0.08000000566244125, 1.040000081062317, 0.0, 0.0, 0.0, 0.0, 0.0, 1.6213506579653077E9, 2021-05-18 17:10:57.965
43.0, 116.75032806396484, -46.52061462402344, -125.7560043334961, 40.16465377807617, -0.03200000151991844, -0.08000000566244125, 1.040000081062317, 0.0, 0.0, 0.0, 0.0, 0.0, 1.621350657978181E9, 2021-05-18 17:10:57.978
43.0, 149.71754455566406, 25.364002227783203, -83.0762710571289, 90.20077514648438, -0.03200000151991844, -0.08000000566244125, 1.040000081062317, 0.0, 0.0, 0.0, 0.0, 0.0, 1.621350657978181E9, 2021-05-18 17:10:57.978
44.0, 138.49411010742188, 8.762585639953613, -80.72760772705078, 80.25263977050781, -0.03200000151991844, -0.08000000566244125, 1.040000081062317, 0.0, 0.0, 0.0, 0.0, 0.0, 1.6213506579940565E9, 2021-05-18 17:10:57.994
44.0, 96.992431640625, -77.80487823486328, -135.21047973632812, 15.612212181091309, -0.03200000151991844, -0.08000000566244125, 1.040000081062317, 0.0, 0.0, 0.0, 0.0, 0.0, 1.6213506579940565E9, 2021-05-18 17:10:57.994
45.0, 97.04479217529297, -28.340961456298828, -118.7474365234375, 41.12955093383789, -0.03200000151991844, -0.08000000566244125, 1.040000081062317, 0.0, 0.0, 0.0, 0.0, 0.0, 1.621350657994733E9, 2021-05-18 17:10:57.994
45.0, 131.8445587158203, 16.141408920288086, -89.3218994140625, 75.51792907714844, -0.03200000151991844, -0.08000000566244125, 1.040000081062317, 0.0, 0.0, 0.0, 0.0, 0.0, 1.621350657994733E9, 2021-05-18 17:10:57.994
46.0, 148.55068969726562, 5.108703136444092, -82.17121124267578, 63.73350524902344, -0.03200000151991844, -0.08000000566244125, 1.040000081062317, 0.0, 0.0, 0.0, 0.0, 0.0, 1.6213506580082147E9, 2021-05-18 17:10:58.008
46.0, 99.3971939086914, -47.335914611816406, -131.99789428710938, 7.7247633934021, -0.03200000151991844, -0.08000000566244125, 1.040000081062317, 0.0, 0.0, 0.0, 0.0, 0.0, 1.6213506580082147E9, 2021-05-18 17:10:58.008
47.0, 93.37969207763672, -51.54704284667969, -132.03529357910156, 28.47372817993164, -0.03200000151991844, -0.08000000566244125, 1.040000081062317, 0.0, 0.0, 0.0, 0.0, 0.0, 1.6213506580403144E9, 2021-05-18 17:10:58.040
47.0, 143.0380859375, 1.3239245414733887, -89.2396240234375, 90.09232330322266, -0.03200000151991844, -0.08000000566244125, 1.040000081062317, 0.0, 0.0, 0.0, 0.0, 0.0, 1.6213506580403144E9, 2021-05-18 17:10:58.040
48.0, 139.44029235839844, -8.321277618408203, -81.59900665283203, 81.96177673339844, -0.03200000151991844, -0.08000000566244125, 1.040000081062317, 0.0, 0.0, 0.0, 0.0, 0.0, 1.6213506580410244E9, 2021-05-18 17:10:58.041
48.0, 90.29801177978516, -93.46383666992188, -136.78123474121094, 27.56867218017578, -0.03200000151991844, -0.08000000566244125, 1.040000081062317, 0.0, 0.0, 0.0, 0.0, 0.0, 1.6213506580410244E9, 2021-05-18 17:10:58.041
49.0, 102.77432250976562, -52.87844467163086, -124.78736877441406, 56.02183151245117, -0.03200000151991844, -0.08000000566244125, 1.040000081062317, 0.0, 0.0, 0.0, 0.0, 0.0, 1.621350658041773E9, 2021-05-18 17:10:58.041
49.0, 136.34365844726562, -1.062131643295288, -84.90507507324219, 99.14661407470703, -0.03200000151991844, -0.08000000566244125, 1.040000081062317, 0.0, 0.0, 0.0, 0.0, 0.0, 1.621350658041773E9, 2021-05-18 17:10:58.041
50.0, 135.38624572753906, 3.077937602996826, -78.27049255371094, 91.23298645019531, -0.03200000151991844, -0.08000000566244125, 1.040000081062317, 0.0, 0.0, 0.0, 0.0, 0.0, 1.6213506580425024E9, 2021-05-18 17:10:58.042
50.0, 97.38138580322266, -76.85868072509766, -131.36212158203125, 20.14497184753418, -0.03200000151991844, -0.08000000566244125, 1.040000081062317, 0.0, 0.0, 0.0, 0.0, 0.0, 1.6213506580425024E9, 2021-05-18 17:10:58.042
51.0, 109.6146011352539, -45.35376739501953, -123.07823944091797, 38.25730514526367, -0.03200000151991844, -0.08000000566244125, 1.040000081062317, 0.0, 0.0, 0.0, 0.0, 0.0, 1.6213506580532105E9, 2021-05-18 17:10:58.053
51.0, 140.9998321533203, -6.275552272796631, -84.6844253540039, 76.08639526367188, -0.03200000151991844, -0.08000000566244125, 1.040000081062317, 0.0, 0.0, 0.0, 0.0, 0.0, 1.6213506580532105E9, 2021-05-18 17:10:58.053
52.0, 156.66253662109375, 6.44384765625, -65.86898803710938, 67.07323455810547, -0.01600000075995922, -0.08000000566244125, 1.040000081062317, 0.0, 0.0, 0.0, 0.0, 0.0, 1.6213506580682433E9, 2021-05-18 17:10:58.068
52.0, 106.73113250732422, -64.95458221435547, -121.23072814941406, -10.03602123260498, -0.01600000075995922, -0.08000000566244125, 1.040000081062317, 0.0, 0.0, 0.0, 0.0, 0.0, 1.6213506580682433E9, 2021-05-18 17:10:58.068
53.0, 120.68843841552734, -30.083755493164062, -115.83405303955078, 17.672897338867188, -0.01600000075995922, -0.08000000566244125, 1.040000081062317, 0.0, 0.0, 0.0, 0.0, 0.0, 1.6213506580846205E9, 2021-05-18 17:10:58.084
53.0, 144.04037475585938, 29.840662002563477, -83.16228485107422, 68.71131134033203, -0.01600000075995922, -0.08000000566244125, 1.040000081062317, 0.0, 0.0, 0.0, 0.0, 0.0, 1.6213506580846205E9, 2021-05-18 17:10:58.084
54.0, 157.84434509277344, 15.718799591064453, -64.1261978149414, 77.75064849853516, -0.01600000075995922, -0.08000000566244125, 1.040000081062317, 0.0, 0.0, 0.0, 0.0, 0.0, 1.6213506580852902E9, 2021-05-18 17:10:58.085
54.0, 103.51107788085938, -83.74009704589844, -126.39179229736328, 4.112020015716553, -0.01600000075995922, -0.08000000566244125, 1.040000081062317, 0.0, 0.0, 0.0, 0.0, 0.0, 1.6213506580852902E9, 2021-05-18 17:10:58.085
55.0, 103.57839965820312, -30.390426635742188, -120.51640319824219, 32.15005111694336, -0.01600000075995922, -0.08000000566244125, 1.040000081062317, 0.0, 0.0, 0.0, 0.0, 0.0, 1.6213506580984025E9, 2021-05-18 17:10:58.098
55.0, 138.73345947265625, 23.071443557739258, -79.95719146728516, 81.77104187011719, -0.01600000075995922, -0.08000000566244125, 1.040000081062317, 0.0, 0.0, 0.0, 0.0, 0.0, 1.6213506580984025E9, 2021-05-18 17:10:58.098
56.0, 140.7455291748047, -7.558337688446045, -72.45121002197266, 75.04296112060547, -0.01600000075995922, -0.08000000566244125, 1.040000081062317, 0.0, 0.0, 0.0, 0.0, 0.0, 1.6213506581138508E9, 2021-05-18 17:10:58.113
56.0, 78.5397720336914, -70.28768157958984, -131.2574005126953, 8.775674819946289, -0.01600000075995922, -0.08000000566244125, 1.040000081062317, 0.0, 0.0, 0.0, 0.0, 0.0, 1.6213506581138508E9, 2021-05-18 17:10:58.113
57.0, 96.33421325683594, -16.13766860961914, -119.68614959716797, 38.661216735839844, -0.01600000075995922, -0.08000000566244125, 1.040000081062317, 0.0, 0.0, 0.0, 0.0, 0.0, 1.6213506581145873E9, 2021-05-18 17:10:58.114
57.0, 127.45765686035156, -6.208233833312988, -90.64956665039062, 89.5612564086914, -0.01600000075995922, -0.08000000566244125, 1.040000081062317, 0.0, 0.0, 0.0, 0.0, 0.0, 1.6213506581145873E9, 2021-05-18 17:10:58.114
58.0, 129.48094177246094, -16.014251708984375, -80.36109924316406, 95.16736602783203, -0.01600000075995922, -0.08000000566244125, 1.040000081062317, 0.0, 0.0, 0.0, 0.0, 0.0, 1.621350658128364E9, 2021-05-18 17:10:58.128
58.0, 76.3743667602539, -64.89848327636719, -135.2852783203125, 24.139184951782227, -0.01600000075995922, -0.08000000566244125, 1.040000081062317, 0.0, 0.0, 0.0, 0.0, 0.0, 1.621350658128364E9, 2021-05-18 17:10:58.128
59.0, 90.39524841308594, -51.46102523803711, -125.40071868896484, 50.75605392456055, -0.01600000075995922, -0.08000000566244125, 1.040000081062317, 0.0, 0.0, 0.0, 0.0, 0.0, 1.621350658143879E9, 2021-05-18 17:10:58.143
59.0, 134.4737091064453, 7.4349212646484375, -88.71603393554688, 96.92511749267578, -0.01600000075995922, -0.08000000566244125, 1.040000081062317, 0.0, 0.0, 0.0, 0.0, 0.0, 1.621350658143879E9, 2021-05-18 17:10:58.143
60.0, 147.50726318359375, -19.107149124145508, -79.01099395751953, 85.85875701904297, -0.01600000075995922, -0.08000000566244125, 1.055999994277954, 0.0, 0.0, 0.0, 0.0, 0.0, 1.6213506581445873E9, 2021-05-18 17:10:58.144
60.0, 106.6226806640625, -60.032875061035156, -123.14555358886719, 28.94869613647461, -0.01600000075995922, -0.08000000566244125, 1.055999994277954, 0.0, 0.0, 0.0, 0.0, 0.0, 1.6213506581445873E9, 2021-05-18 17:10:58.144
61.0, 119.39817810058594, -39.61676025390625, -125.35957336425781, 37.47566604614258, -0.01600000075995922, -0.08000000566244125, 1.055999994277954, 0.0, 0.0, 0.0, 0.0, 0.0, 1.6213506581582606E9, 2021-05-18 17:10:58.158
61.0, 140.24063110351562, -5.0451250076293945, -93.5367660522461, 69.03294372558594, -0.01600000075995922, -0.08000000566244125, 1.055999994277954, 0.0, 0.0, 0.0, 0.0, 0.0, 1.6213506581582606E9, 2021-05-18 17:10:58.158
62.0, 147.12205505371094, -7.756552696228027, -74.3436050415039, 72.30909729003906, -0.01600000075995922, -0.08000000566244125, 1.055999994277954, 0.0, 0.0, 0.0, 0.0, 0.0, 1.621350658173987E9, 2021-05-18 17:10:58.173
62.0, 99.29995727539062, -81.27176666259766, -126.66480255126953, -2.242069959640503, -0.01600000075995922, -0.08000000566244125, 1.055999994277954, 0.0, 0.0, 0.0, 0.0, 0.0, 1.621350658173987E9, 2021-05-18 17:10:58.173
63.0, 111.23397064208984, -48.798213958740234, -112.91693115234375, 21.633451461791992, -0.01600000075995922, -0.08000000566244125, 1.055999994277954, 0.0, 0.0, 0.0, 0.0, 0.0, 1.6213506581746616E9, 2021-05-18 17:10:58.174
63.0, 147.97848510742188, 1.6231166124343872, -88.29716491699219, 62.24876403808594, -0.01600000075995922, -0.08000000566244125, 1.055999994277954, 0.0, 0.0, 0.0, 0.0, 0.0, 1.6213506581746616E9, 2021-05-18 17:10:58.174
64.0, 155.75, -7.85004997253418, -79.14189147949219, 60.618167877197266, -0.01600000075995922, -0.08000000566244125, 1.055999994277954, 0.0, 0.0, 0.0, 0.0, 0.0, 1.6213506581882026E9, 2021-05-18 17:10:58.188
64.0, 106.79471588134766, -105.63721466064453, -118.4071044921875, 3.1882646083831787, -0.01600000075995922, -0.08000000566244125, 1.055999994277954, 0.0, 0.0, 0.0, 0.0, 0.0, 1.6213506581882026E9, 2021-05-18 17:10:58.188
65.0, 110.72908782958984, -50.346534729003906, -118.5716552734375, 22.519807815551758, -0.01600000075995922, -0.08000000566244125, 1.055999994277954, 0.0, 0.0, 0.0, 0.0, 0.0, 1.6213506582039406E9, 2021-05-18 17:10:58.203
65.0, 146.32545471191406, 20.93596076965332, -72.45494842529297, 82.14503479003906, -0.01600000075995922, -0.08000000566244125, 1.055999994277954, 0.0, 0.0, 0.0, 0.0, 0.0, 1.6213506582039406E9, 2021-05-18 17:10:58.203
66.0, 149.23883056640625, -16.650033950805664, -64.88539123535156, 72.44747161865234, -0.01600000075995922, -0.08000000566244125, 1.055999994277954, 0.0, 0.0, 0.0, 0.0, 0.0, 1.6213506582047126E9, 2021-05-18 17:10:58.204
66.0, 90.91136169433594, -65.67638397216797, -129.2939453125, 6.225063323974609, -0.01600000075995922, -0.08000000566244125, 1.055999994277954, 0.0, 0.0, 0.0, 0.0, 0.0, 1.6213506582047126E9, 2021-05-18 17:10:58.204
67.0, 107.4678955078125, -36.70337677001953, -119.2710189819336, 30.037006378173828, -0.01600000075995922, -0.08000000566244125, 1.055999994277954, 0.0, 0.0, 0.0, 0.0, 0.0, 1.6213506582181776E9, 2021-05-18 17:10:58.218
67.0, 138.3819122314453, -14.417314529418945, -87.1153564453125, 86.30754089355469, -0.01600000075995922, -0.08000000566244125, 1.055999994277954, 0.0, 0.0, 0.0, 0.0, 0.0, 1.6213506582181776E9, 2021-05-18 17:10:58.218
68.0, 152.11856079101562, -1.2304270267486572, -70.90289306640625, 79.02969360351562, -0.01600000075995922, -0.08000000566244125, 1.055999994277954, 0.0, 0.0, 0.0, 0.0, 0.0, 1.6213506582502465E9, 2021-05-18 17:10:58.250
68.0, 91.68551635742188, -84.8919906616211, -130.5318603515625, 16.03108024597168, -0.01600000075995922, -0.08000000566244125, 1.055999994277954, 0.0, 0.0, 0.0, 0.0, 0.0, 1.6213506582502465E9, 2021-05-18 17:10:58.250
69.0, 106.55909729003906, -62.9238166809082, -123.5083236694336, 37.606563568115234, -0.01600000075995922, -0.08000000566244125, 1.055999994277954, 0.0, 0.0, 0.0, 0.0, 0.0, 1.6213506582510226E9, 2021-05-18 17:10:58.251
69.0, 136.71017456054688, -8.437213897705078, -84.34783172607422, 91.86128997802734, -0.01600000075995922, -0.08000000566244125, 1.055999994277954, 0.0, 0.0, 0.0, 0.0, 0.0, 1.6213506582510226E9, 2021-05-18 17:10:58.251
70.0, 148.65914916992188, -22.51793670654297, -78.31537628173828, 86.44965362548828, -0.01600000075995922, -0.08000000566244125, 1.055999994277954, 0.0, 0.0, 0.0, 0.0, 0.0, 1.62135065825171E9, 2021-05-18 17:10:58.251
70.0, 102.23951721191406, -75.20565032958984, -130.88714599609375, 18.746248245239258, -0.01600000075995922, -0.08000000566244125, 1.055999994277954, 0.0, 0.0, 0.0, 0.0, 0.0, 1.62135065825171E9, 2021-05-18 17:10:58.251
71.0, 109.60337829589844, -79.53645324707031, -125.30347442626953, 39.84302520751953, -0.01600000075995922, -0.08000000566244125, 1.055999994277954, 0.0, 0.0, 0.0, 0.0, 0.0, 1.6213506582524912E9, 2021-05-18 17:10:58.252
71.0, 157.533935546875, -16.545316696166992, -78.83148193359375, 96.65584564208984, -0.01600000075995922, -0.08000000566244125, 1.055999994277954, 0.0, 0.0, 0.0, 0.0, 0.0, 1.6213506582524912E9, 2021-05-18 17:10:58.252
72.0, 164.2732391357422, -10.202446937561035, -74.66522979736328, 85.89614868164062, -0.01600000075995922, -0.08000000566244125, 1.055999994277954, 0.0, 0.0, 0.0, 0.0, 0.0, 1.6213506582633083E9, 2021-05-18 17:10:58.263
72.0, 111.76878356933594, -89.12555694580078, -122.25171661376953, 18.409658432006836, -0.01600000075995922, -0.08000000566244125, 1.055999994277954, 0.0, 0.0, 0.0, 0.0, 0.0, 1.6213506582633083E9, 2021-05-18 17:10:58.263
73.0, 120.99885559082031, -50.32035446166992, -114.7158203125, 40.25441360473633, -0.01600000075995922, -0.08000000566244125, 1.055999994277954, 0.0, 0.0, 0.0, 0.0, 0.0, 1.6213506582782583E9, 2021-05-18 17:10:58.278
73.0, 146.74806213378906, -18.51998519897461, -82.57138061523438, 80.95948791503906, -0.01600000075995922, -0.08000000566244125, 1.055999994277954, 0.0, 0.0, 0.0, 0.0, 0.0, 1.6213506582782583E9, 2021-05-18 17:10:58.278
