Sample Index, EXG Channel 0, EXG Channel 1, EXG Channel 2, EXG Channel 3, Accel Channel 0, Accel Channel 1, Accel Channel 2, Other, Other, Other, Other, Other, Timestamp, Timestamp (Formatted)
0.0, -75.23556518554688, 45.60808181762695, -117.9657974243164, -42.728355407714844, 0.0, 0.0, 0.0, 0.0, 0.0, 0.0, 0.0, 0.0, 1.6213437518207881E9, 2021-05-18 15:15:51.820
1.0, -14.21161937713623, 135.08892822265625, -19.871957778930664, 46.73752975463867, 0.0, -0.09600000083446503, 0.0, 0.0, 0.0, 0.0, 0.0, 0.0, 1.6213437518335562E9, 2021-05-18 15:15:51.833
1.0, -112.58969116210938, -62.32543182373047, -209.64944458007812, -138.00604248046875, 0.0, -0.09600000083446503, 0.0, 0.0, 0.0, 0.0, 0.0, 0.0, 1.6213437518335562E9, 2021-05-18 15:15:51.833
2.0, -105.99998474121094, -39.90473175048828, -197.28533935546875, -119.8637924194336, -0.03200000151991844, -0.09600000083446503, 0.0, 0.0, 0.0, 0.0, 0.0, 0.0, 1.6213437518503191E9, 2021-05-18 15:15:51.850
2.0, -77.47950744628906, 54.08643341064453, -115.90511322021484, -43.92512512207031, -0.03200000151991844, -0.09600000083446503, 0.0, 0.0, 0.0, 0.0, 0.0, 0.0, 1.6213437518503191E9, 2021-05-18 15:15:51.850
3.0, -12.229473114013672, 123.79442596435547, -26.80573272705078, 38.64812469482422, -0.03200000151991844, -0.09600000083446503, 0.0, 0.0, 0.0, 0.0, 0.0, 0.0, 1.6213437518509948E9, 2021-05-18 15:15:51.850
3.0, -112.00626373291016, -57.37754440307617, -203.1943817138672, -140.9231719970703, -0.03200000151991844, -0.09600000083446503, 0.0, 0.0, 0.0, 0.0, 0.0, 0.0, 1.6213437518509948E9, 2021-05-18 15:15:51.850
4.0, -102.32740020751953, -30.319368362426758, -196.25311279296875, -128.66751098632812, -0.03200000151991844, -0.09600000083446503, 0.0, 0.0, 0.0, 0.0, 0.0, 0.0, 1.621343751880505E9, 2021-05-18 15:15:51.880
4.0, -68.42894744873047, 51.337608337402344, -130.5281219482422, -57.13071060180664, -0.03200000151991844, -0.09600000083446503, 0.0, 0.0, 0.0, 0.0, 0.0, 0.0, 1.621343751880505E9, 2021-05-18 15:15:51.880
5.0, -8.22029972076416, 133.77996826171875, -30.253921508789062, 31.602153778076172, -0.03200000151991844, -0.09600000083446503, 0.0, 0.0, 0.0, 0.0, 0.0, 0.0, 1.621343751881123E9, 2021-05-18 15:15:51.881
5.0, -108.7413330078125, -64.35245513916016, -210.09823608398438, -143.3690643310547, -0.03200000151991844, -0.09600000083446503, 0.0, 0.0, 0.0, 0.0, 0.0, 0.0, 1.621343751881123E9, 2021-05-18 15:15:51.881
6.0, -108.68897247314453, -32.432411193847656, -206.30223083496094, -129.6810302734375, -0.03200000151991844, -0.09600000083446503, 0.0, 0.0, 0.0, 0.0, 0.0, 0.0, 1.6213437518818192E9, 2021-05-18 15:15:51.881
6.0, -72.0865707397461, 44.86383819580078, -126.93033599853516, -53.1065788269043, -0.03200000151991844, -0.09600000083446503, 0.0, 0.0, 0.0, 0.0, 0.0, 0.0, 1.6213437518818192E9, 2021-05-18 15:15:51.881
7.0, -13.358922958374023, 130.55242919921875, -24.217721939086914, 36.41914749145508, -0.03200000151991844, -0.09600000083446503, 0.0, 0.0, 0.0, 0.0, 0.0, 0.0, 1.6213437518933372E9, 2021-05-18 15:15:51.893
7.0, -115.37591552734375, -57.2616081237793, -211.09304809570312, -141.6374969482422, -0.03200000151991844, -0.09600000083446503, 0.0, 0.0, 0.0, 0.0, 0.0, 0.0, 1.6213437518933372E9, 2021-05-18 15:15:51.893
8.0, -111.28820037841797, -35.88808059692383, -200.92425537109375, -126.99951934814453, -0.03200000151991844, -0.09600000083446503, 0.0, 0.0, 0.0, 0.0, 0.0, 0.0, 1.6213437519090683E9, 2021-05-18 15:15:51.909
8.0, -80.22459411621094, 46.9843635559082, -118.28368377685547, -42.60493850708008, -0.03200000151991844, -0.09600000083446503, 0.0, 0.0, 0.0, 0.0, 0.0, 0.0, 1.6213437519090683E9, 2021-05-18 15:15:51.909
9.0, -14.810004234313965, 134.65135192871094, -29.277807235717773, 45.024654388427734, -0.03200000151991844, -0.09600000083446503, 0.0, 0.0, 0.0, 0.0, 0.0, 0.0, 1.6213437519098015E9, 2021-05-18 15:15:51.909
9.0, -119.98721313476562, -47.51543045043945, -211.04815673828125, -135.92666625976562, -0.03200000151991844, -0.09600000083446503, 0.0, 0.0, 0.0, 0.0, 0.0, 0.0, 1.6213437519098015E9, 2021-05-18 15:15:51.909
10.0, -119.76655578613281, -33.7039794921875, -210.3488006591797, -130.2644500732422, -0.03200000151991844, -0.09600000083446503, 1.040000081062317, 0.0, 0.0, 0.0, 0.0, 0.0, 1.6213437519398632E9, 2021-05-18 15:15:51.939
10.0, -79.85060119628906, 55.814266204833984, -122.51351165771484, -45.738975524902344, -0.03200000151991844, -0.09600000083446503, 1.040000081062317, 0.0, 0.0, 0.0, 0.0, 0.0, 1.6213437519398632E9, 2021-05-18 15:15:51.939
11.0, -21.43710708618164, 135.99398803710938, -29.457321166992188, 36.55004119873047, -0.03200000151991844, -0.08000000566244125, 1.040000081062317, 0.0, 0.0, 0.0, 0.0, 0.0, 1.6213437519405732E9, 2021-05-18 15:15:51.940
11.0, -119.43370819091797, -59.78977966308594, -208.1497344970703, -136.99253845214844, -0.03200000151991844, -0.08000000566244125, 1.040000081062317, 0.0, 0.0, 0.0, 0.0, 0.0, 1.6213437519405732E9, 2021-05-18 15:15:51.940
12.0, -120.34249877929688, -41.18003845214844, -203.41128540039062, -128.8358154296875, -0.03200000151991844, -0.08000000566244125, 1.040000081062317, 0.0, 0.0, 0.0, 0.0, 0.0, 1.6213437519412878E9, 2021-05-18 15:15:51.941
12.0, -75.33280181884766, 41.3034553527832, -122.9249038696289, -43.37910079956055, -0.03200000151991844, -0.08000000566244125, 1.040000081062317, 0.0, 0.0, 0.0, 0.0, 0.0, 1.6213437519412878E9, 2021-05-18 15:15:51.941
13.0, -4.517799377441406, 130.04754638671875, -25.799699783325195, 38.94357681274414, -0.03200000151991844, -0.08000000566244125, 1.040000081062317, 0.0, 0.0, 0.0, 0.0, 0.0, 1.6213437519534967E9, 2021-05-18 15:15:51.953
13.0, -113.32270812988281, -58.13300323486328, -210.72653198242188, -143.76548767089844, -0.03200000151991844, -0.08000000566244125, 1.040000081062317, 0.0, 0.0, 0.0, 0.0, 0.0, 1.6213437519534967E9, 2021-05-18 15:15:51.953
14.0, -102.4620361328125, -36.57248306274414, -200.67367553710938, -126.00470733642578, -0.03200000151991844, -0.08000000566244125, 1.040000081062317, 0.0, 0.0, 0.0, 0.0, 0.0, 1.6213437519691467E9, 2021-05-18 15:15:51.969
14.0, -68.50748443603516, 46.68891143798828, -123.448486328125, -49.67708969116211, -0.03200000151991844, -0.08000000566244125, 1.040000081062317, 0.0, 0.0, 0.0, 0.0, 0.0, 1.6213437519691467E9, 2021-05-18 15:15:51.969
15.0, -13.60201644897461, 122.88563537597656, -27.097444534301758, 39.508304595947266, -0.03200000151991844, -0.08000000566244125, 1.040000081062317, 0.0, 0.0, 0.0, 0.0, 0.0, 1.6213437519698632E9, 2021-05-18 15:15:51.969
15.0, -128.4917449951172, -47.694942474365234, -205.1914825439453, -139.02330017089844, -0.03200000151991844, -0.08000000566244125, 1.040000081062317, 0.0, 0.0, 0.0, 0.0, 0.0, 1.6213437519698632E9, 2021-05-18 15:15:51.969
16.0, -121.74870300292969, -38.56958770751953, -199.86959838867188, -127.20147705078125, -0.03200000151991844, -0.08000000566244125, 1.040000081062317, 0.0, 0.0, 0.0, 0.0, 0.0, 1.6213437519995809E9, 2021-05-18 15:15:51.999
16.0, -75.94615173339844, 42.16737365722656, -116.5184555053711, -41.202476501464844, -0.03200000151991844, -0.08000000566244125, 1.040000081062317, 0.0, 0.0, 0.0, 0.0, 0.0, 1.6213437519995809E9, 2021-05-18 15:15:51.999
17.0, -20.6517276763916, 120.27144622802734, -18.884624481201172, 45.24530792236328, -0.03200000151991844, -0.08000000566244125, 1.040000081062317, 0.0, 0.0, 0.0, 0.0, 0.0, 1.6213437520002897E9, 2021-05-18 15:15:52.000
17.0, -122.86318969726562, -65.6464614868164, -197.99217224121094, -137.08229064941406, -0.03200000151991844, -0.08000000566244125, 1.040000081062317, 0.0, 0.0, 0.0, 0.0, 0.0, 1.6213437520002897E9, 2021-05-18 15:15:52.000
18.0, -114.41850280761719, -45.656700134277344, -185.68789672851562, -124.98745727539062, -0.03200000151991844, -0.08000000566244125, 1.040000081062317, 0.0, 0.0, 0.0, 0.0, 0.0, 1.6213437520141633E9, 2021-05-18 15:15:52.014
18.0, -76.60810852050781, 49.25448226928711, -115.07111358642578, -45.71279525756836, -0.03200000151991844, -0.08000000566244125, 1.040000081062317, 0.0, 0.0, 0.0, 0.0, 0.0, 1.6213437520141633E9, 2021-05-18 15:15:52.014
19.0, -20.797584533691406, 126.72650909423828, -21.09116554260254, 40.60783386230469, -0.03200000151991844, -0.08000000566244125, 1.040000081062317, 0.0, 0.0, 0.0, 0.0, 0.0, 1.621343752014843E9, 2021-05-18 15:15:52.014
19.0, -122.34334564208984, -51.087032318115234, -199.589111328125, -139.86477661132812, -0.03200000151991844, -0.08000000566244125, 1.040000081062317, 0.0, 0.0, 0.0, 0.0, 0.0, 1.621343752014843E9, 2021-05-18 15:15:52.014
20.0, -109.54914855957031, -50.956138610839844, -194.01666259765625, -122.8370132446289, -0.03200000151991844, -0.08000000566244125, 1.040000081062317, 0.0, 0.0, 0.0, 0.0, 0.0, 1.621343752029444E9, 2021-05-18 15:15:52.029
20.0, -75.16451263427734, 49.62099075317383, -114.13987731933594, -48.323246002197266, -0.03200000151991844, -0.08000000566244125, 1.040000081062317, 0.0, 0.0, 0.0, 0.0, 0.0, 1.621343752029444E9, 2021-05-18 15:15:52.029
21.0, -12.345409393310547, 140.71372985839844, -24.232681274414062, 41.59516906738281, -0.03200000151991844, -0.08000000566244125, 1.040000081062317, 0.0, 0.0, 0.0, 0.0, 0.0, 1.6213437520441916E9, 2021-05-18 15:15:52.044
21.0, -121.65894317626953, -59.58408737182617, -200.5689697265625, -134.722412109375, -0.03200000151991844, -0.08000000566244125, 1.040000081062317, 0.0, 0.0, 0.0, 0.0, 0.0, 1.6213437520441916E9, 2021-05-18 15:15:52.044
22.0, -114.11182403564453, -39.80375671386719, -198.49331665039062, -121.78610229492188, -0.03200000151991844, -0.08000000566244125, 1.040000081062317, 0.0, 0.0, 0.0, 0.0, 0.0, 1.621343752044922E9, 2021-05-18 15:15:52.044
22.0, -70.55321502685547, 47.0030632019043, -112.91319274902344, -43.11356735229492, -0.03200000151991844, -0.08000000566244125, 1.040000081062317, 0.0, 0.0, 0.0, 0.0, 0.0, 1.621343752044922E9, 2021-05-18 15:15:52.044
23.0, -8.755105972290039, 135.7471466064453, -18.21518325805664, 44.61326599121094, -0.03200000151991844, -0.08000000566244125, 1.040000081062317, 0.0, 0.0, 0.0, 0.0, 0.0, 1.6213437520590508E9, 2021-05-18 15:15:52.059
23.0, -110.82445526123047, -55.257022857666016, -196.8402862548828, -131.09097290039062, -0.03200000151991844, -0.08000000566244125, 1.040000081062317, 0.0, 0.0, 0.0, 0.0, 0.0, 1.6213437520590508E9, 2021-05-18 15:15:52.059
24.0, -115.13655853271484, -32.825103759765625, -193.1826629638672, -121.10169982910156, -0.03200000151991844, -0.08000000566244125, 1.040000081062317, 0.0, 0.0, 0.0, 0.0, 0.0, 1.621343752059748E9, 2021-05-18 15:15:52.059
24.0, -75.37020111083984, 42.05891418457031, -110.5196533203125, -43.24446487426758, -0.03200000151991844, -0.08000000566244125, 1.040000081062317, 0.0, 0.0, 0.0, 0.0, 0.0, 1.621343752059748E9, 2021-05-18 15:15:52.059
25.0, -20.434812545776367, 130.92642211914062, -15.866525650024414, 38.173160552978516, -0.03200000151991844, -0.08000000566244125, 1.040000081062317, 0.0, 0.0, 0.0, 0.0, 0.0, 1.6213437520733297E9, 2021-05-18 15:15:52.073
25.0, -122.60140228271484, -64.36741638183594, -199.52552795410156, -142.20596313476562, -0.03200000151991844, -0.08000000566244125, 1.040000081062317, 0.0, 0.0, 0.0, 0.0, 0.0, 1.6213437520733297E9, 2021-05-18 15:15:52.073
26.0, -109.96427917480469, -26.953458786010742, -189.81301879882812, -129.7184295654297, -0.03200000151991844, -0.08000000566244125, 1.040000081062317, 0.0, 0.0, 0.0, 0.0, 0.0, 1.6213437520892107E9, 2021-05-18 15:15:52.089
26.0, -70.79630279541016, 55.705810546875, -112.3447265625, -46.748748779296875, -0.03200000151991844, -0.08000000566244125, 1.040000081062317, 0.0, 0.0, 0.0, 0.0, 0.0, 1.6213437520892107E9, 2021-05-18 15:15:52.089
27.0, -11.27953815460205, 133.85476684570312, -13.091519355773926, 41.68118667602539, -0.03200000151991844, -0.08000000566244125, 1.040000081062317, 0.0, 0.0, 0.0, 0.0, 0.0, 1.6213437520898688E9, 2021-05-18 15:15:52.089
27.0, -117.45903778076172, -48.50650405883789, -196.713134765625, -141.73098754882812, -0.03200000151991844, -0.08000000566244125, 1.040000081062317, 0.0, 0.0, 0.0, 0.0, 0.0, 1.6213437520898688E9, 2021-05-18 15:15:52.089
28.0, -108.61791229248047, -18.501285552978516, -186.92581176757812, -127.7961196899414, -0.03200000151991844, -0.08000000566244125, 1.040000081062317, 0.0, 0.0, 0.0, 0.0, 0.0, 1.6213437521033068E9, 2021-05-18 15:15:52.103
28.0, -77.90211486816406, 56.42387008666992, -110.36257934570312, -53.899436950683594, -0.03200000151991844, -0.08000000566244125, 1.040000081062317, 0.0, 0.0, 0.0, 0.0, 0.0, 1.6213437521033068E9, 2021-05-18 15:15:52.103
29.0, -11.141161918640137, 134.3895721435547, -19.606426239013672, 30.596120834350586, -0.03200000151991844, -0.08000000566244125, 1.040000081062317, 0.0, 0.0, 0.0, 0.0, 0.0, 1.6213437521190689E9, 2021-05-18 15:15:52.119
29.0, -114.51947784423828, -64.60677337646484, -206.44061279296875, -148.0028076171875, -0.03200000151991844, -0.08000000566244125, 1.040000081062317, 0.0, 0.0, 0.0, 0.0, 0.0, 1.6213437521190689E9, 2021-05-18 15:15:52.119
30.0, -104.78077697753906, -36.08255386352539, -193.60153198242188, -125.05851745605469, -0.03200000151991844, -0.08000000566244125, 1.040000081062317, 0.0, 0.0, 0.0, 0.0, 0.0, 1.621343752119808E9, 2021-05-18 15:15:52.119
30.0, -69.57709503173828, 41.10150146484375, -121.49252319335938, -43.117305755615234, -0.03200000151991844, -0.08000000566244125, 1.040000081062317, 0.0, 0.0, 0.0, 0.0, 0.0, 1.621343752119808E9, 2021-05-18 15:15:52.119
31.0, -13.171927452087402, 130.47763061523438, -29.453582763671875, 41.019222259521484, -0.03200000151991844, -0.08000000566244125, 1.040000081062317, 0.0, 0.0, 0.0, 0.0, 0.0, 1.6213437521333628E9, 2021-05-18 15:15:52.133
31.0, -119.97225189208984, -58.13300323486328, -210.58815002441406, -139.31875610351562, -0.03200000151991844, -0.08000000566244125, 1.040000081062317, 0.0, 0.0, 0.0, 0.0, 0.0, 1.6213437521333628E9, 2021-05-18 15:15:52.133
32.0, -109.36589813232422, -42.91161346435547, -201.13743591308594, -122.90433502197266, -0.03200000151991844, -0.08000000566244125, 1.040000081062317, 0.0, 0.0, 0.0, 0.0, 0.0, 1.621343752149097E9, 2021-05-18 15:15:52.149
32.0, -72.98040771484375, 33.580562591552734, -128.59085083007812, -49.56489562988281, -0.03200000151991844, -0.08000000566244125, 1.040000081062317, 0.0, 0.0, 0.0, 0.0, 0.0, 1.621343752149097E9, 2021-05-18 15:15:52.149
33.0, -8.403554916381836, 121.45325469970703, -28.152097702026367, 39.70651626586914, -0.03200000151991844, -0.08000000566244125, 1.040000081062317, 0.0, 0.0, 0.0, 0.0, 0.0, 1.621343752149804E9, 2021-05-18 15:15:52.149
33.0, -106.70682525634766, -59.064239501953125, -208.2806396484375, -142.16481018066406, -0.03200000151991844, -0.08000000566244125, 1.040000081062317, 0.0, 0.0, 0.0, 0.0, 0.0, 1.621343752149804E9, 2021-05-18 15:15:52.149
34.0, -97.64878845214844, -44.71050262451172, -201.64231872558594, -128.54409790039062, -0.03200000151991844, -0.08000000566244125, 1.040000081062317, 0.0, 0.0, 0.0, 0.0, 0.0, 1.6213437521633694E9, 2021-05-18 15:15:52.163
34.0, -63.05471420288086, 44.09716033935547, -123.77759552001953, -51.442325592041016, -0.03200000151991844, -0.08000000566244125, 1.040000081062317, 0.0, 0.0, 0.0, 0.0, 0.0, 1.6213437521633694E9, 2021-05-18 15:15:52.163
35.0, -6.556044578552246, 126.1879653930664, -35.66555404663086, 31.332881927490234, -0.03200000151991844, -0.08000000566244125, 1.040000081062317, 0.0, 0.0, 0.0, 0.0, 0.0, 1.6213437521790235E9, 2021-05-18 15:15:52.179
35.0, -107.08829498291016, -65.89703369140625, -214.82920837402344, -142.46400451660156, -0.03200000151991844, -0.08000000566244125, 1.040000081062317, 0.0, 0.0, 0.0, 0.0, 0.0, 1.6213437521790235E9, 2021-05-18 15:15:52.179
36.0, -102.7425308227539, -47.717384338378906, -194.8319549560547, -122.01797485351562, -0.03200000151991844, -0.08000000566244125, 1.040000081062317, 0.0, 0.0, 0.0, 0.0, 0.0, 1.621343752179737E9, 2021-05-18 15:15:52.179
36.0, -66.67493438720703, 46.20272445678711, -121.50373840332031, -47.35835266113281, -0.03200000151991844, -0.08000000566244125, 1.040000081062317, 0.0, 0.0, 0.0, 0.0, 0.0, 1.621343752179737E9, 2021-05-18 15:15:52.179
37.0, -9.892035484313965, 128.7535400390625, -27.127365112304688, 40.43579864501953, -0.03200000151991844, -0.08000000566244125, 1.040000081062317, 0.0, 0.0, 0.0, 0.0, 0.0, 1.6213437521933577E9, 2021-05-18 15:15:52.193
37.0, -113.2591323852539, -46.29622268676758, -204.39862060546875, -137.3141632080078, -0.03200000151991844, -0.08000000566244125, 1.040000081062317, 0.0, 0.0, 0.0, 0.0, 0.0, 1.6213437521933577E9, 2021-05-18 15:15:52.193
38.0, -110.0315933227539, -40.05432891845703, -197.9772186279297, -125.4212875366211, -0.03200000151991844, -0.08000000566244125, 1.040000081062317, 0.0, 0.0, 0.0, 0.0, 0.0, 1.6213437522097988E9, 2021-05-18 15:15:52.209
38.0, -74.16221618652344, 48.001617431640625, -118.10043334960938, -44.66936492919922, -0.03200000151991844, -0.08000000566244125, 1.040000081062317, 0.0, 0.0, 0.0, 0.0, 0.0, 1.6213437522097988E9, 2021-05-18 15:15:52.209
39.0, -14.346256256103516, 130.85536193847656, -22.183216094970703, 39.82245635986328, -0.03200000151991844, -0.08000000566244125, 1.040000081062317, 0.0, 0.0, 0.0, 0.0, 0.0, 1.6213437522105253E9, 2021-05-18 15:15:52.210
39.0, -107.80635833740234, -64.68531036376953, -203.1831512451172, -133.6976776123047, -0.03200000151991844, -0.08000000566244125, 1.040000081062317, 0.0, 0.0, 0.0, 0.0, 0.0, 1.6213437522105253E9, 2021-05-18 15:15:52.210
40.0, -111.56121826171875, -44.53472900390625, -189.94390869140625, -118.22197723388672, -0.03200000151991844, -0.08000000566244125, 1.055999994277954, 0.0, 0.0, 0.0, 0.0, 0.0, 1.6213437522234137E9, 2021-05-18 15:15:52.223
40.0, -73.6535873413086, 49.19090270996094, -109.92874908447266, -45.28644943237305, -0.03200000151991844, -0.08000000566244125, 1.055999994277954, 0.0, 0.0, 0.0, 0.0, 0.0, 1.6213437522234137E9, 2021-05-18 15:15:52.223
41.0, -17.9814395904541, 129.123779296875, -24.804885864257812, 38.84634017944336, -0.03200000151991844, -0.08000000566244125, 1.055999994277954, 0.0, 0.0, 0.0, 0.0, 0.0, 1.621343752239082E9, 2021-05-18 15:15:52.239
41.0, -114.9869613647461, -53.89196014404297, -202.33419799804688, -137.71807861328125, -0.03200000151991844, -0.08000000566244125, 1.055999994277954, 0.0, 0.0, 0.0, 0.0, 0.0, 1.621343752239082E9, 2021-05-18 15:15:52.239
42.0, -114.99818420410156, -37.61591339111328, -201.97891235351562, -127.93824005126953, -0.03200000151991844, -0.08000000566244125, 1.055999994277954, 0.0, 0.0, 0.0, 0.0, 0.0, 1.621343752239734E9, 2021-05-18 15:15:52.239
42.0, -73.10382080078125, 48.813175201416016, -119.55525207519531, -44.93115997314453, -0.03200000151991844, -0.08000000566244125, 1.055999994277954, 0.0, 0.0, 0.0, 0.0, 0.0, 1.621343752239734E9, 2021-05-18 15:15:52.239
43.0, -14.596829414367676, 125.8027572631836, -27.632251739501953, 40.869625091552734, -0.03200000151991844, -0.08000000566244125, 1.055999994277954, 0.0, 0.0, 0.0, 0.0, 0.0, 1.6213437522532969E9, 2021-05-18 15:15:52.253
43.0, -119.37012481689453, -57.32518768310547, -210.7788848876953, -139.475830078125, -0.03200000151991844, -0.08000000566244125, 1.055999994277954, 0.0, 0.0, 0.0, 0.0, 0.0, 1.6213437522532969E9, 2021-05-18 15:15:52.253
44.0, -109.89321899414062, -37.163387298583984, -199.424560546875, -124.98371887207031, -0.03200000151991844, -0.08000000566244125, 1.055999994277954, 0.0, 0.0, 0.0, 0.0, 0.0, 1.6213437522690532E9, 2021-05-18 15:15:52.269
44.0, -66.48419952392578, 42.728355407714844, -120.50892639160156, -47.38079071044922, -0.03200000151991844, -0.08000000566244125, 1.055999994277954, 0.0, 0.0, 0.0, 0.0, 0.0, 1.6213437522690532E9, 2021-05-18 15:15:52.269
45.0, -11.799384117126465, 124.0823974609375, -25.69872283935547, 35.91426086425781, -0.03200000151991844, -0.08000000566244125, 1.055999994277954, 0.0, 0.0, 0.0, 0.0, 0.0, 1.6213437522697675E9, 2021-05-18 15:15:52.269
45.0, -108.4010009765625, -54.587581634521484, -206.32467651367188, -144.5134735107422, -0.03200000151991844, -0.08000000566244125, 1.055999994277954, 0.0, 0.0, 0.0, 0.0, 0.0, 1.6213437522697675E9, 2021-05-18 15:15:52.269
46.0, -105.16598510742188, -35.435550689697266, -190.7218017578125, -129.59127807617188, -0.03200000151991844, -0.08000000566244125, 1.055999994277954, 0.0, 0.0, 0.0, 0.0, 0.0, 1.621343752283336E9, 2021-05-18 15:15:52.283
46.0, -64.00464630126953, 62.42641067504883, -111.48455047607422, -52.59047317504883, -0.03200000151991844, -0.08000000566244125, 1.055999994277954, 0.0, 0.0, 0.0, 0.0, 0.0, 1.621343752283336E9, 2021-05-18 15:15:52.283
47.0, -4.113890171051025, 124.04499816894531, -28.533567428588867, 38.03478240966797, -0.03200000151991844, -0.08000000566244125, 1.055999994277954, 0.0, 0.0, 0.0, 0.0, 0.0, 1.6213437522989812E9, 2021-05-18 15:15:52.298
47.0, -102.91456604003906, -61.37923812866211, -208.99496459960938, -139.475830078125, -0.03200000151991844, -0.08000000566244125, 1.055999994277954, 0.0, 0.0, 0.0, 0.0, 0.0, 1.6213437522989812E9, 2021-05-18 15:15:52.298
48.0, -104.81069946289062, -40.26750183105469, -201.30572509765625, -126.98081970214844, -0.03200000151991844, -0.08000000566244125, 1.055999994277954, 0.0, 0.0, 0.0, 0.0, 0.0, 1.6213437522997165E9, 2021-05-18 15:15:52.299
48.0, -70.49337768554688, 48.20730972290039, -117.38984680175781, -43.28934097290039, -0.03200000151991844, -0.08000000566244125, 1.055999994277954, 0.0, 0.0, 0.0, 0.0, 0.0, 1.6213437522997165E9, 2021-05-18 15:15:52.299
49.0, -10.352043151855469, 131.8052978515625, -19.57276725769043, 37.735591888427734, -0.03200000151991844, -0.08000000566244125, 1.055999994277954, 0.0, 0.0, 0.0, 0.0, 0.0, 1.6213437523133392E9, 2021-05-18 15:15:52.313
49.0, -109.87078094482422, -45.529541015625, -202.9438018798828, -142.63604736328125, -0.03200000151991844, -0.08000000566244125, 1.055999994277954, 0.0, 0.0, 0.0, 0.0, 0.0, 1.6213437523133392E9, 2021-05-18 15:15:52.313
50.0, -106.97235870361328, -30.914012908935547, -199.5105743408203, -124.8266372680664, -0.03200000151991844, -0.08000000566244125, 1.055999994277954, 0.0, 0.0, 0.0, 0.0, 0.0, 1.6213437523289871E9, 2021-05-18 15:15:52.328
50.0, -77.97691345214844, 44.321556091308594, -119.32711791992188, -39.30634689331055, -0.03200000151991844, -0.08000000566244125, 1.055999994277954, 0.0, 0.0, 0.0, 0.0, 0.0, 1.6213437523289871E9, 2021-05-18 15:15:52.328
51.0, -13.620716094970703, 130.7057647705078, -28.70934295654297, 43.91016387939453, -0.03200000151991844, -0.08000000566244125, 1.055999994277954, 0.0, 0.0, 0.0, 0.0, 0.0, 1.6213437523297508E9, 2021-05-18 15:15:52.329
51.0, -116.65496063232422, -63.44366455078125, -214.9376678466797, -132.9908447265625, -0.03200000151991844, -0.08000000566244125, 1.055999994277954, 0.0, 0.0, 0.0, 0.0, 0.0, 1.6213437523297508E9, 2021-05-18 15:15:52.329
52.0, -109.77354431152344, -46.6328125, -207.20729064941406, -123.39800262451172, -0.03200000151991844, -0.08000000566244125, 1.055999994277954, 0.0, 0.0, 0.0, 0.0, 0.0, 1.6213437523433173E9, 2021-05-18 15:15:52.343
52.0, -64.91344451904297, 43.35292053222656, -117.52822875976562, -45.1368522644043, -0.03200000151991844, -0.08000000566244125, 1.055999994277954, 0.0, 0.0, 0.0, 0.0, 0.0, 1.6213437523433173E9, 2021-05-18 15:15:52.343
53.0, -8.68404769897461, 133.72760009765625, -24.86472511291504, 40.46571731567383, -0.03200000151991844, -0.08000000566244125, 1.055999994277954, 0.0, 0.0, 0.0, 0.0, 0.0, 1.6213437523590014E9, 2021-05-18 15:15:52.359
53.0, -107.60440063476562, -54.01911544799805, -203.6581268310547, -142.51637268066406, -0.03200000151991844, -0.08000000566244125, 1.055999994277954, 0.0, 0.0, 0.0, 0.0, 0.0, 1.6213437523590014E9, 2021-05-18 15:15:52.359
54.0, -102.6378173828125, -25.906286239624023, -198.64291381835938, -131.7529296875, -0.03200000151991844, -0.08000000566244125, 1.055999994277954, 0.0, 0.0, 0.0, 0.0, 0.0, 1.6213437523597367E9, 2021-05-18 15:15:52.359
54.0, -61.56623458862305, 37.55607604980469, -117.47586822509766, -46.37849807739258, -0.03200000151991844, -0.08000000566244125, 1.055999994277954, 0.0, 0.0, 0.0, 0.0, 0.0, 1.6213437523597367E9, 2021-05-18 15:15:52.359
55.0, -1.4323816299438477, 123.83930969238281, -25.24619483947754, 41.09775924682617, -0.03200000151991844, -0.08000000566244125, 1.055999994277954, 0.0, 0.0, 0.0, 0.0, 0.0, 1.6213437523734477E9, 2021-05-18 15:15:52.373
55.0, -114.6466293334961, -65.8222427368164, -204.73147583007812, -137.093505859375, -0.03200000151991844, -0.08000000566244125, 1.055999994277954, 0.0, 0.0, 0.0, 0.0, 0.0, 1.6213437523734477E9, 2021-05-18 15:15:52.373
56.0, -108.90962982177734, -43.80170822143555, -196.52239990234375, -121.55049133300781, -0.03200000151991844, -0.08000000566244125, 1.055999994277954, 0.0, 0.0, 0.0, 0.0, 0.0, 1.6213437523890588E9, 2021-05-18 15:15:52.389
56.0, -69.098388671875, 39.33626937866211, -116.58203125, -46.78240966796875, -0.03200000151991844, -0.08000000566244125, 1.055999994277954, 0.0, 0.0, 0.0, 0.0, 0.0, 1.6213437523890588E9, 2021-05-18 15:15:52.389
57.0, -9.903255462646484, 128.8806915283203, -24.6253719329834, 38.38633346557617, -0.03200000151991844, -0.08000000566244125, 1.055999994277954, 0.0, 0.0, 0.0, 0.0, 0.0, 1.6213437523897505E9, 2021-05-18 15:15:52.389
57.0, -117.22342681884766, -58.74260711669922, -214.50009155273438, -141.6300048828125, -0.03200000151991844, -0.08000000566244125, 1.055999994277954, 0.0, 0.0, 0.0, 0.0, 0.0, 1.6213437523897505E9, 2021-05-18 15:15:52.389
58.0, -107.7016372680664, -31.643293380737305, -204.29763793945312, -128.4580841064453, -0.03200000151991844, -0.08000000566244125, 1.055999994277954, 0.0, 0.0, 0.0, 0.0, 0.0, 1.621343752403452E9, 2021-05-18 15:15:52.403
58.0, -66.7085952758789, 46.03068923950195, -122.07594299316406, -54.52400207519531, -0.03200000151991844, -0.08000000566244125, 1.055999994277954, 0.0, 0.0, 0.0, 0.0, 0.0, 1.621343752403452E9, 2021-05-18 15:15:52.403
59.0, -9.933174133300781, 132.8262939453125, -26.607519149780273, 30.33806800842285, -0.03200000151991844, -0.08000000566244125, 1.055999994277954, 0.0, 0.0, 0.0, 0.0, 0.0, 1.6213437524190688E9, 2021-05-18 15:15:52.419
59.0, -106.08226013183594, -56.966156005859375, -208.07119750976562, -147.01547241210938, -0.03200000151991844, -0.08000000566244125, 1.055999994277954, 0.0, 0.0, 0.0, 0.0, 0.0, 1.6213437524190688E9, 2021-05-18 15:15:52.419
60.0, -96.05933380126953, -33.62543869018555, -200.3109130859375, -129.5202178955078, -0.03200000151991844, -0.08000000566244125, 1.055999994277954, 0.0, 0.0, 0.0, 0.0, 0.0, 1.6213437524197984E9, 2021-05-18 15:15:52.419
60.0, -63.271629333496094, 49.62847137451172, -118.17523193359375, -50.16701889038086, -0.03200000151991844, -0.08000000566244125, 1.055999994277954, 0.0, 0.0, 0.0, 0.0, 0.0, 1.6213437524197984E9, 2021-05-18 15:15:52.419
61.0, -0.022439399734139442, 133.84727478027344, -20.8518123626709, 36.93899154663086, -0.03200000151991844, -0.08000000566244125, 1.055999994277954, 0.0, 0.0, 0.0, 0.0, 0.0, 1.6213437524333389E9, 2021-05-18 15:15:52.433
61.0, -108.05319213867188, -47.11151885986328, -208.14599609375, -148.27581787109375, -0.03200000151991844, -0.08000000566244125, 1.055999994277954, 0.0, 0.0, 0.0, 0.0, 0.0, 1.6213437524333389E9, 2021-05-18 15:15:52.433
62.0, -100.03484344482422, -36.972652435302734, -193.79226684570312, -130.7020263671875, -0.03200000151991844, -0.08000000566244125, 1.055999994277954, 0.0, 0.0, 0.0, 0.0, 0.0, 1.621343752449068E9, 2021-05-18 15:15:52.449
62.0, -63.00235366821289, 41.591426849365234, -115.89015197753906, -51.94721221923828, -0.03200000151991844, -0.08000000566244125, 1.055999994277954, 0.0, 0.0, 0.0, 0.0, 0.0, 1.621343752449068E9, 2021-05-18 15:15:52.449
63.0, -1.791412115097046, 125.21932983398438, -22.85639762878418, 39.94213104248047, -0.03200000151991844, -0.08000000566244125, 1.055999994277954, 0.0, 0.0, 0.0, 0.0, 0.0, 1.621343752449834E9, 2021-05-18 15:15:52.449
63.0, -105.81298828125, -67.03022766113281, -202.21826171875, -138.51841735839844, -0.03200000151991844, -0.08000000566244125, 1.055999994277954, 0.0, 0.0, 0.0, 0.0, 0.0, 1.621343752449834E9, 2021-05-18 15:15:52.449
64.0, -99.7730484008789, -39.26520919799805, -191.29776000976562, -124.04499816894531, -0.03200000151991844, -0.08000000566244125, 1.055999994277954, 0.0, 0.0, 0.0, 0.0, 0.0, 1.6213437524633243E9, 2021-05-18 15:15:52.463
64.0, -62.07112121582031, 50.148319244384766, -118.56417846679688, -52.17534255981445, -0.03200000151991844, -0.08000000566244125, 1.055999994277954, 0.0, 0.0, 0.0, 0.0, 0.0, 1.6213437524633243E9, 2021-05-18 15:15:52.463
65.0, -0.9723739624023438, 130.79177856445312, -19.55032730102539, 35.196197509765625, -0.03200000151991844, -0.08000000566244125, 1.055999994277954, 0.0, 0.0, 0.0, 0.0, 0.0, 1.621343752495387E9, 2021-05-18 15:15:52.495
65.0, -111.84170532226562, -59.4681510925293, -206.7098846435547, -148.76199340820312, -0.03200000151991844, -0.08000000566244125, 1.055999994277954, 0.0, 0.0, 0.0, 0.0, 0.0, 1.621343752495387E9, 2021-05-18 15:15:52.495
66.0, -109.54541015625, -37.25688171386719, -191.46978759765625, -127.36228942871094, -0.03200000151991844, -0.08000000566244125, 1.055999994277954, 0.0, 0.0, 0.0, 0.0, 0.0, 1.6213437524960716E9, 2021-05-18 15:15:52.496
66.0, -72.87943267822266, 42.53388214111328, -113.54523468017578, -50.87385940551758, -0.03200000151991844, -0.08000000566244125, 1.055999994277954, 0.0, 0.0, 0.0, 0.0, 0.0, 1.6213437524960716E9, 2021-05-18 15:15:52.496
67.0, -13.302824020385742, 135.07022094726562, -20.93408966064453, 30.655960083007812, -0.03200000151991844, -0.08000000566244125, 1.055999994277954, 0.0, 0.0, 0.0, 0.0, 0.0, 1.621343752496817E9, 2021-05-18 15:15:52.496
67.0, -114.00337219238281, -61.94396209716797, -197.67054748535156, -150.84512329101562, -0.03200000151991844, -0.08000000566244125, 1.055999994277954, 0.0, 0.0, 0.0, 0.0, 0.0, 1.621343752496817E9, 2021-05-18 15:15:52.496
68.0, -103.19506072998047, -35.2186393737793, -186.73133850097656, -136.13235473632812, -0.03200000151991844, -0.08000000566244125, 1.055999994277954, 0.0, 0.0, 0.0, 0.0, 0.0, 1.6213437524975657E9, 2021-05-18 15:15:52.497
68.0, -67.1312026977539, 56.577205657958984, -110.69168853759766, -54.51278305053711, -0.03200000151991844, -0.08000000566244125, 1.055999994277954, 0.0, 0.0, 0.0, 0.0, 0.0, 1.6213437524975657E9, 2021-05-18 15:15:52.497
69.0, -9.600322723388672, 133.81361389160156, -16.88751792907715, 32.103302001953125, -0.03200000151991844, -0.08000000566244125, 1.055999994277954, 0.0, 0.0, 0.0, 0.0, 0.0, 1.621343752524521E9, 2021-05-18 15:15:52.524
69.0, -110.05029296875, -57.156890869140625, -203.75161743164062, -149.9886932373047, -0.03200000151991844, -0.08000000566244125, 1.055999994277954, 0.0, 0.0, 0.0, 0.0, 0.0, 1.621343752524521E9, 2021-05-18 15:15:52.524
70.0, -102.42838287353516, -30.906532287597656, -189.5362548828125, -132.38124084472656, -0.03200000151991844, -0.08000000566244125, 1.055999994277954, 0.0, 0.0, 0.0, 0.0, 0.0, 1.6213437525397635E9, 2021-05-18 15:15:52.539
70.0, -66.02045440673828, 52.39973831176758, -110.32518005371094, -50.039859771728516, -0.03200000151991844, -0.08000000566244125, 1.055999994277954, 0.0, 0.0, 0.0, 0.0, 0.0, 1.6213437525397635E9, 2021-05-18 15:15:52.539
71.0, -8.519492149353027, 135.90048217773438, -17.51582145690918, 34.57911682128906, -0.03200000151991844, -0.08000000566244125, 1.055999994277954, 0.0, 0.0, 0.0, 0.0, 0.0, 1.62134375254039E9, 2021-05-18 15:15:52.540
71.0, -110.23728942871094, -58.7687873840332, -200.774658203125, -146.26748657226562, -0.03200000151991844, -0.08000000566244125, 1.055999994277954, 0.0, 0.0, 0.0, 0.0, 0.0, 1.62134375254039E9, 2021-05-18 15:15:52.540
72.0, -107.01349639892578, -33.337467193603516, -188.84063720703125, -126.67041015625, -0.03200000151991844, -0.08000000566244125, 1.055999994277954, 0.0, 0.0, 0.0, 0.0, 0.0, 1.6213437525412388E9, 2021-05-18 15:15:52.541
72.0, -82.07584381103516, 58.66407012939453, -111.19657897949219, -48.846832275390625, -0.03200000151991844, -0.08000000566244125, 1.055999994277954, 0.0, 0.0, 0.0, 0.0, 0.0, 1.6213437525412388E9, 2021-05-18 15:15:52.541
73.0, -18.849096298217773, 129.9016876220703, -19.632604598999023, 38.04226303100586, -0.03200000151991844, -0.08000000566244125, 1.055999994277954, 0.0, 0.0, 0.0, 0.0, 0.0, 1.6213437525532937E9, 2021-05-18 15:15:52.553
73.0, -117.54131317138672, -65.80728149414062, -202.24444580078125, -146.67514038085938, -0.03200000151991844, -0.08000000566244125, 1.055999994277954, 0.0, 0.0, 0.0, 0.0, 0.0, 1.6213437525532937E9, 2021-05-18 15:15:52.553
74.0, -110.48786163330078, -42.70591735839844, -186.5630340576172, -134.53915405273438, -0.03200000151991844, -0.08000000566244125, 1.055999994277954, 0.0, 0.0, 0.0, 0.0, 0.0, 1.621343752585358E9, 2021-05-18 15:15:52.585
74.0, -69.80522918701172, 48.63739776611328, -109.73053741455078, -47.45933151245117, -0.03200000151991844, -0.08000000566244125, 1.055999994277954, 0.0, 0.0, 0.0, 0.0, 0.0, 1.621343752585358E9, 2021-05-18 15:15:52.585
75.0, -13.609496116638184, 117.47773742675781, -21.35295867919922, 30.05009651184082, -0.03200000151991844, -0.08000000566244125, 1.055999994277954, 0.0, 0.0, 0.0, 0.0, 0.0, 1.6213437525861027E9, 2021-05-18 15:15:52.586
75.0, -121.59162902832031, -61.401676177978516, -210.76019287109375, -146.7686309814453, -0.03200000151991844, -0.08000000566244125, 1.055999994277954, 0.0, 0.0, 0.0, 0.0, 0.0, 1.6213437525861027E9, 2021-05-18 15:15:52.586
76.0, -107.57073974609375, -25.83148956298828, -198.7289276123047, -136.57366943359375, -0.03200000151991844, -0.08000000566244125, 1.055999994277954, 0.0, 0.0, 0.0, 0.0, 0.0, 1.6213437525868423E9, 2021-05-18 15:15:52.586
76.0, -64.4609146118164, 40.551734924316406, -117.87229919433594, -51.02719497680664, -0.03200000151991844, -0.08000000566244125, 1.055999994277954, 0.0, 0.0, 0.0, 0.0, 0.0, 1.6213437525868423E9, 2021-05-18 15:15:52.586
77.0, -7.6219162940979, 134.18386840820312, -22.19817543029785, 34.54545593261719, -0.03200000151991844, -0.08000000566244125, 1.055999994277954, 0.0, 0.0, 0.0, 0.0, 0.0, 1.6213437525875936E9, 2021-05-18 15:15:52.587
77.0, -115.76112365722656, -61.92900466918945, -208.2769012451172, -145.44845581054688, -0.03200000151991844, -0.08000000566244125, 1.055999994277954, 0.0, 0.0, 0.0, 0.0, 0.0, 1.6213437525875936E9, 2021-05-18 15:15:52.587
78.0, -106.34779357910156, -31.48247718811035, -196.60093688964844, -126.02714538574219, -0.03200000151991844, -0.08000000566244125, 1.055999994277954, 0.0, 0.0, 0.0, 0.0, 0.0, 1.6213437525983322E9, 2021-05-18 15:15:52.598
78.0, -63.35764694213867, 44.14204025268555, -120.25086975097656, -50.21563720703125, -0.03200000151991844, -0.08000000566244125, 1.055999994277954, 0.0, 0.0, 0.0, 0.0, 0.0, 1.6213437525983322E9, 2021-05-18 15:15:52.598
79.0, -6.170835018157959, 130.58609008789062, -22.67314338684082, 38.412513732910156, -0.03200000151991844, -0.08000000566244125, 1.055999994277954, 0.0, 0.0, 0.0, 0.0, 0.0, 1.6213437526134098E9, 2021-05-18 15:15:52.613
79.0, -110.91421508789062, -57.47852325439453, -204.75390625, -143.29052734375, -0.03200000151991844, -0.08000000566244125, 1.055999994277954, 0.0, 0.0, 0.0, 0.0, 0.0, 1.6213437526134098E9, 2021-05-18 15:15:52.613
80.0, -106.70308685302734, -39.85611343383789, -194.90301513671875, -130.49632263183594, -0.03200000151991844, -0.08000000566244125, 1.055999994277954, 0.0, 0.0, 0.0, 0.0, 0.0, 1.6213437526297047E9, 2021-05-18 15:15:52.629
80.0, -68.76927947998047, 64.73392486572266, -112.08293151855469, -46.78614807128906, -0.03200000151991844, -0.08000000566244125, 1.055999994277954, 0.0, 0.0, 0.0, 0.0, 0.0, 1.6213437526297047E9, 2021-05-18 15:15:52.629
81.0, -9.95561408996582, 131.52479553222656, -23.30144691467285, 34.822208404541016, -0.03200000151991844, -0.08000000566244125, 1.055999994277954, 0.0, 0.0, 0.0, 0.0, 0.0, 1.6213437526303926E9, 2021-05-18 15:15:52.630
81.0, -111.28072357177734, -54.73717498779297, -199.51805114746094, -136.01641845703125, -0.03200000151991844, -0.08000000566244125, 1.055999994277954, 0.0, 0.0, 0.0, 0.0, 0.0, 1.6213437526303926E9, 2021-05-18 15:15:52.630
82.0, -115.61526489257812, -37.111026763916016, -194.97781372070312, -118.10230255126953, -0.03200000151991844, -0.08000000566244125, 1.055999994277954, 0.0, 0.0, 0.0, 0.0, 0.0, 1.6213437526433113E9, 2021-05-18 15:15:52.643
82.0, -83.71765899658203, 40.58539581298828, -114.59614562988281, -39.28017044067383, -0.03200000151991844, -0.08000000566244125, 1.055999994277954, 0.0, 0.0, 0.0, 0.0, 0.0, 1.6213437526433113E9, 2021-05-18 15:15:52.643
83.0, -19.440000534057617, 138.98590087890625, -19.23243522644043, 51.44980239868164, -0.03200000151991844, -0.08000000566244125, 1.055999994277954, 0.0, 0.0, 0.0, 0.0, 0.0, 1.6213437526590912E9, 2021-05-18 15:15:52.659
83.0, -119.1419906616211, -58.79496765136719, -197.33021545410156, -131.6669158935547, -0.03200000151991844, -0.08000000566244125, 1.055999994277954, 0.0, 0.0, 0.0, 0.0, 0.0, 1.6213437526590912E9, 2021-05-18 15:15:52.659
84.0, -111.19844818115234, -40.79108810424805, -192.44964599609375, -119.81143188476562, -0.03200000151991844, -0.08000000566244125, 1.055999994277954, 0.0, 0.0, 0.0, 0.0, 0.0, 1.6213437526598687E9, 2021-05-18 15:15:52.659
84.0, -77.69641876220703, 50.39141082763672, -118.78483581542969, -40.18148422241211, -0.03200000151991844, -0.08000000566244125, 1.055999994277954, 0.0, 0.0, 0.0, 0.0, 0.0, 1.6213437526598687E9, 2021-05-18 15:15:52.659
85.0, -10.198707580566406, 135.88926696777344, -23.869911193847656, 40.742469787597656, -0.03200000151991844, -0.08000000566244125, 1.055999994277954, 0.0, 0.0, 0.0, 0.0, 0.0, 1.621343752673472E9, 2021-05-18 15:15:52.673
85.0, -113.12449645996094, -64.2963638305664, -196.2381591796875, -140.661376953125, -0.03200000151991844, -0.08000000566244125, 1.055999994277954, 0.0, 0.0, 0.0, 0.0, 0.0, 1.621343752673472E9, 2021-05-18 15:15:52.673
86.0, -99.14474487304688, -31.493698120117188, -189.39039611816406, -118.20327758789062, -0.03200000151991844, -0.08000000566244125, 1.055999994277954, 0.0, 0.0, 0.0, 0.0, 0.0, 1.6213437527054489E9, 2021-05-18 15:15:52.705
86.0, -66.0241928100586, 55.346778869628906, -112.66261291503906, -42.791934967041016, -0.03200000151991844, -0.08000000566244125, 1.055999994277954, 0.0, 0.0, 0.0, 0.0, 0.0, 1.6213437527054489E9, 2021-05-18 15:15:52.705
87.0, -16.309703826904297, 142.9539337158203, -22.639484405517578, 37.50371551513672, -0.03200000151991844, -0.08000000566244125, 1.055999994277954, 0.0, 0.0, 0.0, 0.0, 0.0, 1.621343752706156E9, 2021-05-18 15:15:52.706
87.0, -121.13909912109375, -62.58722686767578, -204.25650024414062, -141.02415466308594, -0.03200000151991844, -0.08000000566244125, 1.055999994277954, 0.0, 0.0, 0.0, 0.0, 0.0, 1.621343752706156E9, 2021-05-18 15:15:52.706
88.0, -111.52755737304688, -27.18907356262207, -190.42636108398438, -125.84015655517578, -0.03200000151991844, -0.08000000566244125, 1.055999994277954, 0.0, 0.0, 0.0, 0.0, 0.0, 1.621343752706865E9, 2021-05-18 15:15:52.706
88.0, -73.37683868408203, 52.818607330322266, -111.85853576660156, -46.91704559326172, -0.03200000151991844, -0.08000000566244125, 1.055999994277954, 0.0, 0.0, 0.0, 0.0, 0.0, 1.621343752706865E9, 2021-05-18 15:15:52.706
89.0, -10.07529067993164, 138.69418334960938, -14.527641296386719, 40.346038818359375, -0.03200000151991844, -0.08000000566244125, 1.055999994277954, 0.0, 0.0, 0.0, 0.0, 0.0, 1.6213437527077336E9, 2021-05-18 15:15:52.707
89.0, -114.99444580078125, -62.48624801635742, -202.56607055664062, -140.4594268798828, -0.03200000151991844, -0.08000000566244125, 1.055999994277954, 0.0, 0.0, 0.0, 0.0, 0.0, 1.6213437527077336E9, 2021-05-18 15:15:52.707
90.0, -108.8236083984375, -40.794830322265625, -186.9071044921875, -121.32609558105469, -0.03200000151991844, -0.08000000566244125, 1.055999994277954, 0.0, 0.0, 0.0, 0.0, 0.0, 1.6213437527184188E9, 2021-05-18 15:15:52.718
90.0, -66.83201599121094, 32.32395553588867, -113.06278228759766, -44.7965202331543, -0.03200000151991844, -0.08000000566244125, 1.055999994277954, 0.0, 0.0, 0.0, 0.0, 0.0, 1.6213437527184188E9, 2021-05-18 15:15:52.718
91.0, -8.7999849319458, 122.90058898925781, -22.48240852355957, 41.25483703613281, -0.03200000151991844, -0.08000000566244125, 1.055999994277954, 0.0, 0.0, 0.0, 0.0, 0.0, 1.6213437527333255E9, 2021-05-18 15:15:52.733
91.0, -114.16044616699219, -54.5501823425293, -199.25625610351562, -134.44192504882812, -0.03200000151991844, -0.08000000566244125, 1.055999994277954, 0.0, 0.0, 0.0, 0.0, 0.0, 1.6213437527333255E9, 2021-05-18 15:15:52.733
92.0, -106.47869110107422, -34.54545593261719, -186.5331268310547, -113.36758422851562, -0.03200000151991844, -0.08000000566244125, 1.055999994277954, 0.0, 0.0, 0.0, 0.0, 0.0, 1.6213437527498205E9, 2021-05-18 15:15:52.749
92.0, -71.64900207519531, 43.158447265625, -113.36946105957031, -38.38259506225586, -0.03200000151991844, -0.08000000566244125, 1.055999994277954, 0.0, 0.0, 0.0, 0.0, 0.0, 1.6213437527498205E9, 2021-05-18 15:15:52.749
93.0, -12.9961519241333, 122.60887908935547, -16.85011863708496, 45.29018783569336, -0.03200000151991844, -0.08000000566244125, 1.055999994277954, 0.0, 0.0, 0.0, 0.0, 0.0, 1.621343752750444E9, 2021-05-18 15:15:52.750
93.0, -116.10893249511719, -60.61629867553711, -206.10028076171875, -137.1496124267578, -0.03200000151991844, -0.08000000566244125, 1.055999994277954, 0.0, 0.0, 0.0, 0.0, 0.0, 1.621343752750444E9, 2021-05-18 15:15:52.750
94.0, -106.235595703125, -34.724971771240234, -187.45687866210938, -115.13282012939453, -0.03200000151991844, -0.08000000566244125, 1.055999994277954, 0.0, 0.0, 0.0, 0.0, 0.0, 1.6213437527634013E9, 2021-05-18 15:15:52.763
94.0, -63.462364196777344, 56.51736831665039, -107.52025604248047, -36.21345138549805, -0.03200000151991844, -0.08000000566244125, 1.055999994277954, 0.0, 0.0, 0.0, 0.0, 0.0, 1.6213437527634013E9, 2021-05-18 15:15:52.763
95.0, -13.403800964355469, 130.5823516845703, -22.358991622924805, 43.58853530883789, -0.03200000151991844, -0.08000000566244125, 1.055999994277954, 0.0, 0.0, 0.0, 0.0, 0.0, 1.6213437527791326E9, 2021-05-18 15:15:52.779
95.0, -114.44841766357422, -64.79376983642578, -201.44036865234375, -132.527099609375, -0.03200000151991844, -0.08000000566244125, 1.055999994277954, 0.0, 0.0, 0.0, 0.0, 0.0, 1.6213437527791326E9, 2021-05-18 15:15:52.779
96.0, -108.69271087646484, -34.96806335449219, -186.12921142578125, -118.3379135131836, -0.03200000151991844, -0.08000000566244125, 1.055999994277954, 0.0, 0.0, 0.0, 0.0, 0.0, 1.6213437527797625E9, 2021-05-18 15:15:52.779
96.0, -70.39239501953125, 52.145423889160156, -109.14337158203125, -40.06180953979492, -0.03200000151991844, -0.08000000566244125, 1.055999994277954, 0.0, 0.0, 0.0, 0.0, 0.0, 1.6213437527797625E9, 2021-05-18 15:15:52.779
97.0, -13.5421781539917, 140.74365234375, -14.598699569702148, 41.87565994262695, -0.03200000151991844, -0.08000000566244125, 1.055999994277954, 0.0, 0.0, 0.0, 0.0, 0.0, 1.621343752793429E9, 2021-05-18 15:15:52.793
97.0, -117.1935043334961, -39.70651626586914, -194.85813903808594, -139.9433135986328, -0.03200000151991844, -0.08000000566244125, 1.055999994277954, 0.0, 0.0, 0.0, 0.0, 0.0, 1.621343752793429E9, 2021-05-18 15:15:52.793
98.0, -118.50621032714844, -36.389225006103516, -186.17034912109375, -117.48147583007812, -0.03200000151991844, -0.08000000566244125, 1.055999994277954, 0.0, 0.0, 0.0, 0.0, 0.0, 1.6213437528090613E9, 2021-05-18 15:15:52.809
98.0, -79.35319519042969, 49.26944351196289, -106.67503356933594, -39.18292999267578, -0.03200000151991844, -0.08000000566244125, 1.055999994277954, 0.0, 0.0, 0.0, 0.0, 0.0, 1.6213437528090613E9, 2021-05-18 15:15:52.809
99.0, -18.482585906982422, 142.98011779785156, -17.145570755004883, 39.4559440612793, -0.03200000151991844, -0.08000000566244125, 1.055999994277954, 0.0, 0.0, 0.0, 0.0, 0.0, 1.6213437528097875E9, 2021-05-18 15:15:52.809
99.0, -123.75328826904297, -51.715335845947266, -198.85235595703125, -142.66221618652344, -0.03200000151991844, -0.08000000566244125, 1.055999994277954, 0.0, 0.0, 0.0, 0.0, 0.0, 1.6213437528097875E9, 2021-05-18 15:15:52.809
100.0, -110.59632110595703, -28.20632553100586, -191.87744140625, -130.6646270751953, -0.03200000151991844, -0.08000000566244125, 1.040000081062317, 0.0, 0.0, 0.0, 0.0, 0.0, 1.6213437528241313E9, 2021-05-18 15:15:52.824
100.0, -73.5526123046875, 47.081600189208984, -116.78772735595703, -50.754180908203125, -0.03200000151991844, -0.08000000566244125, 1.040000081062317, 0.0, 0.0, 0.0, 0.0, 0.0, 1.6213437528241313E9, 2021-05-18 15:15:52.824
0.0, -15.685140609741211, 141.24853515625, -24.39723777770996, 28.25681495666504, -0.03200000151991844, -0.08000000566244125, 1.040000081062317, 0.0, 0.0, 0.0, 0.0, 0.0, 1.6213437528248677E9, 2021-05-18 15:15:52.824
1.0, -113.8014144897461, -62.893898010253906, -202.5024871826172, -143.38963317871094, -0.03200000151991844, -0.08000000566244125, 1.040000081062317, 0.0, 0.0, 0.0, 0.0, 0.0, 1.6213437528384693E9, 2021-05-18 15:15:52.838
1.0, -100.5359878540039, -40.5704345703125, -192.51695251464844, -124.469482421875, -0.03200000151991844, -0.08000000566244125, 1.040000081062317, 0.0, 0.0, 0.0, 0.0, 0.0, 1.6213437528384693E9, 2021-05-18 15:15:52.838
2.0, -71.19647216796875, 52.35111999511719, -111.1778793334961, -41.69053649902344, -0.03200000151991844, -0.08000000566244125, 1.040000081062317, 0.0, 0.0, 0.0, 0.0, 0.0, 1.6213437528540576E9, 2021-05-18 15:15:52.854
2.0, -14.062024116516113, 128.04669189453125, -25.059200286865234, 41.46240234375, -0.03200000151991844, -0.08000000566244125, 1.040000081062317, 0.0, 0.0, 0.0, 0.0, 0.0, 1.6213437528540576E9, 2021-05-18 15:15:52.854
3.0, -116.70357513427734, -54.34822463989258, -200.53530883789062, -137.51051330566406, -0.03200000151991844, -0.08000000566244125, 1.040000081062317, 0.0, 0.0, 0.0, 0.0, 0.0, 1.621343752854804E9, 2021-05-18 15:15:52.854
3.0, -107.7427749633789, -34.822208404541016, -193.9493408203125, -119.90306091308594, -0.03200000151991844, -0.08000000566244125, 1.040000081062317, 0.0, 0.0, 0.0, 0.0, 0.0, 1.621343752854804E9, 2021-05-18 15:15:52.854
4.0, -70.20914459228516, 53.525447845458984, -119.01296997070312, -38.68365478515625, -0.03200000151991844, -0.08000000566244125, 1.040000081062317, 0.0, 0.0, 0.0, 0.0, 0.0, 1.6213437528683035E9, 2021-05-18 15:15:52.868
4.0, -16.403202056884766, 134.41200256347656, -28.93373680114746, 36.95956039428711, -0.03200000151991844, -0.08000000566244125, 1.040000081062317, 0.0, 0.0, 0.0, 0.0, 0.0, 1.6213437528683035E9, 2021-05-18 15:15:52.868
5.0, -115.07298278808594, -58.76130676269531, -206.74728393554688, -143.9693145751953, -0.03200000151991844, -0.08000000566244125, 1.040000081062317, 0.0, 0.0, 0.0, 0.0, 0.0, 1.6213437528840604E9, 2021-05-18 15:15:52.884
5.0, -104.04401397705078, -34.98676300048828, -192.60671997070312, -128.90499877929688, -0.03200000151991844, -0.08000000566244125, 1.040000081062317, 0.0, 0.0, 0.0, 0.0, 0.0, 1.6213437528840604E9, 2021-05-18 15:15:52.884
6.0, -62.123477935791016, 47.040462493896484, -115.478759765625, -46.61224365234375, -0.03200000151991844, -0.08000000566244125, 1.040000081062317, 0.0, 0.0, 0.0, 0.0, 0.0, 1.621343752884771E9, 2021-05-18 15:15:52.884
6.0, -6.039938449859619, 132.80384826660156, -30.706449508666992, 38.23860549926758, -0.03200000151991844, -0.08000000566244125, 1.040000081062317, 0.0, 0.0, 0.0, 0.0, 0.0, 1.621343752884771E9, 2021-05-18 15:15:52.884
7.0, -110.29712677001953, -57.50844192504883, -207.7645263671875, -138.12759399414062, -0.03200000151991844, -0.08000000566244125, 1.040000081062317, 0.0, 0.0, 0.0, 0.0, 0.0, 1.6213437528983371E9, 2021-05-18 15:15:52.898
7.0, -100.07971954345703, -35.66742706298828, -200.1501007080078, -127.7044906616211, -0.03200000151991844, -0.08000000566244125, 1.040000081062317, 0.0, 0.0, 0.0, 0.0, 0.0, 1.6213437528983371E9, 2021-05-18 15:15:52.898
8.0, -69.35270690917969, 63.417484283447266, -115.34412384033203, -45.624908447265625, -0.03200000151991844, -0.08000000566244125, 1.040000081062317, 0.0, 0.0, 0.0, 0.0, 0.0, 1.6213437529140286E9, 2021-05-18 15:15:52.914
8.0, -13.265424728393555, 130.1073760986328, -21.39409828186035, 38.72479248046875, -0.03200000151991844, -0.08000000566244125, 1.040000081062317, 0.0, 0.0, 0.0, 0.0, 0.0, 1.6213437529140286E9, 2021-05-18 15:15:52.914
9.0, -118.35287475585938, -57.3027458190918, -203.2355194091797, -141.6318817138672, -0.03200000151991844, -0.08000000566244125, 1.040000081062317, 0.0, 0.0, 0.0, 0.0, 0.0, 1.6213437529148335E9, 2021-05-18 15:15:52.914
9.0, -107.70537567138672, -26.41117286682129, -189.6147918701172, -122.1395263671875, -0.03200000151991844, -0.08000000566244125, 1.040000081062317, 0.0, 0.0, 0.0, 0.0, 0.0, 1.6213437529148335E9, 2021-05-18 15:15:52.914
10.0, -69.77157592773438, 49.57237243652344, -115.85275268554688, -49.45830535888672, -0.03200000151991844, -0.08000000566244125, 1.055999994277954, 0.0, 0.0, 0.0, 0.0, 0.0, 1.621343752928472E9, 2021-05-18 15:15:52.928
10.0, -7.128249168395996, 130.35421752929688, -27.015167236328125, 36.20036315917969, -0.03200000151991844, -0.08000000566244125, 1.055999994277954, 0.0, 0.0, 0.0, 0.0, 0.0, 1.621343752928472E9, 2021-05-18 15:15:52.928
11.0, -115.15899658203125, -54.10139465332031, -212.52542114257812, -141.73660278320312, -0.03200000151991844, -0.08000000566244125, 1.055999994277954, 0.0, 0.0, 0.0, 0.0, 0.0, 1.6213437529440954E9, 2021-05-18 15:15:52.944
11.0, -104.37313079833984, -28.699993133544922, -196.62710571289062, -125.29973602294922, -0.03200000151991844, -0.08000000566244125, 1.055999994277954, 0.0, 0.0, 0.0, 0.0, 0.0, 1.6213437529440954E9, 2021-05-18 15:15:52.944
12.0, -68.9151382446289, 49.658390045166016, -113.26473999023438, -41.15572738647461, -0.03200000151991844, -0.08000000566244125, 1.055999994277954, 0.0, 0.0, 0.0, 0.0, 0.0, 1.62134375294476E9, 2021-05-18 15:15:52.944
12.0, -15.026918411254883, 129.49777221679688, -26.330764770507812, 46.73191833496094, -0.03200000151991844, -0.08000000566244125, 1.055999994277954, 0.0, 0.0, 0.0, 0.0, 0.0, 1.62134375294476E9, 2021-05-18 15:15:52.944
13.0, -124.4414291381836, -51.55826187133789, -207.61492919921875, -137.8171844482422, -0.03200000151991844, -0.08000000566244125, 1.055999994277954, 0.0, 0.0, 0.0, 0.0, 0.0, 1.6213437529584343E9, 2021-05-18 15:15:52.958
13.0, -116.54650115966797, -31.39272117614746, -192.49452209472656, -118.22010803222656, -0.03200000151991844, -0.08000000566244125, 1.055999994277954, 0.0, 0.0, 0.0, 0.0, 0.0, 1.6213437529584343E9, 2021-05-18 15:15:52.958
14.0, -72.17259216308594, 48.73089599609375, -107.12382507324219, -32.54273986816406, -0.03200000151991844, -0.08000000566244125, 1.055999994277954, 0.0, 0.0, 0.0, 0.0, 0.0, 1.6213437529741244E9, 2021-05-18 15:15:52.974
14.0, -22.824609756469727, 137.07481384277344, -17.23906898498535, 49.75001907348633, -0.03200000151991844, -0.08000000566244125, 1.055999994277954, 0.0, 0.0, 0.0, 0.0, 0.0, 1.6213437529741244E9, 2021-05-18 15:15:52.974
15.0, -127.97563934326172, -56.154598236083984, -197.3788299560547, -132.08392333984375, -0.03200000151991844, -0.08000000566244125, 1.055999994277954, 0.0, 0.0, 0.0, 0.0, 0.0, 1.621343752974738E9, 2021-05-18 15:15:52.974
15.0, -118.62962341308594, -30.9102725982666, -180.71383666992188, -115.3366470336914, -0.03200000151991844, -0.08000000566244125, 1.055999994277954, 0.0, 0.0, 0.0, 0.0, 0.0, 1.621343752974738E9, 2021-05-18 15:15:52.974
16.0, -77.92081451416016, 51.09825134277344, -100.4032211303711, -36.15922164916992, -0.03200000151991844, -0.08000000566244125, 1.055999994277954, 0.0, 0.0, 0.0, 0.0, 0.0, 1.6213437529884129E9, 2021-05-18 15:15:52.988
16.0, -12.592243194580078, 142.58743286132812, -9.47503662109375, 44.304725646972656, -0.03200000151991844, -0.08000000566244125, 1.055999994277954, 0.0, 0.0, 0.0, 0.0, 0.0, 1.6213437529884129E9, 2021-05-18 15:15:52.988
17.0, -118.55108642578125, -62.366573333740234, -196.2418975830078, -135.150634765625, -0.03200000151991844, -0.08000000566244125, 1.055999994277954, 0.0, 0.0, 0.0, 0.0, 0.0, 1.6213437530040295E9, 2021-05-18 15:15:53.004
17.0, -108.53563690185547, -22.74981117248535, -186.75376892089844, -119.37199401855469, -0.03200000151991844, -0.08000000566244125, 1.055999994277954, 0.0, 0.0, 0.0, 0.0, 0.0, 1.6213437530040295E9, 2021-05-18 15:15:53.004
18.0, -65.04060363769531, 46.99932098388672, -107.72969055175781, -43.336090087890625, -0.03200000151991844, -0.08000000566244125, 1.055999994277954, 0.0, 0.0, 0.0, 0.0, 0.0, 1.6213437530047674E9, 2021-05-18 15:15:53.004
18.0, -8.2427396774292, 127.63904571533203, -20.092613220214844, 38.5340576171875, -0.03200000151991844, -0.08000000566244125, 1.055999994277954, 0.0, 0.0, 0.0, 0.0, 0.0, 1.6213437530047674E9, 2021-05-18 15:15:53.004
19.0, -117.10000610351562, -71.59290313720703, -201.20474243164062, -145.6522674560547, -0.03200000151991844, -0.08000000566244125, 1.055999994277954, 0.0, 0.0, 0.0, 0.0, 0.0, 1.621343753018298E9, 2021-05-18 15:15:53.018
19.0, -113.15441131591797, -38.52470779418945, -182.98394775390625, -126.36560821533203, -0.03200000151991844, -0.08000000566244125, 1.055999994277954, 0.0, 0.0, 0.0, 0.0, 0.0, 1.621343753018298E9, 2021-05-18 15:15:53.018
20.0, -76.43981170654297, 51.49468231201172, -100.4032211303711, -45.65482711791992, -0.03200000151991844, -0.08000000566244125, 1.040000081062317, 0.0, 0.0, 0.0, 0.0, 0.0, 1.6213437530340204E9, 2021-05-18 15:15:53.034
20.0, -11.466533660888672, 131.48365783691406, -10.473589897155762, 37.84965896606445, -0.03200000151991844, -0.08000000566244125, 1.040000081062317, 0.0, 0.0, 0.0, 0.0, 0.0, 1.6213437530340204E9, 2021-05-18 15:15:53.034
21.0, -114.14922332763672, -65.00694274902344, -196.7804412841797, -142.08815002441406, -0.03200000151991844, -0.08000000566244125, 1.040000081062317, 0.0, 0.0, 0.0, 0.0, 0.0, 1.6213437530347793E9, 2021-05-18 15:15:53.034
21.0, -103.99166107177734, -38.259178161621094, -181.3047332763672, -116.159423828125, -0.03200000151991844, -0.08000000566244125, 1.040000081062317, 0.0, 0.0, 0.0, 0.0, 0.0, 1.6213437530347793E9, 2021-05-18 15:15:53.034
22.0, -69.44620513916016, 44.003662109375, -108.51506805419922, -38.53031921386719, -0.03200000151991844, -0.08000000566244125, 1.040000081062317, 0.0, 0.0, 0.0, 0.0, 0.0, 1.6213437530484352E9, 2021-05-18 15:15:53.048
22.0, -6.735559940338135, 116.19869232177734, -19.370811462402344, 48.078285217285156, -0.03200000151991844, -0.08000000566244125, 1.040000081062317, 0.0, 0.0, 0.0, 0.0, 0.0, 1.6213437530484352E9, 2021-05-18 15:15:53.048
23.0, -104.93411254882812, -63.20804977416992, -190.5535125732422, -135.7490234375, -0.03200000151991844, -0.08000000566244125, 1.040000081062317, 0.0, 0.0, 0.0, 0.0, 0.0, 1.6213437530641105E9, 2021-05-18 15:15:53.064
23.0, -105.49884033203125, -47.7660026550293, -181.7385711669922, -114.02394104003906, -0.03200000151991844, -0.08000000566244125, 1.040000081062317, 0.0, 0.0, 0.0, 0.0, 0.0, 1.6213437530641105E9, 2021-05-18 15:15:53.064
24.0, -66.90306854248047, 42.53388214111328, -106.71617889404297, -39.663509368896484, -0.03200000151991844, -0.08000000566244125, 1.040000081062317, 0.0, 0.0, 0.0, 0.0, 0.0, 1.62134375306474E9, 2021-05-18 15:15:53.064
24.0, -12.895174980163574, 139.54315185546875, -15.511235237121582, 44.345863342285156, -0.03200000151991844, -0.08000000566244125, 1.040000081062317, 0.0, 0.0, 0.0, 0.0, 0.0, 1.62134375306474E9, 2021-05-18 15:15:53.064
25.0, -115.55168914794922, -59.10163879394531, -199.07675170898438, -141.759033203125, -0.03200000151991844, -0.08000000566244125, 1.040000081062317, 0.0, 0.0, 0.0, 0.0, 0.0, 1.6213437530785325E9, 2021-05-18 15:15:53.078
25.0, -109.9867172241211, -34.582855224609375, -193.75860595703125, -127.87652587890625, -0.03200000151991844, -0.08000000566244125, 1.040000081062317, 0.0, 0.0, 0.0, 0.0, 0.0, 1.6213437530785325E9, 2021-05-18 15:15:53.078
26.0, -62.9013786315918, 54.22854995727539, -109.37150573730469, -43.98309326171875, -0.03200000151991844, -0.08000000566244125, 1.040000081062317, 0.0, 0.0, 0.0, 0.0, 0.0, 1.621343753094166E9, 2021-05-18 15:15:53.094
26.0, -4.113890171051025, 123.43914031982422, -17.818754196166992, 39.83554458618164, -0.03200000151991844, -0.08000000566244125, 1.040000081062317, 0.0, 0.0, 0.0, 0.0, 0.0, 1.621343753094166E9, 2021-05-18 15:15:53.094
27.0, -112.44009399414062, -57.49348068237305, -203.1494903564453, -147.5745849609375, -0.03200000151991844, -0.08000000566244125, 1.040000081062317, 0.0, 0.0, 0.0, 0.0, 0.0, 1.6213437530948176E9, 2021-05-18 15:15:53.094
27.0, -106.62828826904297, -42.96023178100586, -190.4300994873047, -129.20045471191406, -0.03200000151991844, -0.08000000566244125, 1.040000081062317, 0.0, 0.0, 0.0, 0.0, 0.0, 1.6213437530948176E9, 2021-05-18 15:15:53.094
28.0, -66.65997314453125, 45.88483428955078, -112.4083023071289, -48.76642608642578, -0.03200000151991844, -0.08000000566244125, 1.040000081062317, 0.0, 0.0, 0.0, 0.0, 0.0, 1.6213437531084728E9, 2021-05-18 15:15:53.108
28.0, -3.500546455383301, 125.40632629394531, -24.344879150390625, 28.817798614501953, -0.03200000151991844, -0.08000000566244125, 1.040000081062317, 0.0, 0.0, 0.0, 0.0, 0.0, 1.6213437531084728E9, 2021-05-18 15:15:53.108
29.0, -102.93700408935547, -70.6018295288086, -206.20498657226562, -150.69740295410156, -0.03200000151991844, -0.08000000566244125, 1.040000081062317, 0.0, 0.0, 0.0, 0.0, 0.0, 1.6213437531241136E9, 2021-05-18 15:15:53.124
29.0, -99.21206665039062, -39.407325744628906, -191.3201904296875, -135.46852111816406, -0.03200000151991844, -0.08000000566244125, 1.040000081062317, 0.0, 0.0, 0.0, 0.0, 0.0, 1.6213437531241136E9, 2021-05-18 15:15:53.124
30.0, -55.85914611816406, 42.1075325012207, -108.25701141357422, -52.79429626464844, -0.03200000151991844, -0.08000000566244125, 1.040000081062317, 0.0, 0.0, 0.0, 0.0, 0.0, 1.6213437531248512E9, 2021-05-18 15:15:53.124
30.0, 1.5146595239639282, 118.52117156982422, -24.96944236755371, 29.240407943725586, -0.03200000151991844, -0.08000000566244125, 1.040000081062317, 0.0, 0.0, 0.0, 0.0, 0.0, 1.6213437531248512E9, 2021-05-18 15:15:53.124
31.0, -103.09033966064453, -65.85589599609375, -203.38511657714844, -148.40110778808594, -0.03200000151991844, -0.08000000566244125, 1.040000081062317, 0.0, 0.0, 0.0, 0.0, 0.0, 1.6213437531383033E9, 2021-05-18 15:15:53.138
31.0, -94.34272003173828, -34.57911682128906, -189.26324462890625, -122.83514404296875, -0.03200000151991844, -0.08000000566244125, 1.040000081062317, 0.0, 0.0, 0.0, 0.0, 0.0, 1.6213437531383033E9, 2021-05-18 15:15:53.138
32.0, -57.04843521118164, 56.37151336669922, -111.2227554321289, -46.825416564941406, -0.03200000151991844, -0.08000000566244125, 1.040000081062317, 0.0, 0.0, 0.0, 0.0, 0.0, 1.6213437531541157E9, 2021-05-18 15:15:53.154
32.0, 1.9971065521240234, 134.58778381347656, -13.211196899414062, 33.64601135253906, -0.03200000151991844, -0.08000000566244125, 1.040000081062317, 0.0, 0.0, 0.0, 0.0, 0.0, 1.6213437531541157E9, 2021-05-18 15:15:53.154
33.0, -106.39641571044922, -49.433998107910156, -199.001953125, -145.97390747070312, -0.03200000151991844, -0.08000000566244125, 1.040000081062317, 0.0, 0.0, 0.0, 0.0, 0.0, 1.6213437531548848E9, 2021-05-18 15:15:53.154
33.0, -94.04352569580078, -40.18522644042969, -185.7327880859375, -124.85469055175781, -0.03200000151991844, -0.08000000566244125, 1.040000081062317, 0.0, 0.0, 0.0, 0.0, 0.0, 1.6213437531548848E9, 2021-05-18 15:15:53.154
34.0, -54.56513977050781, 43.655853271484375, -109.92127227783203, -40.78548049926758, -0.03200000151991844, -0.08000000566244125, 1.040000081062317, 0.0, 0.0, 0.0, 0.0, 0.0, 1.6213437531683013E9, 2021-05-18 15:15:53.168
34.0, -0.20195460319519043, 128.1177520751953, -25.257413864135742, 36.26768112182617, -0.03200000151991844, -0.08000000566244125, 1.040000081062317, 0.0, 0.0, 0.0, 0.0, 0.0, 1.6213437531683013E9, 2021-05-18 15:15:53.168
35.0, -107.72407531738281, -52.205265045166016, -215.94369506835938, -140.64080810546875, -0.03200000151991844, -0.08000000566244125, 1.040000081062317, 0.0, 0.0, 0.0, 0.0, 0.0, 1.6213437531845458E9, 2021-05-18 15:15:53.184
35.0, -105.24078369140625, -32.58574676513672, -200.54652404785156, -126.41796875, -0.03200000151991844, -0.08000000566244125, 1.040000081062317, 0.0, 0.0, 0.0, 0.0, 0.0, 1.6213437531845458E9, 2021-05-18 15:15:53.184
36.0, -73.44415283203125, 42.791934967041016, -121.97496795654297, -50.161407470703125, -0.03200000151991844, -0.08000000566244125, 1.040000081062317, 0.0, 0.0, 0.0, 0.0, 0.0, 1.6213437531990175E9, 2021-05-18 15:15:53.199
36.0, -10.991565704345703, 138.9148406982422, -25.926856994628906, 39.49147415161133, -0.03200000151991844, -0.08000000566244125, 1.040000081062317, 0.0, 0.0, 0.0, 0.0, 0.0, 1.6213437531990175E9, 2021-05-18 15:15:53.199
37.0, -113.79019927978516, -46.90208435058594, -207.218505859375, -147.71670532226562, -0.03200000151991844, -0.08000000566244125, 1.040000081062317, 0.0, 0.0, 0.0, 0.0, 0.0, 1.6213437531997628E9, 2021-05-18 15:15:53.199
37.0, -106.61332702636719, -24.53748321533203, -199.5068359375, -129.6903839111328, -0.03200000151991844, -0.08000000566244125, 1.040000081062317, 0.0, 0.0, 0.0, 0.0, 0.0, 1.6213437531997628E9, 2021-05-18 15:15:53.199
38.0, -69.8388900756836, 49.2918815612793, -118.4258041381836, -56.99794387817383, -0.03200000151991844, -0.08000000566244125, 1.040000081062317, 0.0, 0.0, 0.0, 0.0, 0.0, 1.621343753214115E9, 2021-05-18 15:15:53.214
38.0, -10.5315580368042, 138.21548461914062, -29.921070098876953, 27.23208236694336, -0.03200000151991844, -0.08000000566244125, 1.040000081062317, 0.0, 0.0, 0.0, 0.0, 0.0, 1.621343753214115E9, 2021-05-18 15:15:53.214
39.0, -113.62564086914062, -50.92621612548828, -208.3180389404297, -147.62693786621094, -0.03200000151991844, -0.08000000566244125, 1.040000081062317, 0.0, 0.0, 0.0, 0.0, 0.0, 1.6213437532147298E9, 2021-05-18 15:15:53.214
39.0, -106.34031677246094, -31.445077896118164, -196.47377014160156, -140.09478759765625, -0.03200000151991844, -0.08000000566244125, 1.040000081062317, 0.0, 0.0, 0.0, 0.0, 0.0, 1.6213437532147298E9, 2021-05-18 15:15:53.214
40.0, -65.9419174194336, 65.49686431884766, -117.60302734375, -50.09408950805664, -0.03200000151991844, -0.08000000566244125, 1.055999994277954, 0.0, 0.0, 0.0, 0.0, 0.0, 1.621343753228367E9, 2021-05-18 15:15:53.228
40.0, -7.81265115737915, 136.13983154296875, -26.540199279785156, 32.8531494140625, -0.03200000151991844, -0.08000000566244125, 1.055999994277954, 0.0, 0.0, 0.0, 0.0, 0.0, 1.621343753228367E9, 2021-05-18 15:15:53.228
41.0, -105.59607696533203, -59.38212966918945, -205.23635864257812, -144.03663635253906, -0.03200000151991844, -0.08000000566244125, 1.055999994277954, 0.0, 0.0, 0.0, 0.0, 0.0, 1.6213437532441096E9, 2021-05-18 15:15:53.244
41.0, -97.70862579345703, -38.19186019897461, -195.88661193847656, -125.7186050415039, -0.03200000151991844, -0.08000000566244125, 1.055999994277954, 0.0, 0.0, 0.0, 0.0, 0.0, 1.6213437532441096E9, 2021-05-18 15:15:53.244
42.0, -60.65743637084961, 48.33820724487305, -116.97097778320312, -40.4301872253418, -0.03200000151991844, -0.08000000566244125, 1.055999994277954, 0.0, 0.0, 0.0, 0.0, 0.0, 1.6213437532448328E9, 2021-05-18 15:15:53.244
42.0, -13.18688678741455, 132.57945251464844, -32.307125091552734, 36.69776916503906, -0.03200000151991844, -0.08000000566244125, 1.055999994277954, 0.0, 0.0, 0.0, 0.0, 0.0, 1.6213437532448328E9, 2021-05-18 15:15:53.244
43.0, -119.46736145019531, -55.002708435058594, -207.5177001953125, -136.3810577392578, -0.03200000151991844, -0.08000000566244125, 1.055999994277954, 0.0, 0.0, 0.0, 0.0, 0.0, 1.6213437532584305E9, 2021-05-18 15:15:53.258
43.0, -108.47579956054688, -31.31418228149414, -195.63229370117188, -117.76383972167969, -0.03200000151991844, -0.08000000566244125, 1.055999994277954, 0.0, 0.0, 0.0, 0.0, 0.0, 1.6213437532584305E9, 2021-05-18 15:15:53.258
44.0, -70.00344848632812, 53.241214752197266, -116.00608825683594, -39.48399353027344, -0.03200000151991844, -0.08000000566244125, 1.055999994277954, 0.0, 0.0, 0.0, 0.0, 0.0, 1.6213437532911427E9, 2021-05-18 15:15:53.291
44.0, -19.028610229492188, 138.4997100830078, -31.54792594909668, 33.27949905395508, -0.03200000151991844, -0.08000000566244125, 1.055999994277954, 0.0, 0.0, 0.0, 0.0, 0.0, 1.6213437532911427E9, 2021-05-18 15:15:53.291
45.0, -120.17794799804688, -46.565494537353516, -212.7236328125, -138.6623992919922, -0.03200000151991844, -0.08000000566244125, 1.055999994277954, 0.0, 0.0, 0.0, 0.0, 0.0, 1.6213437532918856E9, 2021-05-18 15:15:53.291
45.0, -114.65785217285156, -27.03947639465332, -203.0260772705078, -118.97557067871094, -0.03200000151991844, -0.08000000566244125, 1.055999994277954, 0.0, 0.0, 0.0, 0.0, 0.0, 1.6213437532918856E9, 2021-05-18 15:15:53.291
46.0, -72.17259216308594, 55.780609130859375, -119.28971862792969, -41.952327728271484, -0.03200000151991844, -0.08000000566244125, 1.055999994277954, 0.0, 0.0, 0.0, 0.0, 0.0, 1.6213437532926216E9, 2021-05-18 15:15:53.292
46.0, -15.284971237182617, 137.0523681640625, -26.506540298461914, 36.263938903808594, -0.03200000151991844, -0.08000000566244125, 1.055999994277954, 0.0, 0.0, 0.0, 0.0, 0.0, 1.6213437532926216E9, 2021-05-18 15:15:53.292
47.0, -112.36903381347656, -46.53931427001953, -205.2662811279297, -143.9281768798828, -0.03200000151991844, -0.08000000566244125, 1.055999994277954, 0.0, 0.0, 0.0, 0.0, 0.0, 1.621343753293378E9, 2021-05-18 15:15:53.293
47.0, -109.89695739746094, -34.0742301940918, -194.90301513671875, -122.6668472290039, -0.03200000151991844, -0.08000000566244125, 1.055999994277954, 0.0, 0.0, 0.0, 0.0, 0.0, 1.621343753293378E9, 2021-05-18 15:15:53.293
48.0, -66.58143615722656, 55.50385665893555, -116.10332489013672, -44.573997497558594, -0.03200000151991844, -0.08000000566244125, 1.055999994277954, 0.0, 0.0, 0.0, 0.0, 0.0, 1.6213437533033187E9, 2021-05-18 15:15:53.303
48.0, -6.297991752624512, 143.22694396972656, -30.33993911743164, 40.73685836791992, -0.03200000151991844, -0.08000000566244125, 1.055999994277954, 0.0, 0.0, 0.0, 0.0, 0.0, 1.6213437533033187E9, 2021-05-18 15:15:53.303
49.0, -120.9670639038086, -54.5314826965332, -211.8933868408203, -139.25331115722656, -0.03200000151991844, -0.08000000566244125, 1.055999994277954, 0.0, 0.0, 0.0, 0.0, 0.0, 1.6213437533184202E9, 2021-05-18 15:15:53.318
49.0, -111.83049011230469, -19.99724578857422, -189.2931671142578, -118.66515350341797, -0.03200000151991844, -0.08000000566244125, 1.055999994277954, 0.0, 0.0, 0.0, 0.0, 0.0, 1.6213437533184202E9, 2021-05-18 15:15:53.318
50.0, -75.57589721679688, 55.773128509521484, -117.05699920654297, -36.97452163696289, -0.03200000151991844, -0.08000000566244125, 1.055999994277954, 0.0, 0.0, 0.0, 0.0, 0.0, 1.6213437533504107E9, 2021-05-18 15:15:53.350
50.0, -12.51744556427002, 136.65220642089844, -25.35091209411621, 44.577735900878906, -0.03200000151991844, -0.08000000566244125, 1.055999994277954, 0.0, 0.0, 0.0, 0.0, 0.0, 1.6213437533504107E9, 2021-05-18 15:15:53.350
51.0, -116.05657196044922, -47.10403823852539, -197.01980590820312, -130.37478637695312, -0.03200000151991844, -0.08000000566244125, 1.055999994277954, 0.0, 0.0, 0.0, 0.0, 0.0, 1.621343753351205E9, 2021-05-18 15:15:53.351
51.0, -114.70272827148438, -24.15601348876953, -190.34033203125, -114.17353820800781, -0.03200000151991844, -0.08000000566244125, 1.055999994277954, 0.0, 0.0, 0.0, 0.0, 0.0, 1.621343753351205E9, 2021-05-18 15:15:53.351
52.0, -76.74274444580078, 49.392860412597656, -109.78289031982422, -30.57929229736328, -0.03200000151991844, -0.08000000566244125, 1.055999994277954, 0.0, 0.0, 0.0, 0.0, 0.0, 1.6213437533519807E9, 2021-05-18 15:15:53.351
52.0, -20.131881713867188, 132.3961944580078, -20.06643295288086, 51.08890151977539, -0.03200000151991844, -0.08000000566244125, 1.055999994277954, 0.0, 0.0, 0.0, 0.0, 0.0, 1.6213437533519807E9, 2021-05-18 15:15:53.351
53.0, -121.40463256835938, -50.997276306152344, -199.69009399414062, -125.86446380615234, -0.03200000151991844, -0.08000000566244125, 1.055999994277954, 0.0, 0.0, 0.0, 0.0, 0.0, 1.621343753352722E9, 2021-05-18 15:15:53.352
53.0, -113.5022201538086, -35.592628479003906, -192.1392364501953, -113.60507202148438, -0.03200000151991844, -0.08000000566244125, 1.055999994277954, 0.0, 0.0, 0.0, 0.0, 0.0, 1.621343753352722E9, 2021-05-18 15:15:53.352
54.0, -71.9033203125, 42.57501983642578, -108.75067901611328, -39.31943893432617, -0.03200000151991844, -0.08000000566244125, 1.055999994277954, 0.0, 0.0, 0.0, 0.0, 0.0, 1.6213437533633192E9, 2021-05-18 15:15:53.363
54.0, -12.528664588928223, 124.19459533691406, -21.323040008544922, 46.780540466308594, -0.03200000151991844, -0.08000000566244125, 1.055999994277954, 0.0, 0.0, 0.0, 0.0, 0.0, 1.6213437533633192E9, 2021-05-18 15:15:53.363
55.0, -115.83966064453125, -65.6053237915039, -203.08218383789062, -130.5168914794922, -0.03200000151991844, -0.08000000566244125, 1.055999994277954, 0.0, 0.0, 0.0, 0.0, 0.0, 1.621343753378448E9, 2021-05-18 15:15:53.378
55.0, -108.86848449707031, -40.53677749633789, -190.8601837158203, -114.0127182006836, -0.03200000151991844, -0.08000000566244125, 1.055999994277954, 0.0, 0.0, 0.0, 0.0, 0.0, 1.621343753378448E9, 2021-05-18 15:15:53.378
56.0, -71.87713623046875, 50.98605728149414, -111.51820373535156, -39.34187698364258, -0.03200000151991844, -0.08000000566244125, 1.055999994277954, 0.0, 0.0, 0.0, 0.0, 0.0, 1.6213437533948495E9, 2021-05-18 15:15:53.394
56.0, -19.114627838134766, 135.9154510498047, -23.574459075927734, 39.49147415161133, -0.03200000151991844, -0.08000000566244125, 1.055999994277954, 0.0, 0.0, 0.0, 0.0, 0.0, 1.6213437533948495E9, 2021-05-18 15:15:53.394
57.0, -126.6068344116211, -69.59205627441406, -209.03236389160156, -141.92359924316406, -0.03200000151991844, -0.08000000566244125, 1.055999994277954, 0.0, 0.0, 0.0, 0.0, 0.0, 1.6213437533955257E9, 2021-05-18 15:15:53.395
57.0, -112.66822814941406, -33.763816833496094, -192.56558227539062, -122.02732849121094, -0.03200000151991844, -0.08000000566244125, 1.055999994277954, 0.0, 0.0, 0.0, 0.0, 0.0, 1.6213437533955257E9, 2021-05-18 15:15:53.395
58.0, -72.18380737304688, 49.83790588378906, -110.74778747558594, -40.65458297729492, -0.03200000151991844, -0.08000000566244125, 1.055999994277954, 0.0, 0.0, 0.0, 0.0, 0.0, 1.6213437534084315E9, 2021-05-18 15:15:53.408
58.0, -14.884801864624023, 130.1485137939453, -22.845178604125977, 41.944847106933594, -0.03200000151991844, -0.08000000566244125, 1.055999994277954, 0.0, 0.0, 0.0, 0.0, 0.0, 1.6213437534084315E9, 2021-05-18 15:15:53.408
59.0, -124.2768783569336, -51.99583053588867, -205.0082244873047, -141.39627075195312, -0.03200000151991844, -0.08000000566244125, 1.055999994277954, 0.0, 0.0, 0.0, 0.0, 0.0, 1.621343753424219E9, 2021-05-18 15:15:53.424
59.0, -111.66967010498047, -24.709518432617188, -193.9044647216797, -121.1821060180664, -0.03200000151991844, -0.08000000566244125, 1.055999994277954, 0.0, 0.0, 0.0, 0.0, 0.0, 1.621343753424219E9, 2021-05-18 15:15:53.424
60.0, -71.79486083984375, 53.30479431152344, -119.48045349121094, -43.429588317871094, -0.03200000151991844, -0.08000000566244125, 1.040000081062317, 0.0, 0.0, 0.0, 0.0, 0.0, 1.621343753424819E9, 2021-05-18 15:15:53.424
60.0, -16.05912971496582, 133.80613708496094, -23.95218849182129, 36.2751579284668, -0.03200000151991844, -0.08000000566244125, 1.040000081062317, 0.0, 0.0, 0.0, 0.0, 0.0, 1.621343753424819E9, 2021-05-18 15:15:53.424
61.0, -110.74217987060547, -56.76420211791992, -208.43397521972656, -145.63731384277344, -0.03200000151991844, -0.08000000566244125, 1.040000081062317, 0.0, 0.0, 0.0, 0.0, 0.0, 1.6213437534383106E9, 2021-05-18 15:15:53.438
61.0, -100.2330551147461, -26.527111053466797, -198.43348693847656, -129.65298461914062, -0.03200000151991844, -0.08000000566244125, 1.040000081062317, 0.0, 0.0, 0.0, 0.0, 0.0, 1.6213437534383106E9, 2021-05-18 15:15:53.438
62.0, -68.30927276611328, 45.36872482299805, -119.30467987060547, -43.336090087890625, -0.03200000151991844, -0.08000000566244125, 1.040000081062317, 0.0, 0.0, 0.0, 0.0, 0.0, 1.621343753454854E9, 2021-05-18 15:15:53.454
62.0, -13.736652374267578, 118.64458465576172, -28.694381713867188, 40.108558654785156, -0.03200000151991844, -0.08000000566244125, 1.040000081062317, 0.0, 0.0, 0.0, 0.0, 0.0, 1.621343753454854E9, 2021-05-18 15:15:53.454
63.0, -122.175048828125, -64.58807373046875, -206.90061950683594, -139.03265380859375, -0.03200000151991844, -0.08000000566244125, 1.040000081062317, 0.0, 0.0, 0.0, 0.0, 0.0, 1.6213437534555492E9, 2021-05-18 15:15:53.455
63.0, -115.15525817871094, -29.62000846862793, -195.3929443359375, -115.81161499023438, -0.03200000151991844, -0.08000000566244125, 1.040000081062317, 0.0, 0.0, 0.0, 0.0, 0.0, 1.6213437534555492E9, 2021-05-18 15:15:53.455
64.0, -75.0560531616211, 50.16327667236328, -115.07111358642578, -36.78004455566406, -0.03200000151991844, -0.08000000566244125, 1.040000081062317, 0.0, 0.0, 0.0, 0.0, 0.0, 1.6213437534683092E9, 2021-05-18 15:15:53.468
64.0, -25.984825134277344, 125.8251953125, -22.168256759643555, 35.01107406616211, -0.03200000151991844, -0.08000000566244125, 1.040000081062317, 0.0, 0.0, 0.0, 0.0, 0.0, 1.6213437534683092E9, 2021-05-18 15:15:53.468
65.0, -127.01821899414062, -55.7880859375, -207.11752319335938, -141.0110626220703, -0.03200000151991844, -0.08000000566244125, 1.040000081062317, 0.0, 0.0, 0.0, 0.0, 0.0, 1.621343753500439E9, 2021-05-18 15:15:53.500
65.0, -111.56869506835938, -30.682138442993164, -200.34457397460938, -124.59663391113281, -0.03200000151991844, -0.08000000566244125, 1.040000081062317, 0.0, 0.0, 0.0, 0.0, 0.0, 1.621343753500439E9, 2021-05-18 15:15:53.500
66.0, -70.69532775878906, 43.50999450683594, -113.272216796875, -39.147403717041016, -0.03200000151991844, -0.08000000566244125, 1.040000081062317, 0.0, 0.0, 0.0, 0.0, 0.0, 1.6213437535011384E9, 2021-05-18 15:15:53.501
66.0, -8.74014663696289, 122.87067413330078, -22.12337875366211, 40.766780853271484, -0.03200000151991844, -0.08000000566244125, 1.040000081062317, 0.0, 0.0, 0.0, 0.0, 0.0, 1.6213437535011384E9, 2021-05-18 15:15:53.501
67.0, -115.9256820678711, -61.18102264404297, -204.9745635986328, -142.04701232910156, -0.03200000151991844, -0.08000000566244125, 1.040000081062317, 0.0, 0.0, 0.0, 0.0, 0.0, 1.6213437535018668E9, 2021-05-18 15:15:53.501
67.0, -111.07876586914062, -37.8702278137207, -195.6435089111328, -124.64151763916016, -0.03200000151991844, -0.08000000566244125, 1.040000081062317, 0.0, 0.0, 0.0, 0.0, 0.0, 1.6213437535018668E9, 2021-05-18 15:15:53.501
68.0, -68.05121612548828, 49.17594528198242, -115.66575622558594, -43.16405487060547, -0.03200000151991844, -0.08000000566244125, 1.040000081062317, 0.0, 0.0, 0.0, 0.0, 0.0, 1.6213437535026412E9, 2021-05-18 15:15:53.502
68.0, -11.986379623413086, 132.36627197265625, -20.59749984741211, 44.56277847290039, -0.03200000151991844, -0.08000000566244125, 1.040000081062317, 0.0, 0.0, 0.0, 0.0, 0.0, 1.6213437535026412E9, 2021-05-18 15:15:53.502
69.0, -121.52430725097656, -54.576358795166016, -199.93692016601562, -134.6494903564453, -0.03200000151991844, -0.08000000566244125, 1.040000081062317, 0.0, 0.0, 0.0, 0.0, 0.0, 1.621343753529172E9, 2021-05-18 15:15:53.529
69.0, -100.68558502197266, -34.56415557861328, -187.89443969726562, -119.81330871582031, -0.03200000151991844, -0.08000000566244125, 1.040000081062317, 0.0, 0.0, 0.0, 0.0, 0.0, 1.621343753529172E9, 2021-05-18 15:15:53.529
70.0, -61.89534378051758, 50.92247772216797, -107.28838348388672, -42.18794250488281, -0.03200000151991844, -0.08000000566244125, 1.040000081062317, 0.0, 0.0, 0.0, 0.0, 0.0, 1.6213437535299296E9, 2021-05-18 15:15:53.529
70.0, -17.547611236572266, 128.3683319091797, -20.713436126708984, 41.58955764770508, -0.03200000151991844, -0.08000000566244125, 1.040000081062317, 0.0, 0.0, 0.0, 0.0, 0.0, 1.6213437535299296E9, 2021-05-18 15:15:53.529
71.0, -121.17649841308594, -60.455482482910156, -203.84886169433594, -138.1612548828125, -0.03200000151991844, -0.08000000566244125, 1.040000081062317, 0.0, 0.0, 0.0, 0.0, 0.0, 1.621343753544066E9, 2021-05-18 15:15:53.544
71.0, -114.88972473144531, -37.866485595703125, -191.279052734375, -120.85673522949219, -0.03200000151991844, -0.08000000566244125, 1.040000081062317, 0.0, 0.0, 0.0, 0.0, 0.0, 1.621343753544066E9, 2021-05-18 15:15:53.544
72.0, -80.4789047241211, 45.58938217163086, -109.86517333984375, -38.60511779785156, -0.03200000151991844, -0.08000000566244125, 1.040000081062317, 0.0, 0.0, 0.0, 0.0, 0.0, 1.621343753544778E9, 2021-05-18 15:15:53.544
72.0, -23.62120819091797, 127.1117172241211, -22.893796920776367, 40.97995376586914, -0.03200000151991844, -0.08000000566244125, 1.040000081062317, 0.0, 0.0, 0.0, 0.0, 0.0, 1.621343753544778E9, 2021-05-18 15:15:53.544
73.0, -124.6994857788086, -46.501914978027344, -199.58163452148438, -133.0675048828125, -0.03200000151991844, -0.08000000566244125, 1.040000081062317, 0.0, 0.0, 0.0, 0.0, 0.0, 1.6213437535583656E9, 2021-05-18 15:15:53.558
73.0, -119.09711456298828, -30.457744598388672, -189.072509765625, -115.8377914428711, -0.03200000151991844, -0.08000000566244125, 1.040000081062317, 0.0, 0.0, 0.0, 0.0, 0.0, 1.6213437535583656E9, 2021-05-18 15:15:53.558
74.0, -81.98983001708984, 48.368125915527344, -106.22998809814453, -35.781494140625, -0.03200000151991844, -0.08000000566244125, 1.040000081062317, 0.0, 0.0, 0.0, 0.0, 0.0, 1.6213437535740108E9, 2021-05-18 15:15:53.574
74.0, -19.653173446655273, 138.95223999023438, -20.82937240600586, 43.26503372192383, -0.03200000151991844, -0.08000000566244125, 1.040000081062317, 0.0, 0.0, 0.0, 0.0, 0.0, 1.6213437535740108E9, 2021-05-18 15:15:53.574
75.0, -124.4825668334961, -51.1805305480957, -210.33384704589844, -135.54705810546875, -0.03200000151991844, -0.08000000566244125, 1.040000081062317, 0.0, 0.0, 0.0, 0.0, 0.0, 1.6213437535747063E9, 2021-05-18 15:15:53.574
75.0, -117.88164520263672, -24.4552059173584, -187.09410095214844, -116.41747283935547, -0.03200000151991844, -0.08000000566244125, 1.040000081062317, 0.0, 0.0, 0.0, 0.0, 0.0, 1.6213437535747063E9, 2021-05-18 15:15:53.574
76.0, -74.22953796386719, 54.84937286376953, -111.12178039550781, -38.477962493896484, -0.03200000151991844, -0.08000000566244125, 1.040000081062317, 0.0, 0.0, 0.0, 0.0, 0.0, 1.621343753588394E9, 2021-05-18 15:15:53.588
76.0, -16.762231826782227, 123.62612915039062, -23.963409423828125, 43.17527389526367, -0.03200000151991844, -0.08000000566244125, 1.040000081062317, 0.0, 0.0, 0.0, 0.0, 0.0, 1.621343753588394E9, 2021-05-18 15:15:53.588
77.0, -119.85257720947266, -60.915489196777344, -209.73545837402344, -138.31085205078125, -0.03200000151991844, -0.08000000566244125, 1.040000081062317, 0.0, 0.0, 0.0, 0.0, 0.0, 1.6213437536040435E9, 2021-05-18 15:15:53.604
77.0, -106.31039428710938, -27.981931686401367, -193.6538848876953, -116.35015869140625, -0.03200000151991844, -0.08000000566244125, 1.040000081062317, 0.0, 0.0, 0.0, 0.0, 0.0, 1.6213437536040435E9, 2021-05-18 15:15:53.604
78.0, -74.52124786376953, 56.42013168334961, -117.50952911376953, -40.27311325073242, -0.03200000151991844, -0.08000000566244125, 1.040000081062317, 0.0, 0.0, 0.0, 0.0, 0.0, 1.6213437536047623E9, 2021-05-18 15:15:53.604
78.0, -10.295944213867188, 131.7080535888672, -22.216875076293945, 41.59703826904297, -0.03200000151991844, -0.08000000566244125, 1.040000081062317, 0.0, 0.0, 0.0, 0.0, 0.0, 1.6213437536047623E9, 2021-05-18 15:15:53.604
79.0, -110.88803100585938, -58.30503845214844, -202.92884826660156, -138.99525451660156, -0.03200000151991844, -0.08000000566244125, 1.040000081062317, 0.0, 0.0, 0.0, 0.0, 0.0, 1.6213437536184688E9, 2021-05-18 15:15:53.618
79.0, -108.55807495117188, -33.93211364746094, -188.21981811523438, -122.69676971435547, -0.03200000151991844, -0.08000000566244125, 1.040000081062317, 0.0, 0.0, 0.0, 0.0, 0.0, 1.6213437536184688E9, 2021-05-18 15:15:53.618
80.0, -75.07101440429688, 55.55247497558594, -106.84333038330078, -39.139923095703125, -0.03200000151991844, -0.08000000566244125, 1.055999994277954, 0.0, 0.0, 0.0, 0.0, 0.0, 1.6213437536340537E9, 2021-05-18 15:15:53.634
80.0, -14.581870079040527, 132.77392578125, -16.61824607849121, 42.84616470336914, -0.03200000151991844, -0.08000000566244125, 1.055999994277954, 0.0, 0.0, 0.0, 0.0, 0.0, 1.6213437536340537E9, 2021-05-18 15:15:53.634
81.0, -122.39570617675781, -61.47273635864258, -209.9673309326172, -137.06546020507812, -0.03200000151991844, -0.09600000083446503, 1.055999994277954, 0.0, 0.0, 0.0, 0.0, 0.0, 1.6213437536347427E9, 2021-05-18 15:15:53.634
81.0, -105.69705200195312, -29.440492630004883, -188.0103759765625, -116.77650451660156, -0.03200000151991844, -0.09600000083446503, 1.055999994277954, 0.0, 0.0, 0.0, 0.0, 0.0, 1.6213437536347427E9, 2021-05-18 15:15:53.634
82.0, -69.34896850585938, 55.638492584228516, -104.5582504272461, -35.572059631347656, -0.03200000151991844, -0.09600000083446503, 1.055999994277954, 0.0, 0.0, 0.0, 0.0, 0.0, 1.6213437536484349E9, 2021-05-18 15:15:53.648
82.0, -12.44638729095459, 126.84992980957031, -19.273574829101562, 45.684749603271484, -0.03200000151991844, -0.09600000083446503, 1.055999994277954, 0.0, 0.0, 0.0, 0.0, 0.0, 1.6213437536484349E9, 2021-05-18 15:15:53.648
83.0, -117.5749740600586, -58.29008102416992, -200.37449645996094, -139.53379821777344, -0.03200000151991844, -0.09600000083446503, 1.055999994277954, 0.0, 0.0, 0.0, 0.0, 0.0, 1.6213437536641805E9, 2021-05-18 15:15:53.664
83.0, -107.56326293945312, -32.22671890258789, -182.73712158203125, -123.19043731689453, -0.03200000151991844, -0.09600000083446503, 1.055999994277954, 0.0, 0.0, 0.0, 0.0, 0.0, 1.6213437536641805E9, 2021-05-18 15:15:53.664
84.0, -71.74250030517578, 50.720523834228516, -104.97711944580078, -37.00444030761719, -0.03200000151991844, -0.09600000083446503, 1.055999994277954, 0.0, 0.0, 0.0, 0.0, 0.0, 1.621343753664801E9, 2021-05-18 15:15:53.664
84.0, -21.0331974029541, 140.7025146484375, -16.812719345092773, 49.69392013549805, -0.03200000151991844, -0.09600000083446503, 1.055999994277954, 0.0, 0.0, 0.0, 0.0, 0.0, 1.621343753664801E9, 2021-05-18 15:15:53.664
85.0, -116.52032470703125, -55.488895416259766, -207.42794799804688, -139.63851928710938, -0.03200000151991844, -0.09600000083446503, 1.055999994277954, 0.0, 0.0, 0.0, 0.0, 0.0, 1.621343753678389E9, 2021-05-18 15:15:53.678
85.0, -104.29459381103516, -34.38090133666992, -190.5198516845703, -118.50060272216797, -0.03200000151991844, -0.09600000083446503, 1.055999994277954, 0.0, 0.0, 0.0, 0.0, 0.0, 1.621343753678389E9, 2021-05-18 15:15:53.678
86.0, -66.72355651855469, 63.2529296875, -114.4166259765625, -36.1330451965332, -0.03200000151991844, -0.09600000083446503, 1.055999994277954, 0.0, 0.0, 0.0, 0.0, 0.0, 1.6213437536939123E9, 2021-05-18 15:15:53.693
86.0, -4.932928085327148, 136.1211395263672, -20.04399299621582, 48.93098068237305, -0.03200000151991844, -0.09600000083446503, 1.055999994277954, 0.0, 0.0, 0.0, 0.0, 0.0, 1.6213437536939123E9, 2021-05-18 15:15:53.693
87.0, -110.37566375732422, -52.44835662841797, -208.4003143310547, -135.22169494628906, -0.03200000151991844, -0.09600000083446503, 1.055999994277954, 0.0, 0.0, 0.0, 0.0, 0.0, 1.6213437537090156E9, 2021-05-18 15:15:53.709
87.0, -99.286865234375, -29.68358612060547, -201.47776794433594, -124.03565216064453, -0.03200000151991844, -0.09600000083446503, 1.055999994277954, 0.0, 0.0, 0.0, 0.0, 0.0, 1.6213437537090156E9, 2021-05-18 15:15:53.709
88.0, -61.353057861328125, 58.675289154052734, -113.8107681274414, -35.54214096069336, -0.03200000151991844, -0.09600000083446503, 1.055999994277954, 0.0, 0.0, 0.0, 0.0, 0.0, 1.6213437537097523E9, 2021-05-18 15:15:53.709
88.0, -10.78213119506836, 135.59381103515625, -25.141477584838867, 43.867156982421875, -0.03200000151991844, -0.09600000083446503, 1.055999994277954, 0.0, 0.0, 0.0, 0.0, 0.0, 1.6213437537097523E9, 2021-05-18 15:15:53.709
89.0, -108.85726928710938, -48.8505744934082, -208.5835723876953, -141.88246154785156, -0.03200000151991844, -0.09600000083446503, 1.055999994277954, 0.0, 0.0, 0.0, 0.0, 0.0, 1.6213437537241256E9, 2021-05-18 15:15:53.724
89.0, -99.0101089477539, -24.81423568725586, -199.49935913085938, -127.30806732177734, -0.03200000151991844, -0.09600000083446503, 1.055999994277954, 0.0, 0.0, 0.0, 0.0, 0.0, 1.6213437537241256E9, 2021-05-18 15:15:53.724
90.0, -60.6349983215332, 52.11550521850586, -118.22758483886719, -43.0593376159668, -0.03200000151991844, -0.09600000083446503, 1.055999994277954, 0.0, 0.0, 0.0, 0.0, 0.0, 1.6213437537248497E9, 2021-05-18 15:15:53.724
90.0, -2.098083972930908, 124.0188217163086, -32.33704376220703, 37.69632339477539, -0.03200000151991844, -0.09600000083446503, 1.055999994277954, 0.0, 0.0, 0.0, 0.0, 0.0, 1.6213437537248497E9, 2021-05-18 15:15:53.724
91.0, -106.8115463256836, -59.80099868774414, -213.4940643310547, -140.584716796875, -0.03200000151991844, -0.08000000566244125, 1.055999994277954, 0.0, 0.0, 0.0, 0.0, 0.0, 1.6213437537383249E9, 2021-05-18 15:15:53.738
91.0, -103.75230407714844, -34.773590087890625, -192.65533447265625, -124.33858489990234, -0.03200000151991844, -0.08000000566244125, 1.055999994277954, 0.0, 0.0, 0.0, 0.0, 0.0, 1.6213437537383249E9, 2021-05-18 15:15:53.738
92.0, -68.05496215820312, 61.37175750732422, -113.39189910888672, -39.087562561035156, -0.03200000151991844, -0.08000000566244125, 1.055999994277954, 0.0, 0.0, 0.0, 0.0, 0.0, 1.6213437537539191E9, 2021-05-18 15:15:53.753
92.0, -11.436614036560059, 127.773681640625, -23.55575942993164, 41.327762603759766, -0.03200000151991844, -0.08000000566244125, 1.055999994277954, 0.0, 0.0, 0.0, 0.0, 0.0, 1.6213437537539191E9, 2021-05-18 15:15:53.753
93.0, -123.46157836914062, -76.32762145996094, -211.38848876953125, -139.66842651367188, -0.03200000151991844, -0.08000000566244125, 1.055999994277954, 0.0, 0.0, 0.0, 0.0, 0.0, 1.6213437537690701E9, 2021-05-18 15:15:53.769
93.0, -108.47953796386719, -36.306949615478516, -190.5535125732422, -121.00259399414062, -0.03200000151991844, -0.08000000566244125, 1.055999994277954, 0.0, 0.0, 0.0, 0.0, 0.0, 1.6213437537690701E9, 2021-05-18 15:15:53.769
94.0, -74.99247741699219, 44.39261245727539, -113.94540405273438, -42.995758056640625, -0.03200000151991844, -0.08000000566244125, 1.055999994277954, 0.0, 0.0, 0.0, 0.0, 0.0, 1.6213437537697423E9, 2021-05-18 15:15:53.769
94.0, -16.504179000854492, 124.84908294677734, -25.706201553344727, 41.02109146118164, -0.03200000151991844, -0.08000000566244125, 1.055999994277954, 0.0, 0.0, 0.0, 0.0, 0.0, 1.6213437537697423E9, 2021-05-18 15:15:53.769
95.0, -119.2803726196289, -56.62208557128906, -214.3018798828125, -141.35887145996094, -0.03200000151991844, -0.08000000566244125, 1.055999994277954, 0.0, 0.0, 0.0, 0.0, 0.0, 1.6213437537840388E9, 2021-05-18 15:15:53.784
95.0, -107.24910736083984, -37.32046127319336, -196.81036376953125, -124.20394897460938, -0.03200000151991844, -0.08000000566244125, 1.055999994277954, 0.0, 0.0, 0.0, 0.0, 0.0, 1.6213437537840388E9, 2021-05-18 15:15:53.784
96.0, -65.91947937011719, 45.49214172363281, -113.75840759277344, -41.032310485839844, -0.03200000151991844, -0.08000000566244125, 1.055999994277954, 0.0, 0.0, 0.0, 0.0, 0.0, 1.6213437537847855E9, 2021-05-18 15:15:53.784
96.0, -3.0629780292510986, 132.8936004638672, -28.67942237854004, 37.6888427734375, -0.03200000151991844, -0.08000000566244125, 1.055999994277954, 0.0, 0.0, 0.0, 0.0, 0.0, 1.6213437537847855E9, 2021-05-18 15:15:53.784
97.0, -112.174560546875, -63.38756561279297, -213.1612091064453, -148.01588439941406, -0.03200000151991844, -0.08000000566244125, 1.055999994277954, 0.0, 0.0, 0.0, 0.0, 0.0, 1.6213437537984304E9, 2021-05-18 15:15:53.798
97.0, -108.67027282714844, -18.662099838256836, -197.1619110107422, -124.03191375732422, -0.03200000151991844, -0.08000000566244125, 1.055999994277954, 0.0, 0.0, 0.0, 0.0, 0.0, 1.6213437537984304E9, 2021-05-18 15:15:53.798
98.0, -67.02275085449219, 49.87904739379883, -109.13963317871094, -33.48145294189453, -0.03200000151991844, -0.08000000566244125, 1.055999994277954, 0.0, 0.0, 0.0, 0.0, 0.0, 1.6213437538140104E9, 2021-05-18 15:15:53.814
98.0, -11.945240020751953, 129.6810302734375, -25.01058006286621, 41.05101013183594, -0.03200000151991844, -0.08000000566244125, 1.055999994277954, 0.0, 0.0, 0.0, 0.0, 0.0, 1.6213437538140104E9, 2021-05-18 15:15:53.814
99.0, -118.93255615234375, -61.169803619384766, -208.6658477783203, -137.69003295898438, -0.03200000151991844, -0.08000000566244125, 1.055999994277954, 0.0, 0.0, 0.0, 0.0, 0.0, 1.621343753829806E9, 2021-05-18 15:15:53.829
99.0, -99.89646911621094, -22.47679901123047, -192.43467712402344, -112.28114318847656, -0.03200000151991844, -0.08000000566244125, 1.055999994277954, 0.0, 0.0, 0.0, 0.0, 0.0, 1.621343753829806E9, 2021-05-18 15:15:53.829
100.0, -69.45368194580078, 60.724754333496094, -113.97905731201172, -38.04787063598633, -0.03200000151991844, -0.08000000566244125, 1.055999994277954, 0.0, 0.0, 0.0, 0.0, 0.0, 1.6213437538304224E9, 2021-05-18 15:15:53.830
100.0, -9.155275344848633, 131.31910705566406, -28.574705123901367, 42.40859603881836, -0.03200000151991844, -0.08000000566244125, 1.055999994277954, 0.0, 0.0, 0.0, 0.0, 0.0, 1.6213437538304224E9, 2021-05-18 15:15:53.830
0.0, -113.2535171508789, -55.98069381713867, -207.48965454101562, -139.29444885253906, -0.03200000151991844, -0.08000000566244125, 1.055999994277954, 0.0, 0.0, 0.0, 0.0, 0.0, 1.62134375383129E9, 2021-05-18 15:15:53.831
1.0, -107.4454574584961, -29.89488983154297, -198.38673400878906, -119.45801544189453, -0.03200000151991844, -0.08000000566244125, 1.055999994277954, 0.0, 0.0, 0.0, 0.0, 0.0, 1.621343753843367E9, 2021-05-18 15:15:53.843
1.0, -66.93486022949219, 67.00965881347656, -111.74073028564453, -34.19203567504883, -0.03200000151991844, -0.08000000566244125, 1.055999994277954, 0.0, 0.0, 0.0, 0.0, 0.0, 1.621343753843367E9, 2021-05-18 15:15:53.843
2.0, -12.070527076721191, 142.24148559570312, -31.17206573486328, 40.67702102661133, -0.03200000151991844, -0.08000000566244125, 1.055999994277954, 0.0, 0.0, 0.0, 0.0, 0.0, 1.621343753874348E9, 2021-05-18 15:15:53.874
2.0, -119.43183135986328, -57.28217697143555, -218.94869995117188, -144.8631591796875, -0.03200000151991844, -0.08000000566244125, 1.055999994277954, 0.0, 0.0, 0.0, 0.0, 0.0, 1.621343753874348E9, 2021-05-18 15:15:53.874
3.0, -102.62472534179688, -40.55734634399414, -205.02879333496094, -120.50144958496094, -0.03200000151991844, -0.08000000566244125, 1.055999994277954, 0.0, 0.0, 0.0, 0.0, 0.0, 1.6213437538904972E9, 2021-05-18 15:15:53.890
3.0, -55.939552307128906, 48.91228103637695, -119.81517791748047, -39.2857780456543, -0.03200000151991844, -0.08000000566244125, 1.055999994277954, 0.0, 0.0, 0.0, 0.0, 0.0, 1.6213437538904972E9, 2021-05-18 15:15:53.890
4.0, 4.426171779632568, 118.85588836669922, -31.807849884033203, 35.78523254394531, -0.03200000151991844, -0.08000000566244125, 1.055999994277954, 0.0, 0.0, 0.0, 0.0, 0.0, 1.6213437538911772E9, 2021-05-18 15:15:53.891
4.0, -100.10403442382812, -51.0103645324707, -215.97921752929688, -147.97474670410156, -0.03200000151991844, -0.08000000566244125, 1.055999994277954, 0.0, 0.0, 0.0, 0.0, 0.0, 1.6213437538911772E9, 2021-05-18 15:15:53.891
5.0, -91.3302230834961, -31.64516258239746, -204.10877990722656, -128.3290557861328, -0.03200000151991844, -0.08000000566244125, 1.055999994277954, 0.0, 0.0, 0.0, 0.0, 0.0, 1.621343753891981E9, 2021-05-18 15:15:53.891
5.0, -46.96379470825195, 45.32571792602539, -111.90528869628906, -34.270572662353516, -0.03200000151991844, -0.08000000566244125, 1.055999994277954, 0.0, 0.0, 0.0, 0.0, 0.0, 1.621343753891981E9, 2021-05-18 15:15:53.891
6.0, -4.414951801300049, 123.03335571289062, -28.913166046142578, 35.889949798583984, -0.03200000151991844, -0.08000000566244125, 1.055999994277954, 0.0, 0.0, 0.0, 0.0, 0.0, 1.6213437538926933E9, 2021-05-18 15:15:53.892
6.0, -113.56767272949219, -61.40354919433594, -215.1489715576172, -140.77169799804688, -0.03200000151991844, -0.08000000566244125, 1.055999994277954, 0.0, 0.0, 0.0, 0.0, 0.0, 1.6213437538926933E9, 2021-05-18 15:15:53.892
7.0, -106.663818359375, -30.13424301147461, -198.34933471679688, -114.633544921875, -0.03200000151991844, -0.08000000566244125, 1.055999994277954, 0.0, 0.0, 0.0, 0.0, 0.0, 1.621343753903391E9, 2021-05-18 15:15:53.903
7.0, -63.26227951049805, 41.21556854248047, -118.7193832397461, -32.81949234008789, -0.03200000151991844, -0.08000000566244125, 1.055999994277954, 0.0, 0.0, 0.0, 0.0, 0.0, 1.621343753903391E9, 2021-05-18 15:15:53.903
8.0, -9.000069618225098, 132.77206420898438, -32.12574005126953, 48.40739440917969, -0.03200000151991844, -0.08000000566244125, 1.055999994277954, 0.0, 0.0, 0.0, 0.0, 0.0, 1.6213437539190907E9, 2021-05-18 15:15:53.919
8.0, -109.12093353271484, -59.002532958984375, -214.23643493652344, -128.6207733154297, -0.03200000151991844, -0.08000000566244125, 1.055999994277954, 0.0, 0.0, 0.0, 0.0, 0.0, 1.6213437539190907E9, 2021-05-18 15:15:53.919
9.0, -107.13504028320312, -30.743846893310547, -193.83901977539062, -109.89134979248047, -0.03200000151991844, -0.08000000566244125, 1.055999994277954, 0.0, 0.0, 0.0, 0.0, 0.0, 1.6213437539198303E9, 2021-05-18 15:15:53.919
9.0, -72.80276489257812, 51.63492965698242, -114.30255889892578, -29.33016586303711, -0.03200000151991844, -0.08000000566244125, 1.055999994277954, 0.0, 0.0, 0.0, 0.0, 0.0, 1.6213437539198303E9, 2021-05-18 15:15:53.919
10.0, -15.649611473083496, 125.08282470703125, -28.640153884887695, 48.17552185058594, -0.03200000151991844, -0.08000000566244125, 1.055999994277954, 0.0, 0.0, 0.0, 0.0, 0.0, 1.6213437539335294E9, 2021-05-18 15:15:53.933
10.0, -119.05036163330078, -66.0746841430664, -203.51788330078125, -131.16015625, -0.03200000151991844, -0.08000000566244125, 1.055999994277954, 0.0, 0.0, 0.0, 0.0, 0.0, 1.6213437539335294E9, 2021-05-18 15:15:53.933
11.0, -105.04070281982422, -39.73082733154297, -191.59507751464844, -114.4353256225586, -0.03200000151991844, -0.08000000566244125, 1.055999994277954, 0.0, 0.0, 0.0, 0.0, 0.0, 1.621343753949108E9, 2021-05-18 15:15:53.949
11.0, -66.94233703613281, 46.18589401245117, -110.82819366455078, -29.56203842163086, -0.03200000151991844, -0.08000000566244125, 1.055999994277954, 0.0, 0.0, 0.0, 0.0, 0.0, 1.621343753949108E9, 2021-05-18 15:15:53.949
12.0, -6.8234477043151855, 122.79400634765625, -20.52457046508789, 43.84845733642578, -0.03200000151991844, -0.08000000566244125, 1.055999994277954, 0.0, 0.0, 0.0, 0.0, 0.0, 1.621343753949752E9, 2021-05-18 15:15:53.949
12.0, -115.98738861083984, -66.93486022949219, -208.80235290527344, -144.4330596923828, -0.03200000151991844, -0.08000000566244125, 1.055999994277954, 0.0, 0.0, 0.0, 0.0, 0.0, 1.621343753949752E9, 2021-05-18 15:15:53.949
13.0, -99.99557495117188, -35.19432830810547, -191.45669555664062, -121.35040283203125, -0.03200000151991844, -0.08000000566244125, 1.055999994277954, 0.0, 0.0, 0.0, 0.0, 0.0, 1.621343753963339E9, 2021-05-18 15:15:53.963
13.0, -57.39437484741211, 38.582679748535156, -107.83627319335938, -35.119529724121094, -0.03200000151991844, -0.08000000566244125, 1.055999994277954, 0.0, 0.0, 0.0, 0.0, 0.0, 1.621343753963339E9, 2021-05-18 15:15:53.963
14.0, -6.606533050537109, 119.48419189453125, -18.411527633666992, 40.7406005859375, -0.03200000151991844, -0.08000000566244125, 1.055999994277954, 0.0, 0.0, 0.0, 0.0, 0.0, 1.621343753979091E9, 2021-05-18 15:15:53.979
14.0, -107.69229125976562, -69.82205963134766, -202.86712646484375, -138.3407745361328, -0.03200000151991844, -0.08000000566244125, 1.055999994277954, 0.0, 0.0, 0.0, 0.0, 0.0, 1.621343753979091E9, 2021-05-18 15:15:53.979
15.0, -90.69818115234375, -37.74494171142578, -181.3290557861328, -112.63643646240234, -0.03200000151991844, -0.08000000566244125, 1.055999994277954, 0.0, 0.0, 0.0, 0.0, 0.0, 1.621343753979792E9, 2021-05-18 15:15:53.979
15.0, -53.186988830566406, 42.861122131347656, -100.28541564941406, -32.23606872558594, -0.03200000151991844, -0.08000000566244125, 1.055999994277954, 0.0, 0.0, 0.0, 0.0, 0.0, 1.621343753979792E9, 2021-05-18 15:15:53.979
16.0, -3.027449131011963, 121.88894653320312, -13.889988899230957, 50.782230377197266, -0.03200000151991844, -0.08000000566244125, 1.055999994277954, 0.0, 0.0, 0.0, 0.0, 0.0, 1.6213437539933536E9, 2021-05-18 15:15:53.993
16.0, -114.12117767333984, -66.96852111816406, -207.44476318359375, -139.33932495117188, -0.03200000151991844, -0.08000000566244125, 1.055999994277954, 0.0, 0.0, 0.0, 0.0, 0.0, 1.6213437539933536E9, 2021-05-18 15:15:53.993
17.0, -97.41130065917969, -40.3703498840332, -186.76312255859375, -116.23422241210938, -0.03200000151991844, -0.08000000566244125, 1.055999994277954, 0.0, 0.0, 0.0, 0.0, 0.0, 1.6213437540089993E9, 2021-05-18 15:15:54.008
17.0, -62.73495101928711, 49.731319427490234, -107.95220947265625, -31.518007278442383, -0.03200000151991844, -0.08000000566244125, 1.055999994277954, 0.0, 0.0, 0.0, 0.0, 0.0, 1.6213437540089993E9, 2021-05-18 15:15:54.008
18.0, -3.876406192779541, 126.87049865722656, -19.862607955932617, 46.18215560913086, -0.03200000151991844, -0.08000000566244125, 1.055999994277954, 0.0, 0.0, 0.0, 0.0, 0.0, 1.6213437540097165E9, 2021-05-18 15:15:54.009
18.0, -113.15628051757812, -57.94414138793945, -199.36285400390625, -133.29563903808594, -0.03200000151991844, -0.08000000566244125, 1.055999994277954, 0.0, 0.0, 0.0, 0.0, 0.0, 1.6213437540097165E9, 2021-05-18 15:15:54.009
19.0, -106.3870620727539, -35.22050857543945, -193.47998046875, -113.8294677734375, -0.03200000151991844, -0.08000000566244125, 1.055999994277954, 0.0, 0.0, 0.0, 0.0, 0.0, 1.6213437540233288E9, 2021-05-18 15:15:54.023
19.0, -63.905540466308594, 56.86705017089844, -112.64204406738281, -29.087072372436523, -0.03200000151991844, -0.08000000566244125, 1.055999994277954, 0.0, 0.0, 0.0, 0.0, 0.0, 1.6213437540233288E9, 2021-05-18 15:15:54.023
20.0, -8.906571388244629, 131.32098388671875, -23.101362228393555, 44.959205627441406, -0.03200000151991844, -0.08000000566244125, 1.055999994277954, 0.0, 0.0, 0.0, 0.0, 0.0, 1.6213437540389972E9, 2021-05-18 15:15:54.038
20.0, -110.2017593383789, -57.69730758666992, -211.39410400390625, -136.10057067871094, -0.03200000151991844, -0.08000000566244125, 1.055999994277954, 0.0, 0.0, 0.0, 0.0, 0.0, 1.6213437540389972E9, 2021-05-18 15:15:54.038
21.0, -102.09365844726562, -28.585926055908203, -181.8750762939453, -113.0852279663086, -0.03200000151991844, -0.08000000566244125, 1.055999994277954, 0.0, 0.0, 0.0, 0.0, 0.0, 1.6213437540396872E9, 2021-05-18 15:15:54.039
21.0, -60.4236946105957, 60.31523513793945, -108.02700805664062, -29.917329788208008, -0.03200000151991844, -0.08000000566244125, 1.055999994277954, 0.0, 0.0, 0.0, 0.0, 0.0, 1.6213437540396872E9, 2021-05-18 15:15:54.039
22.0, -5.1629319190979, 136.7961883544922, -23.681047439575195, 43.287471771240234, -0.03200000151991844, -0.08000000566244125, 1.055999994277954, 0.0, 0.0, 0.0, 0.0, 0.0, 1.6213437540533688E9, 2021-05-18 15:15:54.053
22.0, -105.18655395507812, -62.32356262207031, -212.3103790283203, -139.14859008789062, -0.03200000151991844, -0.08000000566244125, 1.055999994277954, 0.0, 0.0, 0.0, 0.0, 0.0, 1.6213437540533688E9, 2021-05-18 15:15:54.053
23.0, -93.1178970336914, -38.24608612060547, -195.03952026367188, -117.63294219970703, -0.03200000151991844, -0.08000000566244125, 1.055999994277954, 0.0, 0.0, 0.0, 0.0, 0.0, 1.6213437540691073E9, 2021-05-18 15:15:54.069
23.0, -61.63167953491211, 51.09638214111328, -116.22860717773438, -33.548770904541016, -0.03200000151991844, -0.08000000566244125, 1.055999994277954, 0.0, 0.0, 0.0, 0.0, 0.0, 1.6213437540691073E9, 2021-05-18 15:15:54.069
24.0, -14.912851333618164, 120.19103240966797, -27.716398239135742, 41.91866683959961, -0.03200000151991844, -0.08000000566244125, 1.055999994277954, 0.0, 0.0, 0.0, 0.0, 0.0, 1.6213437540697622E9, 2021-05-18 15:15:54.069
24.0, -113.70604705810547, -66.92738342285156, -214.65530395507812, -140.03868103027344, -0.03200000151991844, -0.08000000566244125, 1.055999994277954, 0.0, 0.0, 0.0, 0.0, 0.0, 1.6213437540697622E9, 2021-05-18 15:15:54.069
25.0, -105.8597412109375, -35.53091812133789, -198.5176239013672, -121.71317291259766, -0.03200000151991844, -0.08000000566244125, 1.055999994277954, 0.0, 0.0, 0.0, 0.0, 0.0, 1.6213437540834243E9, 2021-05-18 15:15:54.083
25.0, -69.43311309814453, 53.14210891723633, -110.83941650390625, -34.94749450683594, -0.03200000151991844, -0.08000000566244125, 1.055999994277954, 0.0, 0.0, 0.0, 0.0, 0.0, 1.6213437540834243E9, 2021-05-18 15:15:54.083
26.0, -6.333520412445068, 134.3914337158203, -32.582008361816406, 40.61344528198242, -0.03200000151991844, -0.08000000566244125, 1.055999994277954, 0.0, 0.0, 0.0, 0.0, 0.0, 1.6213437541162767E9, 2021-05-18 15:15:54.116
26.0, -111.26763153076172, -63.1126823425293, -218.2306365966797, -141.48976135253906, -0.03200000151991844, -0.08000000566244125, 1.055999994277954, 0.0, 0.0, 0.0, 0.0, 0.0, 1.6213437541162767E9, 2021-05-18 15:15:54.116
27.0, -105.13045501708984, -48.97959899902344, -199.4189453125, -113.2310791015625, -0.03200000151991844, -0.08000000566244125, 1.055999994277954, 0.0, 0.0, 0.0, 0.0, 0.0, 1.62134375411698E9, 2021-05-18 15:15:54.116
27.0, -57.66364669799805, 40.15343475341797, -116.01917266845703, -32.01541519165039, -0.03200000151991844, -0.08000000566244125, 1.055999994277954, 0.0, 0.0, 0.0, 0.0, 0.0, 1.62134375411698E9, 2021-05-18 15:15:54.116
28.0, -1.565148115158081, 128.706787109375, -24.82171630859375, 47.307865142822266, -0.03200000151991844, -0.08000000566244125, 1.055999994277954, 0.0, 0.0, 0.0, 0.0, 0.0, 1.621343754117669E9, 2021-05-18 15:15:54.117
28.0, -113.4292984008789, -69.7098617553711, -213.92227172851562, -142.37986755371094, -0.03200000151991844, -0.08000000566244125, 1.055999994277954, 0.0, 0.0, 0.0, 0.0, 0.0, 1.621343754117669E9, 2021-05-18 15:15:54.117
29.0, -101.87300109863281, -39.469032287597656, -189.48951721191406, -119.43931579589844, -0.03200000151991844, -0.08000000566244125, 1.055999994277954, 0.0, 0.0, 0.0, 0.0, 0.0, 1.621343754118431E9, 2021-05-18 15:15:54.118
29.0, -64.05887603759766, 55.857276916503906, -105.8728256225586, -32.25476837158203, -0.03200000151991844, -0.08000000566244125, 1.055999994277954, 0.0, 0.0, 0.0, 0.0, 0.0, 1.621343754118431E9, 2021-05-18 15:15:54.118
30.0, -9.243163108825684, 128.9611053466797, -19.039831161499023, 43.923255920410156, -0.03200000151991844, -0.08000000566244125, 1.055999994277954, 0.0, 0.0, 0.0, 0.0, 0.0, 1.6213437541284928E9, 2021-05-18 15:15:54.128
30.0, -110.89738464355469, -73.26277160644531, -205.52993774414062, -136.82611083984375, -0.03200000151991844, -0.08000000566244125, 1.055999994277954, 0.0, 0.0, 0.0, 0.0, 0.0, 1.6213437541284928E9, 2021-05-18 15:15:54.128
31.0, -100.19004821777344, -43.17901611328125, -189.14544677734375, -114.25581359863281, -0.03200000151991844, -0.08000000566244125, 1.055999994277954, 0.0, 0.0, 0.0, 0.0, 0.0, 1.621343754143462E9, 2021-05-18 15:15:54.143
31.0, -65.99988555908203, 51.42549514770508, -110.74591827392578, -33.444053649902344, -0.03200000151991844, -0.08000000566244125, 1.055999994277954, 0.0, 0.0, 0.0, 0.0, 0.0, 1.621343754143462E9, 2021-05-18 15:15:54.143
32.0, -5.450904369354248, 131.77725219726562, -23.7034854888916, 38.91178894042969, -0.03200000151991844, -0.08000000566244125, 1.055999994277954, 0.0, 0.0, 0.0, 0.0, 0.0, 1.621343754159717E9, 2021-05-18 15:15:54.159
32.0, -110.09330749511719, -59.01749038696289, -205.42523193359375, -142.66783142089844, -0.03200000151991844, -0.08000000566244125, 1.055999994277954, 0.0, 0.0, 0.0, 0.0, 0.0, 1.621343754159717E9, 2021-05-18 15:15:54.159
33.0, -96.63340759277344, -36.29759979248047, -190.8096923828125, -114.89533996582031, -0.03200000151991844, -0.08000000566244125, 1.055999994277954, 0.0, 0.0, 0.0, 0.0, 0.0, 1.6213437541606495E9, 2021-05-18 15:15:54.160
33.0, -56.702491760253906, 51.025325775146484, -106.65072631835938, -28.787879943847656, -0.03200000151991844, -0.08000000566244125, 1.055999994277954, 0.0, 0.0, 0.0, 0.0, 0.0, 1.6213437541606495E9, 2021-05-18 15:15:54.160
34.0, -3.8016083240509033, 131.04795837402344, -19.511058807373047, 43.13039779663086, -0.03200000151991844, -0.08000000566244125, 1.055999994277954, 0.0, 0.0, 0.0, 0.0, 0.0, 1.6213437541733563E9, 2021-05-18 15:15:54.173
34.0, -104.50963592529297, -55.558082580566406, -205.74685668945312, -139.45899963378906, -0.03200000151991844, -0.08000000566244125, 1.055999994277954, 0.0, 0.0, 0.0, 0.0, 0.0, 1.6213437541733563E9, 2021-05-18 15:15:54.173
35.0, -100.69867706298828, -30.39603614807129, -190.25245666503906, -121.417724609375, -0.03200000151991844, -0.08000000566244125, 1.055999994277954, 0.0, 0.0, 0.0, 0.0, 0.0, 1.6213437541892111E9, 2021-05-18 15:15:54.189
35.0, -61.45216751098633, 48.650489807128906, -104.3095474243164, -30.246440887451172, -0.03200000151991844, -0.08000000566244125, 1.055999994277954, 0.0, 0.0, 0.0, 0.0, 0.0, 1.6213437541892111E9, 2021-05-18 15:15:54.189
36.0, -3.435098171234131, 122.33773803710938, -25.049850463867188, 45.235958099365234, -0.03200000151991844, -0.08000000566244125, 1.055999994277954, 0.0, 0.0, 0.0, 0.0, 0.0, 1.621343754189903E9, 2021-05-18 15:15:54.189
36.0, -108.23457336425781, -58.9987907409668, -207.20167541503906, -139.64599609375, -0.03200000151991844, -0.08000000566244125, 1.055999994277954, 0.0, 0.0, 0.0, 0.0, 0.0, 1.621343754189903E9, 2021-05-18 15:15:54.189
37.0, -95.64981079101562, -27.92396354675293, -195.62294006347656, -119.06158447265625, -0.03200000151991844, -0.08000000566244125, 1.055999994277954, 0.0, 0.0, 0.0, 0.0, 0.0, 1.6213437542033997E9, 2021-05-18 15:15:54.203
37.0, -65.39775848388672, 56.25370407104492, -102.77245330810547, -31.86581802368164, -0.03200000151991844, -0.08000000566244125, 1.055999994277954, 0.0, 0.0, 0.0, 0.0, 0.0, 1.6213437542033997E9, 2021-05-18 15:15:54.203
38.0, -9.317960739135742, 124.50688171386719, -22.678752899169922, 43.23511505126953, -0.03200000151991844, -0.08000000566244125, 1.055999994277954, 0.0, 0.0, 0.0, 0.0, 0.0, 1.621343754219787E9, 2021-05-18 15:15:54.219
38.0, -119.211181640625, -70.49150085449219, -211.02011108398438, -138.13880920410156, -0.03200000151991844, -0.08000000566244125, 1.055999994277954, 0.0, 0.0, 0.0, 0.0, 0.0, 1.621343754219787E9, 2021-05-18 15:15:54.219
39.0, -108.57864379882812, -25.380830764770508, -189.7026824951172, -112.22879028320312, -0.03200000151991844, -0.08000000566244125, 1.055999994277954, 0.0, 0.0, 0.0, 0.0, 0.0, 1.6213437542204387E9, 2021-05-18 15:15:54.220
39.0, -69.09278106689453, 55.8759765625, -106.6170654296875, -31.959314346313477, -0.03200000151991844, -0.08000000566244125, 1.055999994277954, 0.0, 0.0, 0.0, 0.0, 0.0, 1.6213437542204387E9, 2021-05-18 15:15:54.220
40.0, -7.470449924468994, 122.85010528564453, -18.49754524230957, 43.97561264038086, -0.03200000151991844, -0.08000000566244125, 1.055999994277954, 0.0, 0.0, 0.0, 0.0, 0.0, 1.621343754233552E9, 2021-05-18 15:15:54.233
40.0, -115.8826675415039, -52.95511245727539, -200.00985717773438, -140.9923553466797, -0.03200000151991844, -0.08000000566244125, 1.055999994277954, 0.0, 0.0, 0.0, 0.0, 0.0, 1.621343754233552E9, 2021-05-18 15:15:54.233
41.0, -106.19258880615234, -29.44984245300293, -184.81837463378906, -116.53715515136719, -0.03200000151991844, -0.08000000566244125, 1.055999994277954, 0.0, 0.0, 0.0, 0.0, 0.0, 1.6213437542639508E9, 2021-05-18 15:15:54.263
41.0, -77.1784439086914, 57.615028381347656, -108.79743194580078, -35.97596740722656, -0.03200000151991844, -0.08000000566244125, 1.055999994277954, 0.0, 0.0, 0.0, 0.0, 0.0, 1.6213437542639508E9, 2021-05-18 15:15:54.263
42.0, -16.708003997802734, 127.9027099609375, -24.167234420776367, 41.372642517089844, -0.03200000151991844, -0.08000000566244125, 1.055999994277954, 0.0, 0.0, 0.0, 0.0, 0.0, 1.621343754281232E9, 2021-05-18 15:15:54.281
42.0, -116.76528930664062, -54.0808219909668, -198.74949645996094, -142.0582275390625, -0.03200000151991844, -0.08000000566244125, 1.055999994277954, 0.0, 0.0, 0.0, 0.0, 0.0, 1.621343754281232E9, 2021-05-18 15:15:54.281
43.0, -104.76394653320312, -27.25826072692871, -182.20419311523438, -115.36282348632812, -0.03200000151991844, -0.08000000566244125, 1.055999994277954, 0.0, 0.0, 0.0, 0.0, 0.0, 1.6213437542819104E9, 2021-05-18 15:15:54.281
43.0, -66.50476837158203, 55.40100860595703, -96.08924865722656, -36.77630615234375, -0.03200000151991844, -0.08000000566244125, 1.055999994277954, 0.0, 0.0, 0.0, 0.0, 0.0, 1.6213437542819104E9, 2021-05-18 15:15:54.281
44.0, -14.666017532348633, 136.25390625, -21.205232620239258, 41.088409423828125, -0.03200000151991844, -0.08000000566244125, 1.055999994277954, 0.0, 0.0, 0.0, 0.0, 0.0, 1.6213437542826498E9, 2021-05-18 15:15:54.282
44.0, -112.15399169921875, -55.69646072387695, -201.56564331054688, -145.5886993408203, -0.03200000151991844, -0.08000000566244125, 1.055999994277954, 0.0, 0.0, 0.0, 0.0, 0.0, 1.6213437542826498E9, 2021-05-18 15:15:54.282
45.0, -100.30972290039062, -30.859785079956055, -180.44268798828125, -120.48648834228516, -0.03200000151991844, -0.08000000566244125, 1.055999994277954, 0.0, 0.0, 0.0, 0.0, 0.0, 1.621343754283334E9, 2021-05-18 15:15:54.283
45.0, -63.66244888305664, 60.535892486572266, -105.79802703857422, -35.67677688598633, -0.03200000151991844, -0.08000000566244125, 1.055999994277954, 0.0, 0.0, 0.0, 0.0, 0.0, 1.621343754283334E9, 2021-05-18 15:15:54.283
46.0, -2.9040322303771973, 128.33279418945312, -23.67730712890625, 38.01795196533203, -0.03200000151991844, -0.08000000566244125, 1.055999994277954, 0.0, 0.0, 0.0, 0.0, 0.0, 1.6213437542933435E9, 2021-05-18 15:15:54.293
46.0, -114.52882385253906, -57.59259033203125, -202.048095703125, -142.46961975097656, -0.03200000151991844, -0.08000000566244125, 1.055999994277954, 0.0, 0.0, 0.0, 0.0, 0.0, 1.6213437542933435E9, 2021-05-18 15:15:54.293
47.0, -103.36896514892578, -20.459123611450195, -187.27923583984375, -120.18355560302734, -0.03200000151991844, -0.08000000566244125, 1.055999994277954, 0.0, 0.0, 0.0, 0.0, 0.0, 1.6213437543090692E9, 2021-05-18 15:15:54.309
47.0, -64.72457885742188, 70.61865997314453, -104.71345520019531, -36.11060333251953, -0.03200000151991844, -0.08000000566244125, 1.055999994277954, 0.0, 0.0, 0.0, 0.0, 0.0, 1.6213437543090692E9, 2021-05-18 15:15:54.309
48.0, -9.250642776489258, 145.74203491210938, -23.73340606689453, 38.477962493896484, -0.03200000151991844, -0.08000000566244125, 1.055999994277954, 0.0, 0.0, 0.0, 0.0, 0.0, 1.621343754309916E9, 2021-05-18 15:15:54.309
48.0, -117.7077407836914, -58.1947135925293, -207.84120178222656, -140.9287872314453, -0.03200000151991844, -0.08000000566244125, 1.055999994277954, 0.0, 0.0, 0.0, 0.0, 0.0, 1.621343754309916E9, 2021-05-18 15:15:54.309
49.0, -106.97796630859375, -28.997314453125, -181.77035522460938, -108.70954132080078, -0.03200000151991844, -0.08000000566244125, 1.055999994277954, 0.0, 0.0, 0.0, 0.0, 0.0, 1.6213437543233633E9, 2021-05-18 15:15:54.323
49.0, -64.21595001220703, 60.894920349121094, -96.92698669433594, -29.685455322265625, -0.03200000151991844, -0.08000000566244125, 1.055999994277954, 0.0, 0.0, 0.0, 0.0, 0.0, 1.6213437543233633E9, 2021-05-18 15:15:54.323
50.0, -3.087287425994873, 139.6422576904297, -16.029211044311523, 42.01216506958008, -0.03200000151991844, -0.08000000566244125, 1.055999994277954, 0.0, 0.0, 0.0, 0.0, 0.0, 1.621343754339063E9, 2021-05-18 15:15:54.339
50.0, -112.01560974121094, -58.78935623168945, -203.56275939941406, -139.8965606689453, -0.03200000151991844, -0.08000000566244125, 1.055999994277954, 0.0, 0.0, 0.0, 0.0, 0.0, 1.621343754339063E9, 2021-05-18 15:15:54.339
51.0, -100.66875457763672, -34.22569274902344, -184.0741424560547, -113.58637237548828, -0.03200000151991844, -0.08000000566244125, 1.055999994277954, 0.0, 0.0, 0.0, 0.0, 0.0, 1.6213437543397543E9, 2021-05-18 15:15:54.339
51.0, -61.762577056884766, 59.55229568481445, -103.67376708984375, -29.95098876953125, -0.03200000151991844, -0.08000000566244125, 1.055999994277954, 0.0, 0.0, 0.0, 0.0, 0.0, 1.6213437543397543E9, 2021-05-18 15:15:54.339
52.0, -10.290334701538086, 126.02527618408203, -25.30042266845703, 39.536354064941406, -0.03200000151991844, -0.08000000566244125, 1.055999994277954, 0.0, 0.0, 0.0, 0.0, 0.0, 1.6213437543533733E9, 2021-05-18 15:15:54.353
52.0, -111.0432357788086, -60.281578063964844, -207.90478515625, -142.96328735351562, -0.03200000151991844, -0.08000000566244125, 1.055999994277954, 0.0, 0.0, 0.0, 0.0, 0.0, 1.6213437543533733E9, 2021-05-18 15:15:54.353
53.0, -94.97289276123047, -32.15378952026367, -186.56491088867188, -120.26209259033203, -0.03200000151991844, -0.08000000566244125, 1.055999994277954, 0.0, 0.0, 0.0, 0.0, 0.0, 1.6213437543690848E9, 2021-05-18 15:15:54.369
53.0, -57.29339599609375, 46.720699310302734, -100.19566345214844, -34.83903884887695, -0.03200000151991844, -0.08000000566244125, 1.055999994277954, 0.0, 0.0, 0.0, 0.0, 0.0, 1.6213437543690848E9, 2021-05-18 15:15:54.369
54.0, -1.7484031915664673, 124.76119232177734, -21.994352340698242, 41.83639144897461, -0.03200000151991844, -0.08000000566244125, 1.055999994277954, 0.0, 0.0, 0.0, 0.0, 0.0, 1.621343754369764E9, 2021-05-18 15:15:54.369
54.0, -98.66416931152344, -57.42803192138672, -204.42666625976562, -133.74069213867188, -0.03200000151991844, -0.08000000566244125, 1.055999994277954, 0.0, 0.0, 0.0, 0.0, 0.0, 1.621343754369764E9, 2021-05-18 15:15:54.369
55.0, -99.9394760131836, -33.04762649536133, -197.2909393310547, -112.80473327636719, -0.03200000151991844, -0.08000000566244125, 1.055999994277954, 0.0, 0.0, 0.0, 0.0, 0.0, 1.6213437543833292E9, 2021-05-18 15:15:54.383
55.0, -66.44866943359375, 53.504878997802734, -113.01603698730469, -28.60088539123535, -0.03200000151991844, -0.08000000566244125, 1.055999994277954, 0.0, 0.0, 0.0, 0.0, 0.0, 1.6213437543833292E9, 2021-05-18 15:15:54.383
56.0, -9.90512466430664, 125.58770751953125, -25.565956115722656, 45.725887298583984, -0.03200000151991844, -0.08000000566244125, 1.055999994277954, 0.0, 0.0, 0.0, 0.0, 0.0, 1.6213437543992603E9, 2021-05-18 15:15:54.399
56.0, -117.22529602050781, -60.29279708862305, -211.6783447265625, -138.0228729248047, -0.03200000151991844, -0.08000000566244125, 1.055999994277954, 0.0, 0.0, 0.0, 0.0, 0.0, 1.6213437543992603E9, 2021-05-18 15:15:54.399
57.0, -103.32408905029297, -37.797298431396484, -198.19973754882812, -112.85709381103516, -0.03200000151991844, -0.08000000566244125, 1.055999994277954, 0.0, 0.0, 0.0, 0.0, 0.0, 1.6213437543999736E9, 2021-05-18 15:15:54.399
57.0, -66.34395599365234, 48.84870147705078, -118.94751739501953, -34.53236770629883, -0.03200000151991844, -0.08000000566244125, 1.055999994277954, 0.0, 0.0, 0.0, 0.0, 0.0, 1.6213437543999736E9, 2021-05-18 15:15:54.399
58.0, -14.288288116455078, 129.24533081054688, -38.008602142333984, 36.608009338378906, -0.03200000151991844, -0.08000000566244125, 1.055999994277954, 0.0, 0.0, 0.0, 0.0, 0.0, 1.621343754413438E9, 2021-05-18 15:15:54.413
58.0, -113.02164459228516, -72.578369140625, -217.29940795898438, -141.53089904785156, -0.03200000151991844, -0.08000000566244125, 1.055999994277954, 0.0, 0.0, 0.0, 0.0, 0.0, 1.621343754413438E9, 2021-05-18 15:15:54.413
59.0, -106.6226806640625, -34.06113815307617, -194.14195251464844, -120.01152038574219, -0.03200000151991844, -0.08000000566244125, 1.055999994277954, 0.0, 0.0, 0.0, 0.0, 0.0, 1.6213437544291465E9, 2021-05-18 15:15:54.429
59.0, -75.09158325195312, 52.124855041503906, -113.70417785644531, -38.765933990478516, -0.03200000151991844, -0.08000000566244125, 1.055999994277954, 0.0, 0.0, 0.0, 0.0, 0.0, 1.6213437544291465E9, 2021-05-18 15:15:54.429
60.0, -15.051227569580078, 132.25221252441406, -29.451711654663086, 32.92047119140625, -0.03200000151991844, -0.08000000566244125, 1.055999994277954, 0.0, 0.0, 0.0, 0.0, 0.0, 1.6213437544298666E9, 2021-05-18 15:15:54.429
60.0, -115.32168579101562, -60.337677001953125, -217.4377899169922, -144.67616271972656, -0.03200000151991844, -0.08000000566244125, 1.055999994277954, 0.0, 0.0, 0.0, 0.0, 0.0, 1.6213437544298666E9, 2021-05-18 15:15:54.429
61.0, -108.7357177734375, -32.89054870605469, -193.6520233154297, -126.90789794921875, -0.03200000151991844, -0.08000000566244125, 1.055999994277954, 0.0, 0.0, 0.0, 0.0, 0.0, 1.6213437544433267E9, 2021-05-18 15:15:54.443
61.0, -67.92219543457031, 53.33658218383789, -114.69525146484375, -41.65313720703125, -0.03200000151991844, -0.08000000566244125, 1.055999994277954, 0.0, 0.0, 0.0, 0.0, 0.0, 1.6213437544433267E9, 2021-05-18 15:15:54.443
62.0, -9.14218521118164, 120.6734848022461, -31.97988510131836, 36.5743522644043, -0.03200000151991844, -0.08000000566244125, 1.055999994277954, 0.0, 0.0, 0.0, 0.0, 0.0, 1.6213437544590485E9, 2021-05-18 15:15:54.459
62.0, -110.71412658691406, -63.82326126098633, -216.94786071777344, -143.120361328125, -0.03200000151991844, -0.08000000566244125, 1.055999994277954, 0.0, 0.0, 0.0, 0.0, 0.0, 1.6213437544590485E9, 2021-05-18 15:15:54.459
63.0, -103.7579116821289, -33.05884552001953, -195.71270751953125, -115.88641357421875, -0.03200000151991844, -0.08000000566244125, 1.055999994277954, 0.0, 0.0, 0.0, 0.0, 0.0, 1.621343754459802E9, 2021-05-18 15:15:54.459
63.0, -58.81927490234375, 57.955360412597656, -108.23270416259766, -30.60173225402832, -0.03200000151991844, -0.08000000566244125, 1.055999994277954, 0.0, 0.0, 0.0, 0.0, 0.0, 1.621343754459802E9, 2021-05-18 15:15:54.459
64.0, -11.969550132751465, 126.59748077392578, -25.48741912841797, 41.21556854248047, -0.03200000151991844, -0.08000000566244125, 1.055999994277954, 0.0, 0.0, 0.0, 0.0, 0.0, 1.6213437544732952E9, 2021-05-18 15:15:54.473
64.0, -114.67094421386719, -58.21341323852539, -214.33740234375, -140.2892608642578, -0.03200000151991844, -0.08000000566244125, 1.055999994277954, 0.0, 0.0, 0.0, 0.0, 0.0, 1.6213437544732952E9, 2021-05-18 15:15:54.473
65.0, -101.18486022949219, -32.553958892822266, -195.97824096679688, -119.50289154052734, -0.03200000151991844, -0.08000000566244125, 1.055999994277954, 0.0, 0.0, 0.0, 0.0, 0.0, 1.6213437544890287E9, 2021-05-18 15:15:54.489
65.0, -63.65122604370117, 49.00577926635742, -120.37615966796875, -39.132442474365234, -0.03200000151991844, -0.08000000566244125, 1.055999994277954, 0.0, 0.0, 0.0, 0.0, 0.0, 1.6213437544890287E9, 2021-05-18 15:15:54.489
66.0, -12.059307098388672, 122.33026123046875, -30.278230667114258, 40.763038635253906, -0.03200000151991844, -0.08000000566244125, 1.055999994277954, 0.0, 0.0, 0.0, 0.0, 0.0, 1.6213437544897387E9, 2021-05-18 15:15:54.489
66.0, -111.67528533935547, -56.90818786621094, -213.06210327148438, -142.2601776123047, -0.03200000151991844, -0.08000000566244125, 1.055999994277954, 0.0, 0.0, 0.0, 0.0, 0.0, 1.6213437544897387E9, 2021-05-18 15:15:54.489
67.0, -108.73197937011719, -44.962947845458984, -195.9894561767578, -123.16425323486328, -0.03200000151991844, -0.08000000566244125, 1.055999994277954, 0.0, 0.0, 0.0, 0.0, 0.0, 1.6213437545032876E9, 2021-05-18 15:15:54.503
67.0, -71.0300521850586, 52.394126892089844, -109.91565704345703, -30.45213508605957, -0.03200000151991844, -0.08000000566244125, 1.055999994277954, 0.0, 0.0, 0.0, 0.0, 0.0, 1.6213437545032876E9, 2021-05-18 15:15:54.503
68.0, -14.942770004272461, 122.3676528930664, -33.64788055419922, 41.02857208251953, -0.03200000151991844, -0.08000000566244125, 1.055999994277954, 0.0, 0.0, 0.0, 0.0, 0.0, 1.6213437545188723E9, 2021-05-18 15:15:54.518
68.0, -115.91259002685547, -67.14055633544922, -213.71658325195312, -136.1267547607422, -0.03200000151991844, -0.08000000566244125, 1.055999994277954, 0.0, 0.0, 0.0, 0.0, 0.0, 1.6213437545188723E9, 2021-05-18 15:15:54.518
69.0, -102.68456268310547, -36.44345474243164, -194.55332946777344, -114.19597625732422, -0.03200000151991844, -0.08000000566244125, 1.055999994277954, 0.0, 0.0, 0.0, 0.0, 0.0, 1.621343754534045E9, 2021-05-18 15:15:54.534
69.0, -71.95006561279297, 45.494014739990234, -117.40293884277344, -31.2861328125, -0.03200000151991844, -0.08000000566244125, 1.055999994277954, 0.0, 0.0, 0.0, 0.0, 0.0, 1.621343754534045E9, 2021-05-18 15:15:54.534
70.0, -13.203717231750488, 121.4588623046875, -29.481632232666016, 44.764732360839844, -0.03200000151991844, -0.08000000566244125, 1.055999994277954, 0.0, 0.0, 0.0, 0.0, 0.0, 1.621343754534764E9, 2021-05-18 15:15:54.534
70.0, -112.26992797851562, -65.08361053466797, -205.4439239501953, -134.4662322998047, -0.03200000151991844, -0.08000000566244125, 1.055999994277954, 0.0, 0.0, 0.0, 0.0, 0.0, 1.621343754534764E9, 2021-05-18 15:15:54.534
71.0, -108.84417724609375, -30.291318893432617, -189.6241455078125, -119.54029083251953, -0.03200000151991844, -0.08000000566244125, 1.055999994277954, 0.0, 0.0, 0.0, 0.0, 0.0, 1.621343754549018E9, 2021-05-18 15:15:54.549
71.0, -72.46990966796875, 50.87199020385742, -103.9243392944336, -35.31400680541992, -0.03200000151991844, -0.08000000566244125, 1.055999994277954, 0.0, 0.0, 0.0, 0.0, 0.0, 1.621343754549018E9, 2021-05-18 15:15:54.549
