Sample Index, EXG Channel 0, EXG Channel 1, EXG Channel 2, EXG Channel 3, Accel Channel 0, Accel Channel 1, Accel Channel 2, Other, Other, Other, Other, Other, Timestamp, Timestamp (Formatted)
0.0, -74.1640853881836, -150.83950805664062, -1.1761984825134277, 109.5173568725586, 0.0, 0.0, 0.0, 0.0, 0.0, 0.0, 0.0, 0.0, 1.621430222754413E9, 2021-05-19 15:17:02.754
1.0, -68.53179931640625, -132.51400756835938, 4.418691635131836, 122.67433166503906, 0.0, -0.01600000075995922, 0.0, 0.0, 0.0, 0.0, 0.0, 0.0, 1.621430222767688E9, 2021-05-19 15:17:02.767
1.0, -60.00856399536133, -109.61833953857422, 15.152204513549805, 136.02951049804688, 0.0, -0.01600000075995922, 0.0, 0.0, 0.0, 0.0, 0.0, 0.0, 1.621430222767688E9, 2021-05-19 15:17:02.767
2.0, -51.4105339050293, -127.6633529663086, 23.828773498535156, 132.0203399658203, -0.09600000083446503, -0.01600000075995922, 0.0, 0.0, 0.0, 0.0, 0.0, 0.0, 1.6214302227993877E9, 2021-05-19 15:17:02.799
2.0, -70.06889343261719, -140.10226440429688, 12.926963806152344, 120.13493347167969, -0.09600000083446503, -0.01600000075995922, 0.0, 0.0, 0.0, 0.0, 0.0, 0.0, 1.6214302227993877E9, 2021-05-19 15:17:02.799
3.0, -61.93461227416992, -125.68120574951172, 7.496629238128662, 128.85638427734375, -0.09600000083446503, -0.01600000075995922, 0.0, 0.0, 0.0, 0.0, 0.0, 0.0, 1.621430222800039E9, 2021-05-19 15:17:02.800
3.0, -64.44034576416016, -113.42181396484375, 25.85205841064453, 136.98692321777344, -0.09600000083446503, -0.01600000075995922, 0.0, 0.0, 0.0, 0.0, 0.0, 0.0, 1.621430222800039E9, 2021-05-19 15:17:02.800
4.0, -56.21256637573242, -125.77470397949219, 22.9349365234375, 132.24473571777344, -0.09600000083446503, -0.01600000075995922, 0.0, 0.0, 0.0, 0.0, 0.0, 0.0, 1.621430222830106E9, 2021-05-19 15:17:02.830
4.0, -61.2576904296875, -144.54525756835938, 10.656845092773438, 119.26728057861328, -0.09600000083446503, -0.01600000075995922, 0.0, 0.0, 0.0, 0.0, 0.0, 0.0, 1.621430222830106E9, 2021-05-19 15:17:02.830
5.0, -70.42792510986328, -138.82321166992188, 2.8628933429718018, 114.62232208251953, -0.09600000083446503, -0.01600000075995922, 0.0, 0.0, 0.0, 0.0, 0.0, 0.0, 1.6214302228309305E9, 2021-05-19 15:17:02.830
5.0, -63.59512710571289, -128.34027099609375, 14.00405502319336, 133.64344787597656, -0.09600000083446503, -0.01600000075995922, 0.0, 0.0, 0.0, 0.0, 0.0, 0.0, 1.6214302228309305E9, 2021-05-19 15:17:02.830
6.0, -56.754852294921875, -121.72439575195312, 17.242809295654297, 132.08766174316406, -0.09600000083446503, -0.01600000075995922, 0.0, 0.0, 0.0, 0.0, 0.0, 0.0, 1.6214302228315947E9, 2021-05-19 15:17:02.831
6.0, -67.23405456542969, -146.71066284179688, 2.462724208831787, 120.83429718017578, -0.09600000083446503, -0.01600000075995922, 0.0, 0.0, 0.0, 0.0, 0.0, 0.0, 1.6214302228315947E9, 2021-05-19 15:17:02.831
7.0, -63.56147003173828, -133.89776611328125, -10.099599838256836, 118.25750732421875, -0.09600000083446503, -0.01600000075995922, 0.0, 0.0, 0.0, 0.0, 0.0, 0.0, 1.6214302228324203E9, 2021-05-19 15:17:02.832
7.0, -60.094581604003906, -123.4671859741211, 2.627279758453369, 128.77410888671875, -0.09600000083446503, -0.01600000075995922, 0.0, 0.0, 0.0, 0.0, 0.0, 0.0, 1.6214302228324203E9, 2021-05-19 15:17:02.832
8.0, -65.60719299316406, -134.0436248779297, 9.015028953552246, 123.11190032958984, -0.09600000083446503, -0.01600000075995922, 0.0, 0.0, 0.0, 0.0, 0.0, 0.0, 1.62143022284284E9, 2021-05-19 15:17:02.842
8.0, -55.80491638183594, -149.96812438964844, 2.574921131134033, 116.83260345458984, -0.09600000083446503, -0.01600000075995922, 0.0, 0.0, 0.0, 0.0, 0.0, 0.0, 1.62143022284284E9, 2021-05-19 15:17:02.842
9.0, -77.54495239257812, -124.05435180664062, 2.2495498657226562, 132.45042419433594, -0.09600000083446503, -0.01600000075995922, 0.0, 0.0, 0.0, 0.0, 0.0, 0.0, 1.621430222857749E9, 2021-05-19 15:17:02.857
9.0, -61.54566192626953, -118.4258041381836, 10.959776878356934, 127.25570678710938, -0.09600000083446503, -0.01600000075995922, 0.0, 0.0, 0.0, 0.0, 0.0, 0.0, 1.621430222857749E9, 2021-05-19 15:17:02.857
10.0, -57.34949493408203, -133.71824645996094, 11.330026626586914, 124.31988525390625, -0.09600000083446503, -0.01600000075995922, 1.040000081062317, 0.0, 0.0, 0.0, 0.0, 0.0, 1.6214302228742657E9, 2021-05-19 15:17:02.874
10.0, -74.55303192138672, -140.43511962890625, 2.3991458415985107, 115.60218048095703, -0.09600000083446503, -0.01600000075995922, 1.040000081062317, 0.0, 0.0, 0.0, 0.0, 0.0, 1.6214302228742657E9, 2021-05-19 15:17:02.874
11.0, -67.54820251464844, -136.19406127929688, -2.242069959640503, 117.77506256103516, -0.09600000083446503, 0.0, 1.040000081062317, 0.0, 0.0, 0.0, 0.0, 0.0, 1.621430222874948E9, 2021-05-19 15:17:02.874
11.0, -62.29738235473633, -115.07111358642578, 11.76385498046875, 134.36898803710938, -0.09600000083446503, 0.0, 1.040000081062317, 0.0, 0.0, 0.0, 0.0, 0.0, 1.621430222874948E9, 2021-05-19 15:17:02.874
12.0, -63.92424011230469, -136.07064819335938, 6.198884010314941, 131.32846069335938, -0.09600000083446503, 0.0, 1.040000081062317, 0.0, 0.0, 0.0, 0.0, 0.0, 1.6214302228881457E9, 2021-05-19 15:17:02.888
12.0, -67.6828384399414, -140.1957550048828, -3.251842975616455, 112.26244354248047, -0.09600000083446503, 0.0, 1.040000081062317, 0.0, 0.0, 0.0, 0.0, 0.0, 1.6214302228881457E9, 2021-05-19 15:17:02.888
13.0, -73.95838928222656, -119.9928207397461, -1.3818930387496948, 122.49481201171875, -0.09600000083446503, 0.0, 1.040000081062317, 0.0, 0.0, 0.0, 0.0, 0.0, 1.621430222888839E9, 2021-05-19 15:17:02.888
13.0, -63.333335876464844, -118.17523193359375, 6.557914733886719, 132.00538635253906, -0.09600000083446503, 0.0, 1.040000081062317, 0.0, 0.0, 0.0, 0.0, 0.0, 1.621430222888839E9, 2021-05-19 15:17:02.888
14.0, -54.323917388916016, -133.11239624023438, 13.742262840270996, 130.3523406982422, -0.09600000083446503, 0.0, 1.040000081062317, 0.0, 0.0, 0.0, 0.0, 0.0, 1.6214302229628E9, 2021-05-19 15:17:02.962
14.0, -71.59851837158203, -137.6825408935547, 1.538968801498413, 121.89643096923828, -0.09600000083446503, 0.0, 1.040000081062317, 0.0, 0.0, 0.0, 0.0, 0.0, 1.6214302229628E9, 2021-05-19 15:17:02.962
15.0, -72.99349975585938, -132.7832794189453, 4.534628868103027, 125.79340362548828, -0.09600000083446503, 0.0, 1.040000081062317, 0.0, 0.0, 0.0, 0.0, 0.0, 1.621430222981448E9, 2021-05-19 15:17:02.981
15.0, -49.929534912109375, -105.82234191894531, 16.423770904541016, 140.77919006347656, -0.09600000083446503, 0.0, 1.040000081062317, 0.0, 0.0, 0.0, 0.0, 0.0, 1.621430222981448E9, 2021-05-19 15:17:02.981
16.0, -53.927486419677734, -124.41712188720703, 12.571673393249512, 129.2154083251953, -0.09600000083446503, 0.0, 1.040000081062317, 0.0, 0.0, 0.0, 0.0, 0.0, 1.6214302229821687E9, 2021-05-19 15:17:02.982
16.0, -39.13618469238281, -142.02456665039062, 18.084285736083984, 123.87109375, -0.09600000083446503, 0.0, 1.040000081062317, 0.0, 0.0, 0.0, 0.0, 0.0, 1.6214302229821687E9, 2021-05-19 15:17:02.982
17.0, -74.81108856201172, -126.7770004272461, 9.777968406677246, 129.53330993652344, -0.09600000083446503, 0.0, 1.040000081062317, 0.0, 0.0, 0.0, 0.0, 0.0, 1.621430222982911E9, 2021-05-19 15:17:02.982
17.0, -56.29484558105469, -127.16968536376953, 13.413150787353516, 134.15582275390625, -0.09600000083446503, 0.0, 1.040000081062317, 0.0, 0.0, 0.0, 0.0, 0.0, 1.621430222982911E9, 2021-05-19 15:17:02.982
18.0, -49.90709686279297, -131.57154846191406, 17.680377960205078, 127.97750854492188, -0.09600000083446503, 0.0, 1.040000081062317, 0.0, 0.0, 0.0, 0.0, 0.0, 1.621430222983668E9, 2021-05-19 15:17:02.983
18.0, -63.8868408203125, -138.83444213867188, 8.749495506286621, 120.59868621826172, -0.09600000083446503, 0.0, 1.040000081062317, 0.0, 0.0, 0.0, 0.0, 0.0, 1.621430222983668E9, 2021-05-19 15:17:02.983
19.0, -77.35047912597656, -135.38624572753906, 2.324347734451294, 114.31938934326172, -0.09600000083446503, 0.0, 1.040000081062317, 0.0, 0.0, 0.0, 0.0, 0.0, 1.6214302229927692E9, 2021-05-19 15:17:02.992
19.0, -44.84326934814453, -108.89653778076172, 28.701862335205078, 149.24258422851562, -0.09600000083446503, 0.0, 1.040000081062317, 0.0, 0.0, 0.0, 0.0, 0.0, 1.6214302229927692E9, 2021-05-19 15:17:02.992
20.0, -47.9586067199707, -124.15532684326172, 29.255367279052734, 160.10324096679688, -0.09600000083446503, 0.0, 1.040000081062317, 0.0, 0.0, 0.0, 0.0, 0.0, 1.621430223023764E9, 2021-05-19 15:17:03.023
20.0, -63.44927215576172, -143.57289123535156, 11.565640449523926, 121.66081237792969, -0.09600000083446503, 0.0, 1.040000081062317, 0.0, 0.0, 0.0, 0.0, 0.0, 1.621430223023764E9, 2021-05-19 15:17:03.023
22.0, -30.242700576782227, -142.74636840820312, 7.227356433868408, 116.04722595214844, -0.09600000083446503, 0.0, 1.040000081062317, 0.0, 0.0, 0.0, 0.0, 0.0, 1.6214302230401895E9, 2021-05-19 15:17:03.040
22.0, -111.9408187866211, -187.58029174804688, -20.141231536865234, 99.5991439819336, -0.09600000083446503, 0.0, 1.040000081062317, 0.0, 0.0, 0.0, 0.0, 0.0, 1.6214302230401895E9, 2021-05-19 15:17:03.040
24.0, -79.1456298828125, -163.15875244140625, -0.30854174494743347, 120.08258056640625, -0.09600000083446503, 0.0, 1.040000081062317, 0.0, 0.0, 0.0, 0.0, 0.0, 1.6214302230409532E9, 2021-05-19 15:17:03.040
24.0, -73.64424133300781, -207.24842834472656, -10.836359977722168, 92.98326110839844, -0.09600000083446503, 0.0, 1.040000081062317, 0.0, 0.0, 0.0, 0.0, 0.0, 1.6214302230409532E9, 2021-05-19 15:17:03.040
25.0, -115.05989074707031, -186.80987548828125, -24.34113883972168, 85.99339294433594, -0.09600000083446503, 0.0, 1.040000081062317, 0.0, 0.0, 0.0, 0.0, 0.0, 1.6214302230416665E9, 2021-05-19 15:17:03.041
25.0, -83.7008285522461, -170.19723510742188, -3.487456798553467, 99.539306640625, -0.09600000083446503, 0.0, 1.040000081062317, 0.0, 0.0, 0.0, 0.0, 0.0, 1.6214302230416665E9, 2021-05-19 15:17:03.041
26.0, -48.545772552490234, -175.35081481933594, 15.653350830078125, 125.58023071289062, -0.09600000083446503, 0.0, 1.040000081062317, 0.0, 0.0, 0.0, 0.0, 0.0, 1.6214302230423925E9, 2021-05-19 15:17:03.042
26.0, -113.37693786621094, -182.95404052734375, -16.61824607849121, 81.64014434814453, -0.09600000083446503, 0.0, 1.040000081062317, 0.0, 0.0, 0.0, 0.0, 0.0, 1.6214302230423925E9, 2021-05-19 15:17:03.042
27.0, -71.10485076904297, -181.98165893554688, -1.400592565536499, 110.52713012695312, -0.09600000083446503, 0.0, 1.040000081062317, 0.0, 0.0, 0.0, 0.0, 0.0, 1.6214302230544472E9, 2021-05-19 15:17:03.054
27.0, -91.38632202148438, -173.1367950439453, -13.271035194396973, 96.0462417602539, -0.09600000083446503, 0.0, 1.040000081062317, 0.0, 0.0, 0.0, 0.0, 0.0, 1.6214302230544472E9, 2021-05-19 15:17:03.054
28.0, -80.1890640258789, -160.23040771484375, -7.807041168212891, 97.15699005126953, -0.09600000083446503, 0.0, 1.040000081062317, 0.0, 0.0, 0.0, 0.0, 0.0, 1.621430223055186E9, 2021-05-19 15:17:03.055
28.0, -95.46281433105469, -191.93353271484375, -22.168256759643555, 93.93319702148438, -0.09600000083446503, 0.0, 1.040000081062317, 0.0, 0.0, 0.0, 0.0, 0.0, 1.621430223055186E9, 2021-05-19 15:17:03.055
29.0, -91.62567901611328, -213.34072875976562, -20.148710250854492, 99.94695281982422, -0.09600000083446503, 0.0, 1.040000081062317, 0.0, 0.0, 0.0, 0.0, 0.0, 1.6214302230560124E9, 2021-05-19 15:17:03.056
29.0, -62.776092529296875, -210.3974151611328, -20.87799072265625, 103.42880249023438, -0.09600000083446503, 0.0, 1.040000081062317, 0.0, 0.0, 0.0, 0.0, 0.0, 1.6214302230560124E9, 2021-05-19 15:17:03.056
30.0, -103.6756362915039, -182.27337646484375, -34.891395568847656, 96.13600158691406, -0.09600000083446503, 0.0, 1.055999994277954, 0.0, 0.0, 0.0, 0.0, 0.0, 1.6214302230566597E9, 2021-05-19 15:17:03.056
30.0, -106.81341552734375, -217.9781951904297, -45.681007385253906, 67.09567260742188, -0.09600000083446503, 0.0, 1.055999994277954, 0.0, 0.0, 0.0, 0.0, 0.0, 1.6214302230566597E9, 2021-05-19 15:17:03.056
31.0, -90.21199798583984, -188.96778869628906, -38.42934036254883, 91.30404663085938, -0.09600000083446503, -0.01600000075995922, 1.055999994277954, 0.0, 0.0, 0.0, 0.0, 0.0, 1.621430223067423E9, 2021-05-19 15:17:03.067
31.0, -73.82001495361328, -177.55735778808594, -23.552019119262695, 116.45113372802734, -0.09600000083446503, -0.01600000075995922, 1.055999994277954, 0.0, 0.0, 0.0, 0.0, 0.0, 1.621430223067423E9, 2021-05-19 15:17:03.067
32.0, -79.5457992553711, -171.7268524169922, -17.598098754882812, 112.18016815185547, -0.09600000083446503, -0.01600000075995922, 1.055999994277954, 0.0, 0.0, 0.0, 0.0, 0.0, 1.6214302231155696E9, 2021-05-19 15:17:03.115
32.0, -103.38018798828125, -155.77992248535156, -31.22255516052246, 111.94829559326172, -0.09600000083446503, -0.01600000075995922, 1.055999994277954, 0.0, 0.0, 0.0, 0.0, 0.0, 1.6214302231155696E9, 2021-05-19 15:17:03.115
33.0, -129.0059814453125, -210.5133514404297, -51.43671417236328, 66.98722076416016, -0.09600000083446503, -0.01600000075995922, 1.055999994277954, 0.0, 0.0, 0.0, 0.0, 0.0, 1.6214302231162856E9, 2021-05-19 15:17:03.116
33.0, -86.70771026611328, -194.52902221679688, -8.244609832763672, 135.5732421875, -0.09600000083446503, -0.01600000075995922, 1.055999994277954, 0.0, 0.0, 0.0, 0.0, 0.0, 1.6214302231162856E9, 2021-05-19 15:17:03.116
34.0, -97.17942810058594, -177.7667999267578, -39.480255126953125, 55.63288116455078, -0.09600000083446503, -0.01600000075995922, 1.055999994277954, 0.0, 0.0, 0.0, 0.0, 0.0, 1.6214302231170557E9, 2021-05-19 15:17:03.117
34.0, -58.19845199584961, -197.52842712402344, -23.77641487121582, 76.10509490966797, -0.09600000083446503, -0.01600000075995922, 1.055999994277954, 0.0, 0.0, 0.0, 0.0, 0.0, 1.6214302231170557E9, 2021-05-19 15:17:03.117
35.0, -124.22638702392578, -189.8765869140625, -26.536460876464844, 104.67418670654297, -0.09600000083446503, -0.01600000075995922, 1.055999994277954, 0.0, 0.0, 0.0, 0.0, 0.0, 1.6214302231177807E9, 2021-05-19 15:17:03.117
35.0, -101.63365173339844, -148.26272583007812, -13.248595237731934, 117.55066680908203, -0.09600000083446503, -0.01600000075995922, 1.055999994277954, 0.0, 0.0, 0.0, 0.0, 0.0, 1.6214302231177807E9, 2021-05-19 15:17:03.117
36.0, -106.95552825927734, -154.41111755371094, -23.68291664123535, 89.44532012939453, -0.09600000083446503, -0.01600000075995922, 1.055999994277954, 0.0, 0.0, 0.0, 0.0, 0.0, 1.6214302231452234E9, 2021-05-19 15:17:03.145
36.0, -94.73727416992188, -187.6251678466797, -21.659629821777344, 135.6517791748047, -0.09600000083446503, -0.01600000075995922, 1.055999994277954, 0.0, 0.0, 0.0, 0.0, 0.0, 1.6214302231452234E9, 2021-05-19 15:17:03.145
37.0, -108.32433319091797, -223.25894165039062, -36.44345474243164, 77.72073364257812, -0.09600000083446503, -0.01600000075995922, 1.055999994277954, 0.0, 0.0, 0.0, 0.0, 0.0, 1.6214302231459699E9, 2021-05-19 15:17:03.145
37.0, -100.21623229980469, -131.1676483154297, -35.781494140625, 68.79733276367188, -0.09600000083446503, -0.01600000075995922, 1.055999994277954, 0.0, 0.0, 0.0, 0.0, 0.0, 1.6214302231459699E9, 2021-05-19 15:17:03.145
38.0, -101.63739013671875, -179.3225860595703, -32.3781852722168, 85.89241027832031, -0.09600000083446503, -0.01600000075995922, 1.055999994277954, 0.0, 0.0, 0.0, 0.0, 0.0, 1.621430223146685E9, 2021-05-19 15:17:03.146
38.0, -88.33456420898438, -171.64083862304688, -35.55335998535156, 68.27748107910156, -0.09600000083446503, -0.01600000075995922, 1.055999994277954, 0.0, 0.0, 0.0, 0.0, 0.0, 1.621430223146685E9, 2021-05-19 15:17:03.146
39.0, -87.3921127319336, -143.8384246826172, -38.34706497192383, 101.22974395751953, -0.09600000083446503, -0.01600000075995922, 1.055999994277954, 0.0, 0.0, 0.0, 0.0, 0.0, 1.621430223147469E9, 2021-05-19 15:17:03.147
39.0, -105.2015151977539, -234.7217254638672, -34.03495788574219, 78.71928405761719, -0.09600000083446503, -0.01600000075995922, 1.055999994277954, 0.0, 0.0, 0.0, 0.0, 0.0, 1.621430223147469E9, 2021-05-19 15:17:03.147
40.0, -86.9508056640625, -152.98248291015625, -22.018661499023438, 133.69207763671875, -0.09600000083446503, -0.01600000075995922, 1.040000081062317, 0.0, 0.0, 0.0, 0.0, 0.0, 1.6214302231574647E9, 2021-05-19 15:17:03.157
40.0, -101.18112182617188, -216.55703735351562, -23.256567001342773, 134.6307830810547, -0.09600000083446503, -0.01600000075995922, 1.040000081062317, 0.0, 0.0, 0.0, 0.0, 0.0, 1.6214302231574647E9, 2021-05-19 15:17:03.157
41.0, -84.57222747802734, -213.72219848632812, -40.88645553588867, 58.31064987182617, -0.09600000083446503, 0.0, 1.040000081062317, 0.0, 0.0, 0.0, 0.0, 0.0, 1.621430223174306E9, 2021-05-19 15:17:03.174
41.0, -130.4944610595703, -184.95114135742188, -30.803686141967773, 155.8846435546875, -0.09600000083446503, 0.0, 1.040000081062317, 0.0, 0.0, 0.0, 0.0, 0.0, 1.621430223174306E9, 2021-05-19 15:17:03.174
42.0, -113.56393432617188, -164.18722534179688, -38.88187026977539, -4.826340675354004, -0.09600000083446503, 0.0, 1.040000081062317, 0.0, 0.0, 0.0, 0.0, 0.0, 1.6214302232051463E9, 2021-05-19 15:17:03.205
42.0, -82.7322006225586, -157.42173767089844, -16.63320541381836, 89.68840789794922, -0.09600000083446503, 0.0, 1.040000081062317, 0.0, 0.0, 0.0, 0.0, 0.0, 1.6214302232051463E9, 2021-05-19 15:17:03.205
43.0, -88.05781555175781, -153.4163055419922, -16.73792266845703, 101.10258483886719, -0.09600000083446503, 0.0, 1.040000081062317, 0.0, 0.0, 0.0, 0.0, 0.0, 1.6214302232058966E9, 2021-05-19 15:17:03.205
43.0, -98.94840240478516, -157.9528045654297, -11.300107955932617, 111.42845153808594, -0.09600000083446503, 0.0, 1.040000081062317, 0.0, 0.0, 0.0, 0.0, 0.0, 1.6214302232058966E9, 2021-05-19 15:17:03.205
44.0, -100.30598449707031, -152.85157775878906, -16.255475997924805, 44.46554183959961, -0.09600000083446503, 0.0, 1.040000081062317, 0.0, 0.0, 0.0, 0.0, 0.0, 1.6214302232065697E9, 2021-05-19 15:17:03.206
44.0, -61.298831939697266, -149.15655517578125, -8.865432739257812, 102.1086196899414, -0.09600000083446503, 0.0, 1.040000081062317, 0.0, 0.0, 0.0, 0.0, 0.0, 1.6214302232065697E9, 2021-05-19 15:17:03.206
45.0, -115.4376220703125, -182.86427307128906, -34.999855041503906, 116.6231689453125, -0.09600000083446503, 0.0, 1.040000081062317, 0.0, 0.0, 0.0, 0.0, 0.0, 1.6214302232073138E9, 2021-05-19 15:17:03.207
45.0, -89.47523498535156, -190.2730255126953, -23.55575942993164, 87.8184585571289, -0.09600000083446503, 0.0, 1.040000081062317, 0.0, 0.0, 0.0, 0.0, 0.0, 1.6214302232073138E9, 2021-05-19 15:17:03.207
46.0, -111.02454376220703, -187.06417846679688, -26.083932876586914, 57.96284103393555, -0.09600000083446503, 0.0, 1.040000081062317, 0.0, 0.0, 0.0, 0.0, 0.0, 1.621430223217405E9, 2021-05-19 15:17:03.217
46.0, -124.26004791259766, -182.4229736328125, -28.301692962646484, 127.99246978759766, -0.09600000083446503, 0.0, 1.040000081062317, 0.0, 0.0, 0.0, 0.0, 0.0, 1.621430223217405E9, 2021-05-19 15:17:03.217
47.0, -101.11006164550781, -201.01400756835938, -46.90769577026367, 25.029279708862305, -0.09600000083446503, 0.0, 1.040000081062317, 0.0, 0.0, 0.0, 0.0, 0.0, 1.6214302232330835E9, 2021-05-19 15:17:03.233
47.0, -76.6922607421875, -171.87644958496094, 1.9279184341430664, 161.87222290039062, -0.09600000083446503, 0.0, 1.040000081062317, 0.0, 0.0, 0.0, 0.0, 0.0, 1.6214302232330835E9, 2021-05-19 15:17:03.233
48.0, -113.07400512695312, -152.8777618408203, -29.18804931640625, 74.2089614868164, -0.09600000083446503, 0.0, 1.040000081062317, 0.0, 0.0, 0.0, 0.0, 0.0, 1.6214302232338798E9, 2021-05-19 15:17:03.233
48.0, -108.6758804321289, -233.41650390625, -37.135337829589844, 73.0234146118164, -0.09600000083446503, 0.0, 1.040000081062317, 0.0, 0.0, 0.0, 0.0, 0.0, 1.6214302232338798E9, 2021-05-19 15:17:03.233
49.0, -73.64797973632812, -130.67771911621094, -15.440176963806152, 106.02803039550781, -0.09600000083446503, 0.0, 1.040000081062317, 0.0, 0.0, 0.0, 0.0, 0.0, 1.6214302232951152E9, 2021-05-19 15:17:03.295
49.0, -95.15988159179688, -180.40342712402344, -22.41135025024414, 158.40907287597656, -0.09600000083446503, 0.0, 1.040000081062317, 0.0, 0.0, 0.0, 0.0, 0.0, 1.6214302232951152E9, 2021-05-19 15:17:03.295
50.0, -109.20320892333984, -189.13235473632812, -40.73685836791992, 57.525272369384766, -0.09600000083446503, 0.0, 1.040000081062317, 0.0, 0.0, 0.0, 0.0, 0.0, 1.621430223295863E9, 2021-05-19 15:17:03.295
50.0, -30.949542999267578, -183.0662384033203, -20.653596878051758, 72.39137268066406, -0.09600000083446503, 0.0, 1.040000081062317, 0.0, 0.0, 0.0, 0.0, 0.0, 1.621430223295863E9, 2021-05-19 15:17:03.295
51.0, -176.53262329101562, -186.94076538085938, -47.921207427978516, 80.2713394165039, -0.09600000083446503, -0.01600000075995922, 1.040000081062317, 0.0, 0.0, 0.0, 0.0, 0.0, 1.62143022329658E9, 2021-05-19 15:17:03.296
51.0, -78.56221008300781, -152.70571899414062, -6.243762969970703, 85.41744232177734, -0.09600000083446503, -0.01600000075995922, 1.040000081062317, 0.0, 0.0, 0.0, 0.0, 0.0, 1.62143022329658E9, 2021-05-19 15:17:03.296
52.0, -101.79446411132812, -151.5126953125, 3.408918857574463, 127.53245544433594, -0.09600000083446503, -0.01600000075995922, 1.040000081062317, 0.0, 0.0, 0.0, 0.0, 0.0, 1.6214302232973316E9, 2021-05-19 15:17:03.297
52.0, -103.02115631103516, -241.74526977539062, -20.8218936920166, 94.91304779052734, -0.09600000083446503, -0.01600000075995922, 1.040000081062317, 0.0, 0.0, 0.0, 0.0, 0.0, 1.6214302232973316E9, 2021-05-19 15:17:03.297
53.0, -73.43106842041016, -219.32456970214844, -8.207210540771484, 89.94646453857422, -0.09600000083446503, -0.01600000075995922, 1.040000081062317, 0.0, 0.0, 0.0, 0.0, 0.0, 1.6214302233258667E9, 2021-05-19 15:17:03.325
53.0, -98.70530700683594, -167.5830535888672, -15.253182411193848, 128.81898498535156, -0.09600000083446503, -0.01600000075995922, 1.040000081062317, 0.0, 0.0, 0.0, 0.0, 0.0, 1.6214302233258667E9, 2021-05-19 15:17:03.325
54.0, -89.41165924072266, -145.0239715576172, -16.274173736572266, 75.66752624511719, -0.09600000083446503, -0.01600000075995922, 1.040000081062317, 0.0, 0.0, 0.0, 0.0, 0.0, 1.6214302233265135E9, 2021-05-19 15:17:03.326
54.0, -107.89424133300781, -190.79286193847656, -41.04353332519531, 54.555789947509766, -0.09600000083446503, -0.01600000075995922, 1.040000081062317, 0.0, 0.0, 0.0, 0.0, 0.0, 1.6214302233265135E9, 2021-05-19 15:17:03.326
55.0, -75.14393615722656, -134.75421142578125, -14.88293170928955, 107.45293426513672, -0.09600000083446503, -0.01600000075995922, 1.040000081062317, 0.0, 0.0, 0.0, 0.0, 0.0, 1.6214302233272355E9, 2021-05-19 15:17:03.327
55.0, -69.64628601074219, -160.38748168945312, -22.860137939453125, 101.03900909423828, -0.09600000083446503, -0.01600000075995922, 1.040000081062317, 0.0, 0.0, 0.0, 0.0, 0.0, 1.6214302233272355E9, 2021-05-19 15:17:03.327
56.0, -141.2915496826172, -173.6080322265625, -37.12037658691406, 92.90846252441406, -0.09600000083446503, -0.01600000075995922, 1.040000081062317, 0.0, 0.0, 0.0, 0.0, 0.0, 1.6214302233280454E9, 2021-05-19 15:17:03.328
56.0, -99.57670593261719, -196.61962890625, -44.60017776489258, 84.30669403076172, -0.09600000083446503, -0.01600000075995922, 1.040000081062317, 0.0, 0.0, 0.0, 0.0, 0.0, 1.6214302233280454E9, 2021-05-19 15:17:03.328
57.0, -106.77227020263672, -181.07286071777344, -29.580738067626953, 58.11243438720703, -0.09600000083446503, -0.01600000075995922, 1.040000081062317, 0.0, 0.0, 0.0, 0.0, 0.0, 1.6214302233381872E9, 2021-05-19 15:17:03.338
57.0, -67.12185668945312, -141.91986083984375, -13.065340042114258, 89.20970153808594, -0.09600000083446503, -0.01600000075995922, 1.040000081062317, 0.0, 0.0, 0.0, 0.0, 0.0, 1.6214302233381872E9, 2021-05-19 15:17:03.338
58.0, -84.43011474609375, -238.7982177734375, -2.9302115440368652, 97.63569641113281, -0.09600000083446503, -0.01600000075995922, 1.040000081062317, 0.0, 0.0, 0.0, 0.0, 0.0, 1.6214302233388648E9, 2021-05-19 15:17:03.338
58.0, -97.47488403320312, -161.0457000732422, -29.932289123535156, 82.073974609375, -0.09600000083446503, -0.01600000075995922, 1.040000081062317, 0.0, 0.0, 0.0, 0.0, 0.0, 1.6214302233388648E9, 2021-05-19 15:17:03.338
59.0, -90.33541107177734, -153.89126586914062, -21.2445011138916, 71.58729553222656, -0.09600000083446503, -0.01600000075995922, 1.040000081062317, 0.0, 0.0, 0.0, 0.0, 0.0, 1.6214302233530643E9, 2021-05-19 15:17:03.353
59.0, -89.48645782470703, -147.81393432617188, -12.313620567321777, 88.36822509765625, -0.09600000083446503, -0.01600000075995922, 1.040000081062317, 0.0, 0.0, 0.0, 0.0, 0.0, 1.6214302233530643E9, 2021-05-19 15:17:03.353
60.0, -74.68392944335938, -152.4027862548828, 1.6549056768417358, 138.74093627929688, -0.09600000083446503, -0.01600000075995922, 1.055999994277954, 0.0, 0.0, 0.0, 0.0, 0.0, 1.6214302233538713E9, 2021-05-19 15:17:03.353
60.0, -115.17208862304688, -183.55990600585938, -36.993221282958984, 49.18155288696289, -0.09600000083446503, -0.01600000075995922, 1.055999994277954, 0.0, 0.0, 0.0, 0.0, 0.0, 1.6214302233538713E9, 2021-05-19 15:17:03.353
61.0, -105.46331024169922, -144.91177368164062, -24.29252052307129, 87.66138458251953, -0.09600000083446503, 0.0, 1.055999994277954, 0.0, 0.0, 0.0, 0.0, 0.0, 1.6214302233836906E9, 2021-05-19 15:17:03.383
61.0, -64.17855072021484, -171.4837646484375, -3.378999710083008, 81.67754364013672, -0.09600000083446503, 0.0, 1.055999994277954, 0.0, 0.0, 0.0, 0.0, 0.0, 1.6214302233836906E9, 2021-05-19 15:17:03.383
62.0, -90.44013214111328, -193.41453552246094, -10.911158561706543, 122.83140563964844, -0.09600000083446503, 0.0, 1.055999994277954, 0.0, 0.0, 0.0, 0.0, 0.0, 1.6214302233845265E9, 2021-05-19 15:17:03.384
62.0, -118.19766998291016, -175.08901977539062, -40.953773498535156, 41.28288650512695, -0.09600000083446503, 0.0, 1.055999994277954, 0.0, 0.0, 0.0, 0.0, 0.0, 1.6214302233845265E9, 2021-05-19 15:17:03.384
63.0, -93.30115509033203, -202.9774627685547, -12.766148567199707, 155.81358337402344, -0.09600000083446503, 0.0, 1.055999994277954, 0.0, 0.0, 0.0, 0.0, 0.0, 1.6214302233852897E9, 2021-05-19 15:17:03.385
63.0, -84.63206481933594, -137.1365203857422, -16.16571807861328, 77.2195816040039, -0.09600000083446503, 0.0, 1.055999994277954, 0.0, 0.0, 0.0, 0.0, 0.0, 1.6214302233852897E9, 2021-05-19 15:17:03.385
64.0, -98.53327178955078, -170.83676147460938, -20.930349349975586, 62.3609619140625, -0.09600000083446503, 0.0, 1.055999994277954, 0.0, 0.0, 0.0, 0.0, 0.0, 1.6214302233973641E9, 2021-05-19 15:17:03.397
64.0, -99.10173797607422, -172.97972106933594, -29.94350814819336, 63.00422286987305, -0.09600000083446503, 0.0, 1.055999994277954, 0.0, 0.0, 0.0, 0.0, 0.0, 1.6214302233973641E9, 2021-05-19 15:17:03.397
65.0, -103.46994018554688, -190.2318878173828, -24.24764060974121, 114.11743927001953, -0.09600000083446503, 0.0, 1.055999994277954, 0.0, 0.0, 0.0, 0.0, 0.0, 1.6214302234436235E9, 2021-05-19 15:17:03.443
65.0, -73.65171813964844, -159.6058349609375, -8.214690208435059, 99.71881866455078, -0.09600000083446503, 0.0, 1.055999994277954, 0.0, 0.0, 0.0, 0.0, 0.0, 1.6214302234436235E9, 2021-05-19 15:17:03.443
66.0, -107.57635498046875, -144.15257263183594, -19.17633628845215, 57.095184326171875, -0.09600000083446503, 0.0, 1.055999994277954, 0.0, 0.0, 0.0, 0.0, 0.0, 1.6214302234443507E9, 2021-05-19 15:17:03.444
66.0, -107.4491958618164, -190.11595153808594, -30.942062377929688, 74.17530822753906, -0.09600000083446503, 0.0, 1.055999994277954, 0.0, 0.0, 0.0, 0.0, 0.0, 1.6214302234443507E9, 2021-05-19 15:17:03.444
67.0, -103.0361099243164, -165.41390991210938, -29.771472930908203, 73.40862274169922, -0.09600000083446503, 0.0, 1.055999994277954, 0.0, 0.0, 0.0, 0.0, 0.0, 1.621430223520147E9, 2021-05-19 15:17:03.520
67.0, -79.17929077148438, -152.4102783203125, 3.1546056270599365, 108.7170181274414, -0.09600000083446503, 0.0, 1.055999994277954, 0.0, 0.0, 0.0, 0.0, 0.0, 1.621430223520147E9, 2021-05-19 15:17:03.520
68.0, -70.32695007324219, -176.58499145507812, -3.4500577449798584, 98.7165298461914, -0.09600000083446503, 0.0, 1.055999994277954, 0.0, 0.0, 0.0, 0.0, 0.0, 1.6214302235208244E9, 2021-05-19 15:17:03.520
68.0, -110.29899597167969, -159.54974365234375, -20.866771697998047, 91.38632202148438, -0.09600000083446503, 0.0, 1.055999994277954, 0.0, 0.0, 0.0, 0.0, 0.0, 1.6214302235208244E9, 2021-05-19 15:17:03.520
69.0, -91.19933319091797, -169.9204864501953, -9.542354583740234, 118.18270874023438, -0.09600000083446503, 0.0, 1.055999994277954, 0.0, 0.0, 0.0, 0.0, 0.0, 1.6214302235216155E9, 2021-05-19 15:17:03.521
69.0, -76.84185791015625, -136.77000427246094, -3.1321661472320557, 68.0194320678711, -0.09600000083446503, 0.0, 1.055999994277954, 0.0, 0.0, 0.0, 0.0, 0.0, 1.6214302235216155E9, 2021-05-19 15:17:03.521
70.0, -99.21393585205078, -192.64785766601562, -14.112512588500977, 89.67345428466797, -0.09600000083446503, 0.0, 1.055999994277954, 0.0, 0.0, 0.0, 0.0, 0.0, 1.6214302235223613E9, 2021-05-19 15:17:03.522
70.0, -110.38501739501953, -195.1386260986328, -29.74529457092285, 89.26580047607422, -0.09600000083446503, 0.0, 1.055999994277954, 0.0, 0.0, 0.0, 0.0, 0.0, 1.6214302235223613E9, 2021-05-19 15:17:03.522
71.0, -77.8965072631836, -182.91664123535156, -17.49338150024414, 83.99254608154297, -0.09600000083446503, -0.01600000075995922, 1.055999994277954, 0.0, 0.0, 0.0, 0.0, 0.0, 1.6214302235345137E9, 2021-05-19 15:17:03.534
71.0, -89.41539764404297, -189.38665771484375, -18.951942443847656, 127.36790466308594, -0.09600000083446503, -0.01600000075995922, 1.055999994277954, 0.0, 0.0, 0.0, 0.0, 0.0, 1.6214302235345137E9, 2021-05-19 15:17:03.534
72.0, -81.87950134277344, -149.19021606445312, -12.941924095153809, 55.67401885986328, -0.09600000083446503, -0.01600000075995922, 1.055999994277954, 0.0, 0.0, 0.0, 0.0, 0.0, 1.621430223535252E9, 2021-05-19 15:17:03.535
72.0, -83.54749298095703, -223.18788146972656, -16.96979522705078, 80.83232879638672, -0.09600000083446503, -0.01600000075995922, 1.055999994277954, 0.0, 0.0, 0.0, 0.0, 0.0, 1.621430223535252E9, 2021-05-19 15:17:03.535
73.0, -99.96939849853516, -140.9100799560547, -24.65903091430664, 111.57056427001953, -0.09600000083446503, -0.01600000075995922, 1.055999994277954, 0.0, 0.0, 0.0, 0.0, 0.0, 1.6214302235360186E9, 2021-05-19 15:17:03.536
73.0, -77.65341186523438, -162.6688232421875, -10.316514015197754, 98.00968933105469, -0.09600000083446503, -0.01600000075995922, 1.055999994277954, 0.0, 0.0, 0.0, 0.0, 0.0, 1.6214302235360186E9, 2021-05-19 15:17:03.536
78.0, -85.05093383789062, -175.82579040527344, -28.443809509277344, 37.049320220947266, -0.09600000083446503, -0.01600000075995922, 1.055999994277954, 0.0, 0.0, 0.0, 0.0, 0.0, 1.621430223536737E9, 2021-05-19 15:17:03.536
78.0, -79.35881042480469, -168.6339569091797, -26.1923885345459, 53.40016174316406, -0.09600000083446503, -0.01600000075995922, 1.055999994277954, 0.0, 0.0, 0.0, 0.0, 0.0, 1.621430223536737E9, 2021-05-19 15:17:03.536
79.0, -63.20991897583008, -182.59500122070312, -19.62138557434082, 85.1032943725586, -0.09600000083446503, -0.01600000075995922, 1.055999994277954, 0.0, 0.0, 0.0, 0.0, 0.0, 1.6214302235641541E9, 2021-05-19 15:17:03.564
79.0, -73.09073638916016, -161.75628662109375, -10.55960750579834, 66.1120834350586, -0.09600000083446503, -0.01600000075995922, 1.055999994277954, 0.0, 0.0, 0.0, 0.0, 0.0, 1.6214302235641541E9, 2021-05-19 15:17:03.564
80.0, -66.74038696289062, -117.9657974243164, -8.308187484741211, 69.4256362915039, -0.09600000083446503, -0.01600000075995922, 1.040000081062317, 0.0, 0.0, 0.0, 0.0, 0.0, 1.6214302235648592E9, 2021-05-19 15:17:03.564
80.0, -69.89685821533203, -149.7848663330078, -2.0064563751220703, 81.59526824951172, -0.09600000083446503, -0.01600000075995922, 1.040000081062317, 0.0, 0.0, 0.0, 0.0, 0.0, 1.6214302235648592E9, 2021-05-19 15:17:03.564
81.0, -77.4552001953125, -143.55418395996094, -9.748048782348633, 72.38389587402344, -0.09600000083446503, -0.01600000075995922, 1.040000081062317, 0.0, 0.0, 0.0, 0.0, 0.0, 1.621430223577968E9, 2021-05-19 15:17:03.577
81.0, -71.5760726928711, -134.4737091064453, -7.53402853012085, 84.04864501953125, -0.09600000083446503, -0.01600000075995922, 1.040000081062317, 0.0, 0.0, 0.0, 0.0, 0.0, 1.621430223577968E9, 2021-05-19 15:17:03.577
82.0, -77.14852905273438, -141.14942932128906, -9.553574562072754, 71.96502685546875, -0.09600000083446503, -0.01600000075995922, 1.040000081062317, 0.0, 0.0, 0.0, 0.0, 0.0, 1.621430223609141E9, 2021-05-19 15:17:03.609
82.0, -81.08663940429688, -149.96063232421875, -22.112157821655273, 68.165283203125, -0.09600000083446503, -0.01600000075995922, 1.040000081062317, 0.0, 0.0, 0.0, 0.0, 0.0, 1.621430223609141E9, 2021-05-19 15:17:03.609
83.0, -77.04006958007812, -154.70657348632812, -24.187803268432617, 56.134029388427734, -0.09600000083446503, -0.01600000075995922, 1.040000081062317, 0.0, 0.0, 0.0, 0.0, 0.0, 1.621430223609926E9, 2021-05-19 15:17:03.609
83.0, -76.17240905761719, -137.03553771972656, -11.741415977478027, 69.60140991210938, -0.09600000083446503, -0.01600000075995922, 1.040000081062317, 0.0, 0.0, 0.0, 0.0, 0.0, 1.621430223609926E9, 2021-05-19 15:17:03.609
84.0, -75.43191528320312, -137.6601104736328, -7.706063747406006, 74.73255157470703, -0.09600000083446503, -0.01600000075995922, 1.040000081062317, 0.0, 0.0, 0.0, 0.0, 0.0, 1.6214302236251066E9, 2021-05-19 15:17:03.625
84.0, -88.2784652709961, -163.8169708251953, -30.280099868774414, 41.903709411621094, -0.09600000083446503, -0.01600000075995922, 1.040000081062317, 0.0, 0.0, 0.0, 0.0, 0.0, 1.6214302236251066E9, 2021-05-19 15:17:03.625
85.0, -89.44532012939453, -151.57627868652344, -24.789926528930664, 68.55423736572266, -0.09600000083446503, -0.01600000075995922, 1.040000081062317, 0.0, 0.0, 0.0, 0.0, 0.0, 1.62143022362584E9, 2021-05-19 15:17:03.625
85.0, -74.1229476928711, -116.38755798339844, -4.860000133514404, 88.03163146972656, -0.09600000083446503, -0.01600000075995922, 1.040000081062317, 0.0, 0.0, 0.0, 0.0, 0.0, 1.62143022362584E9, 2021-05-19 15:17:03.625
86.0, -68.71878814697266, -187.9318389892578, -2.761916160583496, 94.76719665527344, -0.09600000083446503, -0.01600000075995922, 1.040000081062317, 0.0, 0.0, 0.0, 0.0, 0.0, 1.6214302236266873E9, 2021-05-19 15:17:03.626
86.0, -103.49237823486328, -137.7349090576172, -32.48290252685547, 33.04762649536133, -0.09600000083446503, -0.01600000075995922, 1.040000081062317, 0.0, 0.0, 0.0, 0.0, 0.0, 1.6214302236266873E9, 2021-05-19 15:17:03.626
87.0, -91.42372131347656, -138.85687255859375, -22.553466796875, 65.38279724121094, -0.09600000083446503, -0.01600000075995922, 1.040000081062317, 0.0, 0.0, 0.0, 0.0, 0.0, 1.6214302236273623E9, 2021-05-19 15:17:03.627
87.0, -71.97624206542969, -119.00174713134766, -7.717283725738525, 83.66717529296875, -0.09600000083446503, -0.01600000075995922, 1.040000081062317, 0.0, 0.0, 0.0, 0.0, 0.0, 1.6214302236273623E9, 2021-05-19 15:17:03.627
88.0, -79.83003234863281, -147.40628051757812, -14.535120964050293, 73.763916015625, -0.09600000083446503, -0.01600000075995922, 1.040000081062317, 0.0, 0.0, 0.0, 0.0, 0.0, 1.621430223653766E9, 2021-05-19 15:17:03.653
88.0, -79.8449935913086, -150.98536682128906, -21.293121337890625, 59.08106994628906, -0.09600000083446503, -0.01600000075995922, 1.040000081062317, 0.0, 0.0, 0.0, 0.0, 0.0, 1.621430223653766E9, 2021-05-19 15:17:03.653
89.0, -82.62747955322266, -140.56227111816406, -22.018661499023438, 65.23694610595703, -0.09600000083446503, -0.01600000075995922, 1.040000081062317, 0.0, 0.0, 0.0, 0.0, 0.0, 1.62143022365448E9, 2021-05-19 15:17:03.654
89.0, -57.233558654785156, -129.39492797851562, -3.378999710083008, 80.49947357177734, -0.09600000083446503, -0.01600000075995922, 1.040000081062317, 0.0, 0.0, 0.0, 0.0, 0.0, 1.62143022365448E9, 2021-05-19 15:17:03.654
90.0, -80.04695129394531, -150.97415161132812, -10.656845092773438, 60.97719955444336, -0.09600000083446503, -0.01600000075995922, 1.040000081062317, 0.0, 0.0, 0.0, 0.0, 0.0, 1.6214302236552787E9, 2021-05-19 15:17:03.655
90.0, -86.83113098144531, -147.451171875, -20.00285530090332, 65.0499496459961, -0.09600000083446503, -0.01600000075995922, 1.040000081062317, 0.0, 0.0, 0.0, 0.0, 0.0, 1.6214302236552787E9, 2021-05-19 15:17:03.655
91.0, -95.07012939453125, -153.5471954345703, -24.943262100219727, 64.21968841552734, -0.09600000083446503, 0.0, 1.040000081062317, 0.0, 0.0, 0.0, 0.0, 0.0, 1.621430223667346E9, 2021-05-19 15:17:03.667
91.0, -75.2299575805664, -132.88426208496094, -18.746248245239258, 63.90180206298828, -0.09600000083446503, 0.0, 1.040000081062317, 0.0, 0.0, 0.0, 0.0, 0.0, 1.621430223667346E9, 2021-05-19 15:17:03.667
92.0, -63.35203552246094, -143.26248168945312, -17.07077407836914, 49.46952819824219, -0.09600000083446503, 0.0, 1.040000081062317, 0.0, 0.0, 0.0, 0.0, 0.0, 1.6214302236987991E9, 2021-05-19 15:17:03.698
92.0, -102.32926940917969, -154.65420532226562, -24.647809982299805, 56.01809310913086, -0.09600000083446503, 0.0, 1.040000081062317, 0.0, 0.0, 0.0, 0.0, 0.0, 1.6214302236987991E9, 2021-05-19 15:17:03.698
93.0, -94.54280090332031, -138.47166442871094, -25.100337982177734, 66.16069793701172, -0.09600000083446503, 0.0, 1.040000081062317, 0.0, 0.0, 0.0, 0.0, 0.0, 1.6214302236994905E9, 2021-05-19 15:17:03.699
93.0, -80.2264633178711, -135.93975830078125, -9.815367698669434, 76.61746215820312, -0.09600000083446503, 0.0, 1.040000081062317, 0.0, 0.0, 0.0, 0.0, 0.0, 1.6214302236994905E9, 2021-05-19 15:17:03.699
94.0, -75.0093002319336, -130.29624938964844, -12.571673393249512, 64.83303833007812, -0.09600000083446503, 0.0, 1.040000081062317, 0.0, 0.0, 0.0, 0.0, 0.0, 1.6214302237002373E9, 2021-05-19 15:17:03.700
94.0, -83.51009368896484, -141.96099853515625, -23.810073852539062, 74.609130859375, -0.09600000083446503, 0.0, 1.040000081062317, 0.0, 0.0, 0.0, 0.0, 0.0, 1.6214302237002373E9, 2021-05-19 15:17:03.700
95.0, -80.61540985107422, -145.73455810546875, -23.86617088317871, 109.56224060058594, -0.09600000083446503, 0.0, 1.040000081062317, 0.0, 0.0, 0.0, 0.0, 0.0, 1.6214302237131686E9, 2021-05-19 15:17:03.713
95.0, -75.95549774169922, -151.12001037597656, -18.761207580566406, 52.24827194213867, -0.09600000083446503, 0.0, 1.040000081062317, 0.0, 0.0, 0.0, 0.0, 0.0, 1.6214302237131686E9, 2021-05-19 15:17:03.713
96.0, -69.8856430053711, -137.6825408935547, -11.883532524108887, 84.48246765136719, -0.09600000083446503, 0.0, 1.040000081062317, 0.0, 0.0, 0.0, 0.0, 0.0, 1.6214302237138782E9, 2021-05-19 15:17:03.713
96.0, -89.56499481201172, -153.8800506591797, -25.377090454101562, 51.65736770629883, -0.09600000083446503, 0.0, 1.040000081062317, 0.0, 0.0, 0.0, 0.0, 0.0, 1.6214302237138782E9, 2021-05-19 15:17:03.713
97.0, -84.54230499267578, -145.42413330078125, -30.42595672607422, 64.07009887695312, -0.09600000083446503, 0.0, 1.040000081062317, 0.0, 0.0, 0.0, 0.0, 0.0, 1.6214302237442396E9, 2021-05-19 15:17:03.744
97.0, -75.10279846191406, -136.4708251953125, -14.3107271194458, 81.60274505615234, -0.09600000083446503, 0.0, 1.040000081062317, 0.0, 0.0, 0.0, 0.0, 0.0, 1.6214302237442396E9, 2021-05-19 15:17:03.744
98.0, -77.22706604003906, -140.71934509277344, -15.840346336364746, 73.22911071777344, -0.09600000083446503, 0.0, 1.040000081062317, 0.0, 0.0, 0.0, 0.0, 0.0, 1.6214302237449453E9, 2021-05-19 15:17:03.744
98.0, -82.32454681396484, -163.3008575439453, -28.78413963317871, 58.561222076416016, -0.09600000083446503, 0.0, 1.040000081062317, 0.0, 0.0, 0.0, 0.0, 0.0, 1.6214302237449453E9, 2021-05-19 15:17:03.744
99.0, -80.95574188232422, -148.543212890625, -16.85759925842285, 78.88384246826172, -0.09600000083446503, 0.0, 1.040000081062317, 0.0, 0.0, 0.0, 0.0, 0.0, 1.6214302237587717E9, 2021-05-19 15:17:03.758
99.0, -76.57257843017578, -133.17222595214844, -16.195636749267578, 61.755096435546875, -0.09600000083446503, 0.0, 1.040000081062317, 0.0, 0.0, 0.0, 0.0, 0.0, 1.6214302237587717E9, 2021-05-19 15:17:03.758
100.0, -75.15142059326172, -152.00262451171875, -12.631511688232422, 76.69973754882812, -0.09600000083446503, 0.0, 1.055999994277954, 0.0, 0.0, 0.0, 0.0, 0.0, 1.6214302237594976E9, 2021-05-19 15:17:03.759
100.0, -84.23189544677734, -163.65240478515625, -27.168502807617188, 56.47435760498047, -0.09600000083446503, 0.0, 1.055999994277954, 0.0, 0.0, 0.0, 0.0, 0.0, 1.6214302237594976E9, 2021-05-19 15:17:03.759
0.0, -62.86958694458008, -117.22903442382812, 1.4641708135604858, 106.2542953491211, -0.09600000083446503, 0.0, 1.055999994277954, 0.0, 0.0, 0.0, 0.0, 0.0, 1.6214302237602656E9, 2021-05-19 15:17:03.760
1.0, -62.88828659057617, -123.7663803100586, 16.20685577392578, 130.6982879638672, -0.09600000083446503, 0.0, 1.055999994277954, 0.0, 0.0, 0.0, 0.0, 0.0, 1.6214302237894385E9, 2021-05-19 15:17:03.789
1.0, -62.46567916870117, -132.77206420898438, 18.46949577331543, 132.3101806640625, -0.09600000083446503, 0.0, 1.055999994277954, 0.0, 0.0, 0.0, 0.0, 0.0, 1.6214302237894385E9, 2021-05-19 15:17:03.789
2.0, -75.20751953125, -117.12805938720703, 10.537168502807617, 128.98541259765625, -0.09600000083446503, 0.0, 1.055999994277954, 0.0, 0.0, 0.0, 0.0, 0.0, 1.621430223790126E9, 2021-05-19 15:17:03.790
2.0, -62.74991226196289, -130.96942138671875, 6.468156814575195, 98.33692932128906, -0.09600000083446503, 0.0, 1.055999994277954, 0.0, 0.0, 0.0, 0.0, 0.0, 1.621430223790126E9, 2021-05-19 15:17:03.790
3.0, -64.49644470214844, -104.8611831665039, 18.83600616455078, 132.8636932373047, -0.09600000083446503, 0.0, 1.055999994277954, 0.0, 0.0, 0.0, 0.0, 0.0, 1.6214302237908714E9, 2021-05-19 15:17:03.790
3.0, -48.76642608642578, -127.23700714111328, 14.033974647521973, 136.32308959960938, -0.09600000083446503, 0.0, 1.055999994277954, 0.0, 0.0, 0.0, 0.0, 0.0, 1.6214302237908714E9, 2021-05-19 15:17:03.790
4.0, -84.95369720458984, -145.03892517089844, 0.12528665363788605, 117.16732788085938, -0.09600000083446503, 0.0, 1.055999994277954, 0.0, 0.0, 0.0, 0.0, 0.0, 1.6214302238023748E9, 2021-05-19 15:17:03.802
4.0, -76.8343734741211, -130.2364044189453, -3.278022289276123, 124.2806167602539, -0.09600000083446503, 0.0, 1.055999994277954, 0.0, 0.0, 0.0, 0.0, 0.0, 1.6214302238023748E9, 2021-05-19 15:17:03.802
5.0, -60.94728088378906, -117.19163513183594, 10.47732925415039, 138.2940216064453, -0.09600000083446503, 0.0, 1.055999994277954, 0.0, 0.0, 0.0, 0.0, 0.0, 1.6214302238180945E9, 2021-05-19 15:17:03.818
5.0, -59.27180480957031, -128.86386108398438, 15.320500373840332, 137.41140747070312, -0.09600000083446503, 0.0, 1.055999994277954, 0.0, 0.0, 0.0, 0.0, 0.0, 1.6214302238180945E9, 2021-05-19 15:17:03.818
6.0, -65.26312255859375, -139.03639221191406, 6.610273361206055, 149.9363250732422, -0.09600000083446503, 0.0, 1.055999994277954, 0.0, 0.0, 0.0, 0.0, 0.0, 1.6214302238187845E9, 2021-05-19 15:17:03.818
6.0, -71.96128845214844, -135.50965881347656, 1.0976606607437134, 114.73265075683594, -0.09600000083446503, 0.0, 1.055999994277954, 0.0, 0.0, 0.0, 0.0, 0.0, 1.6214302238187845E9, 2021-05-19 15:17:03.818
7.0, -53.57593536376953, -107.004150390625, 18.387218475341797, 133.05816650390625, -0.09600000083446503, 0.0, 1.055999994277954, 0.0, 0.0, 0.0, 0.0, 0.0, 1.6214302238323581E9, 2021-05-19 15:17:03.832
7.0, -51.05524444580078, -111.24519348144531, 27.198421478271484, 126.2889404296875, -0.09600000083446503, 0.0, 1.055999994277954, 0.0, 0.0, 0.0, 0.0, 0.0, 1.6214302238323581E9, 2021-05-19 15:17:03.832
8.0, -67.82869720458984, -136.36984252929688, 6.969303607940674, 115.85836029052734, -0.09600000083446503, 0.0, 1.055999994277954, 0.0, 0.0, 0.0, 0.0, 0.0, 1.6214302238485742E9, 2021-05-19 15:17:03.848
8.0, -74.8073501586914, -135.2366485595703, 5.151712417602539, 118.3603515625, -0.09600000083446503, 0.0, 1.055999994277954, 0.0, 0.0, 0.0, 0.0, 0.0, 1.6214302238485742E9, 2021-05-19 15:17:03.848
9.0, -56.90818786621094, -107.77456665039062, 23.402423858642578, 129.04150390625, -0.09600000083446503, 0.0, 1.055999994277954, 0.0, 0.0, 0.0, 0.0, 0.0, 1.6214302238635495E9, 2021-05-19 15:17:03.863
9.0, -62.01689147949219, -101.3643798828125, 14.538861274719238, 126.67041015625, -0.09600000083446503, 0.0, 1.055999994277954, 0.0, 0.0, 0.0, 0.0, 0.0, 1.6214302238635495E9, 2021-05-19 15:17:03.863
10.0, -76.27713012695312, -144.80331420898438, -0.6675721406936646, 97.32715606689453, -0.09600000083446503, 0.0, 1.055999994277954, 0.0, 0.0, 0.0, 0.0, 0.0, 1.6214302238788793E9, 2021-05-19 15:17:03.878
10.0, -75.2262191772461, -126.29829406738281, 5.843593597412109, 120.64543151855469, -0.09600000083446503, 0.0, 1.055999994277954, 0.0, 0.0, 0.0, 0.0, 0.0, 1.6214302238788793E9, 2021-05-19 15:17:03.878
11.0, -50.79344940185547, -111.87723541259766, 22.201915740966797, 127.82978057861328, -0.09600000083446503, 0.0, 1.055999994277954, 0.0, 0.0, 0.0, 0.0, 0.0, 1.6214302238795788E9, 2021-05-19 15:17:03.879
11.0, -64.9078369140625, -126.63488006591797, 16.648164749145508, 122.39944458007812, -0.09600000083446503, 0.0, 1.055999994277954, 0.0, 0.0, 0.0, 0.0, 0.0, 1.6214302238795788E9, 2021-05-19 15:17:03.879
12.0, -69.4443359375, -133.86036682128906, 15.197083473205566, 136.0874786376953, -0.09600000083446503, 0.0, 1.055999994277954, 0.0, 0.0, 0.0, 0.0, 0.0, 1.62143022388035E9, 2021-05-19 15:17:03.880
12.0, -69.1451416015625, -138.0228729248047, 6.958083629608154, 143.81785583496094, -0.09600000083446503, 0.0, 1.055999994277954, 0.0, 0.0, 0.0, 0.0, 0.0, 1.62143022388035E9, 2021-05-19 15:17:03.880
13.0, -65.95500946044922, -101.6860122680664, 10.567087173461914, 119.8637924194336, -0.09600000083446503, 0.0, 1.055999994277954, 0.0, 0.0, 0.0, 0.0, 0.0, 1.6214302239409091E9, 2021-05-19 15:17:03.940
13.0, -62.7312126159668, -106.50674438476562, 17.852413177490234, 137.5236053466797, -0.09600000083446503, 0.0, 1.055999994277954, 0.0, 0.0, 0.0, 0.0, 0.0, 1.6214302239409091E9, 2021-05-19 15:17:03.940
14.0, -69.03294372558594, -134.83648681640625, 11.404825210571289, 124.71818542480469, -0.09600000083446503, 0.0, 1.055999994277954, 0.0, 0.0, 0.0, 0.0, 0.0, 1.6214302239418347E9, 2021-05-19 15:17:03.941
14.0, -78.98481750488281, -115.78916931152344, 10.787741661071777, 140.35470581054688, -0.09600000083446503, 0.0, 1.055999994277954, 0.0, 0.0, 0.0, 0.0, 0.0, 1.6214302239418347E9, 2021-05-19 15:17:03.941
15.0, -55.72264099121094, -106.0841293334961, 22.190696716308594, 152.3223876953125, -0.09600000083446503, 0.0, 1.055999994277954, 0.0, 0.0, 0.0, 0.0, 0.0, 1.621430223942377E9, 2021-05-19 15:17:03.942
15.0, -54.7315673828125, -119.98908233642578, 24.03072738647461, 153.05166625976562, -0.09600000083446503, 0.0, 1.055999994277954, 0.0, 0.0, 0.0, 0.0, 0.0, 1.621430223942377E9, 2021-05-19 15:17:03.942
16.0, -77.8965072631836, -141.3326873779297, 1.6324663162231445, 98.34440612792969, -0.09600000083446503, 0.0, 1.055999994277954, 0.0, 0.0, 0.0, 0.0, 0.0, 1.6214302239430761E9, 2021-05-19 15:17:03.943
16.0, -66.05972290039062, -126.75456237792969, 16.842639923095703, 126.28520202636719, -0.09600000083446503, 0.0, 1.055999994277954, 0.0, 0.0, 0.0, 0.0, 0.0, 1.6214302239430761E9, 2021-05-19 15:17:03.943
17.0, -72.38389587402344, -113.57514953613281, 14.00405502319336, 125.6082763671875, -0.09600000083446503, 0.0, 1.055999994277954, 0.0, 0.0, 0.0, 0.0, 0.0, 1.6214302239703307E9, 2021-05-19 15:17:03.970
17.0, -52.58112335205078, -120.31071472167969, 17.201669692993164, 121.92073822021484, -0.09600000083446503, 0.0, 1.055999994277954, 0.0, 0.0, 0.0, 0.0, 0.0, 1.6214302239703307E9, 2021-05-19 15:17:03.970
18.0, -76.14997100830078, -136.78871154785156, 8.356806755065918, 121.37471008300781, -0.09600000083446503, 0.0, 1.055999994277954, 0.0, 0.0, 0.0, 0.0, 0.0, 1.6214302239710033E9, 2021-05-19 15:17:03.971
18.0, -72.84016418457031, -122.65563201904297, 6.067987442016602, 119.0185775756836, -0.09600000083446503, 0.0, 1.055999994277954, 0.0, 0.0, 0.0, 0.0, 0.0, 1.6214302239710033E9, 2021-05-19 15:17:03.971
19.0, -46.7917594909668, -98.83246612548828, 22.344032287597656, 149.1808624267578, -0.09600000083446503, 0.0, 1.055999994277954, 0.0, 0.0, 0.0, 0.0, 0.0, 1.6214302239716947E9, 2021-05-19 15:17:03.971
19.0, -81.18761444091797, -138.4454803466797, 13.671204566955566, 117.06260681152344, -0.09600000083446503, 0.0, 1.055999994277954, 0.0, 0.0, 0.0, 0.0, 0.0, 1.6214302239716947E9, 2021-05-19 15:17:03.971
20.0, -78.49862670898438, -136.4745635986328, 13.11021900177002, 110.8319320678711, -0.09600000083446503, 0.0, 1.055999994277954, 0.0, 0.0, 0.0, 0.0, 0.0, 1.6214302239724383E9, 2021-05-19 15:17:03.972
20.0, -72.95236206054688, -122.47985076904297, 14.217229843139648, 124.41151428222656, -0.09600000083446503, 0.0, 1.055999994277954, 0.0, 0.0, 0.0, 0.0, 0.0, 1.6214302239724383E9, 2021-05-19 15:17:03.972
21.0, -56.53793716430664, -123.01091766357422, 22.059799194335938, 128.1102752685547, -0.09600000083446503, 0.0, 1.055999994277954, 0.0, 0.0, 0.0, 0.0, 0.0, 1.6214302239831889E9, 2021-05-19 15:17:03.983
21.0, -62.92568588256836, -125.22493743896484, 14.725855827331543, 128.5777587890625, -0.09600000083446503, 0.0, 1.055999994277954, 0.0, 0.0, 0.0, 0.0, 0.0, 1.6214302239831889E9, 2021-05-19 15:17:03.983
22.0, -72.1370620727539, -145.22592163085938, 1.0677413940429688, 127.7923812866211, -0.08000000566244125, 0.0, 1.055999994277954, 0.0, 0.0, 0.0, 0.0, 0.0, 1.6214302239839132E9, 2021-05-19 15:17:03.983
22.0, -69.79588317871094, -128.84890747070312, -0.4319584369659424, 121.60284423828125, -0.08000000566244125, 0.0, 1.055999994277954, 0.0, 0.0, 0.0, 0.0, 0.0, 1.6214302239839132E9, 2021-05-19 15:17:03.983
23.0, -56.68379211425781, -121.3765869140625, 13.151358604431152, 138.44735717773438, -0.08000000566244125, 0.0, 1.055999994277954, 0.0, 0.0, 0.0, 0.0, 0.0, 1.621430223998062E9, 2021-05-19 15:17:03.998
23.0, -62.476898193359375, -135.23291015625, 3.711850643157959, 118.84280395507812, -0.08000000566244125, 0.0, 1.055999994277954, 0.0, 0.0, 0.0, 0.0, 0.0, 1.621430223998062E9, 2021-05-19 15:17:03.998
24.0, -68.1241455078125, -147.1033477783203, -6.441977500915527, 114.9458236694336, -0.08000000566244125, 0.0, 1.055999994277954, 0.0, 0.0, 0.0, 0.0, 0.0, 1.6214302239987683E9, 2021-05-19 15:17:03.998
24.0, -58.24333190917969, -126.57130432128906, 5.42472505569458, 132.8262939453125, -0.08000000566244125, 0.0, 1.055999994277954, 0.0, 0.0, 0.0, 0.0, 0.0, 1.6214302239987683E9, 2021-05-19 15:17:03.998
25.0, -63.206180572509766, -119.6973648071289, 10.967256546020508, 140.0667266845703, -0.08000000566244125, 0.0, 1.055999994277954, 0.0, 0.0, 0.0, 0.0, 0.0, 1.6214302240757816E9, 2021-05-19 15:17:04.075
25.0, -63.61008834838867, -118.63897705078125, 11.913451194763184, 123.5999526977539, -0.08000000566244125, 0.0, 1.055999994277954, 0.0, 0.0, 0.0, 0.0, 0.0, 1.6214302240757816E9, 2021-05-19 15:17:04.075
26.0, -72.238037109375, -149.98681640625, -2.866633415222168, 117.99384307861328, -0.08000000566244125, 0.0, 1.055999994277954, 0.0, 0.0, 0.0, 0.0, 0.0, 1.6214302240764947E9, 2021-05-19 15:17:04.076
26.0, -68.95814514160156, -131.94180297851562, -0.6413928270339966, 115.55916595458984, -0.08000000566244125, 0.0, 1.055999994277954, 0.0, 0.0, 0.0, 0.0, 0.0, 1.6214302240764947E9, 2021-05-19 15:17:04.076
27.0, -57.53274917602539, -113.40685272216797, 13.517868041992188, 134.93185424804688, -0.08000000566244125, 0.0, 1.055999994277954, 0.0, 0.0, 0.0, 0.0, 0.0, 1.6214302240773475E9, 2021-05-19 15:17:04.077
27.0, -65.82411193847656, -133.1460418701172, 6.939384460449219, 127.18651580810547, -0.08000000566244125, 0.0, 1.055999994277954, 0.0, 0.0, 0.0, 0.0, 0.0, 1.6214302240773475E9, 2021-05-19 15:17:04.077
28.0, -76.91291046142578, -137.11782836914062, -1.0453020334243774, 115.63770294189453, -0.08000000566244125, 0.0, 1.055999994277954, 0.0, 0.0, 0.0, 0.0, 0.0, 1.6214302240781872E9, 2021-05-19 15:17:04.078
28.0, -66.9610366821289, -126.60122680664062, 3.6669719219207764, 131.57716369628906, -0.08000000566244125, 0.0, 1.055999994277954, 0.0, 0.0, 0.0, 0.0, 0.0, 1.6214302240781872E9, 2021-05-19 15:17:04.078
29.0, -57.98527908325195, -116.00234985351562, 14.161130905151367, 145.7476348876953, -0.08000000566244125, 0.0, 1.055999994277954, 0.0, 0.0, 0.0, 0.0, 0.0, 1.621430224088523E9, 2021-05-19 15:17:04.088
29.0, -62.88454818725586, -141.3887939453125, 10.683024406433105, 135.46292114257812, -0.08000000566244125, 0.0, 1.055999994277954, 0.0, 0.0, 0.0, 0.0, 0.0, 1.621430224088523E9, 2021-05-19 15:17:04.088
30.0, -67.81747436523438, -136.02577209472656, -0.45439785718917847, 137.16456604003906, -0.08000000566244125, 0.0, 1.040000081062317, 0.0, 0.0, 0.0, 0.0, 0.0, 1.6214302240892737E9, 2021-05-19 15:17:04.089
30.0, -62.379661560058594, -135.50218200683594, 5.278868675231934, 114.97574615478516, -0.08000000566244125, 0.0, 1.040000081062317, 0.0, 0.0, 0.0, 0.0, 0.0, 1.6214302240892737E9, 2021-05-19 15:17:04.089
31.0, -53.744232177734375, -107.97652435302734, 19.901878356933594, 154.02403259277344, -0.08000000566244125, -0.01600000075995922, 1.040000081062317, 0.0, 0.0, 0.0, 0.0, 0.0, 1.621430224120173E9, 2021-05-19 15:17:04.120
31.0, -60.618167877197266, -135.8686981201172, 15.021307945251465, 150.10462951660156, -0.08000000566244125, -0.01600000075995922, 1.040000081062317, 0.0, 0.0, 0.0, 0.0, 0.0, 1.621430224120173E9, 2021-05-19 15:17:04.120
33.0, -69.4854736328125, -124.34232330322266, 18.821046829223633, 158.2501220703125, -0.08000000566244125, -0.01600000075995922, 1.040000081062317, 0.0, 0.0, 0.0, 0.0, 0.0, 1.6214302241209104E9, 2021-05-19 15:17:04.120
33.0, -67.89227294921875, -127.82042694091797, 19.961715698242188, 152.16531372070312, -0.08000000566244125, -0.01600000075995922, 1.040000081062317, 0.0, 0.0, 0.0, 0.0, 0.0, 1.6214302241209104E9, 2021-05-19 15:17:04.120
34.0, -67.61177825927734, -137.862060546875, 22.938676834106445, 153.69493103027344, -0.08000000566244125, -0.01600000075995922, 1.040000081062317, 0.0, 0.0, 0.0, 0.0, 0.0, 1.6214302241216583E9, 2021-05-19 15:17:04.121
34.0, -76.29582977294922, -123.11937713623047, 20.077651977539062, 137.79287719726562, -0.08000000566244125, -0.01600000075995922, 1.040000081062317, 0.0, 0.0, 0.0, 0.0, 0.0, 1.6214302241216583E9, 2021-05-19 15:17:04.121
35.0, -70.6710205078125, -116.499755859375, 24.307479858398438, 150.7927703857422, -0.08000000566244125, -0.01600000075995922, 1.040000081062317, 0.0, 0.0, 0.0, 0.0, 0.0, 1.621430224122409E9, 2021-05-19 15:17:04.122
35.0, -58.17227554321289, -130.33738708496094, 22.05232048034668, 147.0266876220703, -0.08000000566244125, -0.01600000075995922, 1.040000081062317, 0.0, 0.0, 0.0, 0.0, 0.0, 1.621430224122409E9, 2021-05-19 15:17:04.122
36.0, -79.71035766601562, -161.7675018310547, 10.316514015197754, 141.29342651367188, -0.08000000566244125, -0.01600000075995922, 1.040000081062317, 0.0, 0.0, 0.0, 0.0, 0.0, 1.6214302241486363E9, 2021-05-19 15:17:04.148
36.0, -78.40513610839844, -121.21576690673828, 1.5838476419448853, 139.05322265625, -0.08000000566244125, -0.01600000075995922, 1.040000081062317, 0.0, 0.0, 0.0, 0.0, 0.0, 1.6214302241486363E9, 2021-05-19 15:17:04.148
37.0, -76.8381118774414, -116.35763549804688, 13.884378433227539, 151.95587158203125, -0.08000000566244125, -0.01600000075995922, 1.040000081062317, 0.0, 0.0, 0.0, 0.0, 0.0, 1.6214302241492567E9, 2021-05-19 15:17:04.149
37.0, -65.62963104248047, -132.41302490234375, 21.151004791259766, 158.18655395507812, -0.08000000566244125, -0.01600000075995922, 1.040000081062317, 0.0, 0.0, 0.0, 0.0, 0.0, 1.6214302241492567E9, 2021-05-19 15:17:04.149
38.0, -71.24322509765625, -147.72044372558594, 9.886425971984863, 138.67922973632812, -0.08000000566244125, -0.01600000075995922, 1.040000081062317, 0.0, 0.0, 0.0, 0.0, 0.0, 1.62143022418019E9, 2021-05-19 15:17:04.180
38.0, -80.23394012451172, -132.38685607910156, 5.136752605438232, 141.87684631347656, -0.08000000566244125, -0.01600000075995922, 1.040000081062317, 0.0, 0.0, 0.0, 0.0, 0.0, 1.62143022418019E9, 2021-05-19 15:17:04.180
39.0, -65.10978698730469, -132.08392333984375, 9.067387580871582, 151.94091796875, -0.08000000566244125, -0.01600000075995922, 1.040000081062317, 0.0, 0.0, 0.0, 0.0, 0.0, 1.6214302241809793E9, 2021-05-19 15:17:04.180
39.0, -60.35263442993164, -137.70498657226562, 6.352220058441162, 148.53761291503906, -0.08000000566244125, -0.01600000075995922, 1.040000081062317, 0.0, 0.0, 0.0, 0.0, 0.0, 1.6214302241809793E9, 2021-05-19 15:17:04.180
40.0, -60.98093795776367, -151.8118896484375, 0.08414775133132935, 140.63519287109375, -0.08000000566244125, -0.01600000075995922, 1.040000081062317, 0.0, 0.0, 0.0, 0.0, 0.0, 1.6214302241815865E9, 2021-05-19 15:17:04.181
40.0, -72.9411392211914, -140.60714721679688, -7.7247633934021, 138.3314208984375, -0.08000000566244125, -0.01600000075995922, 1.040000081062317, 0.0, 0.0, 0.0, 0.0, 0.0, 1.6214302241815865E9, 2021-05-19 15:17:04.181
41.0, -63.41187286376953, -140.5697479248047, 2.6908581256866455, 150.3626708984375, -0.08000000566244125, -0.01600000075995922, 1.040000081062317, 0.0, 0.0, 0.0, 0.0, 0.0, 1.6214302241824512E9, 2021-05-19 15:17:04.182
41.0, -57.25599670410156, -134.4288330078125, 13.005501747131348, 150.1943817138672, -0.08000000566244125, -0.01600000075995922, 1.040000081062317, 0.0, 0.0, 0.0, 0.0, 0.0, 1.6214302241824512E9, 2021-05-19 15:17:04.182
42.0, -56.44818115234375, -151.45286560058594, 2.410365581512451, 133.88467407226562, -0.08000000566244125, -0.01600000075995922, 1.040000081062317, 0.0, 0.0, 0.0, 0.0, 0.0, 1.6214302241938484E9, 2021-05-19 15:17:04.193
42.0, -82.54146575927734, -137.78726196289062, 1.9653173685073853, 141.29342651367188, -0.08000000566244125, -0.01600000075995922, 1.040000081062317, 0.0, 0.0, 0.0, 0.0, 0.0, 1.6214302241938484E9, 2021-05-19 15:17:04.193
43.0, -66.23175811767578, -127.95880889892578, 8.77193546295166, 148.35809326171875, -0.08000000566244125, -0.01600000075995922, 1.040000081062317, 0.0, 0.0, 0.0, 0.0, 0.0, 1.6214302241946273E9, 2021-05-19 15:17:04.194
43.0, -64.97515106201172, -120.57998657226562, 9.430157661437988, 141.63375854492188, -0.08000000566244125, -0.01600000075995922, 1.040000081062317, 0.0, 0.0, 0.0, 0.0, 0.0, 1.6214302241946273E9, 2021-05-19 15:17:04.194
44.0, -74.35855865478516, -144.3507843017578, -6.789788246154785, 133.372314453125, -0.08000000566244125, -0.01600000075995922, 1.040000081062317, 0.0, 0.0, 0.0, 0.0, 0.0, 1.6214302242081432E9, 2021-05-19 15:17:04.208
44.0, -70.86175537109375, -129.1855010986328, 2.5038630962371826, 144.15444946289062, -0.08000000566244125, -0.01600000075995922, 1.040000081062317, 0.0, 0.0, 0.0, 0.0, 0.0, 1.6214302242081432E9, 2021-05-19 15:17:04.208
45.0, -72.01364135742188, -117.12805938720703, 14.594959259033203, 158.3323974609375, -0.08000000566244125, -0.01600000075995922, 1.040000081062317, 0.0, 0.0, 0.0, 0.0, 0.0, 1.6214302242089E9, 2021-05-19 15:17:04.208
45.0, -57.86934280395508, -145.162353515625, 4.542108535766602, 141.73098754882812, -0.08000000566244125, -0.01600000075995922, 1.040000081062317, 0.0, 0.0, 0.0, 0.0, 0.0, 1.6214302242089E9, 2021-05-19 15:17:04.208
46.0, -89.49019622802734, -150.51040649414062, -8.682177543640137, 134.2212677001953, -0.08000000566244125, -0.01600000075995922, 1.040000081062317, 0.0, 0.0, 0.0, 0.0, 0.0, 1.6214302242223663E9, 2021-05-19 15:17:04.222
46.0, -72.6008071899414, -125.43437194824219, -2.264509439468384, 148.13369750976562, -0.08000000566244125, -0.01600000075995922, 1.040000081062317, 0.0, 0.0, 0.0, 0.0, 0.0, 1.6214302242223663E9, 2021-05-19 15:17:04.222
47.0, -67.35372924804688, -115.21696472167969, 0.9705040454864502, 152.37474060058594, -0.08000000566244125, -0.01600000075995922, 1.040000081062317, 0.0, 0.0, 0.0, 0.0, 0.0, 1.6214302242551446E9, 2021-05-19 15:17:04.255
47.0, -67.81747436523438, -130.150390625, 7.429311275482178, 147.1014862060547, -0.08000000566244125, -0.01600000075995922, 1.040000081062317, 0.0, 0.0, 0.0, 0.0, 0.0, 1.6214302242551446E9, 2021-05-19 15:17:04.255
48.0, -90.7655029296875, -136.0743865966797, 2.320607900619507, 137.92376708984375, -0.08000000566244125, -0.01600000075995922, 1.040000081062317, 0.0, 0.0, 0.0, 0.0, 0.0, 1.62143022425589E9, 2021-05-19 15:17:04.255
48.0, -75.6525650024414, -129.3089141845703, 0.6675721406936646, 145.81869506835938, -0.08000000566244125, -0.01600000075995922, 1.040000081062317, 0.0, 0.0, 0.0, 0.0, 0.0, 1.62143022425589E9, 2021-05-19 15:17:04.255
49.0, -59.84400939941406, -113.41807556152344, 22.041099548339844, 156.765380859375, -0.08000000566244125, -0.01600000075995922, 1.040000081062317, 0.0, 0.0, 0.0, 0.0, 0.0, 1.6214302242566144E9, 2021-05-19 15:17:04.256
49.0, -60.54336929321289, -121.25690460205078, 27.27322006225586, 155.94635009765625, -0.08000000566244125, -0.01600000075995922, 1.040000081062317, 0.0, 0.0, 0.0, 0.0, 0.0, 1.6214302242566144E9, 2021-05-19 15:17:04.256
50.0, -75.68248748779297, -130.76373291015625, 9.923824310302734, 139.99942016601562, -0.08000000566244125, -0.01600000075995922, 1.040000081062317, 0.0, 0.0, 0.0, 0.0, 0.0, 1.6214302242573645E9, 2021-05-19 15:17:04.257
50.0, -69.2461166381836, -130.12794494628906, 11.266448974609375, 150.42999267578125, -0.08000000566244125, -0.01600000075995922, 1.040000081062317, 0.0, 0.0, 0.0, 0.0, 0.0, 1.6214302242573645E9, 2021-05-19 15:17:04.257
51.0, -57.79080581665039, -117.59554290771484, 19.25487518310547, 153.65005493164062, -0.08000000566244125, -0.01600000075995922, 1.040000081062317, 0.0, 0.0, 0.0, 0.0, 0.0, 1.621430224267414E9, 2021-05-19 15:17:04.267
51.0, -55.842315673828125, -122.22554016113281, 25.35091209411621, 149.9886932373047, -0.08000000566244125, -0.01600000075995922, 1.040000081062317, 0.0, 0.0, 0.0, 0.0, 0.0, 1.621430224267414E9, 2021-05-19 15:17:04.267
52.0, -63.5165901184082, -130.68893432617188, 20.55261993408203, 145.97203063964844, -0.08000000566244125, -0.01600000075995922, 1.040000081062317, 0.0, 0.0, 0.0, 0.0, 0.0, 1.6214302242824626E9, 2021-05-19 15:17:04.282
52.0, -69.65750885009766, -136.04446411132812, 8.689657211303711, 138.35386657714844, -0.08000000566244125, -0.01600000075995922, 1.040000081062317, 0.0, 0.0, 0.0, 0.0, 0.0, 1.6214302242824626E9, 2021-05-19 15:17:04.282
53.0, -64.94149017333984, -108.39164733886719, 21.992481231689453, 157.5283203125, -0.08000000566244125, -0.01600000075995922, 1.040000081062317, 0.0, 0.0, 0.0, 0.0, 0.0, 1.621430224298067E9, 2021-05-19 15:17:04.298
53.0, -66.1569595336914, -127.05001068115234, 15.492535591125488, 144.58827209472656, -0.08000000566244125, -0.01600000075995922, 1.040000081062317, 0.0, 0.0, 0.0, 0.0, 0.0, 1.621430224298067E9, 2021-05-19 15:17:04.298
54.0, -81.49429321289062, -149.08924865722656, -7.949157238006592, 127.35107421875, -0.08000000566244125, -0.01600000075995922, 1.040000081062317, 0.0, 0.0, 0.0, 0.0, 0.0, 1.6214302242987492E9, 2021-05-19 15:17:04.298
54.0, -80.87346649169922, -139.1448516845703, -4.942277908325195, 137.72555541992188, -0.08000000566244125, -0.01600000075995922, 1.040000081062317, 0.0, 0.0, 0.0, 0.0, 0.0, 1.6214302242987492E9, 2021-05-19 15:17:04.298
55.0, -68.51683807373047, -116.34642028808594, 4.852519989013672, 155.53121948242188, -0.08000000566244125, -0.01600000075995922, 1.040000081062317, 0.0, 0.0, 0.0, 0.0, 0.0, 1.6214302243124576E9, 2021-05-19 15:17:04.312
55.0, -56.522979736328125, -126.91163635253906, 10.252935409545898, 154.4728240966797, -0.08000000566244125, -0.01600000075995922, 1.040000081062317, 0.0, 0.0, 0.0, 0.0, 0.0, 1.6214302243124576E9, 2021-05-19 15:17:04.312
56.0, -89.01896667480469, -138.30337524414062, -8.648518562316895, 137.69937133789062, -0.08000000566244125, -0.01600000075995922, 1.040000081062317, 0.0, 0.0, 0.0, 0.0, 0.0, 1.621430224328071E9, 2021-05-19 15:17:04.328
56.0, -78.88009643554688, -127.68953704833984, -5.4920430183410645, 144.68551635742188, -0.08000000566244125, -0.01600000075995922, 1.040000081062317, 0.0, 0.0, 0.0, 0.0, 0.0, 1.621430224328071E9, 2021-05-19 15:17:04.328
57.0, -70.38678741455078, -120.75202178955078, 5.4658637046813965, 153.12646484375, -0.08000000566244125, -0.01600000075995922, 1.040000081062317, 0.0, 0.0, 0.0, 0.0, 0.0, 1.6214302243287542E9, 2021-05-19 15:17:04.328
57.0, -67.90723419189453, -124.18524932861328, 9.067387580871582, 152.6253204345703, -0.08000000566244125, -0.01600000075995922, 1.040000081062317, 0.0, 0.0, 0.0, 0.0, 0.0, 1.6214302243287542E9, 2021-05-19 15:17:04.328
58.0, -80.33492279052734, -138.8419189453125, -4.9759368896484375, 133.80987548828125, -0.08000000566244125, -0.01600000075995922, 1.040000081062317, 0.0, 0.0, 0.0, 0.0, 0.0, 1.6214302243424993E9, 2021-05-19 15:17:04.342
58.0, -86.71893310546875, -128.1532745361328, -5.664078712463379, 138.88491821289062, -0.08000000566244125, -0.01600000075995922, 1.040000081062317, 0.0, 0.0, 0.0, 0.0, 0.0, 1.6214302243424993E9, 2021-05-19 15:17:04.342
59.0, -66.39257049560547, -112.25122833251953, 10.604486465454102, 150.0186004638672, -0.08000000566244125, -0.01600000075995922, 1.040000081062317, 0.0, 0.0, 0.0, 0.0, 0.0, 1.6214302243580775E9, 2021-05-19 15:17:04.358
59.0, -69.43685150146484, -134.61956787109375, 6.060507774353027, 139.58055114746094, -0.08000000566244125, -0.01600000075995922, 1.040000081062317, 0.0, 0.0, 0.0, 0.0, 0.0, 1.6214302243580775E9, 2021-05-19 15:17:04.358
60.0, -76.24720764160156, -144.0478515625, 2.4440245628356934, 126.43479919433594, -0.08000000566244125, -0.01600000075995922, 1.040000081062317, 0.0, 0.0, 0.0, 0.0, 0.0, 1.6214302243587692E9, 2021-05-19 15:17:04.358
60.0, -71.90518951416016, -137.8994598388672, -4.126979827880859, 124.97998046875, -0.08000000566244125, -0.01600000075995922, 1.040000081062317, 0.0, 0.0, 0.0, 0.0, 0.0, 1.6214302243587692E9, 2021-05-19 15:17:04.358
61.0, -62.3310432434082, -124.04312896728516, 8.674697875976562, 139.87225341796875, -0.08000000566244125, -0.01600000075995922, 1.040000081062317, 0.0, 0.0, 0.0, 0.0, 0.0, 1.621430224372368E9, 2021-05-19 15:17:04.372
61.0, -46.28687286376953, -128.1607666015625, 26.435482025146484, 141.85440063476562, -0.08000000566244125, -0.01600000075995922, 1.040000081062317, 0.0, 0.0, 0.0, 0.0, 0.0, 1.621430224372368E9, 2021-05-19 15:17:04.372
62.0, -66.76656341552734, -134.73550415039062, 14.1349515914917, 140.7473907470703, -0.08000000566244125, -0.01600000075995922, 1.040000081062317, 0.0, 0.0, 0.0, 0.0, 0.0, 1.6214302243881032E9, 2021-05-19 15:17:04.388
62.0, -41.73541259765625, -111.63414001464844, 23.739015579223633, 160.72967529296875, -0.08000000566244125, -0.01600000075995922, 1.040000081062317, 0.0, 0.0, 0.0, 0.0, 0.0, 1.6214302243881032E9, 2021-05-19 15:17:04.388
63.0, -57.54022979736328, -107.29586029052734, 29.977169036865234, 170.79000854492188, -0.08000000566244125, -0.01600000075995922, 1.040000081062317, 0.0, 0.0, 0.0, 0.0, 0.0, 1.6214302243887513E9, 2021-05-19 15:17:04.388
63.0, -64.0289535522461, -123.97207641601562, 19.711143493652344, 157.80508422851562, -0.08000000566244125, -0.01600000075995922, 1.040000081062317, 0.0, 0.0, 0.0, 0.0, 0.0, 1.6214302243887513E9, 2021-05-19 15:17:04.388
64.0, -77.39910125732422, -141.38504028320312, 4.471050262451172, 142.29945373535156, -0.08000000566244125, -0.01600000075995922, 1.040000081062317, 0.0, 0.0, 0.0, 0.0, 0.0, 1.6214302244024165E9, 2021-05-19 15:17:04.402
64.0, -82.76211547851562, -141.7291259765625, -2.948911190032959, 146.1814727783203, -0.08000000566244125, -0.01600000075995922, 1.040000081062317, 0.0, 0.0, 0.0, 0.0, 0.0, 1.6214302244024165E9, 2021-05-19 15:17:04.402
65.0, -62.529258728027344, -120.42665100097656, 9.819107055664062, 156.9822998046875, -0.08000000566244125, -0.01600000075995922, 1.040000081062317, 0.0, 0.0, 0.0, 0.0, 0.0, 1.6214302244180744E9, 2021-05-19 15:17:04.418
65.0, -60.958499908447266, -134.5559844970703, 6.086687088012695, 150.3365020751953, -0.08000000566244125, -0.01600000075995922, 1.040000081062317, 0.0, 0.0, 0.0, 0.0, 0.0, 1.6214302244180744E9, 2021-05-19 15:17:04.418
66.0, -78.11715698242188, -146.6096954345703, 1.0677413940429688, 143.74679565429688, -0.08000000566244125, -0.01600000075995922, 1.040000081062317, 0.0, 0.0, 0.0, 0.0, 0.0, 1.6214302244188886E9, 2021-05-19 15:17:04.418
66.0, -80.2713394165039, -138.83070373535156, -2.8404541015625, 149.87649536132812, -0.08000000566244125, -0.01600000075995922, 1.040000081062317, 0.0, 0.0, 0.0, 0.0, 0.0, 1.6214302244188886E9, 2021-05-19 15:17:04.418
67.0, -65.48377990722656, -123.28767395019531, 11.266448974609375, 161.2196044921875, -0.08000000566244125, -0.01600000075995922, 1.040000081062317, 0.0, 0.0, 0.0, 0.0, 0.0, 1.6214302244324446E9, 2021-05-19 15:17:04.432
67.0, -55.33369064331055, -129.89981079101562, 14.052674293518066, 159.93307495117188, -0.08000000566244125, -0.01600000075995922, 1.040000081062317, 0.0, 0.0, 0.0, 0.0, 0.0, 1.6214302244324446E9, 2021-05-19 15:17:04.432
68.0, -87.11910247802734, -143.2437744140625, -1.6511658430099487, 135.47039794921875, -0.08000000566244125, -0.01600000075995922, 1.040000081062317, 0.0, 0.0, 0.0, 0.0, 0.0, 1.6214302244481225E9, 2021-05-19 15:17:04.448
68.0, -73.99952697753906, -131.3770751953125, 6.0642476081848145, 137.92002868652344, -0.08000000566244125, -0.01600000075995922, 1.040000081062317, 0.0, 0.0, 0.0, 0.0, 0.0, 1.6214302244481225E9, 2021-05-19 15:17:04.448
69.0, -68.98806762695312, -114.51760864257812, 14.019015312194824, 156.12586975097656, -0.08000000566244125, -0.01600000075995922, 1.040000081062317, 0.0, 0.0, 0.0, 0.0, 0.0, 1.621430224448767E9, 2021-05-19 15:17:04.448
69.0, -71.47135925292969, -126.0140609741211, 15.4551362991333, 149.40151977539062, -0.08000000566244125, -0.01600000075995922, 1.040000081062317, 0.0, 0.0, 0.0, 0.0, 0.0, 1.621430224448767E9, 2021-05-19 15:17:04.448
70.0, -88.77961730957031, -135.89862060546875, 6.288641929626465, 138.09207153320312, -0.08000000566244125, -0.01600000075995922, 1.040000081062317, 0.0, 0.0, 0.0, 0.0, 0.0, 1.6214302244624507E9, 2021-05-19 15:17:04.462
70.0, -78.1583023071289, -122.45741271972656, 9.366579055786133, 144.12826538085938, -0.08000000566244125, -0.01600000075995922, 1.040000081062317, 0.0, 0.0, 0.0, 0.0, 0.0, 1.6214302244624507E9, 2021-05-19 15:17:04.462
71.0, -73.83871459960938, -110.7777099609375, 22.48988914489746, 162.51361083984375, -0.08000000566244125, -0.01600000075995922, 1.040000081062317, 0.0, 0.0, 0.0, 0.0, 0.0, 1.6214302244785683E9, 2021-05-19 15:17:04.478
71.0, -67.2976303100586, -128.10092163085938, 16.995975494384766, 149.60348510742188, -0.08000000566244125, -0.01600000075995922, 1.040000081062317, 0.0, 0.0, 0.0, 0.0, 0.0, 1.6214302244785683E9, 2021-05-19 15:17:04.478
72.0, -62.428279876708984, -136.7213897705078, 6.83092737197876, 142.53506469726562, -0.09600000083446503, -0.01600000075995922, 1.040000081062317, 0.0, 0.0, 0.0, 0.0, 0.0, 1.621430224492769E9, 2021-05-19 15:17:04.492
72.0, -81.3521728515625, -126.7994384765625, 2.2607696056365967, 150.48983764648438, -0.09600000083446503, -0.01600000075995922, 1.040000081062317, 0.0, 0.0, 0.0, 0.0, 0.0, 1.621430224492769E9, 2021-05-19 15:17:04.492
73.0, -65.32295989990234, -122.20684051513672, 15.952543258666992, 161.74319458007812, -0.09600000083446503, -0.01600000075995922, 1.040000081062317, 0.0, 0.0, 0.0, 0.0, 0.0, 1.6214302245409873E9, 2021-05-19 15:17:04.540
73.0, -70.6074447631836, -133.00767517089844, 11.610519409179688, 148.4179229736328, -0.09600000083446503, -0.01600000075995922, 1.040000081062317, 0.0, 0.0, 0.0, 0.0, 0.0, 1.6214302245409873E9, 2021-05-19 15:17:04.540
74.0, -82.27593231201172, -140.9923553466797, 0.5329357385635376, 144.28160095214844, -0.09600000083446503, -0.01600000075995922, 1.040000081062317, 0.0, 0.0, 0.0, 0.0, 0.0, 1.6214302245416512E9, 2021-05-19 15:17:04.541
74.0, -77.03633117675781, -133.84915161132812, -0.6713120341300964, 153.92306518554688, -0.09600000083446503, -0.01600000075995922, 1.040000081062317, 0.0, 0.0, 0.0, 0.0, 0.0, 1.6214302245416512E9, 2021-05-19 15:17:04.541
75.0, -66.71420288085938, -115.76673126220703, 16.20685577392578, 164.0619354248047, -0.09600000083446503, -0.01600000075995922, 1.040000081062317, 0.0, 0.0, 0.0, 0.0, 0.0, 1.621430224542344E9, 2021-05-19 15:17:04.542
75.0, -66.25419616699219, -125.05290222167969, 16.805240631103516, 157.27027893066406, -0.09600000083446503, -0.01600000075995922, 1.040000081062317, 0.0, 0.0, 0.0, 0.0, 0.0, 1.621430224542344E9, 2021-05-19 15:17:04.542
76.0, -80.33118438720703, -135.20672607421875, 8.37924575805664, 145.72894287109375, -0.09600000083446503, -0.01600000075995922, 1.040000081062317, 0.0, 0.0, 0.0, 0.0, 0.0, 1.621430224543052E9, 2021-05-19 15:17:04.543
76.0, -78.10968017578125, -122.29286193847656, 10.51098918914795, 145.71023559570312, -0.09600000083446503, -0.01600000075995922, 1.040000081062317, 0.0, 0.0, 0.0, 0.0, 0.0, 1.621430224543052E9, 2021-05-19 15:17:04.543
77.0, -62.03559112548828, -112.31480407714844, 26.42426300048828, 163.02598571777344, -0.09600000083446503, -0.01600000075995922, 1.040000081062317, 0.0, 0.0, 0.0, 0.0, 0.0, 1.621430224555101E9, 2021-05-19 15:17:04.555
77.0, -73.90603637695312, -123.01465606689453, 17.8000545501709, 151.15553283691406, -0.09600000083446503, -0.01600000075995922, 1.040000081062317, 0.0, 0.0, 0.0, 0.0, 0.0, 1.621430224555101E9, 2021-05-19 15:17:04.555
78.0, -77.48885345458984, -136.60545349121094, 12.006948471069336, 135.76211547851562, -0.09600000083446503, -0.01600000075995922, 1.040000081062317, 0.0, 0.0, 0.0, 0.0, 0.0, 1.6214302245559015E9, 2021-05-19 15:17:04.555
78.0, -84.77043914794922, -129.40988159179688, 8.255828857421875, 141.05406188964844, -0.09600000083446503, -0.01600000075995922, 1.040000081062317, 0.0, 0.0, 0.0, 0.0, 0.0, 1.6214302245559015E9, 2021-05-19 15:17:04.555
79.0, -60.816383361816406, -115.77421569824219, 17.751434326171875, 156.66815185546875, -0.09600000083446503, -0.01600000075995922, 1.040000081062317, 0.0, 0.0, 0.0, 0.0, 0.0, 1.621430224556674E9, 2021-05-19 15:17:04.556
79.0, -79.1044921875, -128.81524658203125, 15.230742454528809, 150.55715942382812, -0.09600000083446503, -0.01600000075995922, 1.040000081062317, 0.0, 0.0, 0.0, 0.0, 0.0, 1.621430224556674E9, 2021-05-19 15:17:04.556
80.0, -81.68502807617188, -141.254150390625, 8.091273307800293, 143.18954467773438, -0.09600000083446503, -0.01600000075995922, 1.040000081062317, 0.0, 0.0, 0.0, 0.0, 0.0, 1.6214302245574028E9, 2021-05-19 15:17:04.557
80.0, -67.82869720458984, -130.58421325683594, 11.681577682495117, 149.34169006347656, -0.09600000083446503, -0.01600000075995922, 1.040000081062317, 0.0, 0.0, 0.0, 0.0, 0.0, 1.6214302245574028E9, 2021-05-19 15:17:04.557
81.0, -71.94258880615234, -124.07305145263672, 10.873759269714355, 157.1206817626953, -0.09600000083446503, -0.01600000075995922, 1.040000081062317, 0.0, 0.0, 0.0, 0.0, 0.0, 1.6214302245673907E9, 2021-05-19 15:17:04.567
81.0, -56.986724853515625, -125.07160186767578, 7.433051109313965, 156.4213104248047, -0.09600000083446503, -0.01600000075995922, 1.040000081062317, 0.0, 0.0, 0.0, 0.0, 0.0, 1.6214302245673907E9, 2021-05-19 15:17:04.567
82.0, -81.16143798828125, -143.7486572265625, 1.7633628845214844, 152.59165954589844, -0.09600000083446503, -0.01600000075995922, 1.040000081062317, 0.0, 0.0, 0.0, 0.0, 0.0, 1.6214302245824752E9, 2021-05-19 15:17:04.582
82.0, -79.41864776611328, -141.68797302246094, -4.407472133636475, 145.64292907714844, -0.09600000083446503, -0.01600000075995922, 1.040000081062317, 0.0, 0.0, 0.0, 0.0, 0.0, 1.6214302245824752E9, 2021-05-19 15:17:04.582
83.0, -57.940399169921875, -122.87628173828125, 15.563593864440918, 161.178466796875, -0.09600000083446503, -0.01600000075995922, 1.040000081062317, 0.0, 0.0, 0.0, 0.0, 0.0, 1.6214302246309328E9, 2021-05-19 15:17:04.630
83.0, -74.1640853881836, -140.31918334960938, 10.069680213928223, 164.24143981933594, -0.09600000083446503, -0.01600000075995922, 1.040000081062317, 0.0, 0.0, 0.0, 0.0, 0.0, 1.6214302246309328E9, 2021-05-19 15:17:04.630
84.0, -89.58369445800781, -150.4655303955078, 0.8470873236656189, 139.58428955078125, -0.09600000083446503, -0.01600000075995922, 1.040000081062317, 0.0, 0.0, 0.0, 0.0, 0.0, 1.621430224631684E9, 2021-05-19 15:17:04.631
84.0, -77.60853576660156, -134.75045776367188, 1.3108348846435547, 144.38632202148438, -0.09600000083446503, -0.01600000075995922, 1.040000081062317, 0.0, 0.0, 0.0, 0.0, 0.0, 1.621430224631684E9, 2021-05-19 15:17:04.631
85.0, -70.54386138916016, -125.29973602294922, 6.3073410987854, 151.002197265625, -0.09600000083446503, -0.01600000075995922, 1.040000081062317, 0.0, 0.0, 0.0, 0.0, 0.0, 1.6214302246323695E9, 2021-05-19 15:17:04.632
85.0, -57.28965759277344, -138.8269500732422, 11.079453468322754, 152.83474731445312, -0.09600000083446503, -0.01600000075995922, 1.040000081062317, 0.0, 0.0, 0.0, 0.0, 0.0, 1.6214302246323695E9, 2021-05-19 15:17:04.632
86.0, -83.4951400756836, -148.52078247070312, 1.4903501272201538, 134.0006103515625, -0.09600000083446503, -0.01600000075995922, 1.040000081062317, 0.0, 0.0, 0.0, 0.0, 0.0, 1.6214302246331713E9, 2021-05-19 15:17:04.633
86.0, -76.48282623291016, -134.88510131835938, 4.3476338386535645, 142.4453125, -0.09600000083446503, -0.01600000075995922, 1.040000081062317, 0.0, 0.0, 0.0, 0.0, 0.0, 1.6214302246331713E9, 2021-05-19 15:17:04.633
87.0, -68.27374267578125, -117.19537353515625, 18.084285736083984, 158.58297729492188, -0.09600000083446503, -0.01600000075995922, 1.040000081062317, 0.0, 0.0, 0.0, 0.0, 0.0, 1.6214302246759021E9, 2021-05-19 15:17:04.675
87.0, -65.76801300048828, -130.59169006347656, 15.313020706176758, 152.09051513671875, -0.09600000083446503, -0.01600000075995922, 1.040000081062317, 0.0, 0.0, 0.0, 0.0, 0.0, 1.6214302246759021E9, 2021-05-19 15:17:04.675
88.0, -72.1968994140625, -143.7561492919922, 0.20382454991340637, 141.19992065429688, -0.09600000083446503, -0.01600000075995922, 1.040000081062317, 0.0, 0.0, 0.0, 0.0, 0.0, 1.621430224676606E9, 2021-05-19 15:17:04.676
88.0, -80.32743835449219, -142.1554718017578, -6.958083629608154, 147.41563415527344, -0.09600000083446503, -0.01600000075995922, 1.040000081062317, 0.0, 0.0, 0.0, 0.0, 0.0, 1.621430224676606E9, 2021-05-19 15:17:04.676
89.0, -67.44722747802734, -125.01176452636719, 4.931057929992676, 159.4842987060547, -0.09600000083446503, -0.01600000075995922, 1.040000081062317, 0.0, 0.0, 0.0, 0.0, 0.0, 1.621430224677289E9, 2021-05-19 15:17:04.677
89.0, -58.01145935058594, -139.64599609375, 2.7731359004974365, 157.2440948486328, -0.09600000083446503, -0.01600000075995922, 1.040000081062317, 0.0, 0.0, 0.0, 0.0, 0.0, 1.621430224677289E9, 2021-05-19 15:17:04.677
90.0, -66.1120834350586, -152.82540893554688, -3.932504892349243, 145.08941650390625, -0.09600000083446503, -0.01600000075995922, 1.055999994277954, 0.0, 0.0, 0.0, 0.0, 0.0, 1.6214302246780605E9, 2021-05-19 15:17:04.678
90.0, -61.575584411621094, -139.58241271972656, -0.6339130401611328, 156.37269592285156, -0.09600000083446503, -0.01600000075995922, 1.055999994277954, 0.0, 0.0, 0.0, 0.0, 0.0, 1.6214302246780605E9, 2021-05-19 15:17:04.678
91.0, -58.374229431152344, -125.38201904296875, 13.308433532714844, 171.76986694335938, -0.09600000083446503, -0.01600000075995922, 1.055999994277954, 0.0, 0.0, 0.0, 0.0, 0.0, 1.6214302247364745E9, 2021-05-19 15:17:04.736
91.0, -57.31583786010742, -136.7625274658203, 6.2549824714660645, 156.40261840820312, -0.09600000083446503, -0.01600000075995922, 1.055999994277954, 0.0, 0.0, 0.0, 0.0, 0.0, 1.6214302247364745E9, 2021-05-19 15:17:04.736
92.0, -72.75788116455078, -149.76242065429688, -3.218183994293213, 150.919921875, -0.09600000083446503, -0.01600000075995922, 1.055999994277954, 0.0, 0.0, 0.0, 0.0, 0.0, 1.6214302247371821E9, 2021-05-19 15:17:04.737
92.0, -68.56171417236328, -139.1785125732422, 4.153158664703369, 153.0067901611328, -0.09600000083446503, -0.01600000075995922, 1.055999994277954, 0.0, 0.0, 0.0, 0.0, 0.0, 1.6214302247371821E9, 2021-05-19 15:17:04.737
93.0, -35.15692901611328, -123.6467056274414, 23.74649429321289, 166.12261962890625, -0.09600000083446503, -0.01600000075995922, 1.055999994277954, 0.0, 0.0, 0.0, 0.0, 0.0, 1.6214302247379243E9, 2021-05-19 15:17:04.737
93.0, -77.88902282714844, -143.52427673339844, 6.939384460449219, 145.9645538330078, -0.09600000083446503, -0.01600000075995922, 1.055999994277954, 0.0, 0.0, 0.0, 0.0, 0.0, 1.6214302247379243E9, 2021-05-19 15:17:04.737
94.0, -86.94332122802734, -144.97161865234375, 9.763009071350098, 133.12921142578125, -0.09600000083446503, -0.01600000075995922, 1.055999994277954, 0.0, 0.0, 0.0, 0.0, 0.0, 1.6214302247386744E9, 2021-05-19 15:17:04.738
94.0, -78.88009643554688, -128.2056427001953, 17.052074432373047, 144.34144592285156, -0.09600000083446503, -0.01600000075995922, 1.055999994277954, 0.0, 0.0, 0.0, 0.0, 0.0, 1.6214302247386744E9, 2021-05-19 15:17:04.738
95.0, -48.00348663330078, -112.47562408447266, 28.604625701904297, 157.3188934326172, -0.09600000083446503, -0.01600000075995922, 1.055999994277954, 0.0, 0.0, 0.0, 0.0, 0.0, 1.6214302247493076E9, 2021-05-19 15:17:04.749
95.0, -65.94004821777344, -122.86132049560547, 23.892351150512695, 152.17652893066406, -0.09600000083446503, -0.01600000075995922, 1.055999994277954, 0.0, 0.0, 0.0, 0.0, 0.0, 1.6214302247493076E9, 2021-05-19 15:17:04.749
96.0, -85.89989471435547, -142.1554718017578, 9.979923248291016, 141.7683868408203, -0.09600000083446503, -0.01600000075995922, 1.055999994277954, 0.0, 0.0, 0.0, 0.0, 0.0, 1.621430224750058E9, 2021-05-19 15:17:04.750
96.0, -84.66946411132812, -128.14205932617188, 9.041208267211914, 154.48779296875, -0.09600000083446503, -0.01600000075995922, 1.055999994277954, 0.0, 0.0, 0.0, 0.0, 0.0, 1.621430224750058E9, 2021-05-19 15:17:04.750
97.0, -72.5372314453125, -120.68470001220703, 22.493627548217773, 163.83380126953125, -0.09600000083446503, -0.01600000075995922, 1.055999994277954, 0.0, 0.0, 0.0, 0.0, 0.0, 1.621430224750793E9, 2021-05-19 15:17:04.750
97.0, -63.445533752441406, -129.86988830566406, 23.234128952026367, 160.6174774169922, -0.09600000083446503, -0.01600000075995922, 1.055999994277954, 0.0, 0.0, 0.0, 0.0, 0.0, 1.621430224750793E9, 2021-05-19 15:17:04.750
99.0, -75.42816925048828, -123.3475112915039, 21.382877349853516, 166.84442138671875, -0.09600000083446503, -0.01600000075995922, 1.055999994277954, 0.0, 0.0, 0.0, 0.0, 0.0, 1.621430224763862E9, 2021-05-19 15:17:04.763
99.0, -74.5904312133789, -129.99331665039062, 16.56214714050293, 154.4803009033203, -0.09600000083446503, -0.01600000075995922, 1.055999994277954, 0.0, 0.0, 0.0, 0.0, 0.0, 1.621430224763862E9, 2021-05-19 15:17:04.763
100.0, -86.86478424072266, -136.6727752685547, 5.5444016456604, 151.61553955078125, -0.09600000083446503, -0.01600000075995922, 1.040000081062317, 0.0, 0.0, 0.0, 0.0, 0.0, 1.621430224764612E9, 2021-05-19 15:17:04.764
100.0, -86.35616302490234, -123.15303802490234, 6.801008224487305, 155.98001098632812, -0.09600000083446503, -0.01600000075995922, 1.040000081062317, 0.0, 0.0, 0.0, 0.0, 0.0, 1.621430224764612E9, 2021-05-19 15:17:04.764
0.0, -52.05192947387695, -124.81168365478516, 8.596159934997559, 146.28244018554688, -0.09600000083446503, -0.01600000075995922, 1.040000081062317, 0.0, 0.0, 0.0, 0.0, 0.0, 1.6214302247653615E9, 2021-05-19 15:17:04.765
1.0, -66.70111846923828, -132.0670928955078, 7.294674873352051, 140.55665588378906, -0.09600000083446503, -0.01600000075995922, 1.040000081062317, 0.0, 0.0, 0.0, 0.0, 0.0, 1.6214302248109555E9, 2021-05-19 15:17:04.810
1.0, -74.52124786376953, -148.01402282714844, 3.0461485385894775, 128.0167694091797, -0.09600000083446503, -0.01600000075995922, 1.040000081062317, 0.0, 0.0, 0.0, 0.0, 0.0, 1.6214302248109555E9, 2021-05-19 15:17:04.810
2.0, -63.18935012817383, -138.42117309570312, -2.156052350997925, 128.18507385253906, -0.08000000566244125, -0.01600000075995922, 1.040000081062317, 0.0, 0.0, 0.0, 0.0, 0.0, 1.6214302248115363E9, 2021-05-19 15:17:04.811
2.0, -69.32278442382812, -125.6082763671875, 7.810781002044678, 140.1527557373047, -0.08000000566244125, -0.01600000075995922, 1.040000081062317, 0.0, 0.0, 0.0, 0.0, 0.0, 1.6214302248115363E9, 2021-05-19 15:17:04.811
3.0, -65.44824981689453, -144.72665405273438, 10.204317092895508, 131.90252685546875, -0.08000000566244125, -0.01600000075995922, 1.040000081062317, 0.0, 0.0, 0.0, 0.0, 0.0, 1.621430224812318E9, 2021-05-19 15:17:04.812
3.0, -68.46634674072266, -149.8540496826172, 5.978229999542236, 122.66123962402344, -0.08000000566244125, -0.01600000075995922, 1.040000081062317, 0.0, 0.0, 0.0, 0.0, 0.0, 1.621430224812318E9, 2021-05-19 15:17:04.812
4.0, -64.24026489257812, -135.062744140625, 3.685671329498291, 122.63131713867188, -0.08000000566244125, -0.01600000075995922, 1.040000081062317, 0.0, 0.0, 0.0, 0.0, 0.0, 1.621430224813171E9, 2021-05-19 15:17:04.813
4.0, -55.27198028564453, -125.68307495117188, 22.572166442871094, 141.06529235839844, -0.08000000566244125, -0.01600000075995922, 1.040000081062317, 0.0, 0.0, 0.0, 0.0, 0.0, 1.621430224813171E9, 2021-05-19 15:17:04.813
5.0, -55.56369400024414, -134.0492401123047, 22.74420166015625, 134.50924682617188, -0.08000000566244125, -0.01600000075995922, 1.040000081062317, 0.0, 0.0, 0.0, 0.0, 0.0, 1.6214302248231268E9, 2021-05-19 15:17:04.823
5.0, -56.55476760864258, -144.40875244140625, 13.854459762573242, 127.23887634277344, -0.08000000566244125, -0.01600000075995922, 1.040000081062317, 0.0, 0.0, 0.0, 0.0, 0.0, 1.6214302248231268E9, 2021-05-19 15:17:04.823
6.0, -64.70401000976562, -138.90736389160156, 4.7852020263671875, 128.85450744628906, -0.08000000566244125, -0.01600000075995922, 1.040000081062317, 0.0, 0.0, 0.0, 0.0, 0.0, 1.621430224823795E9, 2021-05-19 15:17:04.823
6.0, -60.92671203613281, -124.55362701416016, 17.37370491027832, 147.13888549804688, -0.08000000566244125, -0.01600000075995922, 1.040000081062317, 0.0, 0.0, 0.0, 0.0, 0.0, 1.621430224823795E9, 2021-05-19 15:17:04.823
7.0, -55.85914611816406, -137.75173950195312, 16.988494873046875, 143.01004028320312, -0.08000000566244125, -0.01600000075995922, 1.040000081062317, 0.0, 0.0, 0.0, 0.0, 0.0, 1.621430224853778E9, 2021-05-19 15:17:04.853
7.0, -61.96640396118164, -150.84512329101562, 9.422677993774414, 131.2630157470703, -0.08000000566244125, -0.01600000075995922, 1.040000081062317, 0.0, 0.0, 0.0, 0.0, 0.0, 1.621430224853778E9, 2021-05-19 15:17:04.853
8.0, -54.10139465332031, -140.51925659179688, 12.040607452392578, 128.73109436035156, -0.08000000566244125, -0.01600000075995922, 1.040000081062317, 0.0, 0.0, 0.0, 0.0, 0.0, 1.6214302248545513E9, 2021-05-19 15:17:04.854
8.0, -56.767940521240234, -127.96815490722656, 12.605332374572754, 142.71458435058594, -0.08000000566244125, -0.01600000075995922, 1.040000081062317, 0.0, 0.0, 0.0, 0.0, 0.0, 1.6214302248545513E9, 2021-05-19 15:17:04.854
9.0, -65.34727478027344, -136.48765563964844, 7.107679843902588, 129.1387481689453, -0.08000000566244125, -0.01600000075995922, 1.040000081062317, 0.0, 0.0, 0.0, 0.0, 0.0, 1.6214302248553247E9, 2021-05-19 15:17:04.855
9.0, -81.90007019042969, -153.01426696777344, -0.12528665363788605, 117.21968078613281, -0.08000000566244125, -0.01600000075995922, 1.040000081062317, 0.0, 0.0, 0.0, 0.0, 0.0, 1.6214302248553247E9, 2021-05-19 15:17:04.855
10.0, -67.88666534423828, -134.1315155029297, 3.442577838897705, 126.93220520019531, -0.08000000566244125, -0.01600000075995922, 1.040000081062317, 0.0, 0.0, 0.0, 0.0, 0.0, 1.621430224867363E9, 2021-05-19 15:17:04.867
10.0, -59.52424621582031, -122.8145751953125, 15.249442100524902, 142.58367919921875, -0.08000000566244125, -0.01600000075995922, 1.040000081062317, 0.0, 0.0, 0.0, 0.0, 0.0, 1.621430224867363E9, 2021-05-19 15:17:04.867
11.0, -50.769142150878906, -136.00146484375, 14.598699569702148, 136.82049560546875, -0.08000000566244125, -0.01600000075995922, 1.040000081062317, 0.0, 0.0, 0.0, 0.0, 0.0, 1.6214302248832002E9, 2021-05-19 15:17:04.883
11.0, -66.91055297851562, -147.36328125, -0.6713120341300964, 118.74555969238281, -0.08000000566244125, -0.01600000075995922, 1.040000081062317, 0.0, 0.0, 0.0, 0.0, 0.0, 1.6214302248832002E9, 2021-05-19 15:17:04.883
12.0, -84.64515686035156, -131.51358032226562, 2.084994316101074, 126.30390167236328, -0.09600000083446503, -0.01600000075995922, 1.040000081062317, 0.0, 0.0, 0.0, 0.0, 0.0, 1.6214302248838503E9, 2021-05-19 15:17:04.883
12.0, -56.0760612487793, -111.54625701904297, 19.957975387573242, 148.4628143310547, -0.09600000083446503, -0.01600000075995922, 1.040000081062317, 0.0, 0.0, 0.0, 0.0, 0.0, 1.6214302248838503E9, 2021-05-19 15:17:04.883
13.0, -74.83165740966797, -122.06659698486328, 20.444162368774414, 140.8334197998047, -0.09600000083446503, -0.01600000075995922, 1.040000081062317, 0.0, 0.0, 0.0, 0.0, 0.0, 1.6214302249136636E9, 2021-05-19 15:17:04.913
13.0, -75.5010986328125, -135.13006591796875, 9.59471321105957, 122.05537414550781, -0.09600000083446503, -0.01600000075995922, 1.040000081062317, 0.0, 0.0, 0.0, 0.0, 0.0, 1.6214302249136636E9, 2021-05-19 15:17:04.913
14.0, -66.43932342529297, -131.3751983642578, -0.5366756319999695, 124.32549285888672, -0.09600000083446503, -0.01600000075995922, 1.040000081062317, 0.0, 0.0, 0.0, 0.0, 0.0, 1.6214302249142709E9, 2021-05-19 15:17:04.914
14.0, -75.59459686279297, -123.64857482910156, 2.410365581512451, 139.12428283691406, -0.09600000083446503, -0.01600000075995922, 1.040000081062317, 0.0, 0.0, 0.0, 0.0, 0.0, 1.6214302249142709E9, 2021-05-19 15:17:04.914
15.0, -69.71173858642578, -134.75607299804688, 7.238576412200928, 135.17120361328125, -0.09600000083446503, -0.01600000075995922, 1.040000081062317, 0.0, 0.0, 0.0, 0.0, 0.0, 1.6214302249735248E9, 2021-05-19 15:17:04.973
15.0, -66.68989562988281, -145.87106323242188, 1.9540977478027344, 131.05731201171875, -0.09600000083446503, -0.01600000075995922, 1.040000081062317, 0.0, 0.0, 0.0, 0.0, 0.0, 1.6214302249735248E9, 2021-05-19 15:17:04.973
16.0, -78.9530258178711, -133.3685760498047, -6.471896648406982, 133.80613708496094, -0.09600000083446503, -0.01600000075995922, 1.040000081062317, 0.0, 0.0, 0.0, 0.0, 0.0, 1.6214302249915721E9, 2021-05-19 15:17:04.991
16.0, -58.32748031616211, -121.67764282226562, 9.190804481506348, 141.0428466796875, -0.09600000083446503, -0.01600000075995922, 1.040000081062317, 0.0, 0.0, 0.0, 0.0, 0.0, 1.6214302249915721E9, 2021-05-19 15:17:04.991
17.0, -53.970497131347656, -142.28074645996094, 16.34897232055664, 134.6812744140625, -0.09600000083446503, -0.01600000075995922, 1.040000081062317, 0.0, 0.0, 0.0, 0.0, 0.0, 1.621430224992212E9, 2021-05-19 15:17:04.992
17.0, -74.3753890991211, -147.5689697265625, 1.3631935119628906, 124.97623443603516, -0.09600000083446503, -0.01600000075995922, 1.040000081062317, 0.0, 0.0, 0.0, 0.0, 0.0, 1.621430224992212E9, 2021-05-19 15:17:04.992
18.0, -77.21397399902344, -143.032470703125, 1.7633628845214844, 130.79177856445312, -0.09600000083446503, -0.01600000075995922, 1.040000081062317, 0.0, 0.0, 0.0, 0.0, 0.0, 1.6214302249930098E9, 2021-05-19 15:17:04.993
18.0, -47.0030632019043, -114.17540740966797, 19.165117263793945, 144.02728271484375, -0.09600000083446503, -0.01600000075995922, 1.040000081062317, 0.0, 0.0, 0.0, 0.0, 0.0, 1.6214302249930098E9, 2021-05-19 15:17:04.993
19.0, -71.73876190185547, -123.47279357910156, 15.279361724853516, 136.88034057617188, -0.09600000083446503, -0.01600000075995922, 1.040000081062317, 0.0, 0.0, 0.0, 0.0, 0.0, 1.621430224993739E9, 2021-05-19 15:17:04.993
19.0, -71.47696685791016, -143.18580627441406, 3.1882646083831787, 123.51019287109375, -0.09600000083446503, -0.01600000075995922, 1.040000081062317, 0.0, 0.0, 0.0, 0.0, 0.0, 1.621430224993739E9, 2021-05-19 15:17:04.993
20.0, -71.51810455322266, -134.81591796875, 0.8732666373252869, 120.18168640136719, -0.09600000083446503, -0.01600000075995922, 1.040000081062317, 0.0, 0.0, 0.0, 0.0, 0.0, 1.621430225005093E9, 2021-05-19 15:17:05.005
20.0, -56.005001068115234, -121.12787628173828, 16.99971580505371, 136.1622772216797, -0.09600000083446503, -0.01600000075995922, 1.040000081062317, 0.0, 0.0, 0.0, 0.0, 0.0, 1.621430225005093E9, 2021-05-19 15:17:05.005
21.0, -39.14179229736328, -118.09856414794922, 21.43149757385254, 134.79721069335938, -0.09600000083446503, 0.0, 1.040000081062317, 0.0, 0.0, 0.0, 0.0, 0.0, 1.6214302250058162E9, 2021-05-19 15:17:05.005
21.0, -77.326171875, -142.26953125, 8.431604385375977, 118.5174331665039, -0.09600000083446503, 0.0, 1.040000081062317, 0.0, 0.0, 0.0, 0.0, 0.0, 1.6214302250058162E9, 2021-05-19 15:17:05.005
22.0, -68.83285522460938, -127.88214111328125, 11.0831937789917, 128.3271942138672, -0.09600000083446503, 0.0, 1.040000081062317, 0.0, 0.0, 0.0, 0.0, 0.0, 1.6214302250065737E9, 2021-05-19 15:17:05.006
22.0, -55.440277099609375, -116.08649444580078, 21.300600051879883, 147.1426239013672, -0.09600000083446503, 0.0, 1.040000081062317, 0.0, 0.0, 0.0, 0.0, 0.0, 1.6214302250065737E9, 2021-05-19 15:17:05.006
24.0, -44.699283599853516, -99.52621459960938, 28.383970260620117, 155.08990478515625, -0.09600000083446503, 0.0, 1.040000081062317, 0.0, 0.0, 0.0, 0.0, 0.0, 1.6214302250073223E9, 2021-05-19 15:17:05.007
24.0, -40.77238845825195, -86.12989807128906, 32.8531494140625, 168.88265991210938, -0.09600000083446503, 0.0, 1.040000081062317, 0.0, 0.0, 0.0, 0.0, 0.0, 1.6214302250073223E9, 2021-05-19 15:17:05.007
25.0, -32.817623138427734, -94.82142639160156, 37.905757904052734, 168.23565673828125, -0.09600000083446503, 0.0, 1.040000081062317, 0.0, 0.0, 0.0, 0.0, 0.0, 1.621430225017393E9, 2021-05-19 15:17:05.017
25.0, -48.671058654785156, -107.76522064208984, 31.69004249572754, 148.33938598632812, -0.09600000083446503, 0.0, 1.040000081062317, 0.0, 0.0, 0.0, 0.0, 0.0, 1.621430225017393E9, 2021-05-19 15:17:05.017
26.0, -55.3131217956543, -103.40823364257812, 25.261154174804688, 156.52976989746094, -0.09600000083446503, 0.0, 1.040000081062317, 0.0, 0.0, 0.0, 0.0, 0.0, 1.6214302250488467E9, 2021-05-19 15:17:05.048
26.0, -36.75199508666992, -81.40266418457031, 39.910343170166016, 168.07484436035156, -0.09600000083446503, 0.0, 1.040000081062317, 0.0, 0.0, 0.0, 0.0, 0.0, 1.6214302250488467E9, 2021-05-19 15:17:05.048
27.0, -34.724971771240234, -92.63358306884766, 45.583770751953125, 166.0178985595703, -0.09600000083446503, 0.0, 1.040000081062317, 0.0, 0.0, 0.0, 0.0, 0.0, 1.6214302250495749E9, 2021-05-19 15:17:05.049
27.0, -47.7061653137207, -111.28446197509766, 32.55022048950195, 152.55426025390625, -0.09600000083446503, 0.0, 1.040000081062317, 0.0, 0.0, 0.0, 0.0, 0.0, 1.6214302250495749E9, 2021-05-19 15:17:05.049
28.0, -53.4282112121582, -85.86062622070312, 38.01421356201172, 152.5729522705078, -0.09600000083446503, 0.0, 1.040000081062317, 0.0, 0.0, 0.0, 0.0, 0.0, 1.6214302250503123E9, 2021-05-19 15:17:05.050
28.0, -47.799659729003906, -81.83649444580078, 46.95631408691406, 163.8524932861328, -0.09600000083446503, 0.0, 1.040000081062317, 0.0, 0.0, 0.0, 0.0, 0.0, 1.6214302250503123E9, 2021-05-19 15:17:05.050
29.0, -46.62907409667969, -96.39591979980469, 43.3398323059082, 159.3159942626953, -0.09600000083446503, 0.0, 1.040000081062317, 0.0, 0.0, 0.0, 0.0, 0.0, 1.6214302250928192E9, 2021-05-19 15:17:05.092
29.0, -48.8505744934082, -106.75918579101562, 40.336692810058594, 149.2743682861328, -0.09600000083446503, 0.0, 1.040000081062317, 0.0, 0.0, 0.0, 0.0, 0.0, 1.6214302250928192E9, 2021-05-19 15:17:05.092
30.0, -35.626285552978516, -87.67821502685547, 49.200252532958984, 151.70530700683594, -0.09600000083446503, 0.0, 1.040000081062317, 0.0, 0.0, 0.0, 0.0, 0.0, 1.6214302251114688E9, 2021-05-19 15:17:05.111
30.0, -39.018375396728516, -83.99067687988281, 45.70344924926758, 157.86865234375, -0.09600000083446503, 0.0, 1.040000081062317, 0.0, 0.0, 0.0, 0.0, 0.0, 1.6214302251114688E9, 2021-05-19 15:17:05.111
31.0, -35.974098205566406, -91.481689453125, 55.9470329284668, 159.3683624267578, -0.09600000083446503, -0.01600000075995922, 1.040000081062317, 0.0, 0.0, 0.0, 0.0, 0.0, 1.6214302251122177E9, 2021-05-19 15:17:05.112
31.0, -44.403831481933594, -100.9174575805664, 46.39906692504883, 149.88771057128906, -0.09600000083446503, -0.01600000075995922, 1.040000081062317, 0.0, 0.0, 0.0, 0.0, 0.0, 1.6214302251122177E9, 2021-05-19 15:17:05.112
32.0, -39.03707504272461, -83.4895248413086, 48.545772552490234, 165.1726837158203, -0.09600000083446503, -0.01600000075995922, 1.040000081062317, 0.0, 0.0, 0.0, 0.0, 0.0, 1.621430225112954E9, 2021-05-19 15:17:05.112
32.0, -33.98073196411133, -79.07270812988281, 56.79225158691406, 172.0391387939453, -0.09600000083446503, -0.01600000075995922, 1.040000081062317, 0.0, 0.0, 0.0, 0.0, 0.0, 1.621430225112954E9, 2021-05-19 15:17:05.112
33.0, -29.773344039916992, -92.4839859008789, 53.38146209716797, 167.6634521484375, -0.09600000083446503, -0.01600000075995922, 1.040000081062317, 0.0, 0.0, 0.0, 0.0, 0.0, 1.6214302251137483E9, 2021-05-19 15:17:05.113
33.0, -42.96397018432617, -114.59427642822266, 38.949188232421875, 150.2355194091797, -0.09600000083446503, -0.01600000075995922, 1.040000081062317, 0.0, 0.0, 0.0, 0.0, 0.0, 1.6214302251137483E9, 2021-05-19 15:17:05.113
34.0, -47.89690017700195, -100.09841918945312, 37.26997375488281, 163.0072784423828, -0.09600000083446503, -0.01600000075995922, 1.040000081062317, 0.0, 0.0, 0.0, 0.0, 0.0, 1.6214302251235392E9, 2021-05-19 15:17:05.123
34.0, -36.13491439819336, -89.68280029296875, 48.27649688720703, 171.9044952392578, -0.09600000083446503, -0.01600000075995922, 1.040000081062317, 0.0, 0.0, 0.0, 0.0, 0.0, 1.6214302251235392E9, 2021-05-19 15:17:05.123
35.0, -29.896760940551758, -99.17840576171875, 51.661109924316406, 170.61798095703125, -0.09600000083446503, -0.01600000075995922, 1.040000081062317, 0.0, 0.0, 0.0, 0.0, 0.0, 1.62143022512438E9, 2021-05-19 15:17:05.124
35.0, -52.07062530517578, -118.20701599121094, 33.085025787353516, 155.2095947265625, -0.09600000083446503, -0.01600000075995922, 1.040000081062317, 0.0, 0.0, 0.0, 0.0, 0.0, 1.62143022512438E9, 2021-05-19 15:17:05.124
36.0, -50.671905517578125, -103.55409240722656, 31.90695571899414, 159.59275817871094, -0.09600000083446503, -0.01600000075995922, 1.040000081062317, 0.0, 0.0, 0.0, 0.0, 0.0, 1.6214302251381166E9, 2021-05-19 15:17:05.138
36.0, -35.88059997558594, -85.10142517089844, 48.12316131591797, 174.81788635253906, -0.09600000083446503, -0.01600000075995922, 1.040000081062317, 0.0, 0.0, 0.0, 0.0, 0.0, 1.6214302251381166E9, 2021-05-19 15:17:05.138
37.0, -41.91305923461914, -92.80935668945312, 47.30412292480469, 168.74429321289062, -0.09600000083446503, -0.01600000075995922, 1.040000081062317, 0.0, 0.0, 0.0, 0.0, 0.0, 1.6214302251387997E9, 2021-05-19 15:17:05.138
37.0, -40.75368881225586, -105.20712280273438, 43.668941497802734, 159.55909729003906, -0.09600000083446503, -0.01600000075995922, 1.040000081062317, 0.0, 0.0, 0.0, 0.0, 0.0, 1.6214302251387997E9, 2021-05-19 15:17:05.138
38.0, -54.30708694458008, -97.00552368164062, 38.668697357177734, 159.72364807128906, -0.09600000083446503, -0.01600000075995922, 1.040000081062317, 0.0, 0.0, 0.0, 0.0, 0.0, 1.6214302251532884E9, 2021-05-19 15:17:05.153
38.0, -39.268951416015625, -71.73502349853516, 53.2580451965332, 171.20140075683594, -0.09600000083446503, -0.01600000075995922, 1.040000081062317, 0.0, 0.0, 0.0, 0.0, 0.0, 1.6214302251532884E9, 2021-05-19 15:17:05.153
39.0, -56.36777114868164, -88.21302032470703, 51.77704620361328, 160.72219848632812, -0.09600000083446503, -0.01600000075995922, 1.040000081062317, 0.0, 0.0, 0.0, 0.0, 0.0, 1.6214302251539116E9, 2021-05-19 15:17:05.153
39.0, -58.89968490600586, -101.12689208984375, 37.408348083496094, 149.3080291748047, -0.09600000083446503, -0.01600000075995922, 1.040000081062317, 0.0, 0.0, 0.0, 0.0, 0.0, 1.6214302251539116E9, 2021-05-19 15:17:05.153
40.0, -46.40093994140625, -91.94170379638672, 39.005287170410156, 155.47137451171875, -0.09600000083446503, -0.01600000075995922, 1.055999994277954, 0.0, 0.0, 0.0, 0.0, 0.0, 1.6214302251979449E9, 2021-05-19 15:17:05.197
40.0, -33.75259780883789, -84.58158111572266, 51.780784606933594, 170.674072265625, -0.09600000083446503, -0.01600000075995922, 1.055999994277954, 0.0, 0.0, 0.0, 0.0, 0.0, 1.6214302251979449E9, 2021-05-19 15:17:05.197
41.0, -41.13890075683594, -100.1133804321289, 49.01325988769531, 154.3082733154297, -0.09600000083446503, 0.0, 1.055999994277954, 0.0, 0.0, 0.0, 0.0, 0.0, 1.6214302252279403E9, 2021-05-19 15:17:05.227
41.0, -55.200923919677734, -123.62239074707031, 24.733827590942383, 135.67982482910156, -0.09600000083446503, 0.0, 1.055999994277954, 0.0, 0.0, 0.0, 0.0, 0.0, 1.6214302252279403E9, 2021-05-19 15:17:05.227
42.0, -31.920045852661133, -111.29194641113281, 36.73516845703125, 146.86961364746094, -0.09600000083446503, 0.0, 1.055999994277954, 0.0, 0.0, 0.0, 0.0, 0.0, 1.6214302252434807E9, 2021-05-19 15:17:05.243
42.0, -34.51179504394531, -101.65422058105469, 45.441654205322266, 163.14939880371094, -0.09600000083446503, 0.0, 1.055999994277954, 0.0, 0.0, 0.0, 0.0, 0.0, 1.6214302252434807E9, 2021-05-19 15:17:05.243
43.0, -31.302963256835938, -103.8832015991211, 53.36650085449219, 164.07315063476562, -0.09600000083446503, 0.0, 1.055999994277954, 0.0, 0.0, 0.0, 0.0, 0.0, 1.6214302252751179E9, 2021-05-19 15:17:05.275
43.0, -30.09871482849121, -103.04920196533203, 55.34490966796875, 165.64764404296875, -0.09600000083446503, 0.0, 1.055999994277954, 0.0, 0.0, 0.0, 0.0, 0.0, 1.6214302252751179E9, 2021-05-19 15:17:05.275
44.0, -30.139854431152344, -88.7291259765625, 57.92918014526367, 177.05059814453125, -0.09600000083446503, 0.0, 1.055999994277954, 0.0, 0.0, 0.0, 0.0, 0.0, 1.6214302252758512E9, 2021-05-19 15:17:05.275
44.0, -25.853927612304688, -75.8601303100586, 62.3310432434082, 182.08824157714844, -0.09600000083446503, 0.0, 1.055999994277954, 0.0, 0.0, 0.0, 0.0, 0.0, 1.6214302252758512E9, 2021-05-19 15:17:05.275
45.0, -31.83028793334961, -91.20867919921875, 58.43406677246094, 169.63438415527344, -0.09600000083446503, 0.0, 1.055999994277954, 0.0, 0.0, 0.0, 0.0, 0.0, 1.6214302252765956E9, 2021-05-19 15:17:05.276
45.0, -52.91584396362305, -105.05753326416016, 39.10626220703125, 159.80966186523438, -0.09600000083446503, 0.0, 1.055999994277954, 0.0, 0.0, 0.0, 0.0, 0.0, 1.6214302252765956E9, 2021-05-19 15:17:05.276
46.0, -50.241817474365234, -104.0066146850586, 34.34163284301758, 162.67068481445312, -0.09600000083446503, 0.0, 1.055999994277954, 0.0, 0.0, 0.0, 0.0, 0.0, 1.621430225277342E9, 2021-05-19 15:17:05.277
46.0, -40.04684829711914, -89.06198120117188, 53.273006439208984, 168.9873809814453, -0.09600000083446503, 0.0, 1.055999994277954, 0.0, 0.0, 0.0, 0.0, 0.0, 1.621430225277342E9, 2021-05-19 15:17:05.277
47.0, -48.23722839355469, -96.62031555175781, 51.167442321777344, 158.07061767578125, -0.09600000083446503, 0.0, 1.055999994277954, 0.0, 0.0, 0.0, 0.0, 0.0, 1.6214302252899437E9, 2021-05-19 15:17:05.289
47.0, -46.10922622680664, -102.54805755615234, 47.259246826171875, 153.8445281982422, -0.09600000083446503, 0.0, 1.055999994277954, 0.0, 0.0, 0.0, 0.0, 0.0, 1.6214302252899437E9, 2021-05-19 15:17:05.289
48.0, -62.34413146972656, -94.63816833496094, 42.90226364135742, 162.09848022460938, -0.09600000083446503, 0.0, 1.055999994277954, 0.0, 0.0, 0.0, 0.0, 0.0, 1.621430225290679E9, 2021-05-19 15:17:05.290
48.0, -23.778284072875977, -78.33220672607422, 57.97031784057617, 175.4723663330078, -0.09600000083446503, 0.0, 1.055999994277954, 0.0, 0.0, 0.0, 0.0, 0.0, 1.621430225290679E9, 2021-05-19 15:17:05.290
49.0, -57.28030776977539, -85.04906463623047, 52.27819061279297, 158.01451110839844, -0.09600000083446503, 0.0, 1.055999994277954, 0.0, 0.0, 0.0, 0.0, 0.0, 1.6214302252913215E9, 2021-05-19 15:17:05.291
49.0, -54.875553131103516, -103.91686248779297, 44.84326934814453, 154.02029418945312, -0.09600000083446503, 0.0, 1.055999994277954, 0.0, 0.0, 0.0, 0.0, 0.0, 1.6214302252913215E9, 2021-05-19 15:17:05.291
52.0, -50.54100799560547, -87.9026107788086, 53.71431350708008, 159.21876525878906, -0.08000000566244125, 0.0, 1.055999994277954, 0.0, 0.0, 0.0, 0.0, 0.0, 1.6214302252921548E9, 2021-05-19 15:17:05.292
52.0, -24.698299407958984, -81.95243072509766, 64.7096176147461, 175.01609802246094, -0.08000000566244125, 0.0, 1.055999994277954, 0.0, 0.0, 0.0, 0.0, 0.0, 1.6214302252921548E9, 2021-05-19 15:17:05.292
53.0, -53.192596435546875, -92.10625457763672, 61.141754150390625, 165.4531707763672, -0.08000000566244125, 0.0, 1.055999994277954, 0.0, 0.0, 0.0, 0.0, 0.0, 1.6214302253030624E9, 2021-05-19 15:17:05.303
53.0, -50.339054107666016, -96.04437255859375, 57.11388397216797, 161.25326538085938, -0.08000000566244125, 0.0, 1.055999994277954, 0.0, 0.0, 0.0, 0.0, 0.0, 1.6214302253030624E9, 2021-05-19 15:17:05.303
54.0, -71.45826721191406, -81.02493286132812, 54.8437614440918, 165.99545288085938, -0.08000000566244125, 0.0, 1.055999994277954, 0.0, 0.0, 0.0, 0.0, 0.0, 1.6214302253039517E9, 2021-05-19 15:17:05.303
54.0, -49.512535095214844, -66.72355651855469, 63.621307373046875, 174.53738403320312, -0.08000000566244125, 0.0, 1.055999994277954, 0.0, 0.0, 0.0, 0.0, 0.0, 1.6214302253039517E9, 2021-05-19 15:17:05.303
55.0, -47.76974105834961, -82.2628402709961, 61.007118225097656, 167.51011657714844, -0.08000000566244125, 0.0, 1.055999994277954, 0.0, 0.0, 0.0, 0.0, 0.0, 1.621430225317413E9, 2021-05-19 15:17:05.317
55.0, -56.26679611206055, -93.75181579589844, 50.80841064453125, 155.35169982910156, -0.08000000566244125, 0.0, 1.055999994277954, 0.0, 0.0, 0.0, 0.0, 0.0, 1.621430225317413E9, 2021-05-19 15:17:05.317
56.0, -55.79182815551758, -79.58132934570312, 55.793697357177734, 164.25267028808594, -0.08000000566244125, 0.0, 1.055999994277954, 0.0, 0.0, 0.0, 0.0, 0.0, 1.6214302253331308E9, 2021-05-19 15:17:05.333
56.0, -43.58479309082031, -64.30384063720703, 69.74352264404297, 178.66624450683594, -0.08000000566244125, 0.0, 1.055999994277954, 0.0, 0.0, 0.0, 0.0, 0.0, 1.6214302253331308E9, 2021-05-19 15:17:05.333
57.0, -47.38827133178711, -76.50713348388672, 66.78526306152344, 167.4128875732422, -0.08000000566244125, 0.0, 1.055999994277954, 0.0, 0.0, 0.0, 0.0, 0.0, 1.6214302253339128E9, 2021-05-19 15:17:05.333
57.0, -61.68217086791992, -97.81334686279297, 56.39956283569336, 155.52748107910156, -0.08000000566244125, 0.0, 1.055999994277954, 0.0, 0.0, 0.0, 0.0, 0.0, 1.6214302253339128E9, 2021-05-19 15:17:05.333
58.0, -68.50000762939453, -83.4296875, 55.752559661865234, 164.97821044921875, -0.08000000566244125, 0.0, 1.055999994277954, 0.0, 0.0, 0.0, 0.0, 0.0, 1.621430225347403E9, 2021-05-19 15:17:05.347
58.0, -35.11017990112305, -66.88063049316406, 68.19520568847656, 177.3759765625, -0.08000000566244125, 0.0, 1.055999994277954, 0.0, 0.0, 0.0, 0.0, 0.0, 1.621430225347403E9, 2021-05-19 15:17:05.347
59.0, -61.62981033325195, -94.29035949707031, 67.27519226074219, 168.95372009277344, -0.08000000566244125, 0.0, 1.055999994277954, 0.0, 0.0, 0.0, 0.0, 0.0, 1.6214302253631248E9, 2021-05-19 15:17:05.363
59.0, -69.6743392944336, -107.9185562133789, 52.65217971801758, 147.4492950439453, -0.08000000566244125, 0.0, 1.055999994277954, 0.0, 0.0, 0.0, 0.0, 0.0, 1.6214302253631248E9, 2021-05-19 15:17:05.363
60.0, -60.2946662902832, -94.34272003173828, 57.229820251464844, 159.28607177734375, -0.08000000566244125, 0.0, 1.040000081062317, 0.0, 0.0, 0.0, 0.0, 0.0, 1.6214302253639126E9, 2021-05-19 15:17:05.363
60.0, -48.82439422607422, -79.44295501708984, 62.37592315673828, 171.00692749023438, -0.08000000566244125, 0.0, 1.040000081062317, 0.0, 0.0, 0.0, 0.0, 0.0, 1.6214302253639126E9, 2021-05-19 15:17:05.363
61.0, -48.38682556152344, -90.11663055419922, 63.44927215576172, 170.78253173828125, -0.08000000566244125, -0.01600000075995922, 1.040000081062317, 0.0, 0.0, 0.0, 0.0, 0.0, 1.6214302253774083E9, 2021-05-19 15:17:05.377
61.0, -49.04130935668945, -103.86824035644531, 55.991912841796875, 158.7288360595703, -0.08000000566244125, -0.01600000075995922, 1.040000081062317, 0.0, 0.0, 0.0, 0.0, 0.0, 1.6214302253774083E9, 2021-05-19 15:17:05.377
62.0, -45.8997917175293, -94.79898071289062, 62.196407318115234, 168.20948791503906, -0.09600000083446503, -0.01600000075995922, 1.040000081062317, 0.0, 0.0, 0.0, 0.0, 0.0, 1.62143022539356E9, 2021-05-19 15:17:05.393
62.0, -48.132511138916016, -82.7265853881836, 66.91242218017578, 173.9427490234375, -0.09600000083446503, -0.01600000075995922, 1.040000081062317, 0.0, 0.0, 0.0, 0.0, 0.0, 1.62143022539356E9, 2021-05-19 15:17:05.393
63.0, -43.88398742675781, -96.6165771484375, 67.6192626953125, 169.05844116210938, -0.09600000083446503, -0.01600000075995922, 1.040000081062317, 0.0, 0.0, 0.0, 0.0, 0.0, 1.6214302254543526E9, 2021-05-19 15:17:05.454
63.0, -57.972190856933594, -103.00432586669922, 55.071895599365234, 161.66465759277344, -0.09600000083446503, -0.01600000075995922, 1.040000081062317, 0.0, 0.0, 0.0, 0.0, 0.0, 1.6214302254543526E9, 2021-05-19 15:17:05.454
64.0, -62.994873046875, -84.18515014648438, 57.184940338134766, 164.88096618652344, -0.09600000083446503, -0.01600000075995922, 1.040000081062317, 0.0, 0.0, 0.0, 0.0, 0.0, 1.6214302254550436E9, 2021-05-19 15:17:05.455
64.0, -43.85032653808594, -65.55296325683594, 72.5372314453125, 178.87567138671875, -0.09600000083446503, -0.01600000075995922, 1.040000081062317, 0.0, 0.0, 0.0, 0.0, 0.0, 1.6214302254550436E9, 2021-05-19 15:17:05.455
65.0, -53.757320404052734, -84.79475402832031, 62.14030838012695, 165.91317749023438, -0.09600000083446503, -0.01600000075995922, 1.040000081062317, 0.0, 0.0, 0.0, 0.0, 0.0, 1.6214302254557643E9, 2021-05-19 15:17:05.455
65.0, -69.32278442382812, -97.13268280029297, 52.741939544677734, 155.44894409179688, -0.09600000083446503, -0.01600000075995922, 1.040000081062317, 0.0, 0.0, 0.0, 0.0, 0.0, 1.6214302254557643E9, 2021-05-19 15:17:05.455
66.0, -53.45064926147461, -89.40230560302734, 52.76811981201172, 166.260986328125, -0.09600000083446503, -0.01600000075995922, 1.040000081062317, 0.0, 0.0, 0.0, 0.0, 0.0, 1.6214302254678018E9, 2021-05-19 15:17:05.467
66.0, -50.275474548339844, -73.04024505615234, 62.06924819946289, 177.30865478515625, -0.09600000083446503, -0.01600000075995922, 1.040000081062317, 0.0, 0.0, 0.0, 0.0, 0.0, 1.6214302254678018E9, 2021-05-19 15:17:05.467
67.0, -54.75961685180664, -86.39168548583984, 58.66593933105469, 163.09703063964844, -0.09600000083446503, -0.01600000075995922, 1.040000081062317, 0.0, 0.0, 0.0, 0.0, 0.0, 1.6214302255141811E9, 2021-05-19 15:17:05.514
67.0, -54.437984466552734, -103.67002868652344, 51.84062194824219, 157.43109130859375, -0.09600000083446503, -0.01600000075995922, 1.040000081062317, 0.0, 0.0, 0.0, 0.0, 0.0, 1.6214302255141811E9, 2021-05-19 15:17:05.514
68.0, -59.389610290527344, -90.67013549804688, 47.41632080078125, 160.7595977783203, -0.09600000083446503, -0.01600000075995922, 1.040000081062317, 0.0, 0.0, 0.0, 0.0, 0.0, 1.621430225514982E9, 2021-05-19 15:17:05.514
68.0, -45.28644943237305, -75.89005279541016, 56.141510009765625, 175.0086212158203, -0.09600000083446503, -0.01600000075995922, 1.040000081062317, 0.0, 0.0, 0.0, 0.0, 0.0, 1.621430225514982E9, 2021-05-19 15:17:05.514
69.0, -50.092220306396484, -88.59822845458984, 61.75883865356445, 171.63148498535156, -0.09600000083446503, -0.01600000075995922, 1.040000081062317, 0.0, 0.0, 0.0, 0.0, 0.0, 1.621430225515666E9, 2021-05-19 15:17:05.515
69.0, -53.764801025390625, -107.11821746826172, 56.45191955566406, 153.9342803955078, -0.09600000083446503, -0.01600000075995922, 1.040000081062317, 0.0, 0.0, 0.0, 0.0, 0.0, 1.621430225515666E9, 2021-05-19 15:17:05.515
70.0, -63.320247650146484, -99.81419372558594, 46.04751968383789, 147.87564086914062, -0.09600000083446503, -0.01600000075995922, 1.055999994277954, 0.0, 0.0, 0.0, 0.0, 0.0, 1.6214302255457935E9, 2021-05-19 15:17:05.545
70.0, -46.77866744995117, -77.17283630371094, 54.750267028808594, 169.61941528320312, -0.09600000083446503, -0.01600000075995922, 1.055999994277954, 0.0, 0.0, 0.0, 0.0, 0.0, 1.6214302255457935E9, 2021-05-19 15:17:05.545
71.0, -39.90847396850586, -84.39458465576172, 60.06466293334961, 164.41722106933594, -0.09600000083446503, -0.01600000075995922, 1.055999994277954, 0.0, 0.0, 0.0, 0.0, 0.0, 1.6214302255465417E9, 2021-05-19 15:17:05.546
71.0, -66.6263198852539, -98.72213745117188, 44.057891845703125, 150.77780151367188, -0.09600000083446503, -0.01600000075995922, 1.055999994277954, 0.0, 0.0, 0.0, 0.0, 0.0, 1.6214302255465417E9, 2021-05-19 15:17:05.546
72.0, -54.08269500732422, -87.17707061767578, 54.365055084228516, 163.35508728027344, -0.09600000083446503, -0.01600000075995922, 1.055999994277954, 0.0, 0.0, 0.0, 0.0, 0.0, 1.6214302255472825E9, 2021-05-19 15:17:05.547
72.0, -50.90751647949219, -74.78304290771484, 64.60490417480469, 174.6234130859375, -0.09600000083446503, -0.01600000075995922, 1.055999994277954, 0.0, 0.0, 0.0, 0.0, 0.0, 1.6214302255472825E9, 2021-05-19 15:17:05.547
73.0, -53.40951156616211, -85.17622375488281, 67.12559509277344, 159.63014221191406, -0.09600000083446503, -0.01600000075995922, 1.055999994277954, 0.0, 0.0, 0.0, 0.0, 0.0, 1.621430225548038E9, 2021-05-19 15:17:05.548
73.0, -58.353660583496094, -100.66688537597656, 55.651580810546875, 154.7383575439453, -0.09600000083446503, -0.01600000075995922, 1.055999994277954, 0.0, 0.0, 0.0, 0.0, 0.0, 1.621430225548038E9, 2021-05-19 15:17:05.548
76.0, -65.96809387207031, -92.59244537353516, 50.311004638671875, 158.75875854492188, -0.09600000083446503, -0.01600000075995922, 1.055999994277954, 0.0, 0.0, 0.0, 0.0, 0.0, 1.6214302255608578E9, 2021-05-19 15:17:05.560
76.0, -51.378746032714844, -82.3039779663086, 67.9820327758789, 177.98184204101562, -0.09600000083446503, -0.01600000075995922, 1.055999994277954, 0.0, 0.0, 0.0, 0.0, 0.0, 1.6214302255608578E9, 2021-05-19 15:17:05.560
77.0, -45.264007568359375, -90.12784576416016, 72.94487762451172, 173.20973205566406, -0.09600000083446503, -0.01600000075995922, 1.055999994277954, 0.0, 0.0, 0.0, 0.0, 0.0, 1.621430225561545E9, 2021-05-19 15:17:05.561
77.0, -66.6225814819336, -103.25115966796875, 58.5986213684082, 160.34446716308594, -0.09600000083446503, -0.01600000075995922, 1.055999994277954, 0.0, 0.0, 0.0, 0.0, 0.0, 1.621430225561545E9, 2021-05-19 15:17:05.561
78.0, -41.161338806152344, -78.35838317871094, 60.203041076660156, 173.06387329101562, -0.09600000083446503, -0.01600000075995922, 1.055999994277954, 0.0, 0.0, 0.0, 0.0, 0.0, 1.6214302255623968E9, 2021-05-19 15:17:05.562
78.0, -67.407958984375, -72.11274719238281, 64.68344116210938, 180.84286499023438, -0.09600000083446503, -0.01600000075995922, 1.055999994277954, 0.0, 0.0, 0.0, 0.0, 0.0, 1.6214302255623968E9, 2021-05-19 15:17:05.562
79.0, -59.28489303588867, -82.2254409790039, 66.2354965209961, 170.8348846435547, -0.09600000083446503, -0.01600000075995922, 1.055999994277954, 0.0, 0.0, 0.0, 0.0, 0.0, 1.6214302255630493E9, 2021-05-19 15:17:05.563
79.0, -63.234230041503906, -97.62635040283203, 53.538536071777344, 162.34906005859375, -0.09600000083446503, -0.01600000075995922, 1.055999994277954, 0.0, 0.0, 0.0, 0.0, 0.0, 1.6214302255630493E9, 2021-05-19 15:17:05.563
80.0, -63.312767028808594, -91.73600769042969, 56.71745300292969, 168.33663940429688, -0.09600000083446503, -0.01600000075995922, 1.055999994277954, 0.0, 0.0, 0.0, 0.0, 0.0, 1.621430225573181E9, 2021-05-19 15:17:05.573
80.0, -47.77348327636719, -84.0505142211914, 70.97021484375, 183.81234741210938, -0.09600000083446503, -0.01600000075995922, 1.055999994277954, 0.0, 0.0, 0.0, 0.0, 0.0, 1.621430225573181E9, 2021-05-19 15:17:05.573
81.0, -48.11381149291992, -76.04338836669922, 71.97998809814453, 180.65960693359375, -0.09600000083446503, -0.01600000075995922, 1.055999994277954, 0.0, 0.0, 0.0, 0.0, 0.0, 1.6214302255738294E9, 2021-05-19 15:17:05.573
81.0, -72.41942596435547, -93.688232421875, 49.14789581298828, 161.08497619628906, -0.09600000083446503, -0.01600000075995922, 1.055999994277954, 0.0, 0.0, 0.0, 0.0, 0.0, 1.6214302255738294E9, 2021-05-19 15:17:05.573
82.0, -56.9025764465332, -79.6561279296875, 56.93436813354492, 170.15048217773438, -0.09600000083446503, -0.01600000075995922, 1.055999994277954, 0.0, 0.0, 0.0, 0.0, 0.0, 1.6214302256044643E9, 2021-05-19 15:17:05.604
82.0, -64.7376708984375, -69.18441009521484, 68.59163665771484, 180.4239959716797, -0.09600000083446503, -0.01600000075995922, 1.055999994277954, 0.0, 0.0, 0.0, 0.0, 0.0, 1.6214302256044643E9, 2021-05-19 15:17:05.604
83.0, -63.61943817138672, -76.222900390625, 67.3387680053711, 175.49105834960938, -0.09600000083446503, -0.01600000075995922, 1.055999994277954, 0.0, 0.0, 0.0, 0.0, 0.0, 1.6214302256052926E9, 2021-05-19 15:17:05.605
83.0, -67.35933685302734, -92.04267883300781, 52.43526840209961, 155.47512817382812, -0.09600000083446503, -0.01600000075995922, 1.055999994277954, 0.0, 0.0, 0.0, 0.0, 0.0, 1.6214302256052926E9, 2021-05-19 15:17:05.605
84.0, -71.0244369506836, -79.95906066894531, 61.33622741699219, 165.43821716308594, -0.09600000083446503, -0.01600000075995922, 1.055999994277954, 0.0, 0.0, 0.0, 0.0, 0.0, 1.6214302256060047E9, 2021-05-19 15:17:05.606
84.0, -51.79387283325195, -65.9232177734375, 74.09302520751953, 184.19381713867188, -0.09600000083446503, -0.01600000075995922, 1.055999994277954, 0.0, 0.0, 0.0, 0.0, 0.0, 1.6214302256060047E9, 2021-05-19 15:17:05.606
85.0, -53.813419342041016, -82.40869903564453, 66.78900146484375, 175.685546875, -0.09600000083446503, -0.01600000075995922, 1.055999994277954, 0.0, 0.0, 0.0, 0.0, 0.0, 1.6214302256174393E9, 2021-05-19 15:17:05.617
85.0, -69.80522918701172, -98.1611557006836, 59.7018928527832, 165.34471130371094, -0.09600000083446503, -0.01600000075995922, 1.055999994277954, 0.0, 0.0, 0.0, 0.0, 0.0, 1.6214302256174393E9, 2021-05-19 15:17:05.617
86.0, -69.58457946777344, -89.63043975830078, 63.183738708496094, 170.74513244628906, -0.09600000083446503, -0.01600000075995922, 1.055999994277954, 0.0, 0.0, 0.0, 0.0, 0.0, 1.621430225633161E9, 2021-05-19 15:17:05.633
86.0, -56.03118133544922, -76.61933135986328, 71.58729553222656, 183.0942840576172, -0.09600000083446503, -0.01600000075995922, 1.055999994277954, 0.0, 0.0, 0.0, 0.0, 0.0, 1.621430225633161E9, 2021-05-19 15:17:05.633
87.0, -56.96989440917969, -81.63827514648438, 67.46966552734375, 180.52496337890625, -0.09600000083446503, -0.01600000075995922, 1.055999994277954, 0.0, 0.0, 0.0, 0.0, 0.0, 1.6214302256338737E9, 2021-05-19 15:17:05.633
87.0, -67.20600128173828, -99.73939514160156, 53.28422546386719, 161.1410675048828, -0.09600000083446503, -0.01600000075995922, 1.055999994277954, 0.0, 0.0, 0.0, 0.0, 0.0, 1.6214302256338737E9, 2021-05-19 15:17:05.633
88.0, -69.19562530517578, -85.34077453613281, 58.68838119506836, 169.81015014648438, -0.09600000083446503, -0.01600000075995922, 1.055999994277954, 0.0, 0.0, 0.0, 0.0, 0.0, 1.621430225647411E9, 2021-05-19 15:17:05.647
88.0, -52.55307388305664, -67.45657348632812, 66.73664855957031, 183.2775421142578, -0.09600000083446503, -0.01600000075995922, 1.055999994277954, 0.0, 0.0, 0.0, 0.0, 0.0, 1.621430225647411E9, 2021-05-19 15:17:05.647
89.0, -63.2529296875, -82.85748291015625, 60.087100982666016, 174.9076385498047, -0.09600000083446503, -0.01600000075995922, 1.055999994277954, 0.0, 0.0, 0.0, 0.0, 0.0, 1.621430225663725E9, 2021-05-19 15:17:05.663
89.0, -65.91947937011719, -94.3090591430664, 54.896121978759766, 162.80906677246094, -0.09600000083446503, -0.01600000075995922, 1.055999994277954, 0.0, 0.0, 0.0, 0.0, 0.0, 1.621430225663725E9, 2021-05-19 15:17:05.663
90.0, -70.35499572753906, -83.47830963134766, 52.8354377746582, 165.8533477783203, -0.09600000083446503, -0.01600000075995922, 1.055999994277954, 0.0, 0.0, 0.0, 0.0, 0.0, 1.6214302256644464E9, 2021-05-19 15:17:05.664
90.0, -51.49468231201172, -60.687355041503906, 69.33213806152344, 183.6552734375, -0.09600000083446503, -0.01600000075995922, 1.055999994277954, 0.0, 0.0, 0.0, 0.0, 0.0, 1.6214302256644464E9, 2021-05-19 15:17:05.664
91.0, -58.05820846557617, -84.55913543701172, 59.54107666015625, 171.0966796875, -0.09600000083446503, -0.01600000075995922, 1.055999994277954, 0.0, 0.0, 0.0, 0.0, 0.0, 1.6214302256773753E9, 2021-05-19 15:17:05.677
91.0, -58.3760986328125, -94.03604125976562, 52.33055114746094, 164.98194885253906, -0.09600000083446503, -0.01600000075995922, 1.055999994277954, 0.0, 0.0, 0.0, 0.0, 0.0, 1.6214302256773753E9, 2021-05-19 15:17:05.677
92.0, -70.82996368408203, -87.162109375, 49.66026306152344, 166.81076049804688, -0.09600000083446503, -0.01600000075995922, 1.055999994277954, 0.0, 0.0, 0.0, 0.0, 0.0, 1.62143022571055E9, 2021-05-19 15:17:05.710
92.0, -56.113460540771484, -74.5923080444336, 64.15611267089844, 181.8339385986328, -0.09600000083446503, -0.01600000075995922, 1.055999994277954, 0.0, 0.0, 0.0, 0.0, 0.0, 1.62143022571055E9, 2021-05-19 15:17:05.710
93.0, -46.41215896606445, -78.60895538330078, 68.91326904296875, 178.9392547607422, -0.09600000083446503, -0.01600000075995922, 1.055999994277954, 0.0, 0.0, 0.0, 0.0, 0.0, 1.6214302257113025E9, 2021-05-19 15:17:05.711
93.0, -80.58736419677734, -98.5650634765625, 50.42320251464844, 158.75502014160156, -0.09600000083446503, -0.01600000075995922, 1.055999994277954, 0.0, 0.0, 0.0, 0.0, 0.0, 1.6214302257113025E9, 2021-05-19 15:17:05.711
94.0, -62.25437545776367, -85.213623046875, 57.76088333129883, 167.21841430664062, -0.09600000083446503, -0.01600000075995922, 1.055999994277954, 0.0, 0.0, 0.0, 0.0, 0.0, 1.6214302257120297E9, 2021-05-19 15:17:05.712
