Sample Index, EXG Channel 0, EXG Channel 1, EXG Channel 2, EXG Channel 3, Accel Channel 0, Accel Channel 1, Accel Channel 2, Other, Other, Other, Other, Other, Timestamp, Timestamp (Formatted)
0.0, -65.94752502441406, -47.57339859008789, 15.849696159362793, 174.3092498779297, 0.0, 0.0, 0.0, 0.0, 0.0, 0.0, 0.0, 0.0, 1.6214216850119643E9, 2021-05-19 12:54:45.011
1.0, -36.02458572387695, -39.386756896972656, 28.45315933227539, 190.97799682617188, 0.0, -0.09600000083446503, 0.0, 0.0, 0.0, 0.0, 0.0, 0.0, 1.6214216850253975E9, 2021-05-19 12:54:45.025
1.0, -47.1956672668457, -48.007225036621094, 25.83896827697754, 179.42918395996094, 0.0, -0.09600000083446503, 0.0, 0.0, 0.0, 0.0, 0.0, 0.0, 1.6214216850253975E9, 2021-05-19 12:54:45.025
2.0, -68.84220886230469, -70.59996032714844, 2.861023426055908, 171.80726623535156, -0.03200000151991844, -0.09600000083446503, 0.0, 0.0, 0.0, 0.0, 0.0, 0.0, 1.621421685042156E9, 2021-05-19 12:54:45.042
2.0, -49.62660217285156, -38.896827697753906, 14.421053886413574, 181.76287841796875, -0.03200000151991844, -0.09600000083446503, 0.0, 0.0, 0.0, 0.0, 0.0, 0.0, 1.621421685042156E9, 2021-05-19 12:54:45.042
3.0, -32.404361724853516, -27.808025360107422, 32.14070129394531, 201.0644989013672, -0.03200000151991844, -0.09600000083446503, 0.0, 0.0, 0.0, 0.0, 0.0, 0.0, 1.62142168504285E9, 2021-05-19 12:54:45.042
3.0, -51.414276123046875, -58.01145935058594, 22.424440383911133, 190.09912109375, -0.03200000151991844, -0.09600000083446503, 0.0, 0.0, 0.0, 0.0, 0.0, 0.0, 1.62142168504285E9, 2021-05-19 12:54:45.042
4.0, -72.46617126464844, -64.6273422241211, 3.9007155895233154, 174.58975219726562, -0.03200000151991844, -0.09600000083446503, 0.0, 0.0, 0.0, 0.0, 0.0, 0.0, 1.6214216850553088E9, 2021-05-19 12:54:45.055
4.0, -55.62166213989258, -50.153926849365234, 13.164447784423828, 185.45790100097656, -0.03200000151991844, -0.09600000083446503, 0.0, 0.0, 0.0, 0.0, 0.0, 0.0, 1.6214216850553088E9, 2021-05-19 12:54:45.055
5.0, -42.02338409423828, -36.66410827636719, 26.25035858154297, 198.28948974609375, -0.03200000151991844, -0.09600000083446503, 0.0, 0.0, 0.0, 0.0, 0.0, 0.0, 1.6214216850710316E9, 2021-05-19 12:54:45.071
5.0, -50.85702896118164, -49.23017120361328, 20.479692459106445, 191.88677978515625, -0.03200000151991844, -0.09600000083446503, 0.0, 0.0, 0.0, 0.0, 0.0, 0.0, 1.6214216850710316E9, 2021-05-19 12:54:45.071
6.0, -77.1148681640625, -69.2049789428711, 0.9050557613372803, 168.96493530273438, -0.03200000151991844, -0.09600000083446503, 0.0, 0.0, 0.0, 0.0, 0.0, 0.0, 1.621421685071712E9, 2021-05-19 12:54:45.071
6.0, -49.66026306152344, -45.18360137939453, 14.570650100708008, 188.93226623535156, -0.03200000151991844, -0.09600000083446503, 0.0, 0.0, 0.0, 0.0, 0.0, 0.0, 1.621421685071712E9, 2021-05-19 12:54:45.071
7.0, -38.36576461791992, -30.407257080078125, 21.657760620117188, 201.1617431640625, -0.03200000151991844, -0.09600000083446503, 0.0, 0.0, 0.0, 0.0, 0.0, 0.0, 1.6214216850852692E9, 2021-05-19 12:54:45.085
7.0, -49.682701110839844, -45.77824401855469, 17.872982025146484, 190.48806762695312, -0.03200000151991844, -0.09600000083446503, 0.0, 0.0, 0.0, 0.0, 0.0, 0.0, 1.6214216850852692E9, 2021-05-19 12:54:45.085
8.0, -76.00785827636719, -61.863555908203125, 8.205340385437012, 180.43894958496094, -0.03200000151991844, -0.09600000083446503, 0.0, 0.0, 0.0, 0.0, 0.0, 0.0, 1.6214216851009533E9, 2021-05-19 12:54:45.100
8.0, -61.538185119628906, -39.958961486816406, 10.71855354309082, 182.22288513183594, -0.03200000151991844, -0.09600000083446503, 0.0, 0.0, 0.0, 0.0, 0.0, 0.0, 1.6214216851009533E9, 2021-05-19 12:54:45.100
9.0, -46.24199295043945, -25.264894485473633, 21.601661682128906, 198.16981506347656, -0.03200000151991844, -0.09600000083446503, 0.0, 0.0, 0.0, 0.0, 0.0, 0.0, 1.6214216851016204E9, 2021-05-19 12:54:45.101
9.0, -58.26203155517578, -48.212921142578125, 18.082416534423828, 186.4078369140625, -0.03200000151991844, -0.09600000083446503, 0.0, 0.0, 0.0, 0.0, 0.0, 0.0, 1.6214216851016204E9, 2021-05-19 12:54:45.101
10.0, -68.07926940917969, -58.033897399902344, 5.946440696716309, 176.25775146484375, -0.03200000151991844, -0.09600000083446503, 1.040000081062317, 0.0, 0.0, 0.0, 0.0, 0.0, 1.6214216851152217E9, 2021-05-19 12:54:45.115
10.0, -60.240440368652344, -42.438514709472656, 5.935221195220947, 183.46078491210938, -0.03200000151991844, -0.09600000083446503, 1.040000081062317, 0.0, 0.0, 0.0, 0.0, 0.0, 1.6214216851152217E9, 2021-05-19 12:54:45.115
11.0, -38.65373611450195, -29.098291397094727, 20.973358154296875, 201.37864685058594, -0.03200000151991844, -0.08000000566244125, 1.040000081062317, 0.0, 0.0, 0.0, 0.0, 0.0, 1.6214216851308713E9, 2021-05-19 12:54:45.130
11.0, -57.91421890258789, -54.06586456298828, 12.450126647949219, 182.57443237304688, -0.03200000151991844, -0.08000000566244125, 1.040000081062317, 0.0, 0.0, 0.0, 0.0, 0.0, 1.6214216851308713E9, 2021-05-19 12:54:45.130
12.0, -73.67415618896484, -68.59537506103516, 5.0713043212890625, 174.24942016601562, -0.03200000151991844, -0.08000000566244125, 1.040000081062317, 0.0, 0.0, 0.0, 0.0, 0.0, 1.6214216851316435E9, 2021-05-19 12:54:45.131
12.0, -56.05923080444336, -42.38615798950195, 12.6146821975708, 185.76083374023438, -0.03200000151991844, -0.08000000566244125, 1.040000081062317, 0.0, 0.0, 0.0, 0.0, 0.0, 1.6214216851316435E9, 2021-05-19 12:54:45.131
13.0, -39.521392822265625, -33.07380676269531, 23.378114700317383, 199.923828125, -0.03200000151991844, -0.08000000566244125, 1.040000081062317, 0.0, 0.0, 0.0, 0.0, 0.0, 1.621421685145276E9, 2021-05-19 12:54:45.145
13.0, -59.80287170410156, -56.35468292236328, 15.430827140808105, 188.5732421875, -0.03200000151991844, -0.08000000566244125, 1.040000081062317, 0.0, 0.0, 0.0, 0.0, 0.0, 1.621421685145276E9, 2021-05-19 12:54:45.145
14.0, -69.73604583740234, -67.70902252197266, 9.013158798217773, 178.92430114746094, -0.03200000151991844, -0.08000000566244125, 1.040000081062317, 0.0, 0.0, 0.0, 0.0, 0.0, 1.621421685160874E9, 2021-05-19 12:54:45.160
14.0, -59.88888931274414, -34.3491096496582, 18.056236267089844, 195.1666717529297, -0.03200000151991844, -0.08000000566244125, 1.040000081062317, 0.0, 0.0, 0.0, 0.0, 0.0, 1.621421685160874E9, 2021-05-19 12:54:45.160
15.0, -43.32113265991211, -23.98210906982422, 29.54146957397461, 196.2886505126953, -0.03200000151991844, -0.08000000566244125, 1.040000081062317, 0.0, 0.0, 0.0, 0.0, 0.0, 1.6214216851615863E9, 2021-05-19 12:54:45.161
15.0, -57.59632873535156, -49.263832092285156, 21.04815673828125, 183.24014282226562, -0.03200000151991844, -0.08000000566244125, 1.040000081062317, 0.0, 0.0, 0.0, 0.0, 0.0, 1.6214216851615863E9, 2021-05-19 12:54:45.161
16.0, -79.0820541381836, -69.2087173461914, 6.851496696472168, 169.13323974609375, -0.03200000151991844, -0.08000000566244125, 1.040000081062317, 0.0, 0.0, 0.0, 0.0, 0.0, 1.6214216851753345E9, 2021-05-19 12:54:45.175
16.0, -56.788509368896484, -38.855690002441406, 12.906394958496094, 183.89462280273438, -0.03200000151991844, -0.08000000566244125, 1.040000081062317, 0.0, 0.0, 0.0, 0.0, 0.0, 1.6214216851753345E9, 2021-05-19 12:54:45.175
17.0, -39.59992980957031, -25.20879554748535, 31.755491256713867, 201.51702880859375, -0.03200000151991844, -0.08000000566244125, 1.040000081062317, 0.0, 0.0, 0.0, 0.0, 0.0, 1.6214216851908665E9, 2021-05-19 12:54:45.190
17.0, -54.67172622680664, -46.15971374511719, 24.8478946685791, 187.35028076171875, -0.03200000151991844, -0.08000000566244125, 1.040000081062317, 0.0, 0.0, 0.0, 0.0, 0.0, 1.6214216851908665E9, 2021-05-19 12:54:45.190
18.0, -73.21414947509766, -59.44384002685547, 16.979145050048828, 170.19911193847656, -0.03200000151991844, -0.08000000566244125, 1.040000081062317, 0.0, 0.0, 0.0, 0.0, 0.0, 1.621421685191592E9, 2021-05-19 12:54:45.191
18.0, -60.16189956665039, -32.12760925292969, 16.5266170501709, 183.6552734375, -0.03200000151991844, -0.08000000566244125, 1.040000081062317, 0.0, 0.0, 0.0, 0.0, 0.0, 1.621421685191592E9, 2021-05-19 12:54:45.191
19.0, -35.994667053222656, -32.871849060058594, 30.195951461791992, 192.5898895263672, -0.03200000151991844, -0.08000000566244125, 1.040000081062317, 0.0, 0.0, 0.0, 0.0, 0.0, 1.6214216852052903E9, 2021-05-19 12:54:45.205
19.0, -53.228126525878906, -50.41946029663086, 25.977344512939453, 181.88255310058594, -0.03200000151991844, -0.08000000566244125, 1.040000081062317, 0.0, 0.0, 0.0, 0.0, 0.0, 1.6214216852052903E9, 2021-05-19 12:54:45.205
20.0, -69.5677490234375, -64.38050842285156, 9.323570251464844, 171.1116485595703, -0.03200000151991844, -0.08000000566244125, 1.040000081062317, 0.0, 0.0, 0.0, 0.0, 0.0, 1.6214216852208695E9, 2021-05-19 12:54:45.220
20.0, -43.11917495727539, -39.255859375, 18.24323272705078, 187.716796875, -0.03200000151991844, -0.08000000566244125, 1.040000081062317, 0.0, 0.0, 0.0, 0.0, 0.0, 1.6214216852208695E9, 2021-05-19 12:54:45.220
21.0, -32.224849700927734, -29.468542098999023, 29.376914978027344, 199.6807403564453, -0.03200000151991844, -0.08000000566244125, 1.040000081062317, 0.0, 0.0, 0.0, 0.0, 0.0, 1.6214216852215898E9, 2021-05-19 12:54:45.221
21.0, -49.85847473144531, -56.90070724487305, 20.550750732421875, 189.22772216796875, -0.03200000151991844, -0.08000000566244125, 1.040000081062317, 0.0, 0.0, 0.0, 0.0, 0.0, 1.6214216852215898E9, 2021-05-19 12:54:45.221
22.0, -70.80939483642578, -67.49584197998047, 9.218852996826172, 174.64584350585938, -0.03200000151991844, -0.08000000566244125, 1.040000081062317, 0.0, 0.0, 0.0, 0.0, 0.0, 1.6214216852352135E9, 2021-05-19 12:54:45.235
22.0, -59.12594985961914, -44.88066864013672, 17.540130615234375, 183.93202209472656, -0.03200000151991844, -0.08000000566244125, 1.040000081062317, 0.0, 0.0, 0.0, 0.0, 0.0, 1.6214216852352135E9, 2021-05-19 12:54:45.235
23.0, -37.10541915893555, -35.897430419921875, 31.127187728881836, 203.12518310546875, -0.03200000151991844, -0.08000000566244125, 1.040000081062317, 0.0, 0.0, 0.0, 0.0, 0.0, 1.621421685250913E9, 2021-05-19 12:54:45.250
23.0, -56.85582733154297, -55.62914276123047, 20.704086303710938, 181.64694213867188, -0.03200000151991844, -0.08000000566244125, 1.040000081062317, 0.0, 0.0, 0.0, 0.0, 0.0, 1.621421685250913E9, 2021-05-19 12:54:45.250
24.0, -68.06804656982422, -61.556884765625, 9.136575698852539, 170.169189453125, -0.03200000151991844, -0.08000000566244125, 1.040000081062317, 0.0, 0.0, 0.0, 0.0, 0.0, 1.6214216852516568E9, 2021-05-19 12:54:45.251
24.0, -63.97285842895508, -39.424156188964844, 16.4854793548584, 181.37393188476562, -0.03200000151991844, -0.08000000566244125, 1.040000081062317, 0.0, 0.0, 0.0, 0.0, 0.0, 1.6214216852516568E9, 2021-05-19 12:54:45.251
25.0, -41.8438720703125, -33.37299728393555, 27.8585147857666, 190.97425842285156, -0.03200000151991844, -0.08000000566244125, 1.040000081062317, 0.0, 0.0, 0.0, 0.0, 0.0, 1.6214216852815957E9, 2021-05-19 12:54:45.281
25.0, -49.914573669433594, -53.568458557128906, 26.82256317138672, 187.118408203125, -0.03200000151991844, -0.08000000566244125, 1.040000081062317, 0.0, 0.0, 0.0, 0.0, 0.0, 1.6214216852815957E9, 2021-05-19 12:54:45.281
26.0, -68.61407470703125, -66.80022430419922, 15.883355140686035, 170.99571228027344, -0.03200000151991844, -0.08000000566244125, 1.040000081062317, 0.0, 0.0, 0.0, 0.0, 0.0, 1.621421685282323E9, 2021-05-19 12:54:45.282
26.0, -56.86330795288086, -49.14789581298828, 17.637367248535156, 180.94383239746094, -0.03200000151991844, -0.08000000566244125, 1.040000081062317, 0.0, 0.0, 0.0, 0.0, 0.0, 1.621421685282323E9, 2021-05-19 12:54:45.282
27.0, -21.416536331176758, -34.7193603515625, 36.85297393798828, 198.58868408203125, -0.03200000151991844, -0.08000000566244125, 1.040000081062317, 0.0, 0.0, 0.0, 0.0, 0.0, 1.6214216852831206E9, 2021-05-19 12:54:45.283
27.0, -53.355281829833984, -60.0609245300293, 24.548704147338867, 183.78990173339844, -0.03200000151991844, -0.08000000566244125, 1.040000081062317, 0.0, 0.0, 0.0, 0.0, 0.0, 1.6214216852831206E9, 2021-05-19 12:54:45.283
28.0, -67.18917083740234, -59.12220764160156, 10.984086036682129, 171.7324676513672, -0.03200000151991844, -0.08000000566244125, 1.040000081062317, 0.0, 0.0, 0.0, 0.0, 0.0, 1.6214216853116436E9, 2021-05-19 12:54:45.311
28.0, -47.674373626708984, -47.2368049621582, 16.395721435546875, 179.47779846191406, -0.03200000151991844, -0.08000000566244125, 1.040000081062317, 0.0, 0.0, 0.0, 0.0, 0.0, 1.6214216853116436E9, 2021-05-19 12:54:45.311
29.0, -24.098045349121094, -31.506786346435547, 30.94019317626953, 195.29010009765625, -0.03200000151991844, -0.08000000566244125, 1.040000081062317, 0.0, 0.0, 0.0, 0.0, 0.0, 1.621421685312301E9, 2021-05-19 12:54:45.312
29.0, -47.66315460205078, -54.451072692871094, 23.83812141418457, 184.95675659179688, -0.03200000151991844, -0.08000000566244125, 1.040000081062317, 0.0, 0.0, 0.0, 0.0, 0.0, 1.621421685312301E9, 2021-05-19 12:54:45.312
30.0, -66.98722076416016, -70.38678741455078, 5.280738830566406, 173.49021911621094, -0.03200000151991844, -0.08000000566244125, 1.055999994277954, 0.0, 0.0, 0.0, 0.0, 0.0, 1.6214216853130608E9, 2021-05-19 12:54:45.313
30.0, -43.74747848510742, -42.12062454223633, 20.479692459106445, 190.510498046875, -0.03200000151991844, -0.08000000566244125, 1.055999994277954, 0.0, 0.0, 0.0, 0.0, 0.0, 1.6214216853130608E9, 2021-05-19 12:54:45.313
31.0, -34.6894416809082, -27.374197006225586, 27.293790817260742, 204.4229278564453, -0.03200000151991844, -0.08000000566244125, 1.055999994277954, 0.0, 0.0, 0.0, 0.0, 0.0, 1.6214216853252778E9, 2021-05-19 12:54:45.325
31.0, -55.55060577392578, -52.63348388671875, 22.364601135253906, 189.2838134765625, -0.03200000151991844, -0.08000000566244125, 1.055999994277954, 0.0, 0.0, 0.0, 0.0, 0.0, 1.6214216853252778E9, 2021-05-19 12:54:45.325
32.0, -71.8565673828125, -63.295936584472656, 8.598030090332031, 176.448486328125, -0.03200000151991844, -0.08000000566244125, 1.055999994277954, 0.0, 0.0, 0.0, 0.0, 0.0, 1.621421685340916E9, 2021-05-19 12:54:45.340
32.0, -51.0290641784668, -41.45492172241211, 15.225132942199707, 191.08644104003906, -0.03200000151991844, -0.08000000566244125, 1.055999994277954, 0.0, 0.0, 0.0, 0.0, 0.0, 1.621421685340916E9, 2021-05-19 12:54:45.340
33.0, -36.278900146484375, -30.556852340698242, 31.31418228149414, 206.94735717773438, -0.03200000151991844, -0.08000000566244125, 1.055999994277954, 0.0, 0.0, 0.0, 0.0, 0.0, 1.621421685341736E9, 2021-05-19 12:54:45.341
33.0, -38.391944885253906, -46.331748962402344, 26.381254196166992, 192.15606689453125, -0.03200000151991844, -0.08000000566244125, 1.055999994277954, 0.0, 0.0, 0.0, 0.0, 0.0, 1.621421685341736E9, 2021-05-19 12:54:45.341
34.0, -78.52481079101562, -65.74557495117188, 4.790812015533447, 174.48129272460938, -0.03200000151991844, -0.08000000566244125, 1.055999994277954, 0.0, 0.0, 0.0, 0.0, 0.0, 1.6214216853723733E9, 2021-05-19 12:54:45.372
34.0, -56.646392822265625, -42.99201965332031, 15.973113059997559, 190.11781311035156, -0.03200000151991844, -0.08000000566244125, 1.055999994277954, 0.0, 0.0, 0.0, 0.0, 0.0, 1.6214216853723733E9, 2021-05-19 12:54:45.372
35.0, -37.561683654785156, -30.755067825317383, 26.830041885375977, 200.87750244140625, -0.03200000151991844, -0.08000000566244125, 1.055999994277954, 0.0, 0.0, 0.0, 0.0, 0.0, 1.6214216853730404E9, 2021-05-19 12:54:45.373
35.0, -51.58631134033203, -45.7408447265625, 17.323217391967773, 188.54331970214844, -0.03200000151991844, -0.08000000566244125, 1.055999994277954, 0.0, 0.0, 0.0, 0.0, 0.0, 1.6214216853730404E9, 2021-05-19 12:54:45.373
36.0, -63.1239013671875, -66.94982147216797, 9.24503231048584, 170.169189453125, -0.03200000151991844, -0.08000000566244125, 1.055999994277954, 0.0, 0.0, 0.0, 0.0, 0.0, 1.6214216853739164E9, 2021-05-19 12:54:45.373
36.0, -58.14235305786133, -30.64286994934082, 11.152381896972656, 184.01055908203125, -0.03200000151991844, -0.08000000566244125, 1.055999994277954, 0.0, 0.0, 0.0, 0.0, 0.0, 1.6214216853739164E9, 2021-05-19 12:54:45.373
37.0, -33.574951171875, -24.105525970458984, 29.26471710205078, 198.0725860595703, -0.03200000151991844, -0.08000000566244125, 1.055999994277954, 0.0, 0.0, 0.0, 0.0, 0.0, 1.6214216853853078E9, 2021-05-19 12:54:45.385
37.0, -49.62660217285156, -45.93906021118164, 24.795536041259766, 186.10116577148438, -0.03200000151991844, -0.08000000566244125, 1.055999994277954, 0.0, 0.0, 0.0, 0.0, 0.0, 1.6214216853853078E9, 2021-05-19 12:54:45.385
38.0, -71.8154296875, -67.35746765136719, 9.75739860534668, 167.2857208251953, -0.03200000151991844, -0.08000000566244125, 1.055999994277954, 0.0, 0.0, 0.0, 0.0, 0.0, 1.6214216854008777E9, 2021-05-19 12:54:45.400
38.0, -53.6395149230957, -37.756160736083984, 21.003278732299805, 190.0617218017578, -0.03200000151991844, -0.08000000566244125, 1.055999994277954, 0.0, 0.0, 0.0, 0.0, 0.0, 1.6214216854008777E9, 2021-05-19 12:54:45.400
39.0, -40.59474563598633, -24.887165069580078, 27.42094612121582, 191.55767822265625, -0.03200000151991844, -0.08000000566244125, 1.055999994277954, 0.0, 0.0, 0.0, 0.0, 0.0, 1.6214216854018247E9, 2021-05-19 12:54:45.401
39.0, -58.29943084716797, -59.20074462890625, 11.642308235168457, 185.50277709960938, -0.03200000151991844, -0.08000000566244125, 1.055999994277954, 0.0, 0.0, 0.0, 0.0, 0.0, 1.6214216854018247E9, 2021-05-19 12:54:45.401
40.0, -75.06914520263672, -74.71759033203125, 0.7778992056846619, 170.15423583984375, -0.03200000151991844, -0.08000000566244125, 1.055999994277954, 0.0, 0.0, 0.0, 0.0, 0.0, 1.6214216854152982E9, 2021-05-19 12:54:45.415
40.0, -60.1431999206543, -53.40016174316406, 1.2453867197036743, 176.35498046875, -0.03200000151991844, -0.08000000566244125, 1.055999994277954, 0.0, 0.0, 0.0, 0.0, 0.0, 1.6214216854152982E9, 2021-05-19 12:54:45.415
41.0, -34.42390823364258, -38.702354431152344, 14.379915237426758, 193.0124969482422, -0.03200000151991844, -0.09600000083446503, 1.055999994277954, 0.0, 0.0, 0.0, 0.0, 0.0, 1.621421685430912E9, 2021-05-19 12:54:45.430
41.0, -46.69826126098633, -64.29823303222656, 9.951873779296875, 180.2220458984375, -0.03200000151991844, -0.09600000083446503, 1.055999994277954, 0.0, 0.0, 0.0, 0.0, 0.0, 1.621421685430912E9, 2021-05-19 12:54:45.430
42.0, -58.22089385986328, -69.07034301757812, 4.809511184692383, 174.69821166992188, -0.03200000151991844, -0.09600000083446503, 1.055999994277954, 0.0, 0.0, 0.0, 0.0, 0.0, 1.6214216854316263E9, 2021-05-19 12:54:45.431
42.0, -35.523441314697266, -31.55540657043457, 18.007617950439453, 200.6418914794922, -0.03200000151991844, -0.09600000083446503, 1.055999994277954, 0.0, 0.0, 0.0, 0.0, 0.0, 1.6214216854316263E9, 2021-05-19 12:54:45.431
43.0, -30.298799514770508, -26.1624698638916, 29.9715576171875, 208.92950439453125, -0.03200000151991844, -0.09600000083446503, 1.055999994277954, 0.0, 0.0, 0.0, 0.0, 0.0, 1.6214216854452183E9, 2021-05-19 12:54:45.445
43.0, -44.9666862487793, -51.115081787109375, 17.22597885131836, 190.57781982421875, -0.03200000151991844, -0.09600000083446503, 1.055999994277954, 0.0, 0.0, 0.0, 0.0, 0.0, 1.6214216854452183E9, 2021-05-19 12:54:45.445
44.0, -66.97599792480469, -59.56351852416992, 6.772958755493164, 180.01634216308594, -0.03200000151991844, -0.09600000083446503, 1.055999994277954, 0.0, 0.0, 0.0, 0.0, 0.0, 1.6214216854922142E9, 2021-05-19 12:54:45.492
44.0, -48.38495635986328, -38.956668853759766, 11.61238956451416, 186.04132080078125, -0.03200000151991844, -0.09600000083446503, 1.055999994277954, 0.0, 0.0, 0.0, 0.0, 0.0, 1.6214216854922142E9, 2021-05-19 12:54:45.492
45.0, -36.83240509033203, -29.158130645751953, 24.75813865661621, 195.6827850341797, -0.03200000151991844, -0.09600000083446503, 1.055999994277954, 0.0, 0.0, 0.0, 0.0, 0.0, 1.621421685492826E9, 2021-05-19 12:54:45.492
45.0, -50.318485260009766, -53.10470962524414, 22.155166625976562, 182.79135131835938, -0.03200000151991844, -0.09600000083446503, 1.055999994277954, 0.0, 0.0, 0.0, 0.0, 0.0, 1.621421685492826E9, 2021-05-19 12:54:45.492
46.0, -69.21620178222656, -56.44818115234375, 11.459053039550781, 174.9487762451172, -0.03200000151991844, -0.09600000083446503, 1.055999994277954, 0.0, 0.0, 0.0, 0.0, 0.0, 1.6214216854935334E9, 2021-05-19 12:54:45.493
46.0, -55.29629135131836, -36.29759979248047, 15.70009994506836, 185.4242401123047, -0.03200000151991844, -0.09600000083446503, 1.055999994277954, 0.0, 0.0, 0.0, 0.0, 0.0, 1.6214216854935334E9, 2021-05-19 12:54:45.493
47.0, -39.229679107666016, -28.215675354003906, 28.490558624267578, 197.4330596923828, -0.03200000151991844, -0.09600000083446503, 1.055999994277954, 0.0, 0.0, 0.0, 0.0, 0.0, 1.621421685538098E9, 2021-05-19 12:54:45.538
47.0, -51.90793991088867, -52.53250503540039, 22.944286346435547, 188.79388427734375, -0.03200000151991844, -0.09600000083446503, 1.055999994277954, 0.0, 0.0, 0.0, 0.0, 0.0, 1.621421685538098E9, 2021-05-19 12:54:45.538
48.0, -69.31717681884766, -66.18688201904297, 13.598276138305664, 173.07882690429688, -0.03200000151991844, -0.09600000083446503, 1.055999994277954, 0.0, 0.0, 0.0, 0.0, 0.0, 1.6214216855388112E9, 2021-05-19 12:54:45.538
48.0, -47.70055389404297, -35.310264587402344, 15.95067310333252, 186.03758239746094, -0.03200000151991844, -0.09600000083446503, 1.055999994277954, 0.0, 0.0, 0.0, 0.0, 0.0, 1.6214216855388112E9, 2021-05-19 12:54:45.538
49.0, -30.055706024169922, -28.215675354003906, 31.501176834106445, 201.5880889892578, -0.03200000151991844, -0.09600000083446503, 1.055999994277954, 0.0, 0.0, 0.0, 0.0, 0.0, 1.621421685539421E9, 2021-05-19 12:54:45.539
49.0, -52.82795715332031, -51.51525115966797, 21.47824478149414, 189.35487365722656, -0.03200000151991844, -0.09600000083446503, 1.055999994277954, 0.0, 0.0, 0.0, 0.0, 0.0, 1.621421685539421E9, 2021-05-19 12:54:45.539
50.0, -54.70912551879883, -65.16214752197266, 16.429380416870117, 178.55030822753906, -0.03200000151991844, -0.09600000083446503, 1.055999994277954, 0.0, 0.0, 0.0, 0.0, 0.0, 1.6214216855402572E9, 2021-05-19 12:54:45.540
50.0, -55.2065315246582, -46.099876403808594, 19.114627838134766, 182.82501220703125, -0.03200000151991844, -0.09600000083446503, 1.055999994277954, 0.0, 0.0, 0.0, 0.0, 0.0, 1.6214216855402572E9, 2021-05-19 12:54:45.540
51.0, -38.68365478515625, -28.997314453125, 30.82799530029297, 197.87435913085938, -0.03200000151991844, -0.08000000566244125, 1.055999994277954, 0.0, 0.0, 0.0, 0.0, 0.0, 1.621421685552116E9, 2021-05-19 12:54:45.552
51.0, -53.20942687988281, -56.79973220825195, 20.337575912475586, 184.7921905517578, -0.03200000151991844, -0.08000000566244125, 1.055999994277954, 0.0, 0.0, 0.0, 0.0, 0.0, 1.621421685552116E9, 2021-05-19 12:54:45.552
52.0, -72.02860260009766, -60.203041076660156, 10.654974937438965, 170.74887084960938, -0.03200000151991844, -0.08000000566244125, 1.055999994277954, 0.0, 0.0, 0.0, 0.0, 0.0, 1.6214216855527532E9, 2021-05-19 12:54:45.552
52.0, -54.97092056274414, -37.35224914550781, 22.27110481262207, 186.42652893066406, -0.03200000151991844, -0.08000000566244125, 1.055999994277954, 0.0, 0.0, 0.0, 0.0, 0.0, 1.6214216855527532E9, 2021-05-19 12:54:45.552
53.0, -34.72310256958008, -27.766887664794922, 34.732452392578125, 199.57601928710938, -0.03200000151991844, -0.08000000566244125, 1.055999994277954, 0.0, 0.0, 0.0, 0.0, 0.0, 1.6214216855536554E9, 2021-05-19 12:54:45.553
53.0, -65.16588592529297, -56.10784912109375, 18.647140502929688, 185.2260284423828, -0.03200000151991844, -0.08000000566244125, 1.055999994277954, 0.0, 0.0, 0.0, 0.0, 0.0, 1.6214216855536554E9, 2021-05-19 12:54:45.553
54.0, -76.82315826416016, -60.59946823120117, 12.865256309509277, 177.78363037109375, -0.03200000151991844, -0.08000000566244125, 1.055999994277954, 0.0, 0.0, 0.0, 0.0, 0.0, 1.6214216855659409E9, 2021-05-19 12:54:45.565
54.0, -57.551448822021484, -38.33958435058594, 13.9236478805542, 188.16932678222656, -0.03200000151991844, -0.08000000566244125, 1.055999994277954, 0.0, 0.0, 0.0, 0.0, 0.0, 1.6214216855659409E9, 2021-05-19 12:54:45.565
55.0, -44.66001510620117, -27.340538024902344, 23.187379837036133, 200.3838348388672, -0.03200000151991844, -0.08000000566244125, 1.055999994277954, 0.0, 0.0, 0.0, 0.0, 0.0, 1.621421685566655E9, 2021-05-19 12:54:45.566
55.0, -60.49849319458008, -56.87078857421875, 18.467626571655273, 185.01658630371094, -0.03200000151991844, -0.08000000566244125, 1.055999994277954, 0.0, 0.0, 0.0, 0.0, 0.0, 1.621421685566655E9, 2021-05-19 12:54:45.566
56.0, -74.01822662353516, -58.25081253051758, 6.00253963470459, 171.75865173339844, -0.03200000151991844, -0.08000000566244125, 1.055999994277954, 0.0, 0.0, 0.0, 0.0, 0.0, 1.6214216855816357E9, 2021-05-19 12:54:45.581
56.0, -53.796592712402344, -40.460105895996094, 13.631935119628906, 182.83248901367188, -0.03200000151991844, -0.08000000566244125, 1.055999994277954, 0.0, 0.0, 0.0, 0.0, 0.0, 1.6214216855816357E9, 2021-05-19 12:54:45.581
57.0, -37.46070861816406, -24.685209274291992, 29.044063568115234, 200.63067626953125, -0.03200000151991844, -0.08000000566244125, 1.055999994277954, 0.0, 0.0, 0.0, 0.0, 0.0, 1.6214216855823324E9, 2021-05-19 12:54:45.582
57.0, -55.2065315246582, -51.878021240234375, 21.852235794067383, 184.25738525390625, -0.03200000151991844, -0.08000000566244125, 1.055999994277954, 0.0, 0.0, 0.0, 0.0, 0.0, 1.6214216855823324E9, 2021-05-19 12:54:45.582
58.0, -71.50127410888672, -59.72433090209961, 7.700454235076904, 171.71376037597656, -0.03200000151991844, -0.08000000566244125, 1.055999994277954, 0.0, 0.0, 0.0, 0.0, 0.0, 1.6214216856116302E9, 2021-05-19 12:54:45.611
58.0, -62.74617004394531, -44.345863342285156, 8.130542755126953, 182.86241149902344, -0.03200000151991844, -0.08000000566244125, 1.055999994277954, 0.0, 0.0, 0.0, 0.0, 0.0, 1.6214216856116302E9, 2021-05-19 12:54:45.611
59.0, -34.083580017089844, -26.360685348510742, 18.905193328857422, 196.67759704589844, -0.03200000151991844, -0.08000000566244125, 1.055999994277954, 0.0, 0.0, 0.0, 0.0, 0.0, 1.6214216856123672E9, 2021-05-19 12:54:45.612
59.0, -60.54711151123047, -56.42573928833008, 5.449034214019775, 184.4967498779297, -0.03200000151991844, -0.08000000566244125, 1.055999994277954, 0.0, 0.0, 0.0, 0.0, 0.0, 1.6214216856123672E9, 2021-05-19 12:54:45.612
60.0, -76.44542694091797, -66.80022430419922, -5.4789533615112305, 171.50807189941406, -0.03200000151991844, -0.08000000566244125, 1.040000081062317, 0.0, 0.0, 0.0, 0.0, 0.0, 1.6214216856131485E9, 2021-05-19 12:54:45.613
60.0, -53.538536071777344, -37.572906494140625, 10.490419387817383, 191.50906372070312, -0.03200000151991844, -0.08000000566244125, 1.040000081062317, 0.0, 0.0, 0.0, 0.0, 0.0, 1.6214216856131485E9, 2021-05-19 12:54:45.613
61.0, -41.626956939697266, -30.755067825317383, 24.586101531982422, 202.11541748046875, -0.03200000151991844, -0.09600000083446503, 1.040000081062317, 0.0, 0.0, 0.0, 0.0, 0.0, 1.6214216856251912E9, 2021-05-19 12:54:45.625
61.0, -61.71022033691406, -58.647239685058594, 13.381361961364746, 185.27464294433594, -0.03200000151991844, -0.09600000083446503, 1.040000081062317, 0.0, 0.0, 0.0, 0.0, 0.0, 1.6214216856251912E9, 2021-05-19 12:54:45.625
62.0, -75.14019775390625, -65.02377319335938, 7.857529640197754, 172.82826232910156, -0.03200000151991844, -0.09600000083446503, 1.040000081062317, 0.0, 0.0, 0.0, 0.0, 0.0, 1.621421685641679E9, 2021-05-19 12:54:45.641
62.0, -55.045719146728516, -38.616336822509766, 18.37038803100586, 183.37477111816406, -0.03200000151991844, -0.09600000083446503, 1.040000081062317, 0.0, 0.0, 0.0, 0.0, 0.0, 1.621421685641679E9, 2021-05-19 12:54:45.641
63.0, -38.21242904663086, -31.65264320373535, 27.144193649291992, 194.07089233398438, -0.03200000151991844, -0.09600000083446503, 1.040000081062317, 0.0, 0.0, 0.0, 0.0, 0.0, 1.6214216856423676E9, 2021-05-19 12:54:45.642
63.0, -54.174320220947266, -57.02786636352539, 21.680200576782227, 181.54595947265625, -0.03200000151991844, -0.09600000083446503, 1.040000081062317, 0.0, 0.0, 0.0, 0.0, 0.0, 1.6214216856423676E9, 2021-05-19 12:54:45.642
64.0, -74.95694732666016, -66.9198989868164, 8.044525146484375, 171.7362060546875, -0.03200000151991844, -0.09600000083446503, 1.040000081062317, 0.0, 0.0, 0.0, 0.0, 0.0, 1.621421685655301E9, 2021-05-19 12:54:45.655
64.0, -45.576290130615234, -42.77510452270508, 20.360015869140625, 186.93516540527344, -0.03200000151991844, -0.09600000083446503, 1.040000081062317, 0.0, 0.0, 0.0, 0.0, 0.0, 1.621421685655301E9, 2021-05-19 12:54:45.655
65.0, -43.18275451660156, -36.80622482299805, 25.10968780517578, 194.97593688964844, -0.03200000151991844, -0.09600000083446503, 1.040000081062317, 0.0, 0.0, 0.0, 0.0, 0.0, 1.6214216856709883E9, 2021-05-19 12:54:45.670
65.0, -50.77101135253906, -58.9389533996582, 16.522878646850586, 188.4348602294922, -0.03200000151991844, -0.09600000083446503, 1.040000081062317, 0.0, 0.0, 0.0, 0.0, 0.0, 1.6214216856709883E9, 2021-05-19 12:54:45.670
66.0, -75.3084945678711, -61.575584411621094, 4.457960605621338, 175.1245574951172, -0.03200000151991844, -0.09600000083446503, 1.040000081062317, 0.0, 0.0, 0.0, 0.0, 0.0, 1.621421685671629E9, 2021-05-19 12:54:45.671
66.0, -55.666542053222656, -44.487979888916016, 14.74642562866211, 194.14569091796875, -0.03200000151991844, -0.09600000083446503, 1.040000081062317, 0.0, 0.0, 0.0, 0.0, 0.0, 1.621421685671629E9, 2021-05-19 12:54:45.671
67.0, -43.478206634521484, -38.98658752441406, 21.4445858001709, 203.85072326660156, -0.03200000151991844, -0.09600000083446503, 1.040000081062317, 0.0, 0.0, 0.0, 0.0, 0.0, 1.621421685685327E9, 2021-05-19 12:54:45.685
67.0, -59.16334915161133, -53.51609802246094, 16.77345085144043, 191.64743041992188, -0.03200000151991844, -0.09600000083446503, 1.040000081062317, 0.0, 0.0, 0.0, 0.0, 0.0, 1.621421685685327E9, 2021-05-19 12:54:45.685
68.0, -72.95610046386719, -61.74013900756836, 0.1645555943250656, 175.5135040283203, -0.03200000151991844, -0.09600000083446503, 1.040000081062317, 0.0, 0.0, 0.0, 0.0, 0.0, 1.6214216857016313E9, 2021-05-19 12:54:45.701
68.0, -54.989620208740234, -37.07923889160156, 12.607202529907227, 190.0841522216797, -0.03200000151991844, -0.09600000083446503, 1.040000081062317, 0.0, 0.0, 0.0, 0.0, 0.0, 1.6214216857016313E9, 2021-05-19 12:54:45.701
69.0, -38.76219177246094, -32.01541519165039, 19.46617889404297, 193.56600952148438, -0.03200000151991844, -0.09600000083446503, 1.040000081062317, 0.0, 0.0, 0.0, 0.0, 0.0, 1.6214216857024643E9, 2021-05-19 12:54:45.702
69.0, -55.86101531982422, -58.02267837524414, 13.83014965057373, 186.35546875, -0.03200000151991844, -0.09600000083446503, 1.040000081062317, 0.0, 0.0, 0.0, 0.0, 0.0, 1.6214216857024643E9, 2021-05-19 12:54:45.702
70.0, -65.39775848388672, -63.673667907714844, 2.662808656692505, 172.364501953125, -0.03200000151991844, -0.09600000083446503, 1.040000081062317, 0.0, 0.0, 0.0, 0.0, 0.0, 1.6214216857152753E9, 2021-05-19 12:54:45.715
70.0, -53.69187545776367, -44.13642883300781, 9.57414436340332, 191.8344268798828, -0.03200000151991844, -0.09600000083446503, 1.040000081062317, 0.0, 0.0, 0.0, 0.0, 0.0, 1.6214216857152753E9, 2021-05-19 12:54:45.715
71.0, -31.29361343383789, -38.893089294433594, 26.175559997558594, 199.2581329345703, -0.03200000151991844, -0.09600000083446503, 1.040000081062317, 0.0, 0.0, 0.0, 0.0, 0.0, 1.621421685730885E9, 2021-05-19 12:54:45.730
71.0, -60.419952392578125, -55.92459487915039, 14.084463119506836, 185.9889678955078, -0.03200000151991844, -0.09600000083446503, 1.040000081062317, 0.0, 0.0, 0.0, 0.0, 0.0, 1.621421685730885E9, 2021-05-19 12:54:45.730
72.0, -60.58824920654297, -64.95271301269531, 2.6291496753692627, 169.51097106933594, -0.03200000151991844, -0.09600000083446503, 1.040000081062317, 0.0, 0.0, 0.0, 0.0, 0.0, 1.621421685731621E9, 2021-05-19 12:54:45.731
72.0, -59.806610107421875, -44.637577056884766, 7.532158374786377, 190.6451416015625, -0.03200000151991844, -0.09600000083446503, 1.040000081062317, 0.0, 0.0, 0.0, 0.0, 0.0, 1.621421685731621E9, 2021-05-19 12:54:45.731
73.0, -40.29555130004883, -26.5439395904541, 20.28521728515625, 201.1467742919922, -0.03200000151991844, -0.09600000083446503, 1.040000081062317, 0.0, 0.0, 0.0, 0.0, 0.0, 1.621421685745217E9, 2021-05-19 12:54:45.745
73.0, -58.82675552368164, -47.34526443481445, 16.107749938964844, 192.10369873046875, -0.03200000151991844, -0.09600000083446503, 1.040000081062317, 0.0, 0.0, 0.0, 0.0, 0.0, 1.621421685745217E9, 2021-05-19 12:54:45.745
74.0, -70.18482971191406, -60.03474426269531, 7.756552696228027, 184.0292510986328, -0.03200000151991844, -0.09600000083446503, 1.040000081062317, 0.0, 0.0, 0.0, 0.0, 0.0, 1.621421685760929E9, 2021-05-19 12:54:45.760
74.0, -51.15622329711914, -30.556852340698242, 18.048757553100586, 193.58843994140625, -0.03200000151991844, -0.09600000083446503, 1.040000081062317, 0.0, 0.0, 0.0, 0.0, 0.0, 1.621421685760929E9, 2021-05-19 12:54:45.760
75.0, -46.728179931640625, -30.20530128479004, 19.376420974731445, 196.68881225585938, -0.03200000151991844, -0.09600000083446503, 1.040000081062317, 0.0, 0.0, 0.0, 0.0, 0.0, 1.6214216857617576E9, 2021-05-19 12:54:45.761
75.0, -58.73699951171875, -52.42030715942383, 14.47341251373291, 189.0743865966797, -0.03200000151991844, -0.09600000083446503, 1.040000081062317, 0.0, 0.0, 0.0, 0.0, 0.0, 1.6214216857617576E9, 2021-05-19 12:54:45.761
76.0, -72.49609375, -58.96139144897461, 5.018945693969727, 183.32241821289062, -0.03200000151991844, -0.09600000083446503, 1.040000081062317, 0.0, 0.0, 0.0, 0.0, 0.0, 1.6214216857754068E9, 2021-05-19 12:54:45.775
76.0, -58.46772766113281, -34.3491096496582, 11.432873725891113, 185.96652221679688, -0.03200000151991844, -0.09600000083446503, 1.040000081062317, 0.0, 0.0, 0.0, 0.0, 0.0, 1.6214216857754068E9, 2021-05-19 12:54:45.775
77.0, -45.71466827392578, -30.97572135925293, 18.21331214904785, 196.93191528320312, -0.03200000151991844, -0.09600000083446503, 1.040000081062317, 0.0, 0.0, 0.0, 0.0, 0.0, 1.6214216857910864E9, 2021-05-19 12:54:45.791
77.0, -57.93666076660156, -53.55723571777344, 16.78093147277832, 184.4967498779297, -0.03200000151991844, -0.09600000083446503, 1.040000081062317, 0.0, 0.0, 0.0, 0.0, 0.0, 1.6214216857910864E9, 2021-05-19 12:54:45.791
78.0, -75.59272766113281, -53.09722900390625, 6.713120460510254, 176.1455535888672, -0.03200000151991844, -0.09600000083446503, 1.040000081062317, 0.0, 0.0, 0.0, 0.0, 0.0, 1.6214216857918217E9, 2021-05-19 12:54:45.791
78.0, -55.87223434448242, -35.841331481933594, 16.825809478759766, 192.2158966064453, -0.03200000151991844, -0.09600000083446503, 1.040000081062317, 0.0, 0.0, 0.0, 0.0, 0.0, 1.6214216857918217E9, 2021-05-19 12:54:45.791
79.0, -39.046424865722656, -39.274559020996094, 22.592735290527344, 202.6090850830078, -0.03200000151991844, -0.09600000083446503, 1.040000081062317, 0.0, 0.0, 0.0, 0.0, 0.0, 1.6214216858224783E9, 2021-05-19 12:54:45.822
79.0, -58.31064987182617, -53.91252899169922, 19.971065521240234, 188.05712890625, -0.03200000151991844, -0.09600000083446503, 1.040000081062317, 0.0, 0.0, 0.0, 0.0, 0.0, 1.6214216858224783E9, 2021-05-19 12:54:45.822
80.0, -75.30475616455078, -64.00651550292969, 7.614436149597168, 170.23651123046875, -0.03200000151991844, -0.09600000083446503, 1.040000081062317, 0.0, 0.0, 0.0, 0.0, 0.0, 1.621421685823141E9, 2021-05-19 12:54:45.823
80.0, -51.025325775146484, -43.27251434326172, 11.754505157470703, 192.20468139648438, -0.03200000151991844, -0.09600000083446503, 1.040000081062317, 0.0, 0.0, 0.0, 0.0, 0.0, 1.621421685823141E9, 2021-05-19 12:54:45.823
81.0, -38.44430160522461, -23.821292877197266, 25.34530258178711, 203.50291442871094, -0.03200000151991844, -0.08000000566244125, 1.040000081062317, 0.0, 0.0, 0.0, 0.0, 0.0, 1.6214216858238769E9, 2021-05-19 12:54:45.823
81.0, -63.03788375854492, -48.396175384521484, 14.656667709350586, 186.60604858398438, -0.03200000151991844, -0.08000000566244125, 1.040000081062317, 0.0, 0.0, 0.0, 0.0, 0.0, 1.6214216858238769E9, 2021-05-19 12:54:45.823
82.0, -68.35227966308594, -56.96802520751953, 7.210526943206787, 174.1970672607422, -0.03200000151991844, -0.08000000566244125, 1.040000081062317, 0.0, 0.0, 0.0, 0.0, 0.0, 1.6214216858352375E9, 2021-05-19 12:54:45.835
82.0, -60.44613265991211, -35.59449768066406, 10.26602554321289, 187.9374542236328, -0.03200000151991844, -0.08000000566244125, 1.040000081062317, 0.0, 0.0, 0.0, 0.0, 0.0, 1.6214216858352375E9, 2021-05-19 12:54:45.835
83.0, -42.049564361572266, -20.560100555419922, 28.04924964904785, 204.12747192382812, -0.03200000151991844, -0.08000000566244125, 1.040000081062317, 0.0, 0.0, 0.0, 0.0, 0.0, 1.6214216858510697E9, 2021-05-19 12:54:45.851
83.0, -60.087100982666016, -52.82421875, 14.525771141052246, 187.1745147705078, -0.03200000151991844, -0.08000000566244125, 1.040000081062317, 0.0, 0.0, 0.0, 0.0, 0.0, 1.6214216858510697E9, 2021-05-19 12:54:45.851
84.0, -71.10858917236328, -58.11991500854492, 4.222347259521484, 173.07882690429688, -0.03200000151991844, -0.08000000566244125, 1.040000081062317, 0.0, 0.0, 0.0, 0.0, 0.0, 1.6214216858516676E9, 2021-05-19 12:54:45.851
84.0, -59.66823196411133, -31.80971908569336, 5.766925811767578, 188.59567260742188, -0.03200000151991844, -0.08000000566244125, 1.040000081062317, 0.0, 0.0, 0.0, 0.0, 0.0, 1.6214216858516676E9, 2021-05-19 12:54:45.851
85.0, -42.27021789550781, -37.20639419555664, 19.462438583374023, 189.5044708251953, -0.03200000151991844, -0.08000000566244125, 1.040000081062317, 0.0, 0.0, 0.0, 0.0, 0.0, 1.6214216858652296E9, 2021-05-19 12:54:45.865
85.0, -60.621910095214844, -40.0599365234375, 11.096282958984375, 183.49818420410156, -0.03200000151991844, -0.08000000566244125, 1.040000081062317, 0.0, 0.0, 0.0, 0.0, 0.0, 1.6214216858652296E9, 2021-05-19 12:54:45.865
86.0, -61.50826644897461, -65.19206237792969, 4.779592037200928, 172.34580993652344, -0.03200000151991844, -0.08000000566244125, 1.040000081062317, 0.0, 0.0, 0.0, 0.0, 0.0, 1.6214216858809505E9, 2021-05-19 12:54:45.880
86.0, -60.513450622558594, -31.488088607788086, 14.600569725036621, 186.8267059326172, -0.03200000151991844, -0.08000000566244125, 1.040000081062317, 0.0, 0.0, 0.0, 0.0, 0.0, 1.6214216858809505E9, 2021-05-19 12:54:45.880
87.0, -37.63274383544922, -22.085979461669922, 28.352182388305664, 196.4943389892578, -0.03200000151991844, -0.08000000566244125, 1.040000081062317, 0.0, 0.0, 0.0, 0.0, 0.0, 1.6214216858817313E9, 2021-05-19 12:54:45.881
87.0, -50.15766906738281, -54.34261703491211, 22.7236328125, 181.09716796875, -0.03200000151991844, -0.08000000566244125, 1.040000081062317, 0.0, 0.0, 0.0, 0.0, 0.0, 1.6214216858817313E9, 2021-05-19 12:54:45.881
88.0, -72.8775634765625, -60.25913619995117, 7.786471843719482, 171.59408569335938, -0.03200000151991844, -0.08000000566244125, 1.040000081062317, 0.0, 0.0, 0.0, 0.0, 0.0, 1.621421685895235E9, 2021-05-19 12:54:45.895
88.0, -54.91856002807617, -38.193729400634766, 10.954167366027832, 191.41555786132812, -0.03200000151991844, -0.08000000566244125, 1.040000081062317, 0.0, 0.0, 0.0, 0.0, 0.0, 1.621421685895235E9, 2021-05-19 12:54:45.895
89.0, -36.39109802246094, -29.868711471557617, 23.73340606689453, 195.06570434570312, -0.03200000151991844, -0.08000000566244125, 1.040000081062317, 0.0, 0.0, 0.0, 0.0, 0.0, 1.6214216859116375E9, 2021-05-19 12:54:45.911
89.0, -58.46024703979492, -55.42344665527344, 11.227179527282715, 185.87677001953125, -0.03200000151991844, -0.08000000566244125, 1.040000081062317, 0.0, 0.0, 0.0, 0.0, 0.0, 1.6214216859116375E9, 2021-05-19 12:54:45.911
90.0, -68.60285186767578, -58.950172424316406, 4.379422664642334, 173.4266357421875, -0.03200000151991844, -0.08000000566244125, 1.040000081062317, 0.0, 0.0, 0.0, 0.0, 0.0, 1.6214216859123552E9, 2021-05-19 12:54:45.912
90.0, -46.51500701904297, -52.607303619384766, 11.043924331665039, 184.99789428710938, -0.03200000151991844, -0.08000000566244125, 1.040000081062317, 0.0, 0.0, 0.0, 0.0, 0.0, 1.6214216859123552E9, 2021-05-19 12:54:45.912
91.0, -32.512821197509766, -30.98320198059082, 23.348196029663086, 199.0000762939453, -0.03200000151991844, -0.08000000566244125, 1.040000081062317, 0.0, 0.0, 0.0, 0.0, 0.0, 1.6214216859253435E9, 2021-05-19 12:54:45.925
91.0, -54.451072692871094, -48.736507415771484, 7.584517002105713, 183.49818420410156, -0.03200000151991844, -0.08000000566244125, 1.040000081062317, 0.0, 0.0, 0.0, 0.0, 0.0, 1.6214216859253435E9, 2021-05-19 12:54:45.925
92.0, -71.86404418945312, -51.53021240234375, 1.290265440940857, 173.16859436035156, -0.03200000151991844, -0.08000000566244125, 1.040000081062317, 0.0, 0.0, 0.0, 0.0, 0.0, 1.6214216859407227E9, 2021-05-19 12:54:45.940
92.0, -45.96897888183594, -33.260799407958984, 12.32671070098877, 190.6900177001953, -0.03200000151991844, -0.08000000566244125, 1.040000081062317, 0.0, 0.0, 0.0, 0.0, 0.0, 1.6214216859407227E9, 2021-05-19 12:54:45.940
93.0, -48.785125732421875, -31.03182029724121, 25.012451171875, 200.13327026367188, -0.03200000151991844, -0.08000000566244125, 1.040000081062317, 0.0, 0.0, 0.0, 0.0, 0.0, 1.6214216859560256E9, 2021-05-19 12:54:45.956
93.0, -54.12944030761719, -50.13896942138672, 7.285325050354004, 189.30252075195312, -0.03200000151991844, -0.08000000566244125, 1.040000081062317, 0.0, 0.0, 0.0, 0.0, 0.0, 1.6214216859560256E9, 2021-05-19 12:54:45.956
94.0, -75.86199951171875, -65.54735565185547, -3.3808696269989014, 170.17666625976562, -0.03200000151991844, -0.08000000566244125, 1.040000081062317, 0.0, 0.0, 0.0, 0.0, 0.0, 1.621421685956777E9, 2021-05-19 12:54:45.956
94.0, -65.55109405517578, -37.670143127441406, 2.9807002544403076, 188.44981384277344, -0.03200000151991844, -0.08000000566244125, 1.040000081062317, 0.0, 0.0, 0.0, 0.0, 0.0, 1.621421685956777E9, 2021-05-19 12:54:45.956
95.0, -41.53719711303711, -37.980552673339844, 19.795289993286133, 208.7761688232422, -0.03200000151991844, -0.08000000566244125, 1.040000081062317, 0.0, 0.0, 0.0, 0.0, 0.0, 1.6214216859709384E9, 2021-05-19 12:54:45.970
95.0, -58.02641677856445, -48.63926696777344, 8.007125854492188, 181.62823486328125, -0.03200000151991844, -0.08000000566244125, 1.040000081062317, 0.0, 0.0, 0.0, 0.0, 0.0, 1.6214216859709384E9, 2021-05-19 12:54:45.970
96.0, -77.04380798339844, -64.1635971069336, -3.9568140506744385, 173.61363220214844, -0.03200000151991844, -0.08000000566244125, 1.040000081062317, 0.0, 0.0, 0.0, 0.0, 0.0, 1.6214216859717104E9, 2021-05-19 12:54:45.971
96.0, -54.35383605957031, -24.430896759033203, 7.8163909912109375, 191.53897094726562, -0.03200000151991844, -0.08000000566244125, 1.040000081062317, 0.0, 0.0, 0.0, 0.0, 0.0, 1.6214216859717104E9, 2021-05-19 12:54:45.971
97.0, -42.21411895751953, -19.722362518310547, 9.237552642822266, 192.16354370117188, -0.03200000151991844, -0.08000000566244125, 1.040000081062317, 0.0, 0.0, 0.0, 0.0, 0.0, 1.621421685985216E9, 2021-05-19 12:54:45.985
97.0, -54.91482162475586, -62.574134826660156, 4.207387447357178, 183.95445251464844, -0.03200000151991844, -0.08000000566244125, 1.040000081062317, 0.0, 0.0, 0.0, 0.0, 0.0, 1.621421685985216E9, 2021-05-19 12:54:45.985
98.0, -74.75125122070312, -73.21414947509766, -16.30596351623535, 171.85214233398438, -0.03200000151991844, -0.08000000566244125, 1.040000081062317, 0.0, 0.0, 0.0, 0.0, 0.0, 1.621421686000637E9, 2021-05-19 12:54:46.000
98.0, -54.94847869873047, -38.324623107910156, -1.0546517372131348, 189.26138305664062, -0.03200000151991844, -0.08000000566244125, 1.040000081062317, 0.0, 0.0, 0.0, 0.0, 0.0, 1.621421686000637E9, 2021-05-19 12:54:46.000
99.0, -26.988988876342773, -31.23751449584961, 16.90060806274414, 203.24111938476562, -0.03200000151991844, -0.08000000566244125, 1.040000081062317, 0.0, 0.0, 0.0, 0.0, 0.0, 1.621421686017132E9, 2021-05-19 12:54:46.017
99.0, -67.29389190673828, -37.16151428222656, 2.472073793411255, 186.50880432128906, -0.03200000151991844, -0.08000000566244125, 1.040000081062317, 0.0, 0.0, 0.0, 0.0, 0.0, 1.621421686017132E9, 2021-05-19 12:54:46.017
100.0, -80.2676010131836, -56.59029769897461, -9.1141357421875, 177.94444274902344, -0.03200000151991844, -0.08000000566244125, 1.055999994277954, 0.0, 0.0, 0.0, 0.0, 0.0, 1.6214216860178497E9, 2021-05-19 12:54:46.017
100.0, -59.249366760253906, -27.983800888061523, 6.054898262023926, 186.9912567138672, -0.03200000151991844, -0.08000000566244125, 1.055999994277954, 0.0, 0.0, 0.0, 0.0, 0.0, 1.6214216860178497E9, 2021-05-19 12:54:46.017
0.0, -47.11526107788086, -18.817306518554688, 15.032527923583984, 187.041748046875, -0.03200000151991844, -0.08000000566244125, 1.055999994277954, 0.0, 0.0, 0.0, 0.0, 0.0, 1.621421686030942E9, 2021-05-19 12:54:46.030
1.0, -59.93937683105469, -42.621768951416016, 7.3395538330078125, 191.60816955566406, -0.03200000151991844, -0.08000000566244125, 1.055999994277954, 0.0, 0.0, 0.0, 0.0, 0.0, 1.6214216860316384E9, 2021-05-19 12:54:46.031
1.0, -83.81863403320312, -48.777645111083984, -9.160884857177734, 168.03932189941406, -0.03200000151991844, -0.08000000566244125, 1.055999994277954, 0.0, 0.0, 0.0, 0.0, 0.0, 1.6214216860316384E9, 2021-05-19 12:54:46.031
2.0, -52.97194290161133, -36.09190368652344, 3.356560230255127, 185.68789672851562, -0.03200000151991844, -0.08000000566244125, 1.055999994277954, 0.0, 0.0, 0.0, 0.0, 0.0, 1.6214216860460927E9, 2021-05-19 12:54:46.046
2.0, -39.79253387451172, -16.913698196411133, 10.720423698425293, 204.99327087402344, -0.03200000151991844, -0.08000000566244125, 1.055999994277954, 0.0, 0.0, 0.0, 0.0, 0.0, 1.6214216860460927E9, 2021-05-19 12:54:46.046
3.0, -60.836952209472656, -35.56831741333008, 3.790388584136963, 187.8420867919922, -0.03200000151991844, -0.08000000566244125, 1.055999994277954, 0.0, 0.0, 0.0, 0.0, 0.0, 1.6214216860467288E9, 2021-05-19 12:54:46.046
3.0, -71.9444580078125, -50.29978561401367, -3.685671329498291, 176.70840454101562, -0.03200000151991844, -0.08000000566244125, 1.055999994277954, 0.0, 0.0, 0.0, 0.0, 0.0, 1.6214216860467288E9, 2021-05-19 12:54:46.046
4.0, -56.734283447265625, -35.800193786621094, -0.6152135133743286, 184.2854461669922, -0.03200000151991844, -0.08000000566244125, 1.055999994277954, 0.0, 0.0, 0.0, 0.0, 0.0, 1.6214216860603285E9, 2021-05-19 12:54:46.060
4.0, -39.0333366394043, -18.33485984802246, 8.083793640136719, 205.58790588378906, -0.03200000151991844, -0.08000000566244125, 1.055999994277954, 0.0, 0.0, 0.0, 0.0, 0.0, 1.6214216860603285E9, 2021-05-19 12:54:46.060
5.0, -56.932498931884766, -37.621524810791016, 4.224216938018799, 186.70889282226562, -0.03200000151991844, -0.08000000566244125, 1.055999994277954, 0.0, 0.0, 0.0, 0.0, 0.0, 1.6214216860764651E9, 2021-05-19 12:54:46.076
5.0, -80.7369613647461, -53.12714767456055, -13.951696395874023, 165.90008544921875, -0.03200000151991844, -0.08000000566244125, 1.055999994277954, 0.0, 0.0, 0.0, 0.0, 0.0, 1.6214216860764651E9, 2021-05-19 12:54:46.076
6.0, -45.43978500366211, -36.372398376464844, -2.8554136753082275, 174.98431396484375, -0.03200000151991844, -0.08000000566244125, 1.055999994277954, 0.0, 0.0, 0.0, 0.0, 0.0, 1.6214216860909293E9, 2021-05-19 12:54:46.090
6.0, -41.80834197998047, -16.147018432617188, 2.0438554286956787, 193.6090087890625, -0.03200000151991844, -0.08000000566244125, 1.055999994277954, 0.0, 0.0, 0.0, 0.0, 0.0, 1.6214216860909293E9, 2021-05-19 12:54:46.090
7.0, -61.24085998535156, -41.54093933105469, -2.601100444793701, 177.25442504882812, -0.03200000151991844, -0.08000000566244125, 1.055999994277954, 0.0, 0.0, 0.0, 0.0, 0.0, 1.621421686091634E9, 2021-05-19 12:54:46.091
7.0, -73.96400451660156, -39.577491760253906, -8.869173049926758, 173.1779327392578, -0.03200000151991844, -0.08000000566244125, 1.055999994277954, 0.0, 0.0, 0.0, 0.0, 0.0, 1.621421686091634E9, 2021-05-19 12:54:46.091
8.0, -50.98979568481445, -18.15908432006836, -3.6146132946014404, 177.81915283203125, -0.03200000151991844, -0.08000000566244125, 1.055999994277954, 0.0, 0.0, 0.0, 0.0, 0.0, 1.621421686105882E9, 2021-05-19 12:54:46.105
8.0, -39.594322204589844, -14.718376159667969, 8.603639602661133, 203.75909423828125, -0.03200000151991844, -0.08000000566244125, 1.055999994277954, 0.0, 0.0, 0.0, 0.0, 0.0, 1.621421686105882E9, 2021-05-19 12:54:46.105
9.0, -63.70919418334961, -40.89393615722656, -5.076914310455322, 179.13185119628906, -0.03200000151991844, -0.08000000566244125, 1.055999994277954, 0.0, 0.0, 0.0, 0.0, 0.0, 1.6214216861066294E9, 2021-05-19 12:54:46.106
9.0, -67.29949951171875, -46.61972427368164, -5.716436862945557, 170.79188537597656, -0.03200000151991844, -0.08000000566244125, 1.055999994277954, 0.0, 0.0, 0.0, 0.0, 0.0, 1.6214216861066294E9, 2021-05-19 12:54:46.106
10.0, -56.67070388793945, -25.57904624938965, -3.9923431873321533, 189.55870056152344, -0.03200000151991844, -0.08000000566244125, 1.040000081062317, 0.0, 0.0, 0.0, 0.0, 0.0, 1.6214216861202836E9, 2021-05-19 12:54:46.120
10.0, -35.59636688232422, -0.5740746259689331, 15.354159355163574, 194.78334045410156, -0.03200000151991844, -0.08000000566244125, 1.040000081062317, 0.0, 0.0, 0.0, 0.0, 0.0, 1.6214216861202836E9, 2021-05-19 12:54:46.120
11.0, -62.24315643310547, -46.90769577026367, 4.691704273223877, 195.10122680664062, -0.03200000151991844, -0.08000000566244125, 1.040000081062317, 0.0, 0.0, 0.0, 0.0, 0.0, 1.621421686135873E9, 2021-05-19 12:54:46.135
11.0, -68.03626251220703, -34.64082336425781, -9.639592170715332, 161.97694396972656, -0.03200000151991844, -0.08000000566244125, 1.040000081062317, 0.0, 0.0, 0.0, 0.0, 0.0, 1.621421686135873E9, 2021-05-19 12:54:46.135
12.0, -56.401432037353516, -17.50834083557129, -1.0527818202972412, 185.40740966796875, -0.03200000151991844, -0.08000000566244125, 1.040000081062317, 0.0, 0.0, 0.0, 0.0, 0.0, 1.621421686136598E9, 2021-05-19 12:54:46.136
12.0, -46.565494537353516, -13.824540138244629, 9.351619720458984, 201.22344970703125, -0.03200000151991844, -0.08000000566244125, 1.040000081062317, 0.0, 0.0, 0.0, 0.0, 0.0, 1.621421686136598E9, 2021-05-19 12:54:46.136
13.0, -54.30708694458008, -34.427650451660156, -0.4057791531085968, 187.22500610351562, -0.03200000151991844, -0.08000000566244125, 1.040000081062317, 0.0, 0.0, 0.0, 0.0, 0.0, 1.6214216861502273E9, 2021-05-19 12:54:46.150
13.0, -68.89643859863281, -40.467586517333984, -8.229649543762207, 172.56085205078125, -0.03200000151991844, -0.08000000566244125, 1.040000081062317, 0.0, 0.0, 0.0, 0.0, 0.0, 1.6214216861502273E9, 2021-05-19 12:54:46.150
14.0, -63.22300720214844, -7.268495559692383, -0.9106656312942505, 181.4842529296875, -0.03200000151991844, -0.08000000566244125, 1.040000081062317, 0.0, 0.0, 0.0, 0.0, 0.0, 1.6214216861659064E9, 2021-05-19 12:54:46.165
14.0, -42.32818603515625, -11.277667999267578, 10.802700996398926, 199.4544677734375, -0.03200000151991844, -0.08000000566244125, 1.040000081062317, 0.0, 0.0, 0.0, 0.0, 0.0, 1.6214216861659064E9, 2021-05-19 12:54:46.165
15.0, -62.471290588378906, -16.924917221069336, 12.03686809539795, 184.1956787109375, -0.03200000151991844, -0.08000000566244125, 1.040000081062317, 0.0, 0.0, 0.0, 0.0, 0.0, 1.6214216861666083E9, 2021-05-19 12:54:46.166
15.0, -70.8224868774414, -46.245731353759766, 0.4057791531085968, 180.71009826660156, -0.03200000151991844, -0.08000000566244125, 1.040000081062317, 0.0, 0.0, 0.0, 0.0, 0.0, 1.6214216861666083E9, 2021-05-19 12:54:46.166
16.0, -58.03950881958008, -21.199623107910156, 0.6713120341300964, 174.08299255371094, -0.03200000151991844, -0.08000000566244125, 1.040000081062317, 0.0, 0.0, 0.0, 0.0, 0.0, 1.62142168618034E9, 2021-05-19 12:54:46.180
16.0, -42.61616134643555, -7.706063747406006, 15.099845886230469, 193.9493408203125, -0.03200000151991844, -0.08000000566244125, 1.040000081062317, 0.0, 0.0, 0.0, 0.0, 0.0, 1.62142168618034E9, 2021-05-19 12:54:46.180
17.0, -53.37211227416992, -34.91757583618164, 8.46152400970459, 182.7894744873047, -0.03200000151991844, -0.08000000566244125, 1.040000081062317, 0.0, 0.0, 0.0, 0.0, 0.0, 1.6214216861959877E9, 2021-05-19 12:54:46.195
17.0, -74.3379898071289, -44.622615814208984, -4.448610782623291, 171.97369384765625, -0.03200000151991844, -0.08000000566244125, 1.040000081062317, 0.0, 0.0, 0.0, 0.0, 0.0, 1.6214216861959877E9, 2021-05-19 12:54:46.195
18.0, -48.25218963623047, -17.485902786254883, 15.159684181213379, 196.58596801757812, -0.03200000151991844, -0.08000000566244125, 1.040000081062317, 0.0, 0.0, 0.0, 0.0, 0.0, 1.621421686196614E9, 2021-05-19 12:54:46.196
18.0, -35.93669891357422, -6.382139205932617, 20.848072052001953, 199.98927307128906, -0.03200000151991844, -0.08000000566244125, 1.040000081062317, 0.0, 0.0, 0.0, 0.0, 0.0, 1.621421686196614E9, 2021-05-19 12:54:46.196
19.0, -72.0491714477539, -36.047027587890625, 7.1749982833862305, 191.9559783935547, -0.03200000151991844, -0.08000000566244125, 1.040000081062317, 0.0, 0.0, 0.0, 0.0, 0.0, 1.6214216862103748E9, 2021-05-19 12:54:46.210
19.0, -74.8391342163086, -34.977413177490234, -0.9443247318267822, 174.5729217529297, -0.03200000151991844, -0.08000000566244125, 1.040000081062317, 0.0, 0.0, 0.0, 0.0, 0.0, 1.6214216862103748E9, 2021-05-19 12:54:46.210
20.0, -57.594459533691406, -20.014074325561523, 8.117452621459961, 189.35301208496094, -0.03200000151991844, -0.08000000566244125, 1.040000081062317, 0.0, 0.0, 0.0, 0.0, 0.0, 1.6214216862430856E9, 2021-05-19 12:54:46.243
20.0, -47.945518493652344, -11.180431365966797, 22.979814529418945, 199.70504760742188, -0.03200000151991844, -0.08000000566244125, 1.040000081062317, 0.0, 0.0, 0.0, 0.0, 0.0, 1.6214216862430856E9, 2021-05-19 12:54:46.243
21.0, -63.312767028808594, -41.58955764770508, 12.481916427612305, 181.59271240234375, -0.03200000151991844, -0.08000000566244125, 1.040000081062317, 0.0, 0.0, 0.0, 0.0, 0.0, 1.6214216862437723E9, 2021-05-19 12:54:46.243
21.0, -79.12506103515625, -41.04353332519531, -1.8269411325454712, 177.57606506347656, -0.03200000151991844, -0.08000000566244125, 1.040000081062317, 0.0, 0.0, 0.0, 0.0, 0.0, 1.6214216862437723E9, 2021-05-19 12:54:46.243
22.0, -58.38357925415039, -22.15703773498535, 4.680484771728516, 188.7695770263672, -0.03200000151991844, -0.08000000566244125, 1.040000081062317, 0.0, 0.0, 0.0, 0.0, 0.0, 1.621421686244485E9, 2021-05-19 12:54:46.244
22.0, -51.61436080932617, 0.9742439389228821, 16.977275848388672, 195.42286682128906, -0.03200000151991844, -0.08000000566244125, 1.040000081062317, 0.0, 0.0, 0.0, 0.0, 0.0, 1.621421686244485E9, 2021-05-19 12:54:46.244
23.0, -61.38297653198242, -35.23546600341797, 7.68736457824707, 194.27471923828125, -0.03200000151991844, -0.08000000566244125, 1.040000081062317, 0.0, 0.0, 0.0, 0.0, 0.0, 1.6214216862452033E9, 2021-05-19 12:54:46.245
23.0, -78.02178955078125, -45.32197570800781, -4.923578262329102, 165.4176483154297, -0.03200000151991844, -0.08000000566244125, 1.040000081062317, 0.0, 0.0, 0.0, 0.0, 0.0, 1.6214216862452033E9, 2021-05-19 12:54:46.245
24.0, -57.28778839111328, -6.082947254180908, 9.430157661437988, 187.15394592285156, -0.03200000151991844, -0.08000000566244125, 1.040000081062317, 0.0, 0.0, 0.0, 0.0, 0.0, 1.6214216862552583E9, 2021-05-19 12:54:46.255
24.0, -42.39924621582031, -13.704863548278809, 20.530179977416992, 194.07275390625, -0.03200000151991844, -0.08000000566244125, 1.040000081062317, 0.0, 0.0, 0.0, 0.0, 0.0, 1.6214216862552583E9, 2021-05-19 12:54:46.255
25.0, -62.45259094238281, -16.247995376586914, 15.507494926452637, 185.07081604003906, -0.03200000151991844, -0.08000000566244125, 1.040000081062317, 0.0, 0.0, 0.0, 0.0, 0.0, 1.6214216862702773E9, 2021-05-19 12:54:46.270
25.0, -59.827178955078125, -63.45675277709961, 5.29382848739624, 166.3451385498047, -0.03200000151991844, -0.08000000566244125, 1.040000081062317, 0.0, 0.0, 0.0, 0.0, 0.0, 1.6214216862702773E9, 2021-05-19 12:54:46.270
26.0, -56.94745635986328, -18.514373779296875, 8.540061950683594, 178.0061492919922, -0.03200000151991844, -0.08000000566244125, 1.040000081062317, 0.0, 0.0, 0.0, 0.0, 0.0, 1.6214216863035967E9, 2021-05-19 12:54:46.303
26.0, -41.43061065673828, -16.259214401245117, 17.788833618164062, 192.72265625, -0.03200000151991844, -0.08000000566244125, 1.040000081062317, 0.0, 0.0, 0.0, 0.0, 0.0, 1.6214216863035967E9, 2021-05-19 12:54:46.303
27.0, -67.18730163574219, -35.49726104736328, 11.531981468200684, 182.7670440673828, -0.03200000151991844, -0.08000000566244125, 1.040000081062317, 0.0, 0.0, 0.0, 0.0, 0.0, 1.6214216863043163E9, 2021-05-19 12:54:46.304
27.0, -78.0255355834961, -50.99540710449219, 8.4540433883667, 177.47508239746094, -0.03200000151991844, -0.08000000566244125, 1.040000081062317, 0.0, 0.0, 0.0, 0.0, 0.0, 1.6214216863043163E9, 2021-05-19 12:54:46.304
28.0, -49.14976501464844, -7.997776031494141, 19.68496322631836, 188.96778869628906, -0.03200000151991844, -0.08000000566244125, 1.040000081062317, 0.0, 0.0, 0.0, 0.0, 0.0, 1.6214216863050952E9, 2021-05-19 12:54:46.305
28.0, -44.50481033325195, -18.465755462646484, 22.811519622802734, 203.83763122558594, -0.03200000151991844, -0.08000000566244125, 1.040000081062317, 0.0, 0.0, 0.0, 0.0, 0.0, 1.6214216863050952E9, 2021-05-19 12:54:46.305
29.0, -67.34437561035156, -43.519344329833984, 12.732489585876465, 181.55531311035156, -0.03200000151991844, -0.08000000566244125, 1.040000081062317, 0.0, 0.0, 0.0, 0.0, 0.0, 1.621421686305832E9, 2021-05-19 12:54:46.305
29.0, -88.62066650390625, -31.23751449584961, -6.112866401672363, 167.16043090820312, -0.03200000151991844, -0.08000000566244125, 1.040000081062317, 0.0, 0.0, 0.0, 0.0, 0.0, 1.621421686305832E9, 2021-05-19 12:54:46.305
30.0, -58.02828598022461, -21.177183151245117, 16.367671966552734, 186.78369140625, -0.03200000151991844, -0.08000000566244125, 1.055999994277954, 0.0, 0.0, 0.0, 0.0, 0.0, 1.6214216863152485E9, 2021-05-19 12:54:46.315
30.0, -41.34833526611328, -23.353805541992188, 20.38432502746582, 190.71432495117188, -0.03200000151991844, -0.08000000566244125, 1.055999994277954, 0.0, 0.0, 0.0, 0.0, 0.0, 1.6214216863152485E9, 2021-05-19 12:54:46.315
31.0, -54.95035171508789, -44.49171829223633, 8.412904739379883, 176.53262329101562, -0.03200000151991844, -0.08000000566244125, 1.055999994277954, 0.0, 0.0, 0.0, 0.0, 0.0, 1.6214216863302507E9, 2021-05-19 12:54:46.330
31.0, -77.32991027832031, -41.9560661315918, 3.2967216968536377, 169.9204864501953, -0.03200000151991844, -0.08000000566244125, 1.055999994277954, 0.0, 0.0, 0.0, 0.0, 0.0, 1.6214216863302507E9, 2021-05-19 12:54:46.330
32.0, -52.46705627441406, -23.45104217529297, 11.483363151550293, 186.61166381835938, -0.03200000151991844, -0.08000000566244125, 1.055999994277954, 0.0, 0.0, 0.0, 0.0, 0.0, 1.6214216863466575E9, 2021-05-19 12:54:46.346
32.0, -43.10608673095703, -10.387572288513184, 23.07705307006836, 198.25396728515625, -0.03200000151991844, -0.08000000566244125, 1.055999994277954, 0.0, 0.0, 0.0, 0.0, 0.0, 1.6214216863466575E9, 2021-05-19 12:54:46.346
33.0, -61.599891662597656, -53.2879638671875, 15.09610652923584, 184.47618103027344, -0.03200000151991844, -0.08000000566244125, 1.055999994277954, 0.0, 0.0, 0.0, 0.0, 0.0, 1.6214216863474944E9, 2021-05-19 12:54:46.347
33.0, -69.00489044189453, -33.96390151977539, 1.8493804931640625, 174.060546875, -0.03200000151991844, -0.08000000566244125, 1.055999994277954, 0.0, 0.0, 0.0, 0.0, 0.0, 1.6214216863474944E9, 2021-05-19 12:54:46.347
34.0, -52.94202423095703, -27.452735900878906, 9.91634464263916, 188.732177734375, -0.03200000151991844, -0.08000000566244125, 1.055999994277954, 0.0, 0.0, 0.0, 0.0, 0.0, 1.6214216863602312E9, 2021-05-19 12:54:46.360
34.0, -47.87071990966797, -21.01262855529785, 21.19588279724121, 194.1625213623047, -0.03200000151991844, -0.08000000566244125, 1.055999994277954, 0.0, 0.0, 0.0, 0.0, 0.0, 1.6214216863602312E9, 2021-05-19 12:54:46.360
35.0, -59.307334899902344, -42.76762771606445, 9.08234691619873, 188.814453125, -0.03200000151991844, -0.08000000566244125, 1.055999994277954, 0.0, 0.0, 0.0, 0.0, 0.0, 1.6214216863759007E9, 2021-05-19 12:54:46.375
35.0, -65.6053237915039, -50.011810302734375, 2.8853328227996826, 176.95523071289062, -0.03200000151991844, -0.08000000566244125, 1.055999994277954, 0.0, 0.0, 0.0, 0.0, 0.0, 1.6214216863759007E9, 2021-05-19 12:54:46.375
36.0, -57.972190856933594, -21.498815536499023, 11.606779098510742, 183.16720581054688, -0.03200000151991844, -0.08000000566244125, 1.055999994277954, 0.0, 0.0, 0.0, 0.0, 0.0, 1.6214216863766193E9, 2021-05-19 12:54:46.376
36.0, -41.28475570678711, -13.020462036132812, 26.08019256591797, 203.2429962158203, -0.03200000151991844, -0.08000000566244125, 1.055999994277954, 0.0, 0.0, 0.0, 0.0, 0.0, 1.6214216863766193E9, 2021-05-19 12:54:46.376
37.0, -60.47792053222656, -30.31001853942871, 19.51666831970215, 186.00579833984375, -0.03200000151991844, -0.08000000566244125, 1.055999994277954, 0.0, 0.0, 0.0, 0.0, 0.0, 1.6214216863902285E9, 2021-05-19 12:54:46.390
37.0, -63.73163604736328, -44.813350677490234, 9.61715316772461, 185.16432189941406, -0.03200000151991844, -0.08000000566244125, 1.055999994277954, 0.0, 0.0, 0.0, 0.0, 0.0, 1.6214216863902285E9, 2021-05-19 12:54:46.390
38.0, -67.42291259765625, -29.31520652770996, 11.932150840759277, 183.1859130859375, -0.03200000151991844, -0.08000000566244125, 1.055999994277954, 0.0, 0.0, 0.0, 0.0, 0.0, 1.6214216864066932E9, 2021-05-19 12:54:46.406
38.0, -45.985809326171875, -26.024093627929688, 25.582786560058594, 194.10641479492188, -0.03200000151991844, -0.08000000566244125, 1.055999994277954, 0.0, 0.0, 0.0, 0.0, 0.0, 1.6214216864066932E9, 2021-05-19 12:54:46.406
39.0, -66.31590270996094, -37.04557800292969, 17.927209854125977, 184.76788330078125, -0.03200000151991844, -0.08000000566244125, 1.055999994277954, 0.0, 0.0, 0.0, 0.0, 0.0, 1.6214216864073944E9, 2021-05-19 12:54:46.407
39.0, -72.94300842285156, -44.5029411315918, 7.986556529998779, 181.91433715820312, -0.03200000151991844, -0.08000000566244125, 1.055999994277954, 0.0, 0.0, 0.0, 0.0, 0.0, 1.6214216864073944E9, 2021-05-19 12:54:46.407
40.0, -54.31082534790039, -29.105772018432617, 15.320500373840332, 191.24539184570312, -0.03200000151991844, -0.08000000566244125, 1.055999994277954, 0.0, 0.0, 0.0, 0.0, 0.0, 1.621421686420321E9, 2021-05-19 12:54:46.420
40.0, -33.88349533081055, -15.107325553894043, 24.48325538635254, 195.28074645996094, -0.03200000151991844, -0.08000000566244125, 1.055999994277954, 0.0, 0.0, 0.0, 0.0, 0.0, 1.621421686420321E9, 2021-05-19 12:54:46.420
41.0, -61.592411041259766, -37.71501922607422, 9.108526229858398, 180.7661895751953, -0.03200000151991844, -0.08000000566244125, 1.055999994277954, 0.0, 0.0, 0.0, 0.0, 0.0, 1.621421686435907E9, 2021-05-19 12:54:46.435
41.0, -70.85240173339844, -60.27035903930664, 2.9975297451019287, 179.22535705566406, -0.03200000151991844, -0.08000000566244125, 1.055999994277954, 0.0, 0.0, 0.0, 0.0, 0.0, 1.621421686435907E9, 2021-05-19 12:54:46.435
42.0, -56.65948486328125, -34.66326141357422, 6.786048412322998, 179.85739135742188, -0.03200000151991844, -0.08000000566244125, 1.055999994277954, 0.0, 0.0, 0.0, 0.0, 0.0, 1.6214216864366117E9, 2021-05-19 12:54:46.436
42.0, -38.453651428222656, -5.611720085144043, 21.71946907043457, 205.8945770263672, -0.03200000151991844, -0.08000000566244125, 1.055999994277954, 0.0, 0.0, 0.0, 0.0, 0.0, 1.6214216864366117E9, 2021-05-19 12:54:46.436
43.0, -55.64971160888672, -72.90747833251953, 7.433051109313965, 170.27203369140625, -0.03200000151991844, -0.08000000566244125, 1.055999994277954, 0.0, 0.0, 0.0, 0.0, 0.0, 1.6214216864503348E9, 2021-05-19 12:54:46.450
43.0, -70.97956085205078, -56.07793045043945, 0.6114736199378967, 165.81781005859375, -0.03200000151991844, -0.08000000566244125, 1.055999994277954, 0.0, 0.0, 0.0, 0.0, 0.0, 1.6214216864503348E9, 2021-05-19 12:54:46.450
44.0, -50.612064361572266, -38.335845947265625, 8.042654991149902, 173.0956573486328, -0.03200000151991844, -0.08000000566244125, 1.055999994277954, 0.0, 0.0, 0.0, 0.0, 0.0, 1.6214216864666295E9, 2021-05-19 12:54:46.466
44.0, -27.271350860595703, -30.788726806640625, 23.447301864624023, 189.6334991455078, -0.03200000151991844, -0.08000000566244125, 1.055999994277954, 0.0, 0.0, 0.0, 0.0, 0.0, 1.6214216864666295E9, 2021-05-19 12:54:46.466
45.0, -49.2731819152832, -60.34141540527344, 16.749141693115234, 177.51248168945312, -0.03200000151991844, -0.08000000566244125, 1.055999994277954, 0.0, 0.0, 0.0, 0.0, 0.0, 1.6214216864673166E9, 2021-05-19 12:54:46.467
45.0, -58.7874870300293, -54.432373046875, 9.744309425354004, 176.94775390625, -0.03200000151991844, -0.08000000566244125, 1.055999994277954, 0.0, 0.0, 0.0, 0.0, 0.0, 1.6214216864673166E9, 2021-05-19 12:54:46.467
46.0, -42.791934967041016, -22.654443740844727, 17.38118553161621, 204.69407653808594, -0.03200000151991844, -0.08000000566244125, 1.055999994277954, 0.0, 0.0, 0.0, 0.0, 0.0, 1.6214216864804044E9, 2021-05-19 12:54:46.480
46.0, -30.117414474487305, -18.282501220703125, 29.550819396972656, 208.8004913330078, -0.03200000151991844, -0.08000000566244125, 1.055999994277954, 0.0, 0.0, 0.0, 0.0, 0.0, 1.6214216864804044E9, 2021-05-19 12:54:46.480
47.0, -48.177391052246094, -43.54926681518555, 18.218923568725586, 189.31935119628906, -0.03200000151991844, -0.08000000566244125, 1.055999994277954, 0.0, 0.0, 0.0, 0.0, 0.0, 1.6214216864959793E9, 2021-05-19 12:54:46.495
47.0, -63.93732833862305, -54.29773712158203, 2.3654866218566895, 187.0043487548828, -0.03200000151991844, -0.08000000566244125, 1.055999994277954, 0.0, 0.0, 0.0, 0.0, 0.0, 1.6214216864959793E9, 2021-05-19 12:54:46.495
48.0, -47.73982238769531, -17.433544158935547, 12.235082626342773, 195.90904235839844, -0.03200000151991844, -0.08000000566244125, 1.055999994277954, 0.0, 0.0, 0.0, 0.0, 0.0, 1.6214216864967184E9, 2021-05-19 12:54:46.496
48.0, -18.056236267089844, -24.05316734313965, 32.25476837158203, 196.7580108642578, -0.03200000151991844, -0.08000000566244125, 1.055999994277954, 0.0, 0.0, 0.0, 0.0, 0.0, 1.6214216864967184E9, 2021-05-19 12:54:46.496
49.0, -53.03178024291992, -47.13956832885742, 23.447301864624023, 206.16384887695312, -0.03200000151991844, -0.08000000566244125, 1.055999994277954, 0.0, 0.0, 0.0, 0.0, 0.0, 1.6214216865258312E9, 2021-05-19 12:54:46.525
49.0, -74.28937530517578, -53.54227828979492, 7.8855791091918945, 176.74954223632812, -0.03200000151991844, -0.08000000566244125, 1.055999994277954, 0.0, 0.0, 0.0, 0.0, 0.0, 1.6214216865258312E9, 2021-05-19 12:54:46.525
50.0, -34.9007453918457, -9.680730819702148, 34.29301452636719, 208.55364990234375, -0.03200000151991844, -0.08000000566244125, 1.040000081062317, 0.0, 0.0, 0.0, 0.0, 0.0, 1.62142168654147E9, 2021-05-19 12:54:46.541
50.0, -37.50371551513672, -23.963409423828125, 24.77870750427246, 193.39208984375, -0.03200000151991844, -0.08000000566244125, 1.040000081062317, 0.0, 0.0, 0.0, 0.0, 0.0, 1.62142168654147E9, 2021-05-19 12:54:46.541
51.0, -48.820655822753906, -58.232112884521484, 16.6556453704834, 189.0687713623047, -0.03200000151991844, -0.09600000083446503, 1.040000081062317, 0.0, 0.0, 0.0, 0.0, 0.0, 1.6214216865422323E9, 2021-05-19 12:54:46.542
51.0, -72.63259887695312, -51.71346664428711, 1.034082293510437, 166.80514526367188, -0.03200000151991844, -0.09600000083446503, 1.040000081062317, 0.0, 0.0, 0.0, 0.0, 0.0, 1.6214216865422323E9, 2021-05-19 12:54:46.542
52.0, -60.74345397949219, -26.173688888549805, 5.705217361450195, 177.0449981689453, -0.03200000151991844, -0.09600000083446503, 1.040000081062317, 0.0, 0.0, 0.0, 0.0, 0.0, 1.6214216865566175E9, 2021-05-19 12:54:46.556
52.0, -43.9924430847168, -21.248241424560547, 25.571565628051758, 194.56268310546875, -0.03200000151991844, -0.09600000083446503, 1.040000081062317, 0.0, 0.0, 0.0, 0.0, 0.0, 1.6214216865566175E9, 2021-05-19 12:54:46.556
53.0, -36.531341552734375, -37.92445373535156, 24.113004684448242, 189.577392578125, -0.03200000151991844, -0.09600000083446503, 1.040000081062317, 0.0, 0.0, 0.0, 0.0, 0.0, 1.6214216865573444E9, 2021-05-19 12:54:46.557
53.0, -78.35464477539062, -52.47640609741211, 1.67360520362854, 173.48086547851562, -0.03200000151991844, -0.09600000083446503, 1.040000081062317, 0.0, 0.0, 0.0, 0.0, 0.0, 1.6214216865573444E9, 2021-05-19 12:54:46.557
54.0, -70.29141998291016, -24.071866989135742, 8.854212760925293, 186.21148681640625, -0.03200000151991844, -0.09600000083446503, 1.040000081062317, 0.0, 0.0, 0.0, 0.0, 0.0, 1.621421686558072E9, 2021-05-19 12:54:46.558
54.0, -41.733543395996094, -14.220969200134277, 24.67399024963379, 202.31549072265625, -0.03200000151991844, -0.09600000083446503, 1.040000081062317, 0.0, 0.0, 0.0, 0.0, 0.0, 1.621421686558072E9, 2021-05-19 12:54:46.558
55.0, -60.73597717285156, -48.79634475708008, 19.55780601501465, 193.3584442138672, -0.03200000151991844, -0.09600000083446503, 1.040000081062317, 0.0, 0.0, 0.0, 0.0, 0.0, 1.621421686570254E9, 2021-05-19 12:54:46.570
55.0, -78.22748565673828, -53.759193420410156, 3.902585506439209, 176.00155639648438, -0.03200000151991844, -0.09600000083446503, 1.040000081062317, 0.0, 0.0, 0.0, 0.0, 0.0, 1.621421686570254E9, 2021-05-19 12:54:46.570
56.0, -63.275367736816406, -35.76653289794922, 10.60822582244873, 181.11026000976562, -0.03200000151991844, -0.09600000083446503, 1.040000081062317, 0.0, 0.0, 0.0, 0.0, 0.0, 1.6214216865859818E9, 2021-05-19 12:54:46.585
56.0, -34.73619079589844, -16.595806121826172, 23.96714973449707, 200.9018096923828, -0.03200000151991844, -0.09600000083446503, 1.040000081062317, 0.0, 0.0, 0.0, 0.0, 0.0, 1.6214216865859818E9, 2021-05-19 12:54:46.585
57.0, -73.34317779541016, -62.92194747924805, 6.707510471343994, 177.89395141601562, -0.03200000151991844, -0.09600000083446503, 1.040000081062317, 0.0, 0.0, 0.0, 0.0, 0.0, 1.621421686586695E9, 2021-05-19 12:54:46.586
57.0, -64.03083038330078, -54.47725296020508, 15.877745628356934, 192.85354614257812, -0.03200000151991844, -0.09600000083446503, 1.040000081062317, 0.0, 0.0, 0.0, 0.0, 0.0, 1.621421686586695E9, 2021-05-19 12:54:46.586
58.0, -62.46006774902344, -18.248842239379883, 11.472143173217773, 178.4736328125, -0.03200000151991844, -0.09600000083446503, 1.040000081062317, 0.0, 0.0, 0.0, 0.0, 0.0, 1.621421686600322E9, 2021-05-19 12:54:46.600
58.0, -28.075429916381836, -29.431142807006836, 28.36901092529297, 197.898681640625, -0.03200000151991844, -0.09600000083446503, 1.040000081062317, 0.0, 0.0, 0.0, 0.0, 0.0, 1.621421686600322E9, 2021-05-19 12:54:46.600
59.0, -61.15858459472656, -63.71106719970703, 12.47817611694336, 179.6741485595703, -0.03200000151991844, -0.09600000083446503, 1.040000081062317, 0.0, 0.0, 0.0, 0.0, 0.0, 1.6214216866323876E9, 2021-05-19 12:54:46.632
59.0, -72.70365142822266, -39.55131149291992, 6.277421951293945, 173.30136108398438, -0.03200000151991844, -0.09600000083446503, 1.040000081062317, 0.0, 0.0, 0.0, 0.0, 0.0, 1.6214216866323876E9, 2021-05-19 12:54:46.632
60.0, -49.187164306640625, -29.37130355834961, 4.059661388397217, 181.37579345703125, -0.03200000151991844, -0.09600000083446503, 1.040000081062317, 0.0, 0.0, 0.0, 0.0, 0.0, 1.6214216866330783E9, 2021-05-19 12:54:46.633
60.0, -42.070133209228516, -23.76145362854004, 25.93059539794922, 204.7277374267578, -0.03200000151991844, -0.09600000083446503, 1.040000081062317, 0.0, 0.0, 0.0, 0.0, 0.0, 1.6214216866330783E9, 2021-05-19 12:54:46.633
61.0, -55.159786224365234, -58.41162872314453, 7.859399795532227, 174.52804565429688, -0.03200000151991844, -0.08000000566244125, 1.040000081062317, 0.0, 0.0, 0.0, 0.0, 0.0, 1.6214216866337733E9, 2021-05-19 12:54:46.633
61.0, -77.47950744628906, -56.324764251708984, -7.545248031616211, 159.77413940429688, -0.03200000151991844, -0.08000000566244125, 1.040000081062317, 0.0, 0.0, 0.0, 0.0, 0.0, 1.6214216866337733E9, 2021-05-19 12:54:46.633
62.0, -43.58479309082031, -10.585786819458008, 11.404825210571289, 187.28109741210938, -0.03200000151991844, -0.08000000566244125, 1.040000081062317, 0.0, 0.0, 0.0, 0.0, 0.0, 1.6214216866345732E9, 2021-05-19 12:54:46.634
62.0, -50.00994110107422, -33.78064727783203, 23.686656951904297, 188.91543579101562, -0.03200000151991844, -0.08000000566244125, 1.040000081062317, 0.0, 0.0, 0.0, 0.0, 0.0, 1.6214216866345732E9, 2021-05-19 12:54:46.634
63.0, -53.84333801269531, -53.78911209106445, 11.999468803405762, 190.19448852539062, -0.03200000151991844, -0.08000000566244125, 1.040000081062317, 0.0, 0.0, 0.0, 0.0, 0.0, 1.62142168664527E9, 2021-05-19 12:54:46.645
63.0, -72.48674011230469, -72.73170471191406, -4.355113506317139, 167.94955444335938, -0.03200000151991844, -0.08000000566244125, 1.040000081062317, 0.0, 0.0, 0.0, 0.0, 0.0, 1.62142168664527E9, 2021-05-19 12:54:46.645
64.0, -29.186180114746094, -23.581939697265625, 20.324485778808594, 204.9708251953125, -0.03200000151991844, -0.08000000566244125, 1.040000081062317, 0.0, 0.0, 0.0, 0.0, 0.0, 1.621421686660266E9, 2021-05-19 12:54:46.660
64.0, -47.48176956176758, -30.58677101135254, 14.9652099609375, 176.2820587158203, -0.03200000151991844, -0.08000000566244125, 1.040000081062317, 0.0, 0.0, 0.0, 0.0, 0.0, 1.621421686660266E9, 2021-05-19 12:54:46.660
65.0, -68.08113861083984, -64.46278381347656, 5.039515018463135, 171.8689727783203, -0.03200000151991844, -0.08000000566244125, 1.040000081062317, 0.0, 0.0, 0.0, 0.0, 0.0, 1.6214216866760323E9, 2021-05-19 12:54:46.676
65.0, -58.52943420410156, -68.1241455078125, 8.282008171081543, 156.82334899902344, -0.03200000151991844, -0.08000000566244125, 1.040000081062317, 0.0, 0.0, 0.0, 0.0, 0.0, 1.6214216866760323E9, 2021-05-19 12:54:46.676
66.0, -55.78434753417969, -18.52559471130371, 4.362593173980713, 182.83810424804688, -0.03200000151991844, -0.08000000566244125, 1.040000081062317, 0.0, 0.0, 0.0, 0.0, 0.0, 1.6214216866766832E9, 2021-05-19 12:54:46.676
66.0, -55.616050720214844, -21.319299697875977, 8.424124717712402, 172.123291015625, -0.03200000151991844, -0.08000000566244125, 1.040000081062317, 0.0, 0.0, 0.0, 0.0, 0.0, 1.6214216866766832E9, 2021-05-19 12:54:46.676
67.0, -58.492034912109375, -48.53081130981445, -1.194898009300232, 174.55795288085938, -0.03200000151991844, -0.08000000566244125, 1.040000081062317, 0.0, 0.0, 0.0, 0.0, 0.0, 1.6214216866902783E9, 2021-05-19 12:54:46.690
67.0, -63.49602127075195, -69.79214477539062, -9.632112503051758, 157.1150665283203, -0.03200000151991844, -0.08000000566244125, 1.040000081062317, 0.0, 0.0, 0.0, 0.0, 0.0, 1.6214216866902783E9, 2021-05-19 12:54:46.690
68.0, -51.475982666015625, -22.09345817565918, 5.2227702140808105, 184.85391235351562, -0.03200000151991844, -0.08000000566244125, 1.040000081062317, 0.0, 0.0, 0.0, 0.0, 0.0, 1.6214216867056525E9, 2021-05-19 12:54:46.705
68.0, -17.214759826660156, -32.030372619628906, 22.119638442993164, 198.29136657714844, -0.03200000151991844, -0.08000000566244125, 1.040000081062317, 0.0, 0.0, 0.0, 0.0, 0.0, 1.6214216867056525E9, 2021-05-19 12:54:46.705
69.0, -62.9013786315918, -66.12704467773438, 1.4192920923233032, 191.59320068359375, -0.03200000151991844, -0.08000000566244125, 1.040000081062317, 0.0, 0.0, 0.0, 0.0, 0.0, 1.621421686720987E9, 2021-05-19 12:54:46.720
69.0, -76.81754302978516, -37.075496673583984, -8.113713264465332, 157.1898651123047, -0.03200000151991844, -0.08000000566244125, 1.040000081062317, 0.0, 0.0, 0.0, 0.0, 0.0, 1.621421686720987E9, 2021-05-19 12:54:46.720
70.0, -38.76406478881836, -32.927947998046875, 4.317714691162109, 173.08444213867188, -0.03200000151991844, -0.08000000566244125, 1.040000081062317, 0.0, 0.0, 0.0, 0.0, 0.0, 1.6214216867217247E9, 2021-05-19 12:54:46.721
70.0, -43.2519416809082, -26.783292770385742, 18.78738784790039, 194.19992065429688, -0.03200000151991844, -0.08000000566244125, 1.040000081062317, 0.0, 0.0, 0.0, 0.0, 0.0, 1.6214216867217247E9, 2021-05-19 12:54:46.721
71.0, -57.80763244628906, -43.01445770263672, 13.061600685119629, 190.0972442626953, -0.03200000151991844, -0.09600000083446503, 1.040000081062317, 0.0, 0.0, 0.0, 0.0, 0.0, 1.6214216867359061E9, 2021-05-19 12:54:46.735
71.0, -79.26718139648438, -57.858123779296875, -18.91454315185547, 139.43655395507812, -0.03200000151991844, -0.09600000083446503, 1.040000081062317, 0.0, 0.0, 0.0, 0.0, 0.0, 1.6214216867359061E9, 2021-05-19 12:54:46.735
72.0, -57.69917678833008, -22.04483985900879, 10.443670272827148, 173.813720703125, -0.03200000151991844, -0.09600000083446503, 1.040000081062317, 0.0, 0.0, 0.0, 0.0, 0.0, 1.6214216867365968E9, 2021-05-19 12:54:46.736
72.0, -44.53846740722656, -19.606426239013672, 20.38432502746582, 184.17698669433594, -0.03200000151991844, -0.09600000083446503, 1.040000081062317, 0.0, 0.0, 0.0, 0.0, 0.0, 1.6214216867365968E9, 2021-05-19 12:54:46.736
73.0, -52.45957565307617, -41.46614074707031, 8.5213623046875, 160.23788452148438, -0.03200000151991844, -0.09600000083446503, 1.040000081062317, 0.0, 0.0, 0.0, 0.0, 0.0, 1.6214216867657053E9, 2021-05-19 12:54:46.765
73.0, -72.90187072753906, -39.6074104309082, -0.626433253288269, 168.6863250732422, -0.03200000151991844, -0.09600000083446503, 1.040000081062317, 0.0, 0.0, 0.0, 0.0, 0.0, 1.6214216867657053E9, 2021-05-19 12:54:46.765
74.0, -46.53557586669922, -0.23374374210834503, 11.352466583251953, 185.16806030273438, -0.03200000151991844, -0.09600000083446503, 1.040000081062317, 0.0, 0.0, 0.0, 0.0, 0.0, 1.6214216867827935E9, 2021-05-19 12:54:46.782
74.0, -36.99135208129883, -6.868326187133789, 20.825632095336914, 191.12571716308594, -0.03200000151991844, -0.09600000083446503, 1.040000081062317, 0.0, 0.0, 0.0, 0.0, 0.0, 1.6214216867827935E9, 2021-05-19 12:54:46.782
75.0, -64.64791107177734, -37.281192779541016, 8.19973087310791, 164.3143768310547, -0.03200000151991844, -0.09600000083446503, 1.040000081062317, 0.0, 0.0, 0.0, 0.0, 0.0, 1.6214216867835352E9, 2021-05-19 12:54:46.783
75.0, -61.23712158203125, -47.10591125488281, 9.101046562194824, 164.6210479736328, -0.03200000151991844, -0.09600000083446503, 1.040000081062317, 0.0, 0.0, 0.0, 0.0, 0.0, 1.6214216867835352E9, 2021-05-19 12:54:46.783
76.0, -56.345333099365234, 5.787495136260986, 21.913944244384766, 184.85765075683594, -0.03200000151991844, -0.09600000083446503, 1.040000081062317, 0.0, 0.0, 0.0, 0.0, 0.0, 1.6214216867842517E9, 2021-05-19 12:54:46.784
76.0, -23.624948501586914, 1.0266025066375732, 38.519100189208984, 211.126708984375, -0.03200000151991844, -0.09600000083446503, 1.040000081062317, 0.0, 0.0, 0.0, 0.0, 0.0, 1.6214216867842517E9, 2021-05-19 12:54:46.784
77.0, -64.15424346923828, -43.91203689575195, 13.899337768554688, 166.45733642578125, -0.03200000151991844, -0.09600000083446503, 1.040000081062317, 0.0, 0.0, 0.0, 0.0, 0.0, 1.6214216867960238E9, 2021-05-19 12:54:46.796
77.0, -76.42485809326172, -23.10323143005371, 5.050734996795654, 175.8893585205078, -0.03200000151991844, -0.09600000083446503, 1.040000081062317, 0.0, 0.0, 0.0, 0.0, 0.0, 1.6214216867960238E9, 2021-05-19 12:54:46.796
78.0, -57.149410247802734, -22.04483985900879, 14.90537166595459, 167.18661499023438, -0.03200000151991844, -0.09600000083446503, 1.040000081062317, 0.0, 0.0, 0.0, 0.0, 0.0, 1.6214216867966723E9, 2021-05-19 12:54:46.796
78.0, -30.5175838470459, -0.7685494422912598, 31.398330688476562, 205.67393493652344, -0.03200000151991844, -0.09600000083446503, 1.040000081062317, 0.0, 0.0, 0.0, 0.0, 0.0, 1.6214216867966723E9, 2021-05-19 12:54:46.796
79.0, -71.9631576538086, -35.34018325805664, 13.386971473693848, 166.8238525390625, -0.03200000151991844, -0.09600000083446503, 1.040000081062317, 0.0, 0.0, 0.0, 0.0, 0.0, 1.6214216868103063E9, 2021-05-19 12:54:46.810
79.0, -80.20589447021484, -39.57374954223633, 7.833220481872559, 171.9886474609375, -0.03200000151991844, -0.09600000083446503, 1.040000081062317, 0.0, 0.0, 0.0, 0.0, 0.0, 1.6214216868103063E9, 2021-05-19 12:54:46.810
80.0, -54.14253234863281, -3.386479377746582, 18.050626754760742, 180.86717224121094, -0.03200000151991844, -0.09600000083446503, 1.040000081062317, 0.0, 0.0, 0.0, 0.0, 0.0, 1.6214216868263204E9, 2021-05-19 12:54:46.826
80.0, -43.48007583618164, -9.860246658325195, 20.50400161743164, 178.78778076171875, -0.03200000151991844, -0.09600000083446503, 1.040000081062317, 0.0, 0.0, 0.0, 0.0, 0.0, 1.6214216868263204E9, 2021-05-19 12:54:46.826
81.0, -51.13191223144531, -15.814167022705078, 15.081146240234375, 184.7379608154297, -0.03200000151991844, -0.08000000566244125, 1.040000081062317, 0.0, 0.0, 0.0, 0.0, 0.0, 1.621421686841116E9, 2021-05-19 12:54:46.841
81.0, -84.68255615234375, -59.81034851074219, -4.149418830871582, 175.35455322265625, -0.03200000151991844, -0.08000000566244125, 1.040000081062317, 0.0, 0.0, 0.0, 0.0, 0.0, 1.621421686841116E9, 2021-05-19 12:54:46.841
82.0, -52.627872467041016, -25.900676727294922, 8.876652717590332, 181.47303771972656, -0.03200000151991844, -0.08000000566244125, 1.040000081062317, 0.0, 0.0, 0.0, 0.0, 0.0, 1.6214216868416977E9, 2021-05-19 12:54:46.841
82.0, -35.37197494506836, 9.579753875732422, 22.994775772094727, 191.2341766357422, -0.03200000151991844, -0.08000000566244125, 1.040000081062317, 0.0, 0.0, 0.0, 0.0, 0.0, 1.6214216868416977E9, 2021-05-19 12:54:46.841
83.0, -68.14097595214844, -20.795713424682617, 9.22446346282959, 211.51939392089844, -0.03200000151991844, -0.08000000566244125, 1.040000081062317, 0.0, 0.0, 0.0, 0.0, 0.0, 1.6214216868559463E9, 2021-05-19 12:54:46.855
83.0, -87.19950866699219, -66.8750228881836, -13.218676567077637, 153.73793029785156, -0.03200000151991844, -0.08000000566244125, 1.040000081062317, 0.0, 0.0, 0.0, 0.0, 0.0, 1.6214216868559463E9, 2021-05-19 12:54:46.855
84.0, -51.89485168457031, -18.450796127319336, 12.998022079467773, 187.9243621826172, -0.03200000151991844, -0.08000000566244125, 1.040000081062317, 0.0, 0.0, 0.0, 0.0, 0.0, 1.6214216868566496E9, 2021-05-19 12:54:46.856
84.0, -33.255191802978516, -1.6810849905014038, 26.143770217895508, 198.81495666503906, -0.03200000151991844, -0.08000000566244125, 1.040000081062317, 0.0, 0.0, 0.0, 0.0, 0.0, 1.6214216868566496E9, 2021-05-19 12:54:46.856
85.0, -63.08089065551758, -28.503646850585938, 15.032527923583984, 184.52479553222656, -0.03200000151991844, -0.08000000566244125, 1.040000081062317, 0.0, 0.0, 0.0, 0.0, 0.0, 1.6214216868702831E9, 2021-05-19 12:54:46.870
85.0, -73.22724151611328, -44.75725173950195, 9.074867248535156, 178.4773712158203, -0.03200000151991844, -0.08000000566244125, 1.040000081062317, 0.0, 0.0, 0.0, 0.0, 0.0, 1.6214216868702831E9, 2021-05-19 12:54:46.870
86.0, -40.76490783691406, -27.946401596069336, 15.589773178100586, 207.65982055664062, -0.03200000151991844, -0.08000000566244125, 1.040000081062317, 0.0, 0.0, 0.0, 0.0, 0.0, 1.6214216868863704E9, 2021-05-19 12:54:46.886
86.0, -42.934051513671875, 11.367425918579102, 23.548280715942383, 183.22705078125, -0.03200000151991844, -0.08000000566244125, 1.040000081062317, 0.0, 0.0, 0.0, 0.0, 0.0, 1.6214216868863704E9, 2021-05-19 12:54:46.886
87.0, -34.721229553222656, -38.657474517822266, 24.311220169067383, 192.32997131347656, -0.03200000151991844, -0.08000000566244125, 1.040000081062317, 0.0, 0.0, 0.0, 0.0, 0.0, 1.6214216869009724E9, 2021-05-19 12:54:46.900
87.0, -96.86341094970703, -42.3188362121582, -6.557914733886719, 152.9525604248047, -0.03200000151991844, -0.08000000566244125, 1.040000081062317, 0.0, 0.0, 0.0, 0.0, 0.0, 1.6214216869009724E9, 2021-05-19 12:54:46.900
88.0, -66.47298431396484, -18.289979934692383, 11.027094841003418, 175.95294189453125, -0.03200000151991844, -0.08000000566244125, 1.040000081062317, 0.0, 0.0, 0.0, 0.0, 0.0, 1.6214216869016786E9, 2021-05-19 12:54:46.901
88.0, -35.861900329589844, 20.76579475402832, 25.55660629272461, 213.6586151123047, -0.03200000151991844, -0.08000000566244125, 1.040000081062317, 0.0, 0.0, 0.0, 0.0, 0.0, 1.6214216869016786E9, 2021-05-19 12:54:46.901
89.0, -63.43618392944336, -41.8962287902832, 11.917191505432129, 184.77911376953125, -0.03200000151991844, -0.08000000566244125, 1.040000081062317, 0.0, 0.0, 0.0, 0.0, 0.0, 1.6214216869160483E9, 2021-05-19 12:54:46.916
89.0, -66.49168395996094, -72.20063781738281, 3.1882646083831787, 162.55288696289062, -0.03200000151991844, -0.08000000566244125, 1.040000081062317, 0.0, 0.0, 0.0, 0.0, 0.0, 1.6214216869160483E9, 2021-05-19 12:54:46.916
90.0, -50.099700927734375, -7.118899345397949, 23.30144691467285, 184.13211059570312, -0.03200000151991844, -0.08000000566244125, 1.040000081062317, 0.0, 0.0, 0.0, 0.0, 0.0, 1.6214216869169197E9, 2021-05-19 12:54:46.916
90.0, -18.613481521606445, -18.53307342529297, 33.91902160644531, 197.6817626953125, -0.03200000151991844, -0.08000000566244125, 1.040000081062317, 0.0, 0.0, 0.0, 0.0, 0.0, 1.6214216869169197E9, 2021-05-19 12:54:46.916
91.0, -66.92925262451172, -9.411458015441895, 14.32568645477295, 180.4183807373047, -0.03200000151991844, -0.08000000566244125, 1.040000081062317, 0.0, 0.0, 0.0, 0.0, 0.0, 1.6214216869303696E9, 2021-05-19 12:54:46.930
91.0, -89.50702667236328, -70.49898529052734, -3.8876259326934814, 161.54684448242188, -0.03200000151991844, -0.08000000566244125, 1.040000081062317, 0.0, 0.0, 0.0, 0.0, 0.0, 1.6214216869303696E9, 2021-05-19 12:54:46.930
92.0, -48.62617874145508, -26.715974807739258, 25.347171783447266, 221.7554931640625, -0.03200000151991844, -0.08000000566244125, 1.040000081062317, 0.0, 0.0, 0.0, 0.0, 0.0, 1.6214216869464655E9, 2021-05-19 12:54:46.946
92.0, -34.22008514404297, -22.684362411499023, 17.815013885498047, 189.17723083496094, -0.03200000151991844, -0.08000000566244125, 1.040000081062317, 0.0, 0.0, 0.0, 0.0, 0.0, 1.6214216869464655E9, 2021-05-19 12:54:46.946
93.0, -50.93369674682617, -29.18056869506836, 12.53801441192627, 163.78704833984375, -0.03200000151991844, -0.08000000566244125, 1.040000081062317, 0.0, 0.0, 0.0, 0.0, 0.0, 1.621421686961033E9, 2021-05-19 12:54:46.961
93.0, -66.23362731933594, -33.473976135253906, 9.299261093139648, 176.83181762695312, -0.03200000151991844, -0.08000000566244125, 1.040000081062317, 0.0, 0.0, 0.0, 0.0, 0.0, 1.621421686961033E9, 2021-05-19 12:54:46.961
94.0, -43.1883659362793, -16.03108024597168, 17.0483341217041, 190.093505859375, -0.03200000151991844, -0.08000000566244125, 1.040000081062317, 0.0, 0.0, 0.0, 0.0, 0.0, 1.6214216869617736E9, 2021-05-19 12:54:46.961
94.0, -37.627132415771484, -7.8294806480407715, 26.813213348388672, 199.48065185546875, -0.03200000151991844, -0.08000000566244125, 1.040000081062317, 0.0, 0.0, 0.0, 0.0, 0.0, 1.6214216869617736E9, 2021-05-19 12:54:46.961
95.0, -68.38033294677734, -31.016860961914062, 19.52788734436035, 178.74664306640625, -0.03200000151991844, -0.08000000566244125, 1.040000081062317, 0.0, 0.0, 0.0, 0.0, 0.0, 1.6214216869759712E9, 2021-05-19 12:54:46.975
95.0, -54.51278305053711, -72.10713958740234, 14.228449821472168, 194.43179321289062, -0.03200000151991844, -0.08000000566244125, 1.040000081062317, 0.0, 0.0, 0.0, 0.0, 0.0, 1.6214216869759712E9, 2021-05-19 12:54:46.975
96.0, -52.654052734375, 5.237730026245117, 21.345478057861328, 183.144775390625, -0.03200000151991844, -0.08000000566244125, 1.040000081062317, 0.0, 0.0, 0.0, 0.0, 0.0, 1.6214216869767587E9, 2021-05-19 12:54:46.976
96.0, -18.478845596313477, -8.40168571472168, 25.855798721313477, 205.83474731445312, -0.03200000151991844, -0.08000000566244125, 1.040000081062317, 0.0, 0.0, 0.0, 0.0, 0.0, 1.6214216869767587E9, 2021-05-19 12:54:46.976
97.0, -75.11215209960938, -32.7596549987793, 11.995729446411133, 159.4038848876953, -0.03200000151991844, -0.08000000566244125, 1.040000081062317, 0.0, 0.0, 0.0, 0.0, 0.0, 1.621421687006594E9, 2021-05-19 12:54:47.006
97.0, -80.16849517822266, -47.28168487548828, 2.05507493019104, 173.4359893798828, -0.03200000151991844, -0.08000000566244125, 1.040000081062317, 0.0, 0.0, 0.0, 0.0, 0.0, 1.621421687006594E9, 2021-05-19 12:54:47.006
98.0, -39.61302185058594, -14.426664352416992, 21.26694107055664, 213.04527282714844, -0.03200000151991844, -0.08000000566244125, 1.040000081062317, 0.0, 0.0, 0.0, 0.0, 0.0, 1.6214216870222623E9, 2021-05-19 12:54:47.022
98.0, -35.55522918701172, -22.071020126342773, 25.08163833618164, 175.7248077392578, -0.03200000151991844, -0.08000000566244125, 1.040000081062317, 0.0, 0.0, 0.0, 0.0, 0.0, 1.6214216870222623E9, 2021-05-19 12:54:47.022
99.0, -48.899192810058594, -23.320146560668945, 20.029033660888672, 187.75607299804688, -0.03200000151991844, -0.08000000566244125, 1.040000081062317, 0.0, 0.0, 0.0, 0.0, 0.0, 1.6214216870229354E9, 2021-05-19 12:54:47.022
99.0, -63.312767028808594, -45.026527404785156, 11.374905586242676, 180.95318603515625, -0.03200000151991844, -0.08000000566244125, 1.040000081062317, 0.0, 0.0, 0.0, 0.0, 0.0, 1.6214216870229354E9, 2021-05-19 12:54:47.022
100.0, -38.24421691894531, -15.731888771057129, 17.478422164916992, 194.18869018554688, -0.03200000151991844, -0.08000000566244125, 1.040000081062317, 0.0, 0.0, 0.0, 0.0, 0.0, 1.6214216870235963E9, 2021-05-19 12:54:47.023
100.0, -44.134559631347656, -8.614859580993652, 19.729843139648438, 183.41030883789062, -0.03200000151991844, -0.08000000566244125, 1.040000081062317, 0.0, 0.0, 0.0, 0.0, 0.0, 1.6214216870235963E9, 2021-05-19 12:54:47.023
0.0, -69.85945892333984, -34.433258056640625, 13.80958080291748, 198.89535522460938, -0.03200000151991844, -0.08000000566244125, 1.040000081062317, 0.0, 0.0, 0.0, 0.0, 0.0, 1.6214216870680568E9, 2021-05-19 12:54:47.068
1.0, -58.527565002441406, -70.46719360351562, 6.217583656311035, 174.7056884765625, -0.03200000151991844, -0.08000000566244125, 1.040000081062317, 0.0, 0.0, 0.0, 0.0, 0.0, 1.6214216870687175E9, 2021-05-19 12:54:47.068
1.0, -56.94932556152344, -2.879723072052002, 4.788941860198975, 186.54995727539062, -0.03200000151991844, -0.08000000566244125, 1.040000081062317, 0.0, 0.0, 0.0, 0.0, 0.0, 1.6214216870687175E9, 2021-05-19 12:54:47.068
2.0, -54.21171951293945, -24.89277458190918, 21.581092834472656, 197.90054321289062, -0.03200000151991844, -0.08000000566244125, 1.040000081062317, 0.0, 0.0, 0.0, 0.0, 0.0, 1.6214216870694437E9, 2021-05-19 12:54:47.069
2.0, -61.96453094482422, -33.94707107543945, 12.964363098144531, 171.00318908691406, -0.03200000151991844, -0.08000000566244125, 1.040000081062317, 0.0, 0.0, 0.0, 0.0, 0.0, 1.6214216870694437E9, 2021-05-19 12:54:47.069
3.0, -72.1333236694336, -45.1181526184082, 3.5285956859588623, 174.33917236328125, -0.03200000151991844, -0.08000000566244125, 1.040000081062317, 0.0, 0.0, 0.0, 0.0, 0.0, 1.6214216870702431E9, 2021-05-19 12:54:47.070
3.0, -44.155128479003906, -23.467872619628906, 10.69050407409668, 189.2875518798828, -0.03200000151991844, -0.08000000566244125, 1.040000081062317, 0.0, 0.0, 0.0, 0.0, 0.0, 1.6214216870702431E9, 2021-05-19 12:54:47.070
4.0, -43.02568054199219, -22.71615219116211, 18.417137145996094, 198.1959991455078, -0.03200000151991844, -0.08000000566244125, 1.040000081062317, 0.0, 0.0, 0.0, 0.0, 0.0, 1.6214216870817049E9, 2021-05-19 12:54:47.081
4.0, -55.8759765625, -42.694698333740234, 12.747448921203613, 199.2431640625, -0.03200000151991844, -0.08000000566244125, 1.040000081062317, 0.0, 0.0, 0.0, 0.0, 0.0, 1.6214216870817049E9, 2021-05-19 12:54:47.081
5.0, -55.06441879272461, -39.541961669921875, -0.5030165314674377, 162.1583251953125, -0.03200000151991844, -0.08000000566244125, 1.040000081062317, 0.0, 0.0, 0.0, 0.0, 0.0, 1.6214216870823362E9, 2021-05-19 12:54:47.082
5.0, -75.60395050048828, -46.05312728881836, -5.514482498168945, 173.49021911621094, -0.03200000151991844, -0.08000000566244125, 1.040000081062317, 0.0, 0.0, 0.0, 0.0, 0.0, 1.6214216870823362E9, 2021-05-19 12:54:47.082
6.0, -28.110958099365234, 12.083617210388184, 16.105878829956055, 187.04360961914062, -0.03200000151991844, -0.08000000566244125, 1.040000081062317, 0.0, 0.0, 0.0, 0.0, 0.0, 1.6214216870831084E9, 2021-05-19 12:54:47.083
6.0, -63.83822250366211, -59.875797271728516, 1.2584763765335083, 186.83792114257812, -0.03200000151991844, -0.08000000566244125, 1.040000081062317, 0.0, 0.0, 0.0, 0.0, 0.0, 1.6214216870831084E9, 2021-05-19 12:54:47.083
7.0, -66.8338851928711, -61.072566986083984, 1.905479073524475, 179.7470703125, -0.03200000151991844, -0.08000000566244125, 1.040000081062317, 0.0, 0.0, 0.0, 0.0, 0.0, 1.6214216870953903E9, 2021-05-19 12:54:47.095
7.0, -37.11289596557617, -29.44797134399414, 12.960623741149902, 176.08944702148438, -0.03200000151991844, -0.08000000566244125, 1.040000081062317, 0.0, 0.0, 0.0, 0.0, 0.0, 1.6214216870953903E9, 2021-05-19 12:54:47.095
8.0, -57.62624740600586, -21.956953048706055, 21.367918014526367, 194.14942932128906, -0.03200000151991844, -0.08000000566244125, 1.040000081062317, 0.0, 0.0, 0.0, 0.0, 0.0, 1.621421687111698E9, 2021-05-19 12:54:47.111
8.0, -70.64109802246094, -23.78950309753418, 15.90766429901123, 192.8479461669922, -0.03200000151991844, -0.08000000566244125, 1.040000081062317, 0.0, 0.0, 0.0, 0.0, 0.0, 1.621421687111698E9, 2021-05-19 12:54:47.111
9.0, -75.43565368652344, -38.984718322753906, 7.481669902801514, 176.45596313476562, -0.03200000151991844, -0.08000000566244125, 1.040000081062317, 0.0, 0.0, 0.0, 0.0, 0.0, 1.621421687112358E9, 2021-05-19 12:54:47.112
9.0, -53.37398147583008, -27.331188201904297, 16.47612953186035, 211.08743286132812, -0.03200000151991844, -0.08000000566244125, 1.040000081062317, 0.0, 0.0, 0.0, 0.0, 0.0, 1.621421687112358E9, 2021-05-19 12:54:47.112
10.0, -28.911296844482422, -39.534481048583984, 25.220014572143555, 174.37283325195312, -0.03200000151991844, -0.08000000566244125, 1.040000081062317, 0.0, 0.0, 0.0, 0.0, 0.0, 1.6214216871252544E9, 2021-05-19 12:54:47.125
10.0, -58.40414810180664, -44.3028564453125, 12.710049629211426, 176.3175811767578, -0.03200000151991844, -0.08000000566244125, 1.040000081062317, 0.0, 0.0, 0.0, 0.0, 0.0, 1.6214216871252544E9, 2021-05-19 12:54:47.125
11.0, -67.72771453857422, -56.88387680053711, 10.832620620727539, 199.08609008789062, -0.03200000151991844, -0.08000000566244125, 1.040000081062317, 0.0, 0.0, 0.0, 0.0, 0.0, 1.6214216871409006E9, 2021-05-19 12:54:47.140
11.0, -53.11967086791992, -27.39476776123047, 17.527040481567383, 186.62100219726562, -0.03200000151991844, -0.08000000566244125, 1.040000081062317, 0.0, 0.0, 0.0, 0.0, 0.0, 1.6214216871409006E9, 2021-05-19 12:54:47.140
12.0, -39.5550537109375, -13.179407119750977, 34.992374420166016, 191.41929626464844, -0.03200000151991844, -0.08000000566244125, 1.040000081062317, 0.0, 0.0, 0.0, 0.0, 0.0, 1.6214216871416328E9, 2021-05-19 12:54:47.141
12.0, -48.19422149658203, -54.52400207519531, 26.349464416503906, 178.75599670410156, -0.03200000151991844, -0.08000000566244125, 1.040000081062317, 0.0, 0.0, 0.0, 0.0, 0.0, 1.6214216871416328E9, 2021-05-19 12:54:47.141
13.0, -75.60395050048828, -54.5614013671875, 15.660831451416016, 192.94143676757812, -0.03200000151991844, -0.08000000566244125, 1.040000081062317, 0.0, 0.0, 0.0, 0.0, 0.0, 1.621421687155338E9, 2021-05-19 12:54:47.155
13.0, -47.74169158935547, -26.366294860839844, 25.489288330078125, 177.80979919433594, -0.03200000151991844, -0.08000000566244125, 1.040000081062317, 0.0, 0.0, 0.0, 0.0, 0.0, 1.621421687155338E9, 2021-05-19 12:54:47.155
14.0, -36.989479064941406, -16.197505950927734, 33.42909622192383, 189.7587890625, -0.03200000151991844, -0.08000000566244125, 1.040000081062317, 0.0, 0.0, 0.0, 0.0, 0.0, 1.621421687171672E9, 2021-05-19 12:54:47.171
14.0, -51.85932159423828, -55.7880859375, 24.763748168945312, 177.7611846923828, -0.03200000151991844, -0.08000000566244125, 1.040000081062317, 0.0, 0.0, 0.0, 0.0, 0.0, 1.621421687171672E9, 2021-05-19 12:54:47.171
15.0, -67.04331970214844, -63.79521179199219, 13.285994529724121, 174.2718505859375, -0.03200000151991844, -0.08000000566244125, 1.040000081062317, 0.0, 0.0, 0.0, 0.0, 0.0, 1.6214216871723537E9, 2021-05-19 12:54:47.172
15.0, -45.26961898803711, -20.726526260375977, 21.951343536376953, 188.1917724609375, -0.03200000151991844, -0.08000000566244125, 1.040000081062317, 0.0, 0.0, 0.0, 0.0, 0.0, 1.6214216871723537E9, 2021-05-19 12:54:47.172
16.0, -42.962100982666016, -38.54340744018555, 29.240407943725586, 182.7614288330078, -0.03200000151991844, -0.08000000566244125, 1.040000081062317, 0.0, 0.0, 0.0, 0.0, 0.0, 1.6214216871853073E9, 2021-05-19 12:54:47.185
16.0, -66.99469757080078, -53.8283805847168, 26.259708404541016, 192.27947998046875, -0.03200000151991844, -0.08000000566244125, 1.040000081062317, 0.0, 0.0, 0.0, 0.0, 0.0, 1.6214216871853073E9, 2021-05-19 12:54:47.185
17.0, -73.083251953125, -47.803401947021484, 9.710650444030762, 188.63307189941406, -0.03200000151991844, -0.08000000566244125, 1.040000081062317, 0.0, 0.0, 0.0, 0.0, 0.0, 1.621421687200958E9, 2021-05-19 12:54:47.200
17.0, -36.74638748168945, -24.709518432617188, 23.207948684692383, 190.01309204101562, -0.03200000151991844, -0.08000000566244125, 1.040000081062317, 0.0, 0.0, 0.0, 0.0, 0.0, 1.621421687200958E9, 2021-05-19 12:54:47.200
18.0, -43.4221076965332, -32.34639358520508, 25.885717391967773, 195.63417053222656, -0.03200000151991844, -0.08000000566244125, 1.040000081062317, 0.0, 0.0, 0.0, 0.0, 0.0, 1.621421687201719E9, 2021-05-19 12:54:47.201
18.0, -60.58824920654297, -58.60423278808594, 25.347171783447266, 183.36355590820312, -0.03200000151991844, -0.08000000566244125, 1.040000081062317, 0.0, 0.0, 0.0, 0.0, 0.0, 1.621421687201719E9, 2021-05-19 12:54:47.201
19.0, -65.3902816772461, -44.366432189941406, 11.711496353149414, 180.44268798828125, -0.03200000151991844, -0.08000000566244125, 1.040000081062317, 0.0, 0.0, 0.0, 0.0, 0.0, 1.6214216872153907E9, 2021-05-19 12:54:47.215
19.0, -42.79754638671875, -50.4175910949707, 19.456829071044922, 191.26596069335938, -0.03200000151991844, -0.08000000566244125, 1.040000081062317, 0.0, 0.0, 0.0, 0.0, 0.0, 1.6214216872153907E9, 2021-05-19 12:54:47.215
20.0, -30.089365005493164, -33.01957702636719, 34.62212371826172, 191.3258056640625, -0.03200000151991844, -0.08000000566244125, 1.040000081062317, 0.0, 0.0, 0.0, 0.0, 0.0, 1.6214216872464728E9, 2021-05-19 12:54:47.246
20.0, -59.058631896972656, -53.19633865356445, 22.590866088867188, 177.1553192138672, -0.03200000151991844, -0.08000000566244125, 1.040000081062317, 0.0, 0.0, 0.0, 0.0, 0.0, 1.6214216872464728E9, 2021-05-19 12:54:47.246
21.0, -56.91566848754883, -52.41843795776367, 12.900784492492676, 188.1955108642578, -0.03200000151991844, -0.09600000083446503, 1.040000081062317, 0.0, 0.0, 0.0, 0.0, 0.0, 1.621421687247173E9, 2021-05-19 12:54:47.247
21.0, -33.178524017333984, -44.50481033325195, 24.000808715820312, 182.8960723876953, -0.03200000151991844, -0.09600000083446503, 1.040000081062317, 0.0, 0.0, 0.0, 0.0, 0.0, 1.621421687247173E9, 2021-05-19 12:54:47.247
22.0, -35.8749885559082, -17.540130615234375, 29.78643226623535, 192.17849731445312, -0.03200000151991844, -0.09600000083446503, 1.040000081062317, 0.0, 0.0, 0.0, 0.0, 0.0, 1.6214216872621124E9, 2021-05-19 12:54:47.262
22.0, -53.57593536376953, -56.96241760253906, 20.773273468017578, 188.74526977539062, -0.03200000151991844, -0.09600000083446503, 1.040000081062317, 0.0, 0.0, 0.0, 0.0, 0.0, 1.6214216872621124E9, 2021-05-19 12:54:47.262
23.0, -66.4935531616211, -63.78025436401367, 9.261861801147461, 166.55270385742188, -0.03200000151991844, -0.09600000083446503, 1.040000081062317, 0.0, 0.0, 0.0, 0.0, 0.0, 1.621421687262808E9, 2021-05-19 12:54:47.262
23.0, -36.376136779785156, -31.20946502685547, 20.309526443481445, 190.3496856689453, -0.03200000151991844, -0.09600000083446503, 1.040000081062317, 0.0, 0.0, 0.0, 0.0, 0.0, 1.621421687262808E9, 2021-05-19 12:54:47.262
24.0, -22.1719970703125, -42.61616134643555, 34.236915588378906, 200.79522705078125, -0.03200000151991844, -0.09600000083446503, 1.040000081062317, 0.0, 0.0, 0.0, 0.0, 0.0, 1.6214216872759645E9, 2021-05-19 12:54:47.275
24.0, -61.25395202636719, -41.07158279418945, 18.97812271118164, 180.2220458984375, -0.03200000151991844, -0.09600000083446503, 1.040000081062317, 0.0, 0.0, 0.0, 0.0, 0.0, 1.6214216872759645E9, 2021-05-19 12:54:47.275
25.0, -61.863555908203125, -59.61026382446289, 11.423524856567383, 190.6825408935547, -0.03200000151991844, -0.09600000083446503, 1.040000081062317, 0.0, 0.0, 0.0, 0.0, 0.0, 1.6214216872766347E9, 2021-05-19 12:54:47.276
25.0, -49.533103942871094, -29.49285125732422, 24.883424758911133, 184.51170349121094, -0.03200000151991844, -0.09600000083446503, 1.040000081062317, 0.0, 0.0, 0.0, 0.0, 0.0, 1.6214216872766347E9, 2021-05-19 12:54:47.276
26.0, -38.60511779785156, -38.255435943603516, 34.98863220214844, 194.4635772705078, -0.03200000151991844, -0.09600000083446503, 1.040000081062317, 0.0, 0.0, 0.0, 0.0, 0.0, 1.6214216872910771E9, 2021-05-19 12:54:47.291
26.0, -50.71117401123047, -38.02730178833008, 26.005393981933594, 181.1046600341797, -0.03200000151991844, -0.09600000083446503, 1.040000081062317, 0.0, 0.0, 0.0, 0.0, 0.0, 1.6214216872910771E9, 2021-05-19 12:54:47.291
27.0, -73.25154876708984, -68.81041717529297, 8.596159934997559, 166.42929077148438, -0.03200000151991844, -0.09600000083446503, 1.040000081062317, 0.0, 0.0, 0.0, 0.0, 0.0, 1.621421687291686E9, 2021-05-19 12:54:47.291
27.0, -39.81684494018555, -28.53917694091797, 24.53935432434082, 192.53378295898438, -0.03200000151991844, -0.09600000083446503, 1.040000081062317, 0.0, 0.0, 0.0, 0.0, 0.0, 1.621421687291686E9, 2021-05-19 12:54:47.291
28.0, -41.395084381103516, -35.865638732910156, 35.35514450073242, 196.00067138671875, -0.03200000151991844, -0.09600000083446503, 1.040000081062317, 0.0, 0.0, 0.0, 0.0, 0.0, 1.621421687305228E9, 2021-05-19 12:54:47.305
28.0, -61.680301666259766, -52.75876998901367, 21.76808738708496, 186.3704376220703, -0.03200000151991844, -0.09600000083446503, 1.040000081062317, 0.0, 0.0, 0.0, 0.0, 0.0, 1.621421687305228E9, 2021-05-19 12:54:47.305
29.0, -65.44264221191406, -55.92646408081055, 20.75831413269043, 190.23748779296875, -0.03200000151991844, -0.09600000083446503, 1.040000081062317, 0.0, 0.0, 0.0, 0.0, 0.0, 1.6214216873210144E9, 2021-05-19 12:54:47.321
29.0, -41.50727844238281, -28.96926498413086, 22.85639762878418, 191.01165771484375, -0.03200000151991844, -0.09600000083446503, 1.040000081062317, 0.0, 0.0, 0.0, 0.0, 0.0, 1.6214216873210144E9, 2021-05-19 12:54:47.321
30.0, -25.586524963378906, -32.136959075927734, 36.413536071777344, 191.86061096191406, -0.03200000151991844, -0.09600000083446503, 1.040000081062317, 0.0, 0.0, 0.0, 0.0, 0.0, 1.6214216873217244E9, 2021-05-19 12:54:47.321
30.0, -60.203041076660156, -49.83790588378906, 18.23014259338379, 179.1038055419922, -0.03200000151991844, -0.09600000083446503, 1.040000081062317, 0.0, 0.0, 0.0, 0.0, 0.0, 1.6214216873217244E9, 2021-05-19 12:54:47.321
31.0, -60.8238639831543, -44.617008209228516, 16.367671966552734, 192.50387573242188, -0.03200000151991844, -0.08000000566244125, 1.040000081062317, 0.0, 0.0, 0.0, 0.0, 0.0, 1.6214216873353517E9, 2021-05-19 12:54:47.335
31.0, -48.14560317993164, -27.293790817260742, 21.40157699584961, 177.38719177246094, -0.03200000151991844, -0.08000000566244125, 1.040000081062317, 0.0, 0.0, 0.0, 0.0, 0.0, 1.6214216873353517E9, 2021-05-19 12:54:47.335
32.0, -33.03266525268555, -34.17894744873047, 31.057998657226562, 191.33702087402344, -0.03200000151991844, -0.08000000566244125, 1.040000081062317, 0.0, 0.0, 0.0, 0.0, 0.0, 1.6214216873510196E9, 2021-05-19 12:54:47.351
32.0, -53.2879638671875, -54.957828521728516, 19.726102828979492, 169.79893493652344, -0.03200000151991844, -0.08000000566244125, 1.040000081062317, 0.0, 0.0, 0.0, 0.0, 0.0, 1.6214216873510196E9, 2021-05-19 12:54:47.351
33.0, -60.49101257324219, -60.118892669677734, 14.901631355285645, 172.6636962890625, -0.03200000151991844, -0.08000000566244125, 1.040000081062317, 0.0, 0.0, 0.0, 0.0, 0.0, 1.621421687351699E9, 2021-05-19 12:54:47.351
33.0, -30.6877498626709, -30.1061954498291, 31.81719970703125, 189.3286895751953, -0.03200000151991844, -0.08000000566244125, 1.040000081062317, 0.0, 0.0, 0.0, 0.0, 0.0, 1.621421687351699E9, 2021-05-19 12:54:47.351
34.0, -19.785940170288086, -26.54581069946289, 42.816246032714844, 199.5573272705078, -0.03200000151991844, -0.08000000566244125, 1.040000081062317, 0.0, 0.0, 0.0, 0.0, 0.0, 1.6214216873653295E9, 2021-05-19 12:54:47.365
34.0, -43.0294189453125, -48.92537307739258, 37.50558853149414, 202.65396118164062, -0.03200000151991844, -0.08000000566244125, 1.040000081062317, 0.0, 0.0, 0.0, 0.0, 0.0, 1.6214216873653295E9, 2021-05-19 12:54:47.365
35.0, -48.328857421875, -43.117305755615234, 22.7292423248291, 181.32156372070312, -0.03200000151991844, -0.08000000566244125, 1.040000081062317, 0.0, 0.0, 0.0, 0.0, 0.0, 1.6214216873811789E9, 2021-05-19 12:54:47.381
35.0, -47.99226760864258, -22.08036994934082, 28.619585037231445, 187.18572998046875, -0.03200000151991844, -0.08000000566244125, 1.040000081062317, 0.0, 0.0, 0.0, 0.0, 0.0, 1.6214216873811789E9, 2021-05-19 12:54:47.381
36.0, -27.314359664916992, -18.175912857055664, 35.77401351928711, 209.5989532470703, -0.03200000151991844, -0.08000000566244125, 1.040000081062317, 0.0, 0.0, 0.0, 0.0, 0.0, 1.6214216873816648E9, 2021-05-19 12:54:47.381
36.0, -58.49016571044922, -49.46017837524414, 18.499414443969727, 184.747314453125, -0.03200000151991844, -0.08000000566244125, 1.040000081062317, 0.0, 0.0, 0.0, 0.0, 0.0, 1.6214216873816648E9, 2021-05-19 12:54:47.381
37.0, -61.59428405761719, -54.38188552856445, 8.487703323364258, 168.56851196289062, -0.03200000151991844, -0.08000000566244125, 1.040000081062317, 0.0, 0.0, 0.0, 0.0, 0.0, 1.6214216873953004E9, 2021-05-19 12:54:47.395
37.0, -30.440916061401367, -34.8895263671875, 13.49916934967041, 183.49070739746094, -0.03200000151991844, -0.08000000566244125, 1.040000081062317, 0.0, 0.0, 0.0, 0.0, 0.0, 1.6214216873953004E9, 2021-05-19 12:54:47.395
38.0, -47.64445495605469, -26.859960556030273, 24.251380920410156, 198.8729248046875, -0.03200000151991844, -0.08000000566244125, 1.040000081062317, 0.0, 0.0, 0.0, 0.0, 0.0, 1.6214216874109812E9, 2021-05-19 12:54:47.410
38.0, -60.98841857910156, -46.90208435058594, 19.483009338378906, 183.70388793945312, -0.03200000151991844, -0.08000000566244125, 1.040000081062317, 0.0, 0.0, 0.0, 0.0, 0.0, 1.6214216874109812E9, 2021-05-19 12:54:47.410
39.0, -71.62843322753906, -54.51652145385742, 8.996329307556152, 166.34701538085938, -0.03200000151991844, -0.08000000566244125, 1.040000081062317, 0.0, 0.0, 0.0, 0.0, 0.0, 1.6214216874117138E9, 2021-05-19 12:54:47.411
39.0, -39.30447769165039, -48.62617874145508, 26.97028923034668, 187.65321350097656, -0.03200000151991844, -0.08000000566244125, 1.040000081062317, 0.0, 0.0, 0.0, 0.0, 0.0, 1.6214216874117138E9, 2021-05-19 12:54:47.411
40.0, -25.62766456604004, -18.557384490966797, 35.4000244140625, 199.07113647460938, -0.03200000151991844, -0.08000000566244125, 1.040000081062317, 0.0, 0.0, 0.0, 0.0, 0.0, 1.6214216874252472E9, 2021-05-19 12:54:47.425
40.0, -52.48762512207031, -50.73922348022461, 16.603286743164062, 183.7412872314453, -0.03200000151991844, -0.08000000566244125, 1.040000081062317, 0.0, 0.0, 0.0, 0.0, 0.0, 1.6214216874252472E9, 2021-05-19 12:54:47.425
41.0, -65.77922821044922, -52.57551193237305, 3.3715198040008545, 163.07833862304688, -0.03200000151991844, -0.09600000083446503, 1.040000081062317, 0.0, 0.0, 0.0, 0.0, 0.0, 1.621421687440938E9, 2021-05-19 12:54:47.440
41.0, -42.44973373413086, -28.434459686279297, 17.455982208251953, 195.8211669921875, -0.03200000151991844, -0.09600000083446503, 1.040000081062317, 0.0, 0.0, 0.0, 0.0, 0.0, 1.621421687440938E9, 2021-05-19 12:54:47.440
42.0, -31.895736694335938, -18.261932373046875, 29.303985595703125, 189.60545349121094, -0.03200000151991844, -0.09600000083446503, 1.040000081062317, 0.0, 0.0, 0.0, 0.0, 0.0, 1.6214216874416552E9, 2021-05-19 12:54:47.441
42.0, -54.82880401611328, -60.54523849487305, 13.712343215942383, 180.6708221435547, -0.03200000151991844, -0.09600000083446503, 1.040000081062317, 0.0, 0.0, 0.0, 0.0, 0.0, 1.6214216874416552E9, 2021-05-19 12:54:47.441
43.0, -63.254798889160156, -46.932003021240234, 9.673251152038574, 170.8909912109375, -0.03200000151991844, -0.09600000083446503, 1.040000081062317, 0.0, 0.0, 0.0, 0.0, 0.0, 1.6214216874706693E9, 2021-05-19 12:54:47.470
43.0, -36.95956039428711, -33.01957702636719, 4.1568989753723145, 177.82476806640625, -0.03200000151991844, -0.09600000083446503, 1.040000081062317, 0.0, 0.0, 0.0, 0.0, 0.0, 1.6214216874706693E9, 2021-05-19 12:54:47.470
44.0, -40.617183685302734, -23.875520706176758, 29.75277328491211, 195.4770965576172, -0.03200000151991844, -0.09600000083446503, 1.040000081062317, 0.0, 0.0, 0.0, 0.0, 0.0, 1.6214216874867103E9, 2021-05-19 12:54:47.486
44.0, -63.763423919677734, -47.414451599121094, 21.341739654541016, 178.96917724609375, -0.03200000151991844, -0.09600000083446503, 1.040000081062317, 0.0, 0.0, 0.0, 0.0, 0.0, 1.6214216874867103E9, 2021-05-19 12:54:47.486
45.0, -64.85547637939453, -27.417205810546875, 8.480222702026367, 179.55259704589844, -0.03200000151991844, -0.09600000083446503, 1.040000081062317, 0.0, 0.0, 0.0, 0.0, 0.0, 1.6214216875023816E9, 2021-05-19 12:54:47.502
45.0, -47.71177291870117, -36.28076934814453, 14.153651237487793, 182.1742706298828, -0.03200000151991844, -0.09600000083446503, 1.040000081062317, 0.0, 0.0, 0.0, 0.0, 0.0, 1.6214216875023816E9, 2021-05-19 12:54:47.502
46.0, -38.69487380981445, -27.462085723876953, 28.780399322509766, 199.57601928710938, -0.03200000151991844, -0.09600000083446503, 1.040000081062317, 0.0, 0.0, 0.0, 0.0, 0.0, 1.6214216875030706E9, 2021-05-19 12:54:47.503
46.0, -55.82361602783203, -62.108516693115234, 12.9905424118042, 175.53594970703125, -0.03200000151991844, -0.09600000083446503, 1.040000081062317, 0.0, 0.0, 0.0, 0.0, 0.0, 1.6214216875030706E9, 2021-05-19 12:54:47.503
47.0, -73.11317443847656, -52.69892883300781, 1.890519380569458, 175.79774475097656, -0.03200000151991844, -0.09600000083446503, 1.040000081062317, 0.0, 0.0, 0.0, 0.0, 0.0, 1.621421687503799E9, 2021-05-19 12:54:47.503
47.0, -50.69621276855469, -30.94019317626953, 11.44222354888916, 184.01055908203125, -0.03200000151991844, -0.09600000083446503, 1.040000081062317, 0.0, 0.0, 0.0, 0.0, 0.0, 1.621421687503799E9, 2021-05-19 12:54:47.503
48.0, -39.622371673583984, -21.814836502075195, 20.993928909301758, 207.39614868164062, -0.03200000151991844, -0.09600000083446503, 1.040000081062317, 0.0, 0.0, 0.0, 0.0, 0.0, 1.6214216875045595E9, 2021-05-19 12:54:47.504
48.0, -60.96971893310547, -70.4821548461914, 3.487456798553467, 173.8193359375, -0.03200000151991844, -0.09600000083446503, 1.040000081062317, 0.0, 0.0, 0.0, 0.0, 0.0, 1.6214216875045595E9, 2021-05-19 12:54:47.504
49.0, -68.27374267578125, -61.32313919067383, 0.8283878564834595, 172.15133666992188, -0.03200000151991844, -0.09600000083446503, 1.040000081062317, 0.0, 0.0, 0.0, 0.0, 0.0, 1.621421687515308E9, 2021-05-19 12:54:47.515
49.0, -49.166595458984375, -36.15361404418945, 12.586633682250977, 187.0511016845703, -0.03200000151991844, -0.09600000083446503, 1.040000081062317, 0.0, 0.0, 0.0, 0.0, 0.0, 1.621421687515308E9, 2021-05-19 12:54:47.515
50.0, -41.5035400390625, -30.43156623840332, 22.310373306274414, 186.63223266601562, -0.03200000151991844, -0.09600000083446503, 1.040000081062317, 0.0, 0.0, 0.0, 0.0, 0.0, 1.6214216875306504E9, 2021-05-19 12:54:47.530
50.0, -50.83832931518555, -60.08149337768555, 12.048088073730469, 184.8408203125, -0.03200000151991844, -0.09600000083446503, 1.040000081062317, 0.0, 0.0, 0.0, 0.0, 0.0, 1.6214216875306504E9, 2021-05-19 12:54:47.530
51.0, -65.54735565185547, -55.42905807495117, -3.4201385974884033, 165.99920654296875, -0.03200000151991844, -0.08000000566244125, 1.040000081062317, 0.0, 0.0, 0.0, 0.0, 0.0, 1.6214216875460045E9, 2021-05-19 12:54:47.546
51.0, -48.586910247802734, -38.24421691894531, 8.880392074584961, 182.35377502441406, -0.03200000151991844, -0.08000000566244125, 1.040000081062317, 0.0, 0.0, 0.0, 0.0, 0.0, 1.6214216875460045E9, 2021-05-19 12:54:47.546
52.0, -35.96100616455078, -36.886634826660156, 22.063539505004883, 189.05941772460938, -0.03200000151991844, -0.08000000566244125, 1.040000081062317, 0.0, 0.0, 0.0, 0.0, 0.0, 1.6214216875467842E9, 2021-05-19 12:54:47.546
52.0, -61.12679672241211, -67.46031188964844, 7.328333854675293, 177.99305725097656, -0.03200000151991844, -0.08000000566244125, 1.040000081062317, 0.0, 0.0, 0.0, 0.0, 0.0, 1.6214216875467842E9, 2021-05-19 12:54:47.546
53.0, -59.96742630004883, -56.30793380737305, 3.5098960399627686, 166.66864013671875, -0.03200000151991844, -0.08000000566244125, 1.040000081062317, 0.0, 0.0, 0.0, 0.0, 0.0, 1.6214216875609884E9, 2021-05-19 12:54:47.560
53.0, -45.38181686401367, -29.212358474731445, 15.503755569458008, 188.3600616455078, -0.03200000151991844, -0.08000000566244125, 1.040000081062317, 0.0, 0.0, 0.0, 0.0, 0.0, 1.6214216875609884E9, 2021-05-19 12:54:47.560
54.0, -39.58123016357422, -37.08484649658203, 21.708250045776367, 198.28948974609375, -0.03200000151991844, -0.08000000566244125, 1.040000081062317, 0.0, 0.0, 0.0, 0.0, 0.0, 1.6214216875617166E9, 2021-05-19 12:54:47.561
54.0, -52.741939544677734, -58.61919021606445, 11.790034294128418, 174.0699005126953, -0.03200000151991844, -0.08000000566244125, 1.040000081062317, 0.0, 0.0, 0.0, 0.0, 0.0, 1.6214216875617166E9, 2021-05-19 12:54:47.561
55.0, -71.40778350830078, -47.653804779052734, -0.7573297619819641, 172.880615234375, -0.03200000151991844, -0.08000000566244125, 1.040000081062317, 0.0, 0.0, 0.0, 0.0, 0.0, 1.6214216875912576E9, 2021-05-19 12:54:47.591
55.0, -40.60596466064453, -35.40937423706055, 16.932397842407227, 182.77639770507812, -0.03200000151991844, -0.08000000566244125, 1.040000081062317, 0.0, 0.0, 0.0, 0.0, 0.0, 1.6214216875912576E9, 2021-05-19 12:54:47.591
56.0, -30.77002716064453, -38.43121337890625, 28.787879943847656, 201.8461456298828, -0.03200000151991844, -0.08000000566244125, 1.040000081062317, 0.0, 0.0, 0.0, 0.0, 0.0, 1.6214216876072853E9, 2021-05-19 12:54:47.607
56.0, -55.48702621459961, -59.868316650390625, 9.61715316772461, 178.3558349609375, -0.03200000151991844, -0.08000000566244125, 1.040000081062317, 0.0, 0.0, 0.0, 0.0, 0.0, 1.6214216876072853E9, 2021-05-19 12:54:47.607
57.0, -59.85149002075195, -56.925018310546875, 1.9802770614624023, 163.5532989501953, -0.03200000151991844, -0.08000000566244125, 1.040000081062317, 0.0, 0.0, 0.0, 0.0, 0.0, 1.6214216876079738E9, 2021-05-19 12:54:47.607
57.0, -40.78921890258789, -28.987964630126953, 13.278514862060547, 188.8238067626953, -0.03200000151991844, -0.08000000566244125, 1.040000081062317, 0.0, 0.0, 0.0, 0.0, 0.0, 1.6214216876079738E9, 2021-05-19 12:54:47.607
58.0, -37.23631286621094, -23.50153160095215, 21.01262855529785, 183.8160858154297, -0.03200000151991844, -0.08000000566244125, 1.040000081062317, 0.0, 0.0, 0.0, 0.0, 0.0, 1.6214216876088283E9, 2021-05-19 12:54:47.608
58.0, -54.87368392944336, -72.40446472167969, 13.573966979980469, 177.51060485839844, -0.03200000151991844, -0.08000000566244125, 1.040000081062317, 0.0, 0.0, 0.0, 0.0, 0.0, 1.6214216876088283E9, 2021-05-19 12:54:47.608
59.0, -64.29448699951172, -63.3052864074707, 2.627279758453369, 179.09632873535156, -0.03200000151991844, -0.08000000566244125, 1.040000081062317, 0.0, 0.0, 0.0, 0.0, 0.0, 1.6214216876095505E9, 2021-05-19 12:54:47.609
59.0, -42.9583625793457, -33.27762985229492, 12.908265113830566, 184.49301147460938, -0.03200000151991844, -0.08000000566244125, 1.040000081062317, 0.0, 0.0, 0.0, 0.0, 0.0, 1.6214216876095505E9, 2021-05-19 12:54:47.609
60.0, -23.851211547851562, -32.20427703857422, 21.143524169921875, 194.82635498046875, -0.03200000151991844, -0.08000000566244125, 1.055999994277954, 0.0, 0.0, 0.0, 0.0, 0.0, 1.6214216876203218E9, 2021-05-19 12:54:47.620
60.0, -58.65098190307617, -50.35401153564453, 17.08573341369629, 175.95108032226562, -0.03200000151991844, -0.08000000566244125, 1.055999994277954, 0.0, 0.0, 0.0, 0.0, 0.0, 1.6214216876203218E9, 2021-05-19 12:54:47.620
61.0, -74.05562591552734, -53.192596435546875, 0.6226933598518372, 173.37802124023438, -0.03200000151991844, -0.08000000566244125, 1.055999994277954, 0.0, 0.0, 0.0, 0.0, 0.0, 1.6214216876352105E9, 2021-05-19 12:54:47.635
61.0, -42.35997772216797, -30.700838088989258, 21.779308319091797, 192.35427856445312, -0.03200000151991844, -0.08000000566244125, 1.055999994277954, 0.0, 0.0, 0.0, 0.0, 0.0, 1.6214216876352105E9, 2021-05-19 12:54:47.635
62.0, -37.26997375488281, -32.82884216308594, 18.218923568725586, 194.14942932128906, -0.03200000151991844, -0.08000000566244125, 1.055999994277954, 0.0, 0.0, 0.0, 0.0, 0.0, 1.6214216876515136E9, 2021-05-19 12:54:47.651
62.0, -49.70513916015625, -54.60627746582031, 17.399885177612305, 184.71739196777344, -0.03200000151991844, -0.08000000566244125, 1.055999994277954, 0.0, 0.0, 0.0, 0.0, 0.0, 1.6214216876515136E9, 2021-05-19 12:54:47.651
63.0, -67.09193420410156, -55.6758918762207, 5.207810878753662, 181.37767028808594, -0.03200000151991844, -0.08000000566244125, 1.055999994277954, 0.0, 0.0, 0.0, 0.0, 0.0, 1.6214216876660511E9, 2021-05-19 12:54:47.666
63.0, -43.20893478393555, -24.93391227722168, 17.927209854125977, 187.42507934570312, -0.03200000151991844, -0.08000000566244125, 1.055999994277954, 0.0, 0.0, 0.0, 0.0, 0.0, 1.6214216876660511E9, 2021-05-19 12:54:47.666
64.0, -23.772674560546875, -23.123802185058594, 28.75048065185547, 203.08030700683594, -0.03200000151991844, -0.08000000566244125, 1.055999994277954, 0.0, 0.0, 0.0, 0.0, 0.0, 1.6214216876667917E9, 2021-05-19 12:54:47.666
64.0, -69.691162109375, -55.922725677490234, 9.325440406799316, 183.71510314941406, -0.03200000151991844, -0.08000000566244125, 1.055999994277954, 0.0, 0.0, 0.0, 0.0, 0.0, 1.6214216876667917E9, 2021-05-19 12:54:47.666
65.0, -65.87646484375, -56.061100006103516, 5.387325763702393, 174.7430877685547, -0.03200000151991844, -0.08000000566244125, 1.055999994277954, 0.0, 0.0, 0.0, 0.0, 0.0, 1.6214216876810517E9, 2021-05-19 12:54:47.681
65.0, -35.57953643798828, -21.773696899414062, 17.75517463684082, 190.36090087890625, -0.03200000151991844, -0.08000000566244125, 1.055999994277954, 0.0, 0.0, 0.0, 0.0, 0.0, 1.6214216876810517E9, 2021-05-19 12:54:47.681
66.0, -42.55071258544922, -28.011850357055664, 17.05581283569336, 197.40687561035156, -0.03200000151991844, -0.08000000566244125, 1.055999994277954, 0.0, 0.0, 0.0, 0.0, 0.0, 1.6214216876817632E9, 2021-05-19 12:54:47.681
66.0, -48.55699157714844, -55.86662673950195, 11.44222354888916, 176.9571075439453, -0.03200000151991844, -0.08000000566244125, 1.055999994277954, 0.0, 0.0, 0.0, 0.0, 0.0, 1.6214216876817632E9, 2021-05-19 12:54:47.681
67.0, -74.39221954345703, -50.36149215698242, 5.907172203063965, 173.9801483154297, -0.03200000151991844, -0.08000000566244125, 1.055999994277954, 0.0, 0.0, 0.0, 0.0, 0.0, 1.6214216877116623E9, 2021-05-19 12:54:47.711
67.0, -51.64241027832031, -29.01788330078125, 20.66107749938965, 194.47479248046875, -0.03200000151991844, -0.08000000566244125, 1.055999994277954, 0.0, 0.0, 0.0, 0.0, 0.0, 1.6214216877116623E9, 2021-05-19 12:54:47.711
68.0, -33.664710998535156, -31.684432983398438, 21.296859741210938, 199.70692443847656, -0.03200000151991844, -0.08000000566244125, 1.055999994277954, 0.0, 0.0, 0.0, 0.0, 0.0, 1.6214216877420928E9, 2021-05-19 12:54:47.742
68.0, -68.63651275634766, -58.27511978149414, 8.311927795410156, 184.1190185546875, -0.03200000151991844, -0.08000000566244125, 1.055999994277954, 0.0, 0.0, 0.0, 0.0, 0.0, 1.6214216877420928E9, 2021-05-19 12:54:47.742
69.0, -61.194114685058594, -53.45064926147461, 9.250642776489258, 184.31349182128906, -0.03200000151991844, -0.08000000566244125, 1.055999994277954, 0.0, 0.0, 0.0, 0.0, 0.0, 1.6214216877428043E9, 2021-05-19 12:54:47.742
69.0, -52.94389343261719, -26.414913177490234, 16.405071258544922, 187.91127014160156, -0.03200000151991844, -0.08000000566244125, 1.055999994277954, 0.0, 0.0, 0.0, 0.0, 0.0, 1.6214216877428043E9, 2021-05-19 12:54:47.742
70.0, -47.165748596191406, -27.8585147857666, 24.105525970458984, 196.75613403320312, -0.03200000151991844, -0.08000000566244125, 1.040000081062317, 0.0, 0.0, 0.0, 0.0, 0.0, 1.6214216877435768E9, 2021-05-19 12:54:47.743
70.0, -64.19351196289062, -49.41156005859375, 13.364532470703125, 178.4381103515625, -0.03200000151991844, -0.08000000566244125, 1.040000081062317, 0.0, 0.0, 0.0, 0.0, 0.0, 1.6214216877435768E9, 2021-05-19 12:54:47.743
71.0, -62.56291580200195, -47.702423095703125, 10.817660331726074, 172.12515258789062, -0.03200000151991844, -0.08000000566244125, 1.040000081062317, 0.0, 0.0, 0.0, 0.0, 0.0, 1.621421687773661E9, 2021-05-19 12:54:47.773
71.0, -52.46892547607422, -31.52735710144043, 19.610164642333984, 189.93081665039062, -0.03200000151991844, -0.08000000566244125, 1.040000081062317, 0.0, 0.0, 0.0, 0.0, 0.0, 1.621421687773661E9, 2021-05-19 12:54:47.773
72.0, -41.578338623046875, -23.269657135009766, 25.919376373291016, 197.4143524169922, -0.03200000151991844, -0.08000000566244125, 1.040000081062317, 0.0, 0.0, 0.0, 0.0, 0.0, 1.6214216877743764E9, 2021-05-19 12:54:47.774
72.0, -59.3092041015625, -54.138790130615234, 18.3572998046875, 184.86325073242188, -0.03200000151991844, -0.08000000566244125, 1.040000081062317, 0.0, 0.0, 0.0, 0.0, 0.0, 1.6214216877743764E9, 2021-05-19 12:54:47.774
73.0, -77.48511505126953, -56.251834869384766, 10.282855033874512, 173.28079223632812, -0.03200000151991844, -0.08000000566244125, 1.040000081062317, 0.0, 0.0, 0.0, 0.0, 0.0, 1.6214216877751212E9, 2021-05-19 12:54:47.775
