Sample Index, EXG Channel 0, EXG Channel 1, EXG Channel 2, EXG Channel 3, Accel Channel 0, Accel Channel 1, Accel Channel 2, Other, Other, Other, Other, Other, Timestamp, Timestamp (Formatted)
0.0, -90.4943618774414, -133.01702880859375, 18.23575210571289, 149.11355590820312, 0.0, 0.0, 0.0, 0.0, 0.0, 0.0, 0.0, 0.0, 1.621428990311293E9, 2021-05-19 14:56:30.311
1.0, -86.93771362304688, -116.50536346435547, 28.11282730102539, 153.30972290039062, 0.0, 0.0, 0.0, 0.0, 0.0, 0.0, 0.0, 0.0, 1.621428990311952E9, 2021-05-19 14:56:30.311
1.0, -73.18236541748047, -122.78091430664062, 34.12284851074219, 158.2463836669922, 0.0, 0.0, 0.0, 0.0, 0.0, 0.0, 0.0, 0.0, 1.621428990311952E9, 2021-05-19 14:56:30.311
2.0, -81.38396453857422, -126.3487777709961, 30.158554077148438, 152.6066131591797, -0.08000000566244125, 0.0, 0.0, 0.0, 0.0, 0.0, 0.0, 0.0, 1.6214289903266392E9, 2021-05-19 14:56:30.326
2.0, -86.51884460449219, -118.03498077392578, 24.68708038330078, 143.2119903564453, -0.08000000566244125, 0.0, 0.0, 0.0, 0.0, 0.0, 0.0, 0.0, 1.6214289903266392E9, 2021-05-19 14:56:30.326
3.0, -82.69292449951172, -114.42971801757812, 34.23878479003906, 149.6147003173828, -0.08000000566244125, 0.0, 0.0, 0.0, 0.0, 0.0, 0.0, 0.0, 1.6214289903279629E9, 2021-05-19 14:56:30.327
3.0, -67.59495544433594, -116.70357513427734, 38.96601867675781, 150.7516326904297, -0.08000000566244125, 0.0, 0.0, 0.0, 0.0, 0.0, 0.0, 0.0, 1.6214289903279629E9, 2021-05-19 14:56:30.327
4.0, -74.18465423583984, -114.23898315429688, 41.310935974121094, 148.96395874023438, -0.08000000566244125, 0.0, 0.0, 0.0, 0.0, 0.0, 0.0, 0.0, 1.621428990340317E9, 2021-05-19 14:56:30.340
4.0, -77.79740142822266, -122.56026458740234, 39.37740707397461, 146.19642639160156, -0.08000000566244125, 0.0, 0.0, 0.0, 0.0, 0.0, 0.0, 0.0, 1.621428990340317E9, 2021-05-19 14:56:30.340
5.0, -81.73925018310547, -109.17141723632812, 36.84923553466797, 148.40670776367188, -0.08000000566244125, 0.0, 0.0, 0.0, 0.0, 0.0, 0.0, 0.0, 1.6214289903561287E9, 2021-05-19 14:56:30.356
5.0, -71.17777252197266, -119.42622375488281, 35.68986511230469, 151.77261352539062, -0.08000000566244125, 0.0, 0.0, 0.0, 0.0, 0.0, 0.0, 0.0, 1.6214289903561287E9, 2021-05-19 14:56:30.356
6.0, -76.83998107910156, -115.2076187133789, 26.070842742919922, 159.68624877929688, -0.08000000566244125, 0.0, 0.0, 0.0, 0.0, 0.0, 0.0, 0.0, 1.621428990356879E9, 2021-05-19 14:56:30.356
6.0, -78.9530258178711, -120.1255874633789, 20.558229446411133, 158.07061767578125, -0.08000000566244125, 0.0, 0.0, 0.0, 0.0, 0.0, 0.0, 0.0, 1.621428990356879E9, 2021-05-19 14:56:30.356
7.0, -85.70354461669922, -119.66558074951172, 12.738099098205566, 158.27630615234375, -0.08000000566244125, 0.0, 0.0, 0.0, 0.0, 0.0, 0.0, 0.0, 1.6214289903874772E9, 2021-05-19 14:56:30.387
7.0, -85.92046356201172, -122.76221466064453, 18.83039665222168, 156.57090759277344, -0.08000000566244125, 0.0, 0.0, 0.0, 0.0, 0.0, 0.0, 0.0, 1.6214289903874772E9, 2021-05-19 14:56:30.387
8.0, -78.79595184326172, -136.1286163330078, 22.364601135253906, 154.053955078125, -0.08000000566244125, 0.0, 0.0, 0.0, 0.0, 0.0, 0.0, 0.0, 1.6214289903882267E9, 2021-05-19 14:56:30.388
8.0, -70.5606918334961, -126.63674926757812, 16.80337142944336, 152.5767059326172, -0.08000000566244125, 0.0, 0.0, 0.0, 0.0, 0.0, 0.0, 0.0, 1.6214289903882267E9, 2021-05-19 14:56:30.388
9.0, -95.63671875, -117.31317901611328, 16.702392578125, 154.1063232421875, -0.08000000566244125, 0.0, 0.0, 0.0, 0.0, 0.0, 0.0, 0.0, 1.6214289903889537E9, 2021-05-19 14:56:30.388
9.0, -79.20359802246094, -118.27059936523438, 22.7647705078125, 155.86781311035156, -0.08000000566244125, 0.0, 0.0, 0.0, 0.0, 0.0, 0.0, 0.0, 1.6214289903889537E9, 2021-05-19 14:56:30.388
10.0, -73.15618133544922, -121.67764282226562, 24.982532501220703, 147.3184051513672, -0.08000000566244125, 0.0, 1.055999994277954, 0.0, 0.0, 0.0, 0.0, 0.0, 1.621428990400378E9, 2021-05-19 14:56:30.400
10.0, -81.61583709716797, -128.3758087158203, 16.571496963500977, 141.99652099609375, -0.08000000566244125, 0.0, 1.055999994277954, 0.0, 0.0, 0.0, 0.0, 0.0, 1.621428990400378E9, 2021-05-19 14:56:30.400
11.0, -94.61573028564453, -113.20677185058594, 15.311150550842285, 146.27870178222656, -0.08000000566244125, 0.0, 1.055999994277954, 0.0, 0.0, 0.0, 0.0, 0.0, 1.621428990416072E9, 2021-05-19 14:56:30.416
11.0, -78.29106903076172, -116.40812683105469, 24.470165252685547, 151.26773071289062, -0.08000000566244125, 0.0, 1.055999994277954, 0.0, 0.0, 0.0, 0.0, 0.0, 1.621428990416072E9, 2021-05-19 14:56:30.416
12.0, -83.24269104003906, -120.73145294189453, 22.41322135925293, 141.00918579101562, -0.08000000566244125, 0.0, 1.055999994277954, 0.0, 0.0, 0.0, 0.0, 0.0, 1.6214289904168165E9, 2021-05-19 14:56:30.416
12.0, -81.4213638305664, -118.45758819580078, 30.139854431152344, 141.39439392089844, -0.08000000566244125, 0.0, 1.055999994277954, 0.0, 0.0, 0.0, 0.0, 0.0, 1.6214289904168165E9, 2021-05-19 14:56:30.416
13.0, -73.33943939208984, -111.59861755371094, 32.85502243041992, 148.8854217529297, -0.08000000566244125, 0.0, 1.055999994277954, 0.0, 0.0, 0.0, 0.0, 0.0, 1.6214289904468944E9, 2021-05-19 14:56:30.446
13.0, -65.16401672363281, -112.44383239746094, 43.15096664428711, 153.43313598632812, -0.08000000566244125, 0.0, 1.055999994277954, 0.0, 0.0, 0.0, 0.0, 0.0, 1.6214289904468944E9, 2021-05-19 14:56:30.446
14.0, -67.20226287841797, -116.89057159423828, 36.639801025390625, 150.60203552246094, -0.08000000566244125, 0.0, 1.055999994277954, 0.0, 0.0, 0.0, 0.0, 0.0, 1.621428990447476E9, 2021-05-19 14:56:30.447
14.0, -74.90645599365234, -110.99275207519531, 28.359661102294922, 150.57211303710938, -0.08000000566244125, 0.0, 1.055999994277954, 0.0, 0.0, 0.0, 0.0, 0.0, 1.621428990447476E9, 2021-05-19 14:56:30.447
15.0, -72.98788452148438, -103.95426177978516, 24.11487579345703, 153.2648468017578, -0.08000000566244125, 0.0, 1.055999994277954, 0.0, 0.0, 0.0, 0.0, 0.0, 1.6214289904482548E9, 2021-05-19 14:56:30.448
15.0, -73.21976470947266, -118.03498077392578, 28.034290313720703, 155.08242797851562, -0.08000000566244125, 0.0, 1.055999994277954, 0.0, 0.0, 0.0, 0.0, 0.0, 1.6214289904482548E9, 2021-05-19 14:56:30.448
16.0, -78.25740814208984, -126.45723724365234, 21.22393226623535, 151.518310546875, -0.08000000566244125, 0.0, 1.055999994277954, 0.0, 0.0, 0.0, 0.0, 0.0, 1.6214289904604115E9, 2021-05-19 14:56:30.460
16.0, -74.20709228515625, -121.72626495361328, 25.5696964263916, 159.5254364013672, -0.08000000566244125, 0.0, 1.055999994277954, 0.0, 0.0, 0.0, 0.0, 0.0, 1.6214289904604115E9, 2021-05-19 14:56:30.460
17.0, -86.87787628173828, -118.28555297851562, 22.918106079101562, 160.48658752441406, -0.08000000566244125, 0.0, 1.055999994277954, 0.0, 0.0, 0.0, 0.0, 0.0, 1.621428990476035E9, 2021-05-19 14:56:30.476
17.0, -81.79534912109375, -123.79442596435547, 25.427579879760742, 158.69891357421875, -0.08000000566244125, 0.0, 1.055999994277954, 0.0, 0.0, 0.0, 0.0, 0.0, 1.621428990476035E9, 2021-05-19 14:56:30.476
18.0, -76.15558624267578, -125.6269760131836, 22.53289794921875, 156.2642364501953, -0.08000000566244125, 0.0, 1.055999994277954, 0.0, 0.0, 0.0, 0.0, 0.0, 1.6214289904768212E9, 2021-05-19 14:56:30.476
18.0, -82.16934204101562, -120.44721984863281, 21.7961368560791, 150.9161834716797, -0.08000000566244125, 0.0, 1.055999994277954, 0.0, 0.0, 0.0, 0.0, 0.0, 1.6214289904768212E9, 2021-05-19 14:56:30.476
19.0, -83.27261352539062, -111.45649719238281, 23.83812141418457, 156.23431396484375, -0.08000000566244125, 0.0, 1.055999994277954, 0.0, 0.0, 0.0, 0.0, 0.0, 1.6214289905071132E9, 2021-05-19 14:56:30.507
19.0, -84.90695190429688, -111.30316162109375, 28.718690872192383, 157.88735961914062, -0.08000000566244125, 0.0, 1.055999994277954, 0.0, 0.0, 0.0, 0.0, 0.0, 1.6214289905071132E9, 2021-05-19 14:56:30.507
20.0, -78.32472229003906, -122.14513397216797, 25.12464714050293, 146.83221435546875, -0.08000000566244125, 0.0, 1.055999994277954, 0.0, 0.0, 0.0, 0.0, 0.0, 1.6214289905078325E9, 2021-05-19 14:56:30.507
20.0, -91.4405517578125, -119.91989135742188, 22.069149017333984, 148.63858032226562, -0.08000000566244125, 0.0, 1.055999994277954, 0.0, 0.0, 0.0, 0.0, 0.0, 1.6214289905078325E9, 2021-05-19 14:56:30.507
21.0, -94.47735595703125, -115.43201446533203, 20.558229446411133, 145.1006317138672, -0.08000000566244125, 0.0, 1.055999994277954, 0.0, 0.0, 0.0, 0.0, 0.0, 1.6214289905378845E9, 2021-05-19 14:56:30.537
21.0, -74.04627990722656, -124.0823974609375, 31.714351654052734, 150.4000701904297, -0.08000000566244125, 0.0, 1.055999994277954, 0.0, 0.0, 0.0, 0.0, 0.0, 1.6214289905378845E9, 2021-05-19 14:56:30.537
22.0, -78.7510757446289, -121.74870300292969, 25.80156898498535, 148.66102600097656, -0.08000000566244125, 0.0, 1.055999994277954, 0.0, 0.0, 0.0, 0.0, 0.0, 1.6214289905385296E9, 2021-05-19 14:56:30.538
22.0, -83.57180786132812, -116.89057159423828, 25.9511661529541, 148.35061645507812, -0.08000000566244125, 0.0, 1.055999994277954, 0.0, 0.0, 0.0, 0.0, 0.0, 1.6214289905385296E9, 2021-05-19 14:56:30.538
23.0, -75.19068908691406, -106.28795623779297, 29.7247257232666, 153.8445281982422, -0.08000000566244125, 0.0, 1.055999994277954, 0.0, 0.0, 0.0, 0.0, 0.0, 1.6214289905393229E9, 2021-05-19 14:56:30.539
23.0, -67.73706817626953, -123.59247589111328, 27.495744705200195, 151.06951904296875, -0.08000000566244125, 0.0, 1.055999994277954, 0.0, 0.0, 0.0, 0.0, 0.0, 1.6214289905393229E9, 2021-05-19 14:56:30.539
24.0, -77.61414337158203, -133.02076721191406, 23.651126861572266, 149.96998596191406, -0.08000000566244125, 0.0, 1.055999994277954, 0.0, 0.0, 0.0, 0.0, 0.0, 1.6214289905525436E9, 2021-05-19 14:56:30.552
24.0, -82.09080505371094, -130.85162353515625, 16.601415634155273, 149.32672119140625, -0.08000000566244125, 0.0, 1.055999994277954, 0.0, 0.0, 0.0, 0.0, 0.0, 1.6214289905525436E9, 2021-05-19 14:56:30.552
25.0, -68.33919525146484, -117.47773742675781, 20.72278594970703, 164.60047912597656, -0.08000000566244125, 0.0, 1.055999994277954, 0.0, 0.0, 0.0, 0.0, 0.0, 1.621428990553134E9, 2021-05-19 14:56:30.553
25.0, -86.57120513916016, -126.56195068359375, 16.859468460083008, 161.27197265625, -0.08000000566244125, 0.0, 1.055999994277954, 0.0, 0.0, 0.0, 0.0, 0.0, 1.621428990553134E9, 2021-05-19 14:56:30.553
26.0, -81.98983001708984, -128.47303771972656, 22.372081756591797, 162.9661407470703, -0.08000000566244125, 0.0, 1.055999994277954, 0.0, 0.0, 0.0, 0.0, 0.0, 1.62142899055398E9, 2021-05-19 14:56:30.553
26.0, -91.89308166503906, -125.96356964111328, 17.715906143188477, 156.90750122070312, -0.08000000566244125, 0.0, 1.055999994277954, 0.0, 0.0, 0.0, 0.0, 0.0, 1.62142899055398E9, 2021-05-19 14:56:30.553
27.0, -87.39024353027344, -114.81118774414062, 23.116321563720703, 156.64944458007812, -0.08000000566244125, 0.0, 1.055999994277954, 0.0, 0.0, 0.0, 0.0, 0.0, 1.6214289905654216E9, 2021-05-19 14:56:30.565
27.0, -81.25306701660156, -118.70068359375, 30.693359375, 160.6698455810547, -0.08000000566244125, 0.0, 1.055999994277954, 0.0, 0.0, 0.0, 0.0, 0.0, 1.6214289905654216E9, 2021-05-19 14:56:30.565
28.0, -80.06378173828125, -123.33068084716797, 30.943931579589844, 158.23516845703125, -0.08000000566244125, 0.0, 1.055999994277954, 0.0, 0.0, 0.0, 0.0, 0.0, 1.621428990597374E9, 2021-05-19 14:56:30.597
28.0, -85.82322692871094, -119.97599029541016, 28.84958839416504, 148.99388122558594, -0.08000000566244125, 0.0, 1.055999994277954, 0.0, 0.0, 0.0, 0.0, 0.0, 1.621428990597374E9, 2021-05-19 14:56:30.597
29.0, -86.14485931396484, -113.62564086914062, 30.943931579589844, 153.1676025390625, -0.08000000566244125, 0.0, 1.055999994277954, 0.0, 0.0, 0.0, 0.0, 0.0, 1.6214289905982244E9, 2021-05-19 14:56:30.598
29.0, -72.8943862915039, -121.17276000976562, 31.190765380859375, 146.79855346679688, -0.08000000566244125, 0.0, 1.055999994277954, 0.0, 0.0, 0.0, 0.0, 0.0, 1.6214289905982244E9, 2021-05-19 14:56:30.598
30.0, -81.42884063720703, -130.45518493652344, 29.04780387878418, 143.372802734375, -0.08000000566244125, 0.0, 1.055999994277954, 0.0, 0.0, 0.0, 0.0, 0.0, 1.6214289905988605E9, 2021-05-19 14:56:30.598
30.0, -80.50508880615234, -122.7547378540039, 25.53603744506836, 139.92462158203125, -0.08000000566244125, 0.0, 1.055999994277954, 0.0, 0.0, 0.0, 0.0, 0.0, 1.6214289905988605E9, 2021-05-19 14:56:30.598
31.0, -75.35150146484375, -111.8978042602539, 36.43036651611328, 150.9647979736328, -0.08000000566244125, 0.0, 1.055999994277954, 0.0, 0.0, 0.0, 0.0, 0.0, 1.6214289906265528E9, 2021-05-19 14:56:30.626
31.0, -76.78388977050781, -111.28446197509766, 34.64643478393555, 149.04623413085938, -0.08000000566244125, 0.0, 1.055999994277954, 0.0, 0.0, 0.0, 0.0, 0.0, 1.6214289906265528E9, 2021-05-19 14:56:30.626
32.0, -74.56612396240234, -121.80106353759766, 29.365694046020508, 149.89144897460938, -0.08000000566244125, 0.0, 1.055999994277954, 0.0, 0.0, 0.0, 0.0, 0.0, 1.6214289906272776E9, 2021-05-19 14:56:30.627
32.0, -83.5306625366211, -118.60718536376953, 28.2399845123291, 154.229736328125, -0.08000000566244125, 0.0, 1.055999994277954, 0.0, 0.0, 0.0, 0.0, 0.0, 1.6214289906272776E9, 2021-05-19 14:56:30.627
33.0, -83.0295181274414, -117.82554626464844, 24.103654861450195, 156.095947265625, -0.08000000566244125, 0.0, 1.055999994277954, 0.0, 0.0, 0.0, 0.0, 0.0, 1.621428990640978E9, 2021-05-19 14:56:30.640
33.0, -72.32966613769531, -127.20521545410156, 25.32286262512207, 158.37355041503906, -0.08000000566244125, 0.0, 1.055999994277954, 0.0, 0.0, 0.0, 0.0, 0.0, 1.621428990640978E9, 2021-05-19 14:56:30.640
34.0, -71.03192138671875, -140.63893127441406, 20.73026466369629, 152.55426025390625, -0.08000000566244125, 0.0, 1.055999994277954, 0.0, 0.0, 0.0, 0.0, 0.0, 1.6214289906417882E9, 2021-05-19 14:56:30.641
34.0, -82.47601318359375, -127.0518798828125, 12.928833961486816, 153.3807830810547, -0.08000000566244125, 0.0, 1.055999994277954, 0.0, 0.0, 0.0, 0.0, 0.0, 1.6214289906417882E9, 2021-05-19 14:56:30.641
35.0, -79.31205749511719, -128.51792907714844, 14.17422103881836, 153.14515686035156, -0.08000000566244125, 0.0, 1.055999994277954, 0.0, 0.0, 0.0, 0.0, 0.0, 1.6214289906557665E9, 2021-05-19 14:56:30.655
35.0, -64.83116912841797, -137.50489807128906, 20.988319396972656, 152.7487335205078, -0.08000000566244125, 0.0, 1.055999994277954, 0.0, 0.0, 0.0, 0.0, 0.0, 1.6214289906557665E9, 2021-05-19 14:56:30.655
36.0, -78.05171203613281, -149.00509643554688, 13.228026390075684, 141.87684631347656, -0.08000000566244125, 0.0, 1.055999994277954, 0.0, 0.0, 0.0, 0.0, 0.0, 1.6214289906723402E9, 2021-05-19 14:56:30.672
36.0, -79.697265625, -129.44168090820312, 19.828948974609375, 148.56004333496094, -0.08000000566244125, 0.0, 1.055999994277954, 0.0, 0.0, 0.0, 0.0, 0.0, 1.6214289906723402E9, 2021-05-19 14:56:30.672
37.0, -87.07234954833984, -109.66134643554688, 26.508411407470703, 155.86407470703125, -0.08000000566244125, 0.0, 1.055999994277954, 0.0, 0.0, 0.0, 0.0, 0.0, 1.621428990673066E9, 2021-05-19 14:56:30.673
37.0, -79.72718811035156, -126.58439636230469, 27.293790817260742, 150.22056579589844, -0.08000000566244125, 0.0, 1.055999994277954, 0.0, 0.0, 0.0, 0.0, 0.0, 1.621428990673066E9, 2021-05-19 14:56:30.673
38.0, -76.50713348388672, -124.71818542480469, 28.84210777282715, 148.4216766357422, -0.08000000566244125, 0.0, 1.055999994277954, 0.0, 0.0, 0.0, 0.0, 0.0, 1.62142899067383E9, 2021-05-19 14:56:30.673
38.0, -80.44525146484375, -116.63999938964844, 19.653173446655273, 144.83885192871094, -0.08000000566244125, 0.0, 1.055999994277954, 0.0, 0.0, 0.0, 0.0, 0.0, 1.62142899067383E9, 2021-05-19 14:56:30.673
39.0, -78.56034088134766, -111.0712890625, 20.80132293701172, 155.94261169433594, -0.08000000566244125, 0.0, 1.055999994277954, 0.0, 0.0, 0.0, 0.0, 0.0, 1.6214289906854208E9, 2021-05-19 14:56:30.685
39.0, -76.02468872070312, -115.13282012939453, 31.13840675354004, 151.8549041748047, -0.08000000566244125, 0.0, 1.055999994277954, 0.0, 0.0, 0.0, 0.0, 0.0, 1.6214289906854208E9, 2021-05-19 14:56:30.685
40.0, -73.03650665283203, -125.30908966064453, 28.12030792236328, 149.88771057128906, -0.08000000566244125, 0.0, 1.055999994277954, 0.0, 0.0, 0.0, 0.0, 0.0, 1.6214289907003677E9, 2021-05-19 14:56:30.700
40.0, -80.36670684814453, -127.4931869506836, 23.400554656982422, 152.9058074951172, -0.08000000566244125, 0.0, 1.055999994277954, 0.0, 0.0, 0.0, 0.0, 0.0, 1.6214289907003677E9, 2021-05-19 14:56:30.700
41.0, -74.86531829833984, -108.99190521240234, 27.30126953125, 158.18655395507812, -0.08000000566244125, 0.0, 1.055999994277954, 0.0, 0.0, 0.0, 0.0, 0.0, 1.6214289907317166E9, 2021-05-19 14:56:30.731
41.0, -73.94904327392578, -120.86235046386719, 27.25265121459961, 157.2440948486328, -0.08000000566244125, 0.0, 1.055999994277954, 0.0, 0.0, 0.0, 0.0, 0.0, 1.6214289907317166E9, 2021-05-19 14:56:30.731
42.0, -76.57445526123047, -136.48016357421875, 16.799631118774414, 159.51795959472656, -0.08000000566244125, 0.0, 1.055999994277954, 0.0, 0.0, 0.0, 0.0, 0.0, 1.6214289907324986E9, 2021-05-19 14:56:30.732
42.0, -86.29444885253906, -124.35541534423828, 11.60116958618164, 148.27955627441406, -0.08000000566244125, 0.0, 1.055999994277954, 0.0, 0.0, 0.0, 0.0, 0.0, 1.6214289907324986E9, 2021-05-19 14:56:30.732
43.0, -78.68001556396484, -120.97454071044922, 18.699499130249023, 157.11318969726562, -0.08000000566244125, 0.0, 1.055999994277954, 0.0, 0.0, 0.0, 0.0, 0.0, 1.6214289907331607E9, 2021-05-19 14:56:30.733
43.0, -71.3685073852539, -119.13825225830078, 24.144794464111328, 153.12646484375, -0.08000000566244125, 0.0, 1.055999994277954, 0.0, 0.0, 0.0, 0.0, 0.0, 1.6214289907331607E9, 2021-05-19 14:56:30.733
44.0, -59.9131965637207, -119.47484588623047, 29.792043685913086, 150.22804260253906, -0.08000000566244125, 0.0, 1.055999994277954, 0.0, 0.0, 0.0, 0.0, 0.0, 1.621428990746068E9, 2021-05-19 14:56:30.746
44.0, -91.42933654785156, -127.14537811279297, 15.501885414123535, 144.9772186279297, -0.08000000566244125, 0.0, 1.055999994277954, 0.0, 0.0, 0.0, 0.0, 0.0, 1.621428990746068E9, 2021-05-19 14:56:30.746
45.0, -89.78377532958984, -119.96851348876953, 22.8994083404541, 146.26748657226562, -0.08000000566244125, 0.0, 1.055999994277954, 0.0, 0.0, 0.0, 0.0, 0.0, 1.621428990746847E9, 2021-05-19 14:56:30.746
45.0, -73.28707885742188, -122.78839874267578, 28.939346313476562, 146.095458984375, -0.08000000566244125, 0.0, 1.055999994277954, 0.0, 0.0, 0.0, 0.0, 0.0, 1.621428990746847E9, 2021-05-19 14:56:30.746
46.0, -80.57614135742188, -130.485107421875, 22.873228073120117, 141.2896728515625, -0.08000000566244125, 0.0, 1.055999994277954, 0.0, 0.0, 0.0, 0.0, 0.0, 1.621428990760407E9, 2021-05-19 14:56:30.760
46.0, -86.0999755859375, -125.3427505493164, 16.597675323486328, 136.82423400878906, -0.08000000566244125, 0.0, 1.055999994277954, 0.0, 0.0, 0.0, 0.0, 0.0, 1.621428990760407E9, 2021-05-19 14:56:30.760
47.0, -87.01625061035156, -117.18602752685547, 19.19690704345703, 143.85525512695312, -0.08000000566244125, 0.0, 1.055999994277954, 0.0, 0.0, 0.0, 0.0, 0.0, 1.6214289907759976E9, 2021-05-19 14:56:30.775
47.0, -82.1431655883789, -113.4236831665039, 31.299222946166992, 145.52325439453125, -0.08000000566244125, 0.0, 1.055999994277954, 0.0, 0.0, 0.0, 0.0, 0.0, 1.6214289907759976E9, 2021-05-19 14:56:30.775
48.0, -81.4999008178711, -109.38085174560547, 27.596721649169922, 145.18292236328125, -0.08000000566244125, 0.0, 1.055999994277954, 0.0, 0.0, 0.0, 0.0, 0.0, 1.621428990776773E9, 2021-05-19 14:56:30.776
48.0, -79.64865112304688, -113.24790954589844, 28.39706039428711, 147.24734497070312, -0.08000000566244125, 0.0, 1.055999994277954, 0.0, 0.0, 0.0, 0.0, 0.0, 1.621428990776773E9, 2021-05-19 14:56:30.776
49.0, -85.43427276611328, -111.31812286376953, 27.233951568603516, 153.06661987304688, -0.08000000566244125, 0.0, 1.055999994277954, 0.0, 0.0, 0.0, 0.0, 0.0, 1.6214289907904005E9, 2021-05-19 14:56:30.790
49.0, -76.03216552734375, -115.226318359375, 33.26266860961914, 154.41299438476562, -0.08000000566244125, 0.0, 1.055999994277954, 0.0, 0.0, 0.0, 0.0, 0.0, 1.6214289907904005E9, 2021-05-19 14:56:30.790
50.0, -67.37055969238281, -125.1220932006836, 28.699993133544922, 153.7622528076172, -0.08000000566244125, 0.0, 1.055999994277954, 0.0, 0.0, 0.0, 0.0, 0.0, 1.621428990805987E9, 2021-05-19 14:56:30.805
50.0, -79.2148208618164, -127.78864288330078, 14.357476234436035, 149.4314422607422, -0.08000000566244125, 0.0, 1.055999994277954, 0.0, 0.0, 0.0, 0.0, 0.0, 1.621428990805987E9, 2021-05-19 14:56:30.805
51.0, -78.92311096191406, -120.66413116455078, 16.477998733520508, 152.55052185058594, -0.08000000566244125, 0.0, 1.055999994277954, 0.0, 0.0, 0.0, 0.0, 0.0, 1.6214289908067594E9, 2021-05-19 14:56:30.806
51.0, -86.3580322265625, -130.2345428466797, 15.333589553833008, 152.11294555664062, -0.08000000566244125, 0.0, 1.055999994277954, 0.0, 0.0, 0.0, 0.0, 0.0, 1.6214289908067594E9, 2021-05-19 14:56:30.806
52.0, -77.09803771972656, -138.46604919433594, 14.525771141052246, 151.92970275878906, -0.08000000566244125, 0.0, 1.055999994277954, 0.0, 0.0, 0.0, 0.0, 0.0, 1.6214289908203623E9, 2021-05-19 14:56:30.820
52.0, -78.69871520996094, -117.30944061279297, 17.255897521972656, 156.48489379882812, -0.08000000566244125, 0.0, 1.055999994277954, 0.0, 0.0, 0.0, 0.0, 0.0, 1.6214289908203623E9, 2021-05-19 14:56:30.820
53.0, -81.67941284179688, -116.4717025756836, 22.918106079101562, 159.42071533203125, -0.08000000566244125, 0.0, 1.055999994277954, 0.0, 0.0, 0.0, 0.0, 0.0, 1.621428990835992E9, 2021-05-19 14:56:30.835
53.0, -77.50568389892578, -115.47315216064453, 32.533390045166016, 154.4316864013672, -0.08000000566244125, 0.0, 1.055999994277954, 0.0, 0.0, 0.0, 0.0, 0.0, 1.621428990835992E9, 2021-05-19 14:56:30.835
54.0, -81.5223388671875, -129.0826416015625, 22.301023483276367, 145.0220947265625, -0.08000000566244125, 0.0, 1.055999994277954, 0.0, 0.0, 0.0, 0.0, 0.0, 1.6214289908368196E9, 2021-05-19 14:56:30.836
54.0, -92.05389404296875, -127.77742004394531, 20.97709846496582, 142.76319885253906, -0.08000000566244125, 0.0, 1.055999994277954, 0.0, 0.0, 0.0, 0.0, 0.0, 1.6214289908368196E9, 2021-05-19 14:56:30.836
55.0, -88.96473693847656, -107.89237213134766, 20.35627555847168, 140.7847900390625, -0.08000000566244125, 0.0, 1.055999994277954, 0.0, 0.0, 0.0, 0.0, 0.0, 1.6214289908504565E9, 2021-05-19 14:56:30.850
55.0, -87.07608795166016, -117.56001281738281, 28.535436630249023, 140.17518615722656, -0.08000000566244125, 0.0, 1.055999994277954, 0.0, 0.0, 0.0, 0.0, 0.0, 1.6214289908504565E9, 2021-05-19 14:56:30.850
56.0, -86.8404769897461, -124.47135162353516, 21.220191955566406, 144.00485229492188, -0.08000000566244125, 0.0, 1.055999994277954, 0.0, 0.0, 0.0, 0.0, 0.0, 1.62142899086608E9, 2021-05-19 14:56:30.866
56.0, -88.45611572265625, -115.61152648925781, 24.544963836669922, 149.5548553466797, -0.08000000566244125, 0.0, 1.055999994277954, 0.0, 0.0, 0.0, 0.0, 0.0, 1.62142899086608E9, 2021-05-19 14:56:30.866
57.0, -83.42594909667969, -110.10265350341797, 25.876367568969727, 145.85609436035156, -0.08000000566244125, 0.0, 1.055999994277954, 0.0, 0.0, 0.0, 0.0, 0.0, 1.6214289908668804E9, 2021-05-19 14:56:30.866
57.0, -86.93397521972656, -119.51972198486328, 23.052743911743164, 148.68345642089844, -0.08000000566244125, 0.0, 1.055999994277954, 0.0, 0.0, 0.0, 0.0, 0.0, 1.6214289908668804E9, 2021-05-19 14:56:30.866
58.0, -84.25994873046875, -132.28773498535156, 19.971065521240234, 143.95248413085938, -0.08000000566244125, 0.0, 1.055999994277954, 0.0, 0.0, 0.0, 0.0, 0.0, 1.621428990880405E9, 2021-05-19 14:56:30.880
58.0, -82.58821105957031, -128.84329223632812, 11.507672309875488, 141.91050720214844, -0.08000000566244125, 0.0, 1.055999994277954, 0.0, 0.0, 0.0, 0.0, 0.0, 1.621428990880405E9, 2021-05-19 14:56:30.880
59.0, -79.56262969970703, -124.8228988647461, 12.259391784667969, 149.07241821289062, -0.08000000566244125, 0.0, 1.055999994277954, 0.0, 0.0, 0.0, 0.0, 0.0, 1.6214289908960676E9, 2021-05-19 14:56:30.896
59.0, -71.45079040527344, -138.78021240234375, 13.325263977050781, 140.31356811523438, -0.08000000566244125, 0.0, 1.055999994277954, 0.0, 0.0, 0.0, 0.0, 0.0, 1.6214289908960676E9, 2021-05-19 14:56:30.896
60.0, -79.28961944580078, -143.05491638183594, 15.30741024017334, 142.54627990722656, -0.08000000566244125, 0.0, 1.055999994277954, 0.0, 0.0, 0.0, 0.0, 0.0, 1.621428990896844E9, 2021-05-19 14:56:30.896
60.0, -89.14799499511719, -133.30125427246094, 8.99071979522705, 143.70565795898438, -0.08000000566244125, 0.0, 1.055999994277954, 0.0, 0.0, 0.0, 0.0, 0.0, 1.621428990896844E9, 2021-05-19 14:56:30.896
61.0, -77.95447540283203, -117.23090362548828, 16.967926025390625, 148.4216766357422, -0.08000000566244125, 0.0, 1.055999994277954, 0.0, 0.0, 0.0, 0.0, 0.0, 1.6214289909103587E9, 2021-05-19 14:56:30.910
61.0, -85.10890197753906, -129.5613555908203, 20.360015869140625, 150.47486877441406, -0.08000000566244125, 0.0, 1.055999994277954, 0.0, 0.0, 0.0, 0.0, 0.0, 1.6214289909103587E9, 2021-05-19 14:56:30.910
62.0, -71.03192138671875, -130.42901611328125, 19.57089614868164, 148.3693084716797, -0.08000000566244125, 0.0, 1.055999994277954, 0.0, 0.0, 0.0, 0.0, 0.0, 1.6214289909260788E9, 2021-05-19 14:56:30.926
62.0, -85.9578628540039, -123.16612243652344, 16.833290100097656, 146.59286499023438, -0.08000000566244125, 0.0, 1.055999994277954, 0.0, 0.0, 0.0, 0.0, 0.0, 1.6214289909260788E9, 2021-05-19 14:56:30.926
63.0, -89.0283203125, -114.68029022216797, 21.208972930908203, 141.99652099609375, -0.08000000566244125, 0.0, 1.055999994277954, 0.0, 0.0, 0.0, 0.0, 0.0, 1.6214289909268591E9, 2021-05-19 14:56:30.926
63.0, -79.72344970703125, -132.15684509277344, 19.481138229370117, 142.28823852539062, -0.08000000566244125, 0.0, 1.055999994277954, 0.0, 0.0, 0.0, 0.0, 0.0, 1.6214289909268591E9, 2021-05-19 14:56:30.926
64.0, -87.2256851196289, -123.78321075439453, 18.007617950439453, 136.2931671142578, -0.08000000566244125, 0.0, 1.055999994277954, 0.0, 0.0, 0.0, 0.0, 0.0, 1.6214289909403155E9, 2021-05-19 14:56:30.940
64.0, -88.04472351074219, -112.72806549072266, 19.185686111450195, 142.65847778320312, -0.08000000566244125, 0.0, 1.055999994277954, 0.0, 0.0, 0.0, 0.0, 0.0, 1.6214289909403155E9, 2021-05-19 14:56:30.940
65.0, -87.78292846679688, -111.93146514892578, 23.79698371887207, 149.86526489257812, -0.08000000566244125, 0.0, 1.055999994277954, 0.0, 0.0, 0.0, 0.0, 0.0, 1.621428990956026E9, 2021-05-19 14:56:30.956
65.0, -87.55479431152344, -121.34479522705078, 24.709518432617188, 154.38307189941406, -0.08000000566244125, 0.0, 1.055999994277954, 0.0, 0.0, 0.0, 0.0, 0.0, 1.621428990956026E9, 2021-05-19 14:56:30.956
66.0, -82.3488540649414, -123.83930969238281, 20.87986183166504, 145.97203063964844, -0.08000000566244125, 0.0, 1.055999994277954, 0.0, 0.0, 0.0, 0.0, 0.0, 1.6214289909568708E9, 2021-05-19 14:56:30.956
66.0, -89.1330337524414, -130.21583557128906, 16.556537628173828, 150.7965087890625, -0.08000000566244125, 0.0, 1.055999994277954, 0.0, 0.0, 0.0, 0.0, 0.0, 1.6214289909568708E9, 2021-05-19 14:56:30.956
67.0, -92.24462890625, -117.39920043945312, 9.974312782287598, 149.45762634277344, -0.08000000566244125, 0.0, 1.055999994277954, 0.0, 0.0, 0.0, 0.0, 0.0, 1.6214289909703095E9, 2021-05-19 14:56:30.970
67.0, -87.79788970947266, -140.9231719970703, 6.750519275665283, 145.81495666503906, -0.08000000566244125, 0.0, 1.055999994277954, 0.0, 0.0, 0.0, 0.0, 0.0, 1.6214289909703095E9, 2021-05-19 14:56:30.970
68.0, -75.19442749023438, -134.0978546142578, 5.632289409637451, 146.45074462890625, -0.08000000566244125, 0.0, 1.055999994277954, 0.0, 0.0, 0.0, 0.0, 0.0, 1.6214289909861329E9, 2021-05-19 14:56:30.986
68.0, -87.05364990234375, -127.41838836669922, 6.492466449737549, 145.05201721191406, -0.08000000566244125, 0.0, 1.055999994277954, 0.0, 0.0, 0.0, 0.0, 0.0, 1.6214289909861329E9, 2021-05-19 14:56:30.986
69.0, -83.10057830810547, -121.83472442626953, 15.311150550842285, 150.13079833984375, -0.08000000566244125, 0.0, 1.055999994277954, 0.0, 0.0, 0.0, 0.0, 0.0, 1.621428990986896E9, 2021-05-19 14:56:30.986
69.0, -81.52607727050781, -118.92881774902344, 21.844755172729492, 151.57440185546875, -0.08000000566244125, 0.0, 1.055999994277954, 0.0, 0.0, 0.0, 0.0, 0.0, 1.621428990986896E9, 2021-05-19 14:56:30.986
70.0, -80.6546859741211, -133.42466735839844, 25.03862953186035, 145.82992553710938, -0.08000000566244125, 0.0, 1.040000081062317, 0.0, 0.0, 0.0, 0.0, 0.0, 1.6214289910004056E9, 2021-05-19 14:56:31.000
70.0, -84.66385650634766, -125.85511016845703, 22.97794532775879, 146.75367736816406, -0.08000000566244125, 0.0, 1.040000081062317, 0.0, 0.0, 0.0, 0.0, 0.0, 1.6214289910004056E9, 2021-05-19 14:56:31.000
71.0, -88.52342987060547, -121.40089416503906, 24.29813003540039, 150.57211303710938, -0.08000000566244125, 0.0, 1.040000081062317, 0.0, 0.0, 0.0, 0.0, 0.0, 1.621428991016006E9, 2021-05-19 14:56:31.016
71.0, -87.3453598022461, -120.15924835205078, 22.84330940246582, 148.11874389648438, -0.08000000566244125, 0.0, 1.040000081062317, 0.0, 0.0, 0.0, 0.0, 0.0, 1.621428991016006E9, 2021-05-19 14:56:31.016
72.0, -77.99561309814453, -124.92388153076172, 23.6922664642334, 135.8294219970703, -0.08000000566244125, 0.0, 1.040000081062317, 0.0, 0.0, 0.0, 0.0, 0.0, 1.6214289910168276E9, 2021-05-19 14:56:31.016
72.0, -93.49002075195312, -118.71564483642578, 18.194612503051758, 141.2073974609375, -0.08000000566244125, 0.0, 1.040000081062317, 0.0, 0.0, 0.0, 0.0, 0.0, 1.6214289910168276E9, 2021-05-19 14:56:31.016
73.0, -81.3802261352539, -111.32559967041016, 24.96383285522461, 148.60118103027344, -0.08000000566244125, 0.0, 1.040000081062317, 0.0, 0.0, 0.0, 0.0, 0.0, 1.6214289910304463E9, 2021-05-19 14:56:31.030
73.0, -86.26079559326172, -114.09687042236328, 29.339515686035156, 148.548828125, -0.08000000566244125, 0.0, 1.040000081062317, 0.0, 0.0, 0.0, 0.0, 0.0, 1.6214289910304463E9, 2021-05-19 14:56:31.030
74.0, -84.1103515625, -125.40632629394531, 18.291851043701172, 141.74220275878906, -0.08000000566244125, 0.0, 1.040000081062317, 0.0, 0.0, 0.0, 0.0, 0.0, 1.6214289910461502E9, 2021-05-19 14:56:31.046
74.0, -89.5519027709961, -120.95958709716797, 16.395721435546875, 143.0063018798828, -0.08000000566244125, 0.0, 1.040000081062317, 0.0, 0.0, 0.0, 0.0, 0.0, 1.6214289910461502E9, 2021-05-19 14:56:31.046
75.0, -89.84362030029297, -111.87910461425781, 13.12704849243164, 150.20933532714844, -0.08000000566244125, 0.0, 1.040000081062317, 0.0, 0.0, 0.0, 0.0, 0.0, 1.6214289910468388E9, 2021-05-19 14:56:31.046
75.0, -92.28951263427734, -123.74954986572266, 12.289311408996582, 152.29620361328125, -0.08000000566244125, 0.0, 1.040000081062317, 0.0, 0.0, 0.0, 0.0, 0.0, 1.6214289910468388E9, 2021-05-19 14:56:31.046
76.0, -90.6589126586914, -134.48306274414062, 7.644355297088623, 139.99192810058594, -0.08000000566244125, 0.0, 1.040000081062317, 0.0, 0.0, 0.0, 0.0, 0.0, 1.6214289910604048E9, 2021-05-19 14:56:31.060
76.0, -94.61573028564453, -129.96900939941406, 3.646402359008789, 140.2836456298828, -0.08000000566244125, 0.0, 1.040000081062317, 0.0, 0.0, 0.0, 0.0, 0.0, 1.6214289910604048E9, 2021-05-19 14:56:31.060
77.0, -90.92444610595703, -123.46157836914062, 7.749072551727295, 147.94296264648438, -0.08000000566244125, 0.0, 1.040000081062317, 0.0, 0.0, 0.0, 0.0, 0.0, 1.6214289911087348E9, 2021-05-19 14:56:31.108
77.0, -88.99092102050781, -132.37002563476562, 14.525771141052246, 148.86671447753906, -0.08000000566244125, 0.0, 1.040000081062317, 0.0, 0.0, 0.0, 0.0, 0.0, 1.6214289911087348E9, 2021-05-19 14:56:31.108
78.0, -80.75566101074219, -144.84632873535156, 20.767663955688477, 150.8787841796875, -0.08000000566244125, 0.0, 1.040000081062317, 0.0, 0.0, 0.0, 0.0, 0.0, 1.6214289911094315E9, 2021-05-19 14:56:31.109
78.0, -84.7723159790039, -122.24984741210938, 12.102315902709961, 141.9853057861328, -0.08000000566244125, 0.0, 1.040000081062317, 0.0, 0.0, 0.0, 0.0, 0.0, 1.6214289911094315E9, 2021-05-19 14:56:31.109
79.0, -83.28009033203125, -117.17106628417969, 21.19027328491211, 148.10377502441406, -0.08000000566244125, 0.0, 1.040000081062317, 0.0, 0.0, 0.0, 0.0, 0.0, 1.6214289911101997E9, 2021-05-19 14:56:31.110
79.0, -86.89657592773438, -123.78321075439453, 26.280277252197266, 143.32044982910156, -0.08000000566244125, 0.0, 1.040000081062317, 0.0, 0.0, 0.0, 0.0, 0.0, 1.6214289911101997E9, 2021-05-19 14:56:31.110
80.0, -91.51161193847656, -127.84848022460938, 27.566802978515625, 142.1423797607422, -0.08000000566244125, 0.0, 1.040000081062317, 0.0, 0.0, 0.0, 0.0, 0.0, 1.6214289911109405E9, 2021-05-19 14:56:31.110
80.0, -94.62694549560547, -126.03462982177734, 25.14708709716797, 137.3253936767578, -0.08000000566244125, 0.0, 1.040000081062317, 0.0, 0.0, 0.0, 0.0, 0.0, 1.6214289911109405E9, 2021-05-19 14:56:31.110
81.0, -87.46878051757812, -112.20822143554688, 32.73908233642578, 147.98410034179688, -0.08000000566244125, 0.0, 1.040000081062317, 0.0, 0.0, 0.0, 0.0, 0.0, 1.6214289911211224E9, 2021-05-19 14:56:31.121
81.0, -89.75386047363281, -125.25299072265625, 33.73015594482422, 149.61843872070312, -0.08000000566244125, 0.0, 1.040000081062317, 0.0, 0.0, 0.0, 0.0, 0.0, 1.6214289911211224E9, 2021-05-19 14:56:31.121
82.0, -79.24474334716797, -126.22162628173828, 35.71604537963867, 142.16856384277344, -0.08000000566244125, 0.0, 1.040000081062317, 0.0, 0.0, 0.0, 0.0, 0.0, 1.6214289911218991E9, 2021-05-19 14:56:31.121
82.0, -94.69800567626953, -134.66632080078125, 21.003278732299805, 136.91400146484375, -0.08000000566244125, 0.0, 1.040000081062317, 0.0, 0.0, 0.0, 0.0, 0.0, 1.6214289911218991E9, 2021-05-19 14:56:31.121
83.0, -89.07319641113281, -124.03752136230469, 25.805309295654297, 143.6345977783203, -0.08000000566244125, 0.0, 1.040000081062317, 0.0, 0.0, 0.0, 0.0, 0.0, 1.6214289911515384E9, 2021-05-19 14:56:31.151
83.0, -82.78642272949219, -145.46714782714844, 24.530004501342773, 140.42576599121094, -0.08000000566244125, 0.0, 1.040000081062317, 0.0, 0.0, 0.0, 0.0, 0.0, 1.6214289911515384E9, 2021-05-19 14:56:31.151
84.0, -87.57723999023438, -143.8814239501953, 15.599123001098633, 135.4404754638672, -0.08000000566244125, 0.0, 1.040000081062317, 0.0, 0.0, 0.0, 0.0, 0.0, 1.6214289911521697E9, 2021-05-19 14:56:31.152
84.0, -88.53091430664062, -139.78623962402344, 7.39752197265625, 132.527099609375, -0.08000000566244125, 0.0, 1.040000081062317, 0.0, 0.0, 0.0, 0.0, 0.0, 1.6214289911521697E9, 2021-05-19 14:56:31.152
85.0, -82.02348327636719, -131.91001892089844, 16.062870025634766, 143.47378540039062, -0.08000000566244125, 0.0, 1.040000081062317, 0.0, 0.0, 0.0, 0.0, 0.0, 1.6214289911674826E9, 2021-05-19 14:56:31.167
85.0, -76.00972747802734, -130.9189453125, 25.382701873779297, 153.84078979492188, -0.08000000566244125, 0.0, 1.040000081062317, 0.0, 0.0, 0.0, 0.0, 0.0, 1.6214289911674826E9, 2021-05-19 14:56:31.167
86.0, -70.33629608154297, -133.26759338378906, 28.415760040283203, 155.84536743164062, -0.08000000566244125, 0.0, 1.040000081062317, 0.0, 0.0, 0.0, 0.0, 0.0, 1.6214289911681151E9, 2021-05-19 14:56:31.168
86.0, -82.29275512695312, -131.06105041503906, 20.49091148376465, 151.56692504882812, -0.08000000566244125, 0.0, 1.040000081062317, 0.0, 0.0, 0.0, 0.0, 0.0, 1.6214289911681151E9, 2021-05-19 14:56:31.168
87.0, -86.399169921875, -124.3404541015625, 18.332988739013672, 150.01486206054688, -0.08000000566244125, 0.0, 1.040000081062317, 0.0, 0.0, 0.0, 0.0, 0.0, 1.6214289911689713E9, 2021-05-19 14:56:31.168
87.0, -81.58966064453125, -130.43275451660156, 21.855976104736328, 149.147216796875, -0.08000000566244125, 0.0, 1.040000081062317, 0.0, 0.0, 0.0, 0.0, 0.0, 1.6214289911689713E9, 2021-05-19 14:56:31.168
88.0, -94.6905288696289, -129.95404052734375, 17.132482528686523, 140.07421875, -0.08000000566244125, 0.0, 1.040000081062317, 0.0, 0.0, 0.0, 0.0, 0.0, 1.621428991197543E9, 2021-05-19 14:56:31.197
88.0, -95.99201202392578, -126.79008483886719, 10.804571151733398, 138.40621948242188, -0.08000000566244125, 0.0, 1.040000081062317, 0.0, 0.0, 0.0, 0.0, 0.0, 1.621428991197543E9, 2021-05-19 14:56:31.197
89.0, -92.0613784790039, -108.90962982177734, 17.244678497314453, 141.65992736816406, -0.08000000566244125, 0.0, 1.040000081062317, 0.0, 0.0, 0.0, 0.0, 0.0, 1.6214289911982868E9, 2021-05-19 14:56:31.198
89.0, -84.76856994628906, -119.9273681640625, 25.52855682373047, 143.92257690429688, -0.08000000566244125, 0.0, 1.040000081062317, 0.0, 0.0, 0.0, 0.0, 0.0, 1.6214289911982868E9, 2021-05-19 14:56:31.198
90.0, -75.99476623535156, -119.04849243164062, 22.78721046447754, 148.17483520507812, -0.08000000566244125, 0.0, 1.040000081062317, 0.0, 0.0, 0.0, 0.0, 0.0, 1.6214289911989672E9, 2021-05-19 14:56:31.198
90.0, -95.73021697998047, -121.07552337646484, 11.242138862609863, 146.16650390625, -0.08000000566244125, 0.0, 1.040000081062317, 0.0, 0.0, 0.0, 0.0, 0.0, 1.6214289911989672E9, 2021-05-19 14:56:31.198
91.0, -80.6172866821289, -109.19011688232422, 20.805063247680664, 153.7510223388672, -0.08000000566244125, 0.0, 1.040000081062317, 0.0, 0.0, 0.0, 0.0, 0.0, 1.6214289912103264E9, 2021-05-19 14:56:31.210
91.0, -82.24787902832031, -120.72396850585938, 21.489465713500977, 151.41358947753906, -0.08000000566244125, 0.0, 1.040000081062317, 0.0, 0.0, 0.0, 0.0, 0.0, 1.6214289912103264E9, 2021-05-19 14:56:31.210
92.0, -82.41617584228516, -141.27845764160156, 15.898314476013184, 148.2870330810547, -0.08000000566244125, 0.0, 1.040000081062317, 0.0, 0.0, 0.0, 0.0, 0.0, 1.6214289912258127E9, 2021-05-19 14:56:31.225
92.0, -90.55419921875, -129.60623168945312, 13.987225532531738, 149.30055236816406, -0.08000000566244125, 0.0, 1.040000081062317, 0.0, 0.0, 0.0, 0.0, 0.0, 1.6214289912258127E9, 2021-05-19 14:56:31.225
93.0, -94.4324722290039, -128.21124267578125, 12.020038604736328, 149.80543518066406, -0.08000000566244125, 0.0, 1.040000081062317, 0.0, 0.0, 0.0, 0.0, 0.0, 1.6214289912410333E9, 2021-05-19 14:56:31.241
93.0, -80.32930755615234, -132.25782775878906, 20.34879493713379, 154.8580322265625, -0.08000000566244125, 0.0, 1.040000081062317, 0.0, 0.0, 0.0, 0.0, 0.0, 1.6214289912410333E9, 2021-05-19 14:56:31.241
94.0, -84.67133331298828, -140.93064880371094, 13.69925308227539, 142.4453125, -0.08000000566244125, 0.0, 1.040000081062317, 0.0, 0.0, 0.0, 0.0, 0.0, 1.621428991241761E9, 2021-05-19 14:56:31.241
94.0, -93.2431869506836, -138.14068603515625, 2.367356777191162, 140.25372314453125, -0.08000000566244125, 0.0, 1.040000081062317, 0.0, 0.0, 0.0, 0.0, 0.0, 1.621428991241761E9, 2021-05-19 14:56:31.241
95.0, -82.3077163696289, -120.00216674804688, 13.291604042053223, 151.3986358642578, -0.08000000566244125, 0.0, 1.040000081062317, 0.0, 0.0, 0.0, 0.0, 0.0, 1.6214289912560673E9, 2021-05-19 14:56:31.256
95.0, -81.72429656982422, -134.87200927734375, 16.679954528808594, 147.7410125732422, -0.08000000566244125, 0.0, 1.040000081062317, 0.0, 0.0, 0.0, 0.0, 0.0, 1.6214289912560673E9, 2021-05-19 14:56:31.256
96.0, -88.19058227539062, -143.66078186035156, 8.272658348083496, 146.7686309814453, -0.08000000566244125, 0.0, 1.040000081062317, 0.0, 0.0, 0.0, 0.0, 0.0, 1.621428991256778E9, 2021-05-19 14:56:31.256
96.0, -80.6172866821289, -133.14791870117188, 8.497053146362305, 142.867919921875, -0.08000000566244125, 0.0, 1.040000081062317, 0.0, 0.0, 0.0, 0.0, 0.0, 1.621428991256778E9, 2021-05-19 14:56:31.256
97.0, -93.11976623535156, -127.68766784667969, 9.82471752166748, 141.18496704101562, -0.08000000566244125, 0.0, 1.040000081062317, 0.0, 0.0, 0.0, 0.0, 0.0, 1.6214289912703364E9, 2021-05-19 14:56:31.270
97.0, -82.05340576171875, -137.25059509277344, 17.2185001373291, 143.4700469970703, -0.08000000566244125, 0.0, 1.040000081062317, 0.0, 0.0, 0.0, 0.0, 0.0, 1.6214289912703364E9, 2021-05-19 14:56:31.270
98.0, -90.94314575195312, -137.66571044921875, 12.102315902709961, 141.4617156982422, -0.08000000566244125, 0.0, 1.040000081062317, 0.0, 0.0, 0.0, 0.0, 0.0, 1.6214289912867773E9, 2021-05-19 14:56:31.286
98.0, -79.36815643310547, -130.72821044921875, 21.38848876953125, 144.84259033203125, -0.08000000566244125, 0.0, 1.040000081062317, 0.0, 0.0, 0.0, 0.0, 0.0, 1.6214289912867773E9, 2021-05-19 14:56:31.286
99.0, -91.00672912597656, -125.1632308959961, 15.842216491699219, 145.98326110839844, -0.08000000566244125, 0.0, 1.040000081062317, 0.0, 0.0, 0.0, 0.0, 0.0, 1.621428991287442E9, 2021-05-19 14:56:31.287
99.0, -81.4587631225586, -127.36228942871094, 27.129234313964844, 144.71542358398438, -0.08000000566244125, 0.0, 1.040000081062317, 0.0, 0.0, 0.0, 0.0, 0.0, 1.621428991287442E9, 2021-05-19 14:56:31.287
100.0, -76.71656799316406, -134.81591796875, 21.94573211669922, 150.4561767578125, -0.08000000566244125, 0.0, 1.055999994277954, 0.0, 0.0, 0.0, 0.0, 0.0, 1.6214289913308146E9, 2021-05-19 14:56:31.330
100.0, -86.21965026855469, -128.3234405517578, 13.598276138305664, 148.44410705566406, -0.08000000566244125, 0.0, 1.055999994277954, 0.0, 0.0, 0.0, 0.0, 0.0, 1.6214289913308146E9, 2021-05-19 14:56:31.330
0.0, -89.43596649169922, -120.00778198242188, 18.177783966064453, 150.20933532714844, -0.08000000566244125, 0.0, 1.055999994277954, 0.0, 0.0, 0.0, 0.0, 0.0, 1.621428991348797E9, 2021-05-19 14:56:31.348
1.0, -75.87509155273438, -132.91043090820312, 24.2551212310791, 157.25157165527344, -0.08000000566244125, 0.0, 1.055999994277954, 0.0, 0.0, 0.0, 0.0, 0.0, 1.6214289913496013E9, 2021-05-19 14:56:31.349
1.0, -94.8513412475586, -139.5150909423828, 17.14183235168457, 148.9751739501953, -0.08000000566244125, 0.0, 1.055999994277954, 0.0, 0.0, 0.0, 0.0, 0.0, 1.6214289913496013E9, 2021-05-19 14:56:31.349
2.0, -83.93457794189453, -132.04652404785156, 8.768195152282715, 145.55690002441406, -0.08000000566244125, 0.0, 1.055999994277954, 0.0, 0.0, 0.0, 0.0, 0.0, 1.621428991350279E9, 2021-05-19 14:56:31.350
2.0, -82.7303237915039, -130.93951416015625, 10.170658111572266, 152.56173706054688, -0.08000000566244125, 0.0, 1.055999994277954, 0.0, 0.0, 0.0, 0.0, 0.0, 1.621428991350279E9, 2021-05-19 14:56:31.350
3.0, -79.45417785644531, -130.81982421875, 17.306386947631836, 158.631591796875, -0.08000000566244125, 0.0, 1.055999994277954, 0.0, 0.0, 0.0, 0.0, 0.0, 1.6214289913510077E9, 2021-05-19 14:56:31.351
3.0, -82.5433349609375, -140.52113342285156, 14.744555473327637, 147.2847442626953, -0.08000000566244125, 0.0, 1.055999994277954, 0.0, 0.0, 0.0, 0.0, 0.0, 1.6214289913510077E9, 2021-05-19 14:56:31.351
4.0, -88.05220794677734, -134.33908081054688, 6.359699726104736, 147.69613647460938, -0.08000000566244125, 0.0, 1.055999994277954, 0.0, 0.0, 0.0, 0.0, 0.0, 1.6214289913616889E9, 2021-05-19 14:56:31.361
4.0, -85.02662658691406, -124.66395568847656, 17.844932556152344, 150.99098205566406, -0.08000000566244125, 0.0, 1.055999994277954, 0.0, 0.0, 0.0, 0.0, 0.0, 1.6214289913616889E9, 2021-05-19 14:56:31.361
5.0, -76.0807876586914, -132.92913818359375, 25.904417037963867, 145.38861083984375, -0.08000000566244125, 0.0, 1.055999994277954, 0.0, 0.0, 0.0, 0.0, 0.0, 1.6214289913624341E9, 2021-05-19 14:56:31.362
5.0, -78.20504760742188, -139.75071716308594, 16.62572479248047, 142.3592987060547, -0.08000000566244125, 0.0, 1.055999994277954, 0.0, 0.0, 0.0, 0.0, 0.0, 1.6214289913624341E9, 2021-05-19 14:56:31.362
6.0, -87.87642669677734, -126.25714874267578, 13.274774551391602, 141.05406188964844, -0.08000000566244125, 0.0, 1.055999994277954, 0.0, 0.0, 0.0, 0.0, 0.0, 1.6214289913631716E9, 2021-05-19 14:56:31.363
6.0, -84.67133331298828, -117.45716857910156, 13.663724899291992, 145.04827880859375, -0.08000000566244125, 0.0, 1.055999994277954, 0.0, 0.0, 0.0, 0.0, 0.0, 1.6214289913631716E9, 2021-05-19 14:56:31.363
7.0, -81.92998504638672, -129.95217895507812, 11.947110176086426, 148.23468017578125, -0.08000000566244125, 0.0, 1.055999994277954, 0.0, 0.0, 0.0, 0.0, 0.0, 1.6214289913752863E9, 2021-05-19 14:56:31.375
7.0, -72.71861267089844, -133.8790740966797, 13.645025253295898, 146.98928833007812, -0.08000000566244125, 0.0, 1.055999994277954, 0.0, 0.0, 0.0, 0.0, 0.0, 1.6214289913752863E9, 2021-05-19 14:56:31.375
8.0, -86.89283752441406, -129.2602996826172, 5.420985221862793, 145.80747985839844, -0.08000000566244125, 0.0, 1.055999994277954, 0.0, 0.0, 0.0, 0.0, 0.0, 1.6214289913910153E9, 2021-05-19 14:56:31.391
8.0, -83.65034484863281, -126.93407440185547, 7.9379377365112305, 143.8365478515625, -0.08000000566244125, 0.0, 1.055999994277954, 0.0, 0.0, 0.0, 0.0, 0.0, 1.6214289913910153E9, 2021-05-19 14:56:31.391
9.0, -68.62716674804688, -131.9604949951172, 13.712343215942383, 147.5727081298828, -0.08000000566244125, 0.0, 1.055999994277954, 0.0, 0.0, 0.0, 0.0, 0.0, 1.6214289913917708E9, 2021-05-19 14:56:31.391
9.0, -80.71826171875, -131.7959442138672, 10.656845092773438, 146.05056762695312, -0.08000000566244125, 0.0, 1.055999994277954, 0.0, 0.0, 0.0, 0.0, 0.0, 1.6214289913917708E9, 2021-05-19 14:56:31.391
10.0, -82.69292449951172, -130.4458465576172, 12.321100234985352, 148.631103515625, -0.08000000566244125, 0.0, 1.055999994277954, 0.0, 0.0, 0.0, 0.0, 0.0, 1.6214289914053607E9, 2021-05-19 14:56:31.405
10.0, -84.66011810302734, -117.19163513183594, 12.930704116821289, 151.37245178222656, -0.08000000566244125, 0.0, 1.055999994277954, 0.0, 0.0, 0.0, 0.0, 0.0, 1.6214289914053607E9, 2021-05-19 14:56:31.405
11.0, -77.75626373291016, -129.11444091796875, 16.191896438598633, 146.4395294189453, -0.08000000566244125, 0.0, 1.055999994277954, 0.0, 0.0, 0.0, 0.0, 0.0, 1.621428991421046E9, 2021-05-19 14:56:31.421
11.0, -78.4705810546875, -139.91526794433594, 11.83117389678955, 146.39463806152344, -0.08000000566244125, 0.0, 1.055999994277954, 0.0, 0.0, 0.0, 0.0, 0.0, 1.621428991421046E9, 2021-05-19 14:56:31.421
12.0, -90.16899108886719, -133.76687622070312, -0.09910734742879868, 143.36532592773438, -0.08000000566244125, 0.0, 1.055999994277954, 0.0, 0.0, 0.0, 0.0, 0.0, 1.6214289914217954E9, 2021-05-19 14:56:31.421
12.0, -90.3148422241211, -118.0031967163086, 8.386725425720215, 148.6872100830078, -0.08000000566244125, 0.0, 1.055999994277954, 0.0, 0.0, 0.0, 0.0, 0.0, 1.6214289914217954E9, 2021-05-19 14:56:31.421
13.0, -82.6256103515625, -126.61618041992188, 9.852766036987305, 145.0333251953125, -0.08000000566244125, 0.0, 1.055999994277954, 0.0, 0.0, 0.0, 0.0, 0.0, 1.621428991435333E9, 2021-05-19 14:56:31.435
13.0, -74.74938201904297, -134.55972290039062, 10.271635055541992, 144.03851318359375, -0.08000000566244125, 0.0, 1.055999994277954, 0.0, 0.0, 0.0, 0.0, 0.0, 1.621428991435333E9, 2021-05-19 14:56:31.435
14.0, -81.05485534667969, -126.51146697998047, 8.214690208435059, 142.022705078125, -0.08000000566244125, 0.0, 1.055999994277954, 0.0, 0.0, 0.0, 0.0, 0.0, 1.6214289914510558E9, 2021-05-19 14:56:31.451
14.0, -80.20963287353516, -121.29430389404297, 18.529335021972656, 150.39259338378906, -0.08000000566244125, 0.0, 1.055999994277954, 0.0, 0.0, 0.0, 0.0, 0.0, 1.6214289914510558E9, 2021-05-19 14:56:31.451
15.0, -79.14002227783203, -120.10501861572266, 22.3477725982666, 148.19354248046875, -0.08000000566244125, 0.0, 1.055999994277954, 0.0, 0.0, 0.0, 0.0, 0.0, 1.6214289914517963E9, 2021-05-19 14:56:31.451
15.0, -77.67771911621094, -120.95397186279297, 28.952436447143555, 151.25277709960938, -0.08000000566244125, 0.0, 1.055999994277954, 0.0, 0.0, 0.0, 0.0, 0.0, 1.6214289914517963E9, 2021-05-19 14:56:31.451
16.0, -90.10540771484375, -119.30841827392578, 14.336906433105469, 144.55087280273438, -0.08000000566244125, 0.0, 1.055999994277954, 0.0, 0.0, 0.0, 0.0, 0.0, 1.6214289914653597E9, 2021-05-19 14:56:31.465
16.0, -83.05195617675781, -108.40287017822266, 24.464555740356445, 151.88107299804688, -0.08000000566244125, 0.0, 1.055999994277954, 0.0, 0.0, 0.0, 0.0, 0.0, 1.6214289914653597E9, 2021-05-19 14:56:31.465
17.0, -81.17453002929688, -116.17438507080078, 22.512327194213867, 148.0850830078125, -0.08000000566244125, 0.0, 1.055999994277954, 0.0, 0.0, 0.0, 0.0, 0.0, 1.621428991481011E9, 2021-05-19 14:56:31.481
17.0, -86.17103576660156, -122.9249038696289, 19.74106216430664, 143.0848388671875, -0.08000000566244125, 0.0, 1.055999994277954, 0.0, 0.0, 0.0, 0.0, 0.0, 1.621428991481011E9, 2021-05-19 14:56:31.481
18.0, -88.05220794677734, -115.58721923828125, 16.247995376586914, 143.18580627441406, -0.08000000566244125, 0.0, 1.055999994277954, 0.0, 0.0, 0.0, 0.0, 0.0, 1.6214289914817696E9, 2021-05-19 14:56:31.481
18.0, -89.33872985839844, -109.48744201660156, 17.06329345703125, 153.9268035888672, -0.08000000566244125, 0.0, 1.055999994277954, 0.0, 0.0, 0.0, 0.0, 0.0, 1.6214289914817696E9, 2021-05-19 14:56:31.481
19.0, -92.30821228027344, -112.81594848632812, 18.824787139892578, 153.0890655517578, -0.08000000566244125, 0.0, 1.055999994277954, 0.0, 0.0, 0.0, 0.0, 0.0, 1.6214289914953527E9, 2021-05-19 14:56:31.495
19.0, -83.69522094726562, -126.74707794189453, 16.838899612426758, 149.16964721679688, -0.08000000566244125, 0.0, 1.055999994277954, 0.0, 0.0, 0.0, 0.0, 0.0, 1.6214289914953527E9, 2021-05-19 14:56:31.495
20.0, -85.2734603881836, -123.31758880615234, 4.826340675354004, 147.5652313232422, -0.08000000566244125, 0.0, 1.055999994277954, 0.0, 0.0, 0.0, 0.0, 0.0, 1.6214289915110197E9, 2021-05-19 14:56:31.511
20.0, -98.6249008178711, -113.45547485351562, 5.282608509063721, 149.20704650878906, -0.08000000566244125, 0.0, 1.055999994277954, 0.0, 0.0, 0.0, 0.0, 0.0, 1.6214289915110197E9, 2021-05-19 14:56:31.511
21.0, -84.49929809570312, -135.58445739746094, 7.6948442459106445, 144.02354431152344, -0.08000000566244125, 0.0, 1.055999994277954, 0.0, 0.0, 0.0, 0.0, 0.0, 1.6214289915117807E9, 2021-05-19 14:56:31.511
21.0, -82.80886840820312, -142.9034423828125, 3.9138052463531494, 143.13719177246094, -0.08000000566244125, 0.0, 1.055999994277954, 0.0, 0.0, 0.0, 0.0, 0.0, 1.6214289915117807E9, 2021-05-19 14:56:31.511
22.0, -90.80477142333984, -131.6239013671875, 3.334120750427246, 143.82907104492188, -0.08000000566244125, 0.0, 1.055999994277954, 0.0, 0.0, 0.0, 0.0, 0.0, 1.6214289915253332E9, 2021-05-19 14:56:31.525
22.0, -86.10746002197266, -115.66201782226562, 13.959177017211914, 150.3776397705078, -0.08000000566244125, 0.0, 1.055999994277954, 0.0, 0.0, 0.0, 0.0, 0.0, 1.6214289915253332E9, 2021-05-19 14:56:31.525
23.0, -82.16934204101562, -129.31639099121094, 15.709449768066406, 145.6167449951172, -0.08000000566244125, 0.0, 1.055999994277954, 0.0, 0.0, 0.0, 0.0, 0.0, 1.6214289915410132E9, 2021-05-19 14:56:31.541
23.0, -81.77291107177734, -136.2987823486328, 7.126379489898682, 140.77357482910156, -0.08000000566244125, 0.0, 1.055999994277954, 0.0, 0.0, 0.0, 0.0, 0.0, 1.6214289915410132E9, 2021-05-19 14:56:31.541
24.0, -86.40664672851562, -121.73187255859375, 13.140138626098633, 146.33106994628906, -0.08000000566244125, 0.0, 1.055999994277954, 0.0, 0.0, 0.0, 0.0, 0.0, 1.6214289915417528E9, 2021-05-19 14:56:31.541
24.0, -80.2545166015625, -121.58975982666016, 16.438730239868164, 147.75596618652344, -0.08000000566244125, 0.0, 1.055999994277954, 0.0, 0.0, 0.0, 0.0, 0.0, 1.6214289915417528E9, 2021-05-19 14:56:31.541
25.0, -78.69871520996094, -128.40011596679688, 15.122285842895508, 146.7237548828125, -0.08000000566244125, 0.0, 1.055999994277954, 0.0, 0.0, 0.0, 0.0, 0.0, 1.6214289915553577E9, 2021-05-19 14:56:31.555
25.0, -76.06956481933594, -131.01805114746094, 19.389511108398438, 144.03102111816406, -0.08000000566244125, 0.0, 1.055999994277954, 0.0, 0.0, 0.0, 0.0, 0.0, 1.6214289915553577E9, 2021-05-19 14:56:31.555
26.0, -88.15692138671875, -124.4881820678711, 2.6347594261169434, 142.00025939941406, -0.08000000566244125, 0.0, 1.055999994277954, 0.0, 0.0, 0.0, 0.0, 0.0, 1.621428991571412E9, 2021-05-19 14:56:31.571
26.0, -88.3289566040039, -119.95915985107422, 9.92756462097168, 147.12767028808594, -0.08000000566244125, 0.0, 1.055999994277954, 0.0, 0.0, 0.0, 0.0, 0.0, 1.621428991571412E9, 2021-05-19 14:56:31.571
27.0, -82.37877655029297, -123.90849304199219, 18.054367065429688, 146.82847595214844, -0.08000000566244125, 0.0, 1.055999994277954, 0.0, 0.0, 0.0, 0.0, 0.0, 1.6214289915861003E9, 2021-05-19 14:56:31.586
27.0, -76.27899932861328, -132.3157958984375, 12.818507194519043, 142.67344665527344, -0.08000000566244125, 0.0, 1.055999994277954, 0.0, 0.0, 0.0, 0.0, 0.0, 1.6214289915861003E9, 2021-05-19 14:56:31.586
28.0, -90.04557037353516, -123.69532012939453, 9.751789093017578, 144.20680236816406, -0.08000000566244125, 0.0, 1.055999994277954, 0.0, 0.0, 0.0, 0.0, 0.0, 1.6214289915868077E9, 2021-05-19 14:56:31.586
28.0, -83.1117935180664, -120.90535736083984, 16.461170196533203, 146.23008728027344, -0.08000000566244125, 0.0, 1.055999994277954, 0.0, 0.0, 0.0, 0.0, 0.0, 1.6214289915868077E9, 2021-05-19 14:56:31.586
29.0, -83.65408325195312, -131.0928497314453, 16.147018432617188, 143.95997619628906, -0.08000000566244125, 0.0, 1.055999994277954, 0.0, 0.0, 0.0, 0.0, 0.0, 1.621428991601001E9, 2021-05-19 14:56:31.601
29.0, -82.93601989746094, -132.85060119628906, 10.780261993408203, 139.0980987548828, -0.08000000566244125, 0.0, 1.055999994277954, 0.0, 0.0, 0.0, 0.0, 0.0, 1.621428991601001E9, 2021-05-19 14:56:31.601
30.0, -90.43452453613281, -123.85614013671875, 5.918391704559326, 142.29571533203125, -0.08000000566244125, 0.0, 1.055999994277954, 0.0, 0.0, 0.0, 0.0, 0.0, 1.6214289916017416E9, 2021-05-19 14:56:31.601
30.0, -80.7406997680664, -116.51470947265625, 9.54609489440918, 149.03128051757812, -0.08000000566244125, 0.0, 1.055999994277954, 0.0, 0.0, 0.0, 0.0, 0.0, 1.6214289916017416E9, 2021-05-19 14:56:31.601
31.0, -78.17887115478516, -125.58023071289062, 17.355005264282227, 146.0879669189453, -0.08000000566244125, 0.0, 1.055999994277954, 0.0, 0.0, 0.0, 0.0, 0.0, 1.6214289916153429E9, 2021-05-19 14:56:31.615
31.0, -83.02204132080078, -133.2432861328125, 7.2049174308776855, 139.02330017089844, -0.08000000566244125, 0.0, 1.055999994277954, 0.0, 0.0, 0.0, 0.0, 0.0, 1.6214289916153429E9, 2021-05-19 14:56:31.615
32.0, -82.21047973632812, -123.73645782470703, 7.683624267578125, 152.1017303466797, -0.08000000566244125, 0.0, 1.055999994277954, 0.0, 0.0, 0.0, 0.0, 0.0, 1.6214289916310723E9, 2021-05-19 14:56:31.631
32.0, -85.86062622070312, -117.84611511230469, 15.840346336364746, 150.55715942382812, -0.08000000566244125, 0.0, 1.055999994277954, 0.0, 0.0, 0.0, 0.0, 0.0, 1.6214289916310723E9, 2021-05-19 14:56:31.631
33.0, -83.79619598388672, -131.64260864257812, 13.424370765686035, 140.67259216308594, -0.08000000566244125, 0.0, 1.055999994277954, 0.0, 0.0, 0.0, 0.0, 0.0, 1.6214289916318069E9, 2021-05-19 14:56:31.631
33.0, -74.99247741699219, -131.9717254638672, 12.78858757019043, 141.7646484375, -0.08000000566244125, 0.0, 1.055999994277954, 0.0, 0.0, 0.0, 0.0, 0.0, 1.6214289916318069E9, 2021-05-19 14:56:31.631
34.0, -84.87702941894531, -129.01719665527344, 5.1404924392700195, 139.67030334472656, -0.08000000566244125, 0.0, 1.055999994277954, 0.0, 0.0, 0.0, 0.0, 0.0, 1.621428991645337E9, 2021-05-19 14:56:31.645
34.0, -84.5105209350586, -112.39334106445312, 8.00899600982666, 142.71832275390625, -0.08000000566244125, 0.0, 1.055999994277954, 0.0, 0.0, 0.0, 0.0, 0.0, 1.621428991645337E9, 2021-05-19 14:56:31.645
35.0, -87.01998901367188, -127.37164306640625, 14.38178539276123, 140.72869873046875, -0.08000000566244125, 0.0, 1.055999994277954, 0.0, 0.0, 0.0, 0.0, 0.0, 1.6214289916780343E9, 2021-05-19 14:56:31.678
35.0, -85.83070373535156, -124.07305145263672, 15.092366218566895, 142.6061248779297, -0.08000000566244125, 0.0, 1.055999994277954, 0.0, 0.0, 0.0, 0.0, 0.0, 1.6214289916780343E9, 2021-05-19 14:56:31.678
36.0, -89.70523834228516, -122.39009857177734, 14.067633628845215, 137.35903930664062, -0.08000000566244125, 0.0, 1.055999994277954, 0.0, 0.0, 0.0, 0.0, 0.0, 1.621428991678752E9, 2021-05-19 14:56:31.678
36.0, -89.5743408203125, -112.1053695678711, 15.937583923339844, 144.6368865966797, -0.08000000566244125, 0.0, 1.055999994277954, 0.0, 0.0, 0.0, 0.0, 0.0, 1.621428991678752E9, 2021-05-19 14:56:31.678
37.0, -88.09708404541016, -123.0670166015625, 10.754082679748535, 137.93873596191406, -0.08000000566244125, 0.0, 1.055999994277954, 0.0, 0.0, 0.0, 0.0, 0.0, 1.6214289916794949E9, 2021-05-19 14:56:31.679
37.0, -80.71452331542969, -131.23121643066406, 12.321100234985352, 143.22320556640625, -0.08000000566244125, 0.0, 1.055999994277954, 0.0, 0.0, 0.0, 0.0, 0.0, 1.6214289916794949E9, 2021-05-19 14:56:31.679
38.0, -89.0507583618164, -114.12117767333984, 0.9031858444213867, 137.16082763671875, -0.08000000566244125, 0.0, 1.055999994277954, 0.0, 0.0, 0.0, 0.0, 0.0, 1.6214289916802666E9, 2021-05-19 14:56:31.680
38.0, -83.74009704589844, -119.24484252929688, 9.40397834777832, 146.23756408691406, -0.08000000566244125, 0.0, 1.055999994277954, 0.0, 0.0, 0.0, 0.0, 0.0, 1.6214289916802666E9, 2021-05-19 14:56:31.680
39.0, -87.00877380371094, -133.59857177734375, 7.5302886962890625, 139.08314514160156, -0.08000000566244125, 0.0, 1.055999994277954, 0.0, 0.0, 0.0, 0.0, 0.0, 1.621428991690354E9, 2021-05-19 14:56:31.690
39.0, -84.35718536376953, -134.5260772705078, 6.168964862823486, 134.052978515625, -0.08000000566244125, 0.0, 1.055999994277954, 0.0, 0.0, 0.0, 0.0, 0.0, 1.621428991690354E9, 2021-05-19 14:56:31.690
40.0, -89.02083587646484, -125.56900787353516, -1.6399461030960083, 135.68731689453125, -0.08000000566244125, 0.0, 1.040000081062317, 0.0, 0.0, 0.0, 0.0, 0.0, 1.621428991705384E9, 2021-05-19 14:56:31.705
40.0, -88.99092102050781, -114.78688049316406, 7.455490589141846, 139.66656494140625, -0.08000000566244125, 0.0, 1.040000081062317, 0.0, 0.0, 0.0, 0.0, 0.0, 1.621428991705384E9, 2021-05-19 14:56:31.705
41.0, -79.54019165039062, -119.28224182128906, 12.048088073730469, 146.15155029296875, -0.08000000566244125, 0.0, 1.040000081062317, 0.0, 0.0, 0.0, 0.0, 0.0, 1.6214289917381284E9, 2021-05-19 14:56:31.738
41.0, -91.60511016845703, -131.09658813476562, 7.620046138763428, 138.05467224121094, -0.08000000566244125, 0.0, 1.040000081062317, 0.0, 0.0, 0.0, 0.0, 0.0, 1.6214289917381284E9, 2021-05-19 14:56:31.738
42.0, -94.22303771972656, -121.9450454711914, 1.3070950508117676, 135.5414581298828, -0.08000000566244125, 0.0, 1.040000081062317, 0.0, 0.0, 0.0, 0.0, 0.0, 1.6214289917389483E9, 2021-05-19 14:56:31.738
42.0, -90.6776123046875, -113.35823822021484, 9.441377639770508, 141.34951782226562, -0.08000000566244125, 0.0, 1.040000081062317, 0.0, 0.0, 0.0, 0.0, 0.0, 1.6214289917389483E9, 2021-05-19 14:56:31.738
43.0, -83.82611846923828, -124.83599090576172, 9.890165328979492, 145.55690002441406, -0.08000000566244125, 0.0, 1.040000081062317, 0.0, 0.0, 0.0, 0.0, 0.0, 1.6214289917397046E9, 2021-05-19 14:56:31.739
43.0, -89.79873657226562, -122.31529998779297, 6.748649597167969, 139.640380859375, -0.08000000566244125, 0.0, 1.040000081062317, 0.0, 0.0, 0.0, 0.0, 0.0, 1.6214289917397046E9, 2021-05-19 14:56:31.739
44.0, -91.4181137084961, -116.9822006225586, 6.501816272735596, 142.1012420654297, -0.08000000566244125, 0.0, 1.040000081062317, 0.0, 0.0, 0.0, 0.0, 0.0, 1.6214289917403765E9, 2021-05-19 14:56:31.740
44.0, -97.45057678222656, -116.51470947265625, 9.108526229858398, 140.80349731445312, -0.08000000566244125, 0.0, 1.040000081062317, 0.0, 0.0, 0.0, 0.0, 0.0, 1.6214289917403765E9, 2021-05-19 14:56:31.740
45.0, -84.9742660522461, -112.86457061767578, 19.595205307006836, 147.621337890625, -0.08000000566244125, 0.0, 1.040000081062317, 0.0, 0.0, 0.0, 0.0, 0.0, 1.6214289917505586E9, 2021-05-19 14:56:31.750
45.0, -91.78462219238281, -117.08317565917969, 9.878945350646973, 139.42347717285156, -0.08000000566244125, 0.0, 1.040000081062317, 0.0, 0.0, 0.0, 0.0, 0.0, 1.6214289917505586E9, 2021-05-19 14:56:31.750
46.0, -95.8311996459961, -115.42266082763672, 10.742862701416016, 140.38462829589844, -0.08000000566244125, 0.0, 1.040000081062317, 0.0, 0.0, 0.0, 0.0, 0.0, 1.6214289917825596E9, 2021-05-19 14:56:31.782
46.0, -85.9167251586914, -104.13190460205078, 11.857353210449219, 143.72808837890625, -0.08000000566244125, 0.0, 1.040000081062317, 0.0, 0.0, 0.0, 0.0, 0.0, 1.6214289917825596E9, 2021-05-19 14:56:31.782
47.0, -79.06896209716797, -120.23591613769531, 11.094412803649902, 142.32937622070312, -0.08000000566244125, 0.0, 1.040000081062317, 0.0, 0.0, 0.0, 0.0, 0.0, 1.6214289917831922E9, 2021-05-19 14:56:31.783
47.0, -85.60256958007812, -126.53390502929688, 6.928164482116699, 142.0264434814453, -0.08000000566244125, 0.0, 1.040000081062317, 0.0, 0.0, 0.0, 0.0, 0.0, 1.6214289917831922E9, 2021-05-19 14:56:31.783
48.0, -88.87124633789062, -122.60700988769531, 5.151712417602539, 143.48126220703125, -0.08000000566244125, 0.0, 1.040000081062317, 0.0, 0.0, 0.0, 0.0, 0.0, 1.6214289917839775E9, 2021-05-19 14:56:31.783
48.0, -81.93373107910156, -120.18729400634766, 3.8090879917144775, 141.77212524414062, -0.08000000566244125, 0.0, 1.040000081062317, 0.0, 0.0, 0.0, 0.0, 0.0, 1.6214289917839775E9, 2021-05-19 14:56:31.783
49.0, -85.22857666015625, -135.46104431152344, 6.288641929626465, 141.15130615234375, -0.08000000566244125, 0.0, 1.040000081062317, 0.0, 0.0, 0.0, 0.0, 0.0, 1.6214289918117309E9, 2021-05-19 14:56:31.811
49.0, -79.58132934570312, -133.8416748046875, 8.966409683227539, 142.19847106933594, -0.08000000566244125, 0.0, 1.040000081062317, 0.0, 0.0, 0.0, 0.0, 0.0, 1.6214289918117309E9, 2021-05-19 14:56:31.811
50.0, -85.72972869873047, -124.32736206054688, 5.252689361572266, 138.5333709716797, -0.08000000566244125, 0.0, 1.040000081062317, 0.0, 0.0, 0.0, 0.0, 0.0, 1.6214289918124352E9, 2021-05-19 14:56:31.812
50.0, -86.61608123779297, -111.3461685180664, 10.05846118927002, 140.23876953125, -0.08000000566244125, 0.0, 1.040000081062317, 0.0, 0.0, 0.0, 0.0, 0.0, 1.6214289918124352E9, 2021-05-19 14:56:31.812
51.0, -85.26972198486328, -123.1492919921875, 10.697983741760254, 140.01063537597656, -0.08000000566244125, 0.0, 1.040000081062317, 0.0, 0.0, 0.0, 0.0, 0.0, 1.6214289918131928E9, 2021-05-19 14:56:31.813
51.0, -76.30143737792969, -123.07075500488281, 9.834067344665527, 140.37339782714844, -0.08000000566244125, 0.0, 1.040000081062317, 0.0, 0.0, 0.0, 0.0, 0.0, 1.6214289918131928E9, 2021-05-19 14:56:31.813
52.0, -78.3284683227539, -114.47647094726562, 10.75034236907959, 137.3104248046875, -0.08000000566244125, 0.0, 1.040000081062317, 0.0, 0.0, 0.0, 0.0, 0.0, 1.6214289918253672E9, 2021-05-19 14:56:31.825
52.0, -83.88969421386719, -111.65283966064453, 14.434144020080566, 141.32333374023438, -0.08000000566244125, 0.0, 1.040000081062317, 0.0, 0.0, 0.0, 0.0, 0.0, 1.6214289918253672E9, 2021-05-19 14:56:31.825
53.0, -84.6339340209961, -122.6444091796875, 11.31132698059082, 141.02415466308594, -0.08000000566244125, 0.0, 1.040000081062317, 0.0, 0.0, 0.0, 0.0, 0.0, 1.6214289918417463E9, 2021-05-19 14:56:31.841
53.0, -86.25704956054688, -124.809814453125, 5.5743207931518555, 134.23997497558594, -0.08000000566244125, 0.0, 1.040000081062317, 0.0, 0.0, 0.0, 0.0, 0.0, 1.6214289918417463E9, 2021-05-19 14:56:31.841
54.0, -95.98078918457031, -115.59095764160156, 9.265602111816406, 134.57281494140625, -0.08000000566244125, 0.0, 1.040000081062317, 0.0, 0.0, 0.0, 0.0, 0.0, 1.6214289918424437E9, 2021-05-19 14:56:31.842
54.0, -86.09623718261719, -103.34278869628906, 17.42232322692871, 139.96949768066406, -0.08000000566244125, 0.0, 1.040000081062317, 0.0, 0.0, 0.0, 0.0, 0.0, 1.6214289918424437E9, 2021-05-19 14:56:31.842
55.0, -80.95013427734375, -108.55620574951172, 19.7074031829834, 146.82473754882812, -0.08000000566244125, 0.0, 1.040000081062317, 0.0, 0.0, 0.0, 0.0, 0.0, 1.6214289918553107E9, 2021-05-19 14:56:31.855
55.0, -80.03012084960938, -120.056396484375, 21.53621482849121, 141.0802459716797, -0.08000000566244125, 0.0, 1.040000081062317, 0.0, 0.0, 0.0, 0.0, 0.0, 1.6214289918553107E9, 2021-05-19 14:56:31.855
56.0, -88.73660278320312, -118.0443344116211, 7.780861854553223, 135.0253448486328, -0.08000000566244125, 0.0, 1.040000081062317, 0.0, 0.0, 0.0, 0.0, 0.0, 1.6214289918710396E9, 2021-05-19 14:56:31.871
56.0, -92.51764678955078, -120.26956939697266, 9.628372192382812, 138.5446014404297, -0.08000000566244125, 0.0, 1.040000081062317, 0.0, 0.0, 0.0, 0.0, 0.0, 1.6214289918710396E9, 2021-05-19 14:56:31.871
57.0, -83.25765228271484, -122.18814086914062, 2.8516736030578613, 138.69044494628906, -0.08000000566244125, 0.0, 1.040000081062317, 0.0, 0.0, 0.0, 0.0, 0.0, 1.621428991871762E9, 2021-05-19 14:56:31.871
57.0, -79.6748275756836, -129.96339416503906, 0.3010619580745697, 139.21029663085938, -0.08000000566244125, 0.0, 1.040000081062317, 0.0, 0.0, 0.0, 0.0, 0.0, 1.621428991871762E9, 2021-05-19 14:56:31.871
58.0, -87.16958618164062, -117.67407989501953, 3.4500577449798584, 145.0782012939453, -0.08000000566244125, 0.0, 1.040000081062317, 0.0, 0.0, 0.0, 0.0, 0.0, 1.6214289918853898E9, 2021-05-19 14:56:31.885
58.0, -85.28467559814453, -119.45427703857422, 9.41519832611084, 150.7142333984375, -0.08000000566244125, 0.0, 1.040000081062317, 0.0, 0.0, 0.0, 0.0, 0.0, 1.6214289918853898E9, 2021-05-19 14:56:31.885
59.0, -88.35887908935547, -128.94613647460938, 5.402285575866699, 141.001708984375, -0.08000000566244125, 0.0, 1.040000081062317, 0.0, 0.0, 0.0, 0.0, 0.0, 1.62142899190175E9, 2021-05-19 14:56:31.901
59.0, -81.36526489257812, -127.98872375488281, 9.658291816711426, 136.94766235351562, -0.08000000566244125, 0.0, 1.040000081062317, 0.0, 0.0, 0.0, 0.0, 0.0, 1.62142899190175E9, 2021-05-19 14:56:31.901
60.0, -94.8139419555664, -125.70738983154297, -3.824047803878784, 131.0386199951172, -0.08000000566244125, 0.0, 1.055999994277954, 0.0, 0.0, 0.0, 0.0, 0.0, 1.6214289919025056E9, 2021-05-19 14:56:31.902
60.0, -90.54671478271484, -114.04264068603516, 5.723917007446289, 137.74050903320312, -0.08000000566244125, 0.0, 1.055999994277954, 0.0, 0.0, 0.0, 0.0, 0.0, 1.6214289919025056E9, 2021-05-19 14:56:31.902
61.0, -89.64166259765625, -125.76348876953125, 5.952050685882568, 134.79347229003906, -0.08000000566244125, 0.0, 1.055999994277954, 0.0, 0.0, 0.0, 0.0, 0.0, 1.6214289919153073E9, 2021-05-19 14:56:31.915
61.0, -87.44634246826172, -125.6138916015625, 5.776275634765625, 132.6879119873047, -0.08000000566244125, 0.0, 1.055999994277954, 0.0, 0.0, 0.0, 0.0, 0.0, 1.6214289919153073E9, 2021-05-19 14:56:31.915
62.0, -89.60800170898438, -120.13119506835938, 7.02166223526001, 131.93992614746094, -0.08000000566244125, 0.0, 1.055999994277954, 0.0, 0.0, 0.0, 0.0, 0.0, 1.6214289919311152E9, 2021-05-19 14:56:31.931
62.0, -93.34416198730469, -110.16436004638672, 14.213489532470703, 141.6449737548828, -0.08000000566244125, 0.0, 1.055999994277954, 0.0, 0.0, 0.0, 0.0, 0.0, 1.6214289919311152E9, 2021-05-19 14:56:31.931
63.0, -88.75530242919922, -114.15483856201172, 16.2853946685791, 137.78164672851562, -0.08000000566244125, 0.0, 1.055999994277954, 0.0, 0.0, 0.0, 0.0, 0.0, 1.6214289919318612E9, 2021-05-19 14:56:31.931
63.0, -82.95471954345703, -120.84925842285156, 15.60847282409668, 139.4720916748047, -0.08000000566244125, 0.0, 1.055999994277954, 0.0, 0.0, 0.0, 0.0, 0.0, 1.6214289919318612E9, 2021-05-19 14:56:31.931
64.0, -93.03375244140625, -112.8720474243164, 11.210350036621094, 138.5520782470703, -0.08000000566244125, 0.0, 1.055999994277954, 0.0, 0.0, 0.0, 0.0, 0.0, 1.621428991945276E9, 2021-05-19 14:56:31.945
64.0, -87.24812316894531, -110.90486145019531, 16.906217575073242, 139.7712860107422, -0.08000000566244125, 0.0, 1.055999994277954, 0.0, 0.0, 0.0, 0.0, 0.0, 1.621428991945276E9, 2021-05-19 14:56:31.945
65.0, -82.89862060546875, -123.56068420410156, 9.770488739013672, 141.57391357421875, -0.08000000566244125, 0.0, 1.055999994277954, 0.0, 0.0, 0.0, 0.0, 0.0, 1.6214289919610417E9, 2021-05-19 14:56:31.961
65.0, -84.34970092773438, -129.87738037109375, 10.11829948425293, 139.9956817626953, -0.08000000566244125, 0.0, 1.055999994277954, 0.0, 0.0, 0.0, 0.0, 0.0, 1.6214289919610417E9, 2021-05-19 14:56:31.961
66.0, -98.06765747070312, -126.08885955810547, 0.817168116569519, 136.5437469482422, -0.08000000566244125, 0.0, 1.055999994277954, 0.0, 0.0, 0.0, 0.0, 0.0, 1.6214289919617877E9, 2021-05-19 14:56:31.961
66.0, -95.05703735351562, -115.66201782226562, 7.87809944152832, 138.80638122558594, -0.08000000566244125, 0.0, 1.055999994277954, 0.0, 0.0, 0.0, 0.0, 0.0, 1.6214289919617877E9, 2021-05-19 14:56:31.961
67.0, -86.30941009521484, -116.45487213134766, 15.185863494873047, 142.2657928466797, -0.08000000566244125, 0.0, 1.055999994277954, 0.0, 0.0, 0.0, 0.0, 0.0, 1.6214289919753563E9, 2021-05-19 14:56:31.975
67.0, -88.2429428100586, -125.70738983154297, 6.464416980743408, 138.00604248046875, -0.08000000566244125, 0.0, 1.055999994277954, 0.0, 0.0, 0.0, 0.0, 0.0, 1.6214289919753563E9, 2021-05-19 14:56:31.975
68.0, -101.93097686767578, -116.87374114990234, 5.993189811706543, 137.9873504638672, -0.08000000566244125, 0.0, 1.055999994277954, 0.0, 0.0, 0.0, 0.0, 0.0, 1.6214289919910254E9, 2021-05-19 14:56:31.991
68.0, -95.69656372070312, -120.59120178222656, 12.220123291015625, 144.72291564941406, -0.08000000566244125, 0.0, 1.055999994277954, 0.0, 0.0, 0.0, 0.0, 0.0, 1.6214289919910254E9, 2021-05-19 14:56:31.991
69.0, -82.33390045166016, -124.66021728515625, 19.69244384765625, 147.59515380859375, -0.08000000566244125, 0.0, 1.055999994277954, 0.0, 0.0, 0.0, 0.0, 0.0, 1.621428991991835E9, 2021-05-19 14:56:31.991
69.0, -85.91297912597656, -120.24339294433594, 15.829126358032227, 138.66053771972656, -0.08000000566244125, 0.0, 1.055999994277954, 0.0, 0.0, 0.0, 0.0, 0.0, 1.621428991991835E9, 2021-05-19 14:56:31.991
70.0, -90.6776123046875, -112.68131256103516, 13.843239784240723, 137.609619140625, -0.08000000566244125, 0.0, 1.055999994277954, 0.0, 0.0, 0.0, 0.0, 0.0, 1.6214289920053213E9, 2021-05-19 14:56:32.005
70.0, -88.36261749267578, -107.37065887451172, 16.898738861083984, 140.18641662597656, -0.08000000566244125, 0.0, 1.055999994277954, 0.0, 0.0, 0.0, 0.0, 0.0, 1.6214289920053213E9, 2021-05-19 14:56:32.005
71.0, -82.25161743164062, -121.83284759521484, 19.01926040649414, 142.58367919921875, -0.08000000566244125, 0.0, 1.055999994277954, 0.0, 0.0, 0.0, 0.0, 0.0, 1.621428992021097E9, 2021-05-19 14:56:32.021
71.0, -76.5033950805664, -118.14530944824219, 24.85724449157715, 139.87974548339844, -0.08000000566244125, 0.0, 1.055999994277954, 0.0, 0.0, 0.0, 0.0, 0.0, 1.621428992021097E9, 2021-05-19 14:56:32.021
72.0, -96.80731201171875, -119.22614288330078, 16.20685577392578, 130.59356689453125, -0.08000000566244125, 0.0, 1.055999994277954, 0.0, 0.0, 0.0, 0.0, 0.0, 1.6214289920218518E9, 2021-05-19 14:56:32.021
72.0, -85.34452056884766, -112.52423858642578, 21.566133499145508, 140.71746826171875, -0.08000000566244125, 0.0, 1.055999994277954, 0.0, 0.0, 0.0, 0.0, 0.0, 1.6214289920218518E9, 2021-05-19 14:56:32.021
73.0, -83.7513198852539, -117.56936645507812, 21.865325927734375, 135.73219299316406, -0.08000000566244125, 0.0, 1.055999994277954, 0.0, 0.0, 0.0, 0.0, 0.0, 1.6214289920354316E9, 2021-05-19 14:56:32.035
73.0, -88.23919677734375, -114.94769287109375, 20.350666046142578, 132.4822235107422, -0.08000000566244125, 0.0, 1.055999994277954, 0.0, 0.0, 0.0, 0.0, 0.0, 1.6214289920354316E9, 2021-05-19 14:56:32.035
74.0, -89.36865234375, -119.32337951660156, 18.387218475341797, 141.61505126953125, -0.08000000566244125, 0.0, 1.055999994277954, 0.0, 0.0, 0.0, 0.0, 0.0, 1.6214289920510347E9, 2021-05-19 14:56:32.051
74.0, -87.925048828125, -117.15049743652344, 16.042301177978516, 141.43927001953125, -0.08000000566244125, 0.0, 1.055999994277954, 0.0, 0.0, 0.0, 0.0, 0.0, 1.6214289920510347E9, 2021-05-19 14:56:32.051
75.0, -83.62789916992188, -121.70569610595703, 12.033127784729004, 140.2013702392578, -0.08000000566244125, 0.0, 1.055999994277954, 0.0, 0.0, 0.0, 0.0, 0.0, 1.6214289920519168E9, 2021-05-19 14:56:32.051
75.0, -85.55020904541016, -131.7996826171875, 11.595560073852539, 134.733642578125, -0.08000000566244125, 0.0, 1.055999994277954, 0.0, 0.0, 0.0, 0.0, 0.0, 1.6214289920519168E9, 2021-05-19 14:56:32.051
76.0, -95.1131362915039, -132.6000213623047, 5.7388763427734375, 128.85076904296875, -0.08000000566244125, 0.0, 1.055999994277954, 0.0, 0.0, 0.0, 0.0, 0.0, 1.6214289920653424E9, 2021-05-19 14:56:32.065
76.0, -93.95376586914062, -118.81848907470703, 13.772181510925293, 143.40646362304688, -0.08000000566244125, 0.0, 1.055999994277954, 0.0, 0.0, 0.0, 0.0, 0.0, 1.6214289920653424E9, 2021-05-19 14:56:32.065
77.0, -87.40894317626953, -129.2528076171875, 8.738276481628418, 138.98590087890625, -0.08000000566244125, 0.0, 1.055999994277954, 0.0, 0.0, 0.0, 0.0, 0.0, 1.6214289920810013E9, 2021-05-19 14:56:32.081
77.0, -81.27176666259766, -131.4630889892578, 9.86772632598877, 140.4033203125, -0.08000000566244125, 0.0, 1.055999994277954, 0.0, 0.0, 0.0, 0.0, 0.0, 1.6214289920810013E9, 2021-05-19 14:56:32.081
78.0, -89.12555694580078, -129.9708709716797, 7.982816219329834, 136.52505493164062, -0.08000000566244125, 0.0, 1.055999994277954, 0.0, 0.0, 0.0, 0.0, 0.0, 1.6214289920817723E9, 2021-05-19 14:56:32.081
78.0, -84.12156677246094, -115.7966537475586, 10.641885757446289, 142.72206115722656, -0.08000000566244125, 0.0, 1.055999994277954, 0.0, 0.0, 0.0, 0.0, 0.0, 1.6214289920817723E9, 2021-05-19 14:56:32.081
79.0, -84.79849243164062, -122.74164581298828, 18.61161231994629, 137.7068634033203, -0.08000000566244125, 0.0, 1.055999994277954, 0.0, 0.0, 0.0, 0.0, 0.0, 1.6214289920954354E9, 2021-05-19 14:56:32.095
79.0, -82.70040893554688, -132.25595092773438, 14.628618240356445, 129.04898071289062, -0.08000000566244125, 0.0, 1.055999994277954, 0.0, 0.0, 0.0, 0.0, 0.0, 1.6214289920954354E9, 2021-05-19 14:56:32.095
80.0, -96.75495147705078, -108.43279266357422, 8.076313972473145, 127.02570343017578, -0.08000000566244125, 0.0, 1.055999994277954, 0.0, 0.0, 0.0, 0.0, 0.0, 1.6214289921111107E9, 2021-05-19 14:56:32.111
80.0, -83.55684661865234, -109.15084838867188, 12.193943977355957, 132.9908447265625, -0.08000000566244125, 0.0, 1.055999994277954, 0.0, 0.0, 0.0, 0.0, 0.0, 1.6214289921111107E9, 2021-05-19 14:56:32.111
81.0, -87.9886245727539, -118.4482421875, 19.714881896972656, 134.20631408691406, -0.08000000566244125, 0.0, 1.055999994277954, 0.0, 0.0, 0.0, 0.0, 0.0, 1.6214289921118195E9, 2021-05-19 14:56:32.111
81.0, -79.50653076171875, -126.94529724121094, 19.98041534423828, 139.2963104248047, -0.08000000566244125, 0.0, 1.055999994277954, 0.0, 0.0, 0.0, 0.0, 0.0, 1.6214289921118195E9, 2021-05-19 14:56:32.111
82.0, -91.38445281982422, -114.46150970458984, 14.942770004272461, 136.47642517089844, -0.08000000566244125, 0.0, 1.055999994277954, 0.0, 0.0, 0.0, 0.0, 0.0, 1.6214289921254375E9, 2021-05-19 14:56:32.125
82.0, -91.97161865234375, -117.53944396972656, 11.689057350158691, 142.87539672851562, -0.08000000566244125, 0.0, 1.055999994277954, 0.0, 0.0, 0.0, 0.0, 0.0, 1.6214289921254375E9, 2021-05-19 14:56:32.125
83.0, -79.41677856445312, -117.93961334228516, 14.475282669067383, 145.63543701171875, -0.08000000566244125, 0.0, 1.055999994277954, 0.0, 0.0, 0.0, 0.0, 0.0, 1.6214289921408615E9, 2021-05-19 14:56:32.140
83.0, -86.67218017578125, -138.19491577148438, 6.774828910827637, 138.10702514648438, -0.08000000566244125, 0.0, 1.055999994277954, 0.0, 0.0, 0.0, 0.0, 0.0, 1.6214289921408615E9, 2021-05-19 14:56:32.140
84.0, -90.39337921142578, -130.00079345703125, 6.703770637512207, 141.49911499023438, -0.08000000566244125, 0.0, 1.055999994277954, 0.0, 0.0, 0.0, 0.0, 0.0, 1.6214289921558936E9, 2021-05-19 14:56:32.155
84.0, -86.67591857910156, -118.0031967163086, 10.47732925415039, 149.88397216796875, -0.08000000566244125, 0.0, 1.055999994277954, 0.0, 0.0, 0.0, 0.0, 0.0, 1.6214289921558936E9, 2021-05-19 14:56:32.155
85.0, -93.04122924804688, -134.32037353515625, 6.606533050537109, 131.03488159179688, -0.08000000566244125, 0.0, 1.055999994277954, 0.0, 0.0, 0.0, 0.0, 0.0, 1.621428992171696E9, 2021-05-19 14:56:32.171
85.0, -86.70210266113281, -135.59194946289062, 4.87869930267334, 130.5262451171875, -0.08000000566244125, 0.0, 1.055999994277954, 0.0, 0.0, 0.0, 0.0, 0.0, 1.621428992171696E9, 2021-05-19 14:56:32.171
86.0, -100.58460998535156, -125.98040008544922, 6.658891677856445, 124.47882843017578, -0.08000000566244125, 0.0, 1.055999994277954, 0.0, 0.0, 0.0, 0.0, 0.0, 1.6214289921724935E9, 2021-05-19 14:56:32.172
86.0, -91.6163330078125, -113.72848510742188, 19.561546325683594, 129.78948974609375, -0.08000000566244125, 0.0, 1.055999994277954, 0.0, 0.0, 0.0, 0.0, 0.0, 1.6214289921724935E9, 2021-05-19 14:56:32.172
87.0, -87.5248794555664, -123.07823944091797, 16.917436599731445, 132.08204650878906, -0.08000000566244125, 0.0, 1.055999994277954, 0.0, 0.0, 0.0, 0.0, 0.0, 1.6214289921732335E9, 2021-05-19 14:56:32.173
87.0, -85.30337524414062, -126.02902221679688, 12.713789939880371, 127.27253723144531, -0.08000000566244125, 0.0, 1.055999994277954, 0.0, 0.0, 0.0, 0.0, 0.0, 1.6214289921732335E9, 2021-05-19 14:56:32.173
88.0, -98.41920471191406, -119.551513671875, 4.964717388153076, 126.08699035644531, -0.08000000566244125, 0.0, 1.055999994277954, 0.0, 0.0, 0.0, 0.0, 0.0, 1.6214289922008967E9, 2021-05-19 14:56:32.200
88.0, -89.65662384033203, -113.95661926269531, 10.76156234741211, 133.18157958984375, -0.08000000566244125, 0.0, 1.055999994277954, 0.0, 0.0, 0.0, 0.0, 0.0, 1.6214289922008967E9, 2021-05-19 14:56:32.200
89.0, -86.23087310791016, -125.45681762695312, 14.254629135131836, 128.2748260498047, -0.08000000566244125, 0.0, 1.055999994277954, 0.0, 0.0, 0.0, 0.0, 0.0, 1.6214289922329257E9, 2021-05-19 14:56:32.232
89.0, -85.553955078125, -120.74828338623047, 19.19129753112793, 137.6881561279297, -0.08000000566244125, 0.0, 1.055999994277954, 0.0, 0.0, 0.0, 0.0, 0.0, 1.6214289922329257E9, 2021-05-19 14:56:32.232
90.0, -89.56686401367188, -122.61074829101562, 16.423770904541016, 137.40017700195312, -0.08000000566244125, 0.0, 1.055999994277954, 0.0, 0.0, 0.0, 0.0, 0.0, 1.6214289922336135E9, 2021-05-19 14:56:32.233
90.0, -84.92938995361328, -115.5011978149414, 20.212289810180664, 143.09605407714844, -0.08000000566244125, 0.0, 1.055999994277954, 0.0, 0.0, 0.0, 0.0, 0.0, 1.6214289922336135E9, 2021-05-19 14:56:32.233
91.0, -88.60945129394531, -124.69761657714844, 23.510881423950195, 146.92196655273438, -0.08000000566244125, 0.0, 1.055999994277954, 0.0, 0.0, 0.0, 0.0, 0.0, 1.6214289922343829E9, 2021-05-19 14:56:32.234
91.0, -81.77291107177734, -123.62425994873047, 21.611011505126953, 141.83570861816406, -0.08000000566244125, 0.0, 1.055999994277954, 0.0, 0.0, 0.0, 0.0, 0.0, 1.6214289922343829E9, 2021-05-19 14:56:32.234
92.0, -89.61922454833984, -119.74598693847656, 10.30903434753418, 138.09207153320312, -0.08000000566244125, 0.0, 1.055999994277954, 0.0, 0.0, 0.0, 0.0, 0.0, 1.6214289922350302E9, 2021-05-19 14:56:32.235
92.0, -93.84156799316406, -127.27814483642578, 11.0831937789917, 143.17832946777344, -0.08000000566244125, 0.0, 1.055999994277954, 0.0, 0.0, 0.0, 0.0, 0.0, 1.6214289922350302E9, 2021-05-19 14:56:32.235
93.0, -83.41847229003906, -126.76203918457031, 14.26210880279541, 145.3362579345703, -0.08000000566244125, 0.0, 1.055999994277954, 0.0, 0.0, 0.0, 0.0, 0.0, 1.621428992246065E9, 2021-05-19 14:56:32.246
93.0, -87.65203857421875, -128.41506958007812, 11.591819763183594, 141.81700134277344, -0.08000000566244125, 0.0, 1.055999994277954, 0.0, 0.0, 0.0, 0.0, 0.0, 1.621428992246065E9, 2021-05-19 14:56:32.246
94.0, -88.31399536132812, -123.92719268798828, 6.804748058319092, 135.90048217773438, -0.08000000566244125, 0.0, 1.055999994277954, 0.0, 0.0, 0.0, 0.0, 0.0, 1.6214289922467544E9, 2021-05-19 14:56:32.246
94.0, -81.64949798583984, -119.96664428710938, 13.061600685119629, 143.548583984375, -0.08000000566244125, 0.0, 1.055999994277954, 0.0, 0.0, 0.0, 0.0, 0.0, 1.6214289922467544E9, 2021-05-19 14:56:32.246
95.0, -88.11952209472656, -124.12166595458984, 12.104186058044434, 141.56643676757812, -0.08000000566244125, 0.0, 1.055999994277954, 0.0, 0.0, 0.0, 0.0, 0.0, 1.6214289922609327E9, 2021-05-19 14:56:32.260
95.0, -88.19058227539062, -130.9993438720703, 4.123239517211914, 135.0664825439453, -0.08000000566244125, 0.0, 1.055999994277954, 0.0, 0.0, 0.0, 0.0, 0.0, 1.6214289922609327E9, 2021-05-19 14:56:32.260
96.0, -91.34331512451172, -117.07569885253906, 3.8315274715423584, 136.91400146484375, -0.08000000566244125, 0.0, 1.055999994277954, 0.0, 0.0, 0.0, 0.0, 0.0, 1.6214289922758195E9, 2021-05-19 14:56:32.275
96.0, -87.24064636230469, -112.7037582397461, 13.244855880737305, 141.17373657226562, -0.08000000566244125, 0.0, 1.055999994277954, 0.0, 0.0, 0.0, 0.0, 0.0, 1.6214289922758195E9, 2021-05-19 14:56:32.275
97.0, -78.42195892333984, -127.6670913696289, 16.73044204711914, 132.07830810546875, -0.08000000566244125, 0.0, 1.055999994277954, 0.0, 0.0, 0.0, 0.0, 0.0, 1.6214289922917087E9, 2021-05-19 14:56:32.291
97.0, -92.35682678222656, -127.2818832397461, 14.030234336853027, 125.06973266601562, -0.08000000566244125, 0.0, 1.055999994277954, 0.0, 0.0, 0.0, 0.0, 0.0, 1.6214289922917087E9, 2021-05-19 14:56:32.291
98.0, -100.26671600341797, -112.3858642578125, 8.64103889465332, 118.44263458251953, -0.08000000566244125, 0.0, 1.055999994277954, 0.0, 0.0, 0.0, 0.0, 0.0, 1.621428992292452E9, 2021-05-19 14:56:32.292
98.0, -100.47615051269531, -106.99292755126953, 16.715482711791992, 116.12763214111328, -0.08000000566244125, 0.0, 1.055999994277954, 0.0, 0.0, 0.0, 0.0, 0.0, 1.621428992292452E9, 2021-05-19 14:56:32.292
99.0, -90.71501159667969, -126.60496520996094, 17.2540283203125, 117.0326919555664, -0.08000000566244125, 0.0, 1.055999994277954, 0.0, 0.0, 0.0, 0.0, 0.0, 1.6214289922932017E9, 2021-05-19 14:56:32.293
99.0, -88.14944458007812, -129.1331329345703, 11.950850486755371, 117.70213317871094, -0.08000000566244125, 0.0, 1.055999994277954, 0.0, 0.0, 0.0, 0.0, 0.0, 1.6214289922932017E9, 2021-05-19 14:56:32.293
100.0, -88.50473022460938, -117.56188201904297, 8.790635108947754, 126.65544891357422, -0.08000000566244125, 0.0, 1.055999994277954, 0.0, 0.0, 0.0, 0.0, 0.0, 1.6214289923060665E9, 2021-05-19 14:56:32.306
100.0, -92.67098236083984, -111.83609771728516, 7.900538444519043, 135.578857421875, -0.08000000566244125, 0.0, 1.055999994277954, 0.0, 0.0, 0.0, 0.0, 0.0, 1.6214289923060665E9, 2021-05-19 14:56:32.306
0.0, -84.56288146972656, -126.55821228027344, 7.227356433868408, 144.9304656982422, -0.08000000566244125, 0.0, 1.055999994277954, 0.0, 0.0, 0.0, 0.0, 0.0, 1.6214289923069167E9, 2021-05-19 14:56:32.306
1.0, -95.75640106201172, -134.37086486816406, -0.4730973541736603, 139.87413024902344, -0.08000000566244125, 0.0, 1.055999994277954, 0.0, 0.0, 0.0, 0.0, 0.0, 1.621428992320378E9, 2021-05-19 14:56:32.320
1.0, -92.82805633544922, -115.76486206054688, -1.7858022451400757, 135.1468963623047, -0.08000000566244125, 0.0, 1.055999994277954, 0.0, 0.0, 0.0, 0.0, 0.0, 1.621428992320378E9, 2021-05-19 14:56:32.320
2.0, -90.3559799194336, -107.2154541015625, 4.302754878997803, 144.97161865234375, -0.08000000566244125, 0.0, 1.055999994277954, 0.0, 0.0, 0.0, 0.0, 0.0, 1.6214289923361378E9, 2021-05-19 14:56:32.336
2.0, -90.03435516357422, -128.06539916992188, 4.68796443939209, 138.4866180419922, -0.08000000566244125, 0.0, 1.055999994277954, 0.0, 0.0, 0.0, 0.0, 0.0, 1.6214289923361378E9, 2021-05-19 14:56:32.336
3.0, -81.43257904052734, -129.9390869140625, 4.8936591148376465, 135.29649353027344, -0.08000000566244125, 0.0, 1.055999994277954, 0.0, 0.0, 0.0, 0.0, 0.0, 1.621428992336861E9, 2021-05-19 14:56:32.336
3.0, -85.6998062133789, -118.8989028930664, 3.9661638736724854, 145.667236328125, -0.08000000566244125, 0.0, 1.055999994277954, 0.0, 0.0, 0.0, 0.0, 0.0, 1.621428992336861E9, 2021-05-19 14:56:32.336
4.0, -93.76676940917969, -122.70237731933594, 4.796421527862549, 139.61981201171875, -0.08000000566244125, 0.0, 1.055999994277954, 0.0, 0.0, 0.0, 0.0, 0.0, 1.62142899235037E9, 2021-05-19 14:56:32.350
4.0, -82.37503814697266, -118.45758819580078, 8.697136878967285, 137.00189208984375, -0.08000000566244125, 0.0, 1.055999994277954, 0.0, 0.0, 0.0, 0.0, 0.0, 1.62142899235037E9, 2021-05-19 14:56:32.350
5.0, -83.30252838134766, -120.11810302734375, 15.66831111907959, 133.98377990722656, -0.08000000566244125, 0.0, 1.055999994277954, 0.0, 0.0, 0.0, 0.0, 0.0, 1.621428992366083E9, 2021-05-19 14:56:32.366
5.0, -86.04387664794922, -113.01603698730469, 15.59725284576416, 134.15582275390625, -0.08000000566244125, 0.0, 1.055999994277954, 0.0, 0.0, 0.0, 0.0, 0.0, 1.621428992366083E9, 2021-05-19 14:56:32.366
6.0, -84.07295227050781, -110.67859649658203, 21.416536331176758, 139.6908721923828, -0.08000000566244125, 0.0, 1.055999994277954, 0.0, 0.0, 0.0, 0.0, 0.0, 1.6214289923668754E9, 2021-05-19 14:56:32.366
6.0, -86.06257629394531, -121.74870300292969, 20.803194046020508, 131.7622833251953, -0.08000000566244125, 0.0, 1.055999994277954, 0.0, 0.0, 0.0, 0.0, 0.0, 1.6214289923668754E9, 2021-05-19 14:56:32.366
7.0, -81.39517974853516, -116.36325073242188, 23.424863815307617, 134.6046142578125, -0.08000000566244125, 0.0, 1.055999994277954, 0.0, 0.0, 0.0, 0.0, 0.0, 1.6214289923803773E9, 2021-05-19 14:56:32.380
7.0, -90.636474609375, -97.76846313476562, 14.688457489013672, 132.4242401123047, -0.08000000566244125, 0.0, 1.055999994277954, 0.0, 0.0, 0.0, 0.0, 0.0, 1.6214289923803773E9, 2021-05-19 14:56:32.380
8.0, -85.66614532470703, -101.19795227050781, 22.430049896240234, 143.2475128173828, -0.08000000566244125, 0.0, 1.055999994277954, 0.0, 0.0, 0.0, 0.0, 0.0, 1.6214289923960912E9, 2021-05-19 14:56:32.396
8.0, -88.84132385253906, -116.7708969116211, 20.915390014648438, 140.9100799560547, -0.08000000566244125, 0.0, 1.055999994277954, 0.0, 0.0, 0.0, 0.0, 0.0, 1.6214289923960912E9, 2021-05-19 14:56:32.396
9.0, -89.8959732055664, -116.97659301757812, 15.223262786865234, 137.58905029296875, -0.08000000566244125, 0.0, 1.055999994277954, 0.0, 0.0, 0.0, 0.0, 0.0, 1.6214289923968017E9, 2021-05-19 14:56:32.396
9.0, -104.3506851196289, -108.3823013305664, 5.99692964553833, 134.0436248779297, -0.08000000566244125, 0.0, 1.055999994277954, 0.0, 0.0, 0.0, 0.0, 0.0, 1.6214289923968017E9, 2021-05-19 14:56:32.396
10.0, -99.15222930908203, -115.29363250732422, 12.100446701049805, 140.26681518554688, -0.08000000566244125, 0.0, 1.055999994277954, 0.0, 0.0, 0.0, 0.0, 0.0, 1.621428992410402E9, 2021-05-19 14:56:32.410
10.0, -95.76013946533203, -124.70696258544922, 16.68930435180664, 139.84046936035156, -0.08000000566244125, 0.0, 1.055999994277954, 0.0, 0.0, 0.0, 0.0, 0.0, 1.621428992410402E9, 2021-05-19 14:56:32.410
11.0, -96.20144653320312, -121.77862548828125, 9.138445854187012, 135.5283660888672, -0.08000000566244125, 0.0, 1.055999994277954, 0.0, 0.0, 0.0, 0.0, 0.0, 1.6214289924261887E9, 2021-05-19 14:56:32.426
11.0, -96.7175521850586, -112.26057434082031, 8.869173049926758, 139.39541625976562, -0.08000000566244125, 0.0, 1.055999994277954, 0.0, 0.0, 0.0, 0.0, 0.0, 1.6214289924261887E9, 2021-05-19 14:56:32.426
12.0, -101.10445404052734, -110.05777740478516, 11.157991409301758, 140.18453979492188, -0.08000000566244125, 0.0, 1.055999994277954, 0.0, 0.0, 0.0, 0.0, 0.0, 1.621428992426812E9, 2021-05-19 14:56:32.426
12.0, -87.83528900146484, -122.50790405273438, 18.08802604675293, 141.8899383544922, -0.08000000566244125, 0.0, 1.055999994277954, 0.0, 0.0, 0.0, 0.0, 0.0, 1.621428992426812E9, 2021-05-19 14:56:32.426
13.0, -95.9134750366211, -126.27397918701172, 10.649365425109863, 129.5557403564453, -0.08000000566244125, 0.0, 1.055999994277954, 0.0, 0.0, 0.0, 0.0, 0.0, 1.6214289924404464E9, 2021-05-19 14:56:32.440
13.0, -98.73336029052734, -122.35456848144531, 6.408318519592285, 137.3197784423828, -0.08000000566244125, 0.0, 1.055999994277954, 0.0, 0.0, 0.0, 0.0, 0.0, 1.6214289924404464E9, 2021-05-19 14:56:32.440
14.0, -95.1954116821289, -114.55687713623047, 12.766148567199707, 139.892822265625, -0.08000000566244125, 0.0, 1.055999994277954, 0.0, 0.0, 0.0, 0.0, 0.0, 1.621428992456094E9, 2021-05-19 14:56:32.456
14.0, -84.28986358642578, -120.78380584716797, 16.75288200378418, 141.5907440185547, -0.08000000566244125, 0.0, 1.055999994277954, 0.0, 0.0, 0.0, 0.0, 0.0, 1.621428992456094E9, 2021-05-19 14:56:32.456
15.0, -86.34680938720703, -125.41754150390625, 11.12059211730957, 132.74588012695312, -0.08000000566244125, 0.0, 1.055999994277954, 0.0, 0.0, 0.0, 0.0, 0.0, 1.621428992456852E9, 2021-05-19 14:56:32.456
15.0, -88.04098510742188, -127.27253723144531, 15.79920768737793, 140.6595001220703, -0.08000000566244125, 0.0, 1.055999994277954, 0.0, 0.0, 0.0, 0.0, 0.0, 1.621428992456852E9, 2021-05-19 14:56:32.456
16.0, -89.3499526977539, -121.49439239501953, 14.6921968460083, 142.66409301757812, -0.08000000566244125, 0.0, 1.055999994277954, 0.0, 0.0, 0.0, 0.0, 0.0, 1.6214289924704525E9, 2021-05-19 14:56:32.470
16.0, -97.09528350830078, -128.51417541503906, 12.97558307647705, 130.96194458007812, -0.08000000566244125, 0.0, 1.055999994277954, 0.0, 0.0, 0.0, 0.0, 0.0, 1.6214289924704525E9, 2021-05-19 14:56:32.470
17.0, -85.68484497070312, -128.22621154785156, 8.540061950683594, 127.99246978759766, -0.08000000566244125, 0.0, 1.055999994277954, 0.0, 0.0, 0.0, 0.0, 0.0, 1.6214289925030775E9, 2021-05-19 14:56:32.503
17.0, -95.71526336669922, -130.12608337402344, -6.329780578613281, 122.2853775024414, -0.08000000566244125, 0.0, 1.055999994277954, 0.0, 0.0, 0.0, 0.0, 0.0, 1.6214289925030775E9, 2021-05-19 14:56:32.503
18.0, -96.16030883789062, -131.21438598632812, -2.0176761150360107, 122.21057891845703, -0.08000000566244125, 0.0, 1.055999994277954, 0.0, 0.0, 0.0, 0.0, 0.0, 1.6214289925037837E9, 2021-05-19 14:56:32.503
18.0, -87.50244140625, -141.03163146972656, 3.4238784313201904, 119.96289825439453, -0.08000000566244125, 0.0, 1.055999994277954, 0.0, 0.0, 0.0, 0.0, 0.0, 1.6214289925037837E9, 2021-05-19 14:56:32.503
19.0, -88.48977661132812, -131.69683837890625, 9.691950798034668, 115.62088012695312, -0.08000000566244125, 0.0, 1.055999994277954, 0.0, 0.0, 0.0, 0.0, 0.0, 1.6214289925045173E9, 2021-05-19 14:56:32.504
19.0, -90.6551742553711, -119.90867614746094, 12.09670639038086, 130.84600830078125, -0.08000000566244125, 0.0, 1.055999994277954, 0.0, 0.0, 0.0, 0.0, 0.0, 1.6214289925045173E9, 2021-05-19 14:56:32.504
20.0, -78.934326171875, -103.63636779785156, 26.846872329711914, 147.2791290283203, -0.08000000566244125, 0.0, 1.055999994277954, 0.0, 0.0, 0.0, 0.0, 0.0, 1.6214289925052707E9, 2021-05-19 14:56:32.505
20.0, -75.29914855957031, -101.05583953857422, 27.333059310913086, 147.43246459960938, -0.08000000566244125, 0.0, 1.055999994277954, 0.0, 0.0, 0.0, 0.0, 0.0, 1.6214289925052707E9, 2021-05-19 14:56:32.505
21.0, -85.7783432006836, -115.46941375732422, 13.36827278137207, 139.79185485839844, -0.08000000566244125, 0.0, 1.055999994277954, 0.0, 0.0, 0.0, 0.0, 0.0, 1.621428992515298E9, 2021-05-19 14:56:32.515
21.0, -95.55070495605469, -118.92881774902344, 7.754682540893555, 139.35801696777344, -0.08000000566244125, 0.0, 1.055999994277954, 0.0, 0.0, 0.0, 0.0, 0.0, 1.621428992515298E9, 2021-05-19 14:56:32.515
22.0, -91.8818588256836, -107.23040771484375, 12.496875762939453, 143.27743530273438, -0.08000000566244125, 0.0, 1.055999994277954, 0.0, 0.0, 0.0, 0.0, 0.0, 1.6214289925303411E9, 2021-05-19 14:56:32.530
22.0, -94.63442993164062, -126.70033264160156, 8.289487838745117, 139.552490234375, -0.08000000566244125, 0.0, 1.055999994277954, 0.0, 0.0, 0.0, 0.0, 0.0, 1.6214289925303411E9, 2021-05-19 14:56:32.530
23.0, -95.5133056640625, -130.4439697265625, 1.6623855829238892, 128.89004516601562, -0.08000000566244125, 0.0, 1.055999994277954, 0.0, 0.0, 0.0, 0.0, 0.0, 1.621428992546747E9, 2021-05-19 14:56:32.546
23.0, -89.49580383300781, -111.90528869628906, 9.21324348449707, 136.66903686523438, -0.08000000566244125, 0.0, 1.055999994277954, 0.0, 0.0, 0.0, 0.0, 0.0, 1.621428992546747E9, 2021-05-19 14:56:32.546
24.0, -96.28746795654297, -119.5458984375, 6.516775608062744, 134.65696716308594, -0.08000000566244125, 0.0, 1.055999994277954, 0.0, 0.0, 0.0, 0.0, 0.0, 1.6214289925474596E9, 2021-05-19 14:56:32.547
24.0, -90.6589126586914, -133.81736755371094, 4.7852020263671875, 134.27549743652344, -0.08000000566244125, 0.0, 1.055999994277954, 0.0, 0.0, 0.0, 0.0, 0.0, 1.6214289925474596E9, 2021-05-19 14:56:32.547
25.0, -83.44464874267578, -118.92507934570312, 5.566841125488281, 135.2890167236328, -0.08000000566244125, 0.0, 1.055999994277954, 0.0, 0.0, 0.0, 0.0, 0.0, 1.6214289925603187E9, 2021-05-19 14:56:32.560
25.0, -94.88500213623047, -118.14717864990234, 4.029742240905762, 134.87762451171875, -0.08000000566244125, 0.0, 1.055999994277954, 0.0, 0.0, 0.0, 0.0, 0.0, 1.6214289925603187E9, 2021-05-19 14:56:32.560
26.0, -84.73865509033203, -121.49064636230469, 9.385278701782227, 142.85108947753906, -0.08000000566244125, 0.0, 1.055999994277954, 0.0, 0.0, 0.0, 0.0, 0.0, 1.6214289925760443E9, 2021-05-19 14:56:32.576
26.0, -85.2771987915039, -124.18711853027344, 6.804748058319092, 142.1891326904297, -0.08000000566244125, 0.0, 1.055999994277954, 0.0, 0.0, 0.0, 0.0, 0.0, 1.6214289925760443E9, 2021-05-19 14:56:32.576
27.0, -86.42534637451172, -126.36747741699219, 6.726210117340088, 138.4567108154297, -0.08000000566244125, 0.0, 1.055999994277954, 0.0, 0.0, 0.0, 0.0, 0.0, 1.621428992576759E9, 2021-05-19 14:56:32.576
27.0, -104.09637451171875, -122.34334564208984, 1.0752211809158325, 134.0885009765625, -0.08000000566244125, 0.0, 1.055999994277954, 0.0, 0.0, 0.0, 0.0, 0.0, 1.621428992576759E9, 2021-05-19 14:56:32.576
28.0, -104.18987274169922, -118.2145004272461, 1.782062292098999, 137.39083862304688, -0.08000000566244125, 0.0, 1.055999994277954, 0.0, 0.0, 0.0, 0.0, 0.0, 1.6214289925903113E9, 2021-05-19 14:56:32.590
28.0, -107.5370864868164, -140.17518615722656, 2.7207772731781006, 129.86614990234375, -0.08000000566244125, 0.0, 1.055999994277954, 0.0, 0.0, 0.0, 0.0, 0.0, 1.6214289925903113E9, 2021-05-19 14:56:32.590
29.0, -93.30302429199219, -120.89600372314453, 11.973289489746094, 130.15786743164062, -0.08000000566244125, 0.0, 1.055999994277954, 0.0, 0.0, 0.0, 0.0, 0.0, 1.6214289926066942E9, 2021-05-19 14:56:32.606
29.0, -99.33547973632812, -110.48786163330078, 7.795821666717529, 131.8969268798828, -0.08000000566244125, 0.0, 1.055999994277954, 0.0, 0.0, 0.0, 0.0, 0.0, 1.6214289926066942E9, 2021-05-19 14:56:32.606
30.0, -88.19805908203125, -115.62274932861328, 15.159684181213379, 134.9785919189453, -0.08000000566244125, 0.0, 1.055999994277954, 0.0, 0.0, 0.0, 0.0, 0.0, 1.62142899260741E9, 2021-05-19 14:56:32.607
30.0, -100.09468078613281, -125.28290557861328, 7.335813999176025, 124.63029479980469, -0.08000000566244125, 0.0, 1.055999994277954, 0.0, 0.0, 0.0, 0.0, 0.0, 1.62142899260741E9, 2021-05-19 14:56:32.607
31.0, -93.6246566772461, -114.93460845947266, 9.979923248291016, 124.56298065185547, -0.08000000566244125, 0.0, 1.055999994277954, 0.0, 0.0, 0.0, 0.0, 0.0, 1.6214289926203067E9, 2021-05-19 14:56:32.620
31.0, -101.40738677978516, -127.97563934326172, 5.967010498046875, 123.63548278808594, -0.08000000566244125, 0.0, 1.055999994277954, 0.0, 0.0, 0.0, 0.0, 0.0, 1.6214289926203067E9, 2021-05-19 14:56:32.620
32.0, -91.9791030883789, -110.93291473388672, 16.947357177734375, 132.58506774902344, -0.08000000566244125, 0.0, 1.055999994277954, 0.0, 0.0, 0.0, 0.0, 0.0, 1.6214289926360104E9, 2021-05-19 14:56:32.636
32.0, -89.55938720703125, -115.03558349609375, 14.273327827453613, 130.1952667236328, -0.08000000566244125, 0.0, 1.055999994277954, 0.0, 0.0, 0.0, 0.0, 0.0, 1.6214289926360104E9, 2021-05-19 14:56:32.636
33.0, -86.82551574707031, -129.36314392089844, 12.4033784866333, 130.4121856689453, -0.08000000566244125, 0.0, 1.055999994277954, 0.0, 0.0, 0.0, 0.0, 0.0, 1.6214289926368327E9, 2021-05-19 14:56:32.636
33.0, -99.69451141357422, -116.53902435302734, 8.106233596801758, 131.56033325195312, -0.08000000566244125, 0.0, 1.055999994277954, 0.0, 0.0, 0.0, 0.0, 0.0, 1.6214289926368327E9, 2021-05-19 14:56:32.636
34.0, -93.48628234863281, -115.72746276855469, 11.038314819335938, 136.36236572265625, -0.08000000566244125, 0.0, 1.055999994277954, 0.0, 0.0, 0.0, 0.0, 0.0, 1.6214289926503446E9, 2021-05-19 14:56:32.650
34.0, -87.79788970947266, -119.5234603881836, 15.253182411193848, 134.27549743652344, -0.08000000566244125, 0.0, 1.055999994277954, 0.0, 0.0, 0.0, 0.0, 0.0, 1.6214289926503446E9, 2021-05-19 14:56:32.650
35.0, -93.91262817382812, -127.4744873046875, 7.369472980499268, 131.9380645751953, -0.08000000566244125, 0.0, 1.055999994277954, 0.0, 0.0, 0.0, 0.0, 0.0, 1.6214289926814325E9, 2021-05-19 14:56:32.681
35.0, -98.00782012939453, -122.80335235595703, 0.7535898685455322, 130.14291381835938, -0.08000000566244125, 0.0, 1.055999994277954, 0.0, 0.0, 0.0, 0.0, 0.0, 1.6214289926814325E9, 2021-05-19 14:56:32.681
36.0, -89.54442596435547, -112.72806549072266, 9.557313919067383, 132.57383728027344, -0.08000000566244125, 0.0, 1.055999994277954, 0.0, 0.0, 0.0, 0.0, 0.0, 1.6214289926821678E9, 2021-05-19 14:56:32.682
36.0, -100.43501281738281, -132.5719757080078, -0.43569833040237427, 126.34690856933594, -0.08000000566244125, 0.0, 1.055999994277954, 0.0, 0.0, 0.0, 0.0, 0.0, 1.6214289926821678E9, 2021-05-19 14:56:32.682
37.0, -93.20952606201172, -134.10533142089844, -2.541261911392212, 125.80836486816406, -0.08000000566244125, 0.0, 1.055999994277954, 0.0, 0.0, 0.0, 0.0, 0.0, 1.6214289926967208E9, 2021-05-19 14:56:32.696
37.0, -99.17466735839844, -128.26734924316406, -5.967010498046875, 119.16630554199219, -0.08000000566244125, 0.0, 1.055999994277954, 0.0, 0.0, 0.0, 0.0, 0.0, 1.6214289926967208E9, 2021-05-19 14:56:32.696
38.0, -99.02880859375, -123.36808013916016, 1.6848249435424805, 128.63946533203125, -0.08000000566244125, 0.0, 1.055999994277954, 0.0, 0.0, 0.0, 0.0, 0.0, 1.621428992697562E9, 2021-05-19 14:56:32.697
38.0, -93.9687271118164, -134.2998046875, 4.68796443939209, 134.54103088378906, -0.08000000566244125, 0.0, 1.055999994277954, 0.0, 0.0, 0.0, 0.0, 0.0, 1.621428992697562E9, 2021-05-19 14:56:32.697
39.0, -92.5849609375, -131.78285217285156, 7.627525806427002, 127.40530395507812, -0.08000000566244125, 0.0, 1.055999994277954, 0.0, 0.0, 0.0, 0.0, 0.0, 1.621428992698259E9, 2021-05-19 14:56:32.698
39.0, -108.13546752929688, -126.58065032958984, 1.561408281326294, 123.55320739746094, -0.08000000566244125, 0.0, 1.055999994277954, 0.0, 0.0, 0.0, 0.0, 0.0, 1.621428992698259E9, 2021-05-19 14:56:32.698
40.0, -99.27938079833984, -111.86788940429688, 7.896798610687256, 134.0099639892578, -0.08000000566244125, 0.0, 1.055999994277954, 0.0, 0.0, 0.0, 0.0, 0.0, 1.6214289927274852E9, 2021-05-19 14:56:32.727
40.0, -92.99635314941406, -129.4678497314453, 15.915143966674805, 128.44873046875, -0.08000000566244125, 0.0, 1.055999994277954, 0.0, 0.0, 0.0, 0.0, 0.0, 1.6214289927274852E9, 2021-05-19 14:56:32.727
41.0, -85.8194808959961, -129.65484619140625, 15.219522476196289, 126.33194732666016, -0.08000000566244125, 0.0, 1.055999994277954, 0.0, 0.0, 0.0, 0.0, 0.0, 1.6214289927281716E9, 2021-05-19 14:56:32.728
41.0, -97.0578842163086, -125.4661636352539, 9.239422798156738, 125.7971420288086, -0.08000000566244125, 0.0, 1.055999994277954, 0.0, 0.0, 0.0, 0.0, 0.0, 1.6214289927281716E9, 2021-05-19 14:56:32.728
42.0, -87.95122528076172, -125.8251953125, 13.173797607421875, 136.27259826660156, -0.08000000566244125, 0.0, 1.055999994277954, 0.0, 0.0, 0.0, 0.0, 0.0, 1.6214289927289155E9, 2021-05-19 14:56:32.728
42.0, -92.45032501220703, -130.0998992919922, 9.261861801147461, 129.49964904785156, -0.08000000566244125, 0.0, 1.055999994277954, 0.0, 0.0, 0.0, 0.0, 0.0, 1.6214289927289155E9, 2021-05-19 14:56:32.728
43.0, -92.73829650878906, -133.42092895507812, 5.667818546295166, 135.67422485351562, -0.08000000566244125, 0.0, 1.055999994277954, 0.0, 0.0, 0.0, 0.0, 0.0, 1.62142899274034E9, 2021-05-19 14:56:32.740
43.0, -96.10794830322266, -117.12244415283203, 0.977983832359314, 129.3425750732422, -0.08000000566244125, 0.0, 1.055999994277954, 0.0, 0.0, 0.0, 0.0, 0.0, 1.62142899274034E9, 2021-05-19 14:56:32.740
44.0, -92.88789367675781, -131.19943237304688, 1.5165294408798218, 130.84600830078125, -0.08000000566244125, 0.0, 1.055999994277954, 0.0, 0.0, 0.0, 0.0, 0.0, 1.6214289927723677E9, 2021-05-19 14:56:32.772
44.0, -92.36431121826172, -137.16830444335938, 1.5053097009658813, 124.80606842041016, -0.08000000566244125, 0.0, 1.055999994277954, 0.0, 0.0, 0.0, 0.0, 0.0, 1.6214289927723677E9, 2021-05-19 14:56:32.772
45.0, -88.01854705810547, -138.13694763183594, -1.5314890146255493, 120.72958374023438, -0.08000000566244125, 0.0, 1.055999994277954, 0.0, 0.0, 0.0, 0.0, 0.0, 1.6214289927731109E9, 2021-05-19 14:56:32.773
45.0, -92.3792724609375, -123.9402847290039, 2.8815929889678955, 126.0177993774414, -0.08000000566244125, 0.0, 1.055999994277954, 0.0, 0.0, 0.0, 0.0, 0.0, 1.6214289927731109E9, 2021-05-19 14:56:32.773
46.0, -90.38964080810547, -116.42308807373047, 8.648518562316895, 128.75914001464844, -0.08000000566244125, 0.0, 1.055999994277954, 0.0, 0.0, 0.0, 0.0, 0.0, 1.6214289927738576E9, 2021-05-19 14:56:32.773
46.0, -79.30831909179688, -122.30968475341797, 11.258968353271484, 136.49325561523438, -0.08000000566244125, 0.0, 1.055999994277954, 0.0, 0.0, 0.0, 0.0, 0.0, 1.6214289927738576E9, 2021-05-19 14:56:32.773
47.0, -103.61392974853516, -135.1076202392578, -3.2368834018707275, 127.15098571777344, -0.08000000566244125, 0.0, 1.055999994277954, 0.0, 0.0, 0.0, 0.0, 0.0, 1.6214289927746572E9, 2021-05-19 14:56:32.774
47.0, -100.22557830810547, -121.18397521972656, 4.138199329376221, 128.6282501220703, -0.08000000566244125, 0.0, 1.055999994277954, 0.0, 0.0, 0.0, 0.0, 0.0, 1.6214289927746572E9, 2021-05-19 14:56:32.774
48.0, -90.85338592529297, -116.89057159423828, 12.998022079467773, 133.108642578125, -0.08000000566244125, 0.0, 1.055999994277954, 0.0, 0.0, 0.0, 0.0, 0.0, 1.6214289927853942E9, 2021-05-19 14:56:32.785
48.0, -90.41207885742188, -121.412109375, 12.938183784484863, 131.39952087402344, -0.08000000566244125, 0.0, 1.055999994277954, 0.0, 0.0, 0.0, 0.0, 0.0, 1.6214289927853942E9, 2021-05-19 14:56:32.785
49.0, -99.69824981689453, -120.65665435791016, 6.729949951171875, 125.59893035888672, -0.08000000566244125, 0.0, 1.055999994277954, 0.0, 0.0, 0.0, 0.0, 0.0, 1.6214289928167205E9, 2021-05-19 14:56:32.816
49.0, -101.52332305908203, -103.53539276123047, 1.5763678550720215, 128.51979064941406, -0.08000000566244125, 0.0, 1.055999994277954, 0.0, 0.0, 0.0, 0.0, 0.0, 1.6214289928167205E9, 2021-05-19 14:56:32.816
50.0, -96.11542510986328, -118.34539794921875, 12.384678840637207, 135.43112182617188, -0.08000000566244125, 0.0, 1.055999994277954, 0.0, 0.0, 0.0, 0.0, 0.0, 1.6214289928174288E9, 2021-05-19 14:56:32.817
50.0, -91.4629898071289, -121.15406036376953, 12.107926368713379, 134.45127868652344, -0.08000000566244125, 0.0, 1.055999994277954, 0.0, 0.0, 0.0, 0.0, 0.0, 1.6214289928174288E9, 2021-05-19 14:56:32.817
51.0, -94.14450073242188, -125.65689849853516, 5.619199752807617, 134.27175903320312, -0.08000000566244125, 0.0, 1.055999994277954, 0.0, 0.0, 0.0, 0.0, 0.0, 1.6214289928181632E9, 2021-05-19 14:56:32.818
51.0, -95.7938003540039, -108.90962982177734, 4.254136085510254, 132.63742065429688, -0.08000000566244125, 0.0, 1.055999994277954, 0.0, 0.0, 0.0, 0.0, 0.0, 1.6214289928181632E9, 2021-05-19 14:56:32.818
52.0, -103.15017700195312, -115.80599975585938, 0.18512505292892456, 136.8485565185547, -0.08000000566244125, 0.0, 1.055999994277954, 0.0, 0.0, 0.0, 0.0, 0.0, 1.6214289928305037E9, 2021-05-19 14:56:32.830
52.0, -95.46842956542969, -124.99867248535156, 4.5383687019348145, 136.24269104003906, -0.08000000566244125, 0.0, 1.055999994277954, 0.0, 0.0, 0.0, 0.0, 0.0, 1.6214289928305037E9, 2021-05-19 14:56:32.830
53.0, -101.06331634521484, -135.31332397460938, -2.866633415222168, 134.33534240722656, -0.08000000566244125, 0.0, 1.055999994277954, 0.0, 0.0, 0.0, 0.0, 0.0, 1.6214289928464916E9, 2021-05-19 14:56:32.846
53.0, -104.56011962890625, -114.4820785522461, -4.471050262451172, 129.02467346191406, -0.08000000566244125, 0.0, 1.055999994277954, 0.0, 0.0, 0.0, 0.0, 0.0, 1.6214289928464916E9, 2021-05-19 14:56:32.846
54.0, -93.54985809326172, -121.49813079833984, 0.39455944299697876, 132.91043090820312, -0.08000000566244125, 0.0, 1.055999994277954, 0.0, 0.0, 0.0, 0.0, 0.0, 1.6214289928610878E9, 2021-05-19 14:56:32.861
54.0, -93.63213348388672, -122.7136001586914, 0.5441554188728333, 130.75625610351562, -0.08000000566244125, 0.0, 1.055999994277954, 0.0, 0.0, 0.0, 0.0, 0.0, 1.6214289928610878E9, 2021-05-19 14:56:32.861
55.0, -98.85677337646484, -137.7292938232422, -7.044101715087891, 129.09573364257812, -0.08000000566244125, 0.0, 1.055999994277954, 0.0, 0.0, 0.0, 0.0, 0.0, 1.621428992861778E9, 2021-05-19 14:56:32.861
55.0, -102.49943542480469, -119.78899383544922, -9.007549285888672, 128.21311950683594, -0.08000000566244125, 0.0, 1.055999994277954, 0.0, 0.0, 0.0, 0.0, 0.0, 1.621428992861778E9, 2021-05-19 14:56:32.861
56.0, -91.56023406982422, -117.01024627685547, -3.9175453186035156, 133.39288330078125, -0.08000000566244125, 0.0, 1.055999994277954, 0.0, 0.0, 0.0, 0.0, 0.0, 1.6214289928924372E9, 2021-05-19 14:56:32.892
56.0, -97.79090118408203, -125.8663330078125, -6.415798187255859, 131.42568969726562, -0.08000000566244125, 0.0, 1.055999994277954, 0.0, 0.0, 0.0, 0.0, 0.0, 1.6214289928924372E9, 2021-05-19 14:56:32.892
57.0, -95.33378601074219, -130.73568725585938, -6.808487892150879, 125.34461975097656, -0.08000000566244125, 0.0, 1.055999994277954, 0.0, 0.0, 0.0, 0.0, 0.0, 1.621428992893129E9, 2021-05-19 14:56:32.893
57.0, -101.56820678710938, -118.09481811523438, -11.864832878112793, 125.05290222167969, -0.08000000566244125, 0.0, 1.055999994277954, 0.0, 0.0, 0.0, 0.0, 0.0, 1.621428992893129E9, 2021-05-19 14:56:32.893
58.0, -89.21531677246094, -106.8152847290039, 5.731396675109863, 145.12869262695312, -0.08000000566244125, 0.0, 1.055999994277954, 0.0, 0.0, 0.0, 0.0, 0.0, 1.621428992893932E9, 2021-05-19 14:56:32.893
58.0, -95.77135467529297, -132.79637145996094, -3.248103141784668, 130.09054565429688, -0.08000000566244125, 0.0, 1.055999994277954, 0.0, 0.0, 0.0, 0.0, 0.0, 1.621428992893932E9, 2021-05-19 14:56:32.893
59.0, -98.1648941040039, -129.49029541015625, -1.778322458267212, 128.4861297607422, -0.08000000566244125, 0.0, 1.055999994277954, 0.0, 0.0, 0.0, 0.0, 0.0, 1.6214289928947368E9, 2021-05-19 14:56:32.894
59.0, -95.62550354003906, -125.02859497070312, 2.6384994983673096, 132.42799377441406, -0.08000000566244125, 0.0, 1.055999994277954, 0.0, 0.0, 0.0, 0.0, 0.0, 1.6214289928947368E9, 2021-05-19 14:56:32.894
60.0, -96.11542510986328, -113.94727325439453, 2.3654866218566895, 131.69122314453125, -0.08000000566244125, 0.0, 1.055999994277954, 0.0, 0.0, 0.0, 0.0, 0.0, 1.6214289929053855E9, 2021-05-19 14:56:32.905
60.0, -92.37178802490234, -127.19025421142578, 6.531735420227051, 131.36585998535156, -0.08000000566244125, 0.0, 1.055999994277954, 0.0, 0.0, 0.0, 0.0, 0.0, 1.6214289929053855E9, 2021-05-19 14:56:32.905
61.0, -92.37178802490234, -131.62203979492188, -1.1649788618087769, 126.61618041992188, -0.08000000566244125, 0.0, 1.055999994277954, 0.0, 0.0, 0.0, 0.0, 0.0, 1.6214289929203403E9, 2021-05-19 14:56:32.920
61.0, -92.61862182617188, -120.70153045654297, -0.8770065307617188, 131.94554138183594, -0.08000000566244125, 0.0, 1.055999994277954, 0.0, 0.0, 0.0, 0.0, 0.0, 1.6214289929203403E9, 2021-05-19 14:56:32.920
62.0, -95.09817504882812, -115.49932861328125, 2.90029239654541, 130.92080688476562, -0.08000000566244125, 0.0, 1.055999994277954, 0.0, 0.0, 0.0, 0.0, 0.0, 1.6214289929530773E9, 2021-05-19 14:56:32.953
62.0, -87.6482925415039, -120.53697204589844, 3.8390073776245117, 137.06919860839844, -0.08000000566244125, 0.0, 1.055999994277954, 0.0, 0.0, 0.0, 0.0, 0.0, 1.6214289929530773E9, 2021-05-19 14:56:32.953
63.0, -96.04811096191406, -138.2528839111328, 0.2599230408668518, 125.90933990478516, -0.08000000566244125, 0.0, 1.055999994277954, 0.0, 0.0, 0.0, 0.0, 0.0, 1.6214289929537911E9, 2021-05-19 14:56:32.953
63.0, -90.5317611694336, -116.3071517944336, 2.5337822437286377, 131.4144744873047, -0.08000000566244125, 0.0, 1.055999994277954, 0.0, 0.0, 0.0, 0.0, 0.0, 1.6214289929537911E9, 2021-05-19 14:56:32.953
64.0, -92.5251235961914, -111.8155288696289, 4.815121173858643, 134.69436645507812, -0.08000000566244125, 0.0, 1.055999994277954, 0.0, 0.0, 0.0, 0.0, 0.0, 1.6214289929545512E9, 2021-05-19 14:56:32.954
64.0, -97.15138244628906, -125.41754150390625, 9.684471130371094, 129.66046142578125, -0.08000000566244125, 0.0, 1.055999994277954, 0.0, 0.0, 0.0, 0.0, 0.0, 1.6214289929545512E9, 2021-05-19 14:56:32.954
65.0, -95.00841522216797, -132.37376403808594, 1.0939207077026367, 123.53824615478516, -0.08000000566244125, 0.0, 1.055999994277954, 0.0, 0.0, 0.0, 0.0, 0.0, 1.6214289929553196E9, 2021-05-19 14:56:32.955
65.0, -92.12869262695312, -113.69295501708984, 3.4575374126434326, 131.49301147460938, -0.08000000566244125, 0.0, 1.055999994277954, 0.0, 0.0, 0.0, 0.0, 0.0, 1.6214289929553196E9, 2021-05-19 14:56:32.955
66.0, -94.3053207397461, -115.94063568115234, 7.0141825675964355, 133.7444305419922, -0.08000000566244125, 0.0, 1.055999994277954, 0.0, 0.0, 0.0, 0.0, 0.0, 1.6214289929654639E9, 2021-05-19 14:56:32.965
66.0, -92.25211334228516, -122.39944458007812, 8.95145034790039, 132.49530029296875, -0.08000000566244125, 0.0, 1.055999994277954, 0.0, 0.0, 0.0, 0.0, 0.0, 1.6214289929654639E9, 2021-05-19 14:56:32.965
67.0, -98.93157196044922, -133.43963623046875, 7.126379489898682, 126.3169937133789, -0.08000000566244125, 0.0, 1.055999994277954, 0.0, 0.0, 0.0, 0.0, 0.0, 1.6214289930131493E9, 2021-05-19 14:56:33.013
67.0, -99.33547973632812, -117.4141616821289, 5.802454948425293, 129.32012939453125, -0.08000000566244125, 0.0, 1.055999994277954, 0.0, 0.0, 0.0, 0.0, 0.0, 1.6214289930131493E9, 2021-05-19 14:56:33.013
68.0, -95.80127716064453, -108.55807495117188, 12.691350936889648, 133.9688262939453, -0.08000000566244125, 0.0, 1.055999994277954, 0.0, 0.0, 0.0, 0.0, 0.0, 1.6214289930138063E9, 2021-05-19 14:56:33.013
68.0, -83.0482177734375, -115.2038803100586, 19.131458282470703, 131.70619201660156, -0.08000000566244125, 0.0, 1.055999994277954, 0.0, 0.0, 0.0, 0.0, 0.0, 1.6214289930138063E9, 2021-05-19 14:56:33.013
69.0, -87.83155059814453, -123.91036224365234, 5.634159088134766, 129.892333984375, -0.08000000566244125, 0.0, 1.055999994277954, 0.0, 0.0, 0.0, 0.0, 0.0, 1.6214289930145388E9, 2021-05-19 14:56:33.014
69.0, -94.8924789428711, -112.98986053466797, 7.934197902679443, 136.69522094726562, -0.08000000566244125, 0.0, 1.055999994277954, 0.0, 0.0, 0.0, 0.0, 0.0, 1.6214289930145388E9, 2021-05-19 14:56:33.014
70.0, -94.92613983154297, -112.74302673339844, 6.789788246154785, 132.80197143554688, -0.08000000566244125, 0.0, 1.055999994277954, 0.0, 0.0, 0.0, 0.0, 0.0, 1.621428993015339E9, 2021-05-19 14:56:33.015
70.0, -95.63298034667969, -129.1724090576172, 9.130966186523438, 135.46104431152344, -0.08000000566244125, 0.0, 1.055999994277954, 0.0, 0.0, 0.0, 0.0, 0.0, 1.621428993015339E9, 2021-05-19 14:56:33.015
71.0, -93.21326446533203, -126.21414184570312, 6.621492862701416, 132.263427734375, -0.08000000566244125, 0.0, 1.055999994277954, 0.0, 0.0, 0.0, 0.0, 0.0, 1.6214289930258238E9, 2021-05-19 14:56:33.025
71.0, -99.48133850097656, -120.79502868652344, 3.4463179111480713, 135.82382202148438, -0.08000000566244125, 0.0, 1.055999994277954, 0.0, 0.0, 0.0, 0.0, 0.0, 1.6214289930258238E9, 2021-05-19 14:56:33.025
72.0, -95.92095184326172, -123.83930969238281, 2.1971912384033203, 134.05857849121094, -0.08000000566244125, 0.0, 1.055999994277954, 0.0, 0.0, 0.0, 0.0, 0.0, 1.621428993041086E9, 2021-05-19 14:56:33.041
72.0, -88.59822845458984, -131.00869750976562, 5.211550712585449, 130.4383544921875, -0.08000000566244125, 0.0, 1.055999994277954, 0.0, 0.0, 0.0, 0.0, 0.0, 1.621428993041086E9, 2021-05-19 14:56:33.041
73.0, -94.05848693847656, -135.85934448242188, 5.155452251434326, 137.4768524169922, -0.08000000566244125, 0.0, 1.055999994277954, 0.0, 0.0, 0.0, 0.0, 0.0, 1.6214289930418448E9, 2021-05-19 14:56:33.041
73.0, -99.34296417236328, -106.1346206665039, -0.626433253288269, 135.21047973632812, -0.08000000566244125, 0.0, 1.055999994277954, 0.0, 0.0, 0.0, 0.0, 0.0, 1.6214289930418448E9, 2021-05-19 14:56:33.041
74.0, -94.29035949707031, -115.41705322265625, 2.4702038764953613, 130.97315979003906, -0.08000000566244125, 0.0, 1.055999994277954, 0.0, 0.0, 0.0, 0.0, 0.0, 1.6214289930561616E9, 2021-05-19 14:56:33.056
74.0, -95.36370849609375, -119.47110748291016, 7.036621570587158, 131.91561889648438, -0.08000000566244125, 0.0, 1.055999994277954, 0.0, 0.0, 0.0, 0.0, 0.0, 1.6214289930561616E9, 2021-05-19 14:56:33.056
75.0, -86.02143859863281, -117.10000610351562, 11.027094841003418, 137.18887329101562, -0.08000000566244125, 0.0, 1.055999994277954, 0.0, 0.0, 0.0, 0.0, 0.0, 1.6214289930569353E9, 2021-05-19 14:56:33.056
75.0, -96.45575714111328, -123.79068756103516, 4.874959468841553, 136.511962890625, -0.08000000566244125, 0.0, 1.055999994277954, 0.0, 0.0, 0.0, 0.0, 0.0, 1.6214289930569353E9, 2021-05-19 14:56:33.056
76.0, -93.85279083251953, -112.18203735351562, 11.786294937133789, 135.41990661621094, -0.08000000566244125, 0.0, 1.055999994277954, 0.0, 0.0, 0.0, 0.0, 0.0, 1.621428993070371E9, 2021-05-19 14:56:33.070
76.0, -90.06053161621094, -119.4037857055664, 13.289734840393066, 133.8790740966797, -0.08000000566244125, 0.0, 1.055999994277954, 0.0, 0.0, 0.0, 0.0, 0.0, 1.621428993070371E9, 2021-05-19 14:56:33.070
77.0, -80.25077056884766, -116.90927124023438, 17.893550872802734, 134.07354736328125, -0.08000000566244125, 0.0, 1.055999994277954, 0.0, 0.0, 0.0, 0.0, 0.0, 1.621428993086486E9, 2021-05-19 14:56:33.086
77.0, -100.0685043334961, -113.3825454711914, 9.860246658325195, 129.31265258789062, -0.08000000566244125, 0.0, 1.055999994277954, 0.0, 0.0, 0.0, 0.0, 0.0, 1.621428993086486E9, 2021-05-19 14:56:33.086
78.0, -92.7420425415039, -108.21400451660156, 15.08862590789795, 132.45416259765625, -0.08000000566244125, 0.0, 1.055999994277954, 0.0, 0.0, 0.0, 0.0, 0.0, 1.6214289931010046E9, 2021-05-19 14:56:33.101
78.0, -84.9144287109375, -122.60140228271484, 16.47612953186035, 135.30023193359375, -0.08000000566244125, 0.0, 1.055999994277954, 0.0, 0.0, 0.0, 0.0, 0.0, 1.6214289931010046E9, 2021-05-19 14:56:33.101
79.0, -87.42764282226562, -126.07576751708984, 8.45030403137207, 136.0108184814453, -0.08000000566244125, 0.0, 1.055999994277954, 0.0, 0.0, 0.0, 0.0, 0.0, 1.6214289931018248E9, 2021-05-19 14:56:33.101
79.0, -94.36141204833984, -129.5538787841797, 5.372366428375244, 131.65756225585938, -0.08000000566244125, 0.0, 1.055999994277954, 0.0, 0.0, 0.0, 0.0, 0.0, 1.6214289931018248E9, 2021-05-19 14:56:33.101
80.0, -85.58386993408203, -116.8943099975586, 14.340646743774414, 139.2645263671875, -0.08000000566244125, 0.0, 1.055999994277954, 0.0, 0.0, 0.0, 0.0, 0.0, 1.6214289931160192E9, 2021-05-19 14:56:33.116
80.0, -84.14401245117188, -132.62432861328125, 13.9292573928833, 131.30227661132812, -0.08000000566244125, 0.0, 1.055999994277954, 0.0, 0.0, 0.0, 0.0, 0.0, 1.6214289931160192E9, 2021-05-19 14:56:33.116
81.0, -86.78437805175781, -133.78744506835938, 12.40711784362793, 134.92623901367188, -0.08000000566244125, 0.0, 1.055999994277954, 0.0, 0.0, 0.0, 0.0, 0.0, 1.62142899311677E9, 2021-05-19 14:56:33.116
81.0, -90.71127319335938, -125.6082763671875, 12.971842765808105, 139.96014404296875, -0.08000000566244125, 0.0, 1.055999994277954, 0.0, 0.0, 0.0, 0.0, 0.0, 1.62142899311677E9, 2021-05-19 14:56:33.116
82.0, -91.0403823852539, -117.6385498046875, 14.026494979858398, 146.15716552734375, -0.08000000566244125, 0.0, 1.055999994277954, 0.0, 0.0, 0.0, 0.0, 0.0, 1.6214289931303704E9, 2021-05-19 14:56:33.130
82.0, -86.5038833618164, -140.2761688232422, 8.427864074707031, 134.99729919433594, -0.08000000566244125, 0.0, 1.055999994277954, 0.0, 0.0, 0.0, 0.0, 0.0, 1.6214289931303704E9, 2021-05-19 14:56:33.130
83.0, -89.7314224243164, -136.6858673095703, 10.17813777923584, 129.90354919433594, -0.08000000566244125, 0.0, 1.055999994277954, 0.0, 0.0, 0.0, 0.0, 0.0, 1.6214289931621556E9, 2021-05-19 14:56:33.162
83.0, -89.36865234375, -122.09651184082031, 7.676144599914551, 134.8065643310547, -0.08000000566244125, 0.0, 1.055999994277954, 0.0, 0.0, 0.0, 0.0, 0.0, 1.6214289931621556E9, 2021-05-19 14:56:33.162
84.0, -92.47276306152344, -122.77717590332031, 10.398792266845703, 129.88111877441406, -0.08000000566244125, 0.0, 1.055999994277954, 0.0, 0.0, 0.0, 0.0, 0.0, 1.6214289931629064E9, 2021-05-19 14:56:33.162
84.0, -86.87039947509766, -129.5202178955078, 13.985356330871582, 130.51315307617188, -0.08000000566244125, 0.0, 1.055999994277954, 0.0, 0.0, 0.0, 0.0, 0.0, 1.6214289931629064E9, 2021-05-19 14:56:33.162
85.0, -85.83444213867188, -132.75523376464844, 11.475883483886719, 126.47032928466797, -0.08000000566244125, 0.0, 1.055999994277954, 0.0, 0.0, 0.0, 0.0, 0.0, 1.6214289931636016E9, 2021-05-19 14:56:33.163
85.0, -101.5569839477539, -119.73663330078125, 9.239422798156738, 127.06497192382812, -0.08000000566244125, 0.0, 1.055999994277954, 0.0, 0.0, 0.0, 0.0, 0.0, 1.6214289931636016E9, 2021-05-19 14:56:33.163
86.0, -88.50473022460938, -115.54046630859375, 18.9856014251709, 135.38998413085938, -0.08000000566244125, 0.0, 1.055999994277954, 0.0, 0.0, 0.0, 0.0, 0.0, 1.621428993176021E9, 2021-05-19 14:56:33.176
86.0, -89.48084259033203, -112.26805877685547, 19.916837692260742, 125.74104309082031, -0.08000000566244125, 0.0, 1.055999994277954, 0.0, 0.0, 0.0, 0.0, 0.0, 1.621428993176021E9, 2021-05-19 14:56:33.176
87.0, -87.9886245727539, -130.1821746826172, 14.89415168762207, 128.2280731201172, -0.08000000566244125, 0.0, 1.055999994277954, 0.0, 0.0, 0.0, 0.0, 0.0, 1.621428993176784E9, 2021-05-19 14:56:33.176
87.0, -99.07743072509766, -116.31836700439453, 14.273327827453613, 136.3810577392578, -0.08000000566244125, 0.0, 1.055999994277954, 0.0, 0.0, 0.0, 0.0, 0.0, 1.621428993176784E9, 2021-05-19 14:56:33.176
88.0, -90.89078521728516, -108.91336822509766, 16.120838165283203, 137.016845703125, -0.08000000566244125, 0.0, 1.055999994277954, 0.0, 0.0, 0.0, 0.0, 0.0, 1.621428993207594E9, 2021-05-19 14:56:33.207
88.0, -83.347412109375, -129.14996337890625, 13.11021900177002, 133.69207763671875, -0.08000000566244125, 0.0, 1.055999994277954, 0.0, 0.0, 0.0, 0.0, 0.0, 1.621428993207594E9, 2021-05-19 14:56:33.207
89.0, -97.36455535888672, -138.9185791015625, 4.418691635131836, 132.0166015625, -0.08000000566244125, 0.0, 1.055999994277954, 0.0, 0.0, 0.0, 0.0, 0.0, 1.6214289932083304E9, 2021-05-19 14:56:33.208
89.0, -87.89138793945312, -124.7443618774414, 2.51882266998291, 134.36898803710938, -0.08000000566244125, 0.0, 1.055999994277954, 0.0, 0.0, 0.0, 0.0, 0.0, 1.6214289932083304E9, 2021-05-19 14:56:33.208
90.0, -85.11264038085938, -118.60718536376953, 6.150265693664551, 136.1192626953125, -0.08000000566244125, 0.0, 1.040000081062317, 0.0, 0.0, 0.0, 0.0, 0.0, 1.621428993209084E9, 2021-05-19 14:56:33.209
90.0, -94.6905288696289, -130.7469024658203, 8.577460289001465, 136.39602661132812, -0.08000000566244125, 0.0, 1.040000081062317, 0.0, 0.0, 0.0, 0.0, 0.0, 1.621428993209084E9, 2021-05-19 14:56:33.209
91.0, -88.63936614990234, -132.20172119140625, 2.5038630962371826, 132.9852294921875, -0.08000000566244125, 0.0, 1.040000081062317, 0.0, 0.0, 0.0, 0.0, 0.0, 1.6214289932203465E9, 2021-05-19 14:56:33.220
91.0, -87.40520477294922, -120.9483642578125, 2.545001983642578, 134.15582275390625, -0.08000000566244125, 0.0, 1.040000081062317, 0.0, 0.0, 0.0, 0.0, 0.0, 1.6214289932203465E9, 2021-05-19 14:56:33.220
92.0, -91.62007141113281, -121.63650512695312, 6.464416980743408, 136.48951721191406, -0.08000000566244125, 0.0, 1.040000081062317, 0.0, 0.0, 0.0, 0.0, 0.0, 1.6214289932361343E9, 2021-05-19 14:56:33.236
92.0, -90.76363372802734, -123.93280792236328, 12.680130958557129, 130.3186798095703, -0.08000000566244125, 0.0, 1.040000081062317, 0.0, 0.0, 0.0, 0.0, 0.0, 1.6214289932361343E9, 2021-05-19 14:56:33.236
93.0, -82.42365264892578, -130.28689575195312, 18.675189971923828, 131.24618530273438, -0.08000000566244125, 0.0, 1.040000081062317, 0.0, 0.0, 0.0, 0.0, 0.0, 1.62142899323691E9, 2021-05-19 14:56:33.236
93.0, -98.32196807861328, -121.24755859375, 11.935891151428223, 134.38021850585938, -0.08000000566244125, 0.0, 1.040000081062317, 0.0, 0.0, 0.0, 0.0, 0.0, 1.62142899323691E9, 2021-05-19 14:56:33.236
94.0, -90.89078521728516, -117.53009796142578, 17.549480438232422, 137.3160400390625, -0.08000000566244125, 0.0, 1.040000081062317, 0.0, 0.0, 0.0, 0.0, 0.0, 1.6214289932667372E9, 2021-05-19 14:56:33.266
94.0, -81.21940612792969, -126.93594360351562, 23.170549392700195, 134.69810485839844, -0.08000000566244125, 0.0, 1.040000081062317, 0.0, 0.0, 0.0, 0.0, 0.0, 1.6214289932667372E9, 2021-05-19 14:56:33.266
95.0, -91.16006469726562, -120.89600372314453, 17.53826141357422, 127.00887298583984, -0.08000000566244125, 0.0, 1.040000081062317, 0.0, 0.0, 0.0, 0.0, 0.0, 1.621428993267458E9, 2021-05-19 14:56:33.267
95.0, -96.2538070678711, -119.29532623291016, 13.394452095031738, 132.79075622558594, -0.08000000566244125, 0.0, 1.040000081062317, 0.0, 0.0, 0.0, 0.0, 0.0, 1.621428993267458E9, 2021-05-19 14:56:33.267
96.0, -89.54442596435547, -116.80829620361328, 17.57192039489746, 132.0203399658203, -0.08000000566244125, 0.0, 1.040000081062317, 0.0, 0.0, 0.0, 0.0, 0.0, 1.6214289932682836E9, 2021-05-19 14:56:33.268
