Sample Index, EXG Channel 0, EXG Channel 1, EXG Channel 2, EXG Channel 3, Accel Channel 0, Accel Channel 1, Accel Channel 2, Other, Other, Other, Other, Other, Timestamp, Timestamp (Formatted)
0.0, -84.61897277832031, -105.13420104980469, -11.885401725769043, 139.27574157714844, 0.0, 0.0, 0.0, 0.0, 0.0, 0.0, 0.0, 0.0, 1.621422111809626E9, 2021-05-19 13:01:51.809
1.0, -85.86810302734375, -87.94187927246094, -11.788165092468262, 138.1575164794922, 0.0, -0.08000000566244125, 0.0, 0.0, 0.0, 0.0, 0.0, 0.0, 1.6214221118103688E9, 2021-05-19 13:01:51.810
1.0, -54.79701232910156, -36.095645904541016, 7.674274921417236, 169.68861389160156, 0.0, -0.08000000566244125, 0.0, 0.0, 0.0, 0.0, 0.0, 0.0, 1.6214221118103688E9, 2021-05-19 13:01:51.810
2.0, -57.257869720458984, -19.333412170410156, 13.755352020263672, 165.85147094726562, -0.04800000041723251, -0.08000000566244125, 0.0, 0.0, 0.0, 0.0, 0.0, 0.0, 1.6214221118250053E9, 2021-05-19 13:01:51.825
2.0, -77.24763488769531, -21.98126220703125, 1.1219699382781982, 138.47914123535156, -0.04800000041723251, -0.08000000566244125, 0.0, 0.0, 0.0, 0.0, 0.0, 0.0, 1.6214221118250053E9, 2021-05-19 13:01:51.825
3.0, -87.40520477294922, -104.53207397460938, -30.80555534362793, 128.97605895996094, -0.04800000041723251, -0.08000000566244125, 0.0, 0.0, 0.0, 0.0, 0.0, 0.0, 1.6214221118262224E9, 2021-05-19 13:01:51.826
3.0, -57.54957962036133, -37.11289596557617, 5.879122734069824, 168.11412048339844, -0.04800000041723251, -0.08000000566244125, 0.0, 0.0, 0.0, 0.0, 0.0, 0.0, 1.6214221118262224E9, 2021-05-19 13:01:51.826
4.0, -37.28680419921875, -63.961639404296875, 13.119568824768066, 170.70960998535156, -0.04800000041723251, -0.08000000566244125, 0.0, 0.0, 0.0, 0.0, 0.0, 0.0, 1.6214221118548548E9, 2021-05-19 13:01:51.854
4.0, -81.35404205322266, 10.563347816467285, -7.195567607879639, 143.99176025390625, -0.04800000041723251, -0.08000000566244125, 0.0, 0.0, 0.0, 0.0, 0.0, 0.0, 1.6214221118548548E9, 2021-05-19 13:01:51.854
5.0, -104.90045166015625, 4.250396251678467, -29.848140716552734, 134.95242309570312, -0.04800000041723251, -0.08000000566244125, 0.0, 0.0, 0.0, 0.0, 0.0, 0.0, 1.6214221118554237E9, 2021-05-19 13:01:51.855
5.0, -64.02334594726562, -87.66512298583984, -7.322724342346191, 154.6841278076172, -0.04800000041723251, -0.08000000566244125, 0.0, 0.0, 0.0, 0.0, 0.0, 0.0, 1.6214221118554237E9, 2021-05-19 13:01:51.855
6.0, -47.23493576049805, -107.13504028320312, -7.113289833068848, 163.45045471191406, -0.04800000041723251, -0.08000000566244125, 0.0, 0.0, 0.0, 0.0, 0.0, 0.0, 1.6214221118692727E9, 2021-05-19 13:01:51.869
6.0, -85.1949234008789, -79.56449890136719, -21.50068473815918, 139.37298583984375, -0.04800000041723251, -0.08000000566244125, 0.0, 0.0, 0.0, 0.0, 0.0, 0.0, 1.6214221118692727E9, 2021-05-19 13:01:51.869
7.0, -90.03435516357422, -71.97624206542969, -22.259883880615234, 131.242431640625, -0.04800000041723251, -0.08000000566244125, 0.0, 0.0, 0.0, 0.0, 0.0, 0.0, 1.6214221118700244E9, 2021-05-19 13:01:51.870
7.0, -45.189212799072266, 24.599191665649414, 1.2491265535354614, 157.92288208007812, -0.04800000041723251, -0.08000000566244125, 0.0, 0.0, 0.0, 0.0, 0.0, 0.0, 1.6214221118700244E9, 2021-05-19 13:01:51.870
8.0, -56.74550247192383, 56.6800537109375, -11.10002326965332, 155.25259399414062, -0.04800000041723251, -0.08000000566244125, 0.0, 0.0, 0.0, 0.0, 0.0, 0.0, 1.6214221118842945E9, 2021-05-19 13:01:51.884
8.0, -84.85832977294922, -25.216276168823242, -22.675012588500977, 129.19671630859375, -0.04800000041723251, -0.08000000566244125, 0.0, 0.0, 0.0, 0.0, 0.0, 0.0, 1.6214221118842945E9, 2021-05-19 13:01:51.884
9.0, -105.68582916259766, -41.421260833740234, -49.23952102661133, 110.16436004638672, -0.04800000041723251, -0.08000000566244125, 0.0, 0.0, 0.0, 0.0, 0.0, 0.0, 1.6214221118850188E9, 2021-05-19 13:01:51.885
9.0, -61.54005432128906, 0.7947287559509277, -26.725324630737305, 152.29434204101562, -0.04800000041723251, -0.08000000566244125, 0.0, 0.0, 0.0, 0.0, 0.0, 0.0, 1.6214221118850188E9, 2021-05-19 13:01:51.885
10.0, -42.264610290527344, 42.08322525024414, -12.910134315490723, 156.24740600585938, -0.04800000041723251, -0.08000000566244125, 1.055999994277954, 0.0, 0.0, 0.0, 0.0, 0.0, 1.621422111898541E9, 2021-05-19 13:01:51.898
10.0, -93.01131439208984, 29.722854614257812, -44.78156280517578, 122.95481872558594, -0.04800000041723251, -0.08000000566244125, 1.055999994277954, 0.0, 0.0, 0.0, 0.0, 0.0, 1.621422111898541E9, 2021-05-19 13:01:51.898
11.0, -98.35936737060547, -40.08985900878906, -58.42471694946289, 117.8274154663086, -0.04800000041723251, -0.09600000083446503, 1.055999994277954, 0.0, 0.0, 0.0, 0.0, 0.0, 1.621422111914262E9, 2021-05-19 13:01:51.914
11.0, -49.56489562988281, 15.881484985351562, -35.77214431762695, 152.50750732421875, -0.04800000041723251, -0.09600000083446503, 1.055999994277954, 0.0, 0.0, 0.0, 0.0, 0.0, 1.621422111914262E9, 2021-05-19 13:01:51.914
12.0, -55.97882080078125, 37.01940155029297, -26.579469680786133, 160.5482940673828, -0.04800000041723251, -0.09600000083446503, 1.055999994277954, 0.0, 0.0, 0.0, 0.0, 0.0, 1.621422111914977E9, 2021-05-19 13:01:51.914
12.0, -78.69871520996094, 49.450828552246094, -42.43290328979492, 126.16365814208984, -0.04800000041723251, -0.09600000083446503, 1.055999994277954, 0.0, 0.0, 0.0, 0.0, 0.0, 1.621422111914977E9, 2021-05-19 13:01:51.914
13.0, -88.67676544189453, 67.20413208007812, -52.44835662841797, 118.30986785888672, -0.04800000041723251, -0.09600000083446503, 1.055999994277954, 0.0, 0.0, 0.0, 0.0, 0.0, 1.6214221119285884E9, 2021-05-19 13:01:51.928
13.0, -75.69557189941406, 38.25730514526367, -42.260868072509766, 142.97450256347656, -0.04800000041723251, -0.09600000083446503, 1.055999994277954, 0.0, 0.0, 0.0, 0.0, 0.0, 1.6214221119285884E9, 2021-05-19 13:01:51.928
14.0, -56.71184158325195, 55.24019241333008, -35.140098571777344, 150.71983337402344, -0.04800000041723251, -0.09600000083446503, 1.055999994277954, 0.0, 0.0, 0.0, 0.0, 0.0, 1.6214221119442492E9, 2021-05-19 13:01:51.944
14.0, -70.50833129882812, 68.76741027832031, -29.029104232788086, 133.47515869140625, -0.04800000041723251, -0.09600000083446503, 1.055999994277954, 0.0, 0.0, 0.0, 0.0, 0.0, 1.6214221119442492E9, 2021-05-19 13:01:51.944
15.0, -108.0419692993164, -4.231696605682373, -54.011634826660156, 119.39443969726562, -0.04800000041723251, -0.09600000083446503, 1.055999994277954, 0.0, 0.0, 0.0, 0.0, 0.0, 1.6214221119449456E9, 2021-05-19 13:01:51.944
15.0, -70.50459289550781, 62.742431640625, -32.772743225097656, 149.17152404785156, -0.04800000041723251, -0.09600000083446503, 1.055999994277954, 0.0, 0.0, 0.0, 0.0, 0.0, 1.6214221119449456E9, 2021-05-19 13:01:51.944
16.0, -67.8904037475586, 63.389434814453125, -20.775144577026367, 150.7086181640625, -0.04800000041723251, -0.09600000083446503, 1.055999994277954, 0.0, 0.0, 0.0, 0.0, 0.0, 1.6214221119586835E9, 2021-05-19 13:01:51.958
16.0, -90.89078521728516, 34.693180084228516, -41.7559814453125, 126.31324768066406, -0.04800000041723251, -0.09600000083446503, 1.055999994277954, 0.0, 0.0, 0.0, 0.0, 0.0, 1.6214221119586835E9, 2021-05-19 13:01:51.958
17.0, -97.08406066894531, 35.94231033325195, -44.602046966552734, 123.04084014892578, -0.04800000041723251, -0.09600000083446503, 1.055999994277954, 0.0, 0.0, 0.0, 0.0, 0.0, 1.6214221119743433E9, 2021-05-19 13:01:51.974
17.0, -72.5129165649414, 67.99324798583984, -26.175559997558594, 145.7869110107422, -0.04800000041723251, -0.09600000083446503, 1.055999994277954, 0.0, 0.0, 0.0, 0.0, 0.0, 1.6214221119743433E9, 2021-05-19 13:01:51.974
18.0, -73.03276824951172, 65.10978698730469, -27.058176040649414, 148.5993194580078, -0.04800000041723251, -0.09600000083446503, 1.055999994277954, 0.0, 0.0, 0.0, 0.0, 0.0, 1.6214221119749665E9, 2021-05-19 13:01:51.974
18.0, -88.14944458007812, 21.835405349731445, -35.394412994384766, 125.19876098632812, -0.04800000041723251, -0.09600000083446503, 1.055999994277954, 0.0, 0.0, 0.0, 0.0, 0.0, 1.6214221119749665E9, 2021-05-19 13:01:51.974
19.0, -102.60415649414062, 28.21193504333496, -42.70591735839844, 117.9657974243164, -0.04800000041723251, -0.09600000083446503, 1.055999994277954, 0.0, 0.0, 0.0, 0.0, 0.0, 1.621422111988626E9, 2021-05-19 13:01:51.988
19.0, -73.90042114257812, 67.65666198730469, -25.360261917114258, 149.02566528320312, -0.04800000041723251, -0.09600000083446503, 1.055999994277954, 0.0, 0.0, 0.0, 0.0, 0.0, 1.621422111988626E9, 2021-05-19 13:01:51.988
20.0, -76.40615844726562, 63.55398941040039, -22.839569091796875, 147.862548828125, -0.04800000041723251, -0.09600000083446503, 1.040000081062317, 0.0, 0.0, 0.0, 0.0, 0.0, 1.6214221120043213E9, 2021-05-19 13:01:52.004
20.0, -101.96836853027344, 18.892105102539062, -36.47150421142578, 118.38092041015625, -0.04800000041723251, -0.09600000083446503, 1.040000081062317, 0.0, 0.0, 0.0, 0.0, 0.0, 1.6214221120043213E9, 2021-05-19 13:01:52.004
21.0, -116.13885498046875, -2.1448326110839844, -43.173404693603516, 113.1488037109375, -0.04800000041723251, -0.09600000083446503, 1.040000081062317, 0.0, 0.0, 0.0, 0.0, 0.0, 1.62142211200505E9, 2021-05-19 13:01:52.005
21.0, -78.64261627197266, 24.045686721801758, -24.2906494140625, 142.93710327148438, -0.04800000041723251, -0.09600000083446503, 1.040000081062317, 0.0, 0.0, 0.0, 0.0, 0.0, 1.62142211200505E9, 2021-05-19 13:01:52.005
22.0, -63.312767028808594, 21.779308319091797, -17.41671371459961, 149.45201110839844, -0.04800000041723251, -0.09600000083446503, 1.040000081062317, 0.0, 0.0, 0.0, 0.0, 0.0, 1.6214221120355136E9, 2021-05-19 13:01:52.035
22.0, -94.97101593017578, -9.979923248291016, -37.541114807128906, 118.60531616210938, -0.04800000041723251, -0.09600000083446503, 1.040000081062317, 0.0, 0.0, 0.0, 0.0, 0.0, 1.6214221120355136E9, 2021-05-19 13:01:52.035
23.0, -103.65880584716797, -15.327980041503906, -34.717491149902344, 115.8602294921875, -0.04800000041723251, -0.09600000083446503, 1.040000081062317, 0.0, 0.0, 0.0, 0.0, 0.0, 1.6214221120361104E9, 2021-05-19 13:01:52.036
23.0, -76.17428588867188, 17.52330207824707, -21.64280128479004, 142.3611602783203, -0.04800000041723251, -0.09600000083446503, 1.040000081062317, 0.0, 0.0, 0.0, 0.0, 0.0, 1.6214221120361104E9, 2021-05-19 13:01:52.036
24.0, -57.69169616699219, 13.439330101013184, -13.557137489318848, 148.61427307128906, -0.04800000041723251, -0.09600000083446503, 1.040000081062317, 0.0, 0.0, 0.0, 0.0, 0.0, 1.6214221120511618E9, 2021-05-19 13:01:52.051
24.0, -82.1431655883789, -21.416536331176758, -20.782623291015625, 128.2467803955078, -0.04800000041723251, -0.09600000083446503, 1.040000081062317, 0.0, 0.0, 0.0, 0.0, 0.0, 1.6214221120511618E9, 2021-05-19 13:01:52.051
25.0, -86.41413116455078, -9.351619720458984, -18.43396759033203, 134.27923583984375, -0.04800000041723251, -0.09600000083446503, 1.040000081062317, 0.0, 0.0, 0.0, 0.0, 0.0, 1.6214221120518577E9, 2021-05-19 13:01:52.051
25.0, -60.6349983215332, 26.08019256591797, -5.980100154876709, 158.8428955078125, -0.04800000041723251, -0.09600000083446503, 1.040000081062317, 0.0, 0.0, 0.0, 0.0, 0.0, 1.6214221120518577E9, 2021-05-19 13:01:52.051
26.0, -61.16606521606445, 20.253427505493164, -6.286771774291992, 160.17430114746094, -0.04800000041723251, -0.09600000083446503, 1.040000081062317, 0.0, 0.0, 0.0, 0.0, 0.0, 1.6214221120643332E9, 2021-05-19 13:01:52.064
26.0, -91.59388732910156, -23.155590057373047, -27.24517059326172, 126.0963363647461, -0.04800000041723251, -0.09600000083446503, 1.040000081062317, 0.0, 0.0, 0.0, 0.0, 0.0, 1.6214221120643332E9, 2021-05-19 13:01:52.064
27.0, -97.42813110351562, -18.59665298461914, -28.490558624267578, 125.38575744628906, -0.04800000041723251, -0.09600000083446503, 1.040000081062317, 0.0, 0.0, 0.0, 0.0, 0.0, 1.6214221120650728E9, 2021-05-19 13:01:52.065
27.0, -74.2519760131836, 14.123732566833496, -12.932574272155762, 147.9971923828125, -0.04800000041723251, -0.09600000083446503, 1.040000081062317, 0.0, 0.0, 0.0, 0.0, 0.0, 1.6214221120650728E9, 2021-05-19 13:01:52.065
28.0, -68.44764709472656, 13.10647964477539, -5.680908203125, 159.0560760498047, -0.04800000041723251, -0.09600000083446503, 1.040000081062317, 0.0, 0.0, 0.0, 0.0, 0.0, 1.621422112078607E9, 2021-05-19 13:01:52.078
28.0, -93.07862854003906, -23.922269821166992, -22.40574073791504, 132.51400756835938, -0.04800000041723251, -0.09600000083446503, 1.040000081062317, 0.0, 0.0, 0.0, 0.0, 0.0, 1.621422112078607E9, 2021-05-19 13:01:52.078
29.0, -103.68872833251953, -22.05232048034668, -30.371726989746094, 118.85588836669922, -0.04800000041723251, -0.09600000083446503, 1.040000081062317, 0.0, 0.0, 0.0, 0.0, 0.0, 1.621422112094216E9, 2021-05-19 13:01:52.094
29.0, -75.5609359741211, 7.810781002044678, -7.296545028686523, 151.91661071777344, -0.04800000041723251, -0.09600000083446503, 1.040000081062317, 0.0, 0.0, 0.0, 0.0, 0.0, 1.621422112094216E9, 2021-05-19 13:01:52.094
30.0, -68.67951965332031, 8.162331581115723, -6.959953784942627, 155.1217041015625, -0.04800000041723251, -0.09600000083446503, 1.040000081062317, 0.0, 0.0, 0.0, 0.0, 0.0, 1.621422112094952E9, 2021-05-19 13:01:52.094
30.0, -95.70030212402344, -28.286733627319336, -15.011958122253418, 128.9685821533203, -0.04800000041723251, -0.09600000083446503, 1.040000081062317, 0.0, 0.0, 0.0, 0.0, 0.0, 1.621422112094952E9, 2021-05-19 13:01:52.094
31.0, -96.19022369384766, -23.29396629333496, -21.0219783782959, 123.28767395019531, -0.04800000041723251, -0.08000000566244125, 1.040000081062317, 0.0, 0.0, 0.0, 0.0, 0.0, 1.6214221121085463E9, 2021-05-19 13:01:52.108
31.0, -76.1219253540039, 9.86772632598877, -4.532758712768555, 150.67495727539062, -0.04800000041723251, -0.08000000566244125, 1.040000081062317, 0.0, 0.0, 0.0, 0.0, 0.0, 1.6214221121085463E9, 2021-05-19 13:01:52.108
32.0, -64.98450469970703, 14.808134078979492, -1.8549903631210327, 163.09890747070312, -0.04800000041723251, -0.08000000566244125, 1.040000081062317, 0.0, 0.0, 0.0, 0.0, 0.0, 1.6214221121242857E9, 2021-05-19 13:01:52.124
32.0, -99.81793212890625, -21.334259033203125, -16.691173553466797, 125.88316345214844, -0.04800000041723251, -0.08000000566244125, 1.040000081062317, 0.0, 0.0, 0.0, 0.0, 0.0, 1.6214221121242857E9, 2021-05-19 13:01:52.124
33.0, -107.77643585205078, -22.557207107543945, -16.885648727416992, 120.66600036621094, -0.04800000041723251, -0.08000000566244125, 1.040000081062317, 0.0, 0.0, 0.0, 0.0, 0.0, 1.6214221121249793E9, 2021-05-19 13:01:52.124
33.0, -79.07270812988281, 10.18935775756836, -5.856683254241943, 153.57337951660156, -0.04800000041723251, -0.08000000566244125, 1.040000081062317, 0.0, 0.0, 0.0, 0.0, 0.0, 1.6214221121249793E9, 2021-05-19 13:01:52.124
34.0, -69.23677062988281, 17.912250518798828, 5.583670616149902, 157.24595642089844, -0.04800000041723251, -0.08000000566244125, 1.040000081062317, 0.0, 0.0, 0.0, 0.0, 0.0, 1.6214221121386175E9, 2021-05-19 13:01:52.138
34.0, -97.61512756347656, -18.09550666809082, -13.224286079406738, 128.201904296875, -0.04800000041723251, -0.08000000566244125, 1.040000081062317, 0.0, 0.0, 0.0, 0.0, 0.0, 1.6214221121386175E9, 2021-05-19 13:01:52.138
35.0, -104.75833892822266, -22.785341262817383, -22.099069595336914, 122.262939453125, -0.04800000041723251, -0.08000000566244125, 1.040000081062317, 0.0, 0.0, 0.0, 0.0, 0.0, 1.621422112154791E9, 2021-05-19 13:01:52.154
35.0, -77.28129577636719, 16.378890991210938, -0.9162755012512207, 147.1482391357422, -0.04800000041723251, -0.08000000566244125, 1.040000081062317, 0.0, 0.0, 0.0, 0.0, 0.0, 1.621422112154791E9, 2021-05-19 13:01:52.154
36.0, -71.58916473388672, 15.028787612915039, 1.4510811567306519, 148.43849182128906, -0.04800000041723251, -0.08000000566244125, 1.040000081062317, 0.0, 0.0, 0.0, 0.0, 0.0, 1.6214221121703708E9, 2021-05-19 13:01:52.170
36.0, -105.18094635009766, -18.720069885253906, -14.155521392822266, 120.61363983154297, -0.04800000041723251, -0.08000000566244125, 1.040000081062317, 0.0, 0.0, 0.0, 0.0, 0.0, 1.6214221121703708E9, 2021-05-19 13:01:52.170
37.0, -99.29060363769531, -15.159684181213379, -15.37472915649414, 119.42435455322266, -0.04800000041723251, -0.08000000566244125, 1.040000081062317, 0.0, 0.0, 0.0, 0.0, 0.0, 1.6214221121711314E9, 2021-05-19 13:01:52.171
37.0, -73.94904327392578, 17.72899627685547, -6.75425910949707, 144.2647705078125, -0.04800000041723251, -0.08000000566244125, 1.040000081062317, 0.0, 0.0, 0.0, 0.0, 0.0, 1.6214221121711314E9, 2021-05-19 13:01:52.171
38.0, -71.89209747314453, 22.95737648010254, 7.08711051940918, 150.35333251953125, -0.04800000041723251, -0.08000000566244125, 1.040000081062317, 0.0, 0.0, 0.0, 0.0, 0.0, 1.6214221121843505E9, 2021-05-19 13:01:52.184
38.0, -97.04666137695312, -12.010688781738281, -9.544224739074707, 128.2467803955078, -0.04800000041723251, -0.08000000566244125, 1.040000081062317, 0.0, 0.0, 0.0, 0.0, 0.0, 1.6214221121843505E9, 2021-05-19 13:01:52.184
39.0, -101.9384536743164, -12.048088073730469, -19.35772132873535, 116.78772735595703, -0.04800000041723251, -0.08000000566244125, 1.040000081062317, 0.0, 0.0, 0.0, 0.0, 0.0, 1.6214221121850765E9, 2021-05-19 13:01:52.185
39.0, -80.09369659423828, 21.700769424438477, -3.7137205600738525, 143.6215057373047, -0.04800000041723251, -0.08000000566244125, 1.040000081062317, 0.0, 0.0, 0.0, 0.0, 0.0, 1.6214221121850765E9, 2021-05-19 13:01:52.185
40.0, -72.51666259765625, 24.019508361816406, 1.9260485172271729, 151.61741638183594, -0.04800000041723251, -0.08000000566244125, 1.040000081062317, 0.0, 0.0, 0.0, 0.0, 0.0, 1.6214221121985614E9, 2021-05-19 13:01:52.198
40.0, -95.76387786865234, -13.439330101013184, -15.905794143676758, 122.1395263671875, -0.04800000041723251, -0.08000000566244125, 1.040000081062317, 0.0, 0.0, 0.0, 0.0, 0.0, 1.6214221121985614E9, 2021-05-19 13:01:52.198
41.0, -95.96957397460938, 1.265956163406372, -10.120169639587402, 126.66480255126953, -0.04800000041723251, -0.08000000566244125, 1.040000081062317, 0.0, 0.0, 0.0, 0.0, 0.0, 1.6214221122142544E9, 2021-05-19 13:01:52.214
41.0, -81.98234558105469, 35.7515754699707, -1.8138514757156372, 148.76760864257812, -0.04800000041723251, -0.08000000566244125, 1.040000081062317, 0.0, 0.0, 0.0, 0.0, 0.0, 1.6214221122142544E9, 2021-05-19 13:01:52.214
42.0, -70.68411254882812, 26.285886764526367, -2.337437391281128, 155.01324462890625, -0.04800000041723251, -0.08000000566244125, 1.040000081062317, 0.0, 0.0, 0.0, 0.0, 0.0, 1.621422112214954E9, 2021-05-19 13:01:52.214
42.0, -94.25669860839844, -5.690257549285889, -10.049111366271973, 133.3816680908203, -0.04800000041723251, -0.08000000566244125, 1.040000081062317, 0.0, 0.0, 0.0, 0.0, 0.0, 1.621422112214954E9, 2021-05-19 13:01:52.214
43.0, -96.6764144897461, -6.868326187133789, -15.206433296203613, 129.2976837158203, -0.04800000041723251, -0.08000000566244125, 1.040000081062317, 0.0, 0.0, 0.0, 0.0, 0.0, 1.6214221122285917E9, 2021-05-19 13:01:52.228
43.0, -81.25306701660156, 27.84542465209961, -5.976360321044922, 148.95460510253906, -0.04800000041723251, -0.08000000566244125, 1.040000081062317, 0.0, 0.0, 0.0, 0.0, 0.0, 1.6214221122285917E9, 2021-05-19 13:01:52.228
44.0, -61.925262451171875, 24.846025466918945, 1.6455559730529785, 153.6743621826172, -0.04800000041723251, -0.08000000566244125, 1.040000081062317, 0.0, 0.0, 0.0, 0.0, 0.0, 1.6214221122769592E9, 2021-05-19 13:01:52.276
44.0, -89.94459533691406, -9.216983795166016, -3.051758289337158, 129.95965576171875, -0.04800000041723251, -0.08000000566244125, 1.040000081062317, 0.0, 0.0, 0.0, 0.0, 0.0, 1.6214221122769592E9, 2021-05-19 13:01:52.276
45.0, -89.92215728759766, -16.23677635192871, -13.688034057617188, 124.24134826660156, -0.04800000041723251, -0.08000000566244125, 1.040000081062317, 0.0, 0.0, 0.0, 0.0, 0.0, 1.6214221122776625E9, 2021-05-19 13:01:52.277
45.0, -63.7278938293457, 21.21084213256836, 4.592597007751465, 150.4468231201172, -0.04800000041723251, -0.08000000566244125, 1.040000081062317, 0.0, 0.0, 0.0, 0.0, 0.0, 1.6214221122776625E9, 2021-05-19 13:01:52.277
46.0, -61.973880767822266, 18.147865295410156, 7.722893238067627, 155.8472442626953, -0.04800000041723251, -0.08000000566244125, 1.040000081062317, 0.0, 0.0, 0.0, 0.0, 0.0, 1.6214221122784295E9, 2021-05-19 13:01:52.278
46.0, -85.15752410888672, -18.514373779296875, -9.297390937805176, 127.76433563232422, -0.04800000041723251, -0.08000000566244125, 1.040000081062317, 0.0, 0.0, 0.0, 0.0, 0.0, 1.6214221122784295E9, 2021-05-19 13:01:52.278
47.0, -94.028564453125, -17.411104202270508, -6.836536884307861, 127.28936767578125, -0.04800000041723251, -0.08000000566244125, 1.040000081062317, 0.0, 0.0, 0.0, 0.0, 0.0, 1.621422112279144E9, 2021-05-19 13:01:52.279
47.0, -71.02818298339844, 14.030234336853027, 1.1331896781921387, 149.1827392578125, -0.04800000041723251, -0.08000000566244125, 1.040000081062317, 0.0, 0.0, 0.0, 0.0, 0.0, 1.621422112279144E9, 2021-05-19 13:01:52.279
48.0, -58.89968490600586, 6.733689785003662, 5.897822380065918, 158.18093872070312, -0.04800000041723251, -0.08000000566244125, 1.040000081062317, 0.0, 0.0, 0.0, 0.0, 0.0, 1.6214221122892752E9, 2021-05-19 13:01:52.289
48.0, -75.48988342285156, -18.08802604675293, -0.34033089876174927, 133.27320861816406, -0.04800000041723251, -0.08000000566244125, 1.040000081062317, 0.0, 0.0, 0.0, 0.0, 0.0, 1.6214221122892752E9, 2021-05-19 13:01:52.289
49.0, -93.9238510131836, -32.688594818115234, -15.363509178161621, 124.41338348388672, -0.04800000041723251, -0.08000000566244125, 1.040000081062317, 0.0, 0.0, 0.0, 0.0, 0.0, 1.6214221122899868E9, 2021-05-19 13:01:52.289
49.0, -64.19538116455078, 7.627525806427002, -2.9732203483581543, 151.5126953125, -0.04800000041723251, -0.08000000566244125, 1.040000081062317, 0.0, 0.0, 0.0, 0.0, 0.0, 1.6214221122899868E9, 2021-05-19 13:01:52.289
50.0, -56.494930267333984, 4.990896701812744, 5.276998996734619, 163.75338745117188, -0.04800000041723251, -0.08000000566244125, 1.040000081062317, 0.0, 0.0, 0.0, 0.0, 0.0, 1.6214221123042288E9, 2021-05-19 13:01:52.304
50.0, -84.2524642944336, -27.602331161499023, -2.670288562774658, 141.8562774658203, -0.04800000041723251, -0.08000000566244125, 1.040000081062317, 0.0, 0.0, 0.0, 0.0, 0.0, 1.6214221123042288E9, 2021-05-19 13:01:52.304
51.0, -93.93880462646484, -40.54986572265625, -15.554244041442871, 126.95277404785156, -0.04800000041723251, -0.08000000566244125, 1.040000081062317, 0.0, 0.0, 0.0, 0.0, 0.0, 1.6214221123050396E9, 2021-05-19 13:01:52.305
51.0, -66.7459945678711, -2.657198905944824, 1.1855483055114746, 153.04978942871094, -0.04800000041723251, -0.08000000566244125, 1.040000081062317, 0.0, 0.0, 0.0, 0.0, 0.0, 1.6214221123050396E9, 2021-05-19 13:01:52.305
52.0, -55.496376037597656, -11.232789993286133, 9.701300621032715, 167.0258026123047, -0.04800000041723251, -0.08000000566244125, 1.040000081062317, 0.0, 0.0, 0.0, 0.0, 0.0, 1.6214221123186824E9, 2021-05-19 13:01:52.318
52.0, -80.38915252685547, -37.53924560546875, -1.2491265535354614, 144.2685089111328, -0.04800000041723251, -0.08000000566244125, 1.040000081062317, 0.0, 0.0, 0.0, 0.0, 0.0, 1.6214221123186824E9, 2021-05-19 13:01:52.318
53.0, -92.8617172241211, -46.26069259643555, -11.257099151611328, 127.97377014160156, -0.04800000041723251, -0.08000000566244125, 1.040000081062317, 0.0, 0.0, 0.0, 0.0, 0.0, 1.621422112334323E9, 2021-05-19 13:01:52.334
53.0, -63.690494537353516, -6.75986909866333, 1.6231166124343872, 159.8676300048828, -0.04800000041723251, -0.08000000566244125, 1.040000081062317, 0.0, 0.0, 0.0, 0.0, 0.0, 1.621422112334323E9, 2021-05-19 13:01:52.334
54.0, -49.942623138427734, -1.0378222465515137, 17.697206497192383, 169.59510803222656, -0.04800000041723251, -0.08000000566244125, 1.040000081062317, 0.0, 0.0, 0.0, 0.0, 0.0, 1.6214221123350449E9, 2021-05-19 13:01:52.335
54.0, -83.10431671142578, -44.2149658203125, -2.879723072052002, 141.5533447265625, -0.04800000041723251, -0.08000000566244125, 1.040000081062317, 0.0, 0.0, 0.0, 0.0, 0.0, 1.6214221123350449E9, 2021-05-19 13:01:52.335
55.0, -91.72478485107422, -49.34611129760742, -10.33708381652832, 131.02552795410156, -0.04800000041723251, -0.08000000566244125, 1.040000081062317, 0.0, 0.0, 0.0, 0.0, 0.0, 1.6214221123485675E9, 2021-05-19 13:01:52.348
55.0, -65.2425537109375, -17.964609146118164, -2.9507811069488525, 155.99310302734375, -0.04800000041723251, -0.08000000566244125, 1.040000081062317, 0.0, 0.0, 0.0, 0.0, 0.0, 1.6214221123485675E9, 2021-05-19 13:01:52.348
56.0, -54.052772521972656, -5.858553409576416, 13.41128158569336, 172.0858917236328, -0.04800000041723251, -0.08000000566244125, 1.040000081062317, 0.0, 0.0, 0.0, 0.0, 0.0, 1.6214221123813016E9, 2021-05-19 13:01:52.381
56.0, -82.99585723876953, -47.37144088745117, -12.405247688293457, 141.94602966308594, -0.04800000041723251, -0.08000000566244125, 1.040000081062317, 0.0, 0.0, 0.0, 0.0, 0.0, 1.6214221123813016E9, 2021-05-19 13:01:52.381
57.0, -89.68280029296875, -57.60007095336914, -15.195213317871094, 136.1342315673828, -0.04800000041723251, -0.08000000566244125, 1.040000081062317, 0.0, 0.0, 0.0, 0.0, 0.0, 1.6214221123820448E9, 2021-05-19 13:01:52.382
57.0, -61.742008209228516, -19.726102828979492, 0.5385456085205078, 161.66278076171875, -0.04800000041723251, -0.08000000566244125, 1.040000081062317, 0.0, 0.0, 0.0, 0.0, 0.0, 1.6214221123820448E9, 2021-05-19 13:01:52.382
58.0, -45.68287658691406, -12.941924095153809, 10.415621757507324, 173.41729736328125, -0.04800000041723251, -0.08000000566244125, 1.040000081062317, 0.0, 0.0, 0.0, 0.0, 0.0, 1.6214221123827555E9, 2021-05-19 13:01:52.382
58.0, -77.15039825439453, -51.75834655761719, -2.064424753189087, 142.2377471923828, -0.04800000041723251, -0.08000000566244125, 1.040000081062317, 0.0, 0.0, 0.0, 0.0, 0.0, 1.6214221123827555E9, 2021-05-19 13:01:52.382
59.0, -92.42041015625, -61.84111404418945, -12.401508331298828, 126.20479583740234, -0.04800000041723251, -0.08000000566244125, 1.040000081062317, 0.0, 0.0, 0.0, 0.0, 0.0, 1.621422112383519E9, 2021-05-19 13:01:52.383
59.0, -62.781700134277344, -20.417984008789062, 9.630242347717285, 157.33946228027344, -0.04800000041723251, -0.08000000566244125, 1.040000081062317, 0.0, 0.0, 0.0, 0.0, 0.0, 1.621422112383519E9, 2021-05-19 13:01:52.383
60.0, -41.03044128417969, -20.19359016418457, 16.014251708984375, 168.86209106445312, -0.04800000041723251, -0.08000000566244125, 1.055999994277954, 0.0, 0.0, 0.0, 0.0, 0.0, 1.6214221123935375E9, 2021-05-19 13:01:52.393
60.0, -82.25910186767578, -54.63058853149414, -10.583916664123535, 140.44259643554688, -0.04800000041723251, -0.08000000566244125, 1.055999994277954, 0.0, 0.0, 0.0, 0.0, 0.0, 1.6214221123935375E9, 2021-05-19 13:01:52.393
61.0, -95.1542739868164, -69.50042724609375, -16.960445404052734, 126.20105743408203, -0.04800000041723251, -0.08000000566244125, 1.055999994277954, 0.0, 0.0, 0.0, 0.0, 0.0, 1.6214221124086587E9, 2021-05-19 13:01:52.408
61.0, -56.85770034790039, -29.793912887573242, 4.850650310516357, 159.29168701171875, -0.04800000041723251, -0.08000000566244125, 1.055999994277954, 0.0, 0.0, 0.0, 0.0, 0.0, 1.6214221124086587E9, 2021-05-19 13:01:52.408
62.0, -45.17051315307617, -25.133996963500977, 10.9130277633667, 166.69668579101562, -0.04800000041723251, -0.08000000566244125, 1.055999994277954, 0.0, 0.0, 0.0, 0.0, 0.0, 1.621422112441291E9, 2021-05-19 13:01:52.441
62.0, -79.31954193115234, -46.65712356567383, 5.845463752746582, 144.50411987304688, -0.04800000041723251, -0.08000000566244125, 1.055999994277954, 0.0, 0.0, 0.0, 0.0, 0.0, 1.621422112441291E9, 2021-05-19 13:01:52.441
63.0, -95.75265502929688, -65.50247955322266, -13.676814079284668, 127.46887969970703, -0.04800000041723251, -0.08000000566244125, 1.055999994277954, 0.0, 0.0, 0.0, 0.0, 0.0, 1.6214221124419844E9, 2021-05-19 13:01:52.441
63.0, -63.37260437011719, -28.395191192626953, 1.5445786714553833, 157.3282470703125, -0.04800000041723251, -0.08000000566244125, 1.055999994277954, 0.0, 0.0, 0.0, 0.0, 0.0, 1.6214221124419844E9, 2021-05-19 13:01:52.441
64.0, -46.606632232666016, -28.4512882232666, 13.415020942687988, 160.3762664794922, -0.04800000041723251, -0.08000000566244125, 1.055999994277954, 0.0, 0.0, 0.0, 0.0, 0.0, 1.6214221124427893E9, 2021-05-19 13:01:52.442
64.0, -79.88052368164062, -60.4648323059082, 5.460253715515137, 140.55479431152344, -0.04800000041723251, -0.08000000566244125, 1.055999994277954, 0.0, 0.0, 0.0, 0.0, 0.0, 1.6214221124427893E9, 2021-05-19 13:01:52.442
65.0, -90.46443939208984, -74.1266860961914, -1.8699499368667603, 128.60580444335938, -0.04800000041723251, -0.08000000566244125, 1.055999994277954, 0.0, 0.0, 0.0, 0.0, 0.0, 1.6214221124435477E9, 2021-05-19 13:01:52.443
65.0, -56.13589859008789, -32.329566955566406, 17.85428237915039, 166.8275909423828, -0.04800000041723251, -0.08000000566244125, 1.055999994277954, 0.0, 0.0, 0.0, 0.0, 0.0, 1.6214221124435477E9, 2021-05-19 13:01:52.443
66.0, -51.54330062866211, -36.21906280517578, 14.421053886413574, 171.0087890625, -0.04800000041723251, -0.08000000566244125, 1.055999994277954, 0.0, 0.0, 0.0, 0.0, 0.0, 1.6214221124536862E9, 2021-05-19 13:01:52.453
66.0, -74.45018768310547, -66.90868377685547, -1.8175914287567139, 136.23146057128906, -0.04800000041723251, -0.08000000566244125, 1.055999994277954, 0.0, 0.0, 0.0, 0.0, 0.0, 1.6214221124536862E9, 2021-05-19 13:01:52.453
67.0, -89.91093444824219, -72.38389587402344, -8.811203956604004, 128.45620727539062, -0.04800000041723251, -0.08000000566244125, 1.055999994277954, 0.0, 0.0, 0.0, 0.0, 0.0, 1.6214221124686549E9, 2021-05-19 13:01:52.468
67.0, -71.6677017211914, -36.81370544433594, 0.5759446024894714, 157.73214721679688, -0.04800000041723251, -0.08000000566244125, 1.055999994277954, 0.0, 0.0, 0.0, 0.0, 0.0, 1.6214221124686549E9, 2021-05-19 13:01:52.468
68.0, -54.924171447753906, -36.37987518310547, 13.878768920898438, 169.30340576171875, -0.04800000041723251, -0.08000000566244125, 1.055999994277954, 0.0, 0.0, 0.0, 0.0, 0.0, 1.6214221124849494E9, 2021-05-19 13:01:52.484
68.0, -80.50508880615234, -67.05453491210938, -3.724940299987793, 148.00840759277344, -0.04800000041723251, -0.08000000566244125, 1.055999994277954, 0.0, 0.0, 0.0, 0.0, 0.0, 1.6214221124849494E9, 2021-05-19 13:01:52.484
69.0, -88.65058898925781, -72.94861602783203, -12.9961519241333, 133.29190063476562, -0.04800000041723251, -0.08000000566244125, 1.055999994277954, 0.0, 0.0, 0.0, 0.0, 0.0, 1.6214221124856665E9, 2021-05-19 13:01:52.485
69.0, -55.7880859375, -42.06452560424805, 2.1280031204223633, 158.69705200195312, -0.04800000041723251, -0.08000000566244125, 1.055999994277954, 0.0, 0.0, 0.0, 0.0, 0.0, 1.6214221124856665E9, 2021-05-19 13:01:52.485
70.0, -48.87301254272461, -42.629249572753906, 11.92280101776123, 167.08938598632812, -0.04800000041723251, -0.08000000566244125, 1.055999994277954, 0.0, 0.0, 0.0, 0.0, 0.0, 1.62142211249867E9, 2021-05-19 13:01:52.498
70.0, -77.98065185546875, -74.39595794677734, 2.169142007827759, 144.95664978027344, -0.04800000041723251, -0.08000000566244125, 1.055999994277954, 0.0, 0.0, 0.0, 0.0, 0.0, 1.62142211249867E9, 2021-05-19 13:01:52.498
71.0, -90.55046081542969, -82.46666717529297, -10.475460052490234, 132.2671661376953, -0.04800000041723251, -0.08000000566244125, 1.055999994277954, 0.0, 0.0, 0.0, 0.0, 0.0, 1.6214221125306134E9, 2021-05-19 13:01:52.530
71.0, -52.63161087036133, -34.40895080566406, 7.292804718017578, 169.20616149902344, -0.04800000041723251, -0.08000000566244125, 1.055999994277954, 0.0, 0.0, 0.0, 0.0, 0.0, 1.6214221125306134E9, 2021-05-19 13:01:52.530
72.0, -49.29936218261719, -37.703800201416016, 9.06551742553711, 170.14862060546875, -0.04800000041723251, -0.08000000566244125, 1.055999994277954, 0.0, 0.0, 0.0, 0.0, 0.0, 1.6214221125314014E9, 2021-05-19 13:01:52.531
72.0, -77.98439025878906, -74.15660858154297, -2.4608540534973145, 144.91551208496094, -0.04800000041723251, -0.08000000566244125, 1.055999994277954, 0.0, 0.0, 0.0, 0.0, 0.0, 1.6214221125314014E9, 2021-05-19 13:01:52.531
73.0, -85.20987701416016, -79.7253189086914, -8.055744171142578, 134.49989318847656, -0.04800000041723251, -0.08000000566244125, 1.055999994277954, 0.0, 0.0, 0.0, 0.0, 0.0, 1.6214221125321517E9, 2021-05-19 13:01:52.532
73.0, -70.11190795898438, -47.04233169555664, 3.2237937450408936, 165.2605743408203, -0.04800000041723251, -0.08000000566244125, 1.055999994277954, 0.0, 0.0, 0.0, 0.0, 0.0, 1.6214221125321517E9, 2021-05-19 13:01:52.532
74.0, -57.355106353759766, -48.78886413574219, 9.708780288696289, 174.36721801757812, -0.04800000041723251, -0.08000000566244125, 1.055999994277954, 0.0, 0.0, 0.0, 0.0, 0.0, 1.6214221125329187E9, 2021-05-19 13:01:52.532
74.0, -81.24559020996094, -86.84234619140625, -9.31235122680664, 143.30361938476562, -0.04800000041723251, -0.08000000566244125, 1.055999994277954, 0.0, 0.0, 0.0, 0.0, 0.0, 1.6214221125329187E9, 2021-05-19 13:01:52.532
75.0, -89.21531677246094, -92.74765014648438, -19.626995086669922, 137.55538940429688, -0.04800000041723251, -0.08000000566244125, 1.055999994277954, 0.0, 0.0, 0.0, 0.0, 0.0, 1.6214221125592988E9, 2021-05-19 13:01:52.559
75.0, -71.40216827392578, -59.08106994628906, -7.341423511505127, 160.44357299804688, -0.04800000041723251, -0.08000000566244125, 1.055999994277954, 0.0, 0.0, 0.0, 0.0, 0.0, 1.6214221125592988E9, 2021-05-19 13:01:52.559
76.0, -56.584686279296875, -54.989620208740234, -3.5416853427886963, 176.7682342529297, -0.04800000041723251, -0.08000000566244125, 1.055999994277954, 0.0, 0.0, 0.0, 0.0, 0.0, 1.6214221125600157E9, 2021-05-19 13:01:52.560
76.0, -81.33534240722656, -99.70760345458984, -21.014497756958008, 144.0628204345703, -0.04800000041723251, -0.08000000566244125, 1.055999994277954, 0.0, 0.0, 0.0, 0.0, 0.0, 1.6214221125600157E9, 2021-05-19 13:01:52.560
77.0, -95.30013275146484, -94.38198852539062, -27.342409133911133, 128.38140869140625, -0.04800000041723251, -0.08000000566244125, 1.055999994277954, 0.0, 0.0, 0.0, 0.0, 0.0, 1.621422112574432E9, 2021-05-19 13:01:52.574
77.0, -62.82658004760742, -60.528411865234375, -4.353243350982666, 161.41969299316406, -0.04800000041723251, -0.08000000566244125, 1.055999994277954, 0.0, 0.0, 0.0, 0.0, 0.0, 1.621422112574432E9, 2021-05-19 13:01:52.574
78.0, -50.574668884277344, -64.04391479492188, 0.4974066913127899, 168.1702117919922, -0.04800000041723251, -0.08000000566244125, 1.055999994277954, 0.0, 0.0, 0.0, 0.0, 0.0, 1.6214221125751884E9, 2021-05-19 13:01:52.575
78.0, -73.86302185058594, -97.80025482177734, -10.3258638381958, 143.68508911132812, -0.04800000041723251, -0.08000000566244125, 1.055999994277954, 0.0, 0.0, 0.0, 0.0, 0.0, 1.6214221125751884E9, 2021-05-19 13:01:52.575
79.0, -82.3039779663086, -103.36522674560547, -23.88300132751465, 127.99620819091797, -0.04800000041723251, -0.08000000566244125, 1.055999994277954, 0.0, 0.0, 0.0, 0.0, 0.0, 1.6214221125886407E9, 2021-05-19 13:01:52.588
79.0, -63.59700012207031, -67.79877471923828, -1.3426240682601929, 159.5235595703125, -0.04800000041723251, -0.08000000566244125, 1.055999994277954, 0.0, 0.0, 0.0, 0.0, 0.0, 1.6214221125886407E9, 2021-05-19 13:01:52.588
80.0, -38.494789123535156, -57.383155822753906, 8.74014663696289, 171.6445770263672, -0.04800000041723251, -0.08000000566244125, 1.040000081062317, 0.0, 0.0, 0.0, 0.0, 0.0, 1.621422112604996E9, 2021-05-19 13:01:52.604
80.0, -71.95941162109375, -94.40442657470703, -10.221146583557129, 144.3507843017578, -0.04800000041723251, -0.08000000566244125, 1.040000081062317, 0.0, 0.0, 0.0, 0.0, 0.0, 1.621422112604996E9, 2021-05-19 13:01:52.604
81.0, -95.2365493774414, -106.4655990600586, -16.055391311645508, 133.4115753173828, -0.04800000041723251, -0.09600000083446503, 1.040000081062317, 0.0, 0.0, 0.0, 0.0, 0.0, 1.6214221126056943E9, 2021-05-19 13:01:52.605
81.0, -68.1708984375, -77.41031646728516, -9.899515151977539, 160.01348876953125, -0.04800000041723251, -0.09600000083446503, 1.040000081062317, 0.0, 0.0, 0.0, 0.0, 0.0, 1.6214221126056943E9, 2021-05-19 13:01:52.605
82.0, -57.89739227294922, -76.23225402832031, -2.9470412731170654, 168.78729248046875, -0.04800000041723251, -0.09600000083446503, 1.040000081062317, 0.0, 0.0, 0.0, 0.0, 0.0, 1.6214221126185737E9, 2021-05-19 13:01:52.618
82.0, -83.0257797241211, -110.60941314697266, -18.66584014892578, 146.65457153320312, -0.04800000041723251, -0.09600000083446503, 1.040000081062317, 0.0, 0.0, 0.0, 0.0, 0.0, 1.6214221126185737E9, 2021-05-19 13:01:52.618
83.0, -93.87896728515625, -113.22360229492188, -28.045509338378906, 133.7220001220703, -0.04800000041723251, -0.09600000083446503, 1.040000081062317, 0.0, 0.0, 0.0, 0.0, 0.0, 1.621422112634334E9, 2021-05-19 13:01:52.634
83.0, -65.23507690429688, -80.63785552978516, -13.048510551452637, 158.50631713867188, -0.04800000041723251, -0.09600000083446503, 1.040000081062317, 0.0, 0.0, 0.0, 0.0, 0.0, 1.621422112634334E9, 2021-05-19 13:01:52.634
84.0, -54.49034118652344, -85.77273559570312, -4.155028820037842, 166.29278564453125, -0.04800000041723251, -0.09600000083446503, 1.040000081062317, 0.0, 0.0, 0.0, 0.0, 0.0, 1.621422112635086E9, 2021-05-19 13:01:52.635
84.0, -65.3435287475586, -105.85599517822266, -9.346010208129883, 147.1407470703125, -0.04800000041723251, -0.09600000083446503, 1.040000081062317, 0.0, 0.0, 0.0, 0.0, 0.0, 1.621422112635086E9, 2021-05-19 13:01:52.635
85.0, -80.58736419677734, -114.51387023925781, -19.215606689453125, 131.3770751953125, -0.04800000041723251, -0.09600000083446503, 1.040000081062317, 0.0, 0.0, 0.0, 0.0, 0.0, 1.6214221126485565E9, 2021-05-19 13:01:52.648
85.0, -60.18246841430664, -75.86573791503906, -4.5252790451049805, 153.19564819335938, -0.04800000041723251, -0.09600000083446503, 1.040000081062317, 0.0, 0.0, 0.0, 0.0, 0.0, 1.6214221126485565E9, 2021-05-19 13:01:52.648
86.0, -51.864933013916016, -70.26336669921875, 6.967433452606201, 167.2838592529297, -0.04800000041723251, -0.09600000083446503, 1.040000081062317, 0.0, 0.0, 0.0, 0.0, 0.0, 1.6214221126797564E9, 2021-05-19 13:01:52.679
86.0, -81.05485534667969, -111.55186462402344, -6.668241500854492, 141.83009338378906, -0.04800000041723251, -0.09600000083446503, 1.040000081062317, 0.0, 0.0, 0.0, 0.0, 0.0, 1.6214221126797564E9, 2021-05-19 13:01:52.679
87.0, -88.43741607666016, -106.95552825927734, -12.932574272155762, 132.8992156982422, -0.04800000041723251, -0.09600000083446503, 1.040000081062317, 0.0, 0.0, 0.0, 0.0, 0.0, 1.6214221126804037E9, 2021-05-19 13:01:52.680
87.0, -63.211788177490234, -78.68562316894531, 0.6245632767677307, 159.34030151367188, -0.04800000041723251, -0.09600000083446503, 1.040000081062317, 0.0, 0.0, 0.0, 0.0, 0.0, 1.6214221126804037E9, 2021-05-19 13:01:52.680
88.0, -53.21129608154297, -70.54386138916016, 7.8724894523620605, 174.17648315429688, -0.04800000041723251, -0.09600000083446503, 1.040000081062317, 0.0, 0.0, 0.0, 0.0, 0.0, 1.6214221126950705E9, 2021-05-19 13:01:52.695
88.0, -70.62801361083984, -104.1356430053711, -6.036198616027832, 154.8262481689453, -0.04800000041723251, -0.09600000083446503, 1.040000081062317, 0.0, 0.0, 0.0, 0.0, 0.0, 1.6214221126950705E9, 2021-05-19 13:01:52.695
89.0, -93.09358978271484, -112.0679702758789, -22.132728576660156, 139.12240600585938, -0.04800000041723251, -0.09600000083446503, 1.040000081062317, 0.0, 0.0, 0.0, 0.0, 0.0, 1.6214221126956837E9, 2021-05-19 13:01:52.695
89.0, -70.25402069091797, -79.24286651611328, -10.97286605834961, 160.585693359375, -0.04800000041723251, -0.09600000083446503, 1.040000081062317, 0.0, 0.0, 0.0, 0.0, 0.0, 1.6214221126956837E9, 2021-05-19 13:01:52.695
90.0, -53.90317916870117, -78.09471893310547, 1.1481492519378662, 179.4086151123047, -0.04800000041723251, -0.09600000083446503, 1.040000081062317, 0.0, 0.0, 0.0, 0.0, 0.0, 1.621422112696359E9, 2021-05-19 13:01:52.696
90.0, -75.16451263427734, -109.22564697265625, -18.06745719909668, 151.10879516601562, -0.04800000041723251, -0.09600000083446503, 1.040000081062317, 0.0, 0.0, 0.0, 0.0, 0.0, 1.621422112696359E9, 2021-05-19 13:01:52.696
91.0, -95.60306549072266, -122.71546936035156, -31.938745498657227, 130.6926727294922, -0.04800000041723251, -0.08000000566244125, 1.040000081062317, 0.0, 0.0, 0.0, 0.0, 0.0, 1.621422112708608E9, 2021-05-19 13:01:52.708
91.0, -71.77616119384766, -85.61566162109375, -16.380762100219727, 163.18865966796875, -0.04800000041723251, -0.08000000566244125, 1.040000081062317, 0.0, 0.0, 0.0, 0.0, 0.0, 1.621422112708608E9, 2021-05-19 13:01:52.708
92.0, -53.35715103149414, -77.84414672851562, -6.279292106628418, 176.20726013183594, -0.04800000041723251, -0.08000000566244125, 1.040000081062317, 0.0, 0.0, 0.0, 0.0, 0.0, 1.6214221127413657E9, 2021-05-19 13:01:52.741
92.0, -83.26139068603516, -109.86891174316406, -17.076383590698242, 148.9733123779297, -0.04800000041723251, -0.08000000566244125, 1.040000081062317, 0.0, 0.0, 0.0, 0.0, 0.0, 1.6214221127413657E9, 2021-05-19 13:01:52.741
93.0, -97.35333251953125, -111.08063507080078, -23.149980545043945, 133.01141357421875, -0.04800000041723251, -0.08000000566244125, 1.040000081062317, 0.0, 0.0, 0.0, 0.0, 0.0, 1.6214221127420435E9, 2021-05-19 13:01:52.742
93.0, -70.19044494628906, -78.49862670898438, -8.399815559387207, 164.54251098632812, -0.04800000041723251, -0.08000000566244125, 1.040000081062317, 0.0, 0.0, 0.0, 0.0, 0.0, 1.6214221127420435E9, 2021-05-19 13:01:52.742
94.0, -57.108272552490234, -77.73194885253906, 1.7876721620559692, 172.5907745361328, -0.04800000041723251, -0.08000000566244125, 1.040000081062317, 0.0, 0.0, 0.0, 0.0, 0.0, 1.6214221127427855E9, 2021-05-19 13:01:52.742
94.0, -80.54622650146484, -109.12841033935547, -17.45037269592285, 145.69715881347656, -0.04800000041723251, -0.08000000566244125, 1.040000081062317, 0.0, 0.0, 0.0, 0.0, 0.0, 1.6214221127427855E9, 2021-05-19 13:01:52.742
95.0, -92.43536376953125, -116.23048400878906, -22.873228073120117, 133.63597106933594, -0.04800000041723251, -0.08000000566244125, 1.040000081062317, 0.0, 0.0, 0.0, 0.0, 0.0, 1.6214221127435343E9, 2021-05-19 13:01:52.743
95.0, -70.71028900146484, -81.8346176147461, -14.608049392700195, 151.3070068359375, -0.04800000041723251, -0.08000000566244125, 1.040000081062317, 0.0, 0.0, 0.0, 0.0, 0.0, 1.6214221127435343E9, 2021-05-19 13:01:52.743
96.0, -49.086185455322266, -68.66643524169922, 5.048864841461182, 167.09312438964844, -0.04800000041723251, -0.08000000566244125, 1.040000081062317, 0.0, 0.0, 0.0, 0.0, 0.0, 1.621422112753528E9, 2021-05-19 13:01:52.753
96.0, -76.36127471923828, -111.18535614013672, -10.01545238494873, 140.408935546875, -0.04800000041723251, -0.08000000566244125, 1.040000081062317, 0.0, 0.0, 0.0, 0.0, 0.0, 1.621422112753528E9, 2021-05-19 13:01:52.753
97.0, -85.64370727539062, -109.11344909667969, -12.87647533416748, 133.0413360595703, -0.04800000041723251, -0.08000000566244125, 1.040000081062317, 0.0, 0.0, 0.0, 0.0, 0.0, 1.6214221127685072E9, 2021-05-19 13:01:52.768
97.0, -52.95698165893555, -72.75788116455078, 1.2192074060440063, 166.83506774902344, -0.04800000041723251, -0.08000000566244125, 1.040000081062317, 0.0, 0.0, 0.0, 0.0, 0.0, 1.6214221127685072E9, 2021-05-19 13:01:52.768
98.0, -47.455589294433594, -69.5901870727539, 1.8587303161621094, 176.7869415283203, -0.04800000041723251, -0.08000000566244125, 1.040000081062317, 0.0, 0.0, 0.0, 0.0, 0.0, 1.621422112784266E9, 2021-05-19 13:01:52.784
98.0, -77.15787506103516, -103.66815948486328, -14.465932846069336, 154.01095581054688, -0.04800000041723251, -0.08000000566244125, 1.040000081062317, 0.0, 0.0, 0.0, 0.0, 0.0, 1.621422112784266E9, 2021-05-19 13:01:52.784
99.0, -91.98284149169922, -115.64705657958984, -35.80580139160156, 139.71705627441406, -0.04800000041723251, -0.08000000566244125, 1.040000081062317, 0.0, 0.0, 0.0, 0.0, 0.0, 1.6214221127849503E9, 2021-05-19 13:01:52.784
99.0, -69.10587310791016, -79.04839324951172, -19.59333610534668, 166.13571166992188, -0.04800000041723251, -0.08000000566244125, 1.040000081062317, 0.0, 0.0, 0.0, 0.0, 0.0, 1.6214221127849503E9, 2021-05-19 13:01:52.784
100.0, -50.20815658569336, -68.31114196777344, -8.2427396774292, 180.02195739746094, -0.04800000041723251, -0.08000000566244125, 1.040000081062317, 0.0, 0.0, 0.0, 0.0, 0.0, 1.6214221127993617E9, 2021-05-19 13:01:52.799
100.0, -80.08248138427734, -108.05879974365234, -21.725078582763672, 146.38156127929688, -0.04800000041723251, -0.08000000566244125, 1.040000081062317, 0.0, 0.0, 0.0, 0.0, 0.0, 1.6214221127993617E9, 2021-05-19 13:01:52.799
0.0, -82.88553619384766, -112.02870178222656, -27.211511611938477, 139.047607421875, -0.04800000041723251, -0.08000000566244125, 1.040000081062317, 0.0, 0.0, 0.0, 0.0, 0.0, 1.6214221128001251E9, 2021-05-19 13:01:52.800
1.0, -64.42912292480469, -75.24678802490234, -8.669088363647461, 161.2289581298828, -0.04800000041723251, -0.08000000566244125, 1.040000081062317, 0.0, 0.0, 0.0, 0.0, 0.0, 1.621422112829929E9, 2021-05-19 13:01:52.829
1.0, -53.594635009765625, -69.48734283447266, -0.6918814778327942, 177.5311737060547, -0.04800000041723251, -0.08000000566244125, 1.040000081062317, 0.0, 0.0, 0.0, 0.0, 0.0, 1.621422112829929E9, 2021-05-19 13:01:52.829
2.0, -73.87611389160156, -96.32485961914062, -8.224040031433105, 150.83950805664062, -0.04800000041723251, -0.08000000566244125, 1.040000081062317, 0.0, 0.0, 0.0, 0.0, 0.0, 1.621422112830746E9, 2021-05-19 13:01:52.830
2.0, -91.37136840820312, -111.576171875, -19.90374755859375, 142.88475036621094, -0.04800000041723251, -0.08000000566244125, 1.040000081062317, 0.0, 0.0, 0.0, 0.0, 0.0, 1.621422112830746E9, 2021-05-19 13:01:52.830
3.0, -61.49330520629883, -71.61908721923828, -3.8969757556915283, 171.0087890625, -0.04800000041723251, -0.08000000566244125, 1.040000081062317, 0.0, 0.0, 0.0, 0.0, 0.0, 1.621422112831474E9, 2021-05-19 13:01:52.831
3.0, -46.60476303100586, -69.54718017578125, 3.2275335788726807, 177.60972595214844, -0.04800000041723251, -0.08000000566244125, 1.040000081062317, 0.0, 0.0, 0.0, 0.0, 0.0, 1.621422112831474E9, 2021-05-19 13:01:52.831
4.0, -69.25360107421875, -100.6145248413086, -7.416221618652344, 156.19879150390625, -0.04800000041723251, -0.08000000566244125, 1.040000081062317, 0.0, 0.0, 0.0, 0.0, 0.0, 1.6214221128437111E9, 2021-05-19 13:01:52.843
4.0, -93.0767593383789, -108.62913513183594, -16.934267044067383, 136.02951049804688, -0.04800000041723251, -0.08000000566244125, 1.040000081062317, 0.0, 0.0, 0.0, 0.0, 0.0, 1.6214221128437111E9, 2021-05-19 13:01:52.843
5.0, -63.056583404541016, -69.56587982177734, -4.775852203369141, 164.74819946289062, -0.04800000041723251, -0.08000000566244125, 1.040000081062317, 0.0, 0.0, 0.0, 0.0, 0.0, 1.621422112859239E9, 2021-05-19 13:01:52.859
5.0, -47.47990036010742, -58.19658279418945, 9.869595527648926, 179.89479064941406, -0.04800000041723251, -0.08000000566244125, 1.040000081062317, 0.0, 0.0, 0.0, 0.0, 0.0, 1.621422112859239E9, 2021-05-19 13:01:52.859
6.0, -66.8563232421875, -87.30796813964844, -1.8587303161621094, 159.1159210205078, -0.04800000041723251, -0.08000000566244125, 1.040000081062317, 0.0, 0.0, 0.0, 0.0, 0.0, 1.6214221128600595E9, 2021-05-19 13:01:52.860
6.0, -89.37799835205078, -99.20084381103516, -16.889389038085938, 136.71017456054688, -0.04800000041723251, -0.08000000566244125, 1.040000081062317, 0.0, 0.0, 0.0, 0.0, 0.0, 1.6214221128600595E9, 2021-05-19 13:01:52.860
7.0, -63.78960418701172, -64.24026489257812, 0.8078184127807617, 171.3902587890625, -0.04800000041723251, -0.08000000566244125, 1.040000081062317, 0.0, 0.0, 0.0, 0.0, 0.0, 1.621422112873658E9, 2021-05-19 13:01:52.873
7.0, -45.6884880065918, -56.17703628540039, 7.26662540435791, 179.21788024902344, -0.04800000041723251, -0.08000000566244125, 1.040000081062317, 0.0, 0.0, 0.0, 0.0, 0.0, 1.621422112873658E9, 2021-05-19 13:01:52.873
8.0, -59.713111877441406, -90.72249603271484, -7.8425703048706055, 154.4036407470703, -0.04800000041723251, -0.08000000566244125, 1.040000081062317, 0.0, 0.0, 0.0, 0.0, 0.0, 1.621422112889579E9, 2021-05-19 13:01:52.889
8.0, -84.66572570800781, -104.77330017089844, -19.365201950073242, 138.56517028808594, -0.04800000041723251, -0.08000000566244125, 1.040000081062317, 0.0, 0.0, 0.0, 0.0, 0.0, 1.621422112889579E9, 2021-05-19 13:01:52.889
9.0, -69.27977752685547, -69.91742706298828, -8.399815559387207, 161.63661193847656, -0.04800000041723251, -0.08000000566244125, 1.040000081062317, 0.0, 0.0, 0.0, 0.0, 0.0, 1.6214221128899841E9, 2021-05-19 13:01:52.889
9.0, -52.97755432128906, -63.75407409667969, 1.6193766593933105, 174.1951904296875, -0.04800000041723251, -0.08000000566244125, 1.040000081062317, 0.0, 0.0, 0.0, 0.0, 0.0, 1.6214221128899841E9, 2021-05-19 13:01:52.889
10.0, -72.45121002197266, -106.75170135498047, -15.255051612854004, 143.2550048828125, -0.04800000041723251, -0.08000000566244125, 1.040000081062317, 0.0, 0.0, 0.0, 0.0, 0.0, 1.6214221129036548E9, 2021-05-19 13:01:52.903
10.0, -77.31307983398438, -116.03413391113281, -23.991458892822266, 130.50567626953125, -0.04800000041723251, -0.08000000566244125, 1.040000081062317, 0.0, 0.0, 0.0, 0.0, 0.0, 1.6214221129036548E9, 2021-05-19 13:01:52.903
11.0, -58.11243438720703, -76.10322570800781, -6.260592460632324, 161.33741760253906, -0.04800000041723251, -0.08000000566244125, 1.040000081062317, 0.0, 0.0, 0.0, 0.0, 0.0, 1.6214221129192169E9, 2021-05-19 13:01:52.919
11.0, -29.087072372436523, -52.6839714050293, 13.452420234680176, 186.47702026367188, -0.04800000041723251, -0.08000000566244125, 1.040000081062317, 0.0, 0.0, 0.0, 0.0, 0.0, 1.6214221129192169E9, 2021-05-19 13:01:52.919
12.0, -66.04102325439453, -78.01805114746094, -0.3291111886501312, 164.20591735839844, -0.04800000041723251, -0.08000000566244125, 1.040000081062317, 0.0, 0.0, 0.0, 0.0, 0.0, 1.6214221129199343E9, 2021-05-19 13:01:52.919
12.0, -83.77936553955078, -88.87498474121094, -12.023777961730957, 149.17152404785156, -0.04800000041723251, -0.08000000566244125, 1.040000081062317, 0.0, 0.0, 0.0, 0.0, 0.0, 1.6214221129199343E9, 2021-05-19 13:01:52.919
13.0, -63.21739959716797, -68.18585968017578, -1.4735206365585327, 166.23667907714844, -0.04800000041723251, -0.08000000566244125, 1.040000081062317, 0.0, 0.0, 0.0, 0.0, 0.0, 1.6214221129337227E9, 2021-05-19 13:01:52.933
13.0, -46.19337463378906, -57.497222900390625, 2.2775990962982178, 177.68077087402344, -0.04800000041723251, -0.08000000566244125, 1.040000081062317, 0.0, 0.0, 0.0, 0.0, 0.0, 1.6214221129337227E9, 2021-05-19 13:01:52.933
14.0, -73.11691284179688, -89.72767639160156, -14.828702926635742, 152.82540893554688, -0.04800000041723251, -0.08000000566244125, 1.040000081062317, 0.0, 0.0, 0.0, 0.0, 0.0, 1.6214221129492168E9, 2021-05-19 13:01:52.949
14.0, -88.71603393554688, -98.4827880859375, -23.50153160095215, 136.1155242919922, -0.04800000041723251, -0.08000000566244125, 1.040000081062317, 0.0, 0.0, 0.0, 0.0, 0.0, 1.6214221129492168E9, 2021-05-19 13:01:52.949
15.0, -65.11727142333984, -65.17149353027344, -1.8288110494613647, 167.1978302001953, -0.04800000041723251, -0.08000000566244125, 1.040000081062317, 0.0, 0.0, 0.0, 0.0, 0.0, 1.6214221129499846E9, 2021-05-19 13:01:52.949
15.0, -47.199405670166016, -50.44377136230469, 7.674274921417236, 176.58499145507812, -0.04800000041723251, -0.08000000566244125, 1.040000081062317, 0.0, 0.0, 0.0, 0.0, 0.0, 1.6214221129499846E9, 2021-05-19 13:01:52.949
16.0, -74.53433990478516, -85.64370727539062, -2.528172254562378, 148.6778564453125, -0.04800000041723251, -0.08000000566244125, 1.040000081062317, 0.0, 0.0, 0.0, 0.0, 0.0, 1.6214221129636197E9, 2021-05-19 13:01:52.963
16.0, -91.1694107055664, -95.14305114746094, -13.800230979919434, 136.38853454589844, -0.04800000041723251, -0.08000000566244125, 1.040000081062317, 0.0, 0.0, 0.0, 0.0, 0.0, 1.6214221129636197E9, 2021-05-19 13:01:52.963
17.0, -63.38569259643555, -71.73502349853516, -3.4930665493011475, 166.15440368652344, -0.04800000041723251, -0.08000000566244125, 1.040000081062317, 0.0, 0.0, 0.0, 0.0, 0.0, 1.6214221129798465E9, 2021-05-19 13:01:52.979
17.0, -49.14041519165039, -47.00680160522461, 5.763185977935791, 176.184814453125, -0.04800000041723251, -0.08000000566244125, 1.040000081062317, 0.0, 0.0, 0.0, 0.0, 0.0, 1.6214221129798465E9, 2021-05-19 13:01:52.979
18.0, -77.88528442382812, -90.60655975341797, -14.241539001464844, 151.54261779785156, -0.04800000041723251, -0.08000000566244125, 1.040000081062317, 0.0, 0.0, 0.0, 0.0, 0.0, 1.621422112994326E9, 2021-05-19 13:01:52.994
18.0, -90.05117797851562, -104.85931396484375, -22.77972984313965, 140.6931610107422, -0.04800000041723251, -0.08000000566244125, 1.040000081062317, 0.0, 0.0, 0.0, 0.0, 0.0, 1.621422112994326E9, 2021-05-19 13:01:52.994
19.0, -62.278682708740234, -64.90970611572266, -7.3264641761779785, 164.51632690429688, -0.04800000041723251, -0.08000000566244125, 1.040000081062317, 0.0, 0.0, 0.0, 0.0, 0.0, 1.621422112994985E9, 2021-05-19 13:01:52.994
19.0, -41.286624908447266, -50.802799224853516, 10.13886833190918, 177.14596557617188, -0.04800000041723251, -0.08000000566244125, 1.040000081062317, 0.0, 0.0, 0.0, 0.0, 0.0, 1.621422112994985E9, 2021-05-19 13:01:52.994
20.0, -71.94258880615234, -99.09986877441406, -8.16046142578125, 150.59642028808594, -0.04800000041723251, -0.08000000566244125, 1.040000081062317, 0.0, 0.0, 0.0, 0.0, 0.0, 1.6214221130093088E9, 2021-05-19 13:01:53.009
20.0, -84.2992172241211, -106.04112243652344, -10.112689018249512, 135.7116241455078, -0.04800000041723251, -0.08000000566244125, 1.040000081062317, 0.0, 0.0, 0.0, 0.0, 0.0, 1.6214221130093088E9, 2021-05-19 13:01:53.009
21.0, -58.53878402709961, -62.04867935180664, 3.997952938079834, 167.85606384277344, -0.04800000041723251, -0.09600000083446503, 1.040000081062317, 0.0, 0.0, 0.0, 0.0, 0.0, 1.621422113009915E9, 2021-05-19 13:01:53.009
21.0, -44.98538589477539, -53.74984359741211, 11.346856117248535, 176.6485595703125, -0.04800000041723251, -0.09600000083446503, 1.040000081062317, 0.0, 0.0, 0.0, 0.0, 0.0, 1.621422113009915E9, 2021-05-19 13:01:53.009
22.0, -72.32405853271484, -95.05329895019531, -6.612143039703369, 147.89247131347656, -0.04800000041723251, -0.09600000083446503, 1.040000081062317, 0.0, 0.0, 0.0, 0.0, 0.0, 1.6214221130236988E9, 2021-05-19 13:01:53.023
22.0, -85.60070037841797, -97.1812973022461, -14.720246315002441, 136.68772888183594, -0.04800000041723251, -0.09600000083446503, 1.040000081062317, 0.0, 0.0, 0.0, 0.0, 0.0, 1.6214221130236988E9, 2021-05-19 13:01:53.023
23.0, -59.52985763549805, -59.37091064453125, -2.1915814876556396, 167.194091796875, -0.04800000041723251, -0.09600000083446503, 1.040000081062317, 0.0, 0.0, 0.0, 0.0, 0.0, 1.621422113039315E9, 2021-05-19 13:01:53.039
23.0, -52.96259307861328, -51.128173828125, 2.0232858657836914, 177.12353515625, -0.04800000041723251, -0.09600000083446503, 1.040000081062317, 0.0, 0.0, 0.0, 0.0, 0.0, 1.621422113039315E9, 2021-05-19 13:01:53.039
24.0, -70.17735290527344, -82.40869903564453, -9.570404052734375, 153.203125, -0.04800000041723251, -0.09600000083446503, 1.040000081062317, 0.0, 0.0, 0.0, 0.0, 0.0, 1.6214221130399592E9, 2021-05-19 13:01:53.039
24.0, -85.17060852050781, -93.56108093261719, -17.121261596679688, 137.7835235595703, -0.04800000041723251, -0.09600000083446503, 1.040000081062317, 0.0, 0.0, 0.0, 0.0, 0.0, 1.6214221130399592E9, 2021-05-19 13:01:53.039
25.0, -56.79225158691406, -59.84587860107422, -3.773559093475342, 165.6383056640625, -0.04800000041723251, -0.09600000083446503, 1.040000081062317, 0.0, 0.0, 0.0, 0.0, 0.0, 1.6214221130535626E9, 2021-05-19 13:01:53.053
25.0, -48.37747573852539, -51.038414001464844, 3.85957670211792, 172.19435119628906, -0.04800000041723251, -0.09600000083446503, 1.040000081062317, 0.0, 0.0, 0.0, 0.0, 0.0, 1.6214221130535626E9, 2021-05-19 13:01:53.053
26.0, -73.29643249511719, -83.12301635742188, -6.761739253997803, 149.93446350097656, -0.04800000041723251, -0.09600000083446503, 1.040000081062317, 0.0, 0.0, 0.0, 0.0, 0.0, 1.6214221130856063E9, 2021-05-19 13:01:53.085
26.0, -81.25493621826172, -97.05040740966797, -14.80626392364502, 140.37901306152344, -0.04800000041723251, -0.09600000083446503, 1.040000081062317, 0.0, 0.0, 0.0, 0.0, 0.0, 1.6214221130856063E9, 2021-05-19 13:01:53.085
27.0, -61.54566192626953, -56.061100006103516, -3.773559093475342, 164.45274353027344, -0.04800000041723251, -0.09600000083446503, 1.040000081062317, 0.0, 0.0, 0.0, 0.0, 0.0, 1.6214221130863183E9, 2021-05-19 13:01:53.086
27.0, -40.22449493408203, -48.58504104614258, 6.731820106506348, 178.58956909179688, -0.04800000041723251, -0.09600000083446503, 1.040000081062317, 0.0, 0.0, 0.0, 0.0, 0.0, 1.6214221130863183E9, 2021-05-19 13:01:53.086
28.0, -64.54132080078125, -81.27924346923828, -8.007125854492188, 150.51414489746094, -0.04800000041723251, -0.09600000083446503, 1.040000081062317, 0.0, 0.0, 0.0, 0.0, 0.0, 1.6214221130870671E9, 2021-05-19 13:01:53.087
28.0, -87.2911376953125, -94.68304443359375, -22.428180694580078, 139.75819396972656, -0.04800000041723251, -0.09600000083446503, 1.040000081062317, 0.0, 0.0, 0.0, 0.0, 0.0, 1.6214221130870671E9, 2021-05-19 13:01:53.087
29.0, -58.93147277832031, -61.85794448852539, -13.418761253356934, 162.54165649414062, -0.04800000041723251, -0.09600000083446503, 1.040000081062317, 0.0, 0.0, 0.0, 0.0, 0.0, 1.6214221130879E9, 2021-05-19 13:01:53.087
29.0, -40.83035659790039, -51.34508514404297, -2.180361747741699, 174.80479431152344, -0.04800000041723251, -0.09600000083446503, 1.040000081062317, 0.0, 0.0, 0.0, 0.0, 0.0, 1.6214221130879E9, 2021-05-19 13:01:53.087
30.0, -65.16588592529297, -84.73491668701172, -9.600322723388672, 152.5710906982422, -0.04800000041723251, -0.09600000083446503, 1.040000081062317, 0.0, 0.0, 0.0, 0.0, 0.0, 1.621422113098754E9, 2021-05-19 13:01:53.098
30.0, -77.86658477783203, -88.14569854736328, -4.398122310638428, 145.7121124267578, -0.04800000041723251, -0.09600000083446503, 1.040000081062317, 0.0, 0.0, 0.0, 0.0, 0.0, 1.621422113098754E9, 2021-05-19 13:01:53.098
31.0, -57.49535369873047, -57.21672821044922, 6.511165618896484, 167.2726287841797, -0.04800000041723251, -0.09600000083446503, 1.040000081062317, 0.0, 0.0, 0.0, 0.0, 0.0, 1.6214221131137605E9, 2021-05-19 13:01:53.113
31.0, -43.710079193115234, -46.38972091674805, 9.013158798217773, 177.9313507080078, -0.04800000041723251, -0.09600000083446503, 1.040000081062317, 0.0, 0.0, 0.0, 0.0, 0.0, 1.6214221131137605E9, 2021-05-19 13:01:53.113
32.0, -70.34564971923828, -77.2625961303711, -10.853189468383789, 153.18443298339844, -0.04800000041723251, -0.09600000083446503, 1.040000081062317, 0.0, 0.0, 0.0, 0.0, 0.0, 1.6214221131293056E9, 2021-05-19 13:01:53.129
32.0, -88.8992919921875, -91.54153442382812, -16.01051139831543, 138.15377807617188, -0.04800000041723251, -0.09600000083446503, 1.040000081062317, 0.0, 0.0, 0.0, 0.0, 0.0, 1.6214221131293056E9, 2021-05-19 13:01:53.129
33.0, -55.42344665527344, -53.54414749145508, 2.7263870239257812, 166.79393005371094, -0.04800000041723251, -0.09600000083446503, 1.040000081062317, 0.0, 0.0, 0.0, 0.0, 0.0, 1.6214221131300733E9, 2021-05-19 13:01:53.130
33.0, -38.59015655517578, -44.890018463134766, 13.594536781311035, 179.3599853515625, -0.04800000041723251, -0.09600000083446503, 1.040000081062317, 0.0, 0.0, 0.0, 0.0, 0.0, 1.6214221131300733E9, 2021-05-19 13:01:53.130
34.0, -71.43769836425781, -81.03240966796875, -3.665102005004883, 153.06475830078125, -0.04800000041723251, -0.09600000083446503, 1.040000081062317, 0.0, 0.0, 0.0, 0.0, 0.0, 1.6214221131435912E9, 2021-05-19 13:01:53.143
34.0, -90.92257690429688, -94.16693878173828, -15.801076889038086, 130.6515350341797, -0.04800000041723251, -0.09600000083446503, 1.040000081062317, 0.0, 0.0, 0.0, 0.0, 0.0, 1.6214221131435912E9, 2021-05-19 13:01:53.143
35.0, -65.31922149658203, -60.492881774902344, -0.43008849024772644, 161.9881591796875, -0.04800000041723251, -0.09600000083446503, 1.040000081062317, 0.0, 0.0, 0.0, 0.0, 0.0, 1.6214221131592903E9, 2021-05-19 13:01:53.159
35.0, -44.73481369018555, -45.47344207763672, 11.29075813293457, 177.85655212402344, -0.04800000041723251, -0.09600000083446503, 1.040000081062317, 0.0, 0.0, 0.0, 0.0, 0.0, 1.6214221131592903E9, 2021-05-19 13:01:53.159
36.0, -71.54241943359375, -80.14979553222656, -1.099530577659607, 154.78884887695312, -0.04800000041723251, -0.09600000083446503, 1.040000081062317, 0.0, 0.0, 0.0, 0.0, 0.0, 1.6214221131600204E9, 2021-05-19 13:01:53.160
36.0, -86.06444549560547, -82.43113708496094, -10.374482154846191, 141.00732421875, -0.04800000041723251, -0.09600000083446503, 1.040000081062317, 0.0, 0.0, 0.0, 0.0, 0.0, 1.6214221131600204E9, 2021-05-19 13:01:53.160
37.0, -59.81782913208008, -54.88677215576172, 3.8146979808807373, 167.97947692871094, -0.04800000041723251, -0.09600000083446503, 1.040000081062317, 0.0, 0.0, 0.0, 0.0, 0.0, 1.6214221131738107E9, 2021-05-19 13:01:53.173
37.0, -47.40510177612305, -43.790489196777344, 16.870689392089844, 177.97622680664062, -0.04800000041723251, -0.09600000083446503, 1.040000081062317, 0.0, 0.0, 0.0, 0.0, 0.0, 1.6214221131738107E9, 2021-05-19 13:01:53.173
38.0, -75.40573120117188, -79.35319519042969, 2.0793843269348145, 153.61451721191406, -0.04800000041723251, -0.09600000083446503, 1.040000081062317, 0.0, 0.0, 0.0, 0.0, 0.0, 1.6214221131899087E9, 2021-05-19 13:01:53.189
38.0, -85.65679931640625, -92.59244537353516, -11.836783409118652, 138.91297912597656, -0.04800000041723251, -0.09600000083446503, 1.040000081062317, 0.0, 0.0, 0.0, 0.0, 0.0, 1.6214221131899087E9, 2021-05-19 13:01:53.189
39.0, -64.7096176147461, -61.09126663208008, 1.1892881393432617, 159.6544647216797, -0.04800000041723251, -0.09600000083446503, 1.040000081062317, 0.0, 0.0, 0.0, 0.0, 0.0, 1.6214221131906402E9, 2021-05-19 13:01:53.190
39.0, -46.42524719238281, -42.455345153808594, 18.0113582611084, 184.0273895263672, -0.04800000041723251, -0.09600000083446503, 1.040000081062317, 0.0, 0.0, 0.0, 0.0, 0.0, 1.6214221131906402E9, 2021-05-19 13:01:53.190
40.0, -65.40149688720703, -75.62825775146484, 2.228980302810669, 155.51065063476562, -0.04800000041723251, -0.09600000083446503, 1.040000081062317, 0.0, 0.0, 0.0, 0.0, 0.0, 1.621422113203723E9, 2021-05-19 13:01:53.203
40.0, -82.60504150390625, -83.78498077392578, -6.197014331817627, 145.52511596679688, -0.04800000041723251, -0.09600000083446503, 1.040000081062317, 0.0, 0.0, 0.0, 0.0, 0.0, 1.621422113203723E9, 2021-05-19 13:01:53.203
41.0, -62.02811050415039, -54.063995361328125, 5.048864841461182, 164.6135711669922, -0.04800000041723251, -0.09600000083446503, 1.040000081062317, 0.0, 0.0, 0.0, 0.0, 0.0, 1.6214221132192316E9, 2021-05-19 13:01:53.219
41.0, -47.5546989440918, -44.82644271850586, 13.40006160736084, 179.42730712890625, -0.04800000041723251, -0.09600000083446503, 1.040000081062317, 0.0, 0.0, 0.0, 0.0, 0.0, 1.6214221132192316E9, 2021-05-19 13:01:53.219
42.0, -74.51564025878906, -84.34970092773438, 0.8152981996536255, 147.5297088623047, -0.04800000041723251, -0.09600000083446503, 1.040000081062317, 0.0, 0.0, 0.0, 0.0, 0.0, 1.621422113219947E9, 2021-05-19 13:01:53.219
42.0, -89.33312225341797, -94.451171875, -10.168787956237793, 130.34112548828125, -0.04800000041723251, -0.09600000083446503, 1.040000081062317, 0.0, 0.0, 0.0, 0.0, 0.0, 1.621422113219947E9, 2021-05-19 13:01:53.219
43.0, -61.49704360961914, -53.21129608154297, 7.767772197723389, 162.90069580078125, -0.04800000041723251, -0.09600000083446503, 1.040000081062317, 0.0, 0.0, 0.0, 0.0, 0.0, 1.6214221132337348E9, 2021-05-19 13:01:53.233
43.0, -41.58955764770508, -41.34833526611328, 20.176759719848633, 178.80274963378906, -0.04800000041723251, -0.09600000083446503, 1.040000081062317, 0.0, 0.0, 0.0, 0.0, 0.0, 1.6214221132337348E9, 2021-05-19 13:01:53.233
44.0, -68.1017074584961, -83.66156005859375, -1.1144901514053345, 154.33631896972656, -0.04800000041723251, -0.09600000083446503, 1.040000081062317, 0.0, 0.0, 0.0, 0.0, 0.0, 1.6214221132493048E9, 2021-05-19 13:01:53.249
44.0, -81.74112701416016, -89.26393127441406, -12.281831741333008, 141.00732421875, -0.04800000041723251, -0.09600000083446503, 1.040000081062317, 0.0, 0.0, 0.0, 0.0, 0.0, 1.6214221132493048E9, 2021-05-19 13:01:53.249
45.0, -54.07334518432617, -58.020809173583984, 2.6553289890289307, 164.93145751953125, -0.04800000041723251, -0.09600000083446503, 1.040000081062317, 0.0, 0.0, 0.0, 0.0, 0.0, 1.6214221132500625E9, 2021-05-19 13:01:53.250
45.0, -45.583770751953125, -49.30684280395508, 6.395228862762451, 176.36807250976562, -0.04800000041723251, -0.09600000083446503, 1.040000081062317, 0.0, 0.0, 0.0, 0.0, 0.0, 1.6214221132500625E9, 2021-05-19 13:01:53.250
46.0, -66.0335464477539, -76.25656127929688, -4.551458358764648, 157.68353271484375, -0.04800000041723251, -0.09600000083446503, 1.040000081062317, 0.0, 0.0, 0.0, 0.0, 0.0, 1.6214221132637267E9, 2021-05-19 13:01:53.263
46.0, -85.62687683105469, -91.88560485839844, -15.359768867492676, 133.44149780273438, -0.04800000041723251, -0.09600000083446503, 1.040000081062317, 0.0, 0.0, 0.0, 0.0, 0.0, 1.6214221132637267E9, 2021-05-19 13:01:53.263
47.0, -53.38894271850586, -50.77288055419922, 4.353243350982666, 165.4064178466797, -0.04800000041723251, -0.09600000083446503, 1.040000081062317, 0.0, 0.0, 0.0, 0.0, 0.0, 1.6214221132793477E9, 2021-05-19 13:01:53.279
47.0, -45.23970031738281, -43.409019470214844, 10.737253189086914, 179.02340698242188, -0.04800000041723251, -0.09600000083446503, 1.040000081062317, 0.0, 0.0, 0.0, 0.0, 0.0, 1.6214221132793477E9, 2021-05-19 13:01:53.279
48.0, -64.77320098876953, -75.40386199951172, -7.737853050231934, 154.71405029296875, -0.04800000041723251, -0.09600000083446503, 1.040000081062317, 0.0, 0.0, 0.0, 0.0, 0.0, 1.6214221132800837E9, 2021-05-19 13:01:53.280
48.0, -84.59466552734375, -86.21591186523438, -20.105701446533203, 137.20010375976562, -0.04800000041723251, -0.09600000083446503, 1.040000081062317, 0.0, 0.0, 0.0, 0.0, 0.0, 1.6214221132800837E9, 2021-05-19 13:01:53.280
49.0, -70.12125396728516, -55.058807373046875, -12.562323570251465, 155.61911010742188, -0.04800000041723251, -0.09600000083446503, 1.040000081062317, 0.0, 0.0, 0.0, 0.0, 0.0, 1.6214221132935886E9, 2021-05-19 13:01:53.293
49.0, -50.217506408691406, -42.320709228515625, -7.891189098358154, 174.65145874023438, -0.04800000041723251, -0.09600000083446503, 1.040000081062317, 0.0, 0.0, 0.0, 0.0, 0.0, 1.6214221132935886E9, 2021-05-19 13:01:53.293
50.0, -74.9083251953125, -77.58796691894531, -15.632781982421875, 145.9140625, -0.04800000041723251, -0.09600000083446503, 1.040000081062317, 0.0, 0.0, 0.0, 0.0, 0.0, 1.6214221133093581E9, 2021-05-19 13:01:53.309
50.0, -89.95020294189453, -85.73346710205078, -24.219593048095703, 136.27635192871094, -0.04800000041723251, -0.09600000083446503, 1.040000081062317, 0.0, 0.0, 0.0, 0.0, 0.0, 1.6214221133093581E9, 2021-05-19 13:01:53.309
51.0, -58.5986213684082, -49.84164810180664, -5.531311988830566, 160.50341796875, -0.04800000041723251, -0.09600000083446503, 1.040000081062317, 0.0, 0.0, 0.0, 0.0, 0.0, 1.6214221133101869E9, 2021-05-19 13:01:53.310
51.0, -43.279991149902344, -34.63521194458008, 11.006525993347168, 179.7377166748047, -0.04800000041723251, -0.09600000083446503, 1.040000081062317, 0.0, 0.0, 0.0, 0.0, 0.0, 1.6214221133101869E9, 2021-05-19 13:01:53.310
52.0, -69.83328247070312, -71.2039566040039, -0.2281339019536972, 153.66688537597656, -0.04800000041723251, -0.09600000083446503, 1.040000081062317, 0.0, 0.0, 0.0, 0.0, 0.0, 1.6214221133236449E9, 2021-05-19 13:01:53.323
52.0, -86.2925796508789, -77.89089965820312, -14.323817253112793, 133.75564575195312, -0.04800000041723251, -0.09600000083446503, 1.040000081062317, 0.0, 0.0, 0.0, 0.0, 0.0, 1.6214221133236449E9, 2021-05-19 13:01:53.323
53.0, -66.63566589355469, -58.96326446533203, -5.976360321044922, 157.6947479248047, -0.04800000041723251, -0.09600000083446503, 1.040000081062317, 0.0, 0.0, 0.0, 0.0, 0.0, 1.6214221133393168E9, 2021-05-19 13:01:53.339
53.0, -43.85593795776367, -46.35606002807617, 4.585117340087891, 179.16177368164062, -0.04800000041723251, -0.09600000083446503, 1.040000081062317, 0.0, 0.0, 0.0, 0.0, 0.0, 1.6214221133393168E9, 2021-05-19 13:01:53.339
54.0, -66.16818237304688, -72.98414611816406, -9.360969543457031, 151.94277954101562, -0.04800000041723251, -0.09600000083446503, 1.040000081062317, 0.0, 0.0, 0.0, 0.0, 0.0, 1.621422113340031E9, 2021-05-19 13:01:53.340
54.0, -89.71459197998047, -81.77664947509766, -14.697806358337402, 136.4708251953125, -0.04800000041723251, -0.09600000083446503, 1.040000081062317, 0.0, 0.0, 0.0, 0.0, 0.0, 1.621422113340031E9, 2021-05-19 13:01:53.340
55.0, -66.31403350830078, -48.45414352416992, -4.682354927062988, 162.13027954101562, -0.04800000041723251, -0.09600000083446503, 1.040000081062317, 0.0, 0.0, 0.0, 0.0, 0.0, 1.621422113353558E9, 2021-05-19 13:01:53.353
55.0, -43.45950698852539, -38.44243240356445, 3.833397388458252, 178.8177032470703, -0.04800000041723251, -0.09600000083446503, 1.040000081062317, 0.0, 0.0, 0.0, 0.0, 0.0, 1.621422113353558E9, 2021-05-19 13:01:53.353
56.0, -70.70468139648438, -73.73212432861328, -6.653282165527344, 148.56939697265625, -0.04800000041723251, -0.09600000083446503, 1.040000081062317, 0.0, 0.0, 0.0, 0.0, 0.0, 1.6214221133691332E9, 2021-05-19 13:01:53.369
56.0, -86.5693359375, -82.82756805419922, -13.074689865112305, 133.5275115966797, -0.04800000041723251, -0.09600000083446503, 1.040000081062317, 0.0, 0.0, 0.0, 0.0, 0.0, 1.6214221133691332E9, 2021-05-19 13:01:53.369
57.0, -61.291351318359375, -50.380191802978516, -2.666548728942871, 160.85496520996094, -0.04800000041723251, -0.09600000083446503, 1.040000081062317, 0.0, 0.0, 0.0, 0.0, 0.0, 1.6214221133843408E9, 2021-05-19 13:01:53.384
57.0, -45.94280242919922, -41.7559814453125, 3.511765956878662, 174.76739501953125, -0.04800000041723251, -0.09600000083446503, 1.040000081062317, 0.0, 0.0, 0.0, 0.0, 0.0, 1.6214221133843408E9, 2021-05-19 13:01:53.384
58.0, -68.19146728515625, -76.92974090576172, -12.203293800354004, 150.5328369140625, -0.04800000041723251, -0.09600000083446503, 1.040000081062317, 0.0, 0.0, 0.0, 0.0, 0.0, 1.6214221133849916E9, 2021-05-19 13:01:53.384
58.0, -87.33975219726562, -85.32582092285156, -19.099668502807617, 135.73779296875, -0.04800000041723251, -0.09600000083446503, 1.040000081062317, 0.0, 0.0, 0.0, 0.0, 0.0, 1.6214221133849916E9, 2021-05-19 13:01:53.384
59.0, -67.5182876586914, -53.11405944824219, -9.091696739196777, 157.287109375, -0.04800000041723251, -0.09600000083446503, 1.040000081062317, 0.0, 0.0, 0.0, 0.0, 0.0, 1.6214221134290144E9, 2021-05-19 13:01:53.429
59.0, -51.70598602294922, -39.71025848388672, 0.9985532760620117, 173.24151611328125, -0.04800000041723251, -0.09600000083446503, 1.040000081062317, 0.0, 0.0, 0.0, 0.0, 0.0, 1.6214221134290144E9, 2021-05-19 13:01:53.429
60.0, -71.4975357055664, -78.11528778076172, -12.775498390197754, 149.4445343017578, -0.04800000041723251, -0.09600000083446503, 1.040000081062317, 0.0, 0.0, 0.0, 0.0, 0.0, 1.6214221134449344E9, 2021-05-19 13:01:53.444
60.0, -78.45375061035156, -82.46105194091797, -19.716753005981445, 134.11468505859375, -0.04800000041723251, -0.09600000083446503, 1.040000081062317, 0.0, 0.0, 0.0, 0.0, 0.0, 1.6214221134449344E9, 2021-05-19 13:01:53.444
61.0, -64.7918930053711, -51.674198150634766, -13.766571998596191, 157.04774475097656, -0.04800000041723251, -0.08000000566244125, 1.040000081062317, 0.0, 0.0, 0.0, 0.0, 0.0, 1.6214221134611275E9, 2021-05-19 13:01:53.461
61.0, -44.1439094543457, -37.1895637512207, 1.3949826955795288, 173.31631469726562, -0.04800000041723251, -0.08000000566244125, 1.040000081062317, 0.0, 0.0, 0.0, 0.0, 0.0, 1.6214221134611275E9, 2021-05-19 13:01:53.461
62.0, -67.55194091796875, -75.91249084472656, -12.225732803344727, 146.19456481933594, -0.04800000041723251, -0.08000000566244125, 1.040000081062317, 0.0, 0.0, 0.0, 0.0, 0.0, 1.6214221134618483E9, 2021-05-19 13:01:53.461
62.0, -85.29029083251953, -83.96449279785156, -24.51130485534668, 132.7346649169922, -0.04800000041723251, -0.08000000566244125, 1.040000081062317, 0.0, 0.0, 0.0, 0.0, 0.0, 1.6214221134618483E9, 2021-05-19 13:01:53.461
63.0, -59.615875244140625, -55.664669036865234, -7.307764530181885, 160.95594787597656, -0.04800000041723251, -0.08000000566244125, 1.040000081062317, 0.0, 0.0, 0.0, 0.0, 0.0, 1.6214221134626E9, 2021-05-19 13:01:53.462
63.0, -42.9583625793457, -38.105838775634766, -1.6455559730529785, 175.64627075195312, -0.04800000041723251, -0.08000000566244125, 1.040000081062317, 0.0, 0.0, 0.0, 0.0, 0.0, 1.6214221134626E9, 2021-05-19 13:01:53.462
64.0, -65.16214752197266, -73.57878875732422, -15.427087783813477, 150.09153747558594, -0.04800000041723251, -0.08000000566244125, 1.040000081062317, 0.0, 0.0, 0.0, 0.0, 0.0, 1.62142211346332E9, 2021-05-19 13:01:53.463
64.0, -80.64159393310547, -82.6854476928711, -21.474506378173828, 143.0829620361328, -0.04800000041723251, -0.08000000566244125, 1.040000081062317, 0.0, 0.0, 0.0, 0.0, 0.0, 1.62142211346332E9, 2021-05-19 13:01:53.463
65.0, -61.1754150390625, -45.843692779541016, -7.644355297088623, 165.10723876953125, -0.04800000041723251, -0.08000000566244125, 1.040000081062317, 0.0, 0.0, 0.0, 0.0, 0.0, 1.6214221134757078E9, 2021-05-19 13:01:53.475
65.0, -44.42066192626953, -37.74306869506836, -0.1907348930835724, 174.16526794433594, -0.04800000041723251, -0.08000000566244125, 1.040000081062317, 0.0, 0.0, 0.0, 0.0, 0.0, 1.6214221134757078E9, 2021-05-19 13:01:53.475
66.0, -70.11003112792969, -67.912841796875, -9.203893661499023, 154.78884887695312, -0.04800000041723251, -0.08000000566244125, 1.040000081062317, 0.0, 0.0, 0.0, 0.0, 0.0, 1.6214221134763694E9, 2021-05-19 13:01:53.476
66.0, -86.5506362915039, -88.01854705810547, -21.609142303466797, 126.54512786865234, -0.04800000041723251, -0.08000000566244125, 1.040000081062317, 0.0, 0.0, 0.0, 0.0, 0.0, 1.6214221134763694E9, 2021-05-19 13:01:53.476
67.0, -61.60176086425781, -43.31178283691406, -7.666794776916504, 158.8391571044922, -0.04800000041723251, -0.08000000566244125, 1.040000081062317, 0.0, 0.0, 0.0, 0.0, 0.0, 1.6214221134771514E9, 2021-05-19 13:01:53.477
67.0, -42.56193161010742, -34.66139221191406, 7.0796308517456055, 177.13475036621094, -0.04800000041723251, -0.08000000566244125, 1.040000081062317, 0.0, 0.0, 0.0, 0.0, 0.0, 1.6214221134771514E9, 2021-05-19 13:01:53.477
68.0, -68.21390533447266, -64.02334594726562, -3.8745362758636475, 156.37083435058594, -0.04800000041723251, -0.08000000566244125, 1.040000081062317, 0.0, 0.0, 0.0, 0.0, 0.0, 1.6214221134779806E9, 2021-05-19 13:01:53.477
68.0, -85.40996551513672, -80.20963287353516, -17.39427375793457, 138.15377807617188, -0.04800000041723251, -0.08000000566244125, 1.040000081062317, 0.0, 0.0, 0.0, 0.0, 0.0, 1.6214221134779806E9, 2021-05-19 13:01:53.477
69.0, -61.957054138183594, -45.06205368041992, -5.665948390960693, 162.9979248046875, -0.04800000041723251, -0.08000000566244125, 1.040000081062317, 0.0, 0.0, 0.0, 0.0, 0.0, 1.621422113488592E9, 2021-05-19 13:01:53.488
69.0, -43.4408073425293, -31.273042678833008, 7.236706256866455, 175.9304962158203, -0.04800000041723251, -0.08000000566244125, 1.040000081062317, 0.0, 0.0, 0.0, 0.0, 0.0, 1.621422113488592E9, 2021-05-19 13:01:53.488
70.0, -66.74412536621094, -65.48564910888672, -8.983240127563477, 154.46722412109375, -0.04800000041723251, -0.08000000566244125, 1.040000081062317, 0.0, 0.0, 0.0, 0.0, 0.0, 1.6214221135199547E9, 2021-05-19 13:01:53.519
70.0, -86.05696868896484, -81.4999008178711, -23.434213638305664, 134.06980895996094, -0.04800000041723251, -0.08000000566244125, 1.040000081062317, 0.0, 0.0, 0.0, 0.0, 0.0, 1.6214221135199547E9, 2021-05-19 13:01:53.519
71.0, -63.613826751708984, -53.71992111206055, -9.521785736083984, 156.87571716308594, -0.04800000041723251, -0.08000000566244125, 1.040000081062317, 0.0, 0.0, 0.0, 0.0, 0.0, 1.6214221135206814E9, 2021-05-19 13:01:53.520
71.0, -46.75061798095703, -31.2805233001709, 4.686094760894775, 175.44432067871094, -0.04800000041723251, -0.08000000566244125, 1.040000081062317, 0.0, 0.0, 0.0, 0.0, 0.0, 1.6214221135206814E9, 2021-05-19 13:01:53.520
72.0, -68.45700073242188, -64.0570068359375, -13.06721019744873, 159.0149383544922, -0.04800000041723251, -0.08000000566244125, 1.040000081062317, 0.0, 0.0, 0.0, 0.0, 0.0, 1.6214221135214317E9, 2021-05-19 13:01:53.521
72.0, -83.57367706298828, -72.26982879638672, -21.721338272094727, 137.4805908203125, -0.04800000041723251, -0.08000000566244125, 1.040000081062317, 0.0, 0.0, 0.0, 0.0, 0.0, 1.6214221135214317E9, 2021-05-19 13:01:53.521
73.0, -66.18688201904297, -51.46476364135742, -8.448433876037598, 155.6303253173828, -0.04800000041723251, -0.08000000566244125, 1.040000081062317, 0.0, 0.0, 0.0, 0.0, 0.0, 1.6214221135336516E9, 2021-05-19 13:01:53.533
73.0, -43.152835845947266, -32.69794464111328, 5.295698165893555, 176.2409210205078, -0.04800000041723251, -0.08000000566244125, 1.040000081062317, 0.0, 0.0, 0.0, 0.0, 0.0, 1.6214221135336516E9, 2021-05-19 13:01:53.533
74.0, -67.49210357666016, -72.89813232421875, -10.419361114501953, 151.24342346191406, -0.04800000041723251, -0.08000000566244125, 1.040000081062317, 0.0, 0.0, 0.0, 0.0, 0.0, 1.6214221135498753E9, 2021-05-19 13:01:53.549
74.0, -87.3734130859375, -80.6771240234375, -21.88215446472168, 132.11383056640625, -0.04800000041723251, -0.08000000566244125, 1.040000081062317, 0.0, 0.0, 0.0, 0.0, 0.0, 1.6214221135498753E9, 2021-05-19 13:01:53.549
75.0, -69.05912017822266, -43.12852478027344, -6.342870235443115, 158.41281127929688, -0.04800000041723251, -0.08000000566244125, 1.040000081062317, 0.0, 0.0, 0.0, 0.0, 0.0, 1.6214221135646462E9, 2021-05-19 13:01:53.564
75.0, -46.290611267089844, -27.147933959960938, 5.475213527679443, 177.17214965820312, -0.04800000041723251, -0.08000000566244125, 1.040000081062317, 0.0, 0.0, 0.0, 0.0, 0.0, 1.6214221135646462E9, 2021-05-19 13:01:53.564
76.0, -70.52516174316406, -60.76963424682617, -8.500792503356934, 151.12001037597656, -0.04800000041723251, -0.08000000566244125, 1.040000081062317, 0.0, 0.0, 0.0, 0.0, 0.0, 1.621422113565097E9, 2021-05-19 13:01:53.565
76.0, -97.16072845458984, -80.3966293334961, -26.399953842163086, 131.88943481445312, -0.04800000041723251, -0.08000000566244125, 1.040000081062317, 0.0, 0.0, 0.0, 0.0, 0.0, 1.621422113565097E9, 2021-05-19 13:01:53.565
77.0, -70.9926528930664, -45.91475296020508, -13.265424728393555, 153.96981811523438, -0.04800000041723251, -0.08000000566244125, 1.040000081062317, 0.0, 0.0, 0.0, 0.0, 0.0, 1.6214221135791953E9, 2021-05-19 13:01:53.579
77.0, -56.29484558105469, -30.577421188354492, -6.997352600097656, 170.50390625, -0.04800000041723251, -0.08000000566244125, 1.040000081062317, 0.0, 0.0, 0.0, 0.0, 0.0, 1.6214221135791953E9, 2021-05-19 13:01:53.579
78.0, -69.71360778808594, -61.86542510986328, -16.46303939819336, 152.24571228027344, -0.04800000041723251, -0.08000000566244125, 1.040000081062317, 0.0, 0.0, 0.0, 0.0, 0.0, 1.621422113579914E9, 2021-05-19 13:01:53.579
78.0, -89.09376525878906, -75.27670288085938, -31.546056747436523, 135.25161743164062, -0.04800000041723251, -0.08000000566244125, 1.040000081062317, 0.0, 0.0, 0.0, 0.0, 0.0, 1.621422113579914E9, 2021-05-19 13:01:53.579
79.0, -64.92279052734375, -48.895450592041016, -18.463886260986328, 158.65965270996094, -0.04800000041723251, -0.08000000566244125, 1.040000081062317, 0.0, 0.0, 0.0, 0.0, 0.0, 1.6214221136107135E9, 2021-05-19 13:01:53.610
79.0, -43.74747848510742, -23.475351333618164, -0.11219699680805206, 172.9123992919922, -0.04800000041723251, -0.08000000566244125, 1.040000081062317, 0.0, 0.0, 0.0, 0.0, 0.0, 1.6214221136107135E9, 2021-05-19 13:01:53.610
80.0, -70.64109802246094, -71.70136260986328, -22.353382110595703, 147.2716522216797, -0.04800000041723251, -0.08000000566244125, 1.040000081062317, 0.0, 0.0, 0.0, 0.0, 0.0, 1.6214221136112957E9, 2021-05-19 13:01:53.611
80.0, -87.95684051513672, -75.11962890625, -25.98856544494629, 137.3197784423828, -0.04800000041723251, -0.08000000566244125, 1.040000081062317, 0.0, 0.0, 0.0, 0.0, 0.0, 1.6214221136112957E9, 2021-05-19 13:01:53.611
81.0, -58.9389533996582, -45.90727233886719, -10.991565704345703, 162.50425720214844, -0.04800000041723251, -0.08000000566244125, 1.040000081062317, 0.0, 0.0, 0.0, 0.0, 0.0, 1.6214221136121032E9, 2021-05-19 13:01:53.612
81.0, -44.71237564086914, -28.056730270385742, -0.08975759893655777, 176.6859588623047, -0.04800000041723251, -0.08000000566244125, 1.040000081062317, 0.0, 0.0, 0.0, 0.0, 0.0, 1.6214221136121032E9, 2021-05-19 13:01:53.612
82.0, -66.26168060302734, -63.39130401611328, -11.526371955871582, 149.40713500976562, -0.04800000041723251, -0.08000000566244125, 1.040000081062317, 0.0, 0.0, 0.0, 0.0, 0.0, 1.6214221136400173E9, 2021-05-19 13:01:53.640
82.0, -85.79517364501953, -81.2829818725586, -19.073490142822266, 130.36355590820312, -0.04800000041723251, -0.08000000566244125, 1.040000081062317, 0.0, 0.0, 0.0, 0.0, 0.0, 1.6214221136400173E9, 2021-05-19 13:01:53.640
83.0, -57.18867874145508, -41.965415954589844, -5.467733860015869, 163.91046142578125, -0.04800000041723251, -0.08000000566244125, 1.040000081062317, 0.0, 0.0, 0.0, 0.0, 0.0, 1.6214221136407602E9, 2021-05-19 13:01:53.640
83.0, -38.934226989746094, -32.5894889831543, 8.7999849319458, 180.11544799804688, -0.04800000041723251, -0.08000000566244125, 1.040000081062317, 0.0, 0.0, 0.0, 0.0, 0.0, 1.6214221136407602E9, 2021-05-19 13:01:53.640
84.0, -67.0395736694336, -61.15858459472656, -6.402708530426025, 158.23703002929688, -0.04800000041723251, -0.08000000566244125, 1.040000081062317, 0.0, 0.0, 0.0, 0.0, 0.0, 1.6214221136413617E9, 2021-05-19 13:01:53.641
84.0, -85.24915313720703, -83.17911529541016, -24.87781524658203, 135.2777862548828, -0.04800000041723251, -0.08000000566244125, 1.040000081062317, 0.0, 0.0, 0.0, 0.0, 0.0, 1.6214221136413617E9, 2021-05-19 13:01:53.641
85.0, -64.84425354003906, -59.41952896118164, -15.24757194519043, 159.43006896972656, -0.04800000041723251, -0.08000000566244125, 1.040000081062317, 0.0, 0.0, 0.0, 0.0, 0.0, 1.621422113670104E9, 2021-05-19 13:01:53.670
85.0, -42.008426666259766, -31.317922592163086, 3.964293956756592, 174.67764282226562, -0.04800000041723251, -0.08000000566244125, 1.040000081062317, 0.0, 0.0, 0.0, 0.0, 0.0, 1.621422113670104E9, 2021-05-19 13:01:53.670
86.0, -61.242733001708984, -69.47238159179688, -12.68574047088623, 152.00636291503906, -0.04800000041723251, -0.08000000566244125, 1.040000081062317, 0.0, 0.0, 0.0, 0.0, 0.0, 1.6214221136708052E9, 2021-05-19 13:01:53.670
86.0, -82.45918273925781, -84.9144287109375, -19.73919105529785, 133.1647491455078, -0.04800000041723251, -0.08000000566244125, 1.040000081062317, 0.0, 0.0, 0.0, 0.0, 0.0, 1.6214221136708052E9, 2021-05-19 13:01:53.670
87.0, -60.73410415649414, -50.92247772216797, -7.064671039581299, 158.52874755859375, -0.04800000041723251, -0.08000000566244125, 1.040000081062317, 0.0, 0.0, 0.0, 0.0, 0.0, 1.6214221136715033E9, 2021-05-19 13:01:53.671
87.0, -46.01759719848633, -35.18497848510742, 1.8886494636535645, 169.13136291503906, -0.04800000041723251, -0.08000000566244125, 1.040000081062317, 0.0, 0.0, 0.0, 0.0, 0.0, 1.6214221136715033E9, 2021-05-19 13:01:53.671
88.0, -61.1866340637207, -65.71378326416016, -9.835936546325684, 142.9483184814453, -0.04800000041723251, -0.08000000566244125, 1.040000081062317, 0.0, 0.0, 0.0, 0.0, 0.0, 1.6214221137000496E9, 2021-05-19 13:01:53.700
88.0, -86.85356903076172, -83.59050750732422, -25.367740631103516, 125.77096557617188, -0.04800000041723251, -0.08000000566244125, 1.040000081062317, 0.0, 0.0, 0.0, 0.0, 0.0, 1.6214221137000496E9, 2021-05-19 13:01:53.700
89.0, -65.52865600585938, -43.2706413269043, -10.995306015014648, 154.7776336669922, -0.04800000041723251, -0.08000000566244125, 1.040000081062317, 0.0, 0.0, 0.0, 0.0, 0.0, 1.6214221137006683E9, 2021-05-19 13:01:53.700
89.0, -36.48085403442383, -28.546655654907227, 0.9761139154434204, 175.9791259765625, -0.04800000041723251, -0.08000000566244125, 1.040000081062317, 0.0, 0.0, 0.0, 0.0, 0.0, 1.6214221137006683E9, 2021-05-19 13:01:53.700
90.0, -65.73809051513672, -61.29322052001953, -9.850896835327148, 153.40509033203125, -0.04800000041723251, -0.08000000566244125, 1.040000081062317, 0.0, 0.0, 0.0, 0.0, 0.0, 1.6214221137014337E9, 2021-05-19 13:01:53.701
90.0, -82.22731018066406, -79.36441802978516, -21.52312469482422, 131.05169677734375, -0.04800000041723251, -0.08000000566244125, 1.040000081062317, 0.0, 0.0, 0.0, 0.0, 0.0, 1.6214221137014337E9, 2021-05-19 13:01:53.701
91.0, -69.30221557617188, -42.29826736450195, -13.635675430297852, 151.34814453125, -0.04800000041723251, -0.09600000083446503, 1.040000081062317, 0.0, 0.0, 0.0, 0.0, 0.0, 1.6214221137300172E9, 2021-05-19 13:01:53.730
91.0, -47.02737045288086, -31.310441970825195, 2.718907356262207, 171.64083862304688, -0.04800000041723251, -0.09600000083446503, 1.040000081062317, 0.0, 0.0, 0.0, 0.0, 0.0, 1.6214221137300172E9, 2021-05-19 13:01:53.730
92.0, -63.17251968383789, -66.23736572265625, -14.563170433044434, 152.67955017089844, -0.04800000041723251, -0.09600000083446503, 1.040000081062317, 0.0, 0.0, 0.0, 0.0, 0.0, 1.6214221137307675E9, 2021-05-19 13:01:53.730
92.0, -85.29402923583984, -82.11324310302734, -29.627487182617188, 130.4009552001953, -0.04800000041723251, -0.09600000083446503, 1.040000081062317, 0.0, 0.0, 0.0, 0.0, 0.0, 1.6214221137307675E9, 2021-05-19 13:01:53.730
93.0, -61.68777847290039, -52.39225769042969, -16.324663162231445, 156.6513214111328, -0.04800000041723251, -0.09600000083446503, 1.040000081062317, 0.0, 0.0, 0.0, 0.0, 0.0, 1.6214221137314484E9, 2021-05-19 13:01:53.731
93.0, -44.151390075683594, -37.71315002441406, -4.11014986038208, 171.45758056640625, -0.04800000041723251, -0.09600000083446503, 1.040000081062317, 0.0, 0.0, 0.0, 0.0, 0.0, 1.6214221137314484E9, 2021-05-19 13:01:53.731
94.0, -64.4104232788086, -67.40047454833984, -17.300777435302734, 149.12289428710938, -0.04800000041723251, -0.09600000083446503, 1.040000081062317, 0.0, 0.0, 0.0, 0.0, 0.0, 1.6214221137436347E9, 2021-05-19 13:01:53.743
94.0, -84.09725952148438, -83.61294555664062, -32.08086013793945, 129.57444763183594, -0.04800000041723251, -0.09600000083446503, 1.040000081062317, 0.0, 0.0, 0.0, 0.0, 0.0, 1.6214221137436347E9, 2021-05-19 13:01:53.743
95.0, -55.5468635559082, -46.90208435058594, -14.652928352355957, 161.01577758789062, -0.04800000041723251, -0.09600000083446503, 1.040000081062317, 0.0, 0.0, 0.0, 0.0, 0.0, 1.6214221137594404E9, 2021-05-19 13:01:53.759
95.0, -46.24199295043945, -30.61482048034668, -10.011712074279785, 179.65170288085938, -0.04800000041723251, -0.09600000083446503, 1.040000081062317, 0.0, 0.0, 0.0, 0.0, 0.0, 1.6214221137594404E9, 2021-05-19 13:01:53.759
96.0, -64.38798522949219, -62.07112121582031, -19.46617889404297, 154.97584533691406, -0.04800000041723251, -0.09600000083446503, 1.040000081062317, 0.0, 0.0, 0.0, 0.0, 0.0, 1.6214221137600868E9, 2021-05-19 13:01:53.760
96.0, -82.30584716796875, -79.1325454711914, -30.921493530273438, 135.13568115234375, -0.04800000041723251, -0.09600000083446503, 1.040000081062317, 0.0, 0.0, 0.0, 0.0, 0.0, 1.6214221137600868E9, 2021-05-19 13:01:53.760
97.0, -58.28446960449219, -46.64029312133789, -11.997598648071289, 154.20169067382812, -0.04800000041723251, -0.09600000083446503, 1.040000081062317, 0.0, 0.0, 0.0, 0.0, 0.0, 1.6214221137899816E9, 2021-05-19 13:01:53.789
97.0, -41.484840393066406, -37.537376403808594, -1.8512505292892456, 177.55361938476562, -0.04800000041723251, -0.09600000083446503, 1.040000081062317, 0.0, 0.0, 0.0, 0.0, 0.0, 1.6214221137899816E9, 2021-05-19 13:01:53.789
98.0, -60.752803802490234, -62.53860855102539, -15.273751258850098, 150.5328369140625, -0.04800000041723251, -0.09600000083446503, 1.040000081062317, 0.0, 0.0, 0.0, 0.0, 0.0, 1.6214221137906888E9, 2021-05-19 13:01:53.790
98.0, -83.517578125, -77.58048248291016, -29.98651695251465, 128.00743103027344, -0.04800000041723251, -0.09600000083446503, 1.040000081062317, 0.0, 0.0, 0.0, 0.0, 0.0, 1.6214221137906888E9, 2021-05-19 13:01:53.790
99.0, -61.11557388305664, -59.27741241455078, -14.529511451721191, 149.20518493652344, -0.04800000041723251, -0.09600000083446503, 1.040000081062317, 0.0, 0.0, 0.0, 0.0, 0.0, 1.62142211379142E9, 2021-05-19 13:01:53.791
99.0, -40.50498580932617, -37.90388488769531, -5.538791656494141, 169.42681884765625, -0.04800000041723251, -0.09600000083446503, 1.040000081062317, 0.0, 0.0, 0.0, 0.0, 0.0, 1.62142211379142E9, 2021-05-19 13:01:53.791
100.0, -63.056583404541016, -77.243896484375, -17.151180267333984, 145.25958251953125, -0.04800000041723251, -0.09600000083446503, 1.040000081062317, 0.0, 0.0, 0.0, 0.0, 0.0, 1.6214221138042903E9, 2021-05-19 13:01:53.804
100.0, -75.83956146240234, -84.1327896118164, -20.771404266357422, 128.4449920654297, -0.04800000041723251, -0.09600000083446503, 1.040000081062317, 0.0, 0.0, 0.0, 0.0, 0.0, 1.6214221138042903E9, 2021-05-19 13:01:53.804
0.0, -47.272335052490234, -46.013858795166016, -7.1880879402160645, 157.962158203125, -0.04800000041723251, -0.09600000083446503, 1.040000081062317, 0.0, 0.0, 0.0, 0.0, 0.0, 1.6214221138049808E9, 2021-05-19 13:01:53.804
1.0, -22.697452545166016, -30.971981048583984, 4.570157527923584, 183.1354217529297, -0.04800000041723251, -0.08000000566244125, 1.040000081062317, 0.0, 0.0, 0.0, 0.0, 0.0, 1.6214221138185549E9, 2021-05-19 13:01:53.818
1.0, -53.0355224609375, -65.76426696777344, -9.970573425292969, 155.1609649658203, -0.04800000041723251, -0.08000000566244125, 1.040000081062317, 0.0, 0.0, 0.0, 0.0, 0.0, 1.6214221138185549E9, 2021-05-19 13:01:53.818
2.0, -83.96449279785156, -78.04610443115234, -19.1669864654541, 136.33056640625, -0.04800000041723251, -0.08000000566244125, 1.040000081062317, 0.0, 0.0, 0.0, 0.0, 0.0, 1.6214221138506043E9, 2021-05-19 13:01:53.850
2.0, -58.08812713623047, -54.499691009521484, -3.6763217449188232, 157.0608367919922, -0.04800000041723251, -0.08000000566244125, 1.040000081062317, 0.0, 0.0, 0.0, 0.0, 0.0, 1.6214221138506043E9, 2021-05-19 13:01:53.850
3.0, -42.451602935791016, -41.286624908447266, 8.216560363769531, 170.44593811035156, -0.04800000041723251, -0.08000000566244125, 1.040000081062317, 0.0, 0.0, 0.0, 0.0, 0.0, 1.6214221138513072E9, 2021-05-19 13:01:53.851
3.0, -62.96869659423828, -65.76052856445312, -7.678014755249023, 146.45822143554688, -0.04800000041723251, -0.08000000566244125, 1.040000081062317, 0.0, 0.0, 0.0, 0.0, 0.0, 1.6214221138513072E9, 2021-05-19 13:01:53.851
4.0, -87.06861114501953, -84.35157012939453, -21.582962036132812, 126.07950592041016, -0.04800000041723251, -0.08000000566244125, 1.040000081062317, 0.0, 0.0, 0.0, 0.0, 0.0, 1.621422113852079E9, 2021-05-19 13:01:53.852
4.0, -60.62751770019531, -55.30751037597656, -10.688633918762207, 150.7927703857422, -0.04800000041723251, -0.08000000566244125, 1.040000081062317, 0.0, 0.0, 0.0, 0.0, 0.0, 1.621422113852079E9, 2021-05-19 13:01:53.852
5.0, -39.302608489990234, -35.05595397949219, 4.727233409881592, 173.67721557617188, -0.04800000041723251, -0.08000000566244125, 1.040000081062317, 0.0, 0.0, 0.0, 0.0, 0.0, 1.6214221138527803E9, 2021-05-19 13:01:53.852
5.0, -61.09500503540039, -66.1158218383789, -12.162154197692871, 142.3218994140625, -0.04800000041723251, -0.08000000566244125, 1.040000081062317, 0.0, 0.0, 0.0, 0.0, 0.0, 1.6214221138527803E9, 2021-05-19 13:01:53.852
6.0, -82.69667053222656, -82.32828521728516, -24.683340072631836, 130.62722778320312, -0.04800000041723251, -0.08000000566244125, 1.040000081062317, 0.0, 0.0, 0.0, 0.0, 0.0, 1.6214221138636172E9, 2021-05-19 13:01:53.863
6.0, -60.89678955078125, -53.00747299194336, -11.545071601867676, 151.52578735351562, -0.04800000041723251, -0.08000000566244125, 1.040000081062317, 0.0, 0.0, 0.0, 0.0, 0.0, 1.6214221138636172E9, 2021-05-19 13:01:53.863
7.0, -41.060359954833984, -41.518497467041016, -0.10845709592103958, 167.51759338378906, -0.04800000041723251, -0.08000000566244125, 1.040000081062317, 0.0, 0.0, 0.0, 0.0, 0.0, 1.6214221138785827E9, 2021-05-19 13:01:53.878
7.0, -57.78893280029297, -68.60659790039062, -13.875028610229492, 150.6207275390625, -0.04800000041723251, -0.08000000566244125, 1.040000081062317, 0.0, 0.0, 0.0, 0.0, 0.0, 1.6214221138785827E9, 2021-05-19 13:01:53.878
8.0, -79.78702545166016, -79.1231918334961, -22.43939971923828, 127.50067138671875, -0.04800000041723251, -0.08000000566244125, 1.040000081062317, 0.0, 0.0, 0.0, 0.0, 0.0, 1.6214221138941746E9, 2021-05-19 13:01:53.894
8.0, -56.876399993896484, -47.075992584228516, -7.655575275421143, 153.8033905029297, -0.04800000041723251, -0.08000000566244125, 1.040000081062317, 0.0, 0.0, 0.0, 0.0, 0.0, 1.6214221138941746E9, 2021-05-19 13:01:53.894
9.0, -32.731605529785156, -35.026031494140625, 1.099530577659607, 169.29779052734375, -0.04800000041723251, -0.08000000566244125, 1.040000081062317, 0.0, 0.0, 0.0, 0.0, 0.0, 1.6214221139093523E9, 2021-05-19 13:01:53.909
9.0, -61.39045715332031, -66.84510040283203, -12.62590217590332, 153.15264892578125, -0.04800000041723251, -0.08000000566244125, 1.040000081062317, 0.0, 0.0, 0.0, 0.0, 0.0, 1.6214221139093523E9, 2021-05-19 13:01:53.909
10.0, -81.34282684326172, -81.23623657226562, -24.197153091430664, 131.53976440429688, -0.04800000041723251, -0.08000000566244125, 1.055999994277954, 0.0, 0.0, 0.0, 0.0, 0.0, 1.621422113910028E9, 2021-05-19 13:01:53.910
10.0, -62.77048110961914, -51.62371063232422, -9.734959602355957, 157.82003784179688, -0.04800000041723251, -0.08000000566244125, 1.055999994277954, 0.0, 0.0, 0.0, 0.0, 0.0, 1.621422113910028E9, 2021-05-19 13:01:53.910
11.0, -42.219730377197266, -33.8853645324707, 0.03365910053253174, 173.60989379882812, -0.04800000041723251, -0.08000000566244125, 1.055999994277954, 0.0, 0.0, 0.0, 0.0, 0.0, 1.621422113924221E9, 2021-05-19 13:01:53.924
11.0, -59.96555709838867, -65.70817565917969, -8.42225456237793, 151.8175048828125, -0.04800000041723251, -0.08000000566244125, 1.055999994277954, 0.0, 0.0, 0.0, 0.0, 0.0, 1.621422113924221E9, 2021-05-19 13:01:53.924
12.0, -84.25994873046875, -82.50780487060547, -26.85622215270996, 128.76475524902344, -0.04800000041723251, -0.08000000566244125, 1.055999994277954, 0.0, 0.0, 0.0, 0.0, 0.0, 1.621422113924932E9, 2021-05-19 13:01:53.924
12.0, -61.270782470703125, -53.48244094848633, -17.49525260925293, 157.786376953125, -0.04800000041723251, -0.08000000566244125, 1.055999994277954, 0.0, 0.0, 0.0, 0.0, 0.0, 1.621422113924932E9, 2021-05-19 13:01:53.924
13.0, -40.215145111083984, -33.33559799194336, -9.035598754882812, 176.3998565673828, -0.04800000041723251, -0.08000000566244125, 1.055999994277954, 0.0, 0.0, 0.0, 0.0, 0.0, 1.6214221139387057E9, 2021-05-19 13:01:53.938
13.0, -65.65020751953125, -58.089996337890625, -18.97625160217285, 157.7003631591797, -0.04800000041723251, -0.08000000566244125, 1.055999994277954, 0.0, 0.0, 0.0, 0.0, 0.0, 1.6214221139387057E9, 2021-05-19 13:01:53.938
14.0, -81.13713073730469, -79.98711395263672, -27.862255096435547, 138.114501953125, -0.04800000041723251, -0.08000000566244125, 1.055999994277954, 0.0, 0.0, 0.0, 0.0, 0.0, 1.6214221139707093E9, 2021-05-19 13:01:53.970
14.0, -69.62197875976562, -46.33549118041992, -16.952966690063477, 154.1736297607422, -0.04800000041723251, -0.08000000566244125, 1.055999994277954, 0.0, 0.0, 0.0, 0.0, 0.0, 1.6214221139707093E9, 2021-05-19 13:01:53.970
15.0, -50.7766227722168, -30.971981048583984, -2.1280031204223633, 177.02442932128906, -0.04800000041723251, -0.08000000566244125, 1.055999994277954, 0.0, 0.0, 0.0, 0.0, 0.0, 1.6214221139714317E9, 2021-05-19 13:01:53.971
15.0, -72.06413269042969, -59.3092041015625, -12.693220138549805, 151.0807342529297, -0.04800000041723251, -0.08000000566244125, 1.055999994277954, 0.0, 0.0, 0.0, 0.0, 0.0, 1.6214221139714317E9, 2021-05-19 13:01:53.971
16.0, -89.52198791503906, -79.94223022460938, -25.382701873779297, 133.89964294433594, -0.04800000041723251, -0.08000000566244125, 1.055999994277954, 0.0, 0.0, 0.0, 0.0, 0.0, 1.621422113972196E9, 2021-05-19 13:01:53.972
16.0, -72.23616790771484, -53.88261032104492, -14.92594051361084, 153.59768676757812, -0.04800000041723251, -0.08000000566244125, 1.055999994277954, 0.0, 0.0, 0.0, 0.0, 0.0, 1.621422113972196E9, 2021-05-19 13:01:53.972
17.0, -49.179683685302734, -32.51655960083008, -2.9844400882720947, 173.92404174804688, -0.04800000041723251, -0.08000000566244125, 1.055999994277954, 0.0, 0.0, 0.0, 0.0, 0.0, 1.6214221139728901E9, 2021-05-19 13:01:53.972
17.0, -67.56129455566406, -59.52985763549805, -9.432027816772461, 157.67044067382812, -0.04800000041723251, -0.08000000566244125, 1.055999994277954, 0.0, 0.0, 0.0, 0.0, 0.0, 1.6214221139728901E9, 2021-05-19 13:01:53.972
18.0, -84.2113265991211, -75.37955474853516, -23.5277099609375, 131.66317749023438, -0.04800000041723251, -0.08000000566244125, 1.055999994277954, 0.0, 0.0, 0.0, 0.0, 0.0, 1.6214221139835968E9, 2021-05-19 13:01:53.983
18.0, -68.38033294677734, -47.973567962646484, -8.856082916259766, 150.56089782714844, -0.04800000041723251, -0.08000000566244125, 1.055999994277954, 0.0, 0.0, 0.0, 0.0, 0.0, 1.6214221139835968E9, 2021-05-19 13:01:53.983
19.0, -45.91849136352539, -33.690887451171875, 2.6029703617095947, 170.9695281982422, -0.04800000041723251, -0.08000000566244125, 1.055999994277954, 0.0, 0.0, 0.0, 0.0, 0.0, 1.6214221140139372E9, 2021-05-19 13:01:54.013
19.0, -63.798954010009766, -64.30570983886719, -12.715660095214844, 153.35833740234375, -0.04800000041723251, -0.08000000566244125, 1.055999994277954, 0.0, 0.0, 0.0, 0.0, 0.0, 1.6214221140139372E9, 2021-05-19 13:01:54.013
20.0, -87.76422882080078, -87.19015502929688, -29.78082275390625, 131.7230224609375, -0.04800000041723251, -0.08000000566244125, 1.040000081062317, 0.0, 0.0, 0.0, 0.0, 0.0, 1.621422114029047E9, 2021-05-19 13:01:54.029
20.0, -67.46405792236328, -56.276145935058594, -19.813989639282227, 155.70326232910156, -0.04800000041723251, -0.08000000566244125, 1.040000081062317, 0.0, 0.0, 0.0, 0.0, 0.0, 1.621422114029047E9, 2021-05-19 13:01:54.029
21.0, -42.53014373779297, -34.30423355102539, -0.77415931224823, 178.5652618408203, -0.04800000041723251, -0.08000000566244125, 1.040000081062317, 0.0, 0.0, 0.0, 0.0, 0.0, 1.6214221140456483E9, 2021-05-19 13:01:54.045
21.0, -63.6456184387207, -64.55254364013672, -11.178561210632324, 156.35400390625, -0.04800000041723251, -0.08000000566244125, 1.040000081062317, 0.0, 0.0, 0.0, 0.0, 0.0, 1.6214221140456483E9, 2021-05-19 13:01:54.045
22.0, -85.718505859375, -86.60673522949219, -23.07518196105957, 139.66656494140625, -0.04800000041723251, -0.08000000566244125, 1.040000081062317, 0.0, 0.0, 0.0, 0.0, 0.0, 1.6214221140464563E9, 2021-05-19 13:01:54.046
22.0, -60.365726470947266, -53.33658218383789, -18.134775161743164, 159.0205535888672, -0.04800000041723251, -0.08000000566244125, 1.040000081062317, 0.0, 0.0, 0.0, 0.0, 0.0, 1.6214221140464563E9, 2021-05-19 13:01:54.046
23.0, -40.90702438354492, -28.55226707458496, -4.394382476806641, 171.24253845214844, -0.04800000041723251, -0.08000000566244125, 1.040000081062317, 0.0, 0.0, 0.0, 0.0, 0.0, 1.621422114047181E9, 2021-05-19 13:01:54.047
23.0, -64.60677337646484, -60.73036575317383, -13.18688678741455, 158.1229705810547, -0.04800000041723251, -0.08000000566244125, 1.040000081062317, 0.0, 0.0, 0.0, 0.0, 0.0, 1.621422114047181E9, 2021-05-19 13:01:54.047
24.0, -84.33848571777344, -84.28799438476562, -25.22562599182129, 132.8599395751953, -0.04800000041723251, -0.08000000566244125, 1.040000081062317, 0.0, 0.0, 0.0, 0.0, 0.0, 1.6214221140479667E9, 2021-05-19 13:01:54.047
24.0, -64.31131744384766, -54.282779693603516, -14.346256256103516, 157.07205200195312, -0.04800000041723251, -0.08000000566244125, 1.040000081062317, 0.0, 0.0, 0.0, 0.0, 0.0, 1.6214221140479667E9, 2021-05-19 13:01:54.047
25.0, -34.28740310668945, -26.730934143066406, 7.008572578430176, 178.37452697753906, -0.04800000041723251, -0.08000000566244125, 1.040000081062317, 0.0, 0.0, 0.0, 0.0, 0.0, 1.621422114058538E9, 2021-05-19 13:01:54.058
25.0, -61.48021697998047, -68.71504974365234, -6.189534664154053, 155.22828674316406, -0.04800000041723251, -0.08000000566244125, 1.040000081062317, 0.0, 0.0, 0.0, 0.0, 0.0, 1.621422114058538E9, 2021-05-19 13:01:54.058
26.0, -84.24124908447266, -80.41345977783203, -21.392227172851562, 129.57630920410156, -0.04800000041723251, -0.08000000566244125, 1.040000081062317, 0.0, 0.0, 0.0, 0.0, 0.0, 1.6214221140744104E9, 2021-05-19 13:01:54.074
26.0, -66.73103332519531, -49.447086334228516, -7.367602825164795, 154.11380004882812, -0.04800000041723251, -0.08000000566244125, 1.040000081062317, 0.0, 0.0, 0.0, 0.0, 0.0, 1.6214221140744104E9, 2021-05-19 13:01:54.074
27.0, -39.99449157714844, -26.648656845092773, 7.367602825164795, 177.34979248046875, -0.04800000041723251, -0.08000000566244125, 1.040000081062317, 0.0, 0.0, 0.0, 0.0, 0.0, 1.6214221140751772E9, 2021-05-19 13:01:54.075
27.0, -60.96036911010742, -59.11846923828125, -8.429734230041504, 152.73377990722656, -0.04800000041723251, -0.08000000566244125, 1.040000081062317, 0.0, 0.0, 0.0, 0.0, 0.0, 1.6214221140751772E9, 2021-05-19 13:01:54.075
28.0, -79.39059448242188, -76.34819030761719, -21.799877166748047, 128.90313720703125, -0.04800000041723251, -0.08000000566244125, 1.040000081062317, 0.0, 0.0, 0.0, 0.0, 0.0, 1.6214221141050344E9, 2021-05-19 13:01:54.105
28.0, -61.54753494262695, -47.2555046081543, -14.22283935546875, 148.3319091796875, -0.04800000041723251, -0.08000000566244125, 1.040000081062317, 0.0, 0.0, 0.0, 0.0, 0.0, 1.6214221141050344E9, 2021-05-19 13:01:54.105
29.0, -41.692405700683594, -21.487594604492188, 2.58427095413208, 173.890380859375, -0.04800000041723251, -0.08000000566244125, 1.040000081062317, 0.0, 0.0, 0.0, 0.0, 0.0, 1.6214221141057749E9, 2021-05-19 13:01:54.105
29.0, -60.14507293701172, -61.2876091003418, -12.199553489685059, 150.25048828125, -0.04800000041723251, -0.08000000566244125, 1.040000081062317, 0.0, 0.0, 0.0, 0.0, 0.0, 1.6214221141057749E9, 2021-05-19 13:01:54.105
30.0, -86.34680938720703, -83.18846130371094, -22.925586700439453, 130.5823516845703, -0.04800000041723251, -0.08000000566244125, 1.040000081062317, 0.0, 0.0, 0.0, 0.0, 0.0, 1.6214221141065474E9, 2021-05-19 13:01:54.106
30.0, -72.01925659179688, -54.267818450927734, -13.171927452087402, 151.8175048828125, -0.04800000041723251, -0.08000000566244125, 1.040000081062317, 0.0, 0.0, 0.0, 0.0, 0.0, 1.6214221141065474E9, 2021-05-19 13:01:54.106
31.0, -42.58998107910156, -29.969688415527344, 2.4945132732391357, 175.35643005371094, -0.04800000041723251, -0.08000000566244125, 1.040000081062317, 0.0, 0.0, 0.0, 0.0, 0.0, 1.6214221141185844E9, 2021-05-19 13:01:54.118
31.0, -68.6570816040039, -60.434913635253906, -11.892881393432617, 152.98060607910156, -0.04800000041723251, -0.08000000566244125, 1.040000081062317, 0.0, 0.0, 0.0, 0.0, 0.0, 1.6214221141185844E9, 2021-05-19 13:01:54.118
32.0, -94.84012603759766, -81.63640594482422, -24.55992317199707, 133.2115020751953, -0.04800000041723251, -0.08000000566244125, 1.040000081062317, 0.0, 0.0, 0.0, 0.0, 0.0, 1.6214221141346607E9, 2021-05-19 13:01:54.134
32.0, -72.88317108154297, -50.35588455200195, -13.534697532653809, 153.74354553222656, -0.04800000041723251, -0.08000000566244125, 1.040000081062317, 0.0, 0.0, 0.0, 0.0, 0.0, 1.6214221141346607E9, 2021-05-19 13:01:54.134
33.0, -49.35546112060547, -25.309772491455078, 0.9312350749969482, 172.27101135253906, -0.04800000041723251, -0.08000000566244125, 1.040000081062317, 0.0, 0.0, 0.0, 0.0, 0.0, 1.6214221141494024E9, 2021-05-19 13:01:54.149
33.0, -65.91947937011719, -52.81299591064453, -11.376775741577148, 153.6687469482422, -0.04800000041723251, -0.08000000566244125, 1.040000081062317, 0.0, 0.0, 0.0, 0.0, 0.0, 1.6214221141494024E9, 2021-05-19 13:01:54.149
34.0, -90.8346939086914, -77.00267028808594, -24.245771408081055, 131.1283721923828, -0.04800000041723251, -0.08000000566244125, 1.040000081062317, 0.0, 0.0, 0.0, 0.0, 0.0, 1.6214221141501548E9, 2021-05-19 13:01:54.150
34.0, -66.09525299072266, -45.7109260559082, -12.921354293823242, 152.43458557128906, -0.04800000041723251, -0.08000000566244125, 1.040000081062317, 0.0, 0.0, 0.0, 0.0, 0.0, 1.6214221141501548E9, 2021-05-19 13:01:54.150
35.0, -49.89026641845703, -26.854351043701172, -4.536498546600342, 170.18788146972656, -0.04800000041723251, -0.08000000566244125, 1.040000081062317, 0.0, 0.0, 0.0, 0.0, 0.0, 1.6214221141644876E9, 2021-05-19 13:01:54.164
35.0, -62.1384391784668, -54.18553924560547, -14.731466293334961, 152.67767333984375, -0.04800000041723251, -0.08000000566244125, 1.040000081062317, 0.0, 0.0, 0.0, 0.0, 0.0, 1.6214221141644876E9, 2021-05-19 13:01:54.164
36.0, -85.48663330078125, -77.28316497802734, -23.639907836914062, 132.25408935546875, -0.04800000041723251, -0.08000000566244125, 1.040000081062317, 0.0, 0.0, 0.0, 0.0, 0.0, 1.6214221141650302E9, 2021-05-19 13:01:54.165
36.0, -67.99512481689453, -46.56736373901367, -13.02981185913086, 150.2542266845703, -0.04800000041723251, -0.08000000566244125, 1.040000081062317, 0.0, 0.0, 0.0, 0.0, 0.0, 1.6214221141650302E9, 2021-05-19 13:01:54.165
37.0, -41.60264587402344, -27.920223236083984, 2.7675259113311768, 172.31588745117188, -0.04800000041723251, -0.08000000566244125, 1.040000081062317, 0.0, 0.0, 0.0, 0.0, 0.0, 1.6214221141785927E9, 2021-05-19 13:01:54.178
37.0, -64.65538787841797, -52.599822998046875, -7.083370685577393, 156.32034301757812, -0.04800000041723251, -0.08000000566244125, 1.040000081062317, 0.0, 0.0, 0.0, 0.0, 0.0, 1.6214221141785927E9, 2021-05-19 13:01:54.178
38.0, -90.45696258544922, -77.42901611328125, -19.1669864654541, 131.01617431640625, -0.04800000041723251, -0.08000000566244125, 1.040000081062317, 0.0, 0.0, 0.0, 0.0, 0.0, 1.6214221141947348E9, 2021-05-19 13:01:54.194
38.0, -75.34402465820312, -46.27939224243164, -14.93716049194336, 153.73980712890625, -0.04800000041723251, -0.08000000566244125, 1.040000081062317, 0.0, 0.0, 0.0, 0.0, 0.0, 1.6214221141947348E9, 2021-05-19 13:01:54.194
39.0, -47.69120407104492, -24.939523696899414, -2.501993179321289, 178.63258361816406, -0.04800000041723251, -0.08000000566244125, 1.040000081062317, 0.0, 0.0, 0.0, 0.0, 0.0, 1.6214221142093527E9, 2021-05-19 13:01:54.209
39.0, -63.00609588623047, -63.37073516845703, -20.778884887695312, 150.24673461914062, -0.04800000041723251, -0.08000000566244125, 1.040000081062317, 0.0, 0.0, 0.0, 0.0, 0.0, 1.6214221142093527E9, 2021-05-19 13:01:54.209
40.0, -87.76049041748047, -81.95803833007812, -29.747163772583008, 137.7442626953125, -0.04800000041723251, -0.08000000566244125, 1.055999994277954, 0.0, 0.0, 0.0, 0.0, 0.0, 1.6214221142100894E9, 2021-05-19 13:01:54.210
40.0, -64.56563568115234, -45.385555267333984, -11.197260856628418, 156.12960815429688, -0.04800000041723251, -0.08000000566244125, 1.055999994277954, 0.0, 0.0, 0.0, 0.0, 0.0, 1.6214221142100894E9, 2021-05-19 13:01:54.210
41.0, -41.116458892822266, -33.260799407958984, -0.127156600356102, 174.33917236328125, -0.04800000041723251, -0.08000000566244125, 1.055999994277954, 0.0, 0.0, 0.0, 0.0, 0.0, 1.6214221142242577E9, 2021-05-19 13:01:54.224
41.0, -61.255821228027344, -59.06985092163086, -10.71855354309082, 151.87359619140625, -0.04800000041723251, -0.08000000566244125, 1.055999994277954, 0.0, 0.0, 0.0, 0.0, 0.0, 1.6214221142242577E9, 2021-05-19 13:01:54.224
42.0, -82.31893920898438, -72.43999481201172, -17.67102813720703, 137.75173950195312, -0.04800000041723251, -0.08000000566244125, 1.055999994277954, 0.0, 0.0, 0.0, 0.0, 0.0, 1.6214221142249799E9, 2021-05-19 13:01:54.224
42.0, -66.09151458740234, -52.741939544677734, -8.713967323303223, 156.4624481201172, -0.04800000041723251, -0.08000000566244125, 1.055999994277954, 0.0, 0.0, 0.0, 0.0, 0.0, 1.6214221142249799E9, 2021-05-19 13:01:54.224
43.0, -44.228057861328125, -28.97487449645996, 4.521539211273193, 174.8291015625, -0.04800000041723251, -0.08000000566244125, 1.055999994277954, 0.0, 0.0, 0.0, 0.0, 0.0, 1.6214221142549577E9, 2021-05-19 13:01:54.254
43.0, -58.70895004272461, -50.83832931518555, -8.2427396774292, 154.33071899414062, -0.04800000041723251, -0.08000000566244125, 1.055999994277954, 0.0, 0.0, 0.0, 0.0, 0.0, 1.6214221142549577E9, 2021-05-19 13:01:54.254
44.0, -83.79994201660156, -85.25662994384766, -25.277984619140625, 136.3679656982422, -0.04800000041723251, -0.08000000566244125, 1.055999994277954, 0.0, 0.0, 0.0, 0.0, 0.0, 1.621422114255671E9, 2021-05-19 13:01:54.255
44.0, -64.64043426513672, -52.70827865600586, -12.850296020507812, 158.6465606689453, -0.04800000041723251, -0.08000000566244125, 1.055999994277954, 0.0, 0.0, 0.0, 0.0, 0.0, 1.621422114255671E9, 2021-05-19 13:01:54.255
45.0, -42.608680725097656, -28.110958099365234, 6.163355350494385, 181.0709991455078, -0.04800000041723251, -0.08000000566244125, 1.055999994277954, 0.0, 0.0, 0.0, 0.0, 0.0, 1.6214221142563865E9, 2021-05-19 13:01:54.256
45.0, -56.244354248046875, -53.594635009765625, -9.484386444091797, 155.36293029785156, -0.04800000041723251, -0.08000000566244125, 1.055999994277954, 0.0, 0.0, 0.0, 0.0, 0.0, 1.6214221142563865E9, 2021-05-19 13:01:54.256
46.0, -89.14051818847656, -76.41924285888672, -19.35398292541504, 134.12403869628906, -0.04800000041723251, -0.08000000566244125, 1.055999994277954, 0.0, 0.0, 0.0, 0.0, 0.0, 1.6214221142685564E9, 2021-05-19 13:01:54.268
46.0, -73.2347183227539, -53.30292510986328, -17.513952255249023, 152.0680694580078, -0.04800000041723251, -0.08000000566244125, 1.055999994277954, 0.0, 0.0, 0.0, 0.0, 0.0, 1.6214221142685564E9, 2021-05-19 13:01:54.268
47.0, -47.10029983520508, -18.693889617919922, 0.882616400718689, 173.82681274414062, -0.04800000041723251, -0.08000000566244125, 1.055999994277954, 0.0, 0.0, 0.0, 0.0, 0.0, 1.6214221142842872E9, 2021-05-19 13:01:54.284
47.0, -66.31216430664062, -54.51839065551758, -13.964786529541016, 157.46849060058594, -0.04800000041723251, -0.08000000566244125, 1.055999994277954, 0.0, 0.0, 0.0, 0.0, 0.0, 1.6214221142842872E9, 2021-05-19 13:01:54.284
48.0, -86.40290832519531, -77.95634460449219, -25.094728469848633, 140.0181121826172, -0.04800000041723251, -0.08000000566244125, 1.055999994277954, 0.0, 0.0, 0.0, 0.0, 0.0, 1.6214221142850204E9, 2021-05-19 13:01:54.285
48.0, -68.0138168334961, -42.64794921875, -11.174820899963379, 158.22021484375, -0.04800000041723251, -0.08000000566244125, 1.055999994277954, 0.0, 0.0, 0.0, 0.0, 0.0, 1.6214221142850204E9, 2021-05-19 13:01:54.285
49.0, -49.55741500854492, -30.463356018066406, 1.2416467666625977, 177.9369659423828, -0.04800000041723251, -0.08000000566244125, 1.055999994277954, 0.0, 0.0, 0.0, 0.0, 0.0, 1.621422114315133E9, 2021-05-19 13:01:54.315
49.0, -62.557308197021484, -55.01579666137695, -10.367002487182617, 158.32492065429688, -0.04800000041723251, -0.08000000566244125, 1.055999994277954, 0.0, 0.0, 0.0, 0.0, 0.0, 1.621422114315133E9, 2021-05-19 13:01:54.315
50.0, -82.16934204101562, -81.65884399414062, -22.00931167602539, 134.3035430908203, -0.04800000041723251, -0.08000000566244125, 1.040000081062317, 0.0, 0.0, 0.0, 0.0, 0.0, 1.6214221143158252E9, 2021-05-19 13:01:54.315
50.0, -66.43932342529297, -50.90938949584961, -12.106056213378906, 153.7098846435547, -0.04800000041723251, -0.08000000566244125, 1.040000081062317, 0.0, 0.0, 0.0, 0.0, 0.0, 1.6214221143158252E9, 2021-05-19 13:01:54.315
51.0, -45.58563995361328, -25.53416633605957, 2.4645941257476807, 181.36270141601562, -0.04800000041723251, -0.08000000566244125, 1.040000081062317, 0.0, 0.0, 0.0, 0.0, 0.0, 1.6214221143166137E9, 2021-05-19 13:01:54.316
51.0, -64.82368469238281, -54.15936279296875, -8.43347454071045, 157.08328247070312, -0.04800000041723251, -0.08000000566244125, 1.040000081062317, 0.0, 0.0, 0.0, 0.0, 0.0, 1.6214221143166137E9, 2021-05-19 13:01:54.316
52.0, -88.52342987060547, -76.0340347290039, -25.794090270996094, 135.64242553710938, -0.04800000041723251, -0.08000000566244125, 1.040000081062317, 0.0, 0.0, 0.0, 0.0, 0.0, 1.621422114328587E9, 2021-05-19 13:01:54.328
52.0, -69.00115203857422, -42.397377014160156, -12.943793296813965, 151.1405792236328, -0.04800000041723251, -0.08000000566244125, 1.040000081062317, 0.0, 0.0, 0.0, 0.0, 0.0, 1.621422114328587E9, 2021-05-19 13:01:54.328
53.0, -46.939483642578125, -30.182863235473633, -0.17951519787311554, 172.09898376464844, -0.04800000041723251, -0.08000000566244125, 1.040000081062317, 0.0, 0.0, 0.0, 0.0, 0.0, 1.62142211434432E9, 2021-05-19 13:01:54.344
53.0, -60.257266998291016, -57.8656005859375, -7.446140766143799, 157.75645446777344, -0.04800000041723251, -0.08000000566244125, 1.040000081062317, 0.0, 0.0, 0.0, 0.0, 0.0, 1.62142211434432E9, 2021-05-19 13:01:54.344
54.0, -82.43861389160156, -79.07831573486328, -22.443140029907227, 137.104736328125, -0.04800000041723251, -0.08000000566244125, 1.040000081062317, 0.0, 0.0, 0.0, 0.0, 0.0, 1.6214221143450196E9, 2021-05-19 13:01:54.345
54.0, -65.70256042480469, -45.66604995727539, -6.118476390838623, 152.83848571777344, -0.04800000041723251, -0.08000000566244125, 1.040000081062317, 0.0, 0.0, 0.0, 0.0, 0.0, 1.6214221143450196E9, 2021-05-19 13:01:54.345
55.0, -39.47464370727539, -26.334505081176758, 13.242985725402832, 179.38055419921875, -0.04800000041723251, -0.08000000566244125, 1.040000081062317, 0.0, 0.0, 0.0, 0.0, 0.0, 1.6214221143748078E9, 2021-05-19 13:01:54.374
55.0, -63.2940673828125, -58.65846252441406, 1.2715660333633423, 160.78204345703125, -0.04800000041723251, -0.08000000566244125, 1.040000081062317, 0.0, 0.0, 0.0, 0.0, 0.0, 1.6214221143748078E9, 2021-05-19 13:01:54.374
56.0, -84.54418182373047, -69.58271026611328, -16.938007354736328, 130.7880401611328, -0.04800000041723251, -0.08000000566244125, 1.040000081062317, 0.0, 0.0, 0.0, 0.0, 0.0, 1.6214221143755147E9, 2021-05-19 13:01:54.375
56.0, -70.10816192626953, -36.81744384765625, -8.096883773803711, 153.51914978027344, -0.04800000041723251, -0.08000000566244125, 1.040000081062317, 0.0, 0.0, 0.0, 0.0, 0.0, 1.6214221143755147E9, 2021-05-19 13:01:54.375
57.0, -47.4069709777832, -26.237268447875977, 1.791412115097046, 172.7123260498047, -0.04800000041723251, -0.08000000566244125, 1.040000081062317, 0.0, 0.0, 0.0, 0.0, 0.0, 1.6214221144056478E9, 2021-05-19 13:01:54.405
57.0, -61.90282440185547, -61.728919982910156, -8.448433876037598, 155.5948028564453, -0.04800000041723251, -0.08000000566244125, 1.040000081062317, 0.0, 0.0, 0.0, 0.0, 0.0, 1.6214221144056478E9, 2021-05-19 13:01:54.405
58.0, -84.54043579101562, -78.71554565429688, -21.52312469482422, 133.40223693847656, -0.04800000041723251, -0.08000000566244125, 1.040000081062317, 0.0, 0.0, 0.0, 0.0, 0.0, 1.6214221144063795E9, 2021-05-19 13:01:54.406
58.0, -67.41917419433594, -44.581478118896484, -11.10002326965332, 155.3180389404297, -0.04800000041723251, -0.08000000566244125, 1.040000081062317, 0.0, 0.0, 0.0, 0.0, 0.0, 1.6214221144063795E9, 2021-05-19 13:01:54.406
59.0, -43.19584274291992, -28.944955825805664, 3.257452964782715, 174.7842254638672, -0.04800000041723251, -0.08000000566244125, 1.040000081062317, 0.0, 0.0, 0.0, 0.0, 0.0, 1.6214221144070597E9, 2021-05-19 13:01:54.407
59.0, -60.14133071899414, -48.86366271972656, -7.958507061004639, 153.5453338623047, -0.04800000041723251, -0.08000000566244125, 1.040000081062317, 0.0, 0.0, 0.0, 0.0, 0.0, 1.6214221144070597E9, 2021-05-19 13:01:54.407
60.0, -84.47686004638672, -73.89107513427734, -25.352781295776367, 131.1246337890625, -0.04800000041723251, -0.08000000566244125, 1.040000081062317, 0.0, 0.0, 0.0, 0.0, 0.0, 1.6214221144079416E9, 2021-05-19 13:01:54.407
60.0, -70.7813491821289, -52.177215576171875, -15.827256202697754, 152.09425354003906, -0.04800000041723251, -0.08000000566244125, 1.040000081062317, 0.0, 0.0, 0.0, 0.0, 0.0, 1.6214221144079416E9, 2021-05-19 13:01:54.407
61.0, -46.86094665527344, -29.81635284423828, 1.2304270267486572, 167.3717498779297, -0.04800000041723251, -0.08000000566244125, 1.040000081062317, 0.0, 0.0, 0.0, 0.0, 0.0, 1.621422114434884E9, 2021-05-19 13:01:54.434
61.0, -64.9620590209961, -53.751712799072266, -5.441554546356201, 155.7107391357422, -0.04800000041723251, -0.08000000566244125, 1.040000081062317, 0.0, 0.0, 0.0, 0.0, 0.0, 1.621422114434884E9, 2021-05-19 13:01:54.434
62.0, -88.10456085205078, -71.35916137695312, -19.716753005981445, 140.35470581054688, -0.04800000041723251, -0.08000000566244125, 1.040000081062317, 0.0, 0.0, 0.0, 0.0, 0.0, 1.6214221144355123E9, 2021-05-19 13:01:54.435
62.0, -68.3167495727539, -46.346710205078125, -13.949827194213867, 153.4256591796875, -0.04800000041723251, -0.08000000566244125, 1.040000081062317, 0.0, 0.0, 0.0, 0.0, 0.0, 1.6214221144355123E9, 2021-05-19 13:01:54.435
63.0, -46.05686950683594, -26.454181671142578, 4.319584369659424, 172.7123260498047, -0.04800000041723251, -0.08000000566244125, 1.040000081062317, 0.0, 0.0, 0.0, 0.0, 0.0, 1.6214221144946384E9, 2021-05-19 13:01:54.494
63.0, -65.27995300292969, -56.15272903442383, -10.662454605102539, 154.80941772460938, -0.04800000041723251, -0.08000000566244125, 1.040000081062317, 0.0, 0.0, 0.0, 0.0, 0.0, 1.6214221144946384E9, 2021-05-19 13:01:54.494
64.0, -82.18804168701172, -67.80625915527344, -23.250957489013672, 139.3449249267578, -0.04800000041723251, -0.08000000566244125, 1.040000081062317, 0.0, 0.0, 0.0, 0.0, 0.0, 1.6214221144953666E9, 2021-05-19 13:01:54.495
64.0, -71.77242279052734, -45.13872146606445, -16.13018798828125, 153.6874542236328, -0.04800000041723251, -0.08000000566244125, 1.040000081062317, 0.0, 0.0, 0.0, 0.0, 0.0, 1.6214221144953666E9, 2021-05-19 13:01:54.495
65.0, -47.72112274169922, -36.58930969238281, -2.748826503753662, 170.0457763671875, -0.04800000041723251, -0.08000000566244125, 1.040000081062317, 0.0, 0.0, 0.0, 0.0, 0.0, 1.6214221145127342E9, 2021-05-19 13:01:54.512
65.0, -63.832611083984375, -54.750267028808594, -12.56606388092041, 158.07435607910156, -0.04800000041723251, -0.08000000566244125, 1.040000081062317, 0.0, 0.0, 0.0, 0.0, 0.0, 1.6214221145127342E9, 2021-05-19 13:01:54.512
66.0, -85.28842163085938, -72.01737976074219, -22.933067321777344, 136.69334411621094, -0.04800000041723251, -0.08000000566244125, 1.040000081062317, 0.0, 0.0, 0.0, 0.0, 0.0, 1.6214221145134752E9, 2021-05-19 13:01:54.513
66.0, -68.6159439086914, -42.5768928527832, -19.52227783203125, 148.24215698242188, -0.04800000041723251, -0.08000000566244125, 1.040000081062317, 0.0, 0.0, 0.0, 0.0, 0.0, 1.6214221145134752E9, 2021-05-19 13:01:54.513
67.0, -43.711952209472656, -26.73467445373535, 3.6763217449188232, 176.5270233154297, -0.04800000041723251, -0.08000000566244125, 1.040000081062317, 0.0, 0.0, 0.0, 0.0, 0.0, 1.6214221145140915E9, 2021-05-19 13:01:54.514
67.0, -62.07112121582031, -56.56037521362305, -6.582223892211914, 156.45497131347656, -0.04800000041723251, -0.08000000566244125, 1.040000081062317, 0.0, 0.0, 0.0, 0.0, 0.0, 1.6214221145140915E9, 2021-05-19 13:01:54.514
68.0, -88.01480865478516, -74.2276611328125, -28.681293487548828, 130.79177856445312, -0.04800000041723251, -0.08000000566244125, 1.040000081062317, 0.0, 0.0, 0.0, 0.0, 0.0, 1.621422114514948E9, 2021-05-19 13:01:54.514
68.0, -68.42147064208984, -44.588958740234375, -11.848003387451172, 147.9467010498047, -0.04800000041723251, -0.08000000566244125, 1.040000081062317, 0.0, 0.0, 0.0, 0.0, 0.0, 1.621422114514948E9, 2021-05-19 13:01:54.514
69.0, -45.57442092895508, -26.34198570251465, 3.3322508335113525, 171.25001525878906, -0.04800000041723251, -0.08000000566244125, 1.040000081062317, 0.0, 0.0, 0.0, 0.0, 0.0, 1.621422114525585E9, 2021-05-19 13:01:54.525
69.0, -65.95313262939453, -52.33055114746094, -3.1078567504882812, 157.82003784179688, -0.04800000041723251, -0.08000000566244125, 1.040000081062317, 0.0, 0.0, 0.0, 0.0, 0.0, 1.621422114525585E9, 2021-05-19 13:01:54.525
70.0, -89.01709747314453, -73.27024841308594, -18.508764266967773, 133.72012329101562, -0.04800000041723251, -0.08000000566244125, 1.040000081062317, 0.0, 0.0, 0.0, 0.0, 0.0, 1.6214221145263512E9, 2021-05-19 13:01:54.526
70.0, -70.1380844116211, -42.40111541748047, -5.0713043212890625, 152.0643310546875, -0.04800000041723251, -0.08000000566244125, 1.040000081062317, 0.0, 0.0, 0.0, 0.0, 0.0, 1.6214221145263512E9, 2021-05-19 13:01:54.526
71.0, -45.88483428955078, -27.83794593811035, 5.007726192474365, 174.05494689941406, -0.04800000041723251, -0.08000000566244125, 1.040000081062317, 0.0, 0.0, 0.0, 0.0, 0.0, 1.6214221145270739E9, 2021-05-19 13:01:54.527
71.0, -54.883033752441406, -48.52707290649414, -8.687788009643555, 160.497802734375, -0.04800000041723251, -0.08000000566244125, 1.040000081062317, 0.0, 0.0, 0.0, 0.0, 0.0, 1.6214221145270739E9, 2021-05-19 13:01:54.527
72.0, -77.49073028564453, -76.21729278564453, -28.72991180419922, 135.8294219970703, -0.04800000041723251, -0.08000000566244125, 1.040000081062317, 0.0, 0.0, 0.0, 0.0, 0.0, 1.6214221145278125E9, 2021-05-19 13:01:54.527
72.0, -66.92550659179688, -48.014705657958984, -22.222484588623047, 155.8416290283203, -0.04800000041723251, -0.08000000566244125, 1.040000081062317, 0.0, 0.0, 0.0, 0.0, 0.0, 1.6214221145278125E9, 2021-05-19 13:01:54.527
