Sample Index, EXG Channel 0, EXG Channel 1, EXG Channel 2, EXG Channel 3, Accel Channel 0, Accel Channel 1, Accel Channel 2, Other, Other, Other, Other, Other, Timestamp, Timestamp (Formatted)
0.0, -173.4322509765625, 34.75115203857422, 102.3105697631836, 228.15260314941406, 0.0, 0.0, 0.0, 0.0, 0.0, 0.0, 0.0, 0.0, 1.6214229929923205E9, 2021-05-19 13:16:32.992
1.0, -167.38108825683594, 18.0225772857666, 95.79940795898438, 216.63369750976562, 0.0, -0.09600000083446503, 0.0, 0.0, 0.0, 0.0, 0.0, 0.0, 1.6214229930058112E9, 2021-05-19 13:16:33.005
1.0, -196.8627166748047, -10.89806842803955, 73.98457336425781, 185.03903198242188, 0.0, -0.09600000083446503, 0.0, 0.0, 0.0, 0.0, 0.0, 0.0, 1.6214229930058112E9, 2021-05-19 13:16:33.005
2.0, -192.89842224121094, 4.196167945861816, 80.87346649169922, 203.6599884033203, -0.04800000041723251, -0.09600000083446503, 0.0, 0.0, 0.0, 0.0, 0.0, 0.0, 1.621422993022405E9, 2021-05-19 13:16:33.022
2.0, -171.1060333251953, 37.55233383178711, 103.8177490234375, 233.0443878173828, -0.04800000041723251, -0.09600000083446503, 0.0, 0.0, 0.0, 0.0, 0.0, 0.0, 1.621422993022405E9, 2021-05-19 13:16:33.022
3.0, -167.99069213867188, 20.692867279052734, 93.43205261230469, 221.2936248779297, -0.04800000041723251, -0.09600000083446503, 0.0, 0.0, 0.0, 0.0, 0.0, 0.0, 1.6214229930231478E9, 2021-05-19 13:16:33.023
3.0, -195.28822326660156, -9.058037757873535, 71.897705078125, 185.5887908935547, -0.04800000041723251, -0.09600000083446503, 0.0, 0.0, 0.0, 0.0, 0.0, 0.0, 1.6214229930231478E9, 2021-05-19 13:16:33.023
4.0, -198.05575561523438, 6.152135372161865, 80.83232879638672, 200.9822235107422, -0.04800000041723251, -0.09600000083446503, 0.0, 0.0, 0.0, 0.0, 0.0, 0.0, 1.621422993035523E9, 2021-05-19 13:16:33.035
4.0, -170.79188537597656, 40.77613067626953, 108.60482788085938, 233.60162353515625, -0.04800000041723251, -0.09600000083446503, 0.0, 0.0, 0.0, 0.0, 0.0, 0.0, 1.621422993035523E9, 2021-05-19 13:16:33.035
5.0, -170.9676513671875, 29.204877853393555, 104.02718353271484, 221.81719970703125, -0.04800000041723251, -0.09600000083446503, 0.0, 0.0, 0.0, 0.0, 0.0, 0.0, 1.6214229930512197E9, 2021-05-19 13:16:33.051
5.0, -195.25830078125, -4.140069484710693, 77.62723541259766, 191.6623992919922, -0.04800000041723251, -0.09600000083446503, 0.0, 0.0, 0.0, 0.0, 0.0, 0.0, 1.6214229930512197E9, 2021-05-19 13:16:33.051
6.0, -195.84921264648438, 5.606110095977783, 86.7114486694336, 202.42208862304688, -0.04800000041723251, -0.09600000083446503, 0.0, 0.0, 0.0, 0.0, 0.0, 0.0, 1.6214229930520144E9, 2021-05-19 13:16:33.052
6.0, -171.7679901123047, 35.817020416259766, 115.9612045288086, 230.18710327148438, -0.04800000041723251, -0.09600000083446503, 0.0, 0.0, 0.0, 0.0, 0.0, 0.0, 1.6214229930520144E9, 2021-05-19 13:16:33.052
7.0, -170.84423828125, 27.551843643188477, 107.4903335571289, 220.86727905273438, -0.04800000041723251, -0.09600000083446503, 0.0, 0.0, 0.0, 0.0, 0.0, 0.0, 1.6214229930654979E9, 2021-05-19 13:16:33.065
7.0, -198.19786071777344, -8.444694519042969, 86.51697540283203, 186.3218231201172, -0.04800000041723251, -0.09600000083446503, 0.0, 0.0, 0.0, 0.0, 0.0, 0.0, 1.6214229930654979E9, 2021-05-19 13:16:33.065
8.0, -189.65219116210938, 5.067564487457275, 89.16108703613281, 200.21554565429688, -0.04800000041723251, -0.09600000083446503, 0.0, 0.0, 0.0, 0.0, 0.0, 0.0, 1.6214229930812752E9, 2021-05-19 13:16:33.081
8.0, -167.39605712890625, 37.81412887573242, 108.72076416015625, 230.4937744140625, -0.04800000041723251, -0.09600000083446503, 0.0, 0.0, 0.0, 0.0, 0.0, 0.0, 1.6214229930812752E9, 2021-05-19 13:16:33.081
9.0, -168.719970703125, 23.093881607055664, 102.84537506103516, 215.97921752929688, -0.04800000041723251, -0.09600000083446503, 0.0, 0.0, 0.0, 0.0, 0.0, 0.0, 1.6214229930819736E9, 2021-05-19 13:16:33.081
9.0, -190.7592010498047, -2.995659828186035, 73.4834213256836, 186.01513671875, -0.04800000041723251, -0.09600000083446503, 0.0, 0.0, 0.0, 0.0, 0.0, 0.0, 1.6214229930819736E9, 2021-05-19 13:16:33.081
10.0, -192.40850830078125, 6.627102851867676, 84.0635986328125, 198.6186065673828, -0.04800000041723251, -0.09600000083446503, 1.040000081062317, 0.0, 0.0, 0.0, 0.0, 0.0, 1.621422993095556E9, 2021-05-19 13:16:33.095
10.0, -167.93460083007812, 39.87107467651367, 111.31251525878906, 232.58811950683594, -0.04800000041723251, -0.09600000083446503, 1.040000081062317, 0.0, 0.0, 0.0, 0.0, 0.0, 1.621422993095556E9, 2021-05-19 13:16:33.095
11.0, -166.4722900390625, 23.400554656982422, 101.85430908203125, 221.31605529785156, -0.04800000041723251, -0.09600000083446503, 1.040000081062317, 0.0, 0.0, 0.0, 0.0, 0.0, 1.6214229931113584E9, 2021-05-19 13:16:33.111
11.0, -189.7494354248047, -5.946440696716309, 74.99808502197266, 186.4078369140625, -0.04800000041723251, -0.09600000083446503, 1.040000081062317, 0.0, 0.0, 0.0, 0.0, 0.0, 1.6214229931113584E9, 2021-05-19 13:16:33.111
12.0, -194.92172241210938, 6.073597431182861, 84.19075775146484, 201.1467742919922, -0.04800000041723251, -0.09600000083446503, 1.040000081062317, 0.0, 0.0, 0.0, 0.0, 0.0, 1.621422993112034E9, 2021-05-19 13:16:33.112
12.0, -164.08250427246094, 40.17400360107422, 109.4986572265625, 236.0063934326172, -0.04800000041723251, -0.09600000083446503, 1.040000081062317, 0.0, 0.0, 0.0, 0.0, 0.0, 1.621422993112034E9, 2021-05-19 13:16:33.112
13.0, -170.36927795410156, 23.696006774902344, 96.56608581542969, 220.9046630859375, -0.04800000041723251, -0.09600000083446503, 1.040000081062317, 0.0, 0.0, 0.0, 0.0, 0.0, 1.6214229931419413E9, 2021-05-19 13:16:33.141
13.0, -194.13633728027344, -5.486433029174805, 72.37267303466797, 190.24496459960938, -0.04800000041723251, -0.09600000083446503, 1.040000081062317, 0.0, 0.0, 0.0, 0.0, 0.0, 1.6214229931419413E9, 2021-05-19 13:16:33.141
14.0, -190.98733520507812, 9.806017875671387, 77.82544708251953, 199.8378143310547, -0.04800000041723251, -0.09600000083446503, 1.040000081062317, 0.0, 0.0, 0.0, 0.0, 0.0, 1.6214229931425617E9, 2021-05-19 13:16:33.142
14.0, -166.83506774902344, 41.37825393676758, 106.39080047607422, 236.0138702392578, -0.04800000041723251, -0.09600000083446503, 1.040000081062317, 0.0, 0.0, 0.0, 0.0, 0.0, 1.6214229931425617E9, 2021-05-19 13:16:33.142
15.0, -172.21304321289062, 16.309703826904297, 94.92427062988281, 216.297119140625, -0.04800000041723251, -0.09600000083446503, 1.040000081062317, 0.0, 0.0, 0.0, 0.0, 0.0, 1.6214229931434476E9, 2021-05-19 13:16:33.143
15.0, -194.1288604736328, -5.961400508880615, 72.69056701660156, 189.7886962890625, -0.04800000041723251, -0.09600000083446503, 1.040000081062317, 0.0, 0.0, 0.0, 0.0, 0.0, 1.6214229931434476E9, 2021-05-19 13:16:33.143
16.0, -189.30812072753906, 2.6291496753692627, 78.04610443115234, 199.86773681640625, -0.04800000041723251, -0.09600000083446503, 1.040000081062317, 0.0, 0.0, 0.0, 0.0, 0.0, 1.6214229931554768E9, 2021-05-19 13:16:33.155
16.0, -168.80599975585938, 34.680091857910156, 100.7472915649414, 229.38302612304688, -0.04800000041723251, -0.09600000083446503, 1.040000081062317, 0.0, 0.0, 0.0, 0.0, 0.0, 1.6214229931554768E9, 2021-05-19 13:16:33.155
17.0, -167.56808471679688, 22.600215911865234, 94.74101257324219, 213.9185333251953, -0.04800000041723251, -0.09600000083446503, 1.040000081062317, 0.0, 0.0, 0.0, 0.0, 0.0, 1.6214229931718712E9, 2021-05-19 13:16:33.171
17.0, -190.05984497070312, -1.3426240682601929, 71.06745147705078, 185.3083038330078, -0.04800000041723251, -0.09600000083446503, 1.040000081062317, 0.0, 0.0, 0.0, 0.0, 0.0, 1.6214229931718712E9, 2021-05-19 13:16:33.171
18.0, -192.36737060546875, 9.57788372039795, 79.51962280273438, 198.7794189453125, -0.04800000041723251, -0.09600000083446503, 1.040000081062317, 0.0, 0.0, 0.0, 0.0, 0.0, 1.6214229931726763E9, 2021-05-19 13:16:33.172
18.0, -174.28868103027344, 36.43036651611328, 102.70700073242188, 224.4725341796875, -0.04800000041723251, -0.09600000083446503, 1.040000081062317, 0.0, 0.0, 0.0, 0.0, 0.0, 1.6214229931726763E9, 2021-05-19 13:16:33.172
19.0, -168.60403442382812, 24.93391227722168, 97.02609252929688, 216.3270263671875, -0.04800000041723251, -0.09600000083446503, 1.040000081062317, 0.0, 0.0, 0.0, 0.0, 0.0, 1.6214229931857047E9, 2021-05-19 13:16:33.185
19.0, -189.6708984375, -7.520938873291016, 75.47679138183594, 184.7061767578125, -0.04800000041723251, -0.09600000083446503, 1.040000081062317, 0.0, 0.0, 0.0, 0.0, 0.0, 1.6214229931857047E9, 2021-05-19 13:16:33.185
20.0, -196.16336059570312, 10.430581092834473, 81.87950134277344, 196.72247314453125, -0.04800000041723251, -0.09600000083446503, 1.040000081062317, 0.0, 0.0, 0.0, 0.0, 0.0, 1.621422993201187E9, 2021-05-19 13:16:33.201
20.0, -169.494140625, 41.19125747680664, 107.32952117919922, 223.30194091796875, -0.04800000041723251, -0.09600000083446503, 1.040000081062317, 0.0, 0.0, 0.0, 0.0, 0.0, 1.621422993201187E9, 2021-05-19 13:16:33.201
21.0, -168.45443725585938, 23.77454376220703, 98.44351959228516, 214.86846923828125, -0.04800000041723251, -0.09600000083446503, 1.040000081062317, 0.0, 0.0, 0.0, 0.0, 0.0, 1.6214229932019122E9, 2021-05-19 13:16:33.201
21.0, -194.76089477539062, -10.367002487182617, 75.11775970458984, 183.93576049804688, -0.04800000041723251, -0.09600000083446503, 1.040000081062317, 0.0, 0.0, 0.0, 0.0, 0.0, 1.6214229932019122E9, 2021-05-19 13:16:33.201
22.0, -195.90904235839844, 5.8903422355651855, 78.1957015991211, 195.4022979736328, -0.04800000041723251, -0.09600000083446503, 1.040000081062317, 0.0, 0.0, 0.0, 0.0, 0.0, 1.621422993215557E9, 2021-05-19 13:16:33.215
22.0, -170.24960327148438, 26.190519332885742, 100.91558837890625, 220.16043090820312, -0.04800000041723251, -0.09600000083446503, 1.040000081062317, 0.0, 0.0, 0.0, 0.0, 0.0, 1.621422993215557E9, 2021-05-19 13:16:33.215
23.0, -168.26370239257812, 14.667887687683105, 97.24674987792969, 206.7603759765625, -0.04800000041723251, -0.09600000083446503, 1.040000081062317, 0.0, 0.0, 0.0, 0.0, 0.0, 1.6214229932323205E9, 2021-05-19 13:16:33.232
23.0, -190.6769256591797, -11.829303741455078, 73.65171813964844, 180.005126953125, -0.04800000041723251, -0.09600000083446503, 1.040000081062317, 0.0, 0.0, 0.0, 0.0, 0.0, 1.6214229932323205E9, 2021-05-19 13:16:33.232
24.0, -186.75003051757812, 9.675121307373047, 89.31442260742188, 199.43763732910156, -0.04800000041723251, -0.09600000083446503, 1.040000081062317, 0.0, 0.0, 0.0, 0.0, 0.0, 1.6214229932461867E9, 2021-05-19 13:16:33.246
24.0, -156.33343505859375, 49.44521713256836, 125.84950256347656, 243.26553344726562, -0.04800000041723251, -0.09600000083446503, 1.040000081062317, 0.0, 0.0, 0.0, 0.0, 0.0, 1.6214229932461867E9, 2021-05-19 13:16:33.246
25.0, -157.30206298828125, 31.714351654052734, 116.25292205810547, 225.1943359375, -0.04800000041723251, -0.09600000083446503, 1.040000081062317, 0.0, 0.0, 0.0, 0.0, 0.0, 1.6214229932469647E9, 2021-05-19 13:16:33.246
25.0, -196.12969970703125, -8.908441543579102, 87.33975219726562, 184.6276397705078, -0.04800000041723251, -0.09600000083446503, 1.040000081062317, 0.0, 0.0, 0.0, 0.0, 0.0, 1.6214229932469647E9, 2021-05-19 13:16:33.246
26.0, -190.04489135742188, 0.9125356078147888, 95.88168334960938, 201.09068298339844, -0.04800000041723251, -0.09600000083446503, 1.040000081062317, 0.0, 0.0, 0.0, 0.0, 0.0, 1.6214229932609189E9, 2021-05-19 13:16:33.260
26.0, -164.75193786621094, 32.37257385253906, 119.36825561523438, 227.6177978515625, -0.04800000041723251, -0.09600000083446503, 1.040000081062317, 0.0, 0.0, 0.0, 0.0, 0.0, 1.6214229932609189E9, 2021-05-19 13:16:33.260
27.0, -171.08358764648438, 19.892528533935547, 102.58732604980469, 209.98416137695312, -0.04800000041723251, -0.09600000083446503, 1.040000081062317, 0.0, 0.0, 0.0, 0.0, 0.0, 1.6214229932761724E9, 2021-05-19 13:16:33.276
27.0, -190.32164001464844, -11.8517427444458, 76.87925720214844, 175.8126983642578, -0.04800000041723251, -0.09600000083446503, 1.040000081062317, 0.0, 0.0, 0.0, 0.0, 0.0, 1.6214229932761724E9, 2021-05-19 13:16:33.276
28.0, -184.56593322753906, 5.048864841461182, 87.92317962646484, 189.52316284179688, -0.04800000041723251, -0.09600000083446503, 1.040000081062317, 0.0, 0.0, 0.0, 0.0, 0.0, 1.621422993276888E9, 2021-05-19 13:16:33.276
28.0, -167.3661346435547, 36.21345138549805, 107.20236206054688, 225.4785614013672, -0.04800000041723251, -0.09600000083446503, 1.040000081062317, 0.0, 0.0, 0.0, 0.0, 0.0, 1.621422993276888E9, 2021-05-19 13:16:33.276
29.0, -165.4587860107422, 19.009910583496094, 103.49986267089844, 216.05775451660156, -0.04800000041723251, -0.09600000083446503, 1.040000081062317, 0.0, 0.0, 0.0, 0.0, 0.0, 1.6214229932912464E9, 2021-05-19 13:16:33.291
29.0, -191.96719360351562, -9.678860664367676, 72.9785385131836, 184.5865020751953, -0.04800000041723251, -0.09600000083446503, 1.040000081062317, 0.0, 0.0, 0.0, 0.0, 0.0, 1.6214229932912464E9, 2021-05-19 13:16:33.291
30.0, -191.279052734375, 10.774651527404785, 79.53458404541016, 198.20721435546875, -0.04800000041723251, -0.09600000083446503, 1.040000081062317, 0.0, 0.0, 0.0, 0.0, 0.0, 1.621422993291931E9, 2021-05-19 13:16:33.291
30.0, -173.99697875976562, 35.60758590698242, 103.1707534790039, 226.11061096191406, -0.04800000041723251, -0.09600000083446503, 1.040000081062317, 0.0, 0.0, 0.0, 0.0, 0.0, 1.621422993291931E9, 2021-05-19 13:16:33.291
31.0, -166.64059448242188, 28.655113220214844, 99.99557495117188, 215.84832763671875, -0.04800000041723251, -0.08000000566244125, 1.040000081062317, 0.0, 0.0, 0.0, 0.0, 0.0, 1.6214229933056977E9, 2021-05-19 13:16:33.305
31.0, -199.3273162841797, -6.604663372039795, 69.04042053222656, 178.4007110595703, -0.04800000041723251, -0.08000000566244125, 1.040000081062317, 0.0, 0.0, 0.0, 0.0, 0.0, 1.6214229933056977E9, 2021-05-19 13:16:33.305
32.0, -194.17747497558594, 7.487279891967773, 76.93534851074219, 195.54440307617188, -0.04800000041723251, -0.08000000566244125, 1.040000081062317, 0.0, 0.0, 0.0, 0.0, 0.0, 1.6214229933210447E9, 2021-05-19 13:16:33.321
32.0, -174.3560028076172, 42.38428497314453, 104.67793273925781, 227.4457550048828, -0.04800000041723251, -0.08000000566244125, 1.040000081062317, 0.0, 0.0, 0.0, 0.0, 0.0, 1.6214229933210447E9, 2021-05-19 13:16:33.321
33.0, -172.6132049560547, 24.31308937072754, 102.01512145996094, 208.9706573486328, -0.04800000041723251, -0.08000000566244125, 1.040000081062317, 0.0, 0.0, 0.0, 0.0, 0.0, 1.621422993336172E9, 2021-05-19 13:16:33.336
33.0, -198.8710479736328, -2.797445058822632, 75.6525650024414, 181.94239807128906, -0.04800000041723251, -0.08000000566244125, 1.040000081062317, 0.0, 0.0, 0.0, 0.0, 0.0, 1.621422993336172E9, 2021-05-19 13:16:33.336
34.0, -197.547119140625, 9.080476760864258, 80.9482650756836, 196.9506072998047, -0.04800000041723251, -0.08000000566244125, 1.040000081062317, 0.0, 0.0, 0.0, 0.0, 0.0, 1.621422993337037E9, 2021-05-19 13:16:33.337
34.0, -174.04185485839844, 44.26545715332031, 113.97905731201172, 230.08612060546875, -0.04800000041723251, -0.08000000566244125, 1.040000081062317, 0.0, 0.0, 0.0, 0.0, 0.0, 1.621422993337037E9, 2021-05-19 13:16:33.337
35.0, -174.64772033691406, 26.598169326782227, 107.9540786743164, 214.68521118164062, -0.04800000041723251, -0.08000000566244125, 1.040000081062317, 0.0, 0.0, 0.0, 0.0, 0.0, 1.62142299335125E9, 2021-05-19 13:16:33.351
35.0, -202.0836181640625, -6.836536884307861, 78.84644317626953, 176.5345001220703, -0.04800000041723251, -0.08000000566244125, 1.040000081062317, 0.0, 0.0, 0.0, 0.0, 0.0, 1.62142299335125E9, 2021-05-19 13:16:33.351
36.0, -192.7600555419922, 8.05200481414795, 90.42143249511719, 195.52944946289062, -0.04800000041723251, -0.08000000566244125, 1.040000081062317, 0.0, 0.0, 0.0, 0.0, 0.0, 1.6214229933519382E9, 2021-05-19 13:16:33.351
36.0, -179.62925720214844, 34.4370002746582, 110.71038818359375, 216.6673583984375, -0.04800000041723251, -0.08000000566244125, 1.040000081062317, 0.0, 0.0, 0.0, 0.0, 0.0, 1.6214229933519382E9, 2021-05-19 13:16:33.351
37.0, -175.36952209472656, 20.33383560180664, 104.02344512939453, 204.7969207763672, -0.04800000041723251, -0.08000000566244125, 1.040000081062317, 0.0, 0.0, 0.0, 0.0, 0.0, 1.6214229933654933E9, 2021-05-19 13:16:33.365
37.0, -199.4619598388672, -2.588010787963867, 76.68103790283203, 175.7266845703125, -0.04800000041723251, -0.08000000566244125, 1.040000081062317, 0.0, 0.0, 0.0, 0.0, 0.0, 1.6214229933654933E9, 2021-05-19 13:16:33.365
38.0, -198.53819274902344, 7.165648460388184, 83.68587493896484, 192.728271484375, -0.04800000041723251, -0.08000000566244125, 1.040000081062317, 0.0, 0.0, 0.0, 0.0, 0.0, 1.6214229933816876E9, 2021-05-19 13:16:33.381
38.0, -174.46072387695312, 37.346641540527344, 112.67009735107422, 226.23028564453125, -0.04800000041723251, -0.08000000566244125, 1.040000081062317, 0.0, 0.0, 0.0, 0.0, 0.0, 1.6214229933816876E9, 2021-05-19 13:16:33.381
39.0, -173.69778442382812, 26.676706314086914, 107.07520294189453, 212.0972137451172, -0.04800000041723251, -0.08000000566244125, 1.040000081062317, 0.0, 0.0, 0.0, 0.0, 0.0, 1.6214229933962443E9, 2021-05-19 13:16:33.396
39.0, -195.3892059326172, -4.951627731323242, 81.28111267089844, 176.89352416992188, -0.04800000041723251, -0.08000000566244125, 1.040000081062317, 0.0, 0.0, 0.0, 0.0, 0.0, 1.6214229933962443E9, 2021-05-19 13:16:33.396
40.0, -197.40875244140625, 9.405848503112793, 87.97554016113281, 194.77024841308594, -0.04800000041723251, -0.08000000566244125, 1.040000081062317, 0.0, 0.0, 0.0, 0.0, 0.0, 1.6214229933968594E9, 2021-05-19 13:16:33.396
40.0, -168.56289672851562, 38.83885955810547, 120.1162338256836, 222.4455108642578, -0.04800000041723251, -0.08000000566244125, 1.040000081062317, 0.0, 0.0, 0.0, 0.0, 0.0, 1.6214229933968594E9, 2021-05-19 13:16:33.396
41.0, -176.77198791503906, 23.39307403564453, 111.92959594726562, 211.17344665527344, -0.04800000041723251, -0.08000000566244125, 1.040000081062317, 0.0, 0.0, 0.0, 0.0, 0.0, 1.621422993410926E9, 2021-05-19 13:16:33.410
41.0, -192.53939819335938, -10.583916664123535, 85.43240356445312, 180.8540802001953, -0.04800000041723251, -0.08000000566244125, 1.040000081062317, 0.0, 0.0, 0.0, 0.0, 0.0, 1.621422993410926E9, 2021-05-19 13:16:33.410
42.0, -194.69358825683594, 11.567510604858398, 87.67634582519531, 188.12071228027344, -0.04800000041723251, -0.08000000566244125, 1.040000081062317, 0.0, 0.0, 0.0, 0.0, 0.0, 1.6214229934259062E9, 2021-05-19 13:16:33.425
42.0, -170.64602661132812, 39.51578140258789, 113.8294677734375, 223.76943969726562, -0.04800000041723251, -0.08000000566244125, 1.040000081062317, 0.0, 0.0, 0.0, 0.0, 0.0, 1.6214229934259062E9, 2021-05-19 13:16:33.425
43.0, -170.9751434326172, 28.483078002929688, 106.59649658203125, 214.56927490234375, -0.04800000041723251, -0.08000000566244125, 1.040000081062317, 0.0, 0.0, 0.0, 0.0, 0.0, 1.6214229934426267E9, 2021-05-19 13:16:33.442
43.0, -197.91363525390625, -4.027872085571289, 80.92208862304688, 173.901611328125, -0.04800000041723251, -0.08000000566244125, 1.040000081062317, 0.0, 0.0, 0.0, 0.0, 0.0, 1.6214229934426267E9, 2021-05-19 13:16:33.442
44.0, -193.72494506835938, 14.536991119384766, 87.38088989257812, 192.35801696777344, -0.04800000041723251, -0.08000000566244125, 1.040000081062317, 0.0, 0.0, 0.0, 0.0, 0.0, 1.6214229934433002E9, 2021-05-19 13:16:33.443
44.0, -170.83676147460938, 45.58938217163086, 111.31625366210938, 227.38966369628906, -0.04800000041723251, -0.08000000566244125, 1.040000081062317, 0.0, 0.0, 0.0, 0.0, 0.0, 1.6214229934433002E9, 2021-05-19 13:16:33.443
45.0, -169.400634765625, 24.95635223388672, 102.75562286376953, 213.59690856933594, -0.04800000041723251, -0.08000000566244125, 1.040000081062317, 0.0, 0.0, 0.0, 0.0, 0.0, 1.6214229934440193E9, 2021-05-19 13:16:33.444
45.0, -189.9214630126953, -11.092543601989746, 74.48945617675781, 184.82211303710938, -0.04800000041723251, -0.08000000566244125, 1.040000081062317, 0.0, 0.0, 0.0, 0.0, 0.0, 1.6214229934440193E9, 2021-05-19 13:16:33.444
46.0, -190.8564453125, 0.2692728042602539, 80.38353729248047, 192.0102081298828, -0.04800000041723251, -0.08000000566244125, 1.040000081062317, 0.0, 0.0, 0.0, 0.0, 0.0, 1.6214229934555013E9, 2021-05-19 13:16:33.455
46.0, -166.5209197998047, 38.438690185546875, 111.85853576660156, 231.92990112304688, -0.04800000041723251, -0.08000000566244125, 1.040000081062317, 0.0, 0.0, 0.0, 0.0, 0.0, 1.6214229934555013E9, 2021-05-19 13:16:33.455
47.0, -165.4251251220703, 19.028610229492188, 103.75043487548828, 211.42776489257812, -0.04800000041723251, -0.08000000566244125, 1.040000081062317, 0.0, 0.0, 0.0, 0.0, 0.0, 1.6214229934712183E9, 2021-05-19 13:16:33.471
47.0, -186.49197387695312, -10.45676040649414, 78.3004150390625, 181.32156372070312, -0.04800000041723251, -0.08000000566244125, 1.040000081062317, 0.0, 0.0, 0.0, 0.0, 0.0, 1.6214229934712183E9, 2021-05-19 13:16:33.471
48.0, -183.20086669921875, 4.293405055999756, 78.15081787109375, 197.376953125, -0.04800000041723251, -0.08000000566244125, 1.040000081062317, 0.0, 0.0, 0.0, 0.0, 0.0, 1.6214229934721165E9, 2021-05-19 13:16:33.472
48.0, -162.7062225341797, 30.66343879699707, 105.64656066894531, 225.0559539794922, -0.04800000041723251, -0.08000000566244125, 1.040000081062317, 0.0, 0.0, 0.0, 0.0, 0.0, 1.6214229934721165E9, 2021-05-19 13:16:33.472
49.0, -162.13775634765625, 26.583208084106445, 101.62991333007812, 211.91021728515625, -0.04800000041723251, -0.08000000566244125, 1.040000081062317, 0.0, 0.0, 0.0, 0.0, 0.0, 1.6214229935173252E9, 2021-05-19 13:16:33.517
49.0, -190.66197204589844, -13.074689865112305, 69.5490493774414, 175.7266845703125, -0.04800000041723251, -0.08000000566244125, 1.040000081062317, 0.0, 0.0, 0.0, 0.0, 0.0, 1.6214229935173252E9, 2021-05-19 13:16:33.517
50.0, -187.8495635986328, 8.2427396774292, 81.76730346679688, 198.04640197753906, -0.04800000041723251, -0.08000000566244125, 1.040000081062317, 0.0, 0.0, 0.0, 0.0, 0.0, 1.6214229935180187E9, 2021-05-19 13:16:33.518
50.0, -170.63107299804688, 41.408172607421875, 115.25436401367188, 225.21678161621094, -0.04800000041723251, -0.08000000566244125, 1.040000081062317, 0.0, 0.0, 0.0, 0.0, 0.0, 1.6214229935180187E9, 2021-05-19 13:16:33.518
51.0, -169.69235229492188, 25.9923038482666, 101.21852111816406, 211.10238647460938, -0.04800000041723251, -0.08000000566244125, 1.040000081062317, 0.0, 0.0, 0.0, 0.0, 0.0, 1.6214229935187433E9, 2021-05-19 13:16:33.518
51.0, -181.4393768310547, -10.393181800842285, 77.9189453125, 183.51315307617188, -0.04800000041723251, -0.08000000566244125, 1.040000081062317, 0.0, 0.0, 0.0, 0.0, 0.0, 1.6214229935187433E9, 2021-05-19 13:16:33.518
52.0, -186.7051544189453, 3.077937602996826, 82.66487884521484, 195.97076416015625, -0.04800000041723251, -0.08000000566244125, 1.040000081062317, 0.0, 0.0, 0.0, 0.0, 0.0, 1.6214229935319147E9, 2021-05-19 13:16:33.531
52.0, -162.70248413085938, 44.11585998535156, 110.09330749511719, 230.38531494140625, -0.04800000041723251, -0.08000000566244125, 1.040000081062317, 0.0, 0.0, 0.0, 0.0, 0.0, 1.6214229935319147E9, 2021-05-19 13:16:33.531
53.0, -163.11386108398438, 30.603601455688477, 105.1790771484375, 214.90960693359375, -0.04800000041723251, -0.08000000566244125, 1.040000081062317, 0.0, 0.0, 0.0, 0.0, 0.0, 1.621422993532656E9, 2021-05-19 13:16:33.532
53.0, -194.67861938476562, -6.3241705894470215, 79.5083999633789, 185.00537109375, -0.04800000041723251, -0.08000000566244125, 1.040000081062317, 0.0, 0.0, 0.0, 0.0, 0.0, 1.621422993532656E9, 2021-05-19 13:16:33.532
54.0, -191.20425415039062, 10.628795623779297, 80.36858367919922, 201.22531127929688, -0.04800000041723251, -0.08000000566244125, 1.040000081062317, 0.0, 0.0, 0.0, 0.0, 0.0, 1.6214229935333543E9, 2021-05-19 13:16:33.533
54.0, -170.69837951660156, 42.227210998535156, 106.19258880615234, 229.38302612304688, -0.04800000041723251, -0.08000000566244125, 1.040000081062317, 0.0, 0.0, 0.0, 0.0, 0.0, 1.6214229935333543E9, 2021-05-19 13:16:33.533
55.0, -170.5487823486328, 25.199445724487305, 103.60832214355469, 217.67340087890625, -0.04800000041723251, -0.08000000566244125, 1.040000081062317, 0.0, 0.0, 0.0, 0.0, 0.0, 1.621422993562408E9, 2021-05-19 13:16:33.562
55.0, -192.24020385742188, -4.4990997314453125, 77.42153930664062, 190.1252899169922, -0.04800000041723251, -0.08000000566244125, 1.040000081062317, 0.0, 0.0, 0.0, 0.0, 0.0, 1.621422993562408E9, 2021-05-19 13:16:33.562
56.0, -194.95162963867188, 5.99131965637207, 82.38812255859375, 206.34898376464844, -0.04800000041723251, -0.08000000566244125, 1.040000081062317, 0.0, 0.0, 0.0, 0.0, 0.0, 1.6214229935630465E9, 2021-05-19 13:16:33.563
56.0, -170.01023864746094, 42.96771240234375, 109.81281280517578, 231.54843139648438, -0.04800000041723251, -0.08000000566244125, 1.040000081062317, 0.0, 0.0, 0.0, 0.0, 0.0, 1.6214229935630465E9, 2021-05-19 13:16:33.563
57.0, -172.2093048095703, 26.960939407348633, 94.06783294677734, 218.05113220214844, -0.04800000041723251, -0.08000000566244125, 1.040000081062317, 0.0, 0.0, 0.0, 0.0, 0.0, 1.6214229935763445E9, 2021-05-19 13:16:33.576
57.0, -201.43287658691406, -8.381115913391113, 72.9598388671875, 185.11383056640625, -0.04800000041723251, -0.08000000566244125, 1.040000081062317, 0.0, 0.0, 0.0, 0.0, 0.0, 1.6214229935763445E9, 2021-05-19 13:16:33.576
58.0, -199.98927307128906, 8.725186347961426, 80.8697280883789, 196.94686889648438, -0.04800000041723251, -0.08000000566244125, 1.040000081062317, 0.0, 0.0, 0.0, 0.0, 0.0, 1.621422993576969E9, 2021-05-19 13:16:33.576
58.0, -175.1600799560547, 42.04021453857422, 107.04902648925781, 230.34417724609375, -0.04800000041723251, -0.08000000566244125, 1.040000081062317, 0.0, 0.0, 0.0, 0.0, 0.0, 1.621422993576969E9, 2021-05-19 13:16:33.576
59.0, -171.3079833984375, 24.27569007873535, 93.0318832397461, 214.3897705078125, -0.04800000041723251, -0.08000000566244125, 1.040000081062317, 0.0, 0.0, 0.0, 0.0, 0.0, 1.6214229936082246E9, 2021-05-19 13:16:33.608
59.0, -195.5724639892578, -1.3800231218338013, 72.99349975585938, 183.49818420410156, -0.04800000041723251, -0.08000000566244125, 1.040000081062317, 0.0, 0.0, 0.0, 0.0, 0.0, 1.6214229936082246E9, 2021-05-19 13:16:33.608
60.0, -194.39065551757812, 16.24986457824707, 78.55098724365234, 197.5901336669922, -0.04800000041723251, -0.08000000566244125, 1.040000081062317, 0.0, 0.0, 0.0, 0.0, 0.0, 1.6214229936089497E9, 2021-05-19 13:16:33.608
60.0, -177.74061584472656, 44.72172546386719, 101.59251403808594, 226.57061767578125, -0.04800000041723251, -0.08000000566244125, 1.040000081062317, 0.0, 0.0, 0.0, 0.0, 0.0, 1.6214229936089497E9, 2021-05-19 13:16:33.608
61.0, -179.7938232421875, 30.76441764831543, 95.7433090209961, 213.01722717285156, -0.04800000041723251, -0.09600000083446503, 1.040000081062317, 0.0, 0.0, 0.0, 0.0, 0.0, 1.6214229936098597E9, 2021-05-19 13:16:33.609
61.0, -201.51515197753906, 2.9470412731170654, 70.5887451171875, 181.88629150390625, -0.04800000041723251, -0.09600000083446503, 1.040000081062317, 0.0, 0.0, 0.0, 0.0, 0.0, 1.6214229936098597E9, 2021-05-19 13:16:33.609
62.0, -198.6653594970703, 17.222238540649414, 78.80904388427734, 194.12698364257812, -0.04800000041723251, -0.09600000083446503, 1.040000081062317, 0.0, 0.0, 0.0, 0.0, 0.0, 1.6214229936105533E9, 2021-05-19 13:16:33.610
62.0, -174.2924346923828, 46.01572799682617, 109.53605651855469, 226.02833557128906, -0.04800000041723251, -0.09600000083446503, 1.040000081062317, 0.0, 0.0, 0.0, 0.0, 0.0, 1.6214229936105533E9, 2021-05-19 13:16:33.610
63.0, -175.7173309326172, 33.240230560302734, 103.6718978881836, 216.85061645507812, -0.04800000041723251, -0.09600000083446503, 1.040000081062317, 0.0, 0.0, 0.0, 0.0, 0.0, 1.621422993620532E9, 2021-05-19 13:16:33.620
63.0, -197.53964233398438, 0.7778992056846619, 76.16119384765625, 181.11961364746094, -0.04800000041723251, -0.09600000083446503, 1.040000081062317, 0.0, 0.0, 0.0, 0.0, 0.0, 1.621422993620532E9, 2021-05-19 13:16:33.620
64.0, -197.39752197265625, 14.551950454711914, 87.37715148925781, 194.00357055664062, -0.04800000041723251, -0.09600000083446503, 1.040000081062317, 0.0, 0.0, 0.0, 0.0, 0.0, 1.6214229936355183E9, 2021-05-19 13:16:33.635
64.0, -172.1644287109375, 41.59516906738281, 113.21611785888672, 229.61489868164062, -0.04800000041723251, -0.09600000083446503, 1.040000081062317, 0.0, 0.0, 0.0, 0.0, 0.0, 1.6214229936355183E9, 2021-05-19 13:16:33.635
65.0, -174.88333129882812, 32.772743225097656, 107.58757019042969, 215.67254638671875, -0.04800000041723251, -0.09600000083446503, 1.040000081062317, 0.0, 0.0, 0.0, 0.0, 0.0, 1.6214229936511917E9, 2021-05-19 13:16:33.651
65.0, -202.19581604003906, -5.430334568023682, 78.00870513916016, 184.747314453125, -0.04800000041723251, -0.09600000083446503, 1.040000081062317, 0.0, 0.0, 0.0, 0.0, 0.0, 1.6214229936511917E9, 2021-05-19 13:16:33.651
66.0, -198.9944610595703, 11.975159645080566, 83.77188873291016, 196.7486572265625, -0.04800000041723251, -0.09600000083446503, 1.040000081062317, 0.0, 0.0, 0.0, 0.0, 0.0, 1.6214229936518924E9, 2021-05-19 13:16:33.651
66.0, -174.66641235351562, 40.5180778503418, 108.80677795410156, 227.6103057861328, -0.04800000041723251, -0.09600000083446503, 1.040000081062317, 0.0, 0.0, 0.0, 0.0, 0.0, 1.6214229936518924E9, 2021-05-19 13:16:33.651
67.0, -174.0156707763672, 30.61482048034668, 103.87384796142578, 214.15414428710938, -0.04800000041723251, -0.09600000083446503, 1.040000081062317, 0.0, 0.0, 0.0, 0.0, 0.0, 1.6214229936819572E9, 2021-05-19 13:16:33.681
67.0, -198.5643768310547, -6.903855323791504, 78.51732635498047, 180.49505615234375, -0.04800000041723251, -0.09600000083446503, 1.040000081062317, 0.0, 0.0, 0.0, 0.0, 0.0, 1.6214229936819572E9, 2021-05-19 13:16:33.681
68.0, -194.73846435546875, 13.156968116760254, 83.86164855957031, 199.90139770507812, -0.04800000041723251, -0.09600000083446503, 1.040000081062317, 0.0, 0.0, 0.0, 0.0, 0.0, 1.6214229936826708E9, 2021-05-19 13:16:33.682
68.0, -176.5700225830078, 43.51747512817383, 107.54643249511719, 232.2739715576172, -0.04800000041723251, -0.09600000083446503, 1.040000081062317, 0.0, 0.0, 0.0, 0.0, 0.0, 1.6214229936826708E9, 2021-05-19 13:16:33.682
69.0, -181.1588897705078, 27.727619171142578, 99.09052276611328, 215.81092834472656, -0.04800000041723251, -0.09600000083446503, 1.040000081062317, 0.0, 0.0, 0.0, 0.0, 0.0, 1.621422993683498E9, 2021-05-19 13:16:33.683
69.0, -202.22947692871094, -2.8984224796295166, 80.37979888916016, 185.4728546142578, -0.04800000041723251, -0.09600000083446503, 1.040000081062317, 0.0, 0.0, 0.0, 0.0, 0.0, 1.621422993683498E9, 2021-05-19 13:16:33.683
70.0, -198.39608764648438, 21.590442657470703, 85.94477081298828, 198.67095947265625, -0.04800000041723251, -0.09600000083446503, 1.040000081062317, 0.0, 0.0, 0.0, 0.0, 0.0, 1.621422993695508E9, 2021-05-19 13:16:33.695
70.0, -169.59136962890625, 51.715335845947266, 111.31999206542969, 229.42042541503906, -0.04800000041723251, -0.09600000083446503, 1.040000081062317, 0.0, 0.0, 0.0, 0.0, 0.0, 1.621422993695508E9, 2021-05-19 13:16:33.695
71.0, -177.2918243408203, 28.509258270263672, 100.08907318115234, 214.45333862304688, -0.04800000041723251, -0.09600000083446503, 1.040000081062317, 0.0, 0.0, 0.0, 0.0, 0.0, 1.6214229937112496E9, 2021-05-19 13:16:33.711
71.0, -202.0050811767578, -4.7982916831970215, 69.61637115478516, 181.93490600585938, -0.04800000041723251, -0.09600000083446503, 1.040000081062317, 0.0, 0.0, 0.0, 0.0, 0.0, 1.6214229937112496E9, 2021-05-19 13:16:33.711
72.0, -200.7783966064453, 17.932819366455078, 81.15022277832031, 197.82948303222656, -0.04800000041723251, -0.09600000083446503, 1.040000081062317, 0.0, 0.0, 0.0, 0.0, 0.0, 1.6214229937119713E9, 2021-05-19 13:16:33.711
72.0, -180.23138427734375, 41.91305923461914, 107.25846099853516, 228.15260314941406, -0.04800000041723251, -0.09600000083446503, 1.040000081062317, 0.0, 0.0, 0.0, 0.0, 0.0, 1.6214229937119713E9, 2021-05-19 13:16:33.711
73.0, -180.18650817871094, 21.837276458740234, 86.45713806152344, 207.9833221435547, -0.04800000041723251, -0.09600000083446503, 1.040000081062317, 0.0, 0.0, 0.0, 0.0, 0.0, 1.621422993741779E9, 2021-05-19 13:16:33.741
73.0, -202.7680206298828, -2.9208619594573975, 76.49030303955078, 180.05747985839844, -0.04800000041723251, -0.09600000083446503, 1.040000081062317, 0.0, 0.0, 0.0, 0.0, 0.0, 1.621422993741779E9, 2021-05-19 13:16:33.741
74.0, -202.55111694335938, 8.654128074645996, 77.2981185913086, 195.4322052001953, -0.04800000041723251, -0.09600000083446503, 1.040000081062317, 0.0, 0.0, 0.0, 0.0, 0.0, 1.6214229937424116E9, 2021-05-19 13:16:33.742
74.0, -173.63046264648438, 45.15555191040039, 108.76937866210938, 227.25128173828125, -0.04800000041723251, -0.09600000083446503, 1.040000081062317, 0.0, 0.0, 0.0, 0.0, 0.0, 1.6214229937424116E9, 2021-05-19 13:16:33.742
75.0, -177.05247497558594, 27.215251922607422, 97.81521606445312, 208.6190948486328, -0.04800000041723251, -0.09600000083446503, 1.040000081062317, 0.0, 0.0, 0.0, 0.0, 0.0, 1.6214229937562065E9, 2021-05-19 13:16:33.756
75.0, -198.2016143798828, -8.710227012634277, 72.50357055664062, 180.48008728027344, -0.04800000041723251, -0.09600000083446503, 1.040000081062317, 0.0, 0.0, 0.0, 0.0, 0.0, 1.6214229937562065E9, 2021-05-19 13:16:33.756
76.0, -198.88975524902344, 10.228626251220703, 83.6409912109375, 191.97280883789062, -0.04800000041723251, -0.09600000083446503, 1.040000081062317, 0.0, 0.0, 0.0, 0.0, 0.0, 1.6214229937570117E9, 2021-05-19 13:16:33.757
76.0, -174.8795928955078, 46.797367095947266, 101.39429473876953, 223.67967224121094, -0.04800000041723251, -0.09600000083446503, 1.040000081062317, 0.0, 0.0, 0.0, 0.0, 0.0, 1.6214229937570117E9, 2021-05-19 13:16:33.757
77.0, -175.28350830078125, 25.730512619018555, 95.90786743164062, 209.00430297851562, -0.04800000041723251, -0.09600000083446503, 1.040000081062317, 0.0, 0.0, 0.0, 0.0, 0.0, 1.6214229937868629E9, 2021-05-19 13:16:33.786
77.0, -201.455322265625, -3.3023316860198975, 71.8790054321289, 174.2718505859375, -0.04800000041723251, -0.09600000083446503, 1.040000081062317, 0.0, 0.0, 0.0, 0.0, 0.0, 1.6214229937868629E9, 2021-05-19 13:16:33.786
78.0, -198.9047088623047, 9.671380996704102, 82.45918273925781, 193.33787536621094, -0.04800000041723251, -0.09600000083446503, 1.040000081062317, 0.0, 0.0, 0.0, 0.0, 0.0, 1.6214229938032537E9, 2021-05-19 13:16:33.803
78.0, -176.11749267578125, 38.2703971862793, 102.1871566772461, 222.6100616455078, -0.04800000041723251, -0.09600000083446503, 1.040000081062317, 0.0, 0.0, 0.0, 0.0, 0.0, 1.6214229938032537E9, 2021-05-19 13:16:33.803
79.0, -181.2635955810547, 27.843555450439453, 94.87939453125, 213.4473114013672, -0.04800000041723251, -0.09600000083446503, 1.040000081062317, 0.0, 0.0, 0.0, 0.0, 0.0, 1.6214229938039565E9, 2021-05-19 13:16:33.803
79.0, -203.00364685058594, -0.3552905023097992, 69.0628662109375, 186.64718627929688, -0.04800000041723251, -0.09600000083446503, 1.040000081062317, 0.0, 0.0, 0.0, 0.0, 0.0, 1.6214229938039565E9, 2021-05-19 13:16:33.803
80.0, -199.1216278076172, 8.960800170898438, 78.79782104492188, 197.58265686035156, -0.04800000041723251, -0.09600000083446503, 1.040000081062317, 0.0, 0.0, 0.0, 0.0, 0.0, 1.621422993804694E9, 2021-05-19 13:16:33.804
80.0, -182.25466918945312, 37.48127746582031, 101.3868179321289, 226.02459716796875, -0.04800000041723251, -0.09600000083446503, 1.040000081062317, 0.0, 0.0, 0.0, 0.0, 0.0, 1.621422993804694E9, 2021-05-19 13:16:33.804
81.0, -175.87066650390625, 28.97674560546875, 97.2093505859375, 210.20108032226562, -0.04800000041723251, -0.09600000083446503, 1.040000081062317, 0.0, 0.0, 0.0, 0.0, 0.0, 1.6214229938054886E9, 2021-05-19 13:16:33.805
81.0, -197.5845184326172, -0.9200153946876526, 71.76306915283203, 181.16822814941406, -0.04800000041723251, -0.09600000083446503, 1.040000081062317, 0.0, 0.0, 0.0, 0.0, 0.0, 1.6214229938054886E9, 2021-05-19 13:16:33.805
82.0, -195.99880981445312, 13.108349800109863, 82.62000274658203, 194.9609832763672, -0.04800000041723251, -0.09600000083446503, 1.040000081062317, 0.0, 0.0, 0.0, 0.0, 0.0, 1.6214229938325405E9, 2021-05-19 13:16:33.832
82.0, -177.1272735595703, 42.593719482421875, 101.69348907470703, 223.10372924804688, -0.04800000041723251, -0.09600000083446503, 1.040000081062317, 0.0, 0.0, 0.0, 0.0, 0.0, 1.6214229938325405E9, 2021-05-19 13:16:33.832
83.0, -175.9678955078125, 29.3432559967041, 94.78963470458984, 211.73069763183594, -0.04800000041723251, -0.09600000083446503, 1.040000081062317, 0.0, 0.0, 0.0, 0.0, 0.0, 1.6214229938332589E9, 2021-05-19 13:16:33.833
83.0, -204.02462768554688, -5.576190948486328, 73.2777328491211, 179.03648376464844, -0.04800000041723251, -0.09600000083446503, 1.040000081062317, 0.0, 0.0, 0.0, 0.0, 0.0, 1.6214229938332589E9, 2021-05-19 13:16:33.833
84.0, -199.3273162841797, 8.6242094039917, 81.3521728515625, 193.8764190673828, -0.04800000041723251, -0.09600000083446503, 1.040000081062317, 0.0, 0.0, 0.0, 0.0, 0.0, 1.621422993833996E9, 2021-05-19 13:16:33.833
84.0, -173.20411682128906, 37.66453170776367, 100.65380096435547, 224.61839294433594, -0.04800000041723251, -0.09600000083446503, 1.040000081062317, 0.0, 0.0, 0.0, 0.0, 0.0, 1.621422993833996E9, 2021-05-19 13:16:33.833
85.0, -175.2049560546875, 29.95659828186035, 99.06807708740234, 211.7493896484375, -0.04800000041723251, -0.09600000083446503, 1.040000081062317, 0.0, 0.0, 0.0, 0.0, 0.0, 1.6214229938454547E9, 2021-05-19 13:16:33.845
85.0, -204.35374450683594, -2.1616621017456055, 68.58041381835938, 177.6751708984375, -0.04800000041723251, -0.09600000083446503, 1.040000081062317, 0.0, 0.0, 0.0, 0.0, 0.0, 1.6214229938454547E9, 2021-05-19 13:16:33.845
86.0, -201.99012756347656, 6.668241500854492, 77.08868408203125, 193.58843994140625, -0.04800000041723251, -0.09600000083446503, 1.040000081062317, 0.0, 0.0, 0.0, 0.0, 0.0, 1.6214229938612905E9, 2021-05-19 13:16:33.861
86.0, -179.80130004882812, 45.40238571166992, 107.42301940917969, 231.4586639404297, -0.04800000041723251, -0.09600000083446503, 1.040000081062317, 0.0, 0.0, 0.0, 0.0, 0.0, 1.6214229938612905E9, 2021-05-19 13:16:33.861
87.0, -183.96754455566406, 24.279430389404297, 97.29911041259766, 216.02784729003906, -0.04800000041723251, -0.09600000083446503, 1.040000081062317, 0.0, 0.0, 0.0, 0.0, 0.0, 1.621422993861996E9, 2021-05-19 13:16:33.861
87.0, -199.61903381347656, -1.2416467666625977, 70.82435607910156, 182.22288513183594, -0.04800000041723251, -0.09600000083446503, 1.040000081062317, 0.0, 0.0, 0.0, 0.0, 0.0, 1.621422993861996E9, 2021-05-19 13:16:33.861
88.0, -204.2639923095703, 8.848603248596191, 76.16119384765625, 195.58929443359375, -0.04800000041723251, -0.09600000083446503, 1.040000081062317, 0.0, 0.0, 0.0, 0.0, 0.0, 1.6214229938755388E9, 2021-05-19 13:16:33.875
88.0, -182.5837860107422, 42.186073303222656, 95.4441146850586, 222.0154266357422, -0.04800000041723251, -0.09600000083446503, 1.040000081062317, 0.0, 0.0, 0.0, 0.0, 0.0, 1.6214229938755388E9, 2021-05-19 13:16:33.875
89.0, -176.13246154785156, 26.48971176147461, 92.53447723388672, 212.1682586669922, -0.04800000041723251, -0.09600000083446503, 1.040000081062317, 0.0, 0.0, 0.0, 0.0, 0.0, 1.621422993908626E9, 2021-05-19 13:16:33.908
89.0, -199.98927307128906, -8.852343559265137, 65.45011901855469, 182.5557403564453, -0.04800000041723251, -0.09600000083446503, 1.040000081062317, 0.0, 0.0, 0.0, 0.0, 0.0, 1.621422993908626E9, 2021-05-19 13:16:33.908
90.0, -204.09942626953125, 2.314998149871826, 72.84390258789062, 187.27549743652344, -0.04800000041723251, -0.09600000083446503, 1.055999994277954, 0.0, 0.0, 0.0, 0.0, 0.0, 1.6214229939093597E9, 2021-05-19 13:16:33.909
90.0, -178.54469299316406, 29.653667449951172, 98.21538543701172, 222.3520050048828, -0.04800000041723251, -0.09600000083446503, 1.055999994277954, 0.0, 0.0, 0.0, 0.0, 0.0, 1.6214229939093597E9, 2021-05-19 13:16:33.909
91.0, -181.40945434570312, 17.577529907226562, 96.64462280273438, 213.9185333251953, -0.04800000041723251, -0.09600000083446503, 1.055999994277954, 0.0, 0.0, 0.0, 0.0, 0.0, 1.6214229939101284E9, 2021-05-19 13:16:33.910
91.0, -204.44349670410156, -9.043078422546387, 71.84160614013672, 178.6587677001953, -0.04800000041723251, -0.09600000083446503, 1.055999994277954, 0.0, 0.0, 0.0, 0.0, 0.0, 1.6214229939101284E9, 2021-05-19 13:16:33.910
92.0, -201.29824829101562, 0.45252788066864014, 77.88154602050781, 193.68568420410156, -0.04800000041723251, -0.09600000083446503, 1.055999994277954, 0.0, 0.0, 0.0, 0.0, 0.0, 1.6214229939211652E9, 2021-05-19 13:16:33.921
92.0, -174.4420166015625, 31.549795150756836, 95.50395202636719, 225.50474548339844, -0.04800000041723251, -0.09600000083446503, 1.055999994277954, 0.0, 0.0, 0.0, 0.0, 0.0, 1.6214229939211652E9, 2021-05-19 13:16:33.921
93.0, -177.34043884277344, 14.23405933380127, 87.07421875, 211.01637268066406, -0.04800000041723251, -0.09600000083446503, 1.055999994277954, 0.0, 0.0, 0.0, 0.0, 0.0, 1.6214229939219198E9, 2021-05-19 13:16:33.921
93.0, -202.24444580078125, -12.513705253601074, 62.97430419921875, 181.52352905273438, -0.04800000041723251, -0.09600000083446503, 1.055999994277954, 0.0, 0.0, 0.0, 0.0, 0.0, 1.6214229939219198E9, 2021-05-19 13:16:33.921
94.0, -192.2626495361328, 1.9634474515914917, 80.37979888916016, 198.39047241210938, -0.04800000041723251, -0.09600000083446503, 1.055999994277954, 0.0, 0.0, 0.0, 0.0, 0.0, 1.6214229939355447E9, 2021-05-19 13:16:33.935
94.0, -170.47772216796875, 23.43047332763672, 98.7127914428711, 224.33041381835938, -0.04800000041723251, -0.09600000083446503, 1.055999994277954, 0.0, 0.0, 0.0, 0.0, 0.0, 1.6214229939355447E9, 2021-05-19 13:16:33.935
95.0, -168.36468505859375, 18.613481521606445, 92.74391174316406, 217.66592407226562, -0.04800000041723251, -0.09600000083446503, 1.055999994277954, 0.0, 0.0, 0.0, 0.0, 0.0, 1.621422993951282E9, 2021-05-19 13:16:33.951
95.0, -198.49331665039062, -13.20932674407959, 71.94632720947266, 180.52496337890625, -0.04800000041723251, -0.09600000083446503, 1.055999994277954, 0.0, 0.0, 0.0, 0.0, 0.0, 1.621422993951282E9, 2021-05-19 13:16:33.951
96.0, -195.0077362060547, 3.9493343830108643, 83.01642608642578, 198.315673828125, -0.04800000041723251, -0.09600000083446503, 1.055999994277954, 0.0, 0.0, 0.0, 0.0, 0.0, 1.6214229939518704E9, 2021-05-19 13:16:33.951
96.0, -166.12074279785156, 27.196552276611328, 99.74874114990234, 232.0196533203125, -0.04800000041723251, -0.09600000083446503, 1.055999994277954, 0.0, 0.0, 0.0, 0.0, 0.0, 1.6214229939518704E9, 2021-05-19 13:16:33.951
97.0, -177.19833374023438, 19.645694732666016, 99.06807708740234, 218.1670684814453, -0.04800000041723251, -0.09600000083446503, 1.055999994277954, 0.0, 0.0, 0.0, 0.0, 0.0, 1.6214229939655533E9, 2021-05-19 13:16:33.965
97.0, -202.67453002929688, -9.043078422546387, 72.1370620727539, 186.75564575195312, -0.04800000041723251, -0.09600000083446503, 1.055999994277954, 0.0, 0.0, 0.0, 0.0, 0.0, 1.6214229939655533E9, 2021-05-19 13:16:33.965
98.0, -197.0983428955078, 1.0322123765945435, 85.49597930908203, 197.6387481689453, -0.04800000041723251, -0.09600000083446503, 1.055999994277954, 0.0, 0.0, 0.0, 0.0, 0.0, 1.6214229939975648E9, 2021-05-19 13:16:33.997
98.0, -176.5662841796875, 31.654512405395508, 106.94056701660156, 229.05764770507812, -0.04800000041723251, -0.09600000083446503, 1.055999994277954, 0.0, 0.0, 0.0, 0.0, 0.0, 1.6214229939975648E9, 2021-05-19 13:16:33.997
99.0, -178.6755828857422, 17.719646453857422, 98.23408508300781, 213.94097900390625, -0.04800000041723251, -0.09600000083446503, 1.055999994277954, 0.0, 0.0, 0.0, 0.0, 0.0, 1.6214229939982882E9, 2021-05-19 13:16:33.998
99.0, -195.87913513183594, -20.83124351501465, 75.09532165527344, 183.3523406982422, -0.04800000041723251, -0.09600000083446503, 1.055999994277954, 0.0, 0.0, 0.0, 0.0, 0.0, 1.6214229939982882E9, 2021-05-19 13:16:33.998
100.0, -197.81265258789062, -10.475460052490234, 83.95140075683594, 195.61172485351562, -0.04800000041723251, -0.09600000083446503, 1.040000081062317, 0.0, 0.0, 0.0, 0.0, 0.0, 1.6214229939990258E9, 2021-05-19 13:16:33.999
100.0, -172.72915649414062, 34.56041717529297, 113.447998046875, 227.46070861816406, -0.04800000041723251, -0.09600000083446503, 1.040000081062317, 0.0, 0.0, 0.0, 0.0, 0.0, 1.6214229939990258E9, 2021-05-19 13:16:33.999
0.0, -177.22076416015625, 13.23737621307373, 104.20109558105469, 214.3897705078125, -0.04800000041723251, -0.09600000083446503, 1.040000081062317, 0.0, 0.0, 0.0, 0.0, 0.0, 1.6214229939997635E9, 2021-05-19 13:16:33.999
1.0, -204.64920043945312, -21.087425231933594, 76.9671401977539, 180.4239959716797, -0.04800000041723251, -0.08000000566244125, 1.040000081062317, 0.0, 0.0, 0.0, 0.0, 0.0, 1.6214229940258737E9, 2021-05-19 13:16:34.025
1.0, -200.9130401611328, -3.8614466190338135, 82.9061050415039, 196.9094696044922, -0.04800000041723251, -0.08000000566244125, 1.040000081062317, 0.0, 0.0, 0.0, 0.0, 0.0, 1.6214229940258737E9, 2021-05-19 13:16:34.025
2.0, -174.05307006835938, 28.271774291992188, 108.73759460449219, 225.98345947265625, -0.04800000041723251, -0.08000000566244125, 1.040000081062317, 0.0, 0.0, 0.0, 0.0, 0.0, 1.621422994042644E9, 2021-05-19 13:16:34.042
2.0, -176.57376098632812, 10.552127838134766, 100.62948608398438, 214.27383422851562, -0.04800000041723251, -0.08000000566244125, 1.040000081062317, 0.0, 0.0, 0.0, 0.0, 0.0, 1.621422994042644E9, 2021-05-19 13:16:34.042
3.0, -199.5928497314453, -17.32508659362793, 78.92311096191406, 182.7202911376953, -0.04800000041723251, -0.08000000566244125, 1.040000081062317, 0.0, 0.0, 0.0, 0.0, 0.0, 1.621422994043337E9, 2021-05-19 13:16:34.043
3.0, -200.28472900390625, -6.060507774353027, 81.5859146118164, 194.65057373046875, -0.04800000041723251, -0.08000000566244125, 1.040000081062317, 0.0, 0.0, 0.0, 0.0, 0.0, 1.621422994043337E9, 2021-05-19 13:16:34.043
4.0, -174.63650512695312, 30.23896026611328, 109.69874572753906, 226.26394653320312, -0.04800000041723251, -0.08000000566244125, 1.040000081062317, 0.0, 0.0, 0.0, 0.0, 0.0, 1.6214229940565937E9, 2021-05-19 13:16:34.056
4.0, -175.35829162597656, 16.648164749145508, 95.5133056640625, 213.6193389892578, -0.04800000041723251, -0.08000000566244125, 1.040000081062317, 0.0, 0.0, 0.0, 0.0, 0.0, 1.6214229940565937E9, 2021-05-19 13:16:34.056
5.0, -198.7887725830078, -13.03916072845459, 70.21288299560547, 185.4242401123047, -0.04800000041723251, -0.08000000566244125, 1.040000081062317, 0.0, 0.0, 0.0, 0.0, 0.0, 1.6214229940725267E9, 2021-05-19 13:16:34.072
5.0, -194.9142303466797, 1.2285571098327637, 85.07150268554688, 199.160888671875, -0.04800000041723251, -0.08000000566244125, 1.040000081062317, 0.0, 0.0, 0.0, 0.0, 0.0, 1.6214229940725267E9, 2021-05-19 13:16:34.072
6.0, -174.08673095703125, 34.61464309692383, 108.38603973388672, 226.8885040283203, -0.04800000041723251, -0.08000000566244125, 1.040000081062317, 0.0, 0.0, 0.0, 0.0, 0.0, 1.621422994073264E9, 2021-05-19 13:16:34.073
6.0, -172.1606903076172, 16.962316513061523, 96.22388458251953, 212.96112060546875, -0.04800000041723251, -0.08000000566244125, 1.040000081062317, 0.0, 0.0, 0.0, 0.0, 0.0, 1.621422994073264E9, 2021-05-19 13:16:34.073
7.0, -195.23960876464844, -7.328333854675293, 73.53765106201172, 184.73609924316406, -0.04800000041723251, -0.08000000566244125, 1.040000081062317, 0.0, 0.0, 0.0, 0.0, 0.0, 1.621422994074033E9, 2021-05-19 13:16:34.074
7.0, -196.0997772216797, -1.5165294408798218, 77.90585327148438, 200.09213256835938, -0.04800000041723251, -0.08000000566244125, 1.040000081062317, 0.0, 0.0, 0.0, 0.0, 0.0, 1.621422994074033E9, 2021-05-19 13:16:34.074
8.0, -173.8997344970703, 33.91154098510742, 103.18757629394531, 229.42416381835938, -0.04800000041723251, -0.08000000566244125, 1.040000081062317, 0.0, 0.0, 0.0, 0.0, 0.0, 1.621422994074782E9, 2021-05-19 13:16:34.074
8.0, -172.5010223388672, 16.65938377380371, 90.62151336669922, 210.07017517089844, -0.04800000041723251, -0.08000000566244125, 1.040000081062317, 0.0, 0.0, 0.0, 0.0, 0.0, 1.621422994074782E9, 2021-05-19 13:16:34.074
9.0, -200.0079803466797, -13.667464256286621, 65.6427230834961, 178.2772979736328, -0.04800000041723251, -0.08000000566244125, 1.040000081062317, 0.0, 0.0, 0.0, 0.0, 0.0, 1.6214229940855498E9, 2021-05-19 13:16:34.085
9.0, -195.76693725585938, 5.533182144165039, 75.02239227294922, 194.90863037109375, -0.04800000041723251, -0.08000000566244125, 1.040000081062317, 0.0, 0.0, 0.0, 0.0, 0.0, 1.6214229940855498E9, 2021-05-19 13:16:34.085
10.0, -166.91360473632812, 32.82697296142578, 103.00432586669922, 229.28578186035156, -0.04800000041723251, -0.08000000566244125, 1.040000081062317, 0.0, 0.0, 0.0, 0.0, 0.0, 1.6214229941005325E9, 2021-05-19 13:16:34.100
10.0, -168.78355407714844, 19.224956512451172, 93.45635986328125, 217.11241149902344, -0.04800000041723251, -0.08000000566244125, 1.040000081062317, 0.0, 0.0, 0.0, 0.0, 0.0, 1.6214229941005325E9, 2021-05-19 13:16:34.100
11.0, -193.75486755371094, -16.072219848632812, 64.17668151855469, 188.00103759765625, -0.04800000041723251, -0.08000000566244125, 1.040000081062317, 0.0, 0.0, 0.0, 0.0, 0.0, 1.6214229941162708E9, 2021-05-19 13:16:34.116
11.0, -195.04139709472656, -2.8890726566314697, 70.66541290283203, 198.28948974609375, -0.04800000041723251, -0.08000000566244125, 1.040000081062317, 0.0, 0.0, 0.0, 0.0, 0.0, 1.6214229941162708E9, 2021-05-19 13:16:34.116
12.0, -171.03123474121094, 37.02313995361328, 101.65048217773438, 233.8447265625, -0.04800000041723251, -0.08000000566244125, 1.040000081062317, 0.0, 0.0, 0.0, 0.0, 0.0, 1.6214229941169138E9, 2021-05-19 13:16:34.116
12.0, -173.52200317382812, 18.409658432006836, 91.82950592041016, 213.8773956298828, -0.04800000041723251, -0.08000000566244125, 1.040000081062317, 0.0, 0.0, 0.0, 0.0, 0.0, 1.6214229941169138E9, 2021-05-19 13:16:34.116
13.0, -197.37509155273438, -12.541754722595215, 70.61305236816406, 177.8845977783203, -0.04800000041723251, -0.08000000566244125, 1.040000081062317, 0.0, 0.0, 0.0, 0.0, 0.0, 1.6214229941465707E9, 2021-05-19 13:16:34.146
13.0, -195.16107177734375, 1.8232011795043945, 82.54707336425781, 196.01190185546875, -0.04800000041723251, -0.08000000566244125, 1.040000081062317, 0.0, 0.0, 0.0, 0.0, 0.0, 1.6214229941465707E9, 2021-05-19 13:16:34.146
14.0, -170.3767547607422, 37.64396286010742, 103.5877456665039, 225.59825134277344, -0.04800000041723251, -0.08000000566244125, 1.040000081062317, 0.0, 0.0, 0.0, 0.0, 0.0, 1.6214229941626532E9, 2021-05-19 13:16:34.162
14.0, -176.29327392578125, 22.048580169677734, 96.66145324707031, 214.7226104736328, -0.04800000041723251, -0.08000000566244125, 1.040000081062317, 0.0, 0.0, 0.0, 0.0, 0.0, 1.6214229941626532E9, 2021-05-19 13:16:34.162
15.0, -198.97950744628906, -10.840100288391113, 76.9260025024414, 187.129638671875, -0.04800000041723251, -0.08000000566244125, 1.040000081062317, 0.0, 0.0, 0.0, 0.0, 0.0, 1.6214229941633832E9, 2021-05-19 13:16:34.163
15.0, -195.41912841796875, 6.591573715209961, 87.46504211425781, 196.29612731933594, -0.04800000041723251, -0.08000000566244125, 1.040000081062317, 0.0, 0.0, 0.0, 0.0, 0.0, 1.6214229941633832E9, 2021-05-19 13:16:34.163
16.0, -176.0240020751953, 33.642269134521484, 110.65242004394531, 226.8922576904297, -0.04800000041723251, -0.08000000566244125, 1.040000081062317, 0.0, 0.0, 0.0, 0.0, 0.0, 1.6214229941640568E9, 2021-05-19 13:16:34.164
16.0, -177.25816345214844, 19.079099655151367, 102.51065826416016, 216.4654083251953, -0.04800000041723251, -0.08000000566244125, 1.040000081062317, 0.0, 0.0, 0.0, 0.0, 0.0, 1.6214229941640568E9, 2021-05-19 13:16:34.164
17.0, -199.57789611816406, -11.5731201171875, 78.05545043945312, 181.3290557861328, -0.04800000041723251, -0.08000000566244125, 1.040000081062317, 0.0, 0.0, 0.0, 0.0, 0.0, 1.621422994164781E9, 2021-05-19 13:16:34.164
17.0, -194.33828735351562, 4.05592155456543, 80.26573181152344, 195.1779022216797, -0.04800000041723251, -0.08000000566244125, 1.040000081062317, 0.0, 0.0, 0.0, 0.0, 0.0, 1.621422994164781E9, 2021-05-19 13:16:34.164
18.0, -170.73204040527344, 36.933380126953125, 106.69186401367188, 230.21328735351562, -0.04800000041723251, -0.08000000566244125, 1.040000081062317, 0.0, 0.0, 0.0, 0.0, 0.0, 1.6214229941755216E9, 2021-05-19 13:16:34.175
18.0, -172.78150939941406, 20.67229652404785, 98.14619445800781, 215.17514038085938, -0.04800000041723251, -0.08000000566244125, 1.040000081062317, 0.0, 0.0, 0.0, 0.0, 0.0, 1.6214229941755216E9, 2021-05-19 13:16:34.175
19.0, -197.6780242919922, -14.434144020080566, 75.5609359741211, 186.6920623779297, -0.04800000041723251, -0.08000000566244125, 1.040000081062317, 0.0, 0.0, 0.0, 0.0, 0.0, 1.6214229941905704E9, 2021-05-19 13:16:34.190
19.0, -193.93064880371094, 3.300461769104004, 81.90380859375, 195.6827850341797, -0.04800000041723251, -0.08000000566244125, 1.040000081062317, 0.0, 0.0, 0.0, 0.0, 0.0, 1.6214229941905704E9, 2021-05-19 13:16:34.190
20.0, -173.2677001953125, 35.441162109375, 108.5019760131836, 226.35745239257812, -0.04800000041723251, -0.08000000566244125, 1.040000081062317, 0.0, 0.0, 0.0, 0.0, 0.0, 1.621422994206664E9, 2021-05-19 13:16:34.206
20.0, -171.9437713623047, 23.694135665893555, 105.31932067871094, 216.13255310058594, -0.04800000041723251, -0.08000000566244125, 1.040000081062317, 0.0, 0.0, 0.0, 0.0, 0.0, 1.621422994206664E9, 2021-05-19 13:16:34.206
21.0, -199.7947998046875, -11.808733940124512, 72.40446472167969, 181.41506958007812, -0.04800000041723251, -0.08000000566244125, 1.040000081062317, 0.0, 0.0, 0.0, 0.0, 0.0, 1.6214229942212975E9, 2021-05-19 13:16:34.221
21.0, -192.300048828125, 6.359699726104736, 86.21965026855469, 196.94686889648438, -0.04800000041723251, -0.08000000566244125, 1.040000081062317, 0.0, 0.0, 0.0, 0.0, 0.0, 1.6214229942212975E9, 2021-05-19 13:16:34.221
22.0, -176.360595703125, 39.63359069824219, 109.87825775146484, 227.2662353515625, -0.04800000041723251, -0.08000000566244125, 1.040000081062317, 0.0, 0.0, 0.0, 0.0, 0.0, 1.6214229942219875E9, 2021-05-19 13:16:34.221
22.0, -174.89080810546875, 12.66517162322998, 103.52043151855469, 209.8944091796875, -0.04800000041723251, -0.08000000566244125, 1.040000081062317, 0.0, 0.0, 0.0, 0.0, 0.0, 1.6214229942219875E9, 2021-05-19 13:16:34.221
23.0, -198.45217895507812, -7.15255880355835, 79.82068634033203, 178.97291564941406, -0.04800000041723251, -0.08000000566244125, 1.040000081062317, 0.0, 0.0, 0.0, 0.0, 0.0, 1.62142299423619E9, 2021-05-19 13:16:34.236
23.0, -196.67947387695312, 0.6301731467247009, 78.36212158203125, 198.68592834472656, -0.04800000041723251, -0.08000000566244125, 1.040000081062317, 0.0, 0.0, 0.0, 0.0, 0.0, 1.62142299423619E9, 2021-05-19 13:16:34.236
24.0, -170.22715759277344, 32.88307189941406, 102.00202941894531, 227.3560028076172, -0.04800000041723251, -0.08000000566244125, 1.040000081062317, 0.0, 0.0, 0.0, 0.0, 0.0, 1.6214229942368913E9, 2021-05-19 13:16:34.236
24.0, -171.1845703125, 26.77955436706543, 96.41461944580078, 219.77896118164062, -0.04800000041723251, -0.08000000566244125, 1.040000081062317, 0.0, 0.0, 0.0, 0.0, 0.0, 1.6214229942368913E9, 2021-05-19 13:16:34.236
25.0, -203.49356079101562, -6.311081409454346, 70.15678405761719, 179.2272186279297, -0.04800000041723251, -0.08000000566244125, 1.040000081062317, 0.0, 0.0, 0.0, 0.0, 0.0, 1.6214229942672868E9, 2021-05-19 13:16:34.267
25.0, -195.8118133544922, 8.588680267333984, 80.85663604736328, 195.33123779296875, -0.04800000041723251, -0.08000000566244125, 1.040000081062317, 0.0, 0.0, 0.0, 0.0, 0.0, 1.6214229942672868E9, 2021-05-19 13:16:34.267
26.0, -175.79586791992188, 37.91697692871094, 98.26960754394531, 222.99526977539062, -0.04800000041723251, -0.08000000566244125, 1.040000081062317, 0.0, 0.0, 0.0, 0.0, 0.0, 1.6214229942679698E9, 2021-05-19 13:16:34.267
26.0, -170.73204040527344, 28.391450881958008, 95.07947540283203, 209.853271484375, -0.04800000041723251, -0.08000000566244125, 1.040000081062317, 0.0, 0.0, 0.0, 0.0, 0.0, 1.6214229942679698E9, 2021-05-19 13:16:34.267
27.0, -199.34976196289062, -11.165471076965332, 66.2411117553711, 175.52098083496094, -0.04800000041723251, -0.08000000566244125, 1.040000081062317, 0.0, 0.0, 0.0, 0.0, 0.0, 1.621422994281345E9, 2021-05-19 13:16:34.281
27.0, -195.94644165039062, 5.469603538513184, 76.00225067138672, 194.26162719726562, -0.04800000041723251, -0.08000000566244125, 1.040000081062317, 0.0, 0.0, 0.0, 0.0, 0.0, 1.621422994281345E9, 2021-05-19 13:16:34.281
28.0, -176.87295532226562, 35.66181564331055, 105.71575164794922, 225.3177490234375, -0.04800000041723251, -0.08000000566244125, 1.040000081062317, 0.0, 0.0, 0.0, 0.0, 0.0, 1.621422994282112E9, 2021-05-19 13:16:34.282
28.0, -181.5216522216797, 21.880285263061523, 96.60909271240234, 214.2962646484375, -0.04800000041723251, -0.08000000566244125, 1.040000081062317, 0.0, 0.0, 0.0, 0.0, 0.0, 1.621422994282112E9, 2021-05-19 13:16:34.282
29.0, -202.40525817871094, -11.76385498046875, 73.50773620605469, 180.15846252441406, -0.04800000041723251, -0.08000000566244125, 1.040000081062317, 0.0, 0.0, 0.0, 0.0, 0.0, 1.6214229942962503E9, 2021-05-19 13:16:34.296
29.0, -198.29884338378906, 5.948310852050781, 74.955078125, 191.6698760986328, -0.04800000041723251, -0.08000000566244125, 1.040000081062317, 0.0, 0.0, 0.0, 0.0, 0.0, 1.6214229942962503E9, 2021-05-19 13:16:34.296
30.0, -177.21702575683594, 32.33330535888672, 101.73649597167969, 223.5338134765625, -0.04800000041723251, -0.08000000566244125, 1.040000081062317, 0.0, 0.0, 0.0, 0.0, 0.0, 1.6214229942969584E9, 2021-05-19 13:16:34.296
30.0, -180.18276977539062, 13.68990421295166, 88.98343658447266, 204.5126953125, -0.04800000041723251, -0.08000000566244125, 1.040000081062317, 0.0, 0.0, 0.0, 0.0, 0.0, 1.6214229942969584E9, 2021-05-19 13:16:34.296
31.0, -195.50514221191406, -16.11709976196289, 64.356201171875, 173.82681274414062, -0.04800000041723251, -0.08000000566244125, 1.040000081062317, 0.0, 0.0, 0.0, 0.0, 0.0, 1.6214229943270411E9, 2021-05-19 13:16:34.327
31.0, -194.2073974609375, -5.219030380249023, 73.94155883789062, 192.3729705810547, -0.04800000041723251, -0.08000000566244125, 1.040000081062317, 0.0, 0.0, 0.0, 0.0, 0.0, 1.6214229943270411E9, 2021-05-19 13:16:34.327
32.0, -164.32559204101562, 33.23088073730469, 103.68124389648438, 227.23257446289062, -0.04800000041723251, -0.08000000566244125, 1.040000081062317, 0.0, 0.0, 0.0, 0.0, 0.0, 1.6214229943277054E9, 2021-05-19 13:16:34.327
32.0, -161.3486328125, 25.339693069458008, 102.98188781738281, 217.29193115234375, -0.04800000041723251, -0.08000000566244125, 1.040000081062317, 0.0, 0.0, 0.0, 0.0, 0.0, 1.6214229943277054E9, 2021-05-19 13:16:34.327
33.0, -177.49752807617188, 1.157499074935913, 89.16295623779297, 197.646240234375, -0.04800000041723251, -0.08000000566244125, 1.040000081062317, 0.0, 0.0, 0.0, 0.0, 0.0, 1.6214229943285234E9, 2021-05-19 13:16:34.328
33.0, -187.69622802734375, 9.639592170715332, 88.25041961669922, 207.41485595703125, -0.04800000041723251, -0.08000000566244125, 1.040000081062317, 0.0, 0.0, 0.0, 0.0, 0.0, 1.6214229943285234E9, 2021-05-19 13:16:34.328
34.0, -167.4147491455078, 43.08551788330078, 107.00601959228516, 234.00180053710938, -0.04800000041723251, -0.08000000566244125, 1.040000081062317, 0.0, 0.0, 0.0, 0.0, 0.0, 1.621422994356927E9, 2021-05-19 13:16:34.356
34.0, -176.3867645263672, 21.611011505126953, 95.92469024658203, 214.3486328125, -0.04800000041723251, -0.08000000566244125, 1.040000081062317, 0.0, 0.0, 0.0, 0.0, 0.0, 1.621422994356927E9, 2021-05-19 13:16:34.356
35.0, -198.81869506835938, -2.081254243850708, 71.03192138671875, 182.9596405029297, -0.04800000041723251, -0.08000000566244125, 1.040000081062317, 0.0, 0.0, 0.0, 0.0, 0.0, 1.6214229943576436E9, 2021-05-19 13:16:34.357
35.0, -200.07904052734375, 11.105632781982422, 81.11469268798828, 196.06051635742188, -0.04800000041723251, -0.08000000566244125, 1.040000081062317, 0.0, 0.0, 0.0, 0.0, 0.0, 1.6214229943576436E9, 2021-05-19 13:16:34.357
36.0, -175.163818359375, 36.54817199707031, 105.58859252929688, 227.06802368164062, -0.04800000041723251, -0.08000000566244125, 1.040000081062317, 0.0, 0.0, 0.0, 0.0, 0.0, 1.6214229943584836E9, 2021-05-19 13:16:34.358
36.0, -175.8594512939453, 15.458876609802246, 95.22159576416016, 209.7747344970703, -0.04800000041723251, -0.08000000566244125, 1.040000081062317, 0.0, 0.0, 0.0, 0.0, 0.0, 1.6214229943584836E9, 2021-05-19 13:16:34.358
37.0, -198.66162109375, -14.557560920715332, 72.22120666503906, 180.58480834960938, -0.04800000041723251, -0.08000000566244125, 1.040000081062317, 0.0, 0.0, 0.0, 0.0, 0.0, 1.6214229943867917E9, 2021-05-19 13:16:34.386
37.0, -194.72349548339844, 5.967010498046875, 76.0994873046875, 198.4503173828125, -0.04800000041723251, -0.08000000566244125, 1.040000081062317, 0.0, 0.0, 0.0, 0.0, 0.0, 1.6214229943867917E9, 2021-05-19 13:16:34.386
38.0, -170.6834259033203, 38.4218635559082, 97.28975677490234, 228.70236206054688, -0.04800000041723251, -0.08000000566244125, 1.040000081062317, 0.0, 0.0, 0.0, 0.0, 0.0, 1.6214229944030013E9, 2021-05-19 13:16:34.403
38.0, -177.51248168945312, 22.60956573486328, 91.41437530517578, 213.45852661132812, -0.04800000041723251, -0.08000000566244125, 1.040000081062317, 0.0, 0.0, 0.0, 0.0, 0.0, 1.6214229944030013E9, 2021-05-19 13:16:34.403
39.0, -200.57644653320312, -8.386725425720215, 68.87773895263672, 179.4478759765625, -0.04800000041723251, -0.08000000566244125, 1.040000081062317, 0.0, 0.0, 0.0, 0.0, 0.0, 1.6214229944037747E9, 2021-05-19 13:16:34.403
39.0, -197.640625, 7.496629238128662, 73.50399017333984, 193.70437622070312, -0.04800000041723251, -0.08000000566244125, 1.040000081062317, 0.0, 0.0, 0.0, 0.0, 0.0, 1.6214229944037747E9, 2021-05-19 13:16:34.403
40.0, -175.3769989013672, 39.70838928222656, 95.63298034667969, 225.25418090820312, -0.04800000041723251, -0.08000000566244125, 1.040000081062317, 0.0, 0.0, 0.0, 0.0, 0.0, 1.6214229944045126E9, 2021-05-19 13:16:34.404
40.0, -182.0826416015625, 19.35211181640625, 85.98403930664062, 210.5750732421875, -0.04800000041723251, -0.08000000566244125, 1.040000081062317, 0.0, 0.0, 0.0, 0.0, 0.0, 1.6214229944045126E9, 2021-05-19 13:16:34.404
41.0, -202.65582275390625, -2.56744122505188, 64.77132415771484, 182.9334716796875, -0.04800000041723251, -0.08000000566244125, 1.040000081062317, 0.0, 0.0, 0.0, 0.0, 0.0, 1.6214229944163628E9, 2021-05-19 13:16:34.416
41.0, -197.40127563476562, 8.71209716796875, 78.27236938476562, 197.70233154296875, -0.04800000041723251, -0.08000000566244125, 1.040000081062317, 0.0, 0.0, 0.0, 0.0, 0.0, 1.6214229944163628E9, 2021-05-19 13:16:34.416
42.0, -175.9753875732422, 37.87209701538086, 100.09841918945312, 227.46820068359375, -0.04800000041723251, -0.08000000566244125, 1.040000081062317, 0.0, 0.0, 0.0, 0.0, 0.0, 1.6214229944170663E9, 2021-05-19 13:16:34.417
42.0, -175.79212951660156, 24.337398529052734, 91.4592514038086, 215.74734497070312, -0.04800000041723251, -0.08000000566244125, 1.040000081062317, 0.0, 0.0, 0.0, 0.0, 0.0, 1.6214229944170663E9, 2021-05-19 13:16:34.417
43.0, -201.290771484375, -6.857106685638428, 67.15364074707031, 182.74647521972656, -0.04800000041723251, -0.08000000566244125, 1.040000081062317, 0.0, 0.0, 0.0, 0.0, 0.0, 1.621422994447569E9, 2021-05-19 13:16:34.447
43.0, -199.89952087402344, 9.445116996765137, 72.830810546875, 197.91175842285156, -0.04800000041723251, -0.08000000566244125, 1.040000081062317, 0.0, 0.0, 0.0, 0.0, 0.0, 1.621422994447569E9, 2021-05-19 13:16:34.447
44.0, -176.88418579101562, 39.57374954223633, 96.41461944580078, 226.83615112304688, -0.04800000041723251, -0.08000000566244125, 1.040000081062317, 0.0, 0.0, 0.0, 0.0, 0.0, 1.6214229944483385E9, 2021-05-19 13:16:34.448
44.0, -175.07032775878906, 20.66107749938965, 89.99695587158203, 212.72177124023438, -0.04800000041723251, -0.08000000566244125, 1.040000081062317, 0.0, 0.0, 0.0, 0.0, 0.0, 1.6214229944483385E9, 2021-05-19 13:16:34.448
45.0, -199.0804901123047, -11.509542465209961, 64.44595336914062, 179.47032165527344, -0.04800000041723251, -0.08000000566244125, 1.040000081062317, 0.0, 0.0, 0.0, 0.0, 0.0, 1.6214229944490724E9, 2021-05-19 13:16:34.449
45.0, -199.2039031982422, 9.190804481506348, 77.33364868164062, 195.66783142089844, -0.04800000041723251, -0.08000000566244125, 1.040000081062317, 0.0, 0.0, 0.0, 0.0, 0.0, 1.6214229944490724E9, 2021-05-19 13:16:34.449
46.0, -169.98780822753906, 30.14920425415039, 105.6708755493164, 225.50100708007812, -0.04800000041723251, -0.08000000566244125, 1.040000081062317, 0.0, 0.0, 0.0, 0.0, 0.0, 1.6214229944606905E9, 2021-05-19 13:16:34.460
46.0, -175.5490264892578, 15.821646690368652, 97.00178527832031, 213.47349548339844, -0.04800000041723251, -0.08000000566244125, 1.040000081062317, 0.0, 0.0, 0.0, 0.0, 0.0, 1.6214229944606905E9, 2021-05-19 13:16:34.460
47.0, -199.07675170898438, -8.689657211303711, 73.64611053466797, 184.60519409179688, -0.04800000041723251, -0.08000000566244125, 1.040000081062317, 0.0, 0.0, 0.0, 0.0, 0.0, 1.6214229944759963E9, 2021-05-19 13:16:34.475
47.0, -198.03330993652344, 6.542954921722412, 81.22689056396484, 195.0544891357422, -0.04800000041723251, -0.08000000566244125, 1.040000081062317, 0.0, 0.0, 0.0, 0.0, 0.0, 1.6214229944759963E9, 2021-05-19 13:16:34.475
48.0, -178.06224060058594, 36.85484313964844, 106.03364562988281, 222.96910095214844, -0.04800000041723251, -0.08000000566244125, 1.040000081062317, 0.0, 0.0, 0.0, 0.0, 0.0, 1.621422994492763E9, 2021-05-19 13:16:34.492
48.0, -174.16900634765625, 23.163070678710938, 102.4620361328125, 213.85122680664062, -0.04800000041723251, -0.08000000566244125, 1.040000081062317, 0.0, 0.0, 0.0, 0.0, 0.0, 1.621422994492763E9, 2021-05-19 13:16:34.492
49.0, -196.68695068359375, -11.77507495880127, 77.31869506835938, 179.58999633789062, -0.04800000041723251, -0.08000000566244125, 1.040000081062317, 0.0, 0.0, 0.0, 0.0, 0.0, 1.6214229944935124E9, 2021-05-19 13:16:34.493
49.0, -201.47401428222656, 4.093320369720459, 86.54876708984375, 195.93710327148438, -0.04800000041723251, -0.08000000566244125, 1.040000081062317, 0.0, 0.0, 0.0, 0.0, 0.0, 1.6214229944935124E9, 2021-05-19 13:16:34.493
50.0, -178.36143493652344, 34.10227584838867, 111.28072357177734, 223.4515380859375, -0.04800000041723251, -0.08000000566244125, 1.040000081062317, 0.0, 0.0, 0.0, 0.0, 0.0, 1.62142299449415E9, 2021-05-19 13:16:34.494
50.0, -174.14283752441406, 25.137737274169922, 102.41342163085938, 212.61705017089844, -0.04800000041723251, -0.08000000566244125, 1.040000081062317, 0.0, 0.0, 0.0, 0.0, 0.0, 1.62142299449415E9, 2021-05-19 13:16:34.494
51.0, -202.52493286132812, -10.469849586486816, 72.83829498291016, 178.3595733642578, -0.04800000041723251, -0.08000000566244125, 1.040000081062317, 0.0, 0.0, 0.0, 0.0, 0.0, 1.621422994505546E9, 2021-05-19 13:16:34.505
51.0, -198.02957153320312, 8.121192932128906, 83.29131317138672, 198.1361541748047, -0.04800000041723251, -0.08000000566244125, 1.040000081062317, 0.0, 0.0, 0.0, 0.0, 0.0, 1.621422994505546E9, 2021-05-19 13:16:34.505
52.0, -174.75991821289062, 35.25416564941406, 103.37831115722656, 225.6954803466797, -0.04800000041723251, -0.08000000566244125, 1.040000081062317, 0.0, 0.0, 0.0, 0.0, 0.0, 1.6214229945206244E9, 2021-05-19 13:16:34.520
52.0, -178.226806640625, 22.467449188232422, 98.65856170654297, 211.59605407714844, -0.04800000041723251, -0.08000000566244125, 1.040000081062317, 0.0, 0.0, 0.0, 0.0, 0.0, 1.6214229945206244E9, 2021-05-19 13:16:34.520
53.0, -204.4659423828125, -12.983062744140625, 68.36163330078125, 178.29598999023438, -0.04800000041723251, -0.08000000566244125, 1.040000081062317, 0.0, 0.0, 0.0, 0.0, 0.0, 1.6214229945362077E9, 2021-05-19 13:16:34.536
53.0, -199.4208221435547, 3.741769790649414, 73.91912078857422, 196.3223114013672, -0.04800000041723251, -0.08000000566244125, 1.040000081062317, 0.0, 0.0, 0.0, 0.0, 0.0, 1.6214229945362077E9, 2021-05-19 13:16:34.536
54.0, -172.9647674560547, 35.418724060058594, 104.45166778564453, 224.45008850097656, -0.04800000041723251, -0.08000000566244125, 1.040000081062317, 0.0, 0.0, 0.0, 0.0, 0.0, 1.6214229945368962E9, 2021-05-19 13:16:34.536
54.0, -177.98370361328125, 18.862184524536133, 91.31340026855469, 208.66397094726562, -0.04800000041723251, -0.08000000566244125, 1.040000081062317, 0.0, 0.0, 0.0, 0.0, 0.0, 1.6214229945368962E9, 2021-05-19 13:16:34.536
55.0, -198.79251098632812, -10.38009262084961, 63.43992233276367, 180.56985473632812, -0.04800000041723251, -0.08000000566244125, 1.040000081062317, 0.0, 0.0, 0.0, 0.0, 0.0, 1.621422994566686E9, 2021-05-19 13:16:34.566
55.0, -198.88226318359375, 3.0461485385894775, 76.76144409179688, 195.62294006347656, -0.04800000041723251, -0.08000000566244125, 1.040000081062317, 0.0, 0.0, 0.0, 0.0, 0.0, 1.621422994566686E9, 2021-05-19 13:16:34.566
56.0, -171.80165100097656, 37.606563568115234, 105.57363891601562, 230.4563751220703, -0.04800000041723251, -0.08000000566244125, 1.040000081062317, 0.0, 0.0, 0.0, 0.0, 0.0, 1.6214229945674295E9, 2021-05-19 13:16:34.567
56.0, -176.19229125976562, 12.104186058044434, 94.44369506835938, 211.9700469970703, -0.04800000041723251, -0.08000000566244125, 1.040000081062317, 0.0, 0.0, 0.0, 0.0, 0.0, 1.6214229945674295E9, 2021-05-19 13:16:34.567
57.0, -201.7058868408203, -10.907418251037598, 66.52533721923828, 177.5779266357422, -0.04800000041723251, -0.08000000566244125, 1.040000081062317, 0.0, 0.0, 0.0, 0.0, 0.0, 1.6214229945812004E9, 2021-05-19 13:16:34.581
57.0, -198.3250274658203, 4.860000133514404, 70.69532775878906, 198.0314483642578, -0.04800000041723251, -0.08000000566244125, 1.040000081062317, 0.0, 0.0, 0.0, 0.0, 0.0, 1.6214229945812004E9, 2021-05-19 13:16:34.581
58.0, -170.6834259033203, 38.657474517822266, 99.791748046875, 231.6344451904297, -0.04800000041723251, -0.08000000566244125, 1.040000081062317, 0.0, 0.0, 0.0, 0.0, 0.0, 1.6214229945819185E9, 2021-05-19 13:16:34.581
58.0, -173.1293182373047, 26.110111236572266, 92.0389404296875, 215.75482177734375, -0.04800000041723251, -0.08000000566244125, 1.040000081062317, 0.0, 0.0, 0.0, 0.0, 0.0, 1.6214229945819185E9, 2021-05-19 13:16:34.581
59.0, -198.96080017089844, -11.457183837890625, 66.09151458740234, 183.1354217529297, -0.04800000041723251, -0.08000000566244125, 1.040000081062317, 0.0, 0.0, 0.0, 0.0, 0.0, 1.621422994596326E9, 2021-05-19 13:16:34.596
59.0, -201.47027587890625, 6.217583656311035, 73.30951690673828, 193.34161376953125, -0.04800000041723251, -0.08000000566244125, 1.040000081062317, 0.0, 0.0, 0.0, 0.0, 0.0, 1.621422994596326E9, 2021-05-19 13:16:34.596
60.0, -173.2303009033203, 39.25212097167969, 101.50836181640625, 228.26853942871094, -0.04800000041723251, -0.08000000566244125, 1.040000081062317, 0.0, 0.0, 0.0, 0.0, 0.0, 1.6214229945970185E9, 2021-05-19 13:16:34.597
60.0, -174.7860870361328, 27.52005386352539, 96.85218811035156, 215.55287170410156, -0.04800000041723251, -0.08000000566244125, 1.040000081062317, 0.0, 0.0, 0.0, 0.0, 0.0, 1.6214229945970185E9, 2021-05-19 13:16:34.597
61.0, -195.96141052246094, 0.8209080696105957, 74.82791900634766, 184.00682067871094, -0.04800000041723251, -0.08000000566244125, 1.040000081062317, 0.0, 0.0, 0.0, 0.0, 0.0, 1.6214229946267405E9, 2021-05-19 13:16:34.626
61.0, -195.18350219726562, 12.092966079711914, 79.45417785644531, 196.9506072998047, -0.04800000041723251, -0.08000000566244125, 1.040000081062317, 0.0, 0.0, 0.0, 0.0, 0.0, 1.6214229946267405E9, 2021-05-19 13:16:34.626
62.0, -166.79393005371094, 37.606563568115234, 102.67521667480469, 232.06826782226562, -0.04800000041723251, -0.08000000566244125, 1.040000081062317, 0.0, 0.0, 0.0, 0.0, 0.0, 1.6214229946425729E9, 2021-05-19 13:16:34.642
62.0, -179.59561157226562, 27.890304565429688, 89.24149322509766, 214.2925262451172, -0.04800000041723251, -0.08000000566244125, 1.040000081062317, 0.0, 0.0, 0.0, 0.0, 0.0, 1.6214229946425729E9, 2021-05-19 13:16:34.642
63.0, -200.9803466796875, -6.916944980621338, 70.9870376586914, 182.13687133789062, -0.04800000041723251, -0.08000000566244125, 1.040000081062317, 0.0, 0.0, 0.0, 0.0, 0.0, 1.62142299464341E9, 2021-05-19 13:16:34.643
63.0, -197.49476623535156, 14.624878883361816, 84.72743225097656, 204.8455352783203, -0.04800000041723251, -0.08000000566244125, 1.040000081062317, 0.0, 0.0, 0.0, 0.0, 0.0, 1.62142299464341E9, 2021-05-19 13:16:34.643
64.0, -176.00155639648438, 44.51416015625, 104.36564636230469, 231.14825439453125, -0.04800000041723251, -0.08000000566244125, 1.040000081062317, 0.0, 0.0, 0.0, 0.0, 0.0, 1.621422994644083E9, 2021-05-19 13:16:34.644
64.0, -176.41294860839844, 20.937829971313477, 90.20264434814453, 213.98959350585938, -0.04800000041723251, -0.08000000566244125, 1.040000081062317, 0.0, 0.0, 0.0, 0.0, 0.0, 1.621422994644083E9, 2021-05-19 13:16:34.644
65.0, -193.88575744628906, -0.33098113536834717, 69.81645202636719, 184.1190185546875, -0.04800000041723251, -0.08000000566244125, 1.040000081062317, 0.0, 0.0, 0.0, 0.0, 0.0, 1.6214229946447766E9, 2021-05-19 13:16:34.644
65.0, -196.73556518554688, 13.544047355651855, 76.48095703125, 196.60279846191406, -0.04800000041723251, -0.08000000566244125, 1.040000081062317, 0.0, 0.0, 0.0, 0.0, 0.0, 1.6214229946447766E9, 2021-05-19 13:16:34.644
66.0, -178.20809936523438, 41.20060729980469, 108.5019760131836, 233.3435821533203, -0.04800000041723251, -0.08000000566244125, 1.040000081062317, 0.0, 0.0, 0.0, 0.0, 0.0, 1.6214229946712165E9, 2021-05-19 13:16:34.671
66.0, -174.6739044189453, 28.44754981994629, 98.01155853271484, 216.42800903320312, -0.04800000041723251, -0.08000000566244125, 1.040000081062317, 0.0, 0.0, 0.0, 0.0, 0.0, 1.6214229946712165E9, 2021-05-19 13:16:34.671
67.0, -201.21597290039062, -9.878945350646973, 68.5299301147461, 181.355224609375, -0.04800000041723251, -0.08000000566244125, 1.040000081062317, 0.0, 0.0, 0.0, 0.0, 0.0, 1.6214229946719244E9, 2021-05-19 13:16:34.671
67.0, -196.16336059570312, 9.306740760803223, 85.13882446289062, 196.4644317626953, -0.04800000041723251, -0.08000000566244125, 1.040000081062317, 0.0, 0.0, 0.0, 0.0, 0.0, 1.6214229946719244E9, 2021-05-19 13:16:34.671
68.0, -174.93568420410156, 40.19831466674805, 111.18348693847656, 223.91903686523438, -0.04800000041723251, -0.08000000566244125, 1.040000081062317, 0.0, 0.0, 0.0, 0.0, 0.0, 1.6214229946862726E9, 2021-05-19 13:16:34.686
68.0, -173.92218017578125, 26.379384994506836, 102.62285614013672, 214.7301025390625, -0.04800000041723251, -0.08000000566244125, 1.040000081062317, 0.0, 0.0, 0.0, 0.0, 0.0, 1.6214229946862726E9, 2021-05-19 13:16:34.686
69.0, -202.16964721679688, -9.639592170715332, 76.61184692382812, 182.63427734375, -0.04800000041723251, -0.08000000566244125, 1.040000081062317, 0.0, 0.0, 0.0, 0.0, 0.0, 1.6214229946869864E9, 2021-05-19 13:16:34.686
69.0, -199.413330078125, 8.633559226989746, 90.41582489013672, 202.28370666503906, -0.04800000041723251, -0.08000000566244125, 1.040000081062317, 0.0, 0.0, 0.0, 0.0, 0.0, 1.6214229946869864E9, 2021-05-19 13:16:34.686
70.0, -170.66098022460938, 39.85050582885742, 111.0899887084961, 228.6238250732422, -0.04800000041723251, -0.08000000566244125, 1.040000081062317, 0.0, 0.0, 0.0, 0.0, 0.0, 1.6214229947005544E9, 2021-05-19 13:16:34.700
70.0, -174.060546875, 23.30892562866211, 107.46976470947266, 210.17115783691406, -0.04800000041723251, -0.08000000566244125, 1.040000081062317, 0.0, 0.0, 0.0, 0.0, 0.0, 1.6214229947005544E9, 2021-05-19 13:16:34.700
71.0, -201.10751342773438, -7.8556599617004395, 78.77725219726562, 183.71136474609375, -0.04800000041723251, -0.08000000566244125, 1.040000081062317, 0.0, 0.0, 0.0, 0.0, 0.0, 1.6214229947168527E9, 2021-05-19 13:16:34.716
71.0, -197.4611053466797, 10.899938583374023, 87.77545166015625, 198.4951934814453, -0.04800000041723251, -0.08000000566244125, 1.040000081062317, 0.0, 0.0, 0.0, 0.0, 0.0, 1.6214229947168527E9, 2021-05-19 13:16:34.716
72.0, -176.80189514160156, 34.59968566894531, 112.90010070800781, 228.27227783203125, -0.04800000041723251, -0.08000000566244125, 1.040000081062317, 0.0, 0.0, 0.0, 0.0, 0.0, 1.6214229947175777E9, 2021-05-19 13:16:34.717
72.0, -179.98829650878906, 23.350065231323242, 105.86161041259766, 215.92312622070312, -0.04800000041723251, -0.08000000566244125, 1.040000081062317, 0.0, 0.0, 0.0, 0.0, 0.0, 1.6214229947175777E9, 2021-05-19 13:16:34.717
73.0, -195.90530395507812, -6.210103988647461, 82.3077163696289, 187.7616729736328, -0.04800000041723251, -0.08000000566244125, 1.040000081062317, 0.0, 0.0, 0.0, 0.0, 0.0, 1.6214229947305844E9, 2021-05-19 13:16:34.730
73.0, -196.80288696289062, 6.191404342651367, 88.72164916992188, 202.1341094970703, -0.04800000041723251, -0.08000000566244125, 1.040000081062317, 0.0, 0.0, 0.0, 0.0, 0.0, 1.6214229947305844E9, 2021-05-19 13:16:34.730
74.0, -174.48690795898438, 38.55649948120117, 115.98551940917969, 231.87005615234375, -0.04800000041723251, -0.08000000566244125, 1.040000081062317, 0.0, 0.0, 0.0, 0.0, 0.0, 1.6214229947461572E9, 2021-05-19 13:16:34.746
74.0, -176.20726013183594, 23.432342529296875, 104.82939910888672, 213.5370635986328, -0.04800000041723251, -0.08000000566244125, 1.040000081062317, 0.0, 0.0, 0.0, 0.0, 0.0, 1.6214229947461572E9, 2021-05-19 13:16:34.746
75.0, -200.1463623046875, -7.3395538330078125, 77.2850341796875, 184.3284454345703, -0.04800000041723251, -0.08000000566244125, 1.040000081062317, 0.0, 0.0, 0.0, 0.0, 0.0, 1.6214229947469475E9, 2021-05-19 13:16:34.746
75.0, -195.9015655517578, 7.515328884124756, 87.39398193359375, 201.3300323486328, -0.04800000041723251, -0.08000000566244125, 1.040000081062317, 0.0, 0.0, 0.0, 0.0, 0.0, 1.6214229947469475E9, 2021-05-19 13:16:34.746
76.0, -175.56399536132812, 36.619232177734375, 111.23958587646484, 229.59994506835938, -0.04800000041723251, -0.08000000566244125, 1.040000081062317, 0.0, 0.0, 0.0, 0.0, 0.0, 1.621422994760544E9, 2021-05-19 13:16:34.760
76.0, -179.89479064941406, 20.724655151367188, 108.39726257324219, 214.60667419433594, -0.04800000041723251, -0.08000000566244125, 1.040000081062317, 0.0, 0.0, 0.0, 0.0, 0.0, 1.621422994760544E9, 2021-05-19 13:16:34.760
77.0, -198.2651824951172, -10.267895698547363, 83.57180786132812, 181.33279418945312, -0.04800000041723251, -0.08000000566244125, 1.040000081062317, 0.0, 0.0, 0.0, 0.0, 0.0, 1.6214229947762012E9, 2021-05-19 13:16:34.776
77.0, -196.90386962890625, 5.349926948547363, 91.47795104980469, 199.09356689453125, -0.04800000041723251, -0.08000000566244125, 1.040000081062317, 0.0, 0.0, 0.0, 0.0, 0.0, 1.6214229947762012E9, 2021-05-19 13:16:34.776
78.0, -168.06549072265625, 35.994667053222656, 116.48666381835938, 226.2115936279297, -0.04800000041723251, -0.08000000566244125, 1.040000081062317, 0.0, 0.0, 0.0, 0.0, 0.0, 1.6214229947769663E9, 2021-05-19 13:16:34.776
78.0, -172.5084991455078, 17.369964599609375, 110.84689331054688, 215.0143280029297, -0.04800000041723251, -0.08000000566244125, 1.040000081062317, 0.0, 0.0, 0.0, 0.0, 0.0, 1.6214229947769663E9, 2021-05-19 13:16:34.776
79.0, -199.23756408691406, -19.640085220336914, 86.25704956054688, 183.07931518554688, -0.04800000041723251, -0.08000000566244125, 1.040000081062317, 0.0, 0.0, 0.0, 0.0, 0.0, 1.6214229947904985E9, 2021-05-19 13:16:34.790
79.0, -189.68959045410156, 12.190203666687012, 98.00408172607422, 202.42208862304688, -0.04800000041723251, -0.08000000566244125, 1.040000081062317, 0.0, 0.0, 0.0, 0.0, 0.0, 1.6214229947904985E9, 2021-05-19 13:16:34.790
80.0, -172.39630126953125, 38.8220329284668, 116.67739868164062, 235.01531982421875, -0.04800000041723251, -0.08000000566244125, 1.040000081062317, 0.0, 0.0, 0.0, 0.0, 0.0, 1.621422994806234E9, 2021-05-19 13:16:34.806
80.0, -176.1997833251953, 22.91249656677246, 101.96836853027344, 219.75277709960938, -0.04800000041723251, -0.08000000566244125, 1.040000081062317, 0.0, 0.0, 0.0, 0.0, 0.0, 1.621422994806234E9, 2021-05-19 13:16:34.806
81.0, -197.73411560058594, -5.133012771606445, 77.33739471435547, 191.35946655273438, -0.04800000041723251, -0.08000000566244125, 1.040000081062317, 0.0, 0.0, 0.0, 0.0, 0.0, 1.621422994806932E9, 2021-05-19 13:16:34.806
81.0, -197.1207733154297, 12.691350936889648, 82.43487548828125, 200.02854919433594, -0.04800000041723251, -0.08000000566244125, 1.040000081062317, 0.0, 0.0, 0.0, 0.0, 0.0, 1.621422994806932E9, 2021-05-19 13:16:34.806
82.0, -168.80599975585938, 39.25960159301758, 109.99419403076172, 234.3645782470703, -0.04800000041723251, -0.08000000566244125, 1.040000081062317, 0.0, 0.0, 0.0, 0.0, 0.0, 1.6214229948205154E9, 2021-05-19 13:16:34.820
82.0, -170.257080078125, 26.154991149902344, 102.94822692871094, 220.84109497070312, -0.04800000041723251, -0.08000000566244125, 1.040000081062317, 0.0, 0.0, 0.0, 0.0, 0.0, 1.6214229948205154E9, 2021-05-19 13:16:34.820
83.0, -196.7580108642578, -7.7210235595703125, 75.0186538696289, 186.89402770996094, -0.04800000041723251, -0.08000000566244125, 1.040000081062317, 0.0, 0.0, 0.0, 0.0, 0.0, 1.6214229948369946E9, 2021-05-19 13:16:34.836
83.0, -197.27410888671875, 11.913451194763184, 81.15583038330078, 200.80270385742188, -0.04800000041723251, -0.08000000566244125, 1.040000081062317, 0.0, 0.0, 0.0, 0.0, 0.0, 1.6214229948369946E9, 2021-05-19 13:16:34.836
84.0, -169.9578857421875, 39.14366149902344, 104.98273468017578, 233.6240692138672, -0.04800000041723251, -0.08000000566244125, 1.040000081062317, 0.0, 0.0, 0.0, 0.0, 0.0, 1.621422994837586E9, 2021-05-19 13:16:34.837
84.0, -172.52345275878906, 24.505695343017578, 91.56771087646484, 214.42343139648438, -0.04800000041723251, -0.08000000566244125, 1.040000081062317, 0.0, 0.0, 0.0, 0.0, 0.0, 1.621422994837586E9, 2021-05-19 13:16:34.837
85.0, -203.7890167236328, -4.418691635131836, 68.15593719482422, 184.2835693359375, -0.04800000041723251, -0.08000000566244125, 1.040000081062317, 0.0, 0.0, 0.0, 0.0, 0.0, 1.621422994866861E9, 2021-05-19 13:16:34.866
85.0, -194.3756866455078, 11.01213550567627, 77.57300567626953, 201.05702209472656, -0.04800000041723251, -0.08000000566244125, 1.040000081062317, 0.0, 0.0, 0.0, 0.0, 0.0, 1.621422994866861E9, 2021-05-19 13:16:34.866
86.0, -177.87899780273438, 35.44490051269531, 104.23101043701172, 227.307373046875, -0.04800000041723251, -0.08000000566244125, 1.040000081062317, 0.0, 0.0, 0.0, 0.0, 0.0, 1.6214229948675818E9, 2021-05-19 13:16:34.867
86.0, -169.68113708496094, 28.694381713867188, 99.82914733886719, 215.9081573486328, -0.04800000041723251, -0.08000000566244125, 1.040000081062317, 0.0, 0.0, 0.0, 0.0, 0.0, 1.6214229948675818E9, 2021-05-19 13:16:34.867
87.0, -198.6990203857422, -4.669265270233154, 75.72175598144531, 182.00596618652344, -0.04800000041723251, -0.08000000566244125, 1.040000081062317, 0.0, 0.0, 0.0, 0.0, 0.0, 1.6214229948683813E9, 2021-05-19 13:16:34.868
87.0, -194.7160186767578, 12.807287216186523, 85.61004638671875, 198.29698181152344, -0.04800000041723251, -0.08000000566244125, 1.040000081062317, 0.0, 0.0, 0.0, 0.0, 0.0, 1.6214229948683813E9, 2021-05-19 13:16:34.868
88.0, -171.19952392578125, 38.68365478515625, 110.19989013671875, 232.21786499023438, -0.04800000041723251, -0.08000000566244125, 1.040000081062317, 0.0, 0.0, 0.0, 0.0, 0.0, 1.6214229948804967E9, 2021-05-19 13:16:34.880
88.0, -178.50355529785156, 14.288288116455078, 94.43621063232422, 211.48011779785156, -0.04800000041723251, -0.08000000566244125, 1.040000081062317, 0.0, 0.0, 0.0, 0.0, 0.0, 1.6214229948804967E9, 2021-05-19 13:16:34.880
89.0, -201.30572509765625, -7.496629238128662, 68.42520904541016, 180.27813720703125, -0.04800000041723251, -0.08000000566244125, 1.040000081062317, 0.0, 0.0, 0.0, 0.0, 0.0, 1.6214229948961957E9, 2021-05-19 13:16:34.896
89.0, -192.1205291748047, 6.060507774353027, 78.27984619140625, 197.3320770263672, -0.04800000041723251, -0.08000000566244125, 1.040000081062317, 0.0, 0.0, 0.0, 0.0, 0.0, 1.6214229948961957E9, 2021-05-19 13:16:34.896
90.0, -167.4895477294922, 39.47651290893555, 104.46288299560547, 226.9371337890625, -0.04800000041723251, -0.08000000566244125, 1.040000081062317, 0.0, 0.0, 0.0, 0.0, 0.0, 1.6214229948969247E9, 2021-05-19 13:16:34.896
90.0, -170.39918518066406, 19.501708984375, 93.7069320678711, 211.9289093017578, -0.04800000041723251, -0.08000000566244125, 1.040000081062317, 0.0, 0.0, 0.0, 0.0, 0.0, 1.6214229948969247E9, 2021-05-19 13:16:34.896
91.0, -198.23526000976562, -13.56274700164795, 74.6745834350586, 185.0091094970703, -0.04800000041723251, -0.09600000083446503, 1.040000081062317, 0.0, 0.0, 0.0, 0.0, 0.0, 1.621422994910529E9, 2021-05-19 13:16:34.910
91.0, -195.78562927246094, 6.034328460693359, 76.71656799316406, 194.64309692382812, -0.04800000041723251, -0.09600000083446503, 1.040000081062317, 0.0, 0.0, 0.0, 0.0, 0.0, 1.621422994910529E9, 2021-05-19 13:16:34.910
92.0, -171.9101104736328, 35.77027130126953, 101.60559844970703, 228.0404052734375, -0.04800000041723251, -0.09600000083446503, 1.040000081062317, 0.0, 0.0, 0.0, 0.0, 0.0, 1.6214229949275925E9, 2021-05-19 13:16:34.927
92.0, -173.99697875976562, 13.81332015991211, 94.95231628417969, 214.0008087158203, -0.04800000041723251, -0.09600000083446503, 1.040000081062317, 0.0, 0.0, 0.0, 0.0, 0.0, 1.6214229949275925E9, 2021-05-19 13:16:34.927
93.0, -193.8221893310547, -13.23737621307373, 70.10816192626953, 179.6236572265625, -0.04800000041723251, -0.09600000083446503, 1.040000081062317, 0.0, 0.0, 0.0, 0.0, 0.0, 1.6214229949282796E9, 2021-05-19 13:16:34.928
93.0, -192.95079040527344, 2.0588150024414062, 79.43921661376953, 196.46067810058594, -0.04800000041723251, -0.09600000083446503, 1.040000081062317, 0.0, 0.0, 0.0, 0.0, 0.0, 1.6214229949282796E9, 2021-05-19 13:16:34.928
94.0, -173.70526123046875, 35.61693572998047, 100.1919174194336, 228.4143829345703, -0.04800000041723251, -0.09600000083446503, 1.040000081062317, 0.0, 0.0, 0.0, 0.0, 0.0, 1.6214229949404943E9, 2021-05-19 13:16:34.940
94.0, -173.05825805664062, 13.274774551391602, 99.0475082397461, 209.3820343017578, -0.04800000041723251, -0.09600000083446503, 1.040000081062317, 0.0, 0.0, 0.0, 0.0, 0.0, 1.6214229949404943E9, 2021-05-19 13:16:34.940
95.0, -199.65643310546875, -13.544047355651855, 75.53849792480469, 181.61328125, -0.04800000041723251, -0.09600000083446503, 1.040000081062317, 0.0, 0.0, 0.0, 0.0, 0.0, 1.621422994956175E9, 2021-05-19 13:16:34.956
95.0, -194.96286010742188, 3.7529895305633545, 83.04074096679688, 198.7532501220703, -0.04800000041723251, -0.09600000083446503, 1.040000081062317, 0.0, 0.0, 0.0, 0.0, 0.0, 1.621422994956175E9, 2021-05-19 13:16:34.956
96.0, -169.7559356689453, 36.33873748779297, 105.8765640258789, 229.9066162109375, -0.04800000041723251, -0.09600000083446503, 1.040000081062317, 0.0, 0.0, 0.0, 0.0, 0.0, 1.6214229949569209E9, 2021-05-19 13:16:34.956
96.0, -171.70816040039062, 16.782800674438477, 95.06077575683594, 213.55577087402344, -0.04800000041723251, -0.09600000083446503, 1.040000081062317, 0.0, 0.0, 0.0, 0.0, 0.0, 1.6214229949569209E9, 2021-05-19 13:16:34.956
97.0, -197.19183349609375, -16.449949264526367, 71.68266296386719, 181.61328125, -0.04800000041723251, -0.09600000083446503, 1.040000081062317, 0.0, 0.0, 0.0, 0.0, 0.0, 1.6214229949705253E9, 2021-05-19 13:16:34.970
97.0, -192.49078369140625, 6.172704696655273, 83.56432342529297, 198.9103240966797, -0.04800000041723251, -0.09600000083446503, 1.040000081062317, 0.0, 0.0, 0.0, 0.0, 0.0, 1.6214229949705253E9, 2021-05-19 13:16:34.970
98.0, -171.4014892578125, 41.36516189575195, 107.69416046142578, 230.56109619140625, -0.04800000041723251, -0.09600000083446503, 1.040000081062317, 0.0, 0.0, 0.0, 0.0, 0.0, 1.6214229949863706E9, 2021-05-19 13:16:34.986
98.0, -171.1396942138672, 21.93264389038086, 95.1729736328125, 217.17599487304688, -0.04800000041723251, -0.09600000083446503, 1.040000081062317, 0.0, 0.0, 0.0, 0.0, 0.0, 1.6214229949863706E9, 2021-05-19 13:16:34.986
99.0, -190.5946502685547, -14.355606079101562, 67.92780303955078, 183.41217041015625, -0.04800000041723251, -0.09600000083446503, 1.040000081062317, 0.0, 0.0, 0.0, 0.0, 0.0, 1.6214229949869437E9, 2021-05-19 13:16:34.986
99.0, -190.07855224609375, 5.177891254425049, 77.40097045898438, 201.79751586914062, -0.04800000041723251, -0.09600000083446503, 1.040000081062317, 0.0, 0.0, 0.0, 0.0, 0.0, 1.6214229949869437E9, 2021-05-19 13:16:34.986
100.0, -164.4789276123047, 35.55335998535156, 105.67835235595703, 232.6030731201172, -0.04800000041723251, -0.09600000083446503, 1.040000081062317, 0.0, 0.0, 0.0, 0.0, 0.0, 1.621422995001245E9, 2021-05-19 13:16:35.001
100.0, -172.99093627929688, 13.027941703796387, 92.77195739746094, 209.74481201171875, -0.04800000041723251, -0.09600000083446503, 1.040000081062317, 0.0, 0.0, 0.0, 0.0, 0.0, 1.621422995001245E9, 2021-05-19 13:16:35.001
0.0, -193.1770477294922, -9.547965049743652, 66.52533721923828, 183.2663116455078, -0.04800000041723251, -0.09600000083446503, 1.040000081062317, 0.0, 0.0, 0.0, 0.0, 0.0, 1.6214229950019755E9, 2021-05-19 13:16:35.001
1.0, -194.31398010253906, 3.863316535949707, 75.66565704345703, 202.23883056640625, -0.04800000041723251, -0.09600000083446503, 1.040000081062317, 0.0, 0.0, 0.0, 0.0, 0.0, 1.6214229950325592E9, 2021-05-19 13:16:35.032
1.0, -167.18475341796875, 36.587440490722656, 106.22438049316406, 234.37953186035156, -0.04800000041723251, -0.09600000083446503, 1.040000081062317, 0.0, 0.0, 0.0, 0.0, 0.0, 1.6214229950325592E9, 2021-05-19 13:16:35.032
2.0, -166.08148193359375, 19.88130760192871, 100.03484344482422, 220.13424682617188, -0.04800000041723251, -0.09600000083446503, 1.040000081062317, 0.0, 0.0, 0.0, 0.0, 0.0, 1.6214229950332637E9, 2021-05-19 13:16:35.033
2.0, -189.57553100585938, -10.71855354309082, 72.03795623779297, 179.8031768798828, -0.04800000041723251, -0.09600000083446503, 1.040000081062317, 0.0, 0.0, 0.0, 0.0, 0.0, 1.6214229950332637E9, 2021-05-19 13:16:35.033
3.0, -193.66697692871094, 5.291958332061768, 79.955322265625, 197.8519287109375, -0.04800000041723251, -0.09600000083446503, 1.040000081062317, 0.0, 0.0, 0.0, 0.0, 0.0, 1.6214229950341125E9, 2021-05-19 13:16:35.034
3.0, -165.3297576904297, 38.08340072631836, 102.14414978027344, 226.4359893798828, -0.04800000041723251, -0.09600000083446503, 1.040000081062317, 0.0, 0.0, 0.0, 0.0, 0.0, 1.6214229950341125E9, 2021-05-19 13:16:35.034
4.0, -172.7422332763672, 20.161800384521484, 92.8841552734375, 211.14727783203125, -0.04800000041723251, -0.09600000083446503, 1.040000081062317, 0.0, 0.0, 0.0, 0.0, 0.0, 1.621422995045575E9, 2021-05-19 13:16:35.045
4.0, -199.9612274169922, -8.919661521911621, 69.61075592041016, 183.53933715820312, -0.04800000041723251, -0.09600000083446503, 1.040000081062317, 0.0, 0.0, 0.0, 0.0, 0.0, 1.621422995045575E9, 2021-05-19 13:16:35.045
5.0, -196.54296875, 8.960800170898438, 83.14171600341797, 198.4428253173828, -0.04800000041723251, -0.09600000083446503, 1.040000081062317, 0.0, 0.0, 0.0, 0.0, 0.0, 1.6214229950612204E9, 2021-05-19 13:16:35.061
5.0, -169.46983337402344, 40.787349700927734, 108.65531158447266, 230.74435424804688, -0.04800000041723251, -0.09600000083446503, 1.040000081062317, 0.0, 0.0, 0.0, 0.0, 0.0, 1.6214229950612204E9, 2021-05-19 13:16:35.061
6.0, -182.26402282714844, 13.50851821899414, 90.25126647949219, 210.04026794433594, -0.04800000041723251, -0.09600000083446503, 1.040000081062317, 0.0, 0.0, 0.0, 0.0, 0.0, 1.6214229950620272E9, 2021-05-19 13:16:35.062
6.0, -197.90802001953125, -9.682600975036621, 64.8835220336914, 183.07931518554688, -0.04800000041723251, -0.09600000083446503, 1.040000081062317, 0.0, 0.0, 0.0, 0.0, 0.0, 1.6214229950620272E9, 2021-05-19 13:16:35.062
7.0, -196.14279174804688, 6.657021999359131, 80.4415054321289, 198.74949645996094, -0.04800000041723251, -0.09600000083446503, 1.040000081062317, 0.0, 0.0, 0.0, 0.0, 0.0, 1.6214229950916302E9, 2021-05-19 13:16:35.091
7.0, -172.64874267578125, 32.335174560546875, 105.77558898925781, 232.79754638671875, -0.04800000041723251, -0.09600000083446503, 1.040000081062317, 0.0, 0.0, 0.0, 0.0, 0.0, 1.6214229950916302E9, 2021-05-19 13:16:35.091
8.0, -175.43496704101562, 20.662946701049805, 93.45262145996094, 216.57760620117188, -0.04800000041723251, -0.09600000083446503, 1.040000081062317, 0.0, 0.0, 0.0, 0.0, 0.0, 1.6214229950923388E9, 2021-05-19 13:16:35.092
8.0, -200.03602600097656, -12.779237747192383, 69.8426284790039, 186.8341827392578, -0.04800000041723251, -0.09600000083446503, 1.040000081062317, 0.0, 0.0, 0.0, 0.0, 0.0, 1.6214229950923388E9, 2021-05-19 13:16:35.092
9.0, -194.98716735839844, 4.356983661651611, 79.32701873779297, 200.45863342285156, -0.04800000041723251, -0.09600000083446503, 1.040000081062317, 0.0, 0.0, 0.0, 0.0, 0.0, 1.621422995106223E9, 2021-05-19 13:16:35.106
9.0, -171.36221313476562, 33.06819534301758, 109.2275161743164, 234.8918914794922, -0.04800000041723251, -0.09600000083446503, 1.040000081062317, 0.0, 0.0, 0.0, 0.0, 0.0, 1.621422995106223E9, 2021-05-19 13:16:35.106
10.0, -174.75804138183594, 14.899761199951172, 96.84097290039062, 212.96485900878906, -0.04800000041723251, -0.09600000083446503, 1.040000081062317, 0.0, 0.0, 0.0, 0.0, 0.0, 1.621422995106898E9, 2021-05-19 13:16:35.106
10.0, -196.2475128173828, -12.001338958740234, 69.10213470458984, 184.4556121826172, -0.04800000041723251, -0.09600000083446503, 1.040000081062317, 0.0, 0.0, 0.0, 0.0, 0.0, 1.621422995106898E9, 2021-05-19 13:16:35.106
11.0, -189.88967895507812, 0.6619622707366943, 82.59943389892578, 203.9554443359375, -0.04800000041723251, -0.09600000083446503, 1.040000081062317, 0.0, 0.0, 0.0, 0.0, 0.0, 1.6214229951213253E9, 2021-05-19 13:16:35.121
11.0, -167.68963623046875, 30.278230667114258, 104.88175201416016, 227.68136596679688, -0.04800000041723251, -0.09600000083446503, 1.040000081062317, 0.0, 0.0, 0.0, 0.0, 0.0, 1.6214229951213253E9, 2021-05-19 13:16:35.121
12.0, -178.4642791748047, 11.006525993347168, 99.19336700439453, 213.64926147460938, -0.04800000041723251, -0.09600000083446503, 1.040000081062317, 0.0, 0.0, 0.0, 0.0, 0.0, 1.621422995122063E9, 2021-05-19 13:16:35.122
12.0, -198.491455078125, -14.398614883422852, 77.54682922363281, 187.50363159179688, -0.04800000041723251, -0.09600000083446503, 1.040000081062317, 0.0, 0.0, 0.0, 0.0, 0.0, 1.621422995122063E9, 2021-05-19 13:16:35.122
13.0, -191.1462860107422, 2.5169527530670166, 86.87787628173828, 202.2163848876953, -0.04800000041723251, -0.09600000083446503, 1.040000081062317, 0.0, 0.0, 0.0, 0.0, 0.0, 1.6214229951519067E9, 2021-05-19 13:16:35.151
13.0, -168.2655792236328, 29.601308822631836, 112.47000885009766, 230.37783813476562, -0.04800000041723251, -0.09600000083446503, 1.040000081062317, 0.0, 0.0, 0.0, 0.0, 0.0, 1.6214229951519067E9, 2021-05-19 13:16:35.151
14.0, -172.94046020507812, 13.295344352722168, 98.69969940185547, 212.5609588623047, -0.04800000041723251, -0.09600000083446503, 1.040000081062317, 0.0, 0.0, 0.0, 0.0, 0.0, 1.6214229951525824E9, 2021-05-19 13:16:35.152
14.0, -198.29322814941406, -15.011958122253418, 75.29540252685547, 184.7510528564453, -0.04800000041723251, -0.09600000083446503, 1.040000081062317, 0.0, 0.0, 0.0, 0.0, 0.0, 1.6214229951525824E9, 2021-05-19 13:16:35.152
15.0, -193.19949340820312, 2.6515891551971436, 87.10601043701172, 198.04640197753906, -0.04800000041723251, -0.09600000083446503, 1.040000081062317, 0.0, 0.0, 0.0, 0.0, 0.0, 1.6214229951534843E9, 2021-05-19 13:16:35.153
15.0, -169.15567016601562, 31.4974365234375, 106.5160903930664, 225.8787384033203, -0.04800000041723251, -0.09600000083446503, 1.040000081062317, 0.0, 0.0, 0.0, 0.0, 0.0, 1.6214229951534843E9, 2021-05-19 13:16:35.153
16.0, -171.870849609375, 13.130788803100586, 98.53140258789062, 209.86448669433594, -0.04800000041723251, -0.09600000083446503, 1.040000081062317, 0.0, 0.0, 0.0, 0.0, 0.0, 1.6214229951656272E9, 2021-05-19 13:16:35.165
16.0, -200.57456970214844, -11.096282958984375, 71.0244369506836, 181.97230529785156, -0.04800000041723251, -0.09600000083446503, 1.040000081062317, 0.0, 0.0, 0.0, 0.0, 0.0, 1.6214229951656272E9, 2021-05-19 13:16:35.165
17.0, -194.6730194091797, -1.7727125883102417, 80.04882049560547, 199.336669921875, -0.04800000041723251, -0.09600000083446503, 1.040000081062317, 0.0, 0.0, 0.0, 0.0, 0.0, 1.621422995181774E9, 2021-05-19 13:16:35.181
17.0, -169.45860290527344, 33.87975311279297, 108.78994750976562, 222.15379333496094, -0.04800000041723251, -0.09600000083446503, 1.040000081062317, 0.0, 0.0, 0.0, 0.0, 0.0, 1.621422995181774E9, 2021-05-19 13:16:35.181
18.0, -174.1933135986328, 14.881061553955078, 98.43790435791016, 207.61680603027344, -0.04800000041723251, -0.09600000083446503, 1.040000081062317, 0.0, 0.0, 0.0, 0.0, 0.0, 1.6214229951975777E9, 2021-05-19 13:16:35.197
18.0, -197.79957580566406, -13.882508277893066, 71.66022491455078, 179.76577758789062, -0.04800000041723251, -0.09600000083446503, 1.040000081062317, 0.0, 0.0, 0.0, 0.0, 0.0, 1.6214229951975777E9, 2021-05-19 13:16:35.197
19.0, -194.69918823242188, 2.2626395225524902, 81.1221694946289, 200.3539276123047, -0.04800000041723251, -0.09600000083446503, 1.040000081062317, 0.0, 0.0, 0.0, 0.0, 0.0, 1.6214229951983593E9, 2021-05-19 13:16:35.198
19.0, -168.73306274414062, 35.57392883300781, 106.86763763427734, 232.00096130371094, -0.04800000041723251, -0.09600000083446503, 1.040000081062317, 0.0, 0.0, 0.0, 0.0, 0.0, 1.6214229951983593E9, 2021-05-19 13:16:35.198
20.0, -174.1110382080078, 16.085309982299805, 98.14619445800781, 214.56927490234375, -0.04800000041723251, -0.09600000083446503, 1.040000081062317, 0.0, 0.0, 0.0, 0.0, 0.0, 1.621422995199124E9, 2021-05-19 13:16:35.199
20.0, -198.7906494140625, -19.40260124206543, 70.47093200683594, 184.49301147460938, -0.04800000041723251, -0.09600000083446503, 1.040000081062317, 0.0, 0.0, 0.0, 0.0, 0.0, 1.621422995199124E9, 2021-05-19 13:16:35.199
21.0, -197.7546844482422, -0.17577530443668365, 80.3367919921875, 199.44886779785156, -0.04800000041723251, -0.08000000566244125, 1.040000081062317, 0.0, 0.0, 0.0, 0.0, 0.0, 1.6214229952104847E9, 2021-05-19 13:16:35.210
21.0, -167.25579833984375, 28.741130828857422, 99.38036346435547, 225.94232177734375, -0.04800000041723251, -0.08000000566244125, 1.040000081062317, 0.0, 0.0, 0.0, 0.0, 0.0, 1.6214229952104847E9, 2021-05-19 13:16:35.210
22.0, -176.53076171875, 14.944640159606934, 94.11083984375, 209.5914764404297, -0.04800000041723251, -0.08000000566244125, 1.040000081062317, 0.0, 0.0, 0.0, 0.0, 0.0, 1.6214229952254837E9, 2021-05-19 13:16:35.225
22.0, -200.24172973632812, -21.50068473815918, 67.26210021972656, 175.98472595214844, -0.04800000041723251, -0.08000000566244125, 1.040000081062317, 0.0, 0.0, 0.0, 0.0, 0.0, 1.6214229952254837E9, 2021-05-19 13:16:35.225
23.0, -195.3424530029297, -9.499345779418945, 73.73587036132812, 192.88534545898438, -0.04800000041723251, -0.08000000566244125, 1.040000081062317, 0.0, 0.0, 0.0, 0.0, 0.0, 1.6214229952411797E9, 2021-05-19 13:16:35.241
23.0, -173.32940673828125, 23.935359954833984, 99.369140625, 220.78125, -0.04800000041723251, -0.08000000566244125, 1.040000081062317, 0.0, 0.0, 0.0, 0.0, 0.0, 1.6214229952411797E9, 2021-05-19 13:16:35.241
24.0, -173.91656494140625, 5.972620010375977, 86.87039947509766, 210.50401306152344, -0.04800000041723251, -0.08000000566244125, 1.040000081062317, 0.0, 0.0, 0.0, 0.0, 0.0, 1.6214229952418776E9, 2021-05-19 13:16:35.241
24.0, -190.850830078125, -16.59019660949707, 65.86711883544922, 184.04795837402344, -0.04800000041723251, -0.08000000566244125, 1.040000081062317, 0.0, 0.0, 0.0, 0.0, 0.0, 1.6214229952418776E9, 2021-05-19 13:16:35.241
25.0, -179.9228515625, 15.23635196685791, 83.08187866210938, 213.4959259033203, -0.04800000041723251, -0.08000000566244125, 1.040000081062317, 0.0, 0.0, 0.0, 0.0, 0.0, 1.6214229952717624E9, 2021-05-19 13:16:35.271
25.0, -162.68939208984375, 39.639198303222656, 101.30267333984375, 245.27386474609375, -0.04800000041723251, -0.08000000566244125, 1.040000081062317, 0.0, 0.0, 0.0, 0.0, 0.0, 1.6214229952717624E9, 2021-05-19 13:16:35.271
26.0, -168.53858947753906, 22.140207290649414, 95.34500885009766, 225.59075927734375, -0.04800000041723251, -0.08000000566244125, 1.040000081062317, 0.0, 0.0, 0.0, 0.0, 0.0, 1.6214229952724323E9, 2021-05-19 13:16:35.272
26.0, -197.56021118164062, -16.156368255615234, 71.34980773925781, 192.212158203125, -0.04800000041723251, -0.08000000566244125, 1.040000081062317, 0.0, 0.0, 0.0, 0.0, 0.0, 1.6214229952724323E9, 2021-05-19 13:16:35.272
27.0, -195.77627563476562, 5.336837291717529, 74.20709228515625, 207.470947265625, -0.04800000041723251, -0.08000000566244125, 1.040000081062317, 0.0, 0.0, 0.0, 0.0, 0.0, 1.6214229952863028E9, 2021-05-19 13:16:35.286
27.0, -177.16653442382812, 33.60674285888672, 90.5317611694336, 233.59414672851562, -0.04800000041723251, -0.08000000566244125, 1.040000081062317, 0.0, 0.0, 0.0, 0.0, 0.0, 1.6214229952863028E9, 2021-05-19 13:16:35.286
28.0, -178.78591918945312, 17.005325317382812, 82.15811920166016, 219.96969604492188, -0.04800000041723251, -0.08000000566244125, 1.040000081062317, 0.0, 0.0, 0.0, 0.0, 0.0, 1.6214229952870567E9, 2021-05-19 13:16:35.287
28.0, -197.87435913085938, -9.087956428527832, 59.486846923828125, 187.4550018310547, -0.04800000041723251, -0.08000000566244125, 1.040000081062317, 0.0, 0.0, 0.0, 0.0, 0.0, 1.6214229952870567E9, 2021-05-19 13:16:35.287
29.0, -197.8893280029297, 9.69756031036377, 70.037109375, 203.08778381347656, -0.04800000041723251, -0.08000000566244125, 1.040000081062317, 0.0, 0.0, 0.0, 0.0, 0.0, 1.62142299531836E9, 2021-05-19 13:16:35.318
29.0, -171.63148498535156, 39.17919158935547, 97.60391235351562, 236.78802490234375, -0.04800000041723251, -0.08000000566244125, 1.040000081062317, 0.0, 0.0, 0.0, 0.0, 0.0, 1.62142299531836E9, 2021-05-19 13:16:35.318
30.0, -176.42977905273438, 16.706132888793945, 80.05255889892578, 218.22315979003906, -0.04800000041723251, -0.08000000566244125, 1.055999994277954, 0.0, 0.0, 0.0, 0.0, 0.0, 1.6214229953190656E9, 2021-05-19 13:16:35.319
30.0, -201.65167236328125, -13.695513725280762, 53.07666015625, 181.86012268066406, -0.04800000041723251, -0.08000000566244125, 1.055999994277954, 0.0, 0.0, 0.0, 0.0, 0.0, 1.6214229953190656E9, 2021-05-19 13:16:35.319
31.0, -195.52944946289062, 5.198461055755615, 65.9456558227539, 202.75119018554688, -0.04800000041723251, -0.08000000566244125, 1.055999994277954, 0.0, 0.0, 0.0, 0.0, 0.0, 1.6214229953197808E9, 2021-05-19 13:16:35.319
31.0, -173.11996459960938, 31.86020851135254, 94.57833099365234, 229.4877471923828, -0.04800000041723251, -0.08000000566244125, 1.055999994277954, 0.0, 0.0, 0.0, 0.0, 0.0, 1.6214229953197808E9, 2021-05-19 13:16:35.319
32.0, -172.68614196777344, 15.023178100585938, 89.0881576538086, 216.00914001464844, -0.04800000041723251, -0.08000000566244125, 1.055999994277954, 0.0, 0.0, 0.0, 0.0, 0.0, 1.6214229953204474E9, 2021-05-19 13:16:35.320
32.0, -189.97569274902344, -9.772358894348145, 62.504947662353516, 185.5626220703125, -0.04800000041723251, -0.08000000566244125, 1.055999994277954, 0.0, 0.0, 0.0, 0.0, 0.0, 1.6214229953204474E9, 2021-05-19 13:16:35.320
33.0, -188.53208923339844, 11.380515098571777, 75.61703491210938, 205.53367614746094, -0.04800000041723251, -0.08000000566244125, 1.055999994277954, 0.0, 0.0, 0.0, 0.0, 0.0, 1.621422995330591E9, 2021-05-19 13:16:35.330
33.0, -172.6262969970703, 33.94333267211914, 96.80357360839844, 230.28433227539062, -0.04800000041723251, -0.08000000566244125, 1.055999994277954, 0.0, 0.0, 0.0, 0.0, 0.0, 1.621422995330591E9, 2021-05-19 13:16:35.330
34.0, -169.26412963867188, 22.244924545288086, 92.37178802490234, 213.7876434326172, -0.04800000041723251, -0.08000000566244125, 1.055999994277954, 0.0, 0.0, 0.0, 0.0, 0.0, 1.6214229953619683E9, 2021-05-19 13:16:35.361
34.0, -195.45838928222656, -10.681154251098633, 61.09874725341797, 186.29563903808594, -0.04800000041723251, -0.08000000566244125, 1.055999994277954, 0.0, 0.0, 0.0, 0.0, 0.0, 1.6214229953619683E9, 2021-05-19 13:16:35.361
35.0, -198.30072021484375, -3.8520970344543457, 72.75975036621094, 200.20059204101562, -0.04800000041723251, -0.08000000566244125, 1.055999994277954, 0.0, 0.0, 0.0, 0.0, 0.0, 1.6214229953626895E9, 2021-05-19 13:16:35.362
35.0, -174.5299072265625, 26.414913177490234, 95.55070495605469, 229.86172485351562, -0.04800000041723251, -0.08000000566244125, 1.055999994277954, 0.0, 0.0, 0.0, 0.0, 0.0, 1.6214229953626895E9, 2021-05-19 13:16:35.362
36.0, -167.80557250976562, 18.03753662109375, 94.86256408691406, 216.89175415039062, -0.04800000041723251, -0.08000000566244125, 1.055999994277954, 0.0, 0.0, 0.0, 0.0, 0.0, 1.6214229953633516E9, 2021-05-19 13:16:35.363
36.0, -197.06280517578125, -14.881061553955078, 69.2554702758789, 184.747314453125, -0.04800000041723251, -0.08000000566244125, 1.055999994277954, 0.0, 0.0, 0.0, 0.0, 0.0, 1.6214229953633516E9, 2021-05-19 13:16:35.363
37.0, -194.27658081054688, 7.730373382568359, 78.74359130859375, 203.8357696533203, -0.04800000041723251, -0.08000000566244125, 1.055999994277954, 0.0, 0.0, 0.0, 0.0, 0.0, 1.6214229953754668E9, 2021-05-19 13:16:35.375
37.0, -170.1243133544922, 36.116214752197266, 100.09468078613281, 228.5826873779297, -0.04800000041723251, -0.08000000566244125, 1.055999994277954, 0.0, 0.0, 0.0, 0.0, 0.0, 1.6214229953754668E9, 2021-05-19 13:16:35.375
38.0, -173.87542724609375, 17.47281265258789, 91.27973937988281, 215.42945861816406, -0.04800000041723251, -0.08000000566244125, 1.055999994277954, 0.0, 0.0, 0.0, 0.0, 0.0, 1.6214229953912692E9, 2021-05-19 13:16:35.391
38.0, -193.1022491455078, -14.86610221862793, 58.93334197998047, 187.458740234375, -0.04800000041723251, -0.08000000566244125, 1.055999994277954, 0.0, 0.0, 0.0, 0.0, 0.0, 1.6214229953912692E9, 2021-05-19 13:16:35.391
39.0, -200.59701538085938, 1.469780683517456, 68.75431823730469, 197.15257263183594, -0.04800000041723251, -0.08000000566244125, 1.055999994277954, 0.0, 0.0, 0.0, 0.0, 0.0, 1.6214229953920093E9, 2021-05-19 13:16:35.392
39.0, -167.47271728515625, 31.388980865478516, 95.85737609863281, 232.38616943359375, -0.04800000041723251, -0.08000000566244125, 1.055999994277954, 0.0, 0.0, 0.0, 0.0, 0.0, 1.6214229953920093E9, 2021-05-19 13:16:35.392
40.0, -169.3202362060547, 15.094236373901367, 89.87353515625, 214.7151336669922, -0.04800000041723251, -0.08000000566244125, 1.040000081062317, 0.0, 0.0, 0.0, 0.0, 0.0, 1.6214229954219313E9, 2021-05-19 13:16:35.421
40.0, -193.5697479248047, -15.928234100341797, 66.34956359863281, 182.6380157470703, -0.04800000041723251, -0.08000000566244125, 1.040000081062317, 0.0, 0.0, 0.0, 0.0, 0.0, 1.6214229954219313E9, 2021-05-19 13:16:35.421
41.0, -185.58505249023438, 5.852943420410156, 78.2312240600586, 206.3826446533203, -0.04800000041723251, -0.08000000566244125, 1.040000081062317, 0.0, 0.0, 0.0, 0.0, 0.0, 1.6214229954226472E9, 2021-05-19 13:16:35.422
41.0, -166.66116333007812, 31.800369262695312, 96.32112121582031, 233.10421752929688, -0.04800000041723251, -0.08000000566244125, 1.040000081062317, 0.0, 0.0, 0.0, 0.0, 0.0, 1.6214229954226472E9, 2021-05-19 13:16:35.422
42.0, -163.2054901123047, 17.65606689453125, 90.99176788330078, 218.4512939453125, -0.04800000041723251, -0.08000000566244125, 1.040000081062317, 0.0, 0.0, 0.0, 0.0, 0.0, 1.6214229954234087E9, 2021-05-19 13:16:35.423
42.0, -190.97799682617188, -13.676814079284668, 64.42351531982422, 182.2789764404297, -0.04800000041723251, -0.08000000566244125, 1.040000081062317, 0.0, 0.0, 0.0, 0.0, 0.0, 1.6214229954234087E9, 2021-05-19 13:16:35.423
43.0, -189.72512817382812, 7.285325050354004, 73.88920593261719, 199.07113647460938, -0.04800000041723251, -0.08000000566244125, 1.040000081062317, 0.0, 0.0, 0.0, 0.0, 0.0, 1.6214229954356449E9, 2021-05-19 13:16:35.435
43.0, -169.51097106933594, 35.94791793823242, 97.94798278808594, 228.0665740966797, -0.04800000041723251, -0.08000000566244125, 1.040000081062317, 0.0, 0.0, 0.0, 0.0, 0.0, 1.6214229954356449E9, 2021-05-19 13:16:35.435
44.0, -165.1128387451172, 14.462193489074707, 92.48772430419922, 213.83999633789062, -0.04800000041723251, -0.08000000566244125, 1.040000081062317, 0.0, 0.0, 0.0, 0.0, 0.0, 1.621422995451391E9, 2021-05-19 13:16:35.451
44.0, -192.2906951904297, -10.748472213745117, 67.8081283569336, 187.73924255371094, -0.04800000041723251, -0.08000000566244125, 1.040000081062317, 0.0, 0.0, 0.0, 0.0, 0.0, 1.621422995451391E9, 2021-05-19 13:16:35.451
45.0, -188.2254180908203, 5.280738830566406, 82.93228149414062, 205.88897705078125, -0.04800000041723251, -0.08000000566244125, 1.040000081062317, 0.0, 0.0, 0.0, 0.0, 0.0, 1.6214229954520743E9, 2021-05-19 13:16:35.452
45.0, -164.75755310058594, 33.93959045410156, 104.99394989013672, 233.78488159179688, -0.04800000041723251, -0.08000000566244125, 1.040000081062317, 0.0, 0.0, 0.0, 0.0, 0.0, 1.6214229954520743E9, 2021-05-19 13:16:35.452
46.0, -170.8535919189453, 15.23635196685791, 91.53031158447266, 216.6673583984375, -0.04800000041723251, -0.08000000566244125, 1.040000081062317, 0.0, 0.0, 0.0, 0.0, 0.0, 1.6214229954656093E9, 2021-05-19 13:16:35.465
46.0, -194.10081481933594, -16.324663162231445, 68.74310302734375, 186.6097869873047, -0.04800000041723251, -0.08000000566244125, 1.040000081062317, 0.0, 0.0, 0.0, 0.0, 0.0, 1.6214229954656093E9, 2021-05-19 13:16:35.465
47.0, -184.8445587158203, 4.917968273162842, 81.48493957519531, 203.17755126953125, -0.04800000041723251, -0.08000000566244125, 1.040000081062317, 0.0, 0.0, 0.0, 0.0, 0.0, 1.6214229954960332E9, 2021-05-19 13:16:35.496
47.0, -171.40708923339844, 35.50661087036133, 108.45336151123047, 236.29061889648438, -0.04800000041723251, -0.08000000566244125, 1.040000081062317, 0.0, 0.0, 0.0, 0.0, 0.0, 1.6214229954960332E9, 2021-05-19 13:16:35.496
48.0, -171.10415649414062, 16.46303939819336, 99.69824981689453, 220.96824645996094, -0.04800000041723251, -0.08000000566244125, 1.040000081062317, 0.0, 0.0, 0.0, 0.0, 0.0, 1.6214229955132487E9, 2021-05-19 13:16:35.513
48.0, -196.0717315673828, -15.763678550720215, 68.06991577148438, 194.35511779785156, -0.04800000041723251, -0.08000000566244125, 1.040000081062317, 0.0, 0.0, 0.0, 0.0, 0.0, 1.6214229955132487E9, 2021-05-19 13:16:35.513
49.0, -192.74696350097656, 0.9200153946876526, 77.21023559570312, 202.5567169189453, -0.04800000041723251, -0.08000000566244125, 1.040000081062317, 0.0, 0.0, 0.0, 0.0, 0.0, 1.621422995513966E9, 2021-05-19 13:16:35.513
49.0, -163.18679809570312, 32.825103759765625, 106.38519287109375, 236.0774383544922, -0.04800000041723251, -0.08000000566244125, 1.040000081062317, 0.0, 0.0, 0.0, 0.0, 0.0, 1.621422995513966E9, 2021-05-19 13:16:35.513
50.0, -170.9358673095703, 15.513105392456055, 92.74578094482422, 219.24415588378906, -0.04800000041723251, -0.08000000566244125, 1.040000081062317, 0.0, 0.0, 0.0, 0.0, 0.0, 1.6214229955147228E9, 2021-05-19 13:16:35.514
50.0, -197.58265686035156, -12.94753360748291, 65.5604476928711, 185.31951904296875, -0.04800000041723251, -0.08000000566244125, 1.040000081062317, 0.0, 0.0, 0.0, 0.0, 0.0, 1.6214229955147228E9, 2021-05-19 13:16:35.514
51.0, -193.1546173095703, 4.27470588684082, 77.37104797363281, 200.33895874023438, -0.04800000041723251, -0.08000000566244125, 1.040000081062317, 0.0, 0.0, 0.0, 0.0, 0.0, 1.6214229955155976E9, 2021-05-19 13:16:35.515
51.0, -168.35906982421875, 36.632320404052734, 99.40280151367188, 236.64590454101562, -0.04800000041723251, -0.08000000566244125, 1.040000081062317, 0.0, 0.0, 0.0, 0.0, 0.0, 1.6214229955155976E9, 2021-05-19 13:16:35.515
52.0, -174.5860137939453, 19.1669864654541, 89.40230560302734, 220.0220489501953, -0.04800000041723251, -0.08000000566244125, 1.040000081062317, 0.0, 0.0, 0.0, 0.0, 0.0, 1.621422995525591E9, 2021-05-19 13:16:35.525
52.0, -194.14942932128906, -9.731219291687012, 63.46984100341797, 191.00042724609375, -0.04800000041723251, -0.08000000566244125, 1.040000081062317, 0.0, 0.0, 0.0, 0.0, 0.0, 1.621422995525591E9, 2021-05-19 13:16:35.525
53.0, -194.99838256835938, 8.545671463012695, 74.49506378173828, 202.2089080810547, -0.04800000041723251, -0.08000000566244125, 1.040000081062317, 0.0, 0.0, 0.0, 0.0, 0.0, 1.6214229955418668E9, 2021-05-19 13:16:35.541
53.0, -171.03311157226562, 37.64583206176758, 101.05957794189453, 236.20086669921875, -0.04800000041723251, -0.08000000566244125, 1.040000081062317, 0.0, 0.0, 0.0, 0.0, 0.0, 1.6214229955418668E9, 2021-05-19 13:16:35.541
54.0, -173.0863037109375, 9.82471752166748, 86.91901397705078, 219.58074951171875, -0.04800000041723251, -0.08000000566244125, 1.040000081062317, 0.0, 0.0, 0.0, 0.0, 0.0, 1.6214229955425856E9, 2021-05-19 13:16:35.542
54.0, -192.20468139648438, -12.603463172912598, 64.1579818725586, 189.30999755859375, -0.04800000041723251, -0.08000000566244125, 1.040000081062317, 0.0, 0.0, 0.0, 0.0, 0.0, 1.6214229955425856E9, 2021-05-19 13:16:35.542
55.0, -190.4319610595703, 5.486433029174805, 69.36392211914062, 204.65480041503906, -0.04800000041723251, -0.08000000566244125, 1.040000081062317, 0.0, 0.0, 0.0, 0.0, 0.0, 1.6214229955719738E9, 2021-05-19 13:16:35.571
55.0, -165.32228088378906, 36.291988372802734, 99.5673599243164, 237.73048400878906, -0.04800000041723251, -0.08000000566244125, 1.040000081062317, 0.0, 0.0, 0.0, 0.0, 0.0, 1.6214229955719738E9, 2021-05-19 13:16:35.571
56.0, -173.138671875, 23.696006774902344, 95.28890991210938, 222.6100616455078, -0.04800000041723251, -0.08000000566244125, 1.040000081062317, 0.0, 0.0, 0.0, 0.0, 0.0, 1.621422995572605E9, 2021-05-19 13:16:35.572
56.0, -192.31687927246094, -9.918214797973633, 75.37394714355469, 191.2734375, -0.04800000041723251, -0.08000000566244125, 1.040000081062317, 0.0, 0.0, 0.0, 0.0, 0.0, 1.621422995572605E9, 2021-05-19 13:16:35.572
57.0, -191.88304138183594, 8.650388717651367, 82.14690399169922, 207.2689971923828, -0.04800000041723251, -0.08000000566244125, 1.040000081062317, 0.0, 0.0, 0.0, 0.0, 0.0, 1.6214229955734437E9, 2021-05-19 13:16:35.573
57.0, -170.6890411376953, 38.67804718017578, 109.85955810546875, 234.3944854736328, -0.04800000041723251, -0.08000000566244125, 1.040000081062317, 0.0, 0.0, 0.0, 0.0, 0.0, 1.6214229955734437E9, 2021-05-19 13:16:35.573
58.0, -171.53799438476562, 21.22393226623535, 95.19915008544922, 221.07296752929688, -0.04800000041723251, -0.08000000566244125, 1.040000081062317, 0.0, 0.0, 0.0, 0.0, 0.0, 1.621422995585542E9, 2021-05-19 13:16:35.585
58.0, -198.41665649414062, -8.979499816894531, 74.79051971435547, 189.55308532714844, -0.04800000041723251, -0.08000000566244125, 1.040000081062317, 0.0, 0.0, 0.0, 0.0, 0.0, 1.621422995585542E9, 2021-05-19 13:16:35.585
59.0, -192.86289978027344, 3.807218074798584, 80.05255889892578, 201.34500122070312, -0.04800000041723251, -0.08000000566244125, 1.040000081062317, 0.0, 0.0, 0.0, 0.0, 0.0, 1.6214229956013234E9, 2021-05-19 13:16:35.601
59.0, -170.5543975830078, 35.94417953491211, 100.18444061279297, 239.03196716308594, -0.04800000041723251, -0.08000000566244125, 1.040000081062317, 0.0, 0.0, 0.0, 0.0, 0.0, 1.6214229956013234E9, 2021-05-19 13:16:35.601
60.0, -171.7736053466797, 21.63532066345215, 95.79753875732422, 219.86871337890625, -0.04800000041723251, -0.08000000566244125, 1.055999994277954, 0.0, 0.0, 0.0, 0.0, 0.0, 1.621422995602018E9, 2021-05-19 13:16:35.602
60.0, -196.35971069335938, -8.149242401123047, 71.89957427978516, 189.93455505371094, -0.04800000041723251, -0.08000000566244125, 1.055999994277954, 0.0, 0.0, 0.0, 0.0, 0.0, 1.621422995602018E9, 2021-05-19 13:16:35.602
61.0, -191.8755645751953, 8.811203956604004, 77.90211486816406, 208.66397094726562, -0.04800000041723251, -0.09600000083446503, 1.055999994277954, 0.0, 0.0, 0.0, 0.0, 0.0, 1.6214229956156452E9, 2021-05-19 13:16:35.615
61.0, -175.88375854492188, 33.52446365356445, 100.68932342529297, 232.3973846435547, -0.04800000041723251, -0.09600000083446503, 1.055999994277954, 0.0, 0.0, 0.0, 0.0, 0.0, 1.6214229956156452E9, 2021-05-19 13:16:35.615
62.0, -173.91282653808594, 17.52143096923828, 95.53948211669922, 216.44671630859375, -0.04800000041723251, -0.09600000083446503, 1.055999994277954, 0.0, 0.0, 0.0, 0.0, 0.0, 1.6214229956312077E9, 2021-05-19 13:16:35.631
62.0, -194.65057373046875, -10.894328117370605, 79.44669342041016, 189.09681701660156, -0.04800000041723251, -0.09600000083446503, 1.055999994277954, 0.0, 0.0, 0.0, 0.0, 0.0, 1.6214229956312077E9, 2021-05-19 13:16:35.631
63.0, -192.0924835205078, 8.74388599395752, 88.21675872802734, 201.367431640625, -0.04800000041723251, -0.09600000083446503, 1.055999994277954, 0.0, 0.0, 0.0, 0.0, 0.0, 1.6214229956319785E9, 2021-05-19 13:16:35.631
63.0, -170.91717529296875, 39.65789794921875, 112.09976196289062, 230.11978149414062, -0.04800000041723251, -0.09600000083446503, 1.055999994277954, 0.0, 0.0, 0.0, 0.0, 0.0, 1.6214229956319785E9, 2021-05-19 13:16:35.631
64.0, -175.756591796875, 17.745824813842773, 96.45950317382812, 216.7047576904297, -0.04800000041723251, -0.09600000083446503, 1.055999994277954, 0.0, 0.0, 0.0, 0.0, 0.0, 1.6214229956455357E9, 2021-05-19 13:16:35.645
64.0, -200.7353973388672, -13.467379570007324, 71.45079040527344, 189.22024536132812, -0.04800000041723251, -0.09600000083446503, 1.055999994277954, 0.0, 0.0, 0.0, 0.0, 0.0, 1.6214229956455357E9, 2021-05-19 13:16:35.645
65.0, -195.0095977783203, 6.099776744842529, 82.37503814697266, 199.5423583984375, -0.04800000041723251, -0.09600000083446503, 1.055999994277954, 0.0, 0.0, 0.0, 0.0, 0.0, 1.6214229956613984E9, 2021-05-19 13:16:35.661
65.0, -175.8089599609375, 29.077722549438477, 104.66484069824219, 232.75640869140625, -0.04800000041723251, -0.09600000083446503, 1.055999994277954, 0.0, 0.0, 0.0, 0.0, 0.0, 1.6214229956613984E9, 2021-05-19 13:16:35.661
66.0, -173.1648406982422, 18.374128341674805, 98.38555145263672, 218.63455200195312, -0.04800000041723251, -0.09600000083446503, 1.055999994277954, 0.0, 0.0, 0.0, 0.0, 0.0, 1.6214229956621187E9, 2021-05-19 13:16:35.662
66.0, -197.04037475585938, -10.404401779174805, 70.74768829345703, 187.18946838378906, -0.04800000041723251, -0.09600000083446503, 1.055999994277954, 0.0, 0.0, 0.0, 0.0, 0.0, 1.6214229956621187E9, 2021-05-19 13:16:35.662
67.0, -203.03916931152344, 3.369649887084961, 79.43173217773438, 201.9284210205078, -0.04800000041723251, -0.09600000083446503, 1.055999994277954, 0.0, 0.0, 0.0, 0.0, 0.0, 1.6214229956754868E9, 2021-05-19 13:16:35.675
67.0, -173.74827575683594, 33.3636474609375, 108.15790557861328, 231.41004943847656, -0.04800000041723251, -0.09600000083446503, 1.055999994277954, 0.0, 0.0, 0.0, 0.0, 0.0, 1.6214229956754868E9, 2021-05-19 13:16:35.675
68.0, -177.3797149658203, 20.37871551513672, 98.71466064453125, 216.81695556640625, -0.04800000041723251, -0.09600000083446503, 1.055999994277954, 0.0, 0.0, 0.0, 0.0, 0.0, 1.621422995691358E9, 2021-05-19 13:16:35.691
68.0, -197.94915771484375, -10.060331344604492, 72.3446273803711, 181.37767028808594, -0.04800000041723251, -0.09600000083446503, 1.055999994277954, 0.0, 0.0, 0.0, 0.0, 0.0, 1.621422995691358E9, 2021-05-19 13:16:35.691
69.0, -197.9379425048828, 3.642662525177002, 74.90271759033203, 195.96701049804688, -0.04800000041723251, -0.09600000083446503, 1.055999994277954, 0.0, 0.0, 0.0, 0.0, 0.0, 1.6214229956920135E9, 2021-05-19 13:16:35.692
69.0, -175.96229553222656, 34.5192756652832, 106.2580337524414, 227.81227111816406, -0.04800000041723251, -0.09600000083446503, 1.055999994277954, 0.0, 0.0, 0.0, 0.0, 0.0, 1.6214229956920135E9, 2021-05-19 13:16:35.692
70.0, -176.22035217285156, 14.630488395690918, 96.22014617919922, 215.72865295410156, -0.04800000041723251, -0.09600000083446503, 1.055999994277954, 0.0, 0.0, 0.0, 0.0, 0.0, 1.6214229957055545E9, 2021-05-19 13:16:35.705
70.0, -201.9695587158203, -15.255051612854004, 69.58457946777344, 180.3828582763672, -0.04800000041723251, -0.09600000083446503, 1.055999994277954, 0.0, 0.0, 0.0, 0.0, 0.0, 1.6214229957055545E9, 2021-05-19 13:16:35.705
71.0, -189.39974975585938, 5.161061763763428, 83.17537689208984, 201.1243438720703, -0.04800000041723251, -0.09600000083446503, 1.055999994277954, 0.0, 0.0, 0.0, 0.0, 0.0, 1.6214229957222605E9, 2021-05-19 13:16:35.722
71.0, -172.4206085205078, 35.49164962768555, 109.6089859008789, 230.24319458007812, -0.04800000041723251, -0.09600000083446503, 1.055999994277954, 0.0, 0.0, 0.0, 0.0, 0.0, 1.6214229957222605E9, 2021-05-19 13:16:35.722
72.0, -176.64295959472656, 25.479938507080078, 93.007568359375, 210.5638427734375, -0.04800000041723251, -0.09600000083446503, 1.055999994277954, 0.0, 0.0, 0.0, 0.0, 0.0, 1.6214229957366E9, 2021-05-19 13:16:35.736
72.0, -196.86459350585938, -2.7076876163482666, 68.98619079589844, 181.3178253173828, -0.04800000041723251, -0.09600000083446503, 1.055999994277954, 0.0, 0.0, 0.0, 0.0, 0.0, 1.6214229957366E9, 2021-05-19 13:16:35.736
73.0, -192.4215850830078, 22.529157638549805, 78.28358459472656, 203.97413635253906, -0.04800000041723251, -0.09600000083446503, 1.055999994277954, 0.0, 0.0, 0.0, 0.0, 0.0, 1.621422995752031E9, 2021-05-19 13:16:35.752
73.0, -171.27993774414062, 46.42711639404297, 99.55987548828125, 233.45578002929688, -0.04800000041723251, -0.09600000083446503, 1.055999994277954, 0.0, 0.0, 0.0, 0.0, 0.0, 1.621422995752031E9, 2021-05-19 13:16:35.752
74.0, -172.17752075195312, 25.221885681152344, 87.22942352294922, 221.6339569091797, -0.04800000041723251, -0.09600000083446503, 1.055999994277954, 0.0, 0.0, 0.0, 0.0, 0.0, 1.62142299575271E9, 2021-05-19 13:16:35.752
