Sample Index, EXG Channel 0, EXG Channel 1, EXG Channel 2, EXG Channel 3, Accel Channel 0, Accel Channel 1, Accel Channel 2, Other, Other, Other, Other, Other, Timestamp, Timestamp (Formatted)
0.0, -121.88520812988281, -67.5126724243164, 0.2767525911331177, 141.3270721435547, 0.0, 0.0, 0.0, 0.0, 0.0, 0.0, 0.0, 0.0, 1.621427946921655E9, 2021-05-19 14:39:06.921
1.0, -137.686279296875, -92.00901794433594, -15.023178100585938, 148.35435485839844, 0.0, 0.0, 0.0, 0.0, 0.0, 0.0, 0.0, 0.0, 1.621427946934914E9, 2021-05-19 14:39:06.934
1.0, -112.87579345703125, -51.10573196411133, 8.897221565246582, 161.5599365234375, 0.0, 0.0, 0.0, 0.0, 0.0, 0.0, 0.0, 0.0, 1.621427946934914E9, 2021-05-19 14:39:06.934
2.0, -94.10149383544922, -93.27684783935547, 36.108734130859375, 202.58290100097656, -0.08000000566244125, 0.0, 0.0, 0.0, 0.0, 0.0, 0.0, 0.0, 1.6214279469680617E9, 2021-05-19 14:39:06.968
2.0, -117.09439849853516, -46.367279052734375, 8.23151969909668, 162.034912109375, -0.08000000566244125, 0.0, 0.0, 0.0, 0.0, 0.0, 0.0, 0.0, 1.6214279469680617E9, 2021-05-19 14:39:06.968
3.0, -134.32411193847656, -68.94131469726562, -11.664748191833496, 132.9908447265625, -0.08000000566244125, 0.0, 0.0, 0.0, 0.0, 0.0, 0.0, 0.0, 1.6214279469687257E9, 2021-05-19 14:39:06.968
3.0, -114.54752349853516, -45.95589065551758, 12.846556663513184, 164.9146270751953, -0.08000000566244125, 0.0, 0.0, 0.0, 0.0, 0.0, 0.0, 0.0, 1.6214279469687257E9, 2021-05-19 14:39:06.968
4.0, -97.78529357910156, -22.996644973754883, 38.820159912109375, 195.54066467285156, -0.08000000566244125, 0.0, 0.0, 0.0, 0.0, 0.0, 0.0, 0.0, 1.6214279469695122E9, 2021-05-19 14:39:06.969
4.0, -112.72245788574219, -77.24763488769531, 15.812296867370605, 140.2013702392578, -0.08000000566244125, 0.0, 0.0, 0.0, 0.0, 0.0, 0.0, 0.0, 1.6214279469695122E9, 2021-05-19 14:39:06.969
5.0, -132.75335693359375, -71.14785766601562, 4.850650310516357, 141.79083251953125, -0.08000000566244125, 0.0, 0.0, 0.0, 0.0, 0.0, 0.0, 0.0, 1.6214279469805338E9, 2021-05-19 14:39:06.980
5.0, -111.07315826416016, -29.60504722595215, 29.80326271057129, 179.81813049316406, -0.08000000566244125, 0.0, 0.0, 0.0, 0.0, 0.0, 0.0, 0.0, 1.6214279469805338E9, 2021-05-19 14:39:06.980
6.0, -96.30803680419922, -23.378114700317383, 38.40129089355469, 171.25375366210938, -0.08000000566244125, 0.0, 0.0, 0.0, 0.0, 0.0, 0.0, 0.0, 1.62142794698115E9, 2021-05-19 14:39:06.981
6.0, -122.55091094970703, -54.056514739990234, 16.05912971496582, 158.01824951171875, -0.08000000566244125, 0.0, 0.0, 0.0, 0.0, 0.0, 0.0, 0.0, 1.62142794698115E9, 2021-05-19 14:39:06.981
7.0, -127.4614028930664, -64.55441284179688, 12.715660095214844, 167.23336791992188, -0.08000000566244125, 0.0, 0.0, 0.0, 0.0, 0.0, 0.0, 0.0, 1.6214279469947913E9, 2021-05-19 14:39:06.994
7.0, -110.4972152709961, -58.74260711669922, 25.876367568969727, 181.45994567871094, -0.08000000566244125, 0.0, 0.0, 0.0, 0.0, 0.0, 0.0, 0.0, 1.6214279469947913E9, 2021-05-19 14:39:06.994
8.0, -82.81073760986328, -40.09172821044922, 30.641000747680664, 162.8015899658203, -0.08000000566244125, 0.0, 0.0, 0.0, 0.0, 0.0, 0.0, 0.0, 1.6214279470269456E9, 2021-05-19 14:39:07.026
8.0, -120.15737915039062, -88.8114013671875, 1.9971065521240234, 151.44725036621094, -0.08000000566244125, 0.0, 0.0, 0.0, 0.0, 0.0, 0.0, 0.0, 1.6214279470269456E9, 2021-05-19 14:39:07.026
9.0, -134.95616149902344, -80.15727233886719, -8.194120407104492, 155.69577026367188, -0.08000000566244125, 0.0, 0.0, 0.0, 0.0, 0.0, 0.0, 0.0, 1.6214279470275233E9, 2021-05-19 14:39:07.027
9.0, -112.61399841308594, -64.44221496582031, 6.821577548980713, 177.14784240722656, -0.08000000566244125, 0.0, 0.0, 0.0, 0.0, 0.0, 0.0, 0.0, 1.6214279470275233E9, 2021-05-19 14:39:07.027
10.0, -104.41239929199219, -34.5192756652832, 18.647140502929688, 169.93357849121094, -0.08000000566244125, 0.0, 1.040000081062317, 0.0, 0.0, 0.0, 0.0, 0.0, 1.6214279470284472E9, 2021-05-19 14:39:07.028
10.0, -119.54402923583984, -66.13639068603516, 4.558938026428223, 153.6874542236328, -0.08000000566244125, 0.0, 1.040000081062317, 0.0, 0.0, 0.0, 0.0, 0.0, 1.6214279470284472E9, 2021-05-19 14:39:07.028
11.0, -133.4228057861328, -83.29878997802734, -7.262885570526123, 145.72520446777344, -0.08000000566244125, 0.0, 1.040000081062317, 0.0, 0.0, 0.0, 0.0, 0.0, 1.6214279470291617E9, 2021-05-19 14:39:07.029
11.0, -111.7052001953125, -54.03407287597656, 15.812296867370605, 188.2740478515625, -0.08000000566244125, 0.0, 1.040000081062317, 0.0, 0.0, 0.0, 0.0, 0.0, 1.6214279470291617E9, 2021-05-19 14:39:07.029
12.0, -107.76708984375, -48.19609069824219, 21.347349166870117, 178.0940399169922, -0.08000000566244125, 0.0, 1.040000081062317, 0.0, 0.0, 0.0, 0.0, 0.0, 1.6214279470399015E9, 2021-05-19 14:39:07.039
12.0, -134.1333770751953, -59.89823913574219, 2.1018238067626953, 138.7166290283203, -0.08000000566244125, 0.0, 1.040000081062317, 0.0, 0.0, 0.0, 0.0, 0.0, 1.6214279470399015E9, 2021-05-19 14:39:07.039
13.0, -142.2714080810547, -96.56421661376953, -6.084817409515381, 130.9862518310547, -0.08000000566244125, 0.0, 1.040000081062317, 0.0, 0.0, 0.0, 0.0, 0.0, 1.6214279470547519E9, 2021-05-19 14:39:07.054
13.0, -118.8072738647461, -45.71653747558594, 20.38245391845703, 172.24856567382812, -0.08000000566244125, 0.0, 1.040000081062317, 0.0, 0.0, 0.0, 0.0, 0.0, 1.6214279470547519E9, 2021-05-19 14:39:07.054
14.0, -102.63968658447266, -32.73908233642578, 34.0966682434082, 182.6754150390625, -0.08000000566244125, 0.0, 1.040000081062317, 0.0, 0.0, 0.0, 0.0, 0.0, 1.6214279470711677E9, 2021-05-19 14:39:07.071
14.0, -126.9041519165039, -63.13698959350586, 11.61238956451416, 149.37908935546875, -0.08000000566244125, 0.0, 1.040000081062317, 0.0, 0.0, 0.0, 0.0, 0.0, 1.6214279470711677E9, 2021-05-19 14:39:07.071
15.0, -134.69810485839844, -81.36526489257812, 8.893482208251953, 144.0983428955078, -0.08000000566244125, 0.0, 1.040000081062317, 0.0, 0.0, 0.0, 0.0, 0.0, 1.6214279470718536E9, 2021-05-19 14:39:07.071
15.0, -106.01307678222656, -42.24964904785156, 33.52446365356445, 179.31324768066406, -0.08000000566244125, 0.0, 1.040000081062317, 0.0, 0.0, 0.0, 0.0, 0.0, 1.6214279470718536E9, 2021-05-19 14:39:07.071
16.0, -87.0966567993164, -40.1179084777832, 41.43435287475586, 197.552734375, -0.08000000566244125, 0.0, 1.040000081062317, 0.0, 0.0, 0.0, 0.0, 0.0, 1.6214279470847485E9, 2021-05-19 14:39:07.084
16.0, -115.93128967285156, -76.0994873046875, 17.914121627807617, 159.5703125, -0.08000000566244125, 0.0, 1.040000081062317, 0.0, 0.0, 0.0, 0.0, 0.0, 1.6214279470847485E9, 2021-05-19 14:39:07.084
17.0, -123.75141906738281, -86.89283752441406, -4.158768653869629, 144.1320037841797, -0.08000000566244125, 0.0, 1.040000081062317, 0.0, 0.0, 0.0, 0.0, 0.0, 1.621427947100573E9, 2021-05-19 14:39:07.100
17.0, -112.41577911376953, -55.05506896972656, 8.61298942565918, 172.540283203125, -0.08000000566244125, 0.0, 1.040000081062317, 0.0, 0.0, 0.0, 0.0, 0.0, 1.621427947100573E9, 2021-05-19 14:39:07.100
18.0, -98.89230346679688, -50.55222702026367, 23.800724029541016, 193.48745727539062, -0.08000000566244125, 0.0, 1.040000081062317, 0.0, 0.0, 0.0, 0.0, 0.0, 1.6214279471012576E9, 2021-05-19 14:39:07.101
18.0, -126.18235778808594, -100.0273666381836, -2.662808656692505, 142.43409729003906, -0.08000000566244125, 0.0, 1.040000081062317, 0.0, 0.0, 0.0, 0.0, 0.0, 1.6214279471012576E9, 2021-05-19 14:39:07.101
19.0, -136.95326232910156, -91.8033218383789, -16.945486068725586, 139.3449249267578, -0.08000000566244125, 0.0, 1.040000081062317, 0.0, 0.0, 0.0, 0.0, 0.0, 1.6214279471148376E9, 2021-05-19 14:39:07.114
19.0, -106.33844757080078, -55.21214294433594, 13.486079216003418, 177.6190643310547, -0.08000000566244125, 0.0, 1.040000081062317, 0.0, 0.0, 0.0, 0.0, 0.0, 1.6214279471148376E9, 2021-05-19 14:39:07.114
20.0, -100.44062042236328, -39.4783821105957, 23.221038818359375, 174.01007080078125, -0.08000000566244125, 0.0, 1.055999994277954, 0.0, 0.0, 0.0, 0.0, 0.0, 1.6214279471312137E9, 2021-05-19 14:39:07.131
20.0, -127.72319030761719, -82.88365936279297, 1.8138514757156372, 148.44410705566406, -0.08000000566244125, 0.0, 1.055999994277954, 0.0, 0.0, 0.0, 0.0, 0.0, 1.6214279471312137E9, 2021-05-19 14:39:07.131
21.0, -134.305419921875, -78.69497680664062, -4.083970546722412, 153.65379333496094, -0.08000000566244125, 0.0, 1.055999994277954, 0.0, 0.0, 0.0, 0.0, 0.0, 1.6214279471318736E9, 2021-05-19 14:39:07.131
21.0, -114.24459075927734, -43.95878219604492, 18.493804931640625, 182.2902069091797, -0.08000000566244125, 0.0, 1.055999994277954, 0.0, 0.0, 0.0, 0.0, 0.0, 1.6214279471318736E9, 2021-05-19 14:39:07.131
22.0, -104.07206726074219, -54.5913200378418, 26.616867065429688, 189.71389770507812, -0.08000000566244125, 0.0, 1.055999994277954, 0.0, 0.0, 0.0, 0.0, 0.0, 1.6214279471447084E9, 2021-05-19 14:39:07.144
22.0, -128.1645050048828, -72.7073974609375, 12.607202529907227, 155.5125274658203, -0.08000000566244125, 0.0, 1.055999994277954, 0.0, 0.0, 0.0, 0.0, 0.0, 1.6214279471447084E9, 2021-05-19 14:39:07.144
23.0, -139.552490234375, -68.1297607421875, 3.4893267154693604, 148.1710968017578, -0.08000000566244125, 0.0, 1.055999994277954, 0.0, 0.0, 0.0, 0.0, 0.0, 1.6214279471605606E9, 2021-05-19 14:39:07.160
23.0, -113.58637237548828, -66.00923156738281, 20.782623291015625, 172.39816284179688, -0.08000000566244125, 0.0, 1.055999994277954, 0.0, 0.0, 0.0, 0.0, 0.0, 1.6214279471605606E9, 2021-05-19 14:39:07.160
24.0, -97.59829711914062, -28.819669723510742, 41.3632926940918, 184.758544921875, -0.08000000566244125, 0.0, 1.055999994277954, 0.0, 0.0, 0.0, 0.0, 0.0, 1.6214279471611507E9, 2021-05-19 14:39:07.161
24.0, -124.79859161376953, -88.52342987060547, 7.375082492828369, 149.6371307373047, -0.08000000566244125, 0.0, 1.055999994277954, 0.0, 0.0, 0.0, 0.0, 0.0, 1.6214279471611507E9, 2021-05-19 14:39:07.161
25.0, -122.3040771484375, -89.08068084716797, 4.1737284660339355, 147.80458068847656, -0.08000000566244125, 0.0, 1.055999994277954, 0.0, 0.0, 0.0, 0.0, 0.0, 1.6214279471748044E9, 2021-05-19 14:39:07.174
25.0, -108.53750610351562, -60.96036911010742, 18.7855167388916, 172.7946014404297, -0.08000000566244125, 0.0, 1.055999994277954, 0.0, 0.0, 0.0, 0.0, 0.0, 1.6214279471748044E9, 2021-05-19 14:39:07.174
26.0, -88.6225357055664, -68.24943542480469, 34.03683090209961, 198.14364624023438, -0.08000000566244125, 0.0, 1.055999994277954, 0.0, 0.0, 0.0, 0.0, 0.0, 1.6214279472065017E9, 2021-05-19 14:39:07.206
26.0, -130.74502563476562, -75.882568359375, 1.6156368255615234, 144.8949432373047, -0.08000000566244125, 0.0, 1.055999994277954, 0.0, 0.0, 0.0, 0.0, 0.0, 1.6214279472065017E9, 2021-05-19 14:39:07.206
27.0, -134.4849395751953, -110.31582641601562, -9.211373329162598, 150.26918029785156, -0.08000000566244125, 0.0, 1.055999994277954, 0.0, 0.0, 0.0, 0.0, 0.0, 1.62142794720732E9, 2021-05-19 14:39:07.207
27.0, -107.51277160644531, -59.438228607177734, 15.62904167175293, 180.5474090576172, -0.08000000566244125, 0.0, 1.055999994277954, 0.0, 0.0, 0.0, 0.0, 0.0, 1.62142794720732E9, 2021-05-19 14:39:07.207
28.0, -99.51313018798828, -60.18994903564453, 35.02416229248047, 170.27391052246094, -0.08000000566244125, 0.0, 1.055999994277954, 0.0, 0.0, 0.0, 0.0, 0.0, 1.621427947221501E9, 2021-05-19 14:39:07.221
28.0, -125.15013885498047, -76.16680145263672, 6.930034637451172, 163.28402709960938, -0.08000000566244125, 0.0, 1.055999994277954, 0.0, 0.0, 0.0, 0.0, 0.0, 1.621427947221501E9, 2021-05-19 14:39:07.221
29.0, -135.72657775878906, -107.62310028076172, -2.2962985038757324, 139.57681274414062, -0.08000000566244125, 0.0, 1.055999994277954, 0.0, 0.0, 0.0, 0.0, 0.0, 1.6214279472222524E9, 2021-05-19 14:39:07.222
29.0, -118.10417175292969, -66.86193084716797, 23.445432662963867, 157.38621520996094, -0.08000000566244125, 0.0, 1.055999994277954, 0.0, 0.0, 0.0, 0.0, 0.0, 1.6214279472222524E9, 2021-05-19 14:39:07.222
30.0, -105.75502014160156, -54.669857025146484, 29.926679611206055, 170.8461151123047, -0.08000000566244125, 0.0, 1.055999994277954, 0.0, 0.0, 0.0, 0.0, 0.0, 1.6214279472367864E9, 2021-05-19 14:39:07.236
30.0, -126.39179229736328, -80.82672119140625, 15.75993824005127, 148.5450897216797, -0.08000000566244125, 0.0, 1.055999994277954, 0.0, 0.0, 0.0, 0.0, 0.0, 1.6214279472367864E9, 2021-05-19 14:39:07.236
31.0, -142.00961303710938, -90.46070098876953, 5.250819683074951, 142.89410400390625, -0.08000000566244125, 0.0, 1.055999994277954, 0.0, 0.0, 0.0, 0.0, 0.0, 1.6214279472374787E9, 2021-05-19 14:39:07.237
31.0, -127.04253387451172, -61.90282440185547, 22.5590763092041, 169.45486450195312, -0.08000000566244125, 0.0, 1.055999994277954, 0.0, 0.0, 0.0, 0.0, 0.0, 1.6214279472374787E9, 2021-05-19 14:39:07.237
32.0, -119.08028411865234, -49.73318862915039, 26.27653694152832, 172.0765380859375, -0.08000000566244125, 0.0, 1.055999994277954, 0.0, 0.0, 0.0, 0.0, 0.0, 1.621427947238212E9, 2021-05-19 14:39:07.238
32.0, -130.6141357421875, -84.49929809570312, 9.570404052734375, 150.2392578125, -0.08000000566244125, 0.0, 1.055999994277954, 0.0, 0.0, 0.0, 0.0, 0.0, 1.621427947238212E9, 2021-05-19 14:39:07.238
33.0, -152.20831298828125, -105.88031005859375, -16.20124626159668, 129.0041046142578, -0.08000000566244125, 0.0, 1.055999994277954, 0.0, 0.0, 0.0, 0.0, 0.0, 1.6214279472496789E9, 2021-05-19 14:39:07.249
33.0, -124.26004791259766, -77.73756408691406, 3.997952938079834, 171.96807861328125, -0.08000000566244125, 0.0, 1.055999994277954, 0.0, 0.0, 0.0, 0.0, 0.0, 1.6214279472496789E9, 2021-05-19 14:39:07.249
34.0, -102.45269012451172, -69.92491149902344, 23.78950309753418, 165.22503662109375, -0.08000000566244125, 0.0, 1.055999994277954, 0.0, 0.0, 0.0, 0.0, 0.0, 1.6214279472647192E9, 2021-05-19 14:39:07.264
34.0, -123.70654296875, -97.22618103027344, 1.8138514757156372, 147.9915771484375, -0.08000000566244125, 0.0, 1.055999994277954, 0.0, 0.0, 0.0, 0.0, 0.0, 1.6214279472647192E9, 2021-05-19 14:39:07.264
35.0, -139.74322509765625, -105.6297378540039, -5.7781453132629395, 145.4970703125, -0.08000000566244125, 0.0, 1.055999994277954, 0.0, 0.0, 0.0, 0.0, 0.0, 1.6214279472804425E9, 2021-05-19 14:39:07.280
35.0, -109.56597900390625, -60.979068756103516, 22.155166625976562, 159.98544311523438, -0.08000000566244125, 0.0, 1.055999994277954, 0.0, 0.0, 0.0, 0.0, 0.0, 1.6214279472804425E9, 2021-05-19 14:39:07.280
36.0, -94.5577621459961, -52.93454360961914, 24.447725296020508, 187.32037353515625, -0.08000000566244125, 0.0, 1.055999994277954, 0.0, 0.0, 0.0, 0.0, 0.0, 1.6214279472811894E9, 2021-05-19 14:39:07.281
36.0, -112.29610443115234, -86.85917663574219, 8.871042251586914, 160.87179565429688, -0.08000000566244125, 0.0, 1.055999994277954, 0.0, 0.0, 0.0, 0.0, 0.0, 1.6214279472811894E9, 2021-05-19 14:39:07.281
37.0, -137.32351684570312, -96.04811096191406, -1.3501038551330566, 150.6169891357422, -0.08000000566244125, 0.0, 1.055999994277954, 0.0, 0.0, 0.0, 0.0, 0.0, 1.6214279473110683E9, 2021-05-19 14:39:07.311
37.0, -110.98714447021484, -59.685062408447266, 14.432273864746094, 174.83657836914062, -0.08000000566244125, 0.0, 1.055999994277954, 0.0, 0.0, 0.0, 0.0, 0.0, 1.6214279473110683E9, 2021-05-19 14:39:07.311
38.0, -101.1287612915039, -47.87820053100586, 33.804954528808594, 186.56491088867188, -0.08000000566244125, 0.0, 1.055999994277954, 0.0, 0.0, 0.0, 0.0, 0.0, 1.621427947311814E9, 2021-05-19 14:39:07.311
38.0, -120.92779541015625, -83.7513198852539, 15.255051612854004, 164.4097442626953, -0.08000000566244125, 0.0, 1.055999994277954, 0.0, 0.0, 0.0, 0.0, 0.0, 1.621427947311814E9, 2021-05-19 14:39:07.311
39.0, -133.1236114501953, -89.78377532958984, -9.327310562133789, 140.5753631591797, -0.08000000566244125, 0.0, 1.055999994277954, 0.0, 0.0, 0.0, 0.0, 0.0, 1.6214279473125849E9, 2021-05-19 14:39:07.312
39.0, -112.55789947509766, -57.49348068237305, 22.641353607177734, 179.2384490966797, -0.08000000566244125, 0.0, 1.055999994277954, 0.0, 0.0, 0.0, 0.0, 0.0, 1.6214279473125849E9, 2021-05-19 14:39:07.312
40.0, -92.62049102783203, -49.15350341796875, 49.280662536621094, 190.52920532226562, -0.08000000566244125, 0.0, 1.040000081062317, 0.0, 0.0, 0.0, 0.0, 0.0, 1.6214279473247538E9, 2021-05-19 14:39:07.324
40.0, -121.17462921142578, -81.02119445800781, 22.9704647064209, 156.36895751953125, -0.08000000566244125, 0.0, 1.040000081062317, 0.0, 0.0, 0.0, 0.0, 0.0, 1.6214279473247538E9, 2021-05-19 14:39:07.324
41.0, -107.47911834716797, -79.46539306640625, 18.83039665222168, 148.4927215576172, -0.08000000566244125, 0.0, 1.040000081062317, 0.0, 0.0, 0.0, 0.0, 0.0, 1.6214279473404534E9, 2021-05-19 14:39:07.340
41.0, -117.56936645507812, -70.23158264160156, 30.248310089111328, 171.7736053466797, -0.08000000566244125, 0.0, 1.040000081062317, 0.0, 0.0, 0.0, 0.0, 0.0, 1.6214279473404534E9, 2021-05-19 14:39:07.340
42.0, -91.61445617675781, -57.250389099121094, 39.15675354003906, 193.79788208007812, -0.08000000566244125, 0.0, 1.040000081062317, 0.0, 0.0, 0.0, 0.0, 0.0, 1.6214279473411274E9, 2021-05-19 14:39:07.341
42.0, -114.80184173583984, -72.65877532958984, 20.29269790649414, 169.29779052734375, -0.08000000566244125, 0.0, 1.040000081062317, 0.0, 0.0, 0.0, 0.0, 0.0, 1.6214279473411274E9, 2021-05-19 14:39:07.341
43.0, -132.75709533691406, -96.45201873779297, -3.911935329437256, 158.57176208496094, -0.08000000566244125, 0.0, 1.040000081062317, 0.0, 0.0, 0.0, 0.0, 0.0, 1.621427947354747E9, 2021-05-19 14:39:07.354
43.0, -112.58407592773438, -55.533775329589844, 18.73689842224121, 180.4314727783203, -0.08000000566244125, 0.0, 1.040000081062317, 0.0, 0.0, 0.0, 0.0, 0.0, 1.621427947354747E9, 2021-05-19 14:39:07.354
44.0, -80.67899322509766, -48.59626007080078, 37.77299118041992, 190.36839294433594, -0.08000000566244125, 0.0, 1.040000081062317, 0.0, 0.0, 0.0, 0.0, 0.0, 1.6214279473704593E9, 2021-05-19 14:39:07.370
44.0, -122.56961059570312, -88.80766296386719, 4.487879753112793, 165.70748901367188, -0.08000000566244125, 0.0, 1.040000081062317, 0.0, 0.0, 0.0, 0.0, 0.0, 1.6214279473704593E9, 2021-05-19 14:39:07.370
45.0, -128.9611053466797, -90.1128921508789, 1.0247325897216797, 147.39694213867188, -0.08000000566244125, 0.0, 1.040000081062317, 0.0, 0.0, 0.0, 0.0, 0.0, 1.621427947371162E9, 2021-05-19 14:39:07.371
45.0, -106.4281997680664, -55.42157745361328, 14.439753532409668, 176.58311462402344, -0.08000000566244125, 0.0, 1.040000081062317, 0.0, 0.0, 0.0, 0.0, 0.0, 1.621427947371162E9, 2021-05-19 14:39:07.371
46.0, -103.55970001220703, -50.230594635009766, 25.913766860961914, 186.45645141601562, -0.08000000566244125, 0.0, 1.040000081062317, 0.0, 0.0, 0.0, 0.0, 0.0, 1.6214279473847969E9, 2021-05-19 14:39:07.384
46.0, -122.04602813720703, -82.33763885498047, 10.711073875427246, 155.64341735839844, -0.08000000566244125, 0.0, 1.040000081062317, 0.0, 0.0, 0.0, 0.0, 0.0, 1.6214279473847969E9, 2021-05-19 14:39:07.384
47.0, -123.41108703613281, -84.873291015625, 1.8549903631210327, 150.2355194091797, -0.08000000566244125, 0.0, 1.040000081062317, 0.0, 0.0, 0.0, 0.0, 0.0, 1.6214279474004776E9, 2021-05-19 14:39:07.400
47.0, -104.44231414794922, -58.151702880859375, 17.095083236694336, 168.4226531982422, -0.08000000566244125, 0.0, 1.040000081062317, 0.0, 0.0, 0.0, 0.0, 0.0, 1.6214279474004776E9, 2021-05-19 14:39:07.400
48.0, -99.30369567871094, -53.5291862487793, 32.682987213134766, 183.28501892089844, -0.08000000566244125, 0.0, 1.040000081062317, 0.0, 0.0, 0.0, 0.0, 0.0, 1.621427947401127E9, 2021-05-19 14:39:07.401
48.0, -120.8604736328125, -80.93891143798828, 17.626148223876953, 157.79759216308594, -0.08000000566244125, 0.0, 1.040000081062317, 0.0, 0.0, 0.0, 0.0, 0.0, 1.621427947401127E9, 2021-05-19 14:39:07.401
49.0, -126.27584838867188, -92.07633972167969, 9.009419441223145, 154.9964141845703, -0.08000000566244125, 0.0, 1.040000081062317, 0.0, 0.0, 0.0, 0.0, 0.0, 1.6214279474147387E9, 2021-05-19 14:39:07.414
49.0, -109.715576171875, -53.73488235473633, 29.616268157958984, 173.40794372558594, -0.08000000566244125, 0.0, 1.040000081062317, 0.0, 0.0, 0.0, 0.0, 0.0, 1.6214279474147387E9, 2021-05-19 14:39:07.414
50.0, -88.14009094238281, -45.34254837036133, 36.28076934814453, 192.6796417236328, -0.08000000566244125, 0.0, 1.055999994277954, 0.0, 0.0, 0.0, 0.0, 0.0, 1.6214279474308944E9, 2021-05-19 14:39:07.430
50.0, -115.78916931152344, -74.51750946044922, 17.644847869873047, 158.74378967285156, -0.08000000566244125, 0.0, 1.055999994277954, 0.0, 0.0, 0.0, 0.0, 0.0, 1.6214279474308944E9, 2021-05-19 14:39:07.430
51.0, -153.07223510742188, -98.606201171875, -5.927741527557373, 137.42262268066406, -0.08000000566244125, 0.0, 1.055999994277954, 0.0, 0.0, 0.0, 0.0, 0.0, 1.6214279474458632E9, 2021-05-19 14:39:07.445
51.0, -95.51143646240234, -59.744903564453125, 32.623146057128906, 171.91946411132812, -0.08000000566244125, 0.0, 1.055999994277954, 0.0, 0.0, 0.0, 0.0, 0.0, 1.6214279474458632E9, 2021-05-19 14:39:07.445
52.0, -85.17435455322266, -48.00909423828125, 40.44327926635742, 186.92019653320312, -0.08000000566244125, 0.0, 1.055999994277954, 0.0, 0.0, 0.0, 0.0, 0.0, 1.6214279474611423E9, 2021-05-19 14:39:07.461
52.0, -140.68194580078125, -94.8924789428711, 10.262285232543945, 156.66441345214844, -0.08000000566244125, 0.0, 1.055999994277954, 0.0, 0.0, 0.0, 0.0, 0.0, 1.6214279474611423E9, 2021-05-19 14:39:07.461
53.0, -133.60980224609375, -100.30037689208984, -5.983839988708496, 146.97433471679688, -0.08000000566244125, 0.0, 1.055999994277954, 0.0, 0.0, 0.0, 0.0, 0.0, 1.6214279474619017E9, 2021-05-19 14:39:07.461
53.0, -114.71208190917969, -57.007293701171875, 28.124048233032227, 178.6400604248047, -0.08000000566244125, 0.0, 1.055999994277954, 0.0, 0.0, 0.0, 0.0, 0.0, 1.6214279474619017E9, 2021-05-19 14:39:07.461
54.0, -104.4759750366211, -49.991241455078125, 31.953704833984375, 184.05543518066406, -0.08000000566244125, 0.0, 1.055999994277954, 0.0, 0.0, 0.0, 0.0, 0.0, 1.621427947462562E9, 2021-05-19 14:39:07.462
54.0, -121.44390106201172, -91.8631591796875, 6.922554969787598, 154.72340393066406, -0.08000000566244125, 0.0, 1.055999994277954, 0.0, 0.0, 0.0, 0.0, 0.0, 1.621427947462562E9, 2021-05-19 14:39:07.462
55.0, -128.37767028808594, -92.45032501220703, 3.365910053253174, 146.95562744140625, -0.08000000566244125, 0.0, 1.055999994277954, 0.0, 0.0, 0.0, 0.0, 0.0, 1.6214279474748049E9, 2021-05-19 14:39:07.474
55.0, -106.19258880615234, -60.32084655761719, 21.089296340942383, 174.48129272460938, -0.08000000566244125, 0.0, 1.055999994277954, 0.0, 0.0, 0.0, 0.0, 0.0, 1.6214279474748049E9, 2021-05-19 14:39:07.474
56.0, -100.89688873291016, -51.03467559814453, 25.356521606445312, 179.38804626464844, -0.08000000566244125, 0.0, 1.055999994277954, 0.0, 0.0, 0.0, 0.0, 0.0, 1.6214279474901817E9, 2021-05-19 14:39:07.490
56.0, -113.81450653076172, -90.4943618774414, 11.073843955993652, 165.9767608642578, -0.08000000566244125, 0.0, 1.055999994277954, 0.0, 0.0, 0.0, 0.0, 0.0, 1.6214279474901817E9, 2021-05-19 14:39:07.490
57.0, -132.50653076171875, -99.90020751953125, -12.524925231933594, 138.13694763183594, -0.08000000566244125, 0.0, 1.055999994277954, 0.0, 0.0, 0.0, 0.0, 0.0, 1.6214279475054843E9, 2021-05-19 14:39:07.505
57.0, -121.06990814208984, -72.33714294433594, 6.129695892333984, 157.82003784179688, -0.08000000566244125, 0.0, 1.055999994277954, 0.0, 0.0, 0.0, 0.0, 0.0, 1.6214279475054843E9, 2021-05-19 14:39:07.505
58.0, -89.07132720947266, -42.58624267578125, 37.31298065185547, 187.77664184570312, -0.08000000566244125, 0.0, 1.055999994277954, 0.0, 0.0, 0.0, 0.0, 0.0, 1.621427947506118E9, 2021-05-19 14:39:07.506
58.0, -125.30722045898438, -97.27853393554688, 6.8253173828125, 159.2711181640625, -0.08000000566244125, 0.0, 1.055999994277954, 0.0, 0.0, 0.0, 0.0, 0.0, 1.621427947506118E9, 2021-05-19 14:39:07.506
59.0, -134.36898803710938, -89.01709747314453, 1.3388842344284058, 145.73268127441406, -0.08000000566244125, 0.0, 1.055999994277954, 0.0, 0.0, 0.0, 0.0, 0.0, 1.6214279475203912E9, 2021-05-19 14:39:07.520
59.0, -105.78868103027344, -66.51038360595703, 17.326955795288086, 164.88844299316406, -0.08000000566244125, 0.0, 1.055999994277954, 0.0, 0.0, 0.0, 0.0, 0.0, 1.6214279475203912E9, 2021-05-19 14:39:07.520
60.0, -114.54004669189453, -54.59505844116211, 23.404293060302734, 174.7056884765625, -0.08000000566244125, 0.0, 1.040000081062317, 0.0, 0.0, 0.0, 0.0, 0.0, 1.6214279475210888E9, 2021-05-19 14:39:07.521
60.0, -123.69905853271484, -88.76278686523438, 4.0615315437316895, 156.25302124023438, -0.08000000566244125, 0.0, 1.040000081062317, 0.0, 0.0, 0.0, 0.0, 0.0, 1.6214279475210888E9, 2021-05-19 14:39:07.521
61.0, -118.90077209472656, -94.12580108642578, 5.497653007507324, 149.6371307373047, -0.08000000566244125, 0.0, 1.040000081062317, 0.0, 0.0, 0.0, 0.0, 0.0, 1.62142794753476E9, 2021-05-19 14:39:07.534
61.0, -116.6007308959961, -62.23567581176758, 22.054189682006836, 166.48538208007812, -0.08000000566244125, 0.0, 1.040000081062317, 0.0, 0.0, 0.0, 0.0, 0.0, 1.62142794753476E9, 2021-05-19 14:39:07.534
62.0, -100.20874786376953, -51.1992301940918, 31.635814666748047, 185.8131866455078, -0.08000000566244125, 0.0, 1.040000081062317, 0.0, 0.0, 0.0, 0.0, 0.0, 1.621427947550868E9, 2021-05-19 14:39:07.550
62.0, -129.21914672851562, -87.65951538085938, 8.265178680419922, 155.6770782470703, -0.08000000566244125, 0.0, 1.040000081062317, 0.0, 0.0, 0.0, 0.0, 0.0, 1.621427947550868E9, 2021-05-19 14:39:07.550
63.0, -136.4334259033203, -92.42041015625, 3.504286289215088, 142.011474609375, -0.08000000566244125, 0.0, 1.040000081062317, 0.0, 0.0, 0.0, 0.0, 0.0, 1.6214279475818057E9, 2021-05-19 14:39:07.581
63.0, -107.1051254272461, -54.767093658447266, 32.06964111328125, 174.63836669921875, -0.08000000566244125, 0.0, 1.040000081062317, 0.0, 0.0, 0.0, 0.0, 0.0, 1.6214279475818057E9, 2021-05-19 14:39:07.581
64.0, -101.30828094482422, -54.11635208129883, 45.5407600402832, 181.88629150390625, -0.08000000566244125, 0.0, 1.040000081062317, 0.0, 0.0, 0.0, 0.0, 0.0, 1.6214279475825808E9, 2021-05-19 14:39:07.582
64.0, -127.45391845703125, -88.71416473388672, 21.489465713500977, 151.7763671875, -0.08000000566244125, 0.0, 1.040000081062317, 0.0, 0.0, 0.0, 0.0, 0.0, 1.6214279475825808E9, 2021-05-19 14:39:07.582
65.0, -134.6868896484375, -99.57857513427734, 1.2042478322982788, 143.5934600830078, -0.08000000566244125, 0.0, 1.040000081062317, 0.0, 0.0, 0.0, 0.0, 0.0, 1.6214279475833194E9, 2021-05-19 14:39:07.583
65.0, -103.40636444091797, -56.1396369934082, 32.29777526855469, 179.47779846191406, -0.08000000566244125, 0.0, 1.040000081062317, 0.0, 0.0, 0.0, 0.0, 0.0, 1.6214279475833194E9, 2021-05-19 14:39:07.583
66.0, -104.00849151611328, -53.3870735168457, 41.08654022216797, 184.93057250976562, -0.08000000566244125, 0.0, 1.040000081062317, 0.0, 0.0, 0.0, 0.0, 0.0, 1.6214279475840771E9, 2021-05-19 14:39:07.584
66.0, -121.6047134399414, -87.76422882080078, 18.06745719909668, 154.1025848388672, -0.08000000566244125, 0.0, 1.040000081062317, 0.0, 0.0, 0.0, 0.0, 0.0, 1.6214279475840771E9, 2021-05-19 14:39:07.584
67.0, -113.36197662353516, -92.68594360351562, 13.512258529663086, 150.34024047851562, -0.08000000566244125, 0.0, 1.040000081062317, 0.0, 0.0, 0.0, 0.0, 0.0, 1.6214279475948608E9, 2021-05-19 14:39:07.594
67.0, -114.0538558959961, -59.41579055786133, 25.483678817749023, 178.16883850097656, -0.08000000566244125, 0.0, 1.040000081062317, 0.0, 0.0, 0.0, 0.0, 0.0, 1.6214279475948608E9, 2021-05-19 14:39:07.594
68.0, -103.09969329833984, -58.28260040283203, 28.8271484375, 179.60121154785156, -0.08000000566244125, 0.0, 1.040000081062317, 0.0, 0.0, 0.0, 0.0, 0.0, 1.6214279476108963E9, 2021-05-19 14:39:07.610
68.0, -126.83309936523438, -86.60486602783203, 15.87961483001709, 153.98289489746094, -0.08000000566244125, 0.0, 1.040000081062317, 0.0, 0.0, 0.0, 0.0, 0.0, 1.6214279476108963E9, 2021-05-19 14:39:07.610
69.0, -131.81838989257812, -98.52766418457031, 7.464840412139893, 148.8480224609375, -0.08000000566244125, 0.0, 1.040000081062317, 0.0, 0.0, 0.0, 0.0, 0.0, 1.6214279476254256E9, 2021-05-19 14:39:07.625
69.0, -108.3355484008789, -53.862037658691406, 26.717845916748047, 180.27439880371094, -0.08000000566244125, 0.0, 1.040000081062317, 0.0, 0.0, 0.0, 0.0, 0.0, 1.6214279476254256E9, 2021-05-19 14:39:07.625
70.0, -101.06892395019531, -61.842987060546875, 35.22611618041992, 173.8155975341797, -0.08000000566244125, 0.0, 1.055999994277954, 0.0, 0.0, 0.0, 0.0, 0.0, 1.621427947626177E9, 2021-05-19 14:39:07.626
70.0, -121.14845275878906, -90.06053161621094, 9.596583366394043, 152.03440856933594, -0.08000000566244125, 0.0, 1.055999994277954, 0.0, 0.0, 0.0, 0.0, 0.0, 1.621427947626177E9, 2021-05-19 14:39:07.626
71.0, -136.72512817382812, -101.9758529663086, -1.8587303161621094, 139.86851501464844, -0.08000000566244125, 0.0, 1.055999994277954, 0.0, 0.0, 0.0, 0.0, 0.0, 1.6214279476404295E9, 2021-05-19 14:39:07.640
71.0, -115.90511322021484, -73.89668273925781, 16.881908416748047, 166.3170928955078, -0.08000000566244125, 0.0, 1.055999994277954, 0.0, 0.0, 0.0, 0.0, 0.0, 1.6214279476404295E9, 2021-05-19 14:39:07.640
72.0, -97.3926010131836, -64.36367797851562, 26.160600662231445, 169.73536682128906, -0.08000000566244125, 0.0, 1.055999994277954, 0.0, 0.0, 0.0, 0.0, 0.0, 1.6214279476411664E9, 2021-05-19 14:39:07.641
72.0, -109.95118713378906, -98.95775604248047, 10.65871524810791, 141.36073303222656, -0.08000000566244125, 0.0, 1.055999994277954, 0.0, 0.0, 0.0, 0.0, 0.0, 1.6214279476411664E9, 2021-05-19 14:39:07.641
73.0, -121.4588623046875, -98.49400329589844, 4.106410026550293, 152.50938415527344, -0.08000000566244125, 0.0, 1.055999994277954, 0.0, 0.0, 0.0, 0.0, 0.0, 1.6214279476865952E9, 2021-05-19 14:39:07.686
73.0, -102.43772888183594, -71.26753234863281, 25.76791000366211, 179.17486572265625, -0.08000000566244125, 0.0, 1.055999994277954, 0.0, 0.0, 0.0, 0.0, 0.0, 1.6214279476865952E9, 2021-05-19 14:39:07.686
74.0, -80.27508544921875, -38.23673629760742, 43.28560256958008, 191.56141662597656, -0.08000000566244125, 0.0, 1.055999994277954, 0.0, 0.0, 0.0, 0.0, 0.0, 1.6214279476873355E9, 2021-05-19 14:39:07.687
74.0, -107.34447479248047, -68.10357666015625, 32.151920318603516, 169.3090057373047, -0.08000000566244125, 0.0, 1.055999994277954, 0.0, 0.0, 0.0, 0.0, 0.0, 1.6214279476873355E9, 2021-05-19 14:39:07.687
75.0, -129.4285888671875, -81.24559020996094, 14.10316276550293, 150.0373077392578, -0.08000000566244125, 0.0, 1.055999994277954, 0.0, 0.0, 0.0, 0.0, 0.0, 1.6214279476880045E9, 2021-05-19 14:39:07.688
75.0, -108.61978149414062, -56.80533981323242, 32.21549987792969, 170.86106872558594, -0.08000000566244125, 0.0, 1.055999994277954, 0.0, 0.0, 0.0, 0.0, 0.0, 1.6214279476880045E9, 2021-05-19 14:39:07.688
76.0, -103.30538940429688, -48.73089599609375, 37.485015869140625, 184.4032440185547, -0.08000000566244125, 0.0, 1.055999994277954, 0.0, 0.0, 0.0, 0.0, 0.0, 1.621427947701217E9, 2021-05-19 14:39:07.701
76.0, -112.58782196044922, -69.74539184570312, 29.496591567993164, 165.9730224609375, -0.08000000566244125, 0.0, 1.055999994277954, 0.0, 0.0, 0.0, 0.0, 0.0, 1.621427947701217E9, 2021-05-19 14:39:07.701
77.0, -133.77809143066406, -95.90225219726562, 9.899515151977539, 152.62905883789062, -0.08000000566244125, 0.0, 1.055999994277954, 0.0, 0.0, 0.0, 0.0, 0.0, 1.6214279477019737E9, 2021-05-19 14:39:07.701
77.0, -104.48719787597656, -63.14447021484375, 26.22791862487793, 173.16859436035156, -0.08000000566244125, 0.0, 1.055999994277954, 0.0, 0.0, 0.0, 0.0, 0.0, 1.6214279477019737E9, 2021-05-19 14:39:07.701
78.0, -93.06928253173828, -54.50530242919922, 37.12224578857422, 189.73260498046875, -0.08000000566244125, 0.0, 1.055999994277954, 0.0, 0.0, 0.0, 0.0, 0.0, 1.621427947702597E9, 2021-05-19 14:39:07.702
78.0, -106.53665924072266, -77.52812957763672, 10.105209350585938, 164.08436584472656, -0.08000000566244125, 0.0, 1.055999994277954, 0.0, 0.0, 0.0, 0.0, 0.0, 1.621427947702597E9, 2021-05-19 14:39:07.702
79.0, -137.3197784423828, -109.01060485839844, -6.2157135009765625, 144.85006713867188, -0.08000000566244125, 0.0, 1.055999994277954, 0.0, 0.0, 0.0, 0.0, 0.0, 1.621427947731195E9, 2021-05-19 14:39:07.731
79.0, -121.08113098144531, -59.920677185058594, 17.622407913208008, 166.3021240234375, -0.08000000566244125, 0.0, 1.055999994277954, 0.0, 0.0, 0.0, 0.0, 0.0, 1.621427947731195E9, 2021-05-19 14:39:07.731
80.0, -103.7953109741211, -51.55078125, 25.95864486694336, 186.56491088867188, -0.08000000566244125, 0.0, 1.055999994277954, 0.0, 0.0, 0.0, 0.0, 0.0, 1.6214279477319076E9, 2021-05-19 14:39:07.731
80.0, -114.3979263305664, -85.43053436279297, 11.55255126953125, 157.5769500732422, -0.08000000566244125, 0.0, 1.055999994277954, 0.0, 0.0, 0.0, 0.0, 0.0, 1.6214279477319076E9, 2021-05-19 14:39:07.731
81.0, -140.84649658203125, -85.3594741821289, 1.4996998310089111, 152.38597106933594, -0.08000000566244125, 0.0, 1.055999994277954, 0.0, 0.0, 0.0, 0.0, 0.0, 1.6214279477326307E9, 2021-05-19 14:39:07.732
81.0, -107.72594451904297, -58.316261291503906, 24.26447105407715, 171.7736053466797, -0.08000000566244125, 0.0, 1.055999994277954, 0.0, 0.0, 0.0, 0.0, 0.0, 1.6214279477326307E9, 2021-05-19 14:39:07.732
82.0, -78.03114318847656, -46.14662551879883, 40.76116943359375, 188.16558837890625, -0.08000000566244125, 0.0, 1.055999994277954, 0.0, 0.0, 0.0, 0.0, 0.0, 1.6214279477447488E9, 2021-05-19 14:39:07.744
82.0, -145.38673400878906, -83.007080078125, -0.9574143886566162, 155.10487365722656, -0.08000000566244125, 0.0, 1.055999994277954, 0.0, 0.0, 0.0, 0.0, 0.0, 1.6214279477447488E9, 2021-05-19 14:39:07.744
83.0, -141.8151397705078, -99.13352966308594, -3.938114643096924, 139.08314514160156, -0.08000000566244125, 0.0, 1.055999994277954, 0.0, 0.0, 0.0, 0.0, 0.0, 1.6214279477604403E9, 2021-05-19 14:39:07.760
83.0, -110.37005615234375, -50.447509765625, 19.170726776123047, 176.21286010742188, -0.08000000566244125, 0.0, 1.055999994277954, 0.0, 0.0, 0.0, 0.0, 0.0, 1.6214279477604403E9, 2021-05-19 14:39:07.760
84.0, -90.13346099853516, -45.38742446899414, 42.77323532104492, 191.75962829589844, -0.08000000566244125, 0.0, 1.055999994277954, 0.0, 0.0, 0.0, 0.0, 0.0, 1.6214279477611487E9, 2021-05-19 14:39:07.761
84.0, -124.32362365722656, -71.27875518798828, 15.730019569396973, 154.5251922607422, -0.08000000566244125, 0.0, 1.055999994277954, 0.0, 0.0, 0.0, 0.0, 0.0, 1.6214279477611487E9, 2021-05-19 14:39:07.761
85.0, -137.76856994628906, -76.11444091796875, 3.919415235519409, 142.85670471191406, -0.08000000566244125, 0.0, 1.055999994277954, 0.0, 0.0, 0.0, 0.0, 0.0, 1.6214279478072128E9, 2021-05-19 14:39:07.807
85.0, -106.39828491210938, -45.40238571166992, 31.643293380737305, 184.39576721191406, -0.08000000566244125, 0.0, 1.055999994277954, 0.0, 0.0, 0.0, 0.0, 0.0, 1.6214279478072128E9, 2021-05-19 14:39:07.807
86.0, -95.81810760498047, -62.250633239746094, 36.27328872680664, 175.36764526367188, -0.08000000566244125, 0.0, 1.055999994277954, 0.0, 0.0, 0.0, 0.0, 0.0, 1.6214279478079078E9, 2021-05-19 14:39:07.807
86.0, -121.08860778808594, -86.97511291503906, 2.8423240184783936, 158.1641082763672, -0.08000000566244125, 0.0, 1.055999994277954, 0.0, 0.0, 0.0, 0.0, 0.0, 1.6214279478079078E9, 2021-05-19 14:39:07.807
87.0, -145.00901794433594, -97.4393539428711, -6.301731586456299, 149.0574493408203, -0.08000000566244125, 0.0, 1.055999994277954, 0.0, 0.0, 0.0, 0.0, 0.0, 1.6214279478086495E9, 2021-05-19 14:39:07.808
87.0, -129.727783203125, -62.10103988647461, 14.551950454711914, 168.0860595703125, -0.08000000566244125, 0.0, 1.055999994277954, 0.0, 0.0, 0.0, 0.0, 0.0, 1.6214279478086495E9, 2021-05-19 14:39:07.808
88.0, -99.63654327392578, -39.87107467651367, 33.296329498291016, 189.3810577392578, -0.08000000566244125, 0.0, 1.055999994277954, 0.0, 0.0, 0.0, 0.0, 0.0, 1.621427947820922E9, 2021-05-19 14:39:07.820
88.0, -133.284423828125, -82.21047973632812, -9.57788372039795, 155.47137451171875, -0.08000000566244125, 0.0, 1.055999994277954, 0.0, 0.0, 0.0, 0.0, 0.0, 1.621427947820922E9, 2021-05-19 14:39:07.820
89.0, -122.71173095703125, -87.0985336303711, -13.231765747070312, 144.23672485351562, -0.08000000566244125, 0.0, 1.055999994277954, 0.0, 0.0, 0.0, 0.0, 0.0, 1.6214279478375309E9, 2021-05-19 14:39:07.837
89.0, -112.0679702758789, -54.437984466552734, 19.122108459472656, 168.59095764160156, -0.08000000566244125, 0.0, 1.055999994277954, 0.0, 0.0, 0.0, 0.0, 0.0, 1.6214279478375309E9, 2021-05-19 14:39:07.837
90.0, -97.5908203125, -42.313228607177734, 31.347841262817383, 180.83164978027344, -0.08000000566244125, 0.0, 1.055999994277954, 0.0, 0.0, 0.0, 0.0, 0.0, 1.6214279478383172E9, 2021-05-19 14:39:07.838
90.0, -148.31507873535156, -84.26742553710938, -9.117876052856445, 149.6894989013672, -0.08000000566244125, 0.0, 1.055999994277954, 0.0, 0.0, 0.0, 0.0, 0.0, 1.6214279478383172E9, 2021-05-19 14:39:07.838
91.0, -141.69920349121094, -74.73068237304688, -12.569804191589355, 139.6964874267578, -0.08000000566244125, 0.0, 1.055999994277954, 0.0, 0.0, 0.0, 0.0, 0.0, 1.6214279478390088E9, 2021-05-19 14:39:07.839
91.0, -122.08716583251953, -64.24774169921875, 10.834489822387695, 164.42095947265625, -0.08000000566244125, 0.0, 1.055999994277954, 0.0, 0.0, 0.0, 0.0, 0.0, 1.6214279478390088E9, 2021-05-19 14:39:07.839
92.0, -97.24674987792969, -39.979530334472656, 36.16857147216797, 186.53125, -0.08000000566244125, 0.0, 1.055999994277954, 0.0, 0.0, 0.0, 0.0, 0.0, 1.6214279478396957E9, 2021-05-19 14:39:07.839
92.0, -107.9914779663086, -69.88751220703125, 17.263378143310547, 160.26593017578125, -0.08000000566244125, 0.0, 1.055999994277954, 0.0, 0.0, 0.0, 0.0, 0.0, 1.6214279478396957E9, 2021-05-19 14:39:07.839
93.0, -136.16415405273438, -79.6336898803711, -12.049957275390625, 137.75921630859375, -0.08000000566244125, 0.0, 1.055999994277954, 0.0, 0.0, 0.0, 0.0, 0.0, 1.621427947849785E9, 2021-05-19 14:39:07.849
93.0, -121.25316619873047, -47.040462493896484, 19.76911163330078, 165.94309997558594, -0.08000000566244125, 0.0, 1.055999994277954, 0.0, 0.0, 0.0, 0.0, 0.0, 1.621427947849785E9, 2021-05-19 14:39:07.849
94.0, -103.55970001220703, -48.06145477294922, 30.09123420715332, 176.87857055664062, -0.08000000566244125, 0.0, 1.055999994277954, 0.0, 0.0, 0.0, 0.0, 0.0, 1.62142794786481E9, 2021-05-19 14:39:07.864
94.0, -114.24459075927734, -74.0761947631836, 16.90060806274414, 160.73716735839844, -0.08000000566244125, 0.0, 1.055999994277954, 0.0, 0.0, 0.0, 0.0, 0.0, 1.62142794786481E9, 2021-05-19 14:39:07.864
95.0, -144.08151245117188, -98.01903533935547, -10.303424835205078, 143.27931213378906, -0.08000000566244125, 0.0, 1.055999994277954, 0.0, 0.0, 0.0, 0.0, 0.0, 1.6214279478804922E9, 2021-05-19 14:39:07.880
95.0, -99.90581512451172, -55.18970489501953, 15.524324417114258, 177.98558044433594, -0.08000000566244125, 0.0, 1.055999994277954, 0.0, 0.0, 0.0, 0.0, 0.0, 1.6214279478804922E9, 2021-05-19 14:39:07.880
96.0, -89.32563781738281, -49.25822067260742, 26.257837295532227, 183.6403045654297, -0.08000000566244125, 0.0, 1.055999994277954, 0.0, 0.0, 0.0, 0.0, 0.0, 1.6214279478812673E9, 2021-05-19 14:39:07.881
96.0, -119.92176055908203, -80.99501037597656, 0.34407079219818115, 159.8956756591797, -0.08000000566244125, 0.0, 1.055999994277954, 0.0, 0.0, 0.0, 0.0, 0.0, 1.6214279478812673E9, 2021-05-19 14:39:07.881
97.0, -123.94215393066406, -101.3774642944336, -15.999292373657227, 147.47921752929688, -0.08000000566244125, 0.0, 1.055999994277954, 0.0, 0.0, 0.0, 0.0, 0.0, 1.6214279479107997E9, 2021-05-19 14:39:07.910
97.0, -135.5695037841797, -55.425315856933594, 7.360123157501221, 166.272216796875, -0.08000000566244125, 0.0, 1.055999994277954, 0.0, 0.0, 0.0, 0.0, 0.0, 1.6214279479107997E9, 2021-05-19 14:39:07.910
98.0, -94.20246887207031, -52.94202423095703, 30.035137176513672, 180.7269287109375, -0.08000000566244125, 0.0, 1.055999994277954, 0.0, 0.0, 0.0, 0.0, 0.0, 1.621427947911579E9, 2021-05-19 14:39:07.911
98.0, -119.78338623046875, -84.50678253173828, 14.22283935546875, 160.9353790283203, -0.08000000566244125, 0.0, 1.055999994277954, 0.0, 0.0, 0.0, 0.0, 0.0, 1.621427947911579E9, 2021-05-19 14:39:07.911
99.0, -127.2407455444336, -80.03759765625, -6.219453811645508, 144.62567138671875, -0.08000000566244125, 0.0, 1.055999994277954, 0.0, 0.0, 0.0, 0.0, 0.0, 1.6214279479260476E9, 2021-05-19 14:39:07.926
99.0, -124.5293197631836, -58.87724685668945, 14.802523612976074, 158.6839599609375, -0.08000000566244125, 0.0, 1.055999994277954, 0.0, 0.0, 0.0, 0.0, 0.0, 1.6214279479260476E9, 2021-05-19 14:39:07.926
100.0, -98.7950668334961, -48.472843170166016, 31.063608169555664, 181.51229858398438, -0.08000000566244125, 0.0, 1.055999994277954, 0.0, 0.0, 0.0, 0.0, 0.0, 1.6214279479267864E9, 2021-05-19 14:39:07.926
100.0, -123.43352508544922, -87.51740264892578, 15.644001960754395, 166.49285888671875, -0.08000000566244125, 0.0, 1.055999994277954, 0.0, 0.0, 0.0, 0.0, 0.0, 1.6214279479267864E9, 2021-05-19 14:39:07.926
0.0, -133.98377990722656, -85.87184143066406, -4.375682830810547, 142.867919921875, -0.08000000566244125, 0.0, 1.055999994277954, 0.0, 0.0, 0.0, 0.0, 0.0, 1.6214279479275472E9, 2021-05-19 14:39:07.927
1.0, -108.6721420288086, -53.731143951416016, 19.986024856567383, 171.6913299560547, -0.08000000566244125, 0.0, 1.055999994277954, 0.0, 0.0, 0.0, 0.0, 0.0, 1.621427947939732E9, 2021-05-19 14:39:07.939
1.0, -91.1694107055664, -45.98955154418945, 30.730758666992188, 182.98208618164062, -0.08000000566244125, 0.0, 1.055999994277954, 0.0, 0.0, 0.0, 0.0, 0.0, 1.621427947939732E9, 2021-05-19 14:39:07.939
2.0, -112.12033081054688, -78.47431945800781, 27.256391525268555, 166.1824493408203, -0.08000000566244125, 0.0, 1.055999994277954, 0.0, 0.0, 0.0, 0.0, 0.0, 1.6214279479708664E9, 2021-05-19 14:39:07.970
2.0, -129.79884338378906, -79.27839660644531, 12.2332124710083, 158.23143005371094, -0.08000000566244125, 0.0, 1.055999994277954, 0.0, 0.0, 0.0, 0.0, 0.0, 1.6214279479708664E9, 2021-05-19 14:39:07.970
3.0, -102.21707916259766, -66.80583190917969, 23.198598861694336, 189.11178588867188, -0.08000000566244125, 0.0, 1.055999994277954, 0.0, 0.0, 0.0, 0.0, 0.0, 1.6214279479867668E9, 2021-05-19 14:39:07.986
3.0, -95.99761962890625, -55.87410354614258, 40.207664489746094, 190.80221557617188, -0.08000000566244125, 0.0, 1.055999994277954, 0.0, 0.0, 0.0, 0.0, 0.0, 1.6214279479867668E9, 2021-05-19 14:39:07.986
4.0, -132.3980712890625, -79.28214263916016, 7.8163909912109375, 165.76731872558594, -0.08000000566244125, 0.0, 1.055999994277954, 0.0, 0.0, 0.0, 0.0, 0.0, 1.6214279479875205E9, 2021-05-19 14:39:07.987
4.0, -139.24208068847656, -104.11881256103516, -2.801185131072998, 151.99327087402344, -0.08000000566244125, 0.0, 1.055999994277954, 0.0, 0.0, 0.0, 0.0, 0.0, 1.6214279479875205E9, 2021-05-19 14:39:07.987
5.0, -98.98580169677734, -65.32109069824219, 30.38294792175293, 185.61497497558594, -0.08000000566244125, 0.0, 1.055999994277954, 0.0, 0.0, 0.0, 0.0, 0.0, 1.6214279479883103E9, 2021-05-19 14:39:07.988
5.0, -106.6413803100586, -49.92766571044922, 31.938745498657227, 184.08909606933594, -0.08000000566244125, 0.0, 1.055999994277954, 0.0, 0.0, 0.0, 0.0, 0.0, 1.6214279479883103E9, 2021-05-19 14:39:07.988
6.0, -120.04891967773438, -86.399169921875, 9.981793403625488, 161.88905334472656, -0.08000000566244125, 0.0, 1.055999994277954, 0.0, 0.0, 0.0, 0.0, 0.0, 1.6214279479889593E9, 2021-05-19 14:39:07.988
6.0, -149.29493713378906, -89.08441925048828, 6.784178733825684, 155.02633666992188, -0.08000000566244125, 0.0, 1.055999994277954, 0.0, 0.0, 0.0, 0.0, 0.0, 1.6214279479889593E9, 2021-05-19 14:39:07.988
7.0, -122.12830352783203, -55.765647888183594, 24.354228973388672, 178.8046112060547, -0.08000000566244125, 0.0, 1.055999994277954, 0.0, 0.0, 0.0, 0.0, 0.0, 1.6214279480151389E9, 2021-05-19 14:39:08.015
7.0, -77.59357452392578, -45.95589065551758, 54.26594924926758, 191.4866180419922, -0.08000000566244125, 0.0, 1.055999994277954, 0.0, 0.0, 0.0, 0.0, 0.0, 1.6214279480151389E9, 2021-05-19 14:39:08.015
8.0, -121.6047134399414, -88.94978332519531, 18.733158111572266, 178.61013793945312, -0.08000000566244125, 0.0, 1.055999994277954, 0.0, 0.0, 0.0, 0.0, 0.0, 1.621427948030897E9, 2021-05-19 14:39:08.030
8.0, -145.1548614501953, -95.8349380493164, 2.314998149871826, 142.41165161132812, -0.08000000566244125, 0.0, 1.055999994277954, 0.0, 0.0, 0.0, 0.0, 0.0, 1.621427948030897E9, 2021-05-19 14:39:08.030
9.0, -111.40226745605469, -53.08039855957031, 36.46402359008789, 182.87362670898438, -0.08000000566244125, 0.0, 1.055999994277954, 0.0, 0.0, 0.0, 0.0, 0.0, 1.6214279480316484E9, 2021-05-19 14:39:08.031
9.0, -98.89604187011719, -57.79267501831055, 41.38947296142578, 178.12020874023438, -0.08000000566244125, 0.0, 1.055999994277954, 0.0, 0.0, 0.0, 0.0, 0.0, 1.6214279480316484E9, 2021-05-19 14:39:08.031
10.0, -128.08596801757812, -71.5031509399414, 20.34879493713379, 182.0396270751953, -0.08000000566244125, 0.0, 1.055999994277954, 0.0, 0.0, 0.0, 0.0, 0.0, 1.6214279480625904E9, 2021-05-19 14:39:08.062
10.0, -130.19900512695312, -117.42911529541016, -1.3688033819198608, 140.7586212158203, -0.08000000566244125, 0.0, 1.055999994277954, 0.0, 0.0, 0.0, 0.0, 0.0, 1.6214279480625904E9, 2021-05-19 14:39:08.062
11.0, -107.69602966308594, -52.92332458496094, 25.06106948852539, 169.68299865722656, -0.08000000566244125, 0.0, 1.055999994277954, 0.0, 0.0, 0.0, 0.0, 0.0, 1.621427948063264E9, 2021-05-19 14:39:08.063
11.0, -83.1136703491211, -46.789886474609375, 41.49045181274414, 185.82815551757812, -0.08000000566244125, 0.0, 1.055999994277954, 0.0, 0.0, 0.0, 0.0, 0.0, 1.621427948063264E9, 2021-05-19 14:39:08.063
12.0, -146.95001220703125, -79.57011413574219, 9.12161636352539, 159.1851043701172, -0.08000000566244125, 0.0, 1.055999994277954, 0.0, 0.0, 0.0, 0.0, 0.0, 1.6214279480639572E9, 2021-05-19 14:39:08.063
12.0, -137.12904357910156, -89.01709747314453, 11.631089210510254, 159.13648986816406, -0.08000000566244125, 0.0, 1.055999994277954, 0.0, 0.0, 0.0, 0.0, 0.0, 1.6214279480639572E9, 2021-05-19 14:39:08.063
13.0, -107.4678955078125, -65.66142272949219, 32.6306266784668, 190.27114868164062, -0.08000000566244125, 0.0, 1.055999994277954, 0.0, 0.0, 0.0, 0.0, 0.0, 1.6214279480646937E9, 2021-05-19 14:39:08.064
13.0, -109.8165512084961, -48.64113998413086, 32.07712173461914, 204.50146484375, -0.08000000566244125, 0.0, 1.055999994277954, 0.0, 0.0, 0.0, 0.0, 0.0, 1.6214279480646937E9, 2021-05-19 14:39:08.064
14.0, -122.2816390991211, -78.44440460205078, 18.30681037902832, 166.84815979003906, -0.08000000566244125, 0.0, 1.055999994277954, 0.0, 0.0, 0.0, 0.0, 0.0, 1.6214279480754073E9, 2021-05-19 14:39:08.075
14.0, -132.92166137695312, -98.69222259521484, -9.858376502990723, 145.9234161376953, -0.08000000566244125, 0.0, 1.055999994277954, 0.0, 0.0, 0.0, 0.0, 0.0, 1.6214279480754073E9, 2021-05-19 14:39:08.075
15.0, -105.1155014038086, -43.67829132080078, 26.859960556030273, 190.5890350341797, -0.08000000566244125, 0.0, 1.055999994277954, 0.0, 0.0, 0.0, 0.0, 0.0, 1.6214279480761044E9, 2021-05-19 14:39:08.076
15.0, -112.22504425048828, -62.32543182373047, 25.876367568969727, 187.13711547851562, -0.08000000566244125, 0.0, 1.055999994277954, 0.0, 0.0, 0.0, 0.0, 0.0, 1.6214279480761044E9, 2021-05-19 14:39:08.076
16.0, -120.08631896972656, -71.17777252197266, 14.458453178405762, 170.5880584716797, -0.08000000566244125, 0.0, 1.055999994277954, 0.0, 0.0, 0.0, 0.0, 0.0, 1.621427948089718E9, 2021-05-19 14:39:08.089
16.0, -140.42388916015625, -105.95136260986328, -10.093990325927734, 161.2757110595703, -0.08000000566244125, 0.0, 1.055999994277954, 0.0, 0.0, 0.0, 0.0, 0.0, 1.621427948089718E9, 2021-05-19 14:39:08.089
17.0, -120.19103240966797, -71.14411926269531, 26.972158432006836, 167.49142456054688, -0.08000000566244125, 0.0, 1.055999994277954, 0.0, 0.0, 0.0, 0.0, 0.0, 1.6214279481054926E9, 2021-05-19 14:39:08.105
17.0, -101.48405456542969, -57.6655158996582, 34.018131256103516, 178.16510009765625, -0.08000000566244125, 0.0, 1.055999994277954, 0.0, 0.0, 0.0, 0.0, 0.0, 1.6214279481054926E9, 2021-05-19 14:39:08.105
18.0, -118.26872253417969, -96.73625183105469, 15.36724853515625, 155.755615234375, -0.08000000566244125, 0.0, 1.055999994277954, 0.0, 0.0, 0.0, 0.0, 0.0, 1.6214279481061459E9, 2021-05-19 14:39:08.106
18.0, -117.27017211914062, -62.748043060302734, 9.046817779541016, 134.3895721435547, -0.08000000566244125, 0.0, 1.055999994277954, 0.0, 0.0, 0.0, 0.0, 0.0, 1.6214279481061459E9, 2021-05-19 14:39:08.106
19.0, -110.98714447021484, -72.62137603759766, 19.73919105529785, 173.40420532226562, -0.08000000566244125, 0.0, 1.055999994277954, 0.0, 0.0, 0.0, 0.0, 0.0, 1.6214279481197565E9, 2021-05-19 14:39:08.119
19.0, -124.33858489990234, -31.691911697387695, 32.11825942993164, 205.14846801757812, -0.08000000566244125, 0.0, 1.055999994277954, 0.0, 0.0, 0.0, 0.0, 0.0, 1.6214279481197565E9, 2021-05-19 14:39:08.119
20.0, -119.05036163330078, -91.74348449707031, 14.005925178527832, 172.72354125976562, -0.08000000566244125, 0.0, 1.055999994277954, 0.0, 0.0, 0.0, 0.0, 0.0, 1.62142794813547E9, 2021-05-19 14:39:08.135
20.0, -136.36610412597656, -90.93940734863281, -1.387502908706665, 150.1607208251953, -0.08000000566244125, 0.0, 1.055999994277954, 0.0, 0.0, 0.0, 0.0, 0.0, 1.62142794813547E9, 2021-05-19 14:39:08.135
21.0, -122.82766723632812, -75.08222961425781, 25.016191482543945, 179.4029998779297, -0.08000000566244125, 0.0, 1.055999994277954, 0.0, 0.0, 0.0, 0.0, 0.0, 1.6214279481361775E9, 2021-05-19 14:39:08.136
21.0, -100.07785034179688, -59.04180145263672, 38.18437957763672, 178.87193298339844, -0.08000000566244125, 0.0, 1.055999994277954, 0.0, 0.0, 0.0, 0.0, 0.0, 1.6214279481361775E9, 2021-05-19 14:39:08.136
22.0, -111.00958251953125, -74.89897918701172, 20.883602142333984, 160.70350646972656, -0.08000000566244125, 0.0, 1.055999994277954, 0.0, 0.0, 0.0, 0.0, 0.0, 1.6214279481496997E9, 2021-05-19 14:39:08.149
22.0, -127.94758605957031, -90.05305480957031, 4.876829624176025, 185.9852294921875, -0.08000000566244125, 0.0, 1.055999994277954, 0.0, 0.0, 0.0, 0.0, 0.0, 1.6214279481496997E9, 2021-05-19 14:39:08.149
23.0, -115.67323303222656, -128.8732147216797, 26.280277252197266, 187.974853515625, -0.08000000566244125, 0.0, 1.055999994277954, 0.0, 0.0, 0.0, 0.0, 0.0, 1.6214279481654873E9, 2021-05-19 14:39:08.165
23.0, -98.19293975830078, -70.81500244140625, 37.974945068359375, 187.41012573242188, -0.08000000566244125, 0.0, 1.055999994277954, 0.0, 0.0, 0.0, 0.0, 0.0, 1.6214279481654873E9, 2021-05-19 14:39:08.165
24.0, -124.29370880126953, -58.74260711669922, 6.1334357261657715, 149.6932373046875, -0.08000000566244125, 0.0, 1.055999994277954, 0.0, 0.0, 0.0, 0.0, 0.0, 1.6214279481661472E9, 2021-05-19 14:39:08.166
24.0, -123.84491729736328, -71.6041259765625, 2.3037784099578857, 143.1671142578125, -0.08000000566244125, 0.0, 1.055999994277954, 0.0, 0.0, 0.0, 0.0, 0.0, 1.6214279481661472E9, 2021-05-19 14:39:08.166
25.0, -119.10272216796875, -76.79136657714844, 12.999892234802246, 176.5270233154297, -0.08000000566244125, 0.0, 1.055999994277954, 0.0, 0.0, 0.0, 0.0, 0.0, 1.6214279481797552E9, 2021-05-19 14:39:08.179
25.0, -99.71134185791016, -48.1175537109375, 37.13720703125, 185.47659301757812, -0.08000000566244125, 0.0, 1.055999994277954, 0.0, 0.0, 0.0, 0.0, 0.0, 1.6214279481797552E9, 2021-05-19 14:39:08.179
26.0, -125.53535461425781, -69.78652954101562, 15.0680570602417, 152.56173706054688, -0.08000000566244125, 0.0, 1.055999994277954, 0.0, 0.0, 0.0, 0.0, 0.0, 1.621427948195132E9, 2021-05-19 14:39:08.195
26.0, -129.82127380371094, -116.82699584960938, 10.598875999450684, 156.24554443359375, -0.08000000566244125, 0.0, 1.055999994277954, 0.0, 0.0, 0.0, 0.0, 0.0, 1.621427948195132E9, 2021-05-19 14:39:08.195
27.0, -114.50264739990234, -36.57248306274414, 19.492359161376953, 141.8917999267578, -0.08000000566244125, 0.0, 1.055999994277954, 0.0, 0.0, 0.0, 0.0, 0.0, 1.6214279482103968E9, 2021-05-19 14:39:08.210
27.0, -96.91764068603516, -47.14143753051758, 35.626285552978516, 183.84974670410156, -0.08000000566244125, 0.0, 1.055999994277954, 0.0, 0.0, 0.0, 0.0, 0.0, 1.6214279482103968E9, 2021-05-19 14:39:08.210
28.0, -121.27934265136719, -63.85879135131836, 17.29703712463379, 174.25315856933594, -0.08000000566244125, 0.0, 1.055999994277954, 0.0, 0.0, 0.0, 0.0, 0.0, 1.6214279482111323E9, 2021-05-19 14:39:08.211
28.0, -121.95626831054688, -135.51527404785156, 9.686341285705566, 166.4816436767578, -0.08000000566244125, 0.0, 1.055999994277954, 0.0, 0.0, 0.0, 0.0, 0.0, 1.6214279482111323E9, 2021-05-19 14:39:08.211
29.0, -115.4563217163086, -42.500221252441406, 25.281723022460938, 173.138671875, -0.08000000566244125, 0.0, 1.055999994277954, 0.0, 0.0, 0.0, 0.0, 0.0, 1.6214279482253835E9, 2021-05-19 14:39:08.225
29.0, -104.04962921142578, -41.2810173034668, 37.387779235839844, 182.5557403564453, -0.08000000566244125, 0.0, 1.055999994277954, 0.0, 0.0, 0.0, 0.0, 0.0, 1.6214279482253835E9, 2021-05-19 14:39:08.225
30.0, -122.80522155761719, -66.90680694580078, 7.498499393463135, 150.10462951660156, -0.08000000566244125, 0.0, 1.040000081062317, 0.0, 0.0, 0.0, 0.0, 0.0, 1.621427948226088E9, 2021-05-19 14:39:08.226
30.0, -136.42593383789062, -111.90155029296875, -1.712874174118042, 171.190185546875, -0.08000000566244125, 0.0, 1.040000081062317, 0.0, 0.0, 0.0, 0.0, 0.0, 1.621427948226088E9, 2021-05-19 14:39:08.226
31.0, -114.60736083984375, -82.23666381835938, 11.2944974899292, 181.22433471679688, -0.08000000566244125, 0.0, 1.040000081062317, 0.0, 0.0, 0.0, 0.0, 0.0, 1.6214279482397964E9, 2021-05-19 14:39:08.239
31.0, -101.065185546875, -34.22008514404297, 21.97939109802246, 180.78675842285156, -0.08000000566244125, 0.0, 1.040000081062317, 0.0, 0.0, 0.0, 0.0, 0.0, 1.6214279482397964E9, 2021-05-19 14:39:08.239
32.0, -119.47671508789062, -62.64332580566406, 10.475460052490234, 152.59913635253906, -0.08000000566244125, 0.0, 1.040000081062317, 0.0, 0.0, 0.0, 0.0, 0.0, 1.6214279482550871E9, 2021-05-19 14:39:08.255
32.0, -129.52207946777344, -93.71441650390625, 1.0770912170410156, 160.98773193359375, -0.08000000566244125, 0.0, 1.040000081062317, 0.0, 0.0, 0.0, 0.0, 0.0, 1.6214279482550871E9, 2021-05-19 14:39:08.255
33.0, -112.91319274902344, -56.23687744140625, 11.61238956451416, 174.26063537597656, -0.08000000566244125, 0.0, 1.040000081062317, 0.0, 0.0, 0.0, 0.0, 0.0, 1.6214279482709465E9, 2021-05-19 14:39:08.270
33.0, -91.569580078125, -37.832828521728516, 31.733051300048828, 177.88833618164062, -0.08000000566244125, 0.0, 1.040000081062317, 0.0, 0.0, 0.0, 0.0, 0.0, 1.6214279482709465E9, 2021-05-19 14:39:08.270
34.0, -128.21311950683594, -71.39095306396484, 5.692127704620361, 158.69517517089844, -0.08000000566244125, 0.0, 1.040000081062317, 0.0, 0.0, 0.0, 0.0, 0.0, 1.621427948286164E9, 2021-05-19 14:39:08.286
34.0, -132.11009216308594, -112.2343978881836, 3.9493343830108643, 153.87445068359375, -0.08000000566244125, 0.0, 1.040000081062317, 0.0, 0.0, 0.0, 0.0, 0.0, 1.621427948286164E9, 2021-05-19 14:39:08.286
35.0, -109.5173568725586, -44.093421936035156, 24.451465606689453, 204.87545776367188, -0.08000000566244125, 0.0, 1.040000081062317, 0.0, 0.0, 0.0, 0.0, 0.0, 1.621427948286881E9, 2021-05-19 14:39:08.286
35.0, -93.95189666748047, -26.82256317138672, 31.56849479675293, 183.88340759277344, -0.08000000566244125, 0.0, 1.040000081062317, 0.0, 0.0, 0.0, 0.0, 0.0, 1.621427948286881E9, 2021-05-19 14:39:08.286
36.0, -117.77880096435547, -96.96438598632812, 3.8446171283721924, 136.05381774902344, -0.08000000566244125, 0.0, 1.040000081062317, 0.0, 0.0, 0.0, 0.0, 0.0, 1.6214279482875748E9, 2021-05-19 14:39:08.287
36.0, -125.18379974365234, -83.88595581054688, 2.4271950721740723, 147.15383911132812, -0.08000000566244125, 0.0, 1.040000081062317, 0.0, 0.0, 0.0, 0.0, 0.0, 1.6214279482875748E9, 2021-05-19 14:39:08.287
37.0, -105.60916137695312, -59.64766311645508, 29.036582946777344, 177.18524169921875, -0.08000000566244125, 0.0, 1.040000081062317, 0.0, 0.0, 0.0, 0.0, 0.0, 1.6214279483167734E9, 2021-05-19 14:39:08.316
37.0, -92.45594024658203, -46.05312728881836, 42.417945861816406, 213.34632873535156, -0.08000000566244125, 0.0, 1.040000081062317, 0.0, 0.0, 0.0, 0.0, 0.0, 1.6214279483167734E9, 2021-05-19 14:39:08.316
38.0, -115.7181167602539, -81.08850860595703, 17.65606689453125, 149.4501495361328, -0.08000000566244125, 0.0, 1.040000081062317, 0.0, 0.0, 0.0, 0.0, 0.0, 1.621427948317442E9, 2021-05-19 14:39:08.317
38.0, -123.17173767089844, -97.57398986816406, 5.744486331939697, 146.86961364746094, -0.08000000566244125, 0.0, 1.040000081062317, 0.0, 0.0, 0.0, 0.0, 0.0, 1.621427948317442E9, 2021-05-19 14:39:08.317
39.0, -103.36896514892578, -67.68844604492188, 26.549549102783203, 188.38624572753906, -0.08000000566244125, 0.0, 1.040000081062317, 0.0, 0.0, 0.0, 0.0, 0.0, 1.6214279483181753E9, 2021-05-19 14:39:08.318
39.0, -89.66596984863281, -50.466209411621094, 41.52410888671875, 228.328369140625, -0.08000000566244125, 0.0, 1.040000081062317, 0.0, 0.0, 0.0, 0.0, 0.0, 1.6214279483181753E9, 2021-05-19 14:39:08.318
40.0, -120.90909576416016, -85.93916320800781, 8.915921211242676, 149.58103942871094, -0.08000000566244125, 0.0, 1.040000081062317, 0.0, 0.0, 0.0, 0.0, 0.0, 1.6214279483297648E9, 2021-05-19 14:39:08.329
40.0, -126.63114166259766, -101.66544342041016, -2.7563061714172363, 146.49188232421875, -0.08000000566244125, 0.0, 1.040000081062317, 0.0, 0.0, 0.0, 0.0, 0.0, 1.6214279483297648E9, 2021-05-19 14:39:08.329
41.0, -103.42506408691406, -54.10887145996094, 21.21271324157715, 193.33412170410156, -0.08000000566244125, 0.0, 1.040000081062317, 0.0, 0.0, 0.0, 0.0, 0.0, 1.6214279483454497E9, 2021-05-19 14:39:08.345
41.0, -94.00051879882812, -69.10587310791016, 41.075321197509766, 224.02748107910156, -0.08000000566244125, 0.0, 1.040000081062317, 0.0, 0.0, 0.0, 0.0, 0.0, 1.6214279483454497E9, 2021-05-19 14:39:08.345
42.0, -116.41747283935547, -76.12566375732422, 7.756552696228027, 145.77008056640625, -0.08000000566244125, 0.0, 1.040000081062317, 0.0, 0.0, 0.0, 0.0, 0.0, 1.6214279483462229E9, 2021-05-19 14:39:08.346
42.0, -123.01840209960938, -93.48253631591797, 3.6800615787506104, 134.10906982421875, -0.08000000566244125, 0.0, 1.040000081062317, 0.0, 0.0, 0.0, 0.0, 0.0, 1.6214279483462229E9, 2021-05-19 14:39:08.346
43.0, -101.1661605834961, -68.93757629394531, 26.669225692749023, 170.9283905029297, -0.08000000566244125, 0.0, 1.040000081062317, 0.0, 0.0, 0.0, 0.0, 0.0, 1.6214279483597603E9, 2021-05-19 14:39:08.359
43.0, -86.28136444091797, -39.485862731933594, 37.428916931152344, 185.5663604736328, -0.08000000566244125, 0.0, 1.040000081062317, 0.0, 0.0, 0.0, 0.0, 0.0, 1.6214279483597603E9, 2021-05-19 14:39:08.359
44.0, -109.60711669921875, -88.80018615722656, 20.311397552490234, 162.1844940185547, -0.08000000566244125, 0.0, 1.040000081062317, 0.0, 0.0, 0.0, 0.0, 0.0, 1.6214279483758507E9, 2021-05-19 14:39:08.375
44.0, -122.08342742919922, -133.08807373046875, 5.60984992980957, 164.72763061523438, -0.08000000566244125, 0.0, 1.040000081062317, 0.0, 0.0, 0.0, 0.0, 0.0, 1.6214279483758507E9, 2021-05-19 14:39:08.375
45.0, -103.02863311767578, -58.8286247253418, 22.95550537109375, 168.62086486816406, -0.08000000566244125, 0.0, 1.040000081062317, 0.0, 0.0, 0.0, 0.0, 0.0, 1.6214279483905528E9, 2021-05-19 14:39:08.390
45.0, -88.37196350097656, -49.17594528198242, 42.66477966308594, 183.6178741455078, -0.08000000566244125, 0.0, 1.040000081062317, 0.0, 0.0, 0.0, 0.0, 0.0, 1.6214279483905528E9, 2021-05-19 14:39:08.390
46.0, -112.41204071044922, -71.83973693847656, 11.122462272644043, 158.54931640625, -0.08000000566244125, 0.0, 1.040000081062317, 0.0, 0.0, 0.0, 0.0, 0.0, 1.6214279483911269E9, 2021-05-19 14:39:08.391
46.0, -127.37164306640625, -91.92300415039062, -3.291111946105957, 154.83934020996094, -0.08000000566244125, 0.0, 1.040000081062317, 0.0, 0.0, 0.0, 0.0, 0.0, 1.6214279483911269E9, 2021-05-19 14:39:08.391
47.0, -103.64197540283203, -60.53028106689453, 24.309349060058594, 181.3103485107422, -0.08000000566244125, 0.0, 1.040000081062317, 0.0, 0.0, 0.0, 0.0, 0.0, 1.62142794840552E9, 2021-05-19 14:39:08.405
47.0, -85.64183807373047, -48.947811126708984, 46.845985412597656, 190.63018798828125, -0.08000000566244125, 0.0, 1.040000081062317, 0.0, 0.0, 0.0, 0.0, 0.0, 1.62142794840552E9, 2021-05-19 14:39:08.405
48.0, -105.41094970703125, -90.5766372680664, 18.957551956176758, 171.1864471435547, -0.08000000566244125, 0.0, 1.040000081062317, 0.0, 0.0, 0.0, 0.0, 0.0, 1.621427948406216E9, 2021-05-19 14:39:08.406
48.0, -124.72753143310547, -99.03629302978516, 4.865609645843506, 177.7013397216797, -0.08000000566244125, 0.0, 1.040000081062317, 0.0, 0.0, 0.0, 0.0, 0.0, 1.621427948406216E9, 2021-05-19 14:39:08.406
49.0, -105.5418472290039, -64.52449035644531, 21.107995986938477, 156.82896423339844, -0.08000000566244125, 0.0, 1.040000081062317, 0.0, 0.0, 0.0, 0.0, 0.0, 1.6214279484368072E9, 2021-05-19 14:39:08.436
49.0, -86.49827575683594, -59.38212966918945, 41.28475570678711, 183.08306884765625, -0.08000000566244125, 0.0, 1.040000081062317, 0.0, 0.0, 0.0, 0.0, 0.0, 1.6214279484368072E9, 2021-05-19 14:39:08.436
50.0, -114.33061218261719, -88.85628509521484, 10.654974937438965, 167.5400390625, -0.08000000566244125, 0.0, 1.040000081062317, 0.0, 0.0, 0.0, 0.0, 0.0, 1.621427948437554E9, 2021-05-19 14:39:08.437
50.0, -130.068115234375, -99.6084976196289, -3.6800615787506104, 145.10812377929688, -0.08000000566244125, 0.0, 1.040000081062317, 0.0, 0.0, 0.0, 0.0, 0.0, 1.621427948437554E9, 2021-05-19 14:39:08.437
51.0, -98.3313217163086, -68.1484603881836, 25.771650314331055, 182.1967010498047, -0.08000000566244125, 0.0, 1.040000081062317, 0.0, 0.0, 0.0, 0.0, 0.0, 1.6214279484383395E9, 2021-05-19 14:39:08.438
51.0, -84.70686340332031, -52.672752380371094, 36.673458099365234, 195.2601776123047, -0.08000000566244125, 0.0, 1.040000081062317, 0.0, 0.0, 0.0, 0.0, 0.0, 1.6214279484383395E9, 2021-05-19 14:39:08.438
52.0, -113.02164459228516, -102.27130126953125, 10.011712074279785, 170.4309844970703, -0.08000000566244125, 0.0, 1.040000081062317, 0.0, 0.0, 0.0, 0.0, 0.0, 1.6214279484497254E9, 2021-05-19 14:39:08.449
52.0, -122.5434341430664, -107.10699462890625, -0.4001692831516266, 142.78564453125, -0.08000000566244125, 0.0, 1.040000081062317, 0.0, 0.0, 0.0, 0.0, 0.0, 1.6214279484497254E9, 2021-05-19 14:39:08.449
53.0, -105.1192398071289, -69.46864318847656, 20.83124351501465, 178.71859741210938, -0.08000000566244125, 0.0, 1.040000081062317, 0.0, 0.0, 0.0, 0.0, 0.0, 1.6214279484653862E9, 2021-05-19 14:39:08.465
53.0, -93.72376251220703, -62.19453811645508, 28.987964630126953, 177.14784240722656, -0.08000000566244125, 0.0, 1.040000081062317, 0.0, 0.0, 0.0, 0.0, 0.0, 1.6214279484653862E9, 2021-05-19 14:39:08.465
54.0, -113.47417449951172, -92.81683349609375, 9.914474487304688, 148.6273651123047, -0.08000000566244125, 0.0, 1.040000081062317, 0.0, 0.0, 0.0, 0.0, 0.0, 1.6214279484660935E9, 2021-05-19 14:39:08.466
54.0, -128.78158569335938, -104.50028228759766, -6.701900482177734, 142.45652770996094, -0.08000000566244125, 0.0, 1.040000081062317, 0.0, 0.0, 0.0, 0.0, 0.0, 1.6214279484660935E9, 2021-05-19 14:39:08.466
55.0, -104.18426513671875, -61.95144271850586, 20.509611129760742, 171.26498413085938, -0.08000000566244125, 0.0, 1.040000081062317, 0.0, 0.0, 0.0, 0.0, 0.0, 1.621427948497533E9, 2021-05-19 14:39:08.497
55.0, -92.7364273071289, -62.5012092590332, 33.767555236816406, 183.0120086669922, -0.08000000566244125, 0.0, 1.040000081062317, 0.0, 0.0, 0.0, 0.0, 0.0, 1.621427948497533E9, 2021-05-19 14:39:08.497
56.0, -113.92670440673828, -92.89537811279297, 14.252758979797363, 155.00389099121094, -0.08000000566244125, 0.0, 1.040000081062317, 0.0, 0.0, 0.0, 0.0, 0.0, 1.6214279484981792E9, 2021-05-19 14:39:08.498
56.0, -133.14979553222656, -92.69715881347656, 2.8460638523101807, 140.79226684570312, -0.08000000566244125, 0.0, 1.040000081062317, 0.0, 0.0, 0.0, 0.0, 0.0, 1.6214279484981792E9, 2021-05-19 14:39:08.498
57.0, -104.62183380126953, -70.119384765625, 19.095930099487305, 168.2992401123047, -0.08000000566244125, 0.0, 1.040000081062317, 0.0, 0.0, 0.0, 0.0, 0.0, 1.6214279484989543E9, 2021-05-19 14:39:08.498
57.0, -91.39380645751953, -65.44824981689453, 26.650527954101562, 182.6305389404297, -0.08000000566244125, 0.0, 1.040000081062317, 0.0, 0.0, 0.0, 0.0, 0.0, 1.6214279484989543E9, 2021-05-19 14:39:08.498
58.0, -117.7077407836914, -98.19481658935547, 3.8408772945404053, 149.89892578125, -0.08000000566244125, 0.0, 1.040000081062317, 0.0, 0.0, 0.0, 0.0, 0.0, 1.6214279485097148E9, 2021-05-19 14:39:08.509
58.0, -123.05580139160156, -105.47639465332031, -8.2427396774292, 140.3584442138672, -0.08000000566244125, 0.0, 1.040000081062317, 0.0, 0.0, 0.0, 0.0, 0.0, 1.6214279485097148E9, 2021-05-19 14:39:08.509
59.0, -99.4158935546875, -68.38407135009766, 23.722185134887695, 172.76841735839844, -0.08000000566244125, 0.0, 1.040000081062317, 0.0, 0.0, 0.0, 0.0, 0.0, 1.6214279485424533E9, 2021-05-19 14:39:08.542
59.0, -88.50659942626953, -65.50808715820312, 30.831735610961914, 181.21685791015625, -0.08000000566244125, 0.0, 1.040000081062317, 0.0, 0.0, 0.0, 0.0, 0.0, 1.6214279485424533E9, 2021-05-19 14:39:08.542
60.0, -110.18680572509766, -92.35308837890625, 9.690080642700195, 156.57464599609375, -0.08000000566244125, 0.0, 1.055999994277954, 0.0, 0.0, 0.0, 0.0, 0.0, 1.6214279485431948E9, 2021-05-19 14:39:08.543
60.0, -128.3253173828125, -93.87896728515625, 0.3964293897151947, 146.11415100097656, -0.08000000566244125, 0.0, 1.055999994277954, 0.0, 0.0, 0.0, 0.0, 0.0, 1.6214279485431948E9, 2021-05-19 14:39:08.543
61.0, -106.90691375732422, -77.78617858886719, 17.491512298583984, 162.39019775390625, -0.08000000566244125, 0.0, 1.055999994277954, 0.0, 0.0, 0.0, 0.0, 0.0, 1.6214279485439572E9, 2021-05-19 14:39:08.543
61.0, -90.07736206054688, -54.56513977050781, 32.2080192565918, 175.94358825683594, -0.08000000566244125, 0.0, 1.055999994277954, 0.0, 0.0, 0.0, 0.0, 0.0, 1.6214279485439572E9, 2021-05-19 14:39:08.543
62.0, -120.0788345336914, -93.50872039794922, 8.283878326416016, 151.4248046875, -0.08000000566244125, 0.0, 1.055999994277954, 0.0, 0.0, 0.0, 0.0, 0.0, 1.6214279485446768E9, 2021-05-19 14:39:08.544
62.0, -134.17825317382812, -98.47904205322266, -3.6090035438537598, 143.4513397216797, -0.08000000566244125, 0.0, 1.055999994277954, 0.0, 0.0, 0.0, 0.0, 0.0, 1.6214279485446768E9, 2021-05-19 14:39:08.544
63.0, -108.107421875, -71.53306579589844, 18.42648696899414, 169.8251190185547, -0.08000000566244125, 0.0, 1.055999994277954, 0.0, 0.0, 0.0, 0.0, 0.0, 1.6214279485547335E9, 2021-05-19 14:39:08.554
63.0, -99.62158203125, -54.36318588256836, 29.78082275390625, 189.11178588867188, -0.08000000566244125, 0.0, 1.055999994277954, 0.0, 0.0, 0.0, 0.0, 0.0, 1.6214279485547335E9, 2021-05-19 14:39:08.554
64.0, -124.28622436523438, -97.03170776367188, 8.67282772064209, 143.98240661621094, -0.08000000566244125, 0.0, 1.055999994277954, 0.0, 0.0, 0.0, 0.0, 0.0, 1.6214279485698388E9, 2021-05-19 14:39:08.569
64.0, -130.7338104248047, -100.69680786132812, -5.579930782318115, 135.29087829589844, -0.08000000566244125, 0.0, 1.055999994277954, 0.0, 0.0, 0.0, 0.0, 0.0, 1.6214279485698388E9, 2021-05-19 14:39:08.569
65.0, -103.57466125488281, -63.52968215942383, 20.947179794311523, 169.17811584472656, -0.08000000566244125, 0.0, 1.055999994277954, 0.0, 0.0, 0.0, 0.0, 0.0, 1.6214279485853765E9, 2021-05-19 14:39:08.585
65.0, -81.81966400146484, -56.40517044067383, 39.70651626586914, 187.64199829101562, -0.08000000566244125, 0.0, 1.055999994277954, 0.0, 0.0, 0.0, 0.0, 0.0, 1.6214279485853765E9, 2021-05-19 14:39:08.585
66.0, -106.82463073730469, -88.84132385253906, 22.031749725341797, 160.44918823242188, -0.08000000566244125, 0.0, 1.055999994277954, 0.0, 0.0, 0.0, 0.0, 0.0, 1.6214279485861228E9, 2021-05-19 14:39:08.586
66.0, -114.29695129394531, -109.24995422363281, 1.6268564462661743, 146.99302673339844, -0.08000000566244125, 0.0, 1.055999994277954, 0.0, 0.0, 0.0, 0.0, 0.0, 1.6214279485861228E9, 2021-05-19 14:39:08.586
67.0, -95.77323150634766, -77.20649719238281, 21.609142303466797, 173.1349334716797, -0.08000000566244125, 0.0, 1.055999994277954, 0.0, 0.0, 0.0, 0.0, 0.0, 1.6214279486160998E9, 2021-05-19 14:39:08.616
67.0, -82.78455352783203, -69.21432495117188, 35.88433837890625, 173.79689025878906, -0.08000000566244125, 0.0, 1.055999994277954, 0.0, 0.0, 0.0, 0.0, 0.0, 1.6214279486160998E9, 2021-05-19 14:39:08.616
68.0, -107.07146453857422, -111.87162780761719, 2.0532050132751465, 150.25796508789062, -0.08000000566244125, 0.0, 1.055999994277954, 0.0, 0.0, 0.0, 0.0, 0.0, 1.6214279486168373E9, 2021-05-19 14:39:08.616
68.0, -115.9425048828125, -108.99938201904297, 5.041385173797607, 148.10003662109375, -0.08000000566244125, 0.0, 1.055999994277954, 0.0, 0.0, 0.0, 0.0, 0.0, 1.6214279486168373E9, 2021-05-19 14:39:08.616
69.0, -93.59660339355469, -74.33051300048828, 23.36689567565918, 171.74368286132812, -0.08000000566244125, 0.0, 1.055999994277954, 0.0, 0.0, 0.0, 0.0, 0.0, 1.621427948617576E9, 2021-05-19 14:39:08.617
69.0, -61.60550308227539, -42.941532135009766, 58.61545181274414, 202.05557250976562, -0.08000000566244125, 0.0, 1.055999994277954, 0.0, 0.0, 0.0, 0.0, 0.0, 1.621427948617576E9, 2021-05-19 14:39:08.617
70.0, -89.85296630859375, -70.04458618164062, 34.71001052856445, 177.8023223876953, -0.08000000566244125, 0.0, 1.040000081062317, 0.0, 0.0, 0.0, 0.0, 0.0, 1.6214279486296916E9, 2021-05-19 14:39:08.629
70.0, -114.47272491455078, -81.7990951538086, 13.082170486450195, 158.57923889160156, -0.08000000566244125, 0.0, 1.040000081062317, 0.0, 0.0, 0.0, 0.0, 0.0, 1.6214279486296916E9, 2021-05-19 14:39:08.629
71.0, -106.89942932128906, -57.530879974365234, 38.67804718017578, 180.2556915283203, -0.08000000566244125, 0.0, 1.040000081062317, 0.0, 0.0, 0.0, 0.0, 0.0, 1.6214279486453953E9, 2021-05-19 14:39:08.645
71.0, -89.69963073730469, -53.200077056884766, 47.130218505859375, 186.74069213867188, -0.08000000566244125, 0.0, 1.040000081062317, 0.0, 0.0, 0.0, 0.0, 0.0, 1.6214279486453953E9, 2021-05-19 14:39:08.645
72.0, -115.34412384033203, -87.09478759765625, 23.93910026550293, 156.86636352539062, -0.08000000566244125, 0.0, 1.040000081062317, 0.0, 0.0, 0.0, 0.0, 0.0, 1.6214279486461024E9, 2021-05-19 14:39:08.646
72.0, -123.41857147216797, -88.03724670410156, 17.577529907226562, 154.1885986328125, -0.08000000566244125, 0.0, 1.040000081062317, 0.0, 0.0, 0.0, 0.0, 0.0, 1.6214279486461024E9, 2021-05-19 14:39:08.646
73.0, -109.12093353271484, -60.21986770629883, 30.158554077148438, 169.5296630859375, -0.08000000566244125, 0.0, 1.040000081062317, 0.0, 0.0, 0.0, 0.0, 0.0, 1.6214279486931968E9, 2021-05-19 14:39:08.693
73.0, -86.79747009277344, -45.06205368041992, 46.142887115478516, 182.8773651123047, -0.08000000566244125, 0.0, 1.040000081062317, 0.0, 0.0, 0.0, 0.0, 0.0, 1.6214279486931968E9, 2021-05-19 14:39:08.693
74.0, -107.16122436523438, -78.02178955078125, 24.331789016723633, 159.7311248779297, -0.08000000566244125, 0.0, 1.040000081062317, 0.0, 0.0, 0.0, 0.0, 0.0, 1.6214279486938508E9, 2021-05-19 14:39:08.693
74.0, -122.93985748291016, -87.16958618164062, 11.242138862609863, 147.64002990722656, -0.08000000566244125, 0.0, 1.040000081062317, 0.0, 0.0, 0.0, 0.0, 0.0, 1.6214279486938508E9, 2021-05-19 14:39:08.693
75.0, -98.38367462158203, -59.33351135253906, 30.09123420715332, 177.11044311523438, -0.08000000566244125, 0.0, 1.040000081062317, 0.0, 0.0, 0.0, 0.0, 0.0, 1.6214279486946352E9, 2021-05-19 14:39:08.694
75.0, -88.20367431640625, -55.645973205566406, 35.64498519897461, 177.98931884765625, -0.08000000566244125, 0.0, 1.040000081062317, 0.0, 0.0, 0.0, 0.0, 0.0, 1.6214279486946352E9, 2021-05-19 14:39:08.694
76.0, -108.61978149414062, -88.02228546142578, 19.57837677001953, 158.13792419433594, -0.08000000566244125, 0.0, 1.040000081062317, 0.0, 0.0, 0.0, 0.0, 0.0, 1.62142794869533E9, 2021-05-19 14:39:08.695
76.0, -123.11563873291016, -92.31942749023438, 0.7442401051521301, 143.65328979492188, -0.08000000566244125, 0.0, 1.040000081062317, 0.0, 0.0, 0.0, 0.0, 0.0, 1.62142794869533E9, 2021-05-19 14:39:08.695
77.0, -101.60747528076172, -60.32832717895508, 20.457252502441406, 174.33543395996094, -0.08000000566244125, 0.0, 1.040000081062317, 0.0, 0.0, 0.0, 0.0, 0.0, 1.621427948705501E9, 2021-05-19 14:39:08.705
77.0, -89.12368774414062, -50.88134002685547, 40.215145111083984, 189.53065490722656, -0.08000000566244125, 0.0, 1.040000081062317, 0.0, 0.0, 0.0, 0.0, 0.0, 1.621427948705501E9, 2021-05-19 14:39:08.705
78.0, -118.99800872802734, -80.8603744506836, 10.770912170410156, 156.5222930908203, -0.08000000566244125, 0.0, 1.040000081062317, 0.0, 0.0, 0.0, 0.0, 0.0, 1.62142794870621E9, 2021-05-19 14:39:08.706
78.0, -130.67022705078125, -83.86351776123047, -6.989872932434082, 150.3365020751953, -0.08000000566244125, 0.0, 1.040000081062317, 0.0, 0.0, 0.0, 0.0, 0.0, 1.62142794870621E9, 2021-05-19 14:39:08.706
79.0, -104.9023208618164, -60.40312576293945, 16.070350646972656, 173.03021240234375, -0.08000000566244125, 0.0, 1.040000081062317, 0.0, 0.0, 0.0, 0.0, 0.0, 1.6214279487359173E9, 2021-05-19 14:39:08.735
79.0, -90.17833709716797, -29.578868865966797, 40.970603942871094, 191.2696990966797, -0.08000000566244125, 0.0, 1.040000081062317, 0.0, 0.0, 0.0, 0.0, 0.0, 1.6214279487359173E9, 2021-05-19 14:39:08.735
80.0, -110.80388641357422, -61.61485290527344, 23.329496383666992, 168.94998168945312, -0.08000000566244125, 0.0, 1.040000081062317, 0.0, 0.0, 0.0, 0.0, 0.0, 1.6214279487366111E9, 2021-05-19 14:39:08.736
80.0, -111.98943328857422, -75.44499969482422, 21.100515365600586, 157.4984130859375, -0.08000000566244125, 0.0, 1.040000081062317, 0.0, 0.0, 0.0, 0.0, 0.0, 1.6214279487366111E9, 2021-05-19 14:39:08.736
81.0, -95.05890655517578, -32.25663757324219, 38.977237701416016, 183.4832305908203, -0.08000000566244125, 0.0, 1.040000081062317, 0.0, 0.0, 0.0, 0.0, 0.0, 1.6214279487503648E9, 2021-05-19 14:39:08.750
81.0, -81.59900665283203, -36.23588943481445, 51.569480895996094, 183.1017608642578, -0.08000000566244125, 0.0, 1.040000081062317, 0.0, 0.0, 0.0, 0.0, 0.0, 1.6214279487503648E9, 2021-05-19 14:39:08.750
82.0, -104.1580810546875, -90.08296966552734, 35.75718307495117, 165.8533477783203, -0.08000000566244125, 0.0, 1.040000081062317, 0.0, 0.0, 0.0, 0.0, 0.0, 1.621427948751089E9, 2021-05-19 14:39:08.751
82.0, -126.64236450195312, -98.11253356933594, 6.376529216766357, 139.4309539794922, -0.08000000566244125, 0.0, 1.040000081062317, 0.0, 0.0, 0.0, 0.0, 0.0, 1.621427948751089E9, 2021-05-19 14:39:08.751
83.0, -93.20765686035156, -46.90208435058594, 39.50456237792969, 179.08511352539062, -0.08000000566244125, 0.0, 1.040000081062317, 0.0, 0.0, 0.0, 0.0, 0.0, 1.6214279487653685E9, 2021-05-19 14:39:08.765
83.0, -76.58380126953125, -28.531696319580078, 53.79098129272461, 193.20323181152344, -0.08000000566244125, 0.0, 1.040000081062317, 0.0, 0.0, 0.0, 0.0, 0.0, 1.6214279487653685E9, 2021-05-19 14:39:08.765
84.0, -103.98230743408203, -101.82625579833984, 21.983131408691406, 158.61663818359375, -0.08000000566244125, 0.0, 1.040000081062317, 0.0, 0.0, 0.0, 0.0, 0.0, 1.6214279487661004E9, 2021-05-19 14:39:08.766
84.0, -104.09076690673828, -105.17346954345703, 12.319230079650879, 143.806640625, -0.08000000566244125, 0.0, 1.040000081062317, 0.0, 0.0, 0.0, 0.0, 0.0, 1.6214279487661004E9, 2021-05-19 14:39:08.766
85.0, -77.0325927734375, -57.388763427734375, 34.874568939208984, 181.1046600341797, -0.08000000566244125, 0.0, 1.040000081062317, 0.0, 0.0, 0.0, 0.0, 0.0, 1.6214279487797027E9, 2021-05-19 14:39:08.779
85.0, -106.75731658935547, -71.38346862792969, 36.81183624267578, 182.0807647705078, -0.08000000566244125, 0.0, 1.040000081062317, 0.0, 0.0, 0.0, 0.0, 0.0, 1.6214279487797027E9, 2021-05-19 14:39:08.779
86.0, -108.47393035888672, -91.40689849853516, 16.358322143554688, 151.52578735351562, -0.08000000566244125, 0.0, 1.040000081062317, 0.0, 0.0, 0.0, 0.0, 0.0, 1.621427948795582E9, 2021-05-19 14:39:08.795
86.0, -100.60517883300781, -93.23944854736328, 11.896621704101562, 153.28353881835938, -0.08000000566244125, 0.0, 1.040000081062317, 0.0, 0.0, 0.0, 0.0, 0.0, 1.621427948795582E9, 2021-05-19 14:39:08.795
87.0, -126.87797546386719, -69.54718017578125, 10.853189468383789, 166.30587768554688, -0.08000000566244125, 0.0, 1.040000081062317, 0.0, 0.0, 0.0, 0.0, 0.0, 1.62142794879608E9, 2021-05-19 14:39:08.796
87.0, -97.00365447998047, -69.76782989501953, 34.69131088256836, 185.1400146484375, -0.08000000566244125, 0.0, 1.040000081062317, 0.0, 0.0, 0.0, 0.0, 0.0, 1.62142794879608E9, 2021-05-19 14:39:08.796
88.0, -116.74658966064453, -90.26996612548828, 15.584162712097168, 160.7969970703125, -0.08000000566244125, 0.0, 1.040000081062317, 0.0, 0.0, 0.0, 0.0, 0.0, 1.6214279488098466E9, 2021-05-19 14:39:08.809
88.0, -132.13253784179688, -87.4837417602539, -0.026179298758506775, 137.98361206054688, -0.08000000566244125, 0.0, 1.040000081062317, 0.0, 0.0, 0.0, 0.0, 0.0, 1.6214279488098466E9, 2021-05-19 14:39:08.809
89.0, -105.42591094970703, -65.58662414550781, 21.231412887573242, 179.21226501464844, -0.08000000566244125, 0.0, 1.040000081062317, 0.0, 0.0, 0.0, 0.0, 0.0, 1.621427948825438E9, 2021-05-19 14:39:08.825
89.0, -81.40827178955078, -66.53656005859375, 40.46945571899414, 180.65960693359375, -0.08000000566244125, 0.0, 1.040000081062317, 0.0, 0.0, 0.0, 0.0, 0.0, 1.621427948825438E9, 2021-05-19 14:39:08.825
90.0, -102.41902923583984, -90.06427001953125, 14.757645606994629, 171.68385314941406, -0.08000000566244125, 0.0, 1.040000081062317, 0.0, 0.0, 0.0, 0.0, 0.0, 1.6214279488261924E9, 2021-05-19 14:39:08.826
90.0, -126.55260467529297, -105.97380828857422, 1.3127049207687378, 132.80758666992188, -0.08000000566244125, 0.0, 1.040000081062317, 0.0, 0.0, 0.0, 0.0, 0.0, 1.6214279488261924E9, 2021-05-19 14:39:08.826
91.0, -120.3742904663086, -54.12009048461914, 29.077722549438477, 190.77976989746094, -0.08000000566244125, 0.0, 1.040000081062317, 0.0, 0.0, 0.0, 0.0, 0.0, 1.621427948839813E9, 2021-05-19 14:39:08.839
91.0, -76.6324234008789, -62.067378997802734, 46.10174560546875, 192.4739532470703, -0.08000000566244125, 0.0, 1.040000081062317, 0.0, 0.0, 0.0, 0.0, 0.0, 1.621427948839813E9, 2021-05-19 14:39:08.839
92.0, -106.11031341552734, -103.26985931396484, 6.582223892211914, 157.9060516357422, -0.08000000566244125, 0.0, 1.040000081062317, 0.0, 0.0, 0.0, 0.0, 0.0, 1.6214279488555064E9, 2021-05-19 14:39:08.855
92.0, -126.61992645263672, -119.4411849975586, -3.582824230194092, 150.86756896972656, -0.08000000566244125, 0.0, 1.040000081062317, 0.0, 0.0, 0.0, 0.0, 0.0, 1.6214279488555064E9, 2021-05-19 14:39:08.855
93.0, -105.17160034179688, -66.68989562988281, 26.830041885375977, 182.4173583984375, -0.08000000566244125, 0.0, 1.040000081062317, 0.0, 0.0, 0.0, 0.0, 0.0, 1.6214279488561995E9, 2021-05-19 14:39:08.856
93.0, -81.72990417480469, -56.4388313293457, 43.607234954833984, 197.41810607910156, -0.08000000566244125, 0.0, 1.040000081062317, 0.0, 0.0, 0.0, 0.0, 0.0, 1.6214279488561995E9, 2021-05-19 14:39:08.856
94.0, -128.26173400878906, -95.05703735351562, 8.310057640075684, 144.66307067871094, -0.08000000566244125, 0.0, 1.040000081062317, 0.0, 0.0, 0.0, 0.0, 0.0, 1.6214279488696988E9, 2021-05-19 14:39:08.869
94.0, -141.16439819335938, -137.71807861328125, 7.610696315765381, 151.2639923095703, -0.08000000566244125, 0.0, 1.040000081062317, 0.0, 0.0, 0.0, 0.0, 0.0, 1.6214279488696988E9, 2021-05-19 14:39:08.869
95.0, -50.557838439941406, -68.41773223876953, 43.9625244140625, 200.79522705078125, -0.08000000566244125, 0.0, 1.040000081062317, 0.0, 0.0, 0.0, 0.0, 0.0, 1.621427948885461E9, 2021-05-19 14:39:08.885
95.0, -103.72425842285156, -38.77528381347656, 36.26580810546875, 176.66539001464844, -0.08000000566244125, 0.0, 1.040000081062317, 0.0, 0.0, 0.0, 0.0, 0.0, 1.621427948885461E9, 2021-05-19 14:39:08.885
96.0, -163.83566284179688, -128.8806915283203, 5.45651388168335, 157.35629272460938, -0.08000000566244125, 0.0, 1.040000081062317, 0.0, 0.0, 0.0, 0.0, 0.0, 1.6214279488861372E9, 2021-05-19 14:39:08.886
96.0, -158.5137939453125, -117.78440856933594, -12.56606388092041, 123.28205871582031, -0.08000000566244125, 0.0, 1.040000081062317, 0.0, 0.0, 0.0, 0.0, 0.0, 1.6214279488861372E9, 2021-05-19 14:39:08.886
97.0, -109.58094024658203, -74.16221618652344, 29.54146957397461, 181.98353576660156, -0.08000000566244125, 0.0, 1.040000081062317, 0.0, 0.0, 0.0, 0.0, 0.0, 1.6214279488996985E9, 2021-05-19 14:39:08.899
97.0, -104.98834228515625, -43.61471176147461, 31.456298828125, 158.57923889160156, -0.08000000566244125, 0.0, 1.040000081062317, 0.0, 0.0, 0.0, 0.0, 0.0, 1.6214279488996985E9, 2021-05-19 14:39:08.899
98.0, -90.89266204833984, -103.33717346191406, 38.064701080322266, 181.42628479003906, -0.08000000566244125, 0.0, 1.040000081062317, 0.0, 0.0, 0.0, 0.0, 0.0, 1.6214279489154654E9, 2021-05-19 14:39:08.915
98.0, -151.83058166503906, -110.27842712402344, 1.7577530145645142, 165.91317749023438, -0.08000000566244125, 0.0, 1.040000081062317, 0.0, 0.0, 0.0, 0.0, 0.0, 1.6214279489154654E9, 2021-05-19 14:39:08.915
99.0, -94.77467346191406, -68.38033294677734, 29.960338592529297, 204.9278106689453, -0.08000000566244125, 0.0, 1.040000081062317, 0.0, 0.0, 0.0, 0.0, 0.0, 1.6214279489162228E9, 2021-05-19 14:39:08.916
99.0, -86.82364654541016, -42.593719482421875, 30.30440902709961, 162.8763885498047, -0.08000000566244125, 0.0, 1.040000081062317, 0.0, 0.0, 0.0, 0.0, 0.0, 1.6214279489162228E9, 2021-05-19 14:39:08.916
100.0, -116.2005615234375, -106.14584350585938, 17.48777198791504, 177.82476806640625, -0.08000000566244125, 0.0, 1.055999994277954, 0.0, 0.0, 0.0, 0.0, 0.0, 1.6214279489311104E9, 2021-05-19 14:39:08.931
100.0, -138.09393310546875, -109.93810272216797, -0.4188687801361084, 145.9234161376953, -0.08000000566244125, 0.0, 1.055999994277954, 0.0, 0.0, 0.0, 0.0, 0.0, 1.6214279489311104E9, 2021-05-19 14:39:08.931
0.0, -106.94992065429688, -57.212989807128906, 37.42144012451172, 175.5004119873047, -0.08000000566244125, 0.0, 1.055999994277954, 0.0, 0.0, 0.0, 0.0, 0.0, 1.6214279489318144E9, 2021-05-19 14:39:08.931
1.0, -77.95447540283203, -67.748291015625, 45.619300842285156, 170.30569458007812, -0.08000000566244125, 0.0, 1.055999994277954, 0.0, 0.0, 0.0, 0.0, 0.0, 1.6214279489768808E9, 2021-05-19 14:39:08.976
1.0, -148.90037536621094, -82.3077163696289, 14.67162799835205, 182.0826416015625, -0.08000000566244125, 0.0, 1.055999994277954, 0.0, 0.0, 0.0, 0.0, 0.0, 1.6214279489768808E9, 2021-05-19 14:39:08.976
2.0, -122.93798828125, -90.636474609375, 6.772958755493164, 163.53646850585938, -0.08000000566244125, 0.0, 1.055999994277954, 0.0, 0.0, 0.0, 0.0, 0.0, 1.6214279489775584E9, 2021-05-19 14:39:08.977
2.0, -120.1255874633789, -71.25257110595703, 19.372682571411133, 141.91610717773438, -0.08000000566244125, 0.0, 1.055999994277954, 0.0, 0.0, 0.0, 0.0, 0.0, 1.6214279489775584E9, 2021-05-19 14:39:08.977
3.0, -91.15258026123047, -71.985595703125, 31.415159225463867, 155.7051239013672, -0.08000000566244125, 0.0, 1.055999994277954, 0.0, 0.0, 0.0, 0.0, 0.0, 1.6214279489918015E9, 2021-05-19 14:39:08.991
3.0, -138.3351593017578, -98.93157196044922, 11.197260856628418, 157.60125732421875, -0.08000000566244125, 0.0, 1.055999994277954, 0.0, 0.0, 0.0, 0.0, 0.0, 1.6214279489918015E9, 2021-05-19 14:39:08.991
4.0, -142.00399780273438, -106.94618225097656, -1.2453867197036743, 131.95301818847656, -0.08000000566244125, 0.0, 1.055999994277954, 0.0, 0.0, 0.0, 0.0, 0.0, 1.6214279489925375E9, 2021-05-19 14:39:08.992
4.0, -80.87533569335938, -81.19696807861328, 24.055036544799805, 175.65374755859375, -0.08000000566244125, 0.0, 1.055999994277954, 0.0, 0.0, 0.0, 0.0, 0.0, 1.6214279489925375E9, 2021-05-19 14:39:08.992
5.0, -91.49665069580078, -50.006202697753906, 39.24277114868164, 211.6577606201172, -0.08000000566244125, 0.0, 1.055999994277954, 0.0, 0.0, 0.0, 0.0, 0.0, 1.621427948993354E9, 2021-05-19 14:39:08.993
5.0, -154.0277862548828, -75.4599609375, 0.8414775133132935, 126.23845672607422, -0.08000000566244125, 0.0, 1.055999994277954, 0.0, 0.0, 0.0, 0.0, 0.0, 1.621427948993354E9, 2021-05-19 14:39:08.993
6.0, -143.5336151123047, -89.21531677246094, -10.112689018249512, 117.00837707519531, -0.08000000566244125, 0.0, 1.055999994277954, 0.0, 0.0, 0.0, 0.0, 0.0, 1.6214279489940584E9, 2021-05-19 14:39:08.994
6.0, -121.2662582397461, -66.77965545654297, 23.47909164428711, 194.5514678955078, -0.08000000566244125, 0.0, 1.055999994277954, 0.0, 0.0, 0.0, 0.0, 0.0, 1.6214279489940584E9, 2021-05-19 14:39:08.994
7.0, -99.78427124023438, -68.52618408203125, 29.81074333190918, 165.05860900878906, -0.08000000566244125, 0.0, 1.055999994277954, 0.0, 0.0, 0.0, 0.0, 0.0, 1.6214279490047417E9, 2021-05-19 14:39:09.004
7.0, -127.4146499633789, -79.0914077758789, 19.054790496826172, 162.4145050048828, -0.08000000566244125, 0.0, 1.055999994277954, 0.0, 0.0, 0.0, 0.0, 0.0, 1.6214279490047417E9, 2021-05-19 14:39:09.004
8.0, -144.30404663085938, -100.9959945678711, -0.07105810195207596, 134.5971221923828, -0.08000000566244125, 0.0, 1.055999994277954, 0.0, 0.0, 0.0, 0.0, 0.0, 1.6214279490202284E9, 2021-05-19 14:39:09.020
8.0, -78.34716796875, -71.30119323730469, 29.365694046020508, 200.4866943359375, -0.08000000566244125, 0.0, 1.055999994277954, 0.0, 0.0, 0.0, 0.0, 0.0, 1.6214279490202284E9, 2021-05-19 14:39:09.020
9.0, -117.94896697998047, -106.8526840209961, 35.04660415649414, 199.57789611816406, -0.08000000566244125, 0.0, 1.055999994277954, 0.0, 0.0, 0.0, 0.0, 0.0, 1.6214279490353897E9, 2021-05-19 14:39:09.035
9.0, -117.32066345214844, -81.20819091796875, 11.387995719909668, 153.68931579589844, -0.08000000566244125, 0.0, 1.055999994277954, 0.0, 0.0, 0.0, 0.0, 0.0, 1.6214279490353897E9, 2021-05-19 14:39:09.035
10.0, -118.13970184326172, -93.10106658935547, -4.802031517028809, 126.78447723388672, -0.08000000566244125, 0.0, 1.055999994277954, 0.0, 0.0, 0.0, 0.0, 0.0, 1.6214279490361004E9, 2021-05-19 14:39:09.036
10.0, -125.30908966064453, -74.3978271484375, 10.553997993469238, 160.05462646484375, -0.08000000566244125, 0.0, 1.055999994277954, 0.0, 0.0, 0.0, 0.0, 0.0, 1.6214279490361004E9, 2021-05-19 14:39:09.036
11.0, -110.18492889404297, -47.19005584716797, 32.61566925048828, 209.67562866210938, -0.08000000566244125, 0.0, 1.055999994277954, 0.0, 0.0, 0.0, 0.0, 0.0, 1.6214279490974727E9, 2021-05-19 14:39:09.097
11.0, -81.39144134521484, -113.60694122314453, 6.189534664154053, 141.8114013671875, -0.08000000566244125, 0.0, 1.055999994277954, 0.0, 0.0, 0.0, 0.0, 0.0, 1.6214279490974727E9, 2021-05-19 14:39:09.097
12.0, -136.424072265625, -95.01963806152344, -15.442047119140625, 128.74044799804688, -0.08000000566244125, 0.0, 1.055999994277954, 0.0, 0.0, 0.0, 0.0, 0.0, 1.6214279490981836E9, 2021-05-19 14:39:09.098
12.0, -123.22222137451172, -59.29985427856445, 22.70867347717285, 184.76040649414062, -0.08000000566244125, 0.0, 1.055999994277954, 0.0, 0.0, 0.0, 0.0, 0.0, 1.6214279490981836E9, 2021-05-19 14:39:09.098
13.0, -104.2235336303711, -61.214683532714844, 35.9927978515625, 175.20870971679688, -0.08000000566244125, 0.0, 1.055999994277954, 0.0, 0.0, 0.0, 0.0, 0.0, 1.62142794909892E9, 2021-05-19 14:39:09.098
13.0, -120.59307098388672, -102.37602233886719, 23.434213638305664, 193.79226684570312, -0.08000000566244125, 0.0, 1.055999994277954, 0.0, 0.0, 0.0, 0.0, 0.0, 1.62142794909892E9, 2021-05-19 14:39:09.098
14.0, -159.03550720214844, -145.76260375976562, 1.398722529411316, 133.91273498535156, -0.08000000566244125, 0.0, 1.055999994277954, 0.0, 0.0, 0.0, 0.0, 0.0, 1.6214279490996733E9, 2021-05-19 14:39:09.099
14.0, -118.7605209350586, -8.16046142578125, 28.221284866333008, 141.5570831298828, -0.08000000566244125, 0.0, 1.055999994277954, 0.0, 0.0, 0.0, 0.0, 0.0, 1.6214279490996733E9, 2021-05-19 14:39:09.099
15.0, -83.4109878540039, -38.109580993652344, 41.99907684326172, 168.6863250732422, -0.08000000566244125, 0.0, 1.055999994277954, 0.0, 0.0, 0.0, 0.0, 0.0, 1.6214279491117988E9, 2021-05-19 14:39:09.111
15.0, -130.66836547851562, -120.07696533203125, 11.417914390563965, 164.33680725097656, -0.08000000566244125, 0.0, 1.055999994277954, 0.0, 0.0, 0.0, 0.0, 0.0, 1.6214279491117988E9, 2021-05-19 14:39:09.111
16.0, -134.2137908935547, -106.32161712646484, -6.930034637451172, 106.08787536621094, -0.08000000566244125, 0.0, 1.055999994277954, 0.0, 0.0, 0.0, 0.0, 0.0, 1.6214279491125305E9, 2021-05-19 14:39:09.112
16.0, -129.93161010742188, -42.99388885498047, 28.819669723510742, 177.6658172607422, -0.08000000566244125, 0.0, 1.055999994277954, 0.0, 0.0, 0.0, 0.0, 0.0, 1.6214279491125305E9, 2021-05-19 14:39:09.112
17.0, -65.63524627685547, -16.68743324279785, 47.96047592163086, 195.70335388183594, -0.08000000566244125, 0.0, 1.055999994277954, 0.0, 0.0, 0.0, 0.0, 0.0, 1.621427949113309E9, 2021-05-19 14:39:09.113
17.0, -143.13345336914062, -148.35809326171875, 1.6380761861801147, 143.56167602539062, -0.08000000566244125, 0.0, 1.055999994277954, 0.0, 0.0, 0.0, 0.0, 0.0, 1.621427949113309E9, 2021-05-19 14:39:09.113
18.0, -85.87184143066406, -106.22064208984375, 24.642200469970703, 191.09579467773438, -0.08000000566244125, 0.0, 1.055999994277954, 0.0, 0.0, 0.0, 0.0, 0.0, 1.6214279491139853E9, 2021-05-19 14:39:09.113
18.0, -158.302490234375, -86.21217346191406, 25.48741912841797, 157.72840881347656, -0.08000000566244125, 0.0, 1.055999994277954, 0.0, 0.0, 0.0, 0.0, 0.0, 1.6214279491139853E9, 2021-05-19 14:39:09.113
19.0, -110.80575561523438, -27.13297462463379, 29.410573959350586, 159.29168701171875, -0.08000000566244125, 0.0, 1.055999994277954, 0.0, 0.0, 0.0, 0.0, 0.0, 1.621427949124808E9, 2021-05-19 14:39:09.124
19.0, -127.00700378417969, -78.72489166259766, 12.498745918273926, 147.08465576171875, -0.08000000566244125, 0.0, 1.055999994277954, 0.0, 0.0, 0.0, 0.0, 0.0, 1.621427949124808E9, 2021-05-19 14:39:09.124
20.0, -128.78346252441406, -64.92840576171875, 10.105209350585938, 172.85630798339844, -0.08000000566244125, 0.0, 1.055999994277954, 0.0, 0.0, 0.0, 0.0, 0.0, 1.621427949140941E9, 2021-05-19 14:39:09.140
20.0, -100.21435546875, -100.82770538330078, 15.389688491821289, 172.19435119628906, -0.08000000566244125, 0.0, 1.055999994277954, 0.0, 0.0, 0.0, 0.0, 0.0, 1.621427949140941E9, 2021-05-19 14:39:09.140
21.0, -115.66014862060547, -47.736083984375, 28.815929412841797, 149.42208862304688, -0.08000000566244125, 0.0, 1.055999994277954, 0.0, 0.0, 0.0, 0.0, 0.0, 1.621427949155528E9, 2021-05-19 14:39:09.155
21.0, -127.3323745727539, -119.28411102294922, 27.170373916625977, 188.84437561035156, -0.08000000566244125, 0.0, 1.055999994277954, 0.0, 0.0, 0.0, 0.0, 0.0, 1.621427949155528E9, 2021-05-19 14:39:09.155
22.0, -129.55014038085938, -61.835506439208984, 11.133682250976562, 142.40977478027344, -0.08000000566244125, 0.0, 1.055999994277954, 0.0, 0.0, 0.0, 0.0, 0.0, 1.621427949156253E9, 2021-05-19 14:39:09.156
22.0, -131.9661102294922, -70.99078369140625, 26.613128662109375, 165.42138671875, -0.08000000566244125, 0.0, 1.055999994277954, 0.0, 0.0, 0.0, 0.0, 0.0, 1.621427949156253E9, 2021-05-19 14:39:09.156
23.0, -73.511474609375, -41.13142013549805, 48.21105194091797, 192.2102813720703, -0.08000000566244125, 0.0, 1.055999994277954, 0.0, 0.0, 0.0, 0.0, 0.0, 1.621427949170467E9, 2021-05-19 14:39:09.170
23.0, -120.6678695678711, -102.47325897216797, 19.64195442199707, 162.65011596679688, -0.08000000566244125, 0.0, 1.055999994277954, 0.0, 0.0, 0.0, 0.0, 0.0, 1.621427949170467E9, 2021-05-19 14:39:09.170
24.0, -163.11199951171875, -122.05537414550781, -6.948734283447266, 125.03794860839844, -0.08000000566244125, 0.0, 1.055999994277954, 0.0, 0.0, 0.0, 0.0, 0.0, 1.621427949171191E9, 2021-05-19 14:39:09.171
24.0, -117.6572494506836, -7.9510273933410645, 24.39162826538086, 167.4110107421875, -0.08000000566244125, 0.0, 1.055999994277954, 0.0, 0.0, 0.0, 0.0, 0.0, 1.621427949171191E9, 2021-05-19 14:39:09.171
25.0, -80.20215606689453, -52.538116455078125, 42.31696701049805, 223.35617065429688, -0.08000000566244125, 0.0, 1.055999994277954, 0.0, 0.0, 0.0, 0.0, 0.0, 1.6214279492010863E9, 2021-05-19 14:39:09.201
25.0, -139.06069946289062, -119.45614624023438, 2.722647190093994, 103.39140319824219, -0.08000000566244125, 0.0, 1.055999994277954, 0.0, 0.0, 0.0, 0.0, 0.0, 1.6214279492010863E9, 2021-05-19 14:39:09.201
26.0, -146.2151336669922, -128.42068481445312, -1.2491265535354614, 132.67855834960938, -0.08000000566244125, 0.0, 1.055999994277954, 0.0, 0.0, 0.0, 0.0, 0.0, 1.6214279492165856E9, 2021-05-19 14:39:09.216
26.0, -108.38603973388672, -56.13216018676758, 29.926679611206055, 178.54469299316406, -0.08000000566244125, 0.0, 1.055999994277954, 0.0, 0.0, 0.0, 0.0, 0.0, 1.6214279492165856E9, 2021-05-19 14:39:09.216
27.0, -115.36095428466797, -50.88507843017578, 34.73619079589844, 178.3539581298828, -0.08000000566244125, 0.0, 1.055999994277954, 0.0, 0.0, 0.0, 0.0, 0.0, 1.6214279492172112E9, 2021-05-19 14:39:09.217
27.0, -90.20264434814453, -75.36272430419922, 34.30610275268555, 180.68017578125, -0.08000000566244125, 0.0, 1.055999994277954, 0.0, 0.0, 0.0, 0.0, 0.0, 1.6214279492172112E9, 2021-05-19 14:39:09.217
28.0, -159.83584594726562, -101.09697723388672, -7.4087419509887695, 129.95591735839844, -0.08000000566244125, 0.0, 1.055999994277954, 0.0, 0.0, 0.0, 0.0, 0.0, 1.6214279492310855E9, 2021-05-19 14:39:09.231
28.0, -132.4859619140625, -66.92550659179688, 24.57488250732422, 193.01437377929688, -0.08000000566244125, 0.0, 1.055999994277954, 0.0, 0.0, 0.0, 0.0, 0.0, 1.6214279492310855E9, 2021-05-19 14:39:09.231
29.0, -93.06366729736328, -53.820899963378906, 37.60843276977539, 155.3797607421875, -0.08000000566244125, 0.0, 1.055999994277954, 0.0, 0.0, 0.0, 0.0, 0.0, 1.621427949231793E9, 2021-05-19 14:39:09.231
29.0, -133.38726806640625, -120.62299346923828, 22.36834144592285, 145.39422607421875, -0.08000000566244125, 0.0, 1.055999994277954, 0.0, 0.0, 0.0, 0.0, 0.0, 1.621427949231793E9, 2021-05-19 14:39:09.231
30.0, -139.3935546875, -81.5410385131836, 17.94778060913086, 201.00653076171875, -0.08000000566244125, 0.0, 1.055999994277954, 0.0, 0.0, 0.0, 0.0, 0.0, 1.6214279492325585E9, 2021-05-19 14:39:09.232
30.0, -118.28555297851562, -65.24629211425781, 27.65656089782715, 173.95957946777344, -0.08000000566244125, 0.0, 1.055999994277954, 0.0, 0.0, 0.0, 0.0, 0.0, 1.6214279492325585E9, 2021-05-19 14:39:09.232
31.0, -99.92638397216797, -27.686479568481445, 38.2928352355957, 138.8867950439453, -0.08000000566244125, 0.0, 1.055999994277954, 0.0, 0.0, 0.0, 0.0, 0.0, 1.6214279492612016E9, 2021-05-19 14:39:09.261
31.0, -125.90373229980469, -111.8529281616211, 27.136714935302734, 155.61537170410156, -0.08000000566244125, 0.0, 1.055999994277954, 0.0, 0.0, 0.0, 0.0, 0.0, 1.6214279492612016E9, 2021-05-19 14:39:09.261
32.0, -137.7480010986328, -79.68605041503906, 11.795644760131836, 153.49484252929688, -0.08000000566244125, 0.0, 1.055999994277954, 0.0, 0.0, 0.0, 0.0, 0.0, 1.62142794927661E9, 2021-05-19 14:39:09.276
32.0, -116.06779479980469, -64.01960754394531, 28.973005294799805, 160.48097229003906, -0.08000000566244125, 0.0, 1.055999994277954, 0.0, 0.0, 0.0, 0.0, 0.0, 1.62142794927661E9, 2021-05-19 14:39:09.276
33.0, -104.36190795898438, -35.41685104370117, 30.270750045776367, 194.27845764160156, -0.08000000566244125, 0.0, 1.055999994277954, 0.0, 0.0, 0.0, 0.0, 0.0, 1.6214279492773645E9, 2021-05-19 14:39:09.277
33.0, -117.72830963134766, -131.31163024902344, 15.483185768127441, 149.53054809570312, -0.08000000566244125, 0.0, 1.055999994277954, 0.0, 0.0, 0.0, 0.0, 0.0, 1.6214279492773645E9, 2021-05-19 14:39:09.277
34.0, -143.35037231445312, -96.50811767578125, -1.6904348134994507, 138.41183471679688, -0.08000000566244125, 0.0, 1.055999994277954, 0.0, 0.0, 0.0, 0.0, 0.0, 1.6214279492780492E9, 2021-05-19 14:39:09.278
34.0, -113.8051528930664, -52.16038513183594, 20.012205123901367, 160.1182098388672, -0.08000000566244125, 0.0, 1.055999994277954, 0.0, 0.0, 0.0, 0.0, 0.0, 1.6214279492780492E9, 2021-05-19 14:39:09.278
35.0, -101.45974731445312, -93.60969543457031, 33.44218444824219, 185.0782928466797, -0.08000000566244125, 0.0, 1.055999994277954, 0.0, 0.0, 0.0, 0.0, 0.0, 1.6214279492904112E9, 2021-05-19 14:39:09.290
35.0, -133.6715087890625, -77.48698425292969, 7.0272722244262695, 137.33099365234375, -0.08000000566244125, 0.0, 1.055999994277954, 0.0, 0.0, 0.0, 0.0, 0.0, 1.6214279492904112E9, 2021-05-19 14:39:09.290
36.0, -130.09616088867188, -102.30496215820312, 7.562077522277832, 158.73069763183594, -0.08000000566244125, 0.0, 1.055999994277954, 0.0, 0.0, 0.0, 0.0, 0.0, 1.6214279492911136E9, 2021-05-19 14:39:09.291
36.0, -120.61925506591797, -63.926109313964844, 25.334081649780273, 171.15838623046875, -0.08000000566244125, 0.0, 1.055999994277954, 0.0, 0.0, 0.0, 0.0, 0.0, 1.6214279492911136E9, 2021-05-19 14:39:09.291
37.0, -103.21376037597656, -30.248310089111328, 36.28076934814453, 175.7584686279297, -0.08000000566244125, 0.0, 1.055999994277954, 0.0, 0.0, 0.0, 0.0, 0.0, 1.6214279493211286E9, 2021-05-19 14:39:09.321
37.0, -123.1549072265625, -99.57483673095703, 11.287017822265625, 140.59967041015625, -0.08000000566244125, 0.0, 1.055999994277954, 0.0, 0.0, 0.0, 0.0, 0.0, 1.6214279493211286E9, 2021-05-19 14:39:09.321
38.0, -137.17205810546875, -105.88404846191406, 7.520938873291016, 135.0159912109375, -0.08000000566244125, 0.0, 1.055999994277954, 0.0, 0.0, 0.0, 0.0, 0.0, 1.6214279493218355E9, 2021-05-19 14:39:09.321
38.0, -100.8538818359375, -67.65104675292969, 40.39466094970703, 188.21234130859375, -0.08000000566244125, 0.0, 1.055999994277954, 0.0, 0.0, 0.0, 0.0, 0.0, 1.6214279493218355E9, 2021-05-19 14:39:09.321
39.0, -93.03001403808594, -57.631858825683594, 45.847434997558594, 188.1076202392578, -0.08000000566244125, 0.0, 1.055999994277954, 0.0, 0.0, 0.0, 0.0, 0.0, 1.621427949322554E9, 2021-05-19 14:39:09.322
39.0, -123.56255340576172, -92.42041015625, 21.855976104736328, 140.53982543945312, -0.08000000566244125, 0.0, 1.055999994277954, 0.0, 0.0, 0.0, 0.0, 0.0, 1.621427949322554E9, 2021-05-19 14:39:09.322
40.0, -134.7672882080078, -103.06416320800781, 11.178561210632324, 145.27455139160156, -0.08000000566244125, 0.0, 1.055999994277954, 0.0, 0.0, 0.0, 0.0, 0.0, 1.6214279493347847E9, 2021-05-19 14:39:09.334
40.0, -101.01095581054688, -49.52375411987305, 40.03936767578125, 185.94595336914062, -0.08000000566244125, 0.0, 1.055999994277954, 0.0, 0.0, 0.0, 0.0, 0.0, 1.6214279493347847E9, 2021-05-19 14:39:09.334
41.0, -95.96208953857422, -45.91849136352539, 45.05831527709961, 183.31680297851562, -0.08000000566244125, 0.0, 1.055999994277954, 0.0, 0.0, 0.0, 0.0, 0.0, 1.621427949350428E9, 2021-05-19 14:39:09.350
41.0, -115.27493286132812, -123.15864562988281, 18.501285552978516, 147.63067626953125, -0.08000000566244125, 0.0, 1.055999994277954, 0.0, 0.0, 0.0, 0.0, 0.0, 1.621427949350428E9, 2021-05-19 14:39:09.350
42.0, -128.26734924316406, -83.19781494140625, 15.12789535522461, 125.38201904296875, -0.08000000566244125, 0.0, 1.055999994277954, 0.0, 0.0, 0.0, 0.0, 0.0, 1.621427949351194E9, 2021-05-19 14:39:09.351
42.0, -103.81214141845703, -118.04620361328125, 43.12852478027344, 177.8827362060547, -0.08000000566244125, 0.0, 1.055999994277954, 0.0, 0.0, 0.0, 0.0, 0.0, 1.621427949351194E9, 2021-05-19 14:39:09.351
43.0, -101.99455261230469, -43.92138671875, 44.119598388671875, 183.9451141357422, -0.08000000566244125, 0.0, 1.055999994277954, 0.0, 0.0, 0.0, 0.0, 0.0, 1.6214279493811083E9, 2021-05-19 14:39:09.381
43.0, -120.71649169921875, -95.0682601928711, 14.177960395812988, 135.40121459960938, -0.08000000566244125, 0.0, 1.055999994277954, 0.0, 0.0, 0.0, 0.0, 0.0, 1.6214279493811083E9, 2021-05-19 14:39:09.381
44.0, -125.85885620117188, -87.01251220703125, 5.879122734069824, 155.09552001953125, -0.08000000566244125, 0.0, 1.055999994277954, 0.0, 0.0, 0.0, 0.0, 0.0, 1.6214279493818276E9, 2021-05-19 14:39:09.381
44.0, -98.8231201171875, -63.56333923339844, 31.0748291015625, 189.6297607421875, -0.08000000566244125, 0.0, 1.055999994277954, 0.0, 0.0, 0.0, 0.0, 0.0, 1.6214279493818276E9, 2021-05-19 14:39:09.381
45.0, -107.42115020751953, -67.49771118164062, 40.64897155761719, 163.5102996826172, -0.08000000566244125, 0.0, 1.055999994277954, 0.0, 0.0, 0.0, 0.0, 0.0, 1.6214279493825676E9, 2021-05-19 14:39:09.382
45.0, -110.61875915527344, -89.9333724975586, 19.799030303955078, 151.0115509033203, -0.08000000566244125, 0.0, 1.055999994277954, 0.0, 0.0, 0.0, 0.0, 0.0, 1.6214279493825676E9, 2021-05-19 14:39:09.382
46.0, -140.9231719970703, -94.11083984375, 13.680554389953613, 162.92686462402344, -0.08000000566244125, 0.0, 1.055999994277954, 0.0, 0.0, 0.0, 0.0, 0.0, 1.621427949394819E9, 2021-05-19 14:39:09.394
46.0, -124.53866577148438, -59.12407684326172, 33.27762985229492, 158.73069763183594, -0.08000000566244125, 0.0, 1.055999994277954, 0.0, 0.0, 0.0, 0.0, 0.0, 1.621427949394819E9, 2021-05-19 14:39:09.394
47.0, -99.6047592163086, -46.63655090332031, 39.29887008666992, 163.19615173339844, -0.08000000566244125, 0.0, 1.055999994277954, 0.0, 0.0, 0.0, 0.0, 0.0, 1.6214279494101937E9, 2021-05-19 14:39:09.410
47.0, -124.38907623291016, -93.40399932861328, 19.836429595947266, 171.89889526367188, -0.08000000566244125, 0.0, 1.055999994277954, 0.0, 0.0, 0.0, 0.0, 0.0, 1.6214279494101937E9, 2021-05-19 14:39:09.410
48.0, -129.19857788085938, -86.61234283447266, 9.742439270019531, 125.56526947021484, -0.08000000566244125, 0.0, 1.055999994277954, 0.0, 0.0, 0.0, 0.0, 0.0, 1.6214279494268272E9, 2021-05-19 14:39:09.426
48.0, -96.47820281982422, -80.76313781738281, 25.94368553161621, 162.08912658691406, -0.08000000566244125, 0.0, 1.055999994277954, 0.0, 0.0, 0.0, 0.0, 0.0, 1.6214279494268272E9, 2021-05-19 14:39:09.426
49.0, -107.85123443603516, -62.05615997314453, 48.83561325073242, 173.5706329345703, -0.08000000566244125, 0.0, 1.055999994277954, 0.0, 0.0, 0.0, 0.0, 0.0, 1.6214279494275265E9, 2021-05-19 14:39:09.427
49.0, -114.1006088256836, -98.41546630859375, 21.568002700805664, 148.18792724609375, -0.08000000566244125, 0.0, 1.055999994277954, 0.0, 0.0, 0.0, 0.0, 0.0, 1.6214279494275265E9, 2021-05-19 14:39:09.427
50.0, -123.05018615722656, -89.90719604492188, 2.7002077102661133, 125.07908630371094, -0.08000000566244125, 0.0, 1.040000081062317, 0.0, 0.0, 0.0, 0.0, 0.0, 1.6214279494283493E9, 2021-05-19 14:39:09.428
50.0, -107.20796966552734, -62.97617721557617, 27.140453338623047, 176.2259521484375, -0.08000000566244125, 0.0, 1.040000081062317, 0.0, 0.0, 0.0, 0.0, 0.0, 1.6214279494283493E9, 2021-05-19 14:39:09.428
51.0, -103.77848052978516, -58.19658279418945, 31.452558517456055, 174.81600952148438, -0.08000000566244125, 0.0, 1.040000081062317, 0.0, 0.0, 0.0, 0.0, 0.0, 1.6214279494399E9, 2021-05-19 14:39:09.439
51.0, -117.50017547607422, -147.75596618652344, 13.112089157104492, 175.39195251464844, -0.08000000566244125, 0.0, 1.040000081062317, 0.0, 0.0, 0.0, 0.0, 0.0, 1.6214279494399E9, 2021-05-19 14:39:09.439
52.0, -135.0590057373047, -74.82418060302734, -11.440354347229004, 117.2626953125, -0.08000000566244125, 0.0, 1.040000081062317, 0.0, 0.0, 0.0, 0.0, 0.0, 1.6214279494547732E9, 2021-05-19 14:39:09.454
52.0, -112.56350708007812, -56.790382385253906, 21.321168899536133, 175.27601623535156, -0.08000000566244125, 0.0, 1.040000081062317, 0.0, 0.0, 0.0, 0.0, 0.0, 1.6214279494547732E9, 2021-05-19 14:39:09.454
53.0, -93.06741333007812, -67.44161224365234, 29.354475021362305, 154.55323791503906, -0.08000000566244125, 0.0, 1.040000081062317, 0.0, 0.0, 0.0, 0.0, 0.0, 1.6214279494704366E9, 2021-05-19 14:39:09.470
53.0, -122.04041290283203, -134.13525390625, 21.511903762817383, 177.5835418701172, -0.08000000566244125, 0.0, 1.040000081062317, 0.0, 0.0, 0.0, 0.0, 0.0, 1.6214279494704366E9, 2021-05-19 14:39:09.470
54.0, -135.55641174316406, -62.893898010253906, -1.3463640213012695, 139.4851837158203, -0.08000000566244125, 0.0, 1.040000081062317, 0.0, 0.0, 0.0, 0.0, 0.0, 1.6214279494711328E9, 2021-05-19 14:39:09.471
54.0, -116.67366027832031, -64.53571319580078, 29.653667449951172, 181.7049102783203, -0.08000000566244125, 0.0, 1.040000081062317, 0.0, 0.0, 0.0, 0.0, 0.0, 1.6214279494711328E9, 2021-05-19 14:39:09.471
55.0, -105.57737731933594, -69.17318725585938, 33.45340347290039, 156.58399963378906, -0.08000000566244125, 0.0, 1.040000081062317, 0.0, 0.0, 0.0, 0.0, 0.0, 1.621427949500856E9, 2021-05-19 14:39:09.500
55.0, -117.25334167480469, -81.1820068359375, 22.62265396118164, 146.0113067626953, -0.08000000566244125, 0.0, 1.040000081062317, 0.0, 0.0, 0.0, 0.0, 0.0, 1.621427949500856E9, 2021-05-19 14:39:09.500
56.0, -128.86947631835938, -95.73395538330078, 10.711073875427246, 130.2289276123047, -0.08000000566244125, 0.0, 1.040000081062317, 0.0, 0.0, 0.0, 0.0, 0.0, 1.621427949501588E9, 2021-05-19 14:39:09.501
56.0, -111.90902709960938, -47.06290054321289, 34.676353454589844, 181.02798461914062, -0.08000000566244125, 0.0, 1.040000081062317, 0.0, 0.0, 0.0, 0.0, 0.0, 1.621427949501588E9, 2021-05-19 14:39:09.501
57.0, -101.39990997314453, -64.07196807861328, 45.01343536376953, 177.0262908935547, -0.08000000566244125, 0.0, 1.040000081062317, 0.0, 0.0, 0.0, 0.0, 0.0, 1.6214279495154505E9, 2021-05-19 14:39:09.515
57.0, -122.36204528808594, -102.08805084228516, 22.31972312927246, 154.04086303710938, -0.08000000566244125, 0.0, 1.040000081062317, 0.0, 0.0, 0.0, 0.0, 0.0, 1.6214279495154505E9, 2021-05-19 14:39:09.515
58.0, -121.92447662353516, -91.89682006835938, 16.451820373535156, 119.1924819946289, -0.08000000566244125, 0.0, 1.040000081062317, 0.0, 0.0, 0.0, 0.0, 0.0, 1.621427949516179E9, 2021-05-19 14:39:09.516
58.0, -107.89611053466797, -91.8407211303711, 26.414913177490234, 151.66603088378906, -0.08000000566244125, 0.0, 1.040000081062317, 0.0, 0.0, 0.0, 0.0, 0.0, 1.621427949516179E9, 2021-05-19 14:39:09.516
59.0, -90.32232666015625, -75.62825775146484, 46.415897369384766, 189.76438903808594, -0.08000000566244125, 0.0, 1.040000081062317, 0.0, 0.0, 0.0, 0.0, 0.0, 1.6214279495304463E9, 2021-05-19 14:39:09.530
59.0, -115.90323638916016, -102.08431243896484, 19.989765167236328, 139.80307006835938, -0.08000000566244125, 0.0, 1.040000081062317, 0.0, 0.0, 0.0, 0.0, 0.0, 1.6214279495304463E9, 2021-05-19 14:39:09.530
60.0, -140.65016174316406, -110.57388305664062, 1.9484878778457642, 137.42823791503906, -0.08000000566244125, 0.0, 1.040000081062317, 0.0, 0.0, 0.0, 0.0, 0.0, 1.6214279495311875E9, 2021-05-19 14:39:09.531
60.0, -99.13726806640625, -56.65948486328125, 35.521568298339844, 168.70127868652344, -0.08000000566244125, 0.0, 1.040000081062317, 0.0, 0.0, 0.0, 0.0, 0.0, 1.6214279495311875E9, 2021-05-19 14:39:09.531
61.0, -75.7591552734375, -55.87410354614258, 55.65345001220703, 195.1386260986328, -0.08000000566244125, 0.0, 1.040000081062317, 0.0, 0.0, 0.0, 0.0, 0.0, 1.621427949544824E9, 2021-05-19 14:39:09.544
61.0, -101.06705474853516, -97.63008880615234, 21.968172073364258, 155.4582977294922, -0.08000000566244125, 0.0, 1.040000081062317, 0.0, 0.0, 0.0, 0.0, 0.0, 1.621427949544824E9, 2021-05-19 14:39:09.544
62.0, -144.63314819335938, -83.46708679199219, 8.212820053100586, 148.5806121826172, -0.08000000566244125, 0.0, 1.040000081062317, 0.0, 0.0, 0.0, 0.0, 0.0, 1.621427949560472E9, 2021-05-19 14:39:09.560
62.0, -101.92723083496094, -69.10587310791016, 22.689973831176758, 174.08299255371094, -0.08000000566244125, 0.0, 1.040000081062317, 0.0, 0.0, 0.0, 0.0, 0.0, 1.621427949560472E9, 2021-05-19 14:39:09.560
63.0, -101.90479278564453, -69.46864318847656, 27.002077102661133, 172.14198303222656, -0.08000000566244125, 0.0, 1.040000081062317, 0.0, 0.0, 0.0, 0.0, 0.0, 1.6214279495611863E9, 2021-05-19 14:39:09.561
63.0, -114.14922332763672, -94.368896484375, 20.251558303833008, 154.0146942138672, -0.08000000566244125, 0.0, 1.040000081062317, 0.0, 0.0, 0.0, 0.0, 0.0, 1.6214279495611863E9, 2021-05-19 14:39:09.561
64.0, -132.82254028320312, -108.68523406982422, 0.747979998588562, 142.39108276367188, -0.08000000566244125, 0.0, 1.040000081062317, 0.0, 0.0, 0.0, 0.0, 0.0, 1.6214279495746992E9, 2021-05-19 14:39:09.574
64.0, -112.41390991210938, -65.96061706542969, 23.235998153686523, 177.1085662841797, -0.08000000566244125, 0.0, 1.040000081062317, 0.0, 0.0, 0.0, 0.0, 0.0, 1.6214279495746992E9, 2021-05-19 14:39:09.574
65.0, -96.3360824584961, -66.79461669921875, 32.851280212402344, 171.20701599121094, -0.08000000566244125, 0.0, 1.040000081062317, 0.0, 0.0, 0.0, 0.0, 0.0, 1.621427949590413E9, 2021-05-19 14:39:09.590
65.0, -122.4555435180664, -98.64360046386719, 8.272658348083496, 130.9582061767578, -0.08000000566244125, 0.0, 1.040000081062317, 0.0, 0.0, 0.0, 0.0, 0.0, 1.621427949590413E9, 2021-05-19 14:39:09.590
66.0, -135.77333068847656, -101.88983154296875, -1.5445786714553833, 126.24967193603516, -0.08000000566244125, 0.0, 1.040000081062317, 0.0, 0.0, 0.0, 0.0, 0.0, 1.6214279495911317E9, 2021-05-19 14:39:09.591
66.0, -104.84435272216797, -44.78156280517578, 29.376914978027344, 180.29122924804688, -0.08000000566244125, 0.0, 1.040000081062317, 0.0, 0.0, 0.0, 0.0, 0.0, 1.6214279495911317E9, 2021-05-19 14:39:09.591
67.0, -97.43187713623047, -76.33509826660156, 45.20417022705078, 176.55133056640625, -0.08000000566244125, 0.0, 1.040000081062317, 0.0, 0.0, 0.0, 0.0, 0.0, 1.62142794960472E9, 2021-05-19 14:39:09.604
67.0, -111.83796691894531, -128.76475524902344, 30.457744598388672, 165.2942352294922, -0.08000000566244125, 0.0, 1.040000081062317, 0.0, 0.0, 0.0, 0.0, 0.0, 1.62142794960472E9, 2021-05-19 14:39:09.604
68.0, -119.57955932617188, -82.2852783203125, 17.585010528564453, 149.5268096923828, -0.08000000566244125, 0.0, 1.040000081062317, 0.0, 0.0, 0.0, 0.0, 0.0, 1.6214279496371973E9, 2021-05-19 14:39:09.637
68.0, -119.07467651367188, -66.27102661132812, 28.180145263671875, 147.04725646972656, -0.08000000566244125, 0.0, 1.040000081062317, 0.0, 0.0, 0.0, 0.0, 0.0, 1.6214279496371973E9, 2021-05-19 14:39:09.637
69.0, -99.82540893554688, -40.42457962036133, 43.76804733276367, 194.0353546142578, -0.08000000566244125, 0.0, 1.040000081062317, 0.0, 0.0, 0.0, 0.0, 0.0, 1.6214279496379175E9, 2021-05-19 14:39:09.637
69.0, -129.27711486816406, -101.07827758789062, 16.739791870117188, 152.76182556152344, -0.08000000566244125, 0.0, 1.040000081062317, 0.0, 0.0, 0.0, 0.0, 0.0, 1.6214279496379175E9, 2021-05-19 14:39:09.637
70.0, -123.24840545654297, -141.51780700683594, 2.558091640472412, 153.70053100585938, -0.08000000566244125, 0.0, 1.040000081062317, 0.0, 0.0, 0.0, 0.0, 0.0, 1.621427949638672E9, 2021-05-19 14:39:09.638
70.0, -107.32390594482422, -59.213836669921875, 20.41985321044922, 157.25344848632812, -0.08000000566244125, 0.0, 1.040000081062317, 0.0, 0.0, 0.0, 0.0, 0.0, 1.621427949638672E9, 2021-05-19 14:39:09.638
71.0, -98.83807373046875, -46.225162506103516, 36.42288589477539, 165.34658813476562, -0.08000000566244125, 0.0, 1.040000081062317, 0.0, 0.0, 0.0, 0.0, 0.0, 1.6214279496504152E9, 2021-05-19 14:39:09.650
71.0, -114.35118103027344, -102.34609985351562, 15.352289199829102, 165.68692016601562, -0.08000000566244125, 0.0, 1.040000081062317, 0.0, 0.0, 0.0, 0.0, 0.0, 1.6214279496504152E9, 2021-05-19 14:39:09.650
72.0, -120.82868957519531, -102.2974853515625, 4.46544075012207, 155.68643188476562, -0.08000000566244125, 0.0, 1.040000081062317, 0.0, 0.0, 0.0, 0.0, 0.0, 1.621427949651133E9, 2021-05-19 14:39:09.651
72.0, -121.2699966430664, -47.17509841918945, 16.18628692626953, 160.26406860351562, -0.08000000566244125, 0.0, 1.040000081062317, 0.0, 0.0, 0.0, 0.0, 0.0, 1.621427949651133E9, 2021-05-19 14:39:09.651
73.0, -103.8233642578125, -61.18850326538086, 28.819669723510742, 170.57870483398438, -0.08000000566244125, 0.0, 1.040000081062317, 0.0, 0.0, 0.0, 0.0, 0.0, 1.6214279496648693E9, 2021-05-19 14:39:09.664
73.0, -121.36349487304688, -103.44189453125, 0.7330203652381897, 139.27574157714844, -0.08000000566244125, 0.0, 1.040000081062317, 0.0, 0.0, 0.0, 0.0, 0.0, 1.6214279496648693E9, 2021-05-19 14:39:09.664
74.0, -125.91120910644531, -95.31509399414062, -1.9484878778457642, 138.4454803466797, -0.08000000566244125, 0.0, 1.040000081062317, 0.0, 0.0, 0.0, 0.0, 0.0, 1.6214279496802793E9, 2021-05-19 14:39:09.680
74.0, -99.01759338378906, -72.41567993164062, 23.991458892822266, 181.6226348876953, -0.08000000566244125, 0.0, 1.040000081062317, 0.0, 0.0, 0.0, 0.0, 0.0, 1.6214279496802793E9, 2021-05-19 14:39:09.680
75.0, -97.1214599609375, -52.99812316894531, 34.66139221191406, 195.09375, -0.08000000566244125, 0.0, 1.040000081062317, 0.0, 0.0, 0.0, 0.0, 0.0, 1.6214279496953835E9, 2021-05-19 14:39:09.695
75.0, -117.8779067993164, -90.30736541748047, 15.543024063110352, 142.47335815429688, -0.08000000566244125, 0.0, 1.040000081062317, 0.0, 0.0, 0.0, 0.0, 0.0, 1.6214279496953835E9, 2021-05-19 14:39:09.695
76.0, -133.13296508789062, -87.08357238769531, -0.4338283836841583, 139.62355041503906, -0.08000000566244125, 0.0, 1.040000081062317, 0.0, 0.0, 0.0, 0.0, 0.0, 1.6214279496960983E9, 2021-05-19 14:39:09.696
76.0, -106.48616790771484, -74.39035034179688, 23.66982650756836, 156.62139892578125, -0.08000000566244125, 0.0, 1.040000081062317, 0.0, 0.0, 0.0, 0.0, 0.0, 1.6214279496960983E9, 2021-05-19 14:39:09.696
77.0, -89.33872985839844, -44.512290954589844, 42.57128143310547, 190.12342834472656, -0.08000000566244125, 0.0, 1.040000081062317, 0.0, 0.0, 0.0, 0.0, 0.0, 1.6214279497252371E9, 2021-05-19 14:39:09.725
77.0, -106.88633728027344, -105.730712890625, 20.943439483642578, 162.11904907226562, -0.08000000566244125, 0.0, 1.040000081062317, 0.0, 0.0, 0.0, 0.0, 0.0, 1.6214279497252371E9, 2021-05-19 14:39:09.725
78.0, -137.37026977539062, -87.61463928222656, -7.902408599853516, 147.92987060546875, -0.08000000566244125, 0.0, 1.040000081062317, 0.0, 0.0, 0.0, 0.0, 0.0, 1.6214279497424493E9, 2021-05-19 14:39:09.742
78.0, -117.9788818359375, -105.4950942993164, 21.4034481048584, 158.719482421875, -0.08000000566244125, 0.0, 1.040000081062317, 0.0, 0.0, 0.0, 0.0, 0.0, 1.6214279497424493E9, 2021-05-19 14:39:09.742
79.0, -82.42739868164062, -58.069427490234375, 46.210205078125, 211.24264526367188, -0.08000000566244125, 0.0, 1.040000081062317, 0.0, 0.0, 0.0, 0.0, 0.0, 1.6214279497432868E9, 2021-05-19 14:39:09.743
79.0, -120.44721984863281, -102.43212127685547, -1.2491265535354614, 147.76905822753906, -0.08000000566244125, 0.0, 1.040000081062317, 0.0, 0.0, 0.0, 0.0, 0.0, 1.6214279497432868E9, 2021-05-19 14:39:09.743
80.0, -135.88926696777344, -97.33463287353516, -12.640861511230469, 119.17378234863281, -0.08000000566244125, 0.0, 1.040000081062317, 0.0, 0.0, 0.0, 0.0, 0.0, 1.621427949744003E9, 2021-05-19 14:39:09.744
80.0, -104.43296813964844, -56.56598663330078, 20.44977378845215, 172.90492248535156, -0.08000000566244125, 0.0, 1.040000081062317, 0.0, 0.0, 0.0, 0.0, 0.0, 1.621427949744003E9, 2021-05-19 14:39:09.744
81.0, -87.04617309570312, -73.70220947265625, 33.50950241088867, 199.4507293701172, -0.08000000566244125, 0.0, 1.040000081062317, 0.0, 0.0, 0.0, 0.0, 0.0, 1.621427949744677E9, 2021-05-19 14:39:09.744
81.0, -120.98576354980469, -91.96414184570312, 4.551458358764648, 138.037841796875, -0.08000000566244125, 0.0, 1.040000081062317, 0.0, 0.0, 0.0, 0.0, 0.0, 1.621427949744677E9, 2021-05-19 14:39:09.744
82.0, -129.2546844482422, -141.47666931152344, 2.801185131072998, 145.36056518554688, -0.08000000566244125, 0.0, 1.040000081062317, 0.0, 0.0, 0.0, 0.0, 0.0, 1.6214279497547667E9, 2021-05-19 14:39:09.754
82.0, -118.278076171875, -64.06448364257812, 12.670781135559082, 145.2483673095703, -0.08000000566244125, 0.0, 1.040000081062317, 0.0, 0.0, 0.0, 0.0, 0.0, 1.6214279497547667E9, 2021-05-19 14:39:09.754
83.0, -92.95147705078125, -64.17294311523438, 27.8884334564209, 174.80105590820312, -0.08000000566244125, 0.0, 1.040000081062317, 0.0, 0.0, 0.0, 0.0, 0.0, 1.62142794977048E9, 2021-05-19 14:39:09.770
83.0, -115.12159729003906, -88.59822845458984, 3.885756015777588, 162.04798889160156, -0.08000000566244125, 0.0, 1.040000081062317, 0.0, 0.0, 0.0, 0.0, 0.0, 1.62142794977048E9, 2021-05-19 14:39:09.770
84.0, -125.8438949584961, -106.26551818847656, -4.151288986206055, 137.52920532226562, -0.08000000566244125, 0.0, 1.040000081062317, 0.0, 0.0, 0.0, 0.0, 0.0, 1.621427949771145E9, 2021-05-19 14:39:09.771
84.0, -113.3376693725586, -73.13748168945312, 16.556537628173828, 168.1776885986328, -0.08000000566244125, 0.0, 1.040000081062317, 0.0, 0.0, 0.0, 0.0, 0.0, 1.621427949771145E9, 2021-05-19 14:39:09.771
85.0, -98.78197479248047, -68.55984497070312, 23.8680419921875, 177.4601287841797, -0.08000000566244125, 0.0, 1.040000081062317, 0.0, 0.0, 0.0, 0.0, 0.0, 1.62142794978469E9, 2021-05-19 14:39:09.784
85.0, -118.18457794189453, -106.06356048583984, 3.051758289337158, 142.03579711914062, -0.08000000566244125, 0.0, 1.040000081062317, 0.0, 0.0, 0.0, 0.0, 0.0, 1.62142794978469E9, 2021-05-19 14:39:09.784
86.0, -136.15480041503906, -102.338623046875, 1.2192074060440063, 145.05389404296875, -0.08000000566244125, 0.0, 1.040000081062317, 0.0, 0.0, 0.0, 0.0, 0.0, 1.621427949800844E9, 2021-05-19 14:39:09.800
86.0, -107.50716400146484, -60.09645080566406, 28.408279418945312, 174.88333129882812, -0.08000000566244125, 0.0, 1.040000081062317, 0.0, 0.0, 0.0, 0.0, 0.0, 1.621427949800844E9, 2021-05-19 14:39:09.800
87.0, -84.13652801513672, -53.18885803222656, 41.393211364746094, 185.8150634765625, -0.08000000566244125, 0.0, 1.040000081062317, 0.0, 0.0, 0.0, 0.0, 0.0, 1.6214279498155503E9, 2021-05-19 14:39:09.815
87.0, -125.09965515136719, -99.97500610351562, 6.772958755493164, 156.83084106445312, -0.08000000566244125, 0.0, 1.040000081062317, 0.0, 0.0, 0.0, 0.0, 0.0, 1.6214279498155503E9, 2021-05-19 14:39:09.815
88.0, -125.21185302734375, -125.41006469726562, -0.07853789627552032, 161.1429443359375, -0.08000000566244125, 0.0, 1.040000081062317, 0.0, 0.0, 0.0, 0.0, 0.0, 1.621427949816252E9, 2021-05-19 14:39:09.816
88.0, -97.64505004882812, -66.99656677246094, 13.134529113769531, 194.21487426757812, -0.08000000566244125, 0.0, 1.040000081062317, 0.0, 0.0, 0.0, 0.0, 0.0, 1.621427949816252E9, 2021-05-19 14:39:09.816
89.0, -99.87776947021484, -87.95870971679688, 34.58659362792969, 164.89031982421875, -0.08000000566244125, 0.0, 1.040000081062317, 0.0, 0.0, 0.0, 0.0, 0.0, 1.6214279498475745E9, 2021-05-19 14:39:09.847
89.0, -98.71092224121094, -85.07150268554688, 12.027518272399902, 150.7946319580078, -0.08000000566244125, 0.0, 1.040000081062317, 0.0, 0.0, 0.0, 0.0, 0.0, 1.6214279498475745E9, 2021-05-19 14:39:09.847
90.0, -154.50274658203125, -101.78885650634766, -13.123309135437012, 137.0617218017578, -0.08000000566244125, 0.0, 1.040000081062317, 0.0, 0.0, 0.0, 0.0, 0.0, 1.6214279498482504E9, 2021-05-19 14:39:09.848
90.0, -92.13617706298828, -69.72295379638672, 22.90688705444336, 172.9123992919922, -0.08000000566244125, 0.0, 1.040000081062317, 0.0, 0.0, 0.0, 0.0, 0.0, 1.6214279498482504E9, 2021-05-19 14:39:09.848
91.0, -103.41571044921875, -97.25235748291016, 31.366540908813477, 169.8718719482422, -0.08000000566244125, 0.0, 1.040000081062317, 0.0, 0.0, 0.0, 0.0, 0.0, 1.621427949849018E9, 2021-05-19 14:39:09.849
91.0, -115.82096099853516, -92.67098236083984, 14.125601768493652, 161.9096221923828, -0.08000000566244125, 0.0, 1.040000081062317, 0.0, 0.0, 0.0, 0.0, 0.0, 1.621427949849018E9, 2021-05-19 14:39:09.849
92.0, -129.8942108154297, -95.5357437133789, 3.7959985733032227, 149.11541748046875, -0.08000000566244125, 0.0, 1.040000081062317, 0.0, 0.0, 0.0, 0.0, 0.0, 1.6214279498497107E9, 2021-05-19 14:39:09.849
92.0, -106.03364562988281, -50.997276306152344, 27.686479568481445, 179.65170288085938, -0.08000000566244125, 0.0, 1.040000081062317, 0.0, 0.0, 0.0, 0.0, 0.0, 1.6214279498497107E9, 2021-05-19 14:39:09.849
93.0, -93.13846588134766, -55.31686019897461, 40.86214828491211, 190.50489807128906, -0.08000000566244125, 0.0, 1.040000081062317, 0.0, 0.0, 0.0, 0.0, 0.0, 1.6214279498755245E9, 2021-05-19 14:39:09.875
93.0, -119.24297332763672, -108.7600326538086, 7.838830471038818, 161.1392059326172, -0.08000000566244125, 0.0, 1.040000081062317, 0.0, 0.0, 0.0, 0.0, 0.0, 1.6214279498755245E9, 2021-05-19 14:39:09.875
94.0, -126.87236785888672, -105.0687484741211, 2.7862255573272705, 145.85797119140625, -0.08000000566244125, 0.0, 1.040000081062317, 0.0, 0.0, 0.0, 0.0, 0.0, 1.6214279498761957E9, 2021-05-19 14:39:09.876
94.0, -103.94303894042969, -69.52474212646484, 27.290050506591797, 165.02120971679688, -0.08000000566244125, 0.0, 1.040000081062317, 0.0, 0.0, 0.0, 0.0, 0.0, 1.6214279498761957E9, 2021-05-19 14:39:09.876
95.0, -84.06546783447266, -71.2039566040039, 45.465965270996094, 176.20352172851562, -0.08000000566244125, 0.0, 1.040000081062317, 0.0, 0.0, 0.0, 0.0, 0.0, 1.6214279498904183E9, 2021-05-19 14:39:09.890
95.0, -123.07262420654297, -86.0363998413086, 24.458946228027344, 162.35841369628906, -0.08000000566244125, 0.0, 1.040000081062317, 0.0, 0.0, 0.0, 0.0, 0.0, 1.6214279498904183E9, 2021-05-19 14:39:09.890
