Sample Index, EXG Channel 0, EXG Channel 1, EXG Channel 2, EXG Channel 3, Accel Channel 0, Accel Channel 1, Accel Channel 2, Other, Other, Other, Other, Other, Timestamp, Timestamp (Formatted)
0.0, -39.76448440551758, -14.740816116333008, 43.55300521850586, 76.96153259277344, 0.0, 0.0, 0.0, 0.0, 0.0, 0.0, 0.0, 0.0, 1.6214360192064471E9, 2021-05-19 16:53:39.206
1.0, -37.22135543823242, -15.791728019714355, 36.15922164916992, 71.19834899902344, 0.0, -0.03200000151991844, 0.0, 0.0, 0.0, 0.0, 0.0, 0.0, 1.6214360192194183E9, 2021-05-19 16:53:39.219
1.0, -42.48713302612305, -18.076807022094727, 39.31195831298828, 63.16130065917969, 0.0, -0.03200000151991844, 0.0, 0.0, 0.0, 0.0, 0.0, 0.0, 1.6214360192194183E9, 2021-05-19 16:53:39.219
2.0, -29.28154754638672, -6.614013195037842, 49.42464828491211, 71.97624206542969, -0.1120000034570694, -0.03200000151991844, 0.0, 0.0, 0.0, 0.0, 0.0, 0.0, 1.6214360192361403E9, 2021-05-19 16:53:39.236
2.0, -31.29361343383789, -3.494936466217041, 39.091304779052734, 55.094337463378906, -0.1120000034570694, -0.03200000151991844, 0.0, 0.0, 0.0, 0.0, 0.0, 0.0, 1.6214360192361403E9, 2021-05-19 16:53:39.236
3.0, -27.276960372924805, 1.7334436178207397, 40.766780853271484, 67.75763702392578, -0.1120000034570694, -0.03200000151991844, 0.0, 0.0, 0.0, 0.0, 0.0, 0.0, 1.621436019236912E9, 2021-05-19 16:53:39.236
3.0, -33.73202896118164, -6.909465312957764, 40.46384811401367, 55.180355072021484, -0.1120000034570694, -0.03200000151991844, 0.0, 0.0, 0.0, 0.0, 0.0, 0.0, 1.621436019236912E9, 2021-05-19 16:53:39.236
4.0, -30.175382614135742, -6.89076566696167, 53.06731033325195, 68.84968566894531, -0.1120000034570694, -0.03200000151991844, 0.0, 0.0, 0.0, 0.0, 0.0, 0.0, 1.6214360192492557E9, 2021-05-19 16:53:39.249
4.0, -37.980552673339844, 12.107926368713379, 42.88730239868164, 43.94569396972656, -0.1120000034570694, -0.03200000151991844, 0.0, 0.0, 0.0, 0.0, 0.0, 0.0, 1.6214360192492557E9, 2021-05-19 16:53:39.249
5.0, -40.39653015136719, 2.212150812149048, 46.249473571777344, 56.99794387817383, -0.1120000034570694, -0.03200000151991844, 0.0, 0.0, 0.0, 0.0, 0.0, 0.0, 1.621436019265658E9, 2021-05-19 16:53:39.265
5.0, -35.09334945678711, -4.224216938018799, 45.217262268066406, 56.706233978271484, -0.1120000034570694, -0.03200000151991844, 0.0, 0.0, 0.0, 0.0, 0.0, 0.0, 1.621436019265658E9, 2021-05-19 16:53:39.265
6.0, -29.71163558959961, -0.08414775133132935, 55.31499099731445, 61.80371856689453, -0.1120000034570694, -0.03200000151991844, 0.0, 0.0, 0.0, 0.0, 0.0, 0.0, 1.6214360192663822E9, 2021-05-19 16:53:39.266
6.0, -33.515113830566406, -11.909711837768555, 43.60162353515625, 68.24756622314453, -0.1120000034570694, -0.03200000151991844, 0.0, 0.0, 0.0, 0.0, 0.0, 0.0, 1.6214360192663822E9, 2021-05-19 16:53:39.266
7.0, -33.997562408447266, -6.576613903045654, 42.27396011352539, 76.24720764160156, -0.1120000034570694, -0.03200000151991844, 0.0, 0.0, 0.0, 0.0, 0.0, 0.0, 1.6214360192792346E9, 2021-05-19 16:53:39.279
7.0, -42.666648864746094, -10.099599838256836, 39.60367202758789, 74.03318786621094, -0.1120000034570694, -0.03200000151991844, 0.0, 0.0, 0.0, 0.0, 0.0, 0.0, 1.6214360192792346E9, 2021-05-19 16:53:39.279
8.0, -32.15005111694336, -6.090426921844482, 50.23246765136719, 82.66861724853516, -0.1120000034570694, -0.03200000151991844, 0.0, 0.0, 0.0, 0.0, 0.0, 0.0, 1.6214360193106303E9, 2021-05-19 16:53:39.310
8.0, -31.76110076904297, -9.912605285644531, 51.406795501708984, 82.80699157714844, -0.1120000034570694, -0.03200000151991844, 0.0, 0.0, 0.0, 0.0, 0.0, 0.0, 1.6214360193106303E9, 2021-05-19 16:53:39.310
9.0, -40.482547760009766, -5.2489495277404785, 41.26044464111328, 86.2477035522461, -0.1120000034570694, -0.03200000151991844, 0.0, 0.0, 0.0, 0.0, 0.0, 0.0, 1.6214360193113413E9, 2021-05-19 16:53:39.311
9.0, -41.97102737426758, -11.595560073852539, 46.481346130371094, 79.28026580810547, -0.1120000034570694, -0.03200000151991844, 0.0, 0.0, 0.0, 0.0, 0.0, 0.0, 1.6214360193113413E9, 2021-05-19 16:53:39.311
10.0, -31.79475975036621, -14.602438926696777, 58.804317474365234, 79.99085235595703, -0.1120000034570694, -0.03200000151991844, 1.040000081062317, 0.0, 0.0, 0.0, 0.0, 0.0, 1.621436019312093E9, 2021-05-19 16:53:39.312
10.0, -25.53416633605957, 4.874959468841553, 61.762577056884766, 83.05008697509766, -0.1120000034570694, -0.03200000151991844, 1.040000081062317, 0.0, 0.0, 0.0, 0.0, 0.0, 1.621436019312093E9, 2021-05-19 16:53:39.312
11.0, -34.91383743286133, -6.924424648284912, 40.332950592041016, 69.07034301757812, -0.1120000034570694, -0.03200000151991844, 1.040000081062317, 0.0, 0.0, 0.0, 0.0, 0.0, 1.6214360193255973E9, 2021-05-19 16:53:39.325
11.0, -39.330657958984375, -1.142539381980896, 48.84496307373047, 67.43226623535156, -0.1120000034570694, -0.03200000151991844, 1.040000081062317, 0.0, 0.0, 0.0, 0.0, 0.0, 1.6214360193255973E9, 2021-05-19 16:53:39.325
12.0, -40.12725830078125, 6.965563774108887, 54.16310119628906, 77.70203399658203, -0.09600000083446503, -0.03200000151991844, 1.040000081062317, 0.0, 0.0, 0.0, 0.0, 0.0, 1.6214360193263261E9, 2021-05-19 16:53:39.326
12.0, -36.843624114990234, 16.188156127929688, 55.890933990478516, 76.00785827636719, -0.09600000083446503, -0.03200000151991844, 1.040000081062317, 0.0, 0.0, 0.0, 0.0, 0.0, 1.6214360193263261E9, 2021-05-19 16:53:39.326
13.0, -49.52188491821289, -0.09162754565477371, 38.145111083984375, 72.38763427734375, -0.09600000083446503, -0.03200000151991844, 1.040000081062317, 0.0, 0.0, 0.0, 0.0, 0.0, 1.621436019339266E9, 2021-05-19 16:53:39.339
13.0, -42.30387878417969, 5.6827778816223145, 51.81444549560547, 71.77803039550781, -0.09600000083446503, -0.03200000151991844, 1.040000081062317, 0.0, 0.0, 0.0, 0.0, 0.0, 1.621436019339266E9, 2021-05-19 16:53:39.339
14.0, -35.30652618408203, -2.4253251552581787, 58.280731201171875, 78.93245697021484, -0.09600000083446503, -0.03200000151991844, 1.040000081062317, 0.0, 0.0, 0.0, 0.0, 0.0, 1.6214360193549376E9, 2021-05-19 16:53:39.354
14.0, -29.509679794311523, 9.576013565063477, 54.600669860839844, 80.9520034790039, -0.09600000083446503, -0.03200000151991844, 1.040000081062317, 0.0, 0.0, 0.0, 0.0, 0.0, 1.6214360193549376E9, 2021-05-19 16:53:39.354
15.0, -37.44200897216797, -16.023601531982422, 53.186988830566406, 75.46556854248047, -0.09600000083446503, -0.03200000151991844, 1.040000081062317, 0.0, 0.0, 0.0, 0.0, 0.0, 1.6214360193557184E9, 2021-05-19 16:53:39.355
15.0, -31.274913787841797, -14.924070358276367, 55.45710754394531, 70.90289306640625, -0.09600000083446503, -0.03200000151991844, 1.040000081062317, 0.0, 0.0, 0.0, 0.0, 0.0, 1.6214360193557184E9, 2021-05-19 16:53:39.355
16.0, -31.170196533203125, -18.00200843811035, 58.463985443115234, 62.12160873413086, -0.09600000083446503, -0.03200000151991844, 1.040000081062317, 0.0, 0.0, 0.0, 0.0, 0.0, 1.621436019369306E9, 2021-05-19 16:53:39.369
16.0, -33.21592330932617, -11.737675666809082, 41.993465423583984, 65.87272644042969, -0.09600000083446503, -0.03200000151991844, 1.040000081062317, 0.0, 0.0, 0.0, 0.0, 0.0, 1.621436019369306E9, 2021-05-19 16:53:39.369
17.0, -44.37204360961914, -10.522208213806152, 29.229188919067383, 62.83966827392578, -0.09600000083446503, -0.03200000151991844, 1.040000081062317, 0.0, 0.0, 0.0, 0.0, 0.0, 1.6214360194003804E9, 2021-05-19 16:53:39.400
17.0, -40.037498474121094, -3.4537975788116455, 43.351051330566406, 75.36459350585938, -0.09600000083446503, -0.03200000151991844, 1.040000081062317, 0.0, 0.0, 0.0, 0.0, 0.0, 1.6214360194003804E9, 2021-05-19 16:53:39.400
18.0, -38.11518859863281, -0.9331050515174866, 50.51295852661133, 78.16577911376953, -0.09600000083446503, -0.03200000151991844, 1.040000081062317, 0.0, 0.0, 0.0, 0.0, 0.0, 1.6214360194011807E9, 2021-05-19 16:53:39.401
18.0, -42.438514709472656, 9.471296310424805, 44.099029541015625, 76.95030975341797, -0.09600000083446503, -0.03200000151991844, 1.040000081062317, 0.0, 0.0, 0.0, 0.0, 0.0, 1.6214360194011807E9, 2021-05-19 16:53:39.401
19.0, -50.9991455078125, -4.456090927124023, 43.19023513793945, 74.34734344482422, -0.09600000083446503, -0.03200000151991844, 1.040000081062317, 0.0, 0.0, 0.0, 0.0, 0.0, 1.621436019415585E9, 2021-05-19 16:53:39.415
19.0, -47.45372009277344, 4.908618927001953, 44.40944290161133, 67.23405456542969, -0.09600000083446503, -0.03200000151991844, 1.040000081062317, 0.0, 0.0, 0.0, 0.0, 0.0, 1.621436019415585E9, 2021-05-19 16:53:39.415
20.0, -33.5637321472168, 5.824893951416016, 54.82132339477539, 77.81048583984375, -0.09600000083446503, -0.03200000151991844, 1.040000081062317, 0.0, 0.0, 0.0, 0.0, 0.0, 1.6214360194163296E9, 2021-05-19 16:53:39.416
20.0, -36.121822357177734, -7.590126991271973, 40.998653411865234, 70.31572723388672, -0.09600000083446503, -0.03200000151991844, 1.040000081062317, 0.0, 0.0, 0.0, 0.0, 0.0, 1.6214360194163296E9, 2021-05-19 16:53:39.416
21.0, -37.026878356933594, -0.6189534664154053, 42.621768951416016, 65.02377319335938, -0.09600000083446503, -0.03200000151991844, 1.040000081062317, 0.0, 0.0, 0.0, 0.0, 0.0, 1.6214360194170623E9, 2021-05-19 16:53:39.417
21.0, -32.62127685546875, -1.1874182224273682, 49.985633850097656, 64.30197143554688, -0.09600000083446503, -0.03200000151991844, 1.040000081062317, 0.0, 0.0, 0.0, 0.0, 0.0, 1.6214360194170623E9, 2021-05-19 16:53:39.417
22.0, -31.252473831176758, -9.624632835388184, 51.61623001098633, 66.71046447753906, -0.09600000083446503, -0.03200000151991844, 1.040000081062317, 0.0, 0.0, 0.0, 0.0, 0.0, 1.6214360194292626E9, 2021-05-19 16:53:39.429
22.0, -29.255367279052734, -0.6376529335975647, 42.2552604675293, 63.12016296386719, -0.09600000083446503, -0.03200000151991844, 1.040000081062317, 0.0, 0.0, 0.0, 0.0, 0.0, 1.6214360194292626E9, 2021-05-19 16:53:39.429
23.0, -36.68655014038086, -5.3835859298706055, 32.4604606628418, 56.848350524902344, -0.09600000083446503, -0.03200000151991844, 1.040000081062317, 0.0, 0.0, 0.0, 0.0, 0.0, 1.6214360194446702E9, 2021-05-19 16:53:39.444
23.0, -40.13847732543945, -9.80788803100586, 38.62755584716797, 56.69501495361328, -0.09600000083446503, -0.03200000151991844, 1.040000081062317, 0.0, 0.0, 0.0, 0.0, 0.0, 1.6214360194446702E9, 2021-05-19 16:53:39.444
24.0, -35.38880157470703, -9.501215934753418, 41.68679428100586, 64.68344116210938, -0.09600000083446503, -0.03200000151991844, 1.040000081062317, 0.0, 0.0, 0.0, 0.0, 0.0, 1.6214360194599123E9, 2021-05-19 16:53:39.459
24.0, -45.65482711791992, -14.9652099609375, 36.02458572387695, 70.10255432128906, -0.09600000083446503, -0.03200000151991844, 1.040000081062317, 0.0, 0.0, 0.0, 0.0, 0.0, 1.6214360194599123E9, 2021-05-19 16:53:39.459
25.0, -46.69826126098633, -1.3332743644714355, 34.20325469970703, 65.45011901855469, -0.09600000083446503, -0.03200000151991844, 1.040000081062317, 0.0, 0.0, 0.0, 0.0, 0.0, 1.6214360194607072E9, 2021-05-19 16:53:39.460
25.0, -37.3185920715332, 10.424971580505371, 48.80756378173828, 80.63785552978516, -0.09600000083446503, -0.03200000151991844, 1.040000081062317, 0.0, 0.0, 0.0, 0.0, 0.0, 1.6214360194607072E9, 2021-05-19 16:53:39.460
26.0, -40.92385482788086, -3.708110809326172, 54.077083587646484, 71.49005889892578, -0.09600000083446503, -0.03200000151991844, 1.040000081062317, 0.0, 0.0, 0.0, 0.0, 0.0, 1.621436019474923E9, 2021-05-19 16:53:39.474
26.0, -42.771366119384766, 0.5553751587867737, 51.86680221557617, 71.63591003417969, -0.09600000083446503, -0.03200000151991844, 1.040000081062317, 0.0, 0.0, 0.0, 0.0, 0.0, 1.621436019474923E9, 2021-05-19 16:53:39.474
27.0, -41.720455169677734, -7.7771220207214355, 49.555545806884766, 78.28545379638672, -0.09600000083446503, -0.03200000151991844, 1.040000081062317, 0.0, 0.0, 0.0, 0.0, 0.0, 1.6214360194757576E9, 2021-05-19 16:53:39.475
27.0, -45.17986297607422, 10.63066577911377, 51.10386276245117, 69.96044158935547, -0.09600000083446503, -0.03200000151991844, 1.040000081062317, 0.0, 0.0, 0.0, 0.0, 0.0, 1.6214360194757576E9, 2021-05-19 16:53:39.475
28.0, -39.07634353637695, -0.24496345221996307, 52.87283706665039, 73.22163391113281, -0.09600000083446503, -0.03200000151991844, 1.040000081062317, 0.0, 0.0, 0.0, 0.0, 0.0, 1.6214360194892583E9, 2021-05-19 16:53:39.489
28.0, -40.91637420654297, -1.8419007062911987, 48.7813835144043, 78.25180053710938, -0.09600000083446503, -0.03200000151991844, 1.040000081062317, 0.0, 0.0, 0.0, 0.0, 0.0, 1.6214360194892583E9, 2021-05-19 16:53:39.489
29.0, -44.32342529296875, -9.179584503173828, 35.7927131652832, 57.54771041870117, -0.09600000083446503, -0.03200000151991844, 1.040000081062317, 0.0, 0.0, 0.0, 0.0, 0.0, 1.6214360195049584E9, 2021-05-19 16:53:39.504
29.0, -28.309173583984375, 2.193451404571533, 51.56386947631836, 69.19375610351562, -0.09600000083446503, -0.03200000151991844, 1.040000081062317, 0.0, 0.0, 0.0, 0.0, 0.0, 1.6214360195049584E9, 2021-05-19 16:53:39.504
30.0, -30.57929229736328, -0.9892035126686096, 57.484130859375, 61.98697280883789, -0.09600000083446503, -0.03200000151991844, 1.040000081062317, 0.0, 0.0, 0.0, 0.0, 0.0, 1.6214360195056696E9, 2021-05-19 16:53:39.505
30.0, -28.503646850585938, -1.0901808738708496, 49.731319427490234, 72.58584594726562, -0.09600000083446503, -0.03200000151991844, 1.040000081062317, 0.0, 0.0, 0.0, 0.0, 0.0, 1.6214360195056696E9, 2021-05-19 16:53:39.505
31.0, -31.099138259887695, -0.843347430229187, 35.20554733276367, 56.07044982910156, -0.09600000083446503, -0.03200000151991844, 1.040000081062317, 0.0, 0.0, 0.0, 0.0, 0.0, 1.6214360195192432E9, 2021-05-19 16:53:39.519
31.0, -42.38615798950195, -22.321592330932617, 34.72310256958008, 49.60790252685547, -0.09600000083446503, -0.03200000151991844, 1.040000081062317, 0.0, 0.0, 0.0, 0.0, 0.0, 1.6214360195192432E9, 2021-05-19 16:53:39.519
32.0, -32.87559127807617, 0.15894575417041779, 45.88296127319336, 60.045963287353516, -0.09600000083446503, -0.03200000151991844, 1.040000081062317, 0.0, 0.0, 0.0, 0.0, 0.0, 1.6214360195349169E9, 2021-05-19 16:53:39.534
32.0, -36.88102340698242, 1.1201000213623047, 44.22618865966797, 65.6707763671875, -0.09600000083446503, -0.03200000151991844, 1.040000081062317, 0.0, 0.0, 0.0, 0.0, 0.0, 1.6214360195349169E9, 2021-05-19 16:53:39.534
33.0, -40.53490447998047, 0.4656175374984741, 43.69137954711914, 79.05961608886719, -0.09600000083446503, -0.03200000151991844, 1.040000081062317, 0.0, 0.0, 0.0, 0.0, 0.0, 1.6214360195357475E9, 2021-05-19 16:53:39.535
33.0, -42.72648620605469, 2.7955751419067383, 48.96464157104492, 82.7770767211914, -0.09600000083446503, -0.03200000151991844, 1.040000081062317, 0.0, 0.0, 0.0, 0.0, 0.0, 1.6214360195357475E9, 2021-05-19 16:53:39.535
34.0, -36.1741828918457, 1.1799384355545044, 55.745079040527344, 75.68622589111328, -0.09600000083446503, -0.03200000151991844, 1.040000081062317, 0.0, 0.0, 0.0, 0.0, 0.0, 1.621436019549236E9, 2021-05-19 16:53:39.549
34.0, -35.07465362548828, 23.1406307220459, 56.58281707763672, 76.56510162353516, -0.09600000083446503, -0.03200000151991844, 1.040000081062317, 0.0, 0.0, 0.0, 0.0, 0.0, 1.621436019549236E9, 2021-05-19 16:53:39.549
35.0, -38.05535125732422, 9.325440406799316, 52.1846923828125, 76.72217559814453, -0.09600000083446503, -0.03200000151991844, 1.040000081062317, 0.0, 0.0, 0.0, 0.0, 0.0, 1.62143601956474E9, 2021-05-19 16:53:39.564
35.0, -37.752418518066406, 1.4791303873062134, 48.94219970703125, 75.09158325195312, -0.09600000083446503, -0.03200000151991844, 1.040000081062317, 0.0, 0.0, 0.0, 0.0, 0.0, 1.62143601956474E9, 2021-05-19 16:53:39.564
36.0, -25.227495193481445, -0.0317891500890255, 57.56267166137695, 82.7957763671875, -0.09600000083446503, -0.03200000151991844, 1.040000081062317, 0.0, 0.0, 0.0, 0.0, 0.0, 1.6214360195799673E9, 2021-05-19 16:53:39.579
36.0, -28.967395782470703, 3.6108734607696533, 50.976707458496094, 63.082763671875, -0.09600000083446503, -0.03200000151991844, 1.040000081062317, 0.0, 0.0, 0.0, 0.0, 0.0, 1.6214360195799673E9, 2021-05-19 16:53:39.579
37.0, -40.12725830078125, -3.461277484893799, 33.53755187988281, 54.91482162475586, -0.09600000083446503, -0.03200000151991844, 1.040000081062317, 0.0, 0.0, 0.0, 0.0, 0.0, 1.621436019580645E9, 2021-05-19 16:53:39.580
37.0, -41.73915481567383, 0.3908195495605469, 37.25127410888672, 58.02641677856445, -0.09600000083446503, -0.03200000151991844, 1.040000081062317, 0.0, 0.0, 0.0, 0.0, 0.0, 1.621436019580645E9, 2021-05-19 16:53:39.580
38.0, -36.38735580444336, -0.843347430229187, 45.12376403808594, 54.608150482177734, -0.09600000083446503, -0.03200000151991844, 1.040000081062317, 0.0, 0.0, 0.0, 0.0, 0.0, 1.6214360195949373E9, 2021-05-19 16:53:39.594
38.0, -34.91383743286133, -2.4814236164093018, 41.67931365966797, 69.13765716552734, -0.09600000083446503, -0.03200000151991844, 1.040000081062317, 0.0, 0.0, 0.0, 0.0, 0.0, 1.6214360195949373E9, 2021-05-19 16:53:39.594
39.0, -40.87523651123047, -2.70955753326416, 35.01107406616211, 53.370243072509766, -0.09600000083446503, -0.03200000151991844, 1.040000081062317, 0.0, 0.0, 0.0, 0.0, 0.0, 1.6214360195956316E9, 2021-05-19 16:53:39.595
39.0, -46.8740348815918, 1.049041986465454, 36.63418960571289, 49.52188491821289, -0.09600000083446503, -0.03200000151991844, 1.040000081062317, 0.0, 0.0, 0.0, 0.0, 0.0, 1.6214360195956316E9, 2021-05-19 16:53:39.595
40.0, -36.02458572387695, 2.1672720909118652, 51.361915588378906, 65.52117919921875, -0.09600000083446503, -0.03200000151991844, 1.040000081062317, 0.0, 0.0, 0.0, 0.0, 0.0, 1.6214360196092255E9, 2021-05-19 16:53:39.609
40.0, -41.5147590637207, 10.496028900146484, 47.28916549682617, 67.57437896728516, -0.09600000083446503, -0.03200000151991844, 1.040000081062317, 0.0, 0.0, 0.0, 0.0, 0.0, 1.6214360196092255E9, 2021-05-19 16:53:39.609
41.0, -49.38724899291992, -0.5815544724464417, 36.2041015625, 63.49040985107422, -0.09600000083446503, -0.03200000151991844, 1.040000081062317, 0.0, 0.0, 0.0, 0.0, 0.0, 1.6214360196246715E9, 2021-05-19 16:53:39.624
41.0, -46.4215087890625, 7.866879463195801, 43.53804397583008, 69.03294372558594, -0.09600000083446503, -0.03200000151991844, 1.040000081062317, 0.0, 0.0, 0.0, 0.0, 0.0, 1.6214360196246715E9, 2021-05-19 16:53:39.624
42.0, -35.4523811340332, 3.932504892349243, 55.561824798583984, 77.30186462402344, -0.09600000083446503, -0.03200000151991844, 1.040000081062317, 0.0, 0.0, 0.0, 0.0, 0.0, 1.621436019639979E9, 2021-05-19 16:53:39.639
42.0, -41.45492172241211, 13.271035194396973, 47.69307327270508, 76.69599914550781, -0.09600000083446503, -0.03200000151991844, 1.040000081062317, 0.0, 0.0, 0.0, 0.0, 0.0, 1.621436019639979E9, 2021-05-19 16:53:39.639
43.0, -48.51211166381836, 8.78315544128418, 44.06163024902344, 73.94343566894531, -0.09600000083446503, -0.03200000151991844, 1.040000081062317, 0.0, 0.0, 0.0, 0.0, 0.0, 1.6214360196406395E9, 2021-05-19 16:53:39.640
43.0, -41.851348876953125, 2.294428586959839, 52.38665008544922, 81.63640594482422, -0.09600000083446503, -0.03200000151991844, 1.040000081062317, 0.0, 0.0, 0.0, 0.0, 0.0, 1.6214360196406395E9, 2021-05-19 16:53:39.640
44.0, -39.521392822265625, -3.195744514465332, 61.35492706298828, 79.41490936279297, -0.09600000083446503, -0.03200000151991844, 1.040000081062317, 0.0, 0.0, 0.0, 0.0, 0.0, 1.6214360196550016E9, 2021-05-19 16:53:39.655
44.0, -40.83783721923828, 3.2855021953582764, 57.15502166748047, 72.88130187988281, -0.09600000083446503, -0.03200000151991844, 1.040000081062317, 0.0, 0.0, 0.0, 0.0, 0.0, 1.6214360196550016E9, 2021-05-19 16:53:39.655
45.0, -47.00119400024414, -4.777722358703613, 51.96778106689453, 65.93256378173828, -0.09600000083446503, -0.03200000151991844, 1.040000081062317, 0.0, 0.0, 0.0, 0.0, 0.0, 1.6214360196557343E9, 2021-05-19 16:53:39.655
45.0, -41.69801330566406, 5.959530353546143, 61.17915344238281, 71.22826385498047, -0.09600000083446503, -0.03200000151991844, 1.040000081062317, 0.0, 0.0, 0.0, 0.0, 0.0, 1.6214360196557343E9, 2021-05-19 16:53:39.655
46.0, -26.824432373046875, 7.268495559692383, 74.40718078613281, 76.0115966796875, -0.09600000083446503, -0.03200000151991844, 1.040000081062317, 0.0, 0.0, 0.0, 0.0, 0.0, 1.62143601966924E9, 2021-05-19 16:53:39.669
46.0, -37.67388153076172, 6.670111656188965, 58.06007766723633, 64.62360382080078, -0.09600000083446503, -0.03200000151991844, 1.040000081062317, 0.0, 0.0, 0.0, 0.0, 0.0, 1.62143601966924E9, 2021-05-19 16:53:39.669
47.0, -32.96534729003906, 9.187064170837402, 57.60380935668945, 78.35277557373047, -0.09600000083446503, -0.03200000151991844, 1.040000081062317, 0.0, 0.0, 0.0, 0.0, 0.0, 1.6214360196846564E9, 2021-05-19 16:53:39.684
47.0, -33.83674621582031, 3.218183994293213, 62.293643951416016, 75.80590057373047, -0.09600000083446503, -0.03200000151991844, 1.040000081062317, 0.0, 0.0, 0.0, 0.0, 0.0, 1.6214360196846564E9, 2021-05-19 16:53:39.684
48.0, -33.133644104003906, -8.678438186645508, 58.52382278442383, 61.74013900756836, -0.09600000083446503, -0.03200000151991844, 1.040000081062317, 0.0, 0.0, 0.0, 0.0, 0.0, 1.6214360196999588E9, 2021-05-19 16:53:39.699
48.0, -36.11060333251953, 11.988249778747559, 54.308956146240234, 66.92363739013672, -0.09600000083446503, -0.03200000151991844, 1.040000081062317, 0.0, 0.0, 0.0, 0.0, 0.0, 1.6214360196999588E9, 2021-05-19 16:53:39.699
49.0, -29.939769744873047, 2.765655994415283, 54.555789947509766, 74.41465759277344, -0.09600000083446503, -0.03200000151991844, 1.040000081062317, 0.0, 0.0, 0.0, 0.0, 0.0, 1.6214360197007153E9, 2021-05-19 16:53:39.700
49.0, -39.70838928222656, -23.394943237304688, 49.031959533691406, 63.65496826171875, -0.09600000083446503, -0.03200000151991844, 1.040000081062317, 0.0, 0.0, 0.0, 0.0, 0.0, 1.6214360197007153E9, 2021-05-19 16:53:39.700
50.0, -28.944955825805664, -4.646825790405273, 60.711666107177734, 60.71540451049805, -0.09600000083446503, -0.03200000151991844, 1.040000081062317, 0.0, 0.0, 0.0, 0.0, 0.0, 1.6214360197149851E9, 2021-05-19 16:53:39.714
50.0, -43.4408073425293, -34.05739974975586, 44.248626708984375, 72.05852508544922, -0.09600000083446503, -0.03200000151991844, 1.040000081062317, 0.0, 0.0, 0.0, 0.0, 0.0, 1.6214360197149851E9, 2021-05-19 16:53:39.714
51.0, -36.95207977294922, -3.73429012298584, 40.31425094604492, 74.65027618408203, -0.09600000083446503, -0.03200000151991844, 1.040000081062317, 0.0, 0.0, 0.0, 0.0, 0.0, 1.621436019715711E9, 2021-05-19 16:53:39.715
51.0, -38.21242904663086, 1.8119815587997437, 45.26961898803711, 78.48741149902344, -0.09600000083446503, -0.03200000151991844, 1.040000081062317, 0.0, 0.0, 0.0, 0.0, 0.0, 1.621436019715711E9, 2021-05-19 16:53:39.715
52.0, -32.16875076293945, -13.009242057800293, 49.1628532409668, 74.47449493408203, -0.09600000083446503, -0.03200000151991844, 1.040000081062317, 0.0, 0.0, 0.0, 0.0, 0.0, 1.621436019729262E9, 2021-05-19 16:53:39.729
52.0, -32.33704376220703, 3.898845672607422, 46.18963623046875, 71.1160659790039, -0.09600000083446503, -0.03200000151991844, 1.040000081062317, 0.0, 0.0, 0.0, 0.0, 0.0, 1.621436019729262E9, 2021-05-19 16:53:39.729
53.0, -41.81394958496094, -9.744309425354004, 32.25476837158203, 56.53045654296875, -0.09600000083446503, -0.03200000151991844, 1.040000081062317, 0.0, 0.0, 0.0, 0.0, 0.0, 1.6214360197454166E9, 2021-05-19 16:53:39.745
53.0, -33.5861701965332, 4.4598307609558105, 43.61284255981445, 67.86983489990234, -0.09600000083446503, -0.03200000151991844, 1.040000081062317, 0.0, 0.0, 0.0, 0.0, 0.0, 1.6214360197454166E9, 2021-05-19 16:53:39.745
54.0, -32.68485641479492, -7.429311275482178, 46.95631408691406, 61.16045379638672, -0.09600000083446503, -0.03200000151991844, 1.040000081062317, 0.0, 0.0, 0.0, 0.0, 0.0, 1.621436019759982E9, 2021-05-19 16:53:39.759
54.0, -32.84941101074219, 2.1672720909118652, 47.9773063659668, 72.49609375, -0.09600000083446503, -0.03200000151991844, 1.040000081062317, 0.0, 0.0, 0.0, 0.0, 0.0, 1.621436019759982E9, 2021-05-19 16:53:39.759
55.0, -36.38735580444336, -5.559361457824707, 44.918067932128906, 72.85137939453125, -0.09600000083446503, -0.03200000151991844, 1.040000081062317, 0.0, 0.0, 0.0, 0.0, 0.0, 1.6214360197607515E9, 2021-05-19 16:53:39.760
55.0, -35.95726776123047, 12.53427505493164, 52.19965362548828, 63.59138870239258, -0.09600000083446503, -0.03200000151991844, 1.040000081062317, 0.0, 0.0, 0.0, 0.0, 0.0, 1.6214360197607515E9, 2021-05-19 16:53:39.760
56.0, -30.930843353271484, 12.822246551513672, 57.59259033203125, 72.00242614746094, -0.09600000083446503, -0.03200000151991844, 1.040000081062317, 0.0, 0.0, 0.0, 0.0, 0.0, 1.6214360197749732E9, 2021-05-19 16:53:39.774
56.0, -33.09998321533203, 12.84842586517334, 56.82217025756836, 72.5596694946289, -0.09600000083446503, -0.03200000151991844, 1.040000081062317, 0.0, 0.0, 0.0, 0.0, 0.0, 1.6214360197749732E9, 2021-05-19 16:53:39.774
57.0, -35.17189025878906, 4.100800514221191, 43.95317459106445, 71.16094970703125, -0.09600000083446503, -0.03200000151991844, 1.040000081062317, 0.0, 0.0, 0.0, 0.0, 0.0, 1.6214360197757256E9, 2021-05-19 16:53:39.775
57.0, -27.505094528198242, 13.56274700164795, 52.36420822143555, 79.14937591552734, -0.09600000083446503, -0.03200000151991844, 1.040000081062317, 0.0, 0.0, 0.0, 0.0, 0.0, 1.6214360197757256E9, 2021-05-19 16:53:39.775
58.0, -27.183462142944336, 5.338706970214844, 55.29254913330078, 70.50646209716797, -0.09600000083446503, -0.03200000151991844, 1.040000081062317, 0.0, 0.0, 0.0, 0.0, 0.0, 1.6214360198056285E9, 2021-05-19 16:53:39.805
58.0, -24.718868255615234, 2.3916659355163574, 49.57050323486328, 73.2403335571289, -0.09600000083446503, -0.03200000151991844, 1.040000081062317, 0.0, 0.0, 0.0, 0.0, 0.0, 1.6214360198056285E9, 2021-05-19 16:53:39.805
59.0, -29.670495986938477, 5.147972106933594, 41.15946960449219, 75.70492553710938, -0.09600000083446503, -0.03200000151991844, 1.040000081062317, 0.0, 0.0, 0.0, 0.0, 0.0, 1.6214360198374224E9, 2021-05-19 16:53:39.837
59.0, -34.554805755615234, -7.5041093826293945, 49.18903350830078, 74.81108856201172, -0.09600000083446503, -0.03200000151991844, 1.040000081062317, 0.0, 0.0, 0.0, 0.0, 0.0, 1.6214360198374224E9, 2021-05-19 16:53:39.837
60.0, -40.822879791259766, -9.86772632598877, 45.13124084472656, 60.84256362915039, -0.09600000083446503, -0.03200000151991844, 1.055999994277954, 0.0, 0.0, 0.0, 0.0, 0.0, 1.621436019838141E9, 2021-05-19 16:53:39.838
60.0, -34.98863220214844, 5.559361457824707, 46.26443099975586, 65.99240112304688, -0.09600000083446503, -0.03200000151991844, 1.055999994277954, 0.0, 0.0, 0.0, 0.0, 0.0, 1.621436019838141E9, 2021-05-19 16:53:39.838
61.0, -33.71332931518555, -2.978830337524414, 44.62635803222656, 70.55508422851562, -0.09600000083446503, -0.03200000151991844, 1.055999994277954, 0.0, 0.0, 0.0, 0.0, 0.0, 1.621436019838878E9, 2021-05-19 16:53:39.838
61.0, -33.04388427734375, -8.76071548461914, 46.776798248291016, 64.3281478881836, -0.09600000083446503, -0.03200000151991844, 1.055999994277954, 0.0, 0.0, 0.0, 0.0, 0.0, 1.621436019838878E9, 2021-05-19 16:53:39.838
62.0, -28.578445434570312, 5.477083683013916, 51.96403884887695, 54.791404724121094, -0.1120000034570694, -0.03200000151991844, 1.055999994277954, 0.0, 0.0, 0.0, 0.0, 0.0, 1.6214360198396263E9, 2021-05-19 16:53:39.839
62.0, -35.97596740722656, -9.374059677124023, 50.064170837402344, 61.919654846191406, -0.1120000034570694, -0.03200000151991844, 1.055999994277954, 0.0, 0.0, 0.0, 0.0, 0.0, 1.6214360198396263E9, 2021-05-19 16:53:39.839
63.0, -40.09733581542969, 2.627279758453369, 41.61573791503906, 58.24333190917969, -0.1120000034570694, -0.03200000151991844, 1.055999994277954, 0.0, 0.0, 0.0, 0.0, 0.0, 1.6214360198811083E9, 2021-05-19 16:53:39.881
63.0, -24.614151000976562, 13.970396041870117, 60.10954284667969, 79.75149536132812, -0.1120000034570694, -0.03200000151991844, 1.055999994277954, 0.0, 0.0, 0.0, 0.0, 0.0, 1.6214360198811083E9, 2021-05-19 16:53:39.881
64.0, -34.94001388549805, -3.0685880184173584, 56.463138580322266, 65.07612609863281, -0.1120000034570694, -0.03200000151991844, 1.055999994277954, 0.0, 0.0, 0.0, 0.0, 0.0, 1.6214360198818264E9, 2021-05-19 16:53:39.881
64.0, -25.257413864135742, 8.678438186645508, 50.5466194152832, 59.30172348022461, -0.1120000034570694, -0.03200000151991844, 1.055999994277954, 0.0, 0.0, 0.0, 0.0, 0.0, 1.6214360198818264E9, 2021-05-19 16:53:39.881
65.0, -50.640113830566406, 11.363685607910156, 39.73082733154297, 56.50053787231445, -0.1120000034570694, -0.03200000151991844, 1.055999994277954, 0.0, 0.0, 0.0, 0.0, 0.0, 1.6214360198826027E9, 2021-05-19 16:53:39.882
65.0, -34.24439239501953, 16.075960159301758, 49.058135986328125, 70.40922546386719, -0.1120000034570694, -0.03200000151991844, 1.055999994277954, 0.0, 0.0, 0.0, 0.0, 0.0, 1.6214360198826027E9, 2021-05-19 16:53:39.882
66.0, -42.96583938598633, 10.522208213806152, 46.8553352355957, 65.68572998046875, -0.1120000034570694, -0.03200000151991844, 1.055999994277954, 0.0, 0.0, 0.0, 0.0, 0.0, 1.621436019896304E9, 2021-05-19 16:53:39.896
66.0, -43.99805450439453, 12.201423645019531, 38.41438293457031, 59.855228424072266, -0.1120000034570694, -0.03200000151991844, 1.055999994277954, 0.0, 0.0, 0.0, 0.0, 0.0, 1.621436019896304E9, 2021-05-19 16:53:39.896
67.0, -45.25465774536133, 5.477083683013916, 30.717668533325195, 57.50657272338867, -0.1120000034570694, -0.03200000151991844, 1.055999994277954, 0.0, 0.0, 0.0, 0.0, 0.0, 1.6214360198970673E9, 2021-05-19 16:53:39.897
67.0, -39.54009246826172, 0.8059484362602234, 41.477359771728516, 67.1779556274414, -0.1120000034570694, -0.03200000151991844, 1.055999994277954, 0.0, 0.0, 0.0, 0.0, 0.0, 1.6214360198970673E9, 2021-05-19 16:53:39.897
68.0, -34.031219482421875, -7.515328884124756, 49.23017120361328, 63.946678161621094, -0.1120000034570694, -0.03200000151991844, 1.055999994277954, 0.0, 0.0, 0.0, 0.0, 0.0, 1.6214360198978152E9, 2021-05-19 16:53:39.897
68.0, -27.490135192871094, 0.7124509215354919, 51.57508850097656, 65.18084716796875, -0.1120000034570694, -0.03200000151991844, 1.055999994277954, 0.0, 0.0, 0.0, 0.0, 0.0, 1.6214360198978152E9, 2021-05-19 16:53:39.897
69.0, -34.24439239501953, 4.523408889770508, 42.969581604003906, 70.23345184326172, -0.1120000034570694, -0.03200000151991844, 1.055999994277954, 0.0, 0.0, 0.0, 0.0, 0.0, 1.6214360198985183E9, 2021-05-19 16:53:39.898
69.0, -40.000099182128906, -12.246302604675293, 48.485931396484375, 65.4314193725586, -0.1120000034570694, -0.03200000151991844, 1.055999994277954, 0.0, 0.0, 0.0, 0.0, 0.0, 1.6214360198985183E9, 2021-05-19 16:53:39.898
70.0, -35.8749885559082, 2.765655994415283, 57.4542121887207, 54.27155685424805, -0.1120000034570694, -0.03200000151991844, 1.055999994277954, 0.0, 0.0, 0.0, 0.0, 0.0, 1.6214360199254344E9, 2021-05-19 16:53:39.925
70.0, -35.29156494140625, 4.220477104187012, 54.49595260620117, 64.44408416748047, -0.1120000034570694, -0.03200000151991844, 1.055999994277954, 0.0, 0.0, 0.0, 0.0, 0.0, 1.6214360199254344E9, 2021-05-19 16:53:39.925
71.0, -29.891149520874023, 13.11021900177002, 55.27385330200195, 72.46617126464844, -0.1120000034570694, -0.03200000151991844, 1.055999994277954, 0.0, 0.0, 0.0, 0.0, 0.0, 1.6214360199261343E9, 2021-05-19 16:53:39.926
71.0, -42.16176223754883, -2.758176326751709, 48.46723175048828, 60.06840133666992, -0.1120000034570694, -0.03200000151991844, 1.055999994277954, 0.0, 0.0, 0.0, 0.0, 0.0, 1.6214360199261343E9, 2021-05-19 16:53:39.926
72.0, -30.20530128479004, -0.2636629343032837, 62.61527633666992, 70.19231414794922, -0.09600000083446503, -0.03200000151991844, 1.055999994277954, 0.0, 0.0, 0.0, 0.0, 0.0, 1.6214360199547741E9, 2021-05-19 16:53:39.954
72.0, -30.3174991607666, 7.100200176239014, 51.19361877441406, 62.99674606323242, -0.09600000083446503, -0.03200000151991844, 1.055999994277954, 0.0, 0.0, 0.0, 0.0, 0.0, 1.6214360199547741E9, 2021-05-19 16:53:39.954
73.0, -46.443946838378906, -6.0118889808654785, 34.95871353149414, 59.93002700805664, -0.09600000083446503, -0.03200000151991844, 1.055999994277954, 0.0, 0.0, 0.0, 0.0, 0.0, 1.6214360199727461E9, 2021-05-19 16:53:39.972
73.0, -39.2035026550293, -15.754328727722168, 47.483638763427734, 65.5136947631836, -0.09600000083446503, -0.03200000151991844, 1.055999994277954, 0.0, 0.0, 0.0, 0.0, 0.0, 1.6214360199727461E9, 2021-05-19 16:53:39.972
74.0, -30.81116485595703, 17.725255966186523, 57.51405334472656, 56.07793045043945, -0.09600000083446503, -0.03200000151991844, 1.055999994277954, 0.0, 0.0, 0.0, 0.0, 0.0, 1.6214360199733677E9, 2021-05-19 16:53:39.973
74.0, -34.79789733886719, 10.574566841125488, 52.70827865600586, 51.94908142089844, -0.09600000083446503, -0.03200000151991844, 1.055999994277954, 0.0, 0.0, 0.0, 0.0, 0.0, 1.6214360199733677E9, 2021-05-19 16:53:39.973
75.0, -43.60910415649414, 7.870619297027588, 43.97187423706055, 49.91831588745117, -0.09600000083446503, -0.03200000151991844, 1.055999994277954, 0.0, 0.0, 0.0, 0.0, 0.0, 1.6214360199742E9, 2021-05-19 16:53:39.974
75.0, -50.33718490600586, -6.561654567718506, 43.444549560546875, 49.97441482543945, -0.09600000083446503, -0.03200000151991844, 1.055999994277954, 0.0, 0.0, 0.0, 0.0, 0.0, 1.6214360199742E9, 2021-05-19 16:53:39.974
76.0, -22.635744094848633, 12.754928588867188, 62.0505485534668, 58.72203826904297, -0.09600000083446503, -0.03200000151991844, 1.055999994277954, 0.0, 0.0, 0.0, 0.0, 0.0, 1.6214360199749343E9, 2021-05-19 16:53:39.974
76.0, -32.28842544555664, 13.065340042114258, 51.00662612915039, 58.82675552368164, -0.09600000083446503, -0.03200000151991844, 1.055999994277954, 0.0, 0.0, 0.0, 0.0, 0.0, 1.6214360199749343E9, 2021-05-19 16:53:39.974
77.0, -32.71851348876953, 11.558160781860352, 52.60356140136719, 71.54615783691406, -0.09600000083446503, -0.03200000151991844, 1.055999994277954, 0.0, 0.0, 0.0, 0.0, 0.0, 1.6214360199850168E9, 2021-05-19 16:53:39.985
77.0, -38.72853469848633, -10.832620620727539, 44.43562316894531, 66.20932006835938, -0.09600000083446503, -0.03200000151991844, 1.055999994277954, 0.0, 0.0, 0.0, 0.0, 0.0, 1.6214360199850168E9, 2021-05-19 16:53:39.985
78.0, -25.982954025268555, -8.334366798400879, 57.8656005859375, 71.49005889892578, -0.09600000083446503, -0.03200000151991844, 1.055999994277954, 0.0, 0.0, 0.0, 0.0, 0.0, 1.621436019985727E9, 2021-05-19 16:53:39.985
78.0, -33.702110290527344, -13.532828330993652, 35.1307487487793, 63.84196090698242, -0.09600000083446503, -0.03200000151991844, 1.055999994277954, 0.0, 0.0, 0.0, 0.0, 0.0, 1.621436019985727E9, 2021-05-19 16:53:39.985
79.0, -28.327871322631836, -8.835514068603516, 39.49147415161133, 64.73580169677734, -0.09600000083446503, -0.03200000151991844, 1.055999994277954, 0.0, 0.0, 0.0, 0.0, 0.0, 1.6214360199994316E9, 2021-05-19 16:53:39.999
79.0, -35.033512115478516, -1.8045017719268799, 42.45347595214844, 58.84171676635742, -0.09600000083446503, -0.03200000151991844, 1.055999994277954, 0.0, 0.0, 0.0, 0.0, 0.0, 1.6214360199994316E9, 2021-05-19 16:53:39.999
80.0, -28.71308135986328, -0.3010619580745697, 54.86246109008789, 58.40414810180664, -0.09600000083446503, -0.03200000151991844, 1.040000081062317, 0.0, 0.0, 0.0, 0.0, 0.0, 1.621436020015015E9, 2021-05-19 16:53:40.015
80.0, -30.923362731933594, 9.14218521118164, 55.086856842041016, 57.62250900268555, -0.09600000083446503, -0.03200000151991844, 1.040000081062317, 0.0, 0.0, 0.0, 0.0, 0.0, 1.621436020015015E9, 2021-05-19 16:53:40.015
81.0, -39.30447769165039, -3.195744514465332, 34.47626876831055, 46.163455963134766, -0.09600000083446503, -0.03200000151991844, 1.040000081062317, 0.0, 0.0, 0.0, 0.0, 0.0, 1.6214360200157304E9, 2021-05-19 16:53:40.015
81.0, -38.511619567871094, 5.133012771606445, 37.98429489135742, 50.2249870300293, -0.09600000083446503, -0.03200000151991844, 1.040000081062317, 0.0, 0.0, 0.0, 0.0, 0.0, 1.6214360200157304E9, 2021-05-19 16:53:40.015
82.0, -31.521747589111328, 3.7268102169036865, 49.40968704223633, 63.31463623046875, -0.1120000034570694, -0.03200000151991844, 1.040000081062317, 0.0, 0.0, 0.0, 0.0, 0.0, 1.6214360200456462E9, 2021-05-19 16:53:40.045
82.0, -29.206748962402344, 8.412904739379883, 48.58317184448242, 56.05548858642578, -0.1120000034570694, -0.03200000151991844, 1.040000081062317, 0.0, 0.0, 0.0, 0.0, 0.0, 1.6214360200456462E9, 2021-05-19 16:53:40.045
83.0, -36.43223571777344, -10.136999130249023, 40.093597412109375, 45.52393341064453, -0.1120000034570694, -0.03200000151991844, 1.040000081062317, 0.0, 0.0, 0.0, 0.0, 0.0, 1.6214360200463417E9, 2021-05-19 16:53:40.046
83.0, -36.237762451171875, 7.350773334503174, 50.13522720336914, 47.928688049316406, -0.1120000034570694, -0.03200000151991844, 1.040000081062317, 0.0, 0.0, 0.0, 0.0, 0.0, 1.6214360200463417E9, 2021-05-19 16:53:40.046
84.0, -22.706802368164062, 13.846979141235352, 51.18239974975586, 54.282779693603516, -0.1120000034570694, -0.03200000151991844, 1.040000081062317, 0.0, 0.0, 0.0, 0.0, 0.0, 1.6214360200471025E9, 2021-05-19 16:53:40.047
84.0, -24.958221435546875, 13.042901039123535, 47.9174690246582, 59.88140869140625, -0.1120000034570694, -0.03200000151991844, 1.040000081062317, 0.0, 0.0, 0.0, 0.0, 0.0, 1.6214360200471025E9, 2021-05-19 16:53:40.047
85.0, -40.06367874145508, -9.497475624084473, 39.98514175415039, 57.92544174194336, -0.1120000034570694, -0.03200000151991844, 1.040000081062317, 0.0, 0.0, 0.0, 0.0, 0.0, 1.621436020059255E9, 2021-05-19 16:53:40.059
85.0, -42.80128479003906, -5.611720085144043, 47.93242645263672, 67.64543914794922, -0.1120000034570694, -0.03200000151991844, 1.040000081062317, 0.0, 0.0, 0.0, 0.0, 0.0, 1.621436020059255E9, 2021-05-19 16:53:40.059
86.0, -32.894290924072266, 3.1321661472320557, 58.57992172241211, 65.3117446899414, -0.1120000034570694, -0.03200000151991844, 1.040000081062317, 0.0, 0.0, 0.0, 0.0, 0.0, 1.6214360200749452E9, 2021-05-19 16:53:40.074
86.0, -38.519100189208984, -5.727656841278076, 45.21352005004883, 62.63023376464844, -0.1120000034570694, -0.03200000151991844, 1.040000081062317, 0.0, 0.0, 0.0, 0.0, 0.0, 1.6214360200749452E9, 2021-05-19 16:53:40.074
87.0, -33.94894027709961, 5.7388763427734375, 49.64904022216797, 69.8482437133789, -0.1120000034570694, -0.03200000151991844, 1.040000081062317, 0.0, 0.0, 0.0, 0.0, 0.0, 1.6214360200757155E9, 2021-05-19 16:53:40.075
87.0, -36.34621810913086, -4.254136085510254, 55.90963363647461, 70.7757339477539, -0.1120000034570694, -0.03200000151991844, 1.040000081062317, 0.0, 0.0, 0.0, 0.0, 0.0, 1.6214360200757155E9, 2021-05-19 16:53:40.075
88.0, -25.773521423339844, 7.799561500549316, 62.16274642944336, 67.660400390625, -0.1120000034570694, -0.03200000151991844, 1.040000081062317, 0.0, 0.0, 0.0, 0.0, 0.0, 1.6214360201056716E9, 2021-05-19 16:53:40.105
88.0, -32.23980712890625, 0.41699883341789246, 49.81733703613281, 60.045963287353516, -0.1120000034570694, -0.03200000151991844, 1.040000081062317, 0.0, 0.0, 0.0, 0.0, 0.0, 1.6214360201056716E9, 2021-05-19 16:53:40.105
89.0, -30.64286994934082, 0.349680632352829, 53.082271575927734, 61.530704498291016, -0.1120000034570694, -0.03200000151991844, 1.040000081062317, 0.0, 0.0, 0.0, 0.0, 0.0, 1.6214360201063645E9, 2021-05-19 16:53:40.106
89.0, -28.238115310668945, 1.9615775346755981, 59.518638610839844, 61.53444290161133, -0.1120000034570694, -0.03200000151991844, 1.040000081062317, 0.0, 0.0, 0.0, 0.0, 0.0, 1.6214360201063645E9, 2021-05-19 16:53:40.106
90.0, -32.63249588012695, -8.753235816955566, 54.72034454345703, 44.955467224121094, -0.1120000034570694, -0.03200000151991844, 1.040000081062317, 0.0, 0.0, 0.0, 0.0, 0.0, 1.6214360201071153E9, 2021-05-19 16:53:40.107
90.0, -27.83046531677246, -5.667818546295166, 50.9467887878418, 51.986480712890625, -0.1120000034570694, -0.03200000151991844, 1.040000081062317, 0.0, 0.0, 0.0, 0.0, 0.0, 1.6214360201071153E9, 2021-05-19 16:53:40.107
91.0, -27.179723739624023, 13.693643569946289, 44.573997497558594, 48.306419372558594, -0.1120000034570694, -0.03200000151991844, 1.040000081062317, 0.0, 0.0, 0.0, 0.0, 0.0, 1.6214360201192527E9, 2021-05-19 16:53:40.119
91.0, -36.45841598510742, 13.955436706542969, 45.69970703125, 42.76014709472656, -0.1120000034570694, -0.03200000151991844, 1.040000081062317, 0.0, 0.0, 0.0, 0.0, 0.0, 1.6214360201192527E9, 2021-05-19 16:53:40.119
92.0, -36.14800262451172, -0.4917968511581421, 46.68330001831055, 41.8737907409668, -0.1120000034570694, -0.03200000151991844, 1.040000081062317, 0.0, 0.0, 0.0, 0.0, 0.0, 1.621436020134971E9, 2021-05-19 16:53:40.134
92.0, -41.8550910949707, 17.82623291015625, 50.80841064453125, 49.499446868896484, -0.1120000034570694, -0.03200000151991844, 1.040000081062317, 0.0, 0.0, 0.0, 0.0, 0.0, 1.621436020134971E9, 2021-05-19 16:53:40.134
93.0, -43.0593376159668, 23.739015579223633, 45.36311721801758, 54.23789978027344, -0.1120000034570694, -0.03200000151991844, 1.040000081062317, 0.0, 0.0, 0.0, 0.0, 0.0, 1.6214360201357124E9, 2021-05-19 16:53:40.135
93.0, -40.385311126708984, -7.8294806480407715, 52.32680892944336, 55.07563781738281, -0.1120000034570694, -0.03200000151991844, 1.040000081062317, 0.0, 0.0, 0.0, 0.0, 0.0, 1.6214360201357124E9, 2021-05-19 16:53:40.135
94.0, -38.8033332824707, 3.595913887023926, 61.422245025634766, 68.41586303710938, -0.1120000034570694, -0.03200000151991844, 1.040000081062317, 0.0, 0.0, 0.0, 0.0, 0.0, 1.6214360201493745E9, 2021-05-19 16:53:40.149
94.0, -31.4918270111084, 4.291535377502441, 63.32585525512695, 74.37351989746094, -0.1120000034570694, -0.03200000151991844, 1.040000081062317, 0.0, 0.0, 0.0, 0.0, 0.0, 1.6214360201493745E9, 2021-05-19 16:53:40.149
95.0, -31.798500061035156, 6.610273361206055, 59.29424285888672, 72.5559310913086, -0.1120000034570694, -0.03200000151991844, 1.040000081062317, 0.0, 0.0, 0.0, 0.0, 0.0, 1.62143602016495E9, 2021-05-19 16:53:40.164
95.0, -36.45841598510742, -9.299261093139648, 62.6713752746582, 84.37026977539062, -0.1120000034570694, -0.03200000151991844, 1.040000081062317, 0.0, 0.0, 0.0, 0.0, 0.0, 1.62143602016495E9, 2021-05-19 16:53:40.164
96.0, -30.3174991607666, -2.298168420791626, 70.78695678710938, 78.58838653564453, -0.1120000034570694, -0.03200000151991844, 1.040000081062317, 0.0, 0.0, 0.0, 0.0, 0.0, 1.621436020165748E9, 2021-05-19 16:53:40.165
96.0, -34.83903884887695, 7.3956522941589355, 62.46567916870117, 73.71155548095703, -0.1120000034570694, -0.03200000151991844, 1.040000081062317, 0.0, 0.0, 0.0, 0.0, 0.0, 1.621436020165748E9, 2021-05-19 16:53:40.165
97.0, -38.48918151855469, 7.354513168334961, 53.52357864379883, 68.7225341796875, -0.1120000034570694, -0.03200000151991844, 1.040000081062317, 0.0, 0.0, 0.0, 0.0, 0.0, 1.6214360201792488E9, 2021-05-19 16:53:40.179
97.0, -35.515960693359375, 7.410611629486084, 52.74567794799805, 62.78731155395508, -0.1120000034570694, -0.03200000151991844, 1.040000081062317, 0.0, 0.0, 0.0, 0.0, 0.0, 1.6214360201792488E9, 2021-05-19 16:53:40.179
98.0, -24.550573348999023, 0.5516352653503418, 60.44613265991211, 60.371334075927734, -0.1120000034570694, -0.03200000151991844, 1.040000081062317, 0.0, 0.0, 0.0, 0.0, 0.0, 1.621436020194976E9, 2021-05-19 16:53:40.194
98.0, -33.40665817260742, 0.20382454991340637, 50.03799057006836, 48.96464157104492, -0.1120000034570694, -0.03200000151991844, 1.040000081062317, 0.0, 0.0, 0.0, 0.0, 0.0, 1.621436020194976E9, 2021-05-19 16:53:40.194
99.0, -35.24668884277344, 0.47683724761009216, 42.55819320678711, 43.27251434326172, -0.1120000034570694, -0.03200000151991844, 1.040000081062317, 0.0, 0.0, 0.0, 0.0, 0.0, 1.6214360201957743E9, 2021-05-19 16:53:40.195
99.0, -34.63334274291992, 2.294428586959839, 47.86137008666992, 40.243194580078125, -0.1120000034570694, -0.03200000151991844, 1.040000081062317, 0.0, 0.0, 0.0, 0.0, 0.0, 1.6214360201957743E9, 2021-05-19 16:53:40.195
100.0, -34.85773849487305, 4.7814621925354, 51.86680221557617, 37.48688888549805, -0.1120000034570694, -0.03200000151991844, 1.040000081062317, 0.0, 0.0, 0.0, 0.0, 0.0, 1.6214360202099955E9, 2021-05-19 16:53:40.209
100.0, -26.039052963256836, -3.0536282062530518, 55.55060577392578, 37.77859878540039, -0.1120000034570694, -0.03200000151991844, 1.040000081062317, 0.0, 0.0, 0.0, 0.0, 0.0, 1.6214360202099955E9, 2021-05-19 16:53:40.209
0.0, -27.574281692504883, 13.886248588562012, 52.89714431762695, 38.12641143798828, -0.1120000034570694, -0.03200000151991844, 1.040000081062317, 0.0, 0.0, 0.0, 0.0, 0.0, 1.6214360202107437E9, 2021-05-19 16:53:40.210
1.0, -23.232257843017578, 14.742685317993164, 63.21553039550781, 39.45781326293945, -0.1120000034570694, -0.03200000151991844, 1.040000081062317, 0.0, 0.0, 0.0, 0.0, 0.0, 1.6214360202242768E9, 2021-05-19 16:53:40.224
1.0, -25.057329177856445, 9.207633972167969, 71.47322845458984, 36.604270935058594, -0.1120000034570694, -0.03200000151991844, 1.040000081062317, 0.0, 0.0, 0.0, 0.0, 0.0, 1.6214360202242768E9, 2021-05-19 16:53:40.224
2.0, -23.36689567565918, 15.898314476013184, 64.62173461914062, 44.04667282104492, -0.1120000034570694, -0.03200000151991844, 1.040000081062317, 0.0, 0.0, 0.0, 0.0, 0.0, 1.6214360202400055E9, 2021-05-19 16:53:40.240
2.0, -32.42119216918945, 22.600215911865234, 59.13155746459961, 55.06815719604492, -0.1120000034570694, -0.03200000151991844, 1.040000081062317, 0.0, 0.0, 0.0, 0.0, 0.0, 1.6214360202400055E9, 2021-05-19 16:53:40.240
3.0, -35.26725769042969, 9.940653800964355, 63.29032516479492, 70.26336669921875, -0.1120000034570694, -0.03200000151991844, 1.040000081062317, 0.0, 0.0, 0.0, 0.0, 0.0, 1.6214360202407124E9, 2021-05-19 16:53:40.240
3.0, -30.682138442993164, 14.02088451385498, 70.26898193359375, 75.7722396850586, -0.1120000034570694, -0.03200000151991844, 1.040000081062317, 0.0, 0.0, 0.0, 0.0, 0.0, 1.6214360202407124E9, 2021-05-19 16:53:40.240
4.0, -32.50720977783203, 1.3837629556655884, 52.60917282104492, 74.23888397216797, -0.1120000034570694, -0.03200000151991844, 1.040000081062317, 0.0, 0.0, 0.0, 0.0, 0.0, 1.6214360202542381E9, 2021-05-19 16:53:40.254
4.0, -42.97145080566406, -21.343608856201172, 43.69325256347656, 68.21764373779297, -0.1120000034570694, -0.03200000151991844, 1.040000081062317, 0.0, 0.0, 0.0, 0.0, 0.0, 1.6214360202542381E9, 2021-05-19 16:53:40.254
5.0, -40.69758987426758, -5.852943420410156, 51.913551330566406, 75.54410552978516, -0.1120000034570694, -0.03200000151991844, 1.040000081062317, 0.0, 0.0, 0.0, 0.0, 0.0, 1.6214360202699664E9, 2021-05-19 16:53:40.269
5.0, -40.62653350830078, -1.443601369857788, 51.84623336791992, 58.314388275146484, -0.1120000034570694, -0.03200000151991844, 1.040000081062317, 0.0, 0.0, 0.0, 0.0, 0.0, 1.6214360202699664E9, 2021-05-19 16:53:40.269
6.0, -35.64872741699219, 8.882262229919434, 51.378746032714844, 60.038482666015625, -0.1120000034570694, -0.03200000151991844, 1.040000081062317, 0.0, 0.0, 0.0, 0.0, 0.0, 1.6214360202707884E9, 2021-05-19 16:53:40.270
6.0, -38.31901550292969, 6.679461479187012, 39.29138946533203, 54.604408264160156, -0.1120000034570694, -0.03200000151991844, 1.040000081062317, 0.0, 0.0, 0.0, 0.0, 0.0, 1.6214360202707884E9, 2021-05-19 16:53:40.270
7.0, -42.021514892578125, -4.532758712768555, 39.8187141418457, 49.174076080322266, -0.1120000034570694, -0.03200000151991844, 1.040000081062317, 0.0, 0.0, 0.0, 0.0, 0.0, 1.6214360202843525E9, 2021-05-19 16:53:40.284
7.0, -34.616512298583984, -1.9148287773132324, 45.024654388427734, 43.717559814453125, -0.1120000034570694, -0.03200000151991844, 1.040000081062317, 0.0, 0.0, 0.0, 0.0, 0.0, 1.6214360202843525E9, 2021-05-19 16:53:40.284
8.0, -23.98023796081543, 9.454466819763184, 48.35316467285156, 47.95486831665039, -0.1120000034570694, -0.03200000151991844, 1.040000081062317, 0.0, 0.0, 0.0, 0.0, 0.0, 1.6214360202999568E9, 2021-05-19 16:53:40.299
8.0, -34.65017318725586, 4.682354927062988, 45.48466491699219, 48.6991081237793, -0.1120000034570694, -0.03200000151991844, 1.040000081062317, 0.0, 0.0, 0.0, 0.0, 0.0, 1.6214360202999568E9, 2021-05-19 16:53:40.299
9.0, -33.04575729370117, 0.6806617975234985, 51.188011169433594, 38.893089294433594, -0.1120000034570694, -0.03200000151991844, 1.040000081062317, 0.0, 0.0, 0.0, 0.0, 0.0, 1.6214360203007593E9, 2021-05-19 16:53:40.300
9.0, -27.484525680541992, 2.2738592624664307, 60.216129302978516, 40.97247314453125, -0.1120000034570694, -0.03200000151991844, 1.040000081062317, 0.0, 0.0, 0.0, 0.0, 0.0, 1.6214360203007593E9, 2021-05-19 16:53:40.300
10.0, -22.84330940246582, 5.621069431304932, 60.7060546875, 50.80093002319336, -0.1120000034570694, -0.03200000151991844, 1.040000081062317, 0.0, 0.0, 0.0, 0.0, 0.0, 1.6214360203143032E9, 2021-05-19 16:53:40.314
10.0, -35.2597770690918, -0.19447480142116547, 53.301055908203125, 52.274452209472656, -0.1120000034570694, -0.03200000151991844, 1.040000081062317, 0.0, 0.0, 0.0, 0.0, 0.0, 1.6214360203143032E9, 2021-05-19 16:53:40.314
11.0, -36.314430236816406, -4.966587066650391, 53.40951156616211, 55.371089935302734, -0.1120000034570694, -0.01600000075995922, 1.040000081062317, 0.0, 0.0, 0.0, 0.0, 0.0, 1.6214360203461392E9, 2021-05-19 16:53:40.346
11.0, -37.74681091308594, -7.663054943084717, 51.9023323059082, 47.03485107421875, -0.1120000034570694, -0.01600000075995922, 1.040000081062317, 0.0, 0.0, 0.0, 0.0, 0.0, 1.6214360203461392E9, 2021-05-19 16:53:40.346
12.0, -30.700838088989258, -0.8115583062171936, 54.31082534790039, 61.384849548339844, -0.1120000034570694, -0.01600000075995922, 1.040000081062317, 0.0, 0.0, 0.0, 0.0, 0.0, 1.621436020346809E9, 2021-05-19 16:53:40.346
12.0, -36.95769119262695, 7.8425703048706055, 49.16098403930664, 57.89552307128906, -0.1120000034570694, -0.01600000075995922, 1.040000081062317, 0.0, 0.0, 0.0, 0.0, 0.0, 1.621436020346809E9, 2021-05-19 16:53:40.346
13.0, -41.060359954833984, 3.4369680881500244, 48.9627685546875, 66.62445068359375, -0.1120000034570694, -0.01600000075995922, 1.040000081062317, 0.0, 0.0, 0.0, 0.0, 0.0, 1.621436020360743E9, 2021-05-19 16:53:40.360
13.0, -42.649818420410156, -0.026179298758506775, 52.20900344848633, 68.763671875, -0.1120000034570694, -0.01600000075995922, 1.040000081062317, 0.0, 0.0, 0.0, 0.0, 0.0, 1.621436020360743E9, 2021-05-19 16:53:40.360
14.0, -40.256282806396484, 5.254559516906738, 43.85032653808594, 63.98033905029297, -0.1120000034570694, -0.01600000075995922, 1.040000081062317, 0.0, 0.0, 0.0, 0.0, 0.0, 1.6214360203613608E9, 2021-05-19 16:53:40.361
14.0, -40.00571060180664, -1.8101115226745605, 38.730403900146484, 66.80770111083984, -0.1120000034570694, -0.01600000075995922, 1.040000081062317, 0.0, 0.0, 0.0, 0.0, 0.0, 1.6214360203613608E9, 2021-05-19 16:53:40.361
15.0, -42.24216842651367, -3.642662525177002, 41.89809799194336, 59.185787200927734, -0.1120000034570694, -0.01600000075995922, 1.040000081062317, 0.0, 0.0, 0.0, 0.0, 0.0, 1.621436020362098E9, 2021-05-19 16:53:40.362
15.0, -32.33891677856445, -0.6432628035545349, 54.79327392578125, 52.9177131652832, -0.1120000034570694, -0.01600000075995922, 1.040000081062317, 0.0, 0.0, 0.0, 0.0, 0.0, 1.621436020362098E9, 2021-05-19 16:53:40.362
16.0, -31.85272789001465, 1.5670180320739746, 51.434844970703125, 59.59343719482422, -0.1120000034570694, -0.01600000075995922, 1.040000081062317, 0.0, 0.0, 0.0, 0.0, 0.0, 1.6214360203742633E9, 2021-05-19 16:53:40.374
16.0, -34.79977035522461, -1.4099422693252563, 43.607234954833984, 41.87004852294922, -0.1120000034570694, -0.01600000075995922, 1.040000081062317, 0.0, 0.0, 0.0, 0.0, 0.0, 1.6214360203742633E9, 2021-05-19 16:53:40.374
17.0, -30.274490356445312, -4.805771350860596, 54.68855667114258, 49.76498031616211, -0.1120000034570694, -0.01600000075995922, 1.040000081062317, 0.0, 0.0, 0.0, 0.0, 0.0, 1.6214360203897462E9, 2021-05-19 16:53:40.389
17.0, -26.747764587402344, 6.137176036834717, 52.82982635498047, 43.64276123046875, -0.1120000034570694, -0.01600000075995922, 1.040000081062317, 0.0, 0.0, 0.0, 0.0, 0.0, 1.6214360203897462E9, 2021-05-19 16:53:40.389
18.0, -30.244571685791016, 7.064671039581299, 47.06290054321289, 48.28023910522461, -0.1120000034570694, -0.01600000075995922, 1.040000081062317, 0.0, 0.0, 0.0, 0.0, 0.0, 1.621436020404944E9, 2021-05-19 16:53:40.404
18.0, -39.99074935913086, -2.4421546459198, 37.33168029785156, 34.554805755615234, -0.1120000034570694, -0.01600000075995922, 1.040000081062317, 0.0, 0.0, 0.0, 0.0, 0.0, 1.621436020404944E9, 2021-05-19 16:53:40.404
19.0, -40.52181625366211, -13.336483001708984, 42.85551452636719, 40.97621536254883, -0.1120000034570694, -0.01600000075995922, 1.040000081062317, 0.0, 0.0, 0.0, 0.0, 0.0, 1.6214360204057088E9, 2021-05-19 16:53:40.405
19.0, -28.909425735473633, 2.2402000427246094, 53.682525634765625, 54.63806915283203, -0.1120000034570694, -0.01600000075995922, 1.040000081062317, 0.0, 0.0, 0.0, 0.0, 0.0, 1.6214360204057088E9, 2021-05-19 16:53:40.405
20.0, -30.023916244506836, 11.36181640625, 51.1393928527832, 52.599822998046875, -0.1120000034570694, -0.01600000075995922, 1.055999994277954, 0.0, 0.0, 0.0, 0.0, 0.0, 1.6214360204206588E9, 2021-05-19 16:53:40.420
20.0, -23.793243408203125, 5.2059407234191895, 43.409019470214844, 59.757991790771484, -0.1120000034570694, -0.01600000075995922, 1.055999994277954, 0.0, 0.0, 0.0, 0.0, 0.0, 1.6214360204206588E9, 2021-05-19 16:53:40.420
21.0, -34.242523193359375, -5.13488245010376, 45.073272705078125, 68.93570709228516, -0.1120000034570694, -0.03200000151991844, 1.055999994277954, 0.0, 0.0, 0.0, 0.0, 0.0, 1.6214360204214685E9, 2021-05-19 16:53:40.421
21.0, -30.79059600830078, -4.749672889709473, 53.33845138549805, 73.09447479248047, -0.1120000034570694, -0.03200000151991844, 1.055999994277954, 0.0, 0.0, 0.0, 0.0, 0.0, 1.6214360204214685E9, 2021-05-19 16:53:40.421
22.0, -26.130680084228516, 7.43118143081665, 51.9023323059082, 71.43769836425781, -0.1120000034570694, -0.03200000151991844, 1.055999994277954, 0.0, 0.0, 0.0, 0.0, 0.0, 1.6214360204342644E9, 2021-05-19 16:53:40.434
22.0, -46.50565719604492, -8.796244621276855, 41.18003845214844, 63.927978515625, -0.1120000034570694, -0.03200000151991844, 1.055999994277954, 0.0, 0.0, 0.0, 0.0, 0.0, 1.6214360204342644E9, 2021-05-19 16:53:40.434
23.0, -36.55378341674805, 3.7959985733032227, 57.17932891845703, 62.23380661010742, -0.1120000034570694, -0.03200000151991844, 1.055999994277954, 0.0, 0.0, 0.0, 0.0, 0.0, 1.6214360204497614E9, 2021-05-19 16:53:40.449
23.0, -36.17605209350586, 7.203047275543213, 59.61026382446289, 63.78212356567383, -0.1120000034570694, -0.03200000151991844, 1.055999994277954, 0.0, 0.0, 0.0, 0.0, 0.0, 1.6214360204497614E9, 2021-05-19 16:53:40.449
24.0, -30.842954635620117, 7.333943843841553, 57.156890869140625, 62.675113677978516, -0.1120000034570694, -0.03200000151991844, 1.055999994277954, 0.0, 0.0, 0.0, 0.0, 0.0, 1.6214360204649217E9, 2021-05-19 16:53:40.464
24.0, -37.832828521728516, -4.270965576171875, 53.001861572265625, 53.314144134521484, -0.1120000034570694, -0.03200000151991844, 1.055999994277954, 0.0, 0.0, 0.0, 0.0, 0.0, 1.6214360204649217E9, 2021-05-19 16:53:40.464
25.0, -31.706871032714844, -9.559184074401855, 57.60942077636719, 56.87078857421875, -0.1120000034570694, -0.03200000151991844, 1.055999994277954, 0.0, 0.0, 0.0, 0.0, 0.0, 1.6214360204656904E9, 2021-05-19 16:53:40.465
25.0, -24.578622817993164, -18.961292266845703, 61.91030502319336, 44.03919219970703, -0.1120000034570694, -0.03200000151991844, 1.055999994277954, 0.0, 0.0, 0.0, 0.0, 0.0, 1.6214360204656904E9, 2021-05-19 16:53:40.465
26.0, -27.61168098449707, -20.195459365844727, 56.64452362060547, 43.4520263671875, -0.1120000034570694, -0.03200000151991844, 1.055999994277954, 0.0, 0.0, 0.0, 0.0, 0.0, 1.6214360204799364E9, 2021-05-19 16:53:40.479
26.0, -27.73135757446289, -4.3644633293151855, 51.79761505126953, 41.26418685913086, -0.1120000034570694, -0.03200000151991844, 1.055999994277954, 0.0, 0.0, 0.0, 0.0, 0.0, 1.6214360204799364E9, 2021-05-19 16:53:40.479
27.0, -27.806156158447266, 12.89891529083252, 56.0573616027832, 43.336090087890625, -0.1120000034570694, -0.03200000151991844, 1.055999994277954, 0.0, 0.0, 0.0, 0.0, 0.0, 1.6214360204807115E9, 2021-05-19 16:53:40.480
27.0, -24.279430389404297, 6.986133098602295, 70.77386474609375, 52.72697830200195, -0.1120000034570694, -0.03200000151991844, 1.055999994277954, 0.0, 0.0, 0.0, 0.0, 0.0, 1.6214360204807115E9, 2021-05-19 16:53:40.480
28.0, -30.188472747802734, -0.8975759744644165, 54.965309143066406, 49.72758102416992, -0.1120000034570694, -0.03200000151991844, 1.055999994277954, 0.0, 0.0, 0.0, 0.0, 0.0, 1.6214360204942958E9, 2021-05-19 16:53:40.494
28.0, -32.51469039916992, 2.7862255573272705, 49.44147872924805, 59.92628860473633, -0.1120000034570694, -0.03200000151991844, 1.055999994277954, 0.0, 0.0, 0.0, 0.0, 0.0, 1.6214360204942958E9, 2021-05-19 16:53:40.494
29.0, -33.7563362121582, -1.9410080909729004, 56.00126266479492, 53.9686279296875, -0.1120000034570694, -0.03200000151991844, 1.055999994277954, 0.0, 0.0, 0.0, 0.0, 0.0, 1.621436020510384E9, 2021-05-19 16:53:40.510
29.0, -35.966617584228516, 0.4562678039073944, 51.44980239868164, 55.24767303466797, -0.1120000034570694, -0.03200000151991844, 1.055999994277954, 0.0, 0.0, 0.0, 0.0, 0.0, 1.621436020510384E9, 2021-05-19 16:53:40.510
30.0, -39.36244583129883, 2.6254098415374756, 45.06205368041992, 56.20134735107422, -0.1120000034570694, -0.03200000151991844, 1.055999994277954, 0.0, 0.0, 0.0, 0.0, 0.0, 1.6214360205249207E9, 2021-05-19 16:53:40.524
30.0, -45.8287353515625, -10.726033210754395, 36.55378341674805, 52.48762512207031, -0.1120000034570694, -0.03200000151991844, 1.055999994277954, 0.0, 0.0, 0.0, 0.0, 0.0, 1.6214360205249207E9, 2021-05-19 16:53:40.524
31.0, -46.72256851196289, -0.8377375602722168, 42.156150817871094, 68.03439331054688, -0.1120000034570694, -0.03200000151991844, 1.055999994277954, 0.0, 0.0, 0.0, 0.0, 0.0, 1.6214360205256994E9, 2021-05-19 16:53:40.525
31.0, -40.52181625366211, -8.108102798461914, 43.465118408203125, 51.29085922241211, -0.1120000034570694, -0.03200000151991844, 1.055999994277954, 0.0, 0.0, 0.0, 0.0, 0.0, 1.6214360205256994E9, 2021-05-19 16:53:40.525
32.0, -35.79084396362305, 0.4600076973438263, 41.77094268798828, 58.74448013305664, -0.1120000034570694, -0.03200000151991844, 1.055999994277954, 0.0, 0.0, 0.0, 0.0, 0.0, 1.6214360205399115E9, 2021-05-19 16:53:40.539
32.0, -35.6823844909668, 3.8221776485443115, 41.57272720336914, 65.49874114990234, -0.1120000034570694, -0.03200000151991844, 1.055999994277954, 0.0, 0.0, 0.0, 0.0, 0.0, 1.6214360205399115E9, 2021-05-19 16:53:40.539
33.0, -26.493452072143555, 0.10845709592103958, 48.92537307739258, 65.36035919189453, -0.1120000034570694, -0.03200000151991844, 1.055999994277954, 0.0, 0.0, 0.0, 0.0, 0.0, 1.621436020540698E9, 2021-05-19 16:53:40.540
33.0, -21.231412887573242, -7.539638519287109, 60.010433197021484, 65.39775848388672, -0.1120000034570694, -0.03200000151991844, 1.055999994277954, 0.0, 0.0, 0.0, 0.0, 0.0, 1.621436020540698E9, 2021-05-19 16:53:40.540
34.0, -14.581870079040527, 3.0891573429107666, 66.51038360595703, 77.4776382446289, -0.1120000034570694, -0.03200000151991844, 1.055999994277954, 0.0, 0.0, 0.0, 0.0, 0.0, 1.6214360205542667E9, 2021-05-19 16:53:40.554
34.0, -21.197751998901367, 3.4407079219818115, 59.172698974609375, 63.64374923706055, -0.1120000034570694, -0.03200000151991844, 1.055999994277954, 0.0, 0.0, 0.0, 0.0, 0.0, 1.6214360205542667E9, 2021-05-19 16:53:40.554
35.0, -22.211265563964844, 1.7876721620559692, 63.51472091674805, 62.24876403808594, -0.1120000034570694, -0.03200000151991844, 1.055999994277954, 0.0, 0.0, 0.0, 0.0, 0.0, 1.6214360205703807E9, 2021-05-19 16:53:40.570
35.0, -16.956707000732422, -24.040077209472656, 73.15618133544922, 56.130287170410156, -0.1120000034570694, -0.03200000151991844, 1.055999994277954, 0.0, 0.0, 0.0, 0.0, 0.0, 1.6214360205703807E9, 2021-05-19 16:53:40.570
36.0, -15.95067310333252, -0.30293190479278564, 71.98933410644531, 63.64374923706055, -0.1120000034570694, -0.03200000151991844, 1.055999994277954, 0.0, 0.0, 0.0, 0.0, 0.0, 1.621436020584978E9, 2021-05-19 16:53:40.584
36.0, -24.754398345947266, -5.512612342834473, 60.80329513549805, 54.66050720214844, -0.1120000034570694, -0.03200000151991844, 1.055999994277954, 0.0, 0.0, 0.0, 0.0, 0.0, 1.621436020584978E9, 2021-05-19 16:53:40.584
37.0, -29.28715705871582, -7.879969120025635, 64.18790435791016, 48.56821060180664, -0.1120000034570694, -0.03200000151991844, 1.055999994277954, 0.0, 0.0, 0.0, 0.0, 0.0, 1.6214360205857236E9, 2021-05-19 16:53:40.585
37.0, -23.318275451660156, -2.883462905883789, 77.31869506835938, 57.35323715209961, -0.1120000034570694, -0.03200000151991844, 1.055999994277954, 0.0, 0.0, 0.0, 0.0, 0.0, 1.6214360205857236E9, 2021-05-19 16:53:40.585
38.0, -28.950565338134766, -1.335144281387329, 65.16401672363281, 56.41078186035156, -0.1120000034570694, -0.03200000151991844, 1.055999994277954, 0.0, 0.0, 0.0, 0.0, 0.0, 1.6214360206000028E9, 2021-05-19 16:53:40.600
38.0, -35.69734573364258, -7.457360744476318, 57.059654235839844, 65.56605529785156, -0.1120000034570694, -0.03200000151991844, 1.055999994277954, 0.0, 0.0, 0.0, 0.0, 0.0, 1.6214360206000028E9, 2021-05-19 16:53:40.600
39.0, -29.9715576171875, -6.971173286437988, 57.28778839111328, 67.53697967529297, -0.1120000034570694, -0.03200000151991844, 1.055999994277954, 0.0, 0.0, 0.0, 0.0, 0.0, 1.6214360206007051E9, 2021-05-19 16:53:40.600
39.0, -39.09317398071289, -23.179899215698242, 58.17414474487305, 65.8128890991211, -0.1120000034570694, -0.03200000151991844, 1.055999994277954, 0.0, 0.0, 0.0, 0.0, 0.0, 1.6214360206007051E9, 2021-05-19 16:53:40.600
40.0, -28.748611450195312, -18.50502586364746, 50.997276306152344, 70.80565643310547, -0.1120000034570694, -0.03200000151991844, 1.040000081062317, 0.0, 0.0, 0.0, 0.0, 0.0, 1.6214360206312835E9, 2021-05-19 16:53:40.631
40.0, -41.71110534667969, -17.79818344116211, 39.3848876953125, 60.711666107177734, -0.1120000034570694, -0.03200000151991844, 1.040000081062317, 0.0, 0.0, 0.0, 0.0, 0.0, 1.6214360206312835E9, 2021-05-19 16:53:40.631
41.0, -36.36678695678711, -22.60395622253418, 41.83452224731445, 70.56629943847656, -0.1120000034570694, -0.03200000151991844, 1.040000081062317, 0.0, 0.0, 0.0, 0.0, 0.0, 1.6214360206320124E9, 2021-05-19 16:53:40.632
41.0, -26.957199096679688, -5.564970970153809, 50.997276306152344, 70.52890014648438, -0.1120000034570694, -0.03200000151991844, 1.040000081062317, 0.0, 0.0, 0.0, 0.0, 0.0, 1.6214360206320124E9, 2021-05-19 16:53:40.632
42.0, -26.265317916870117, -11.761985778808594, 49.93140411376953, 61.77379608154297, -0.1120000034570694, -0.03200000151991844, 1.040000081062317, 0.0, 0.0, 0.0, 0.0, 0.0, 1.6214360206327927E9, 2021-05-19 16:53:40.632
42.0, -28.153966903686523, -7.341423511505127, 43.330482482910156, 73.71530151367188, -0.1120000034570694, -0.03200000151991844, 1.040000081062317, 0.0, 0.0, 0.0, 0.0, 0.0, 1.6214360206327927E9, 2021-05-19 16:53:40.632
43.0, -33.49080276489258, -21.242631912231445, 47.65754699707031, 60.83134460449219, -0.1120000034570694, -0.03200000151991844, 1.040000081062317, 0.0, 0.0, 0.0, 0.0, 0.0, 1.621436020644324E9, 2021-05-19 16:53:40.644
43.0, -20.61058807373047, 0.5011466145515442, 63.73911666870117, 66.92363739013672, -0.1120000034570694, -0.03200000151991844, 1.040000081062317, 0.0, 0.0, 0.0, 0.0, 0.0, 1.621436020644324E9, 2021-05-19 16:53:40.644
44.0, -24.96383285522461, 9.379669189453125, 57.164371490478516, 55.5655632019043, -0.1120000034570694, -0.03200000151991844, 1.040000081062317, 0.0, 0.0, 0.0, 0.0, 0.0, 1.6214360206599543E9, 2021-05-19 16:53:40.659
44.0, -30.49514389038086, 1.0060330629348755, 52.03696823120117, 49.52188491821289, -0.1120000034570694, -0.03200000151991844, 1.040000081062317, 0.0, 0.0, 0.0, 0.0, 0.0, 1.6214360206599543E9, 2021-05-19 16:53:40.659
45.0, -29.062763214111328, -17.8468017578125, 52.01826858520508, 44.678714752197266, -0.1120000034570694, -0.03200000151991844, 1.040000081062317, 0.0, 0.0, 0.0, 0.0, 0.0, 1.6214360206607113E9, 2021-05-19 16:53:40.660
45.0, -17.15492057800293, 8.108102798461914, 69.15823364257812, 59.133426666259766, -0.1120000034570694, -0.03200000151991844, 1.040000081062317, 0.0, 0.0, 0.0, 0.0, 0.0, 1.6214360206607113E9, 2021-05-19 16:53:40.660
46.0, -20.924739837646484, -9.091696739196777, 59.81222152709961, 61.384849548339844, -0.1120000034570694, -0.03200000151991844, 1.040000081062317, 0.0, 0.0, 0.0, 0.0, 0.0, 1.621436020690642E9, 2021-05-19 16:53:40.690
46.0, -31.43385887145996, 1.15562903881073, 49.72196960449219, 64.03643798828125, -0.1120000034570694, -0.03200000151991844, 1.040000081062317, 0.0, 0.0, 0.0, 0.0, 0.0, 1.621436020690642E9, 2021-05-19 16:53:40.690
47.0, -35.35701370239258, -2.988180160522461, 50.93743896484375, 69.15261840820312, -0.1120000034570694, -0.03200000151991844, 1.040000081062317, 0.0, 0.0, 0.0, 0.0, 0.0, 1.621436020691332E9, 2021-05-19 16:53:40.691
47.0, -14.402355194091797, 7.39752197265625, 66.14761352539062, 76.99519348144531, -0.1120000034570694, -0.03200000151991844, 1.040000081062317, 0.0, 0.0, 0.0, 0.0, 0.0, 1.621436020691332E9, 2021-05-19 16:53:40.691
48.0, -26.54581069946289, 0.5946440696716309, 61.19224166870117, 77.35421752929688, -0.1120000034570694, -0.03200000151991844, 1.040000081062317, 0.0, 0.0, 0.0, 0.0, 0.0, 1.6214360206920824E9, 2021-05-19 16:53:40.692
48.0, -39.75887680053711, -8.912181854248047, 53.60024642944336, 78.35651397705078, -0.1120000034570694, -0.03200000151991844, 1.040000081062317, 0.0, 0.0, 0.0, 0.0, 0.0, 1.6214360206920824E9, 2021-05-19 16:53:40.692
49.0, -41.6737060546875, -4.0914506912231445, 56.577205657958984, 68.19520568847656, -0.1120000034570694, -0.03200000151991844, 1.040000081062317, 0.0, 0.0, 0.0, 0.0, 0.0, 1.621436020704286E9, 2021-05-19 16:53:40.704
49.0, -30.42408561706543, 0.254313200712204, 65.57540893554688, 64.5862045288086, -0.1120000034570694, -0.03200000151991844, 1.040000081062317, 0.0, 0.0, 0.0, 0.0, 0.0, 1.621436020704286E9, 2021-05-19 16:53:40.704
50.0, -36.7856559753418, -4.955367565155029, 52.42591857910156, 57.92544174194336, -0.1120000034570694, -0.03200000151991844, 1.055999994277954, 0.0, 0.0, 0.0, 0.0, 0.0, 1.6214360207199996E9, 2021-05-19 16:53:40.719
50.0, -48.06145477294922, -19.754152297973633, 35.45425033569336, 53.34032440185547, -0.1120000034570694, -0.03200000151991844, 1.055999994277954, 0.0, 0.0, 0.0, 0.0, 0.0, 1.6214360207199996E9, 2021-05-19 16:53:40.719
51.0, -37.52615737915039, -16.111488342285156, 51.28150939941406, 58.49016571044922, -0.1120000034570694, -0.03200000151991844, 1.055999994277954, 0.0, 0.0, 0.0, 0.0, 0.0, 1.6214360207207077E9, 2021-05-19 16:53:40.720
51.0, -31.082307815551758, -9.906994819641113, 58.22650146484375, 57.285919189453125, -0.1120000034570694, -0.03200000151991844, 1.055999994277954, 0.0, 0.0, 0.0, 0.0, 0.0, 1.6214360207207077E9, 2021-05-19 16:53:40.720
52.0, -19.679353713989258, -3.317291259765625, 56.02370071411133, 56.74363327026367, -0.1120000034570694, -0.03200000151991844, 1.055999994277954, 0.0, 0.0, 0.0, 0.0, 0.0, 1.6214360207506356E9, 2021-05-19 16:53:40.750
52.0, -21.855976104736328, -5.449034214019775, 46.954444885253906, 64.21968841552734, -0.1120000034570694, -0.03200000151991844, 1.055999994277954, 0.0, 0.0, 0.0, 0.0, 0.0, 1.6214360207506356E9, 2021-05-19 16:53:40.750
53.0, -21.11921501159668, -15.857175827026367, 56.27053451538086, 65.53614044189453, -0.1120000034570694, -0.03200000151991844, 1.055999994277954, 0.0, 0.0, 0.0, 0.0, 0.0, 1.6214360207513585E9, 2021-05-19 16:53:40.751
53.0, -20.53952980041504, -19.152027130126953, 68.6570816040039, 58.295692443847656, -0.1120000034570694, -0.03200000151991844, 1.055999994277954, 0.0, 0.0, 0.0, 0.0, 0.0, 1.6214360207513585E9, 2021-05-19 16:53:40.751
54.0, -16.9080867767334, -8.530712127685547, 72.6886978149414, 63.056583404541016, -0.1120000034570694, -0.03200000151991844, 1.055999994277954, 0.0, 0.0, 0.0, 0.0, 0.0, 1.6214360207521172E9, 2021-05-19 16:53:40.752
54.0, -28.737390518188477, 11.848003387451172, 69.47238159179688, 64.98637390136719, -0.1120000034570694, -0.03200000151991844, 1.055999994277954, 0.0, 0.0, 0.0, 0.0, 0.0, 1.6214360207521172E9, 2021-05-19 16:53:40.752
55.0, -34.377159118652344, -15.37846851348877, 72.2660903930664, 61.325008392333984, -0.1120000034570694, -0.03200000151991844, 1.055999994277954, 0.0, 0.0, 0.0, 0.0, 0.0, 1.6214360207642276E9, 2021-05-19 16:53:40.764
55.0, -33.18787384033203, -7.584517002105713, 80.635986328125, 63.587650299072266, -0.1120000034570694, -0.03200000151991844, 1.055999994277954, 0.0, 0.0, 0.0, 0.0, 0.0, 1.6214360207642276E9, 2021-05-19 16:53:40.764
56.0, -48.001617431640625, -4.97780704498291, 65.89703369140625, 56.64265441894531, -0.1120000034570694, -0.03200000151991844, 1.055999994277954, 0.0, 0.0, 0.0, 0.0, 0.0, 1.6214360207799723E9, 2021-05-19 16:53:40.779
56.0, -50.125877380371094, -6.492466449737549, 59.10163879394531, 56.05548858642578, -0.1120000034570694, -0.03200000151991844, 1.055999994277954, 0.0, 0.0, 0.0, 0.0, 0.0, 1.6214360207799723E9, 2021-05-19 16:53:40.779
57.0, -53.431949615478516, -6.028718948364258, 60.91175079345703, 58.710819244384766, -0.1120000034570694, -0.03200000151991844, 1.055999994277954, 0.0, 0.0, 0.0, 0.0, 0.0, 1.6214360207807195E9, 2021-05-19 16:53:40.780
57.0, -45.76515579223633, -7.154428482055664, 59.22505569458008, 70.10255432128906, -0.1120000034570694, -0.03200000151991844, 1.055999994277954, 0.0, 0.0, 0.0, 0.0, 0.0, 1.6214360207807195E9, 2021-05-19 16:53:40.780
58.0, -44.10464096069336, 1.125709891319275, 49.602294921875, 57.884300231933594, -0.1120000034570694, -0.03200000151991844, 1.055999994277954, 0.0, 0.0, 0.0, 0.0, 0.0, 1.6214360208106258E9, 2021-05-19 16:53:40.810
58.0, -44.56464767456055, -3.7062408924102783, 38.95105743408203, 65.52117919921875, -0.1120000034570694, -0.03200000151991844, 1.055999994277954, 0.0, 0.0, 0.0, 0.0, 0.0, 1.6214360208106258E9, 2021-05-19 16:53:40.810
59.0, -42.33940887451172, -16.20124626159668, 33.94707107543945, 69.91181945800781, -0.1120000034570694, -0.03200000151991844, 1.055999994277954, 0.0, 0.0, 0.0, 0.0, 0.0, 1.6214360208113608E9, 2021-05-19 16:53:40.811
59.0, -36.38174819946289, -17.188579559326172, 43.450157165527344, 72.28665924072266, -0.1120000034570694, -0.03200000151991844, 1.055999994277954, 0.0, 0.0, 0.0, 0.0, 0.0, 1.6214360208113608E9, 2021-05-19 16:53:40.811
60.0, -28.774789810180664, -9.903255462646484, 35.876861572265625, 61.523223876953125, -0.1120000034570694, -0.03200000151991844, 1.040000081062317, 0.0, 0.0, 0.0, 0.0, 0.0, 1.6214360208120985E9, 2021-05-19 16:53:40.812
60.0, -28.84210777282715, -8.80372428894043, 36.796875, 66.24298095703125, -0.1120000034570694, -0.03200000151991844, 1.040000081062317, 0.0, 0.0, 0.0, 0.0, 0.0, 1.6214360208120985E9, 2021-05-19 16:53:40.812
61.0, -34.69879150390625, -14.267718315124512, 48.77203369140625, 74.93824768066406, -0.1120000034570694, -0.03200000151991844, 1.040000081062317, 0.0, 0.0, 0.0, 0.0, 0.0, 1.621436020824308E9, 2021-05-19 16:53:40.824
61.0, -22.484277725219727, -6.144655704498291, 60.9753303527832, 82.07771301269531, -0.1120000034570694, -0.03200000151991844, 1.040000081062317, 0.0, 0.0, 0.0, 0.0, 0.0, 1.621436020824308E9, 2021-05-19 16:53:40.824
62.0, -25.367740631103516, 12.442646980285645, 58.79122543334961, 65.98866271972656, -0.1120000034570694, -0.03200000151991844, 1.040000081062317, 0.0, 0.0, 0.0, 0.0, 0.0, 1.6214360208399315E9, 2021-05-19 16:53:40.839
62.0, -40.978084564208984, -11.537590980529785, 45.33880615234375, 70.3493881225586, -0.1120000034570694, -0.03200000151991844, 1.040000081062317, 0.0, 0.0, 0.0, 0.0, 0.0, 1.6214360208399315E9, 2021-05-19 16:53:40.839
63.0, -35.03164291381836, -25.45001983642578, 51.80509567260742, 55.127994537353516, -0.1120000034570694, -0.03200000151991844, 1.040000081062317, 0.0, 0.0, 0.0, 0.0, 0.0, 1.6214360208407142E9, 2021-05-19 16:53:40.840
63.0, -29.85936164855957, -7.5882568359375, 58.7687873840332, 51.44419479370117, -0.1120000034570694, -0.03200000151991844, 1.040000081062317, 0.0, 0.0, 0.0, 0.0, 0.0, 1.6214360208407142E9, 2021-05-19 16:53:40.840
64.0, -24.634721755981445, -11.328157424926758, 53.30853271484375, 43.17527389526367, -0.1120000034570694, -0.03200000151991844, 1.040000081062317, 0.0, 0.0, 0.0, 0.0, 0.0, 1.621436020870375E9, 2021-05-19 16:53:40.870
64.0, -22.435659408569336, -7.973466873168945, 56.52484893798828, 56.564117431640625, -0.1120000034570694, -0.03200000151991844, 1.040000081062317, 0.0, 0.0, 0.0, 0.0, 0.0, 1.621436020870375E9, 2021-05-19 16:53:40.870
65.0, -21.67646026611328, -3.5155060291290283, 57.6430778503418, 56.33598327636719, -0.1120000034570694, -0.03200000151991844, 1.040000081062317, 0.0, 0.0, 0.0, 0.0, 0.0, 1.6214360208711305E9, 2021-05-19 16:53:40.871
65.0, -15.584162712097168, 13.938607215881348, 69.2966079711914, 64.32440948486328, -0.1120000034570694, -0.03200000151991844, 1.040000081062317, 0.0, 0.0, 0.0, 0.0, 0.0, 1.6214360208711305E9, 2021-05-19 16:53:40.871
66.0, -22.226224899291992, 7.883708953857422, 66.2635498046875, 78.89505767822266, -0.1120000034570694, -0.03200000151991844, 1.040000081062317, 0.0, 0.0, 0.0, 0.0, 0.0, 1.6214360208849156E9, 2021-05-19 16:53:40.884
66.0, -32.41745376586914, -0.9761139154434204, 49.44147872924805, 77.1784439086914, -0.1120000034570694, -0.03200000151991844, 1.040000081062317, 0.0, 0.0, 0.0, 0.0, 0.0, 1.6214360208849156E9, 2021-05-19 16:53:40.884
67.0, -36.75947570800781, -21.21645164489746, 56.54728698730469, 69.49668884277344, -0.1120000034570694, -0.03200000151991844, 1.040000081062317, 0.0, 0.0, 0.0, 0.0, 0.0, 1.621436020885686E9, 2021-05-19 16:53:40.885
67.0, -40.82474899291992, -11.754505157470703, 66.18126678466797, 67.67536163330078, -0.1120000034570694, -0.03200000151991844, 1.040000081062317, 0.0, 0.0, 0.0, 0.0, 0.0, 1.621436020885686E9, 2021-05-19 16:53:40.885
68.0, -45.462223052978516, -3.283632278442383, 59.24375534057617, 68.43081665039062, -0.1120000034570694, -0.03200000151991844, 1.040000081062317, 0.0, 0.0, 0.0, 0.0, 0.0, 1.6214360208999336E9, 2021-05-19 16:53:40.899
68.0, -48.85805130004883, -5.7257866859436035, 51.06833267211914, 71.32923889160156, -0.1120000034570694, -0.03200000151991844, 1.040000081062317, 0.0, 0.0, 0.0, 0.0, 0.0, 1.6214360208999336E9, 2021-05-19 16:53:40.899
69.0, -50.74296188354492, -6.249372959136963, 55.21588134765625, 62.35722351074219, -0.1120000034570694, -0.03200000151991844, 1.040000081062317, 0.0, 0.0, 0.0, 0.0, 0.0, 1.6214360209006948E9, 2021-05-19 16:53:40.900
69.0, -48.30080795288086, -8.347456932067871, 54.27716827392578, 64.64230346679688, -0.1120000034570694, -0.03200000151991844, 1.040000081062317, 0.0, 0.0, 0.0, 0.0, 0.0, 1.6214360209006948E9, 2021-05-19 16:53:40.900
70.0, -36.722076416015625, 0.830257773399353, 56.74550247192383, 62.97056579589844, -0.1120000034570694, -0.03200000151991844, 1.055999994277954, 0.0, 0.0, 0.0, 0.0, 0.0, 1.621436020914236E9, 2021-05-19 16:53:40.914
70.0, -38.42373275756836, -4.297144889831543, 48.1175537109375, 60.65182876586914, -0.1120000034570694, -0.03200000151991844, 1.055999994277954, 0.0, 0.0, 0.0, 0.0, 0.0, 1.621436020914236E9, 2021-05-19 16:53:40.914
71.0, -35.46547317504883, -12.89891529083252, 55.530033111572266, 51.15996170043945, -0.1120000034570694, -0.03200000151991844, 1.055999994277954, 0.0, 0.0, 0.0, 0.0, 0.0, 1.6214360209299257E9, 2021-05-19 16:53:40.929
71.0, -25.730512619018555, -2.666548728942871, 59.303592681884766, 50.85702896118164, -0.1120000034570694, -0.03200000151991844, 1.055999994277954, 0.0, 0.0, 0.0, 0.0, 0.0, 1.6214360209299257E9, 2021-05-19 16:53:40.929
72.0, -13.381361961364746, 3.5753443241119385, 65.78109741210938, 65.5136947631836, -0.09600000083446503, -0.03200000151991844, 1.055999994277954, 0.0, 0.0, 0.0, 0.0, 0.0, 1.6214360209306922E9, 2021-05-19 16:53:40.930
72.0, -27.828596115112305, -2.1354827880859375, 47.646324157714844, 55.21775436401367, -0.09600000083446503, -0.03200000151991844, 1.055999994277954, 0.0, 0.0, 0.0, 0.0, 0.0, 1.6214360209306922E9, 2021-05-19 16:53:40.930
73.0, -30.349288940429688, -11.328157424926758, 61.16606521606445, 62.11412811279297, -0.09600000083446503, -0.03200000151991844, 1.055999994277954, 0.0, 0.0, 0.0, 0.0, 0.0, 1.6214360209442952E9, 2021-05-19 16:53:40.944
73.0, -28.901947021484375, 0.9349749684333801, 67.15738677978516, 63.62504959106445, -0.09600000083446503, -0.03200000151991844, 1.055999994277954, 0.0, 0.0, 0.0, 0.0, 0.0, 1.6214360209442952E9, 2021-05-19 16:53:40.944
74.0, -27.99315071105957, -5.598630428314209, 60.85939025878906, 66.979736328125, -0.09600000083446503, -0.03200000151991844, 1.055999994277954, 0.0, 0.0, 0.0, 0.0, 0.0, 1.6214360210069942E9, 2021-05-19 16:53:41.006
74.0, -41.94671630859375, -7.947287559509277, 60.739715576171875, 62.420799255371094, -0.09600000083446503, -0.03200000151991844, 1.055999994277954, 0.0, 0.0, 0.0, 0.0, 0.0, 1.6214360210069942E9, 2021-05-19 16:53:41.006
75.0, -34.638954162597656, 2.8198845386505127, 69.73417663574219, 63.5465087890625, -0.09600000083446503, -0.03200000151991844, 1.055999994277954, 0.0, 0.0, 0.0, 0.0, 0.0, 1.6214360210077791E9, 2021-05-19 16:53:41.007
75.0, -33.3935661315918, -8.070704460144043, 72.66251373291016, 57.97779846191406, -0.09600000083446503, -0.03200000151991844, 1.055999994277954, 0.0, 0.0, 0.0, 0.0, 0.0, 1.6214360210077791E9, 2021-05-19 16:53:41.007
76.0, -37.89266586303711, -1.2977452278137207, 59.31481170654297, 64.48148345947266, -0.09600000083446503, -0.03200000151991844, 1.055999994277954, 0.0, 0.0, 0.0, 0.0, 0.0, 1.6214360210085063E9, 2021-05-19 16:53:41.008
76.0, -37.46631622314453, -16.126447677612305, 47.81462097167969, 59.81782913208008, -0.09600000083446503, -0.03200000151991844, 1.055999994277954, 0.0, 0.0, 0.0, 0.0, 0.0, 1.6214360210085063E9, 2021-05-19 16:53:41.008
77.0, -50.22685623168945, -31.961185455322266, 35.85068130493164, 47.80153274536133, -0.09600000083446503, -0.03200000151991844, 1.055999994277954, 0.0, 0.0, 0.0, 0.0, 0.0, 1.6214360210093243E9, 2021-05-19 16:53:41.009
77.0, -31.800369262695312, -31.463777542114258, 38.23299789428711, 53.10844802856445, -0.09600000083446503, -0.03200000151991844, 1.055999994277954, 0.0, 0.0, 0.0, 0.0, 0.0, 1.6214360210093243E9, 2021-05-19 16:53:41.009
78.0, -28.591535568237305, -11.642308235168457, 32.327693939208984, 55.34117126464844, -0.09600000083446503, -0.03200000151991844, 1.055999994277954, 0.0, 0.0, 0.0, 0.0, 0.0, 1.6214360210213122E9, 2021-05-19 16:53:41.021
78.0, -32.757781982421875, -4.570157527923584, 19.937406539916992, 51.0290641784668, -0.09600000083446503, -0.03200000151991844, 1.055999994277954, 0.0, 0.0, 0.0, 0.0, 0.0, 1.6214360210213122E9, 2021-05-19 16:53:41.021
79.0, -30.427825927734375, -2.8759829998016357, 39.15675354003906, 53.172027587890625, -0.09600000083446503, -0.03200000151991844, 1.055999994277954, 0.0, 0.0, 0.0, 0.0, 0.0, 1.6214360210220351E9, 2021-05-19 16:53:41.022
79.0, -24.705780029296875, 1.877429723739624, 52.39973831176758, 58.01145935058594, -0.09600000083446503, -0.03200000151991844, 1.055999994277954, 0.0, 0.0, 0.0, 0.0, 0.0, 1.6214360210220351E9, 2021-05-19 16:53:41.022
80.0, -27.11053466796875, -7.756552696228027, 50.15953826904297, 50.18758773803711, -0.09600000083446503, -0.03200000151991844, 1.055999994277954, 0.0, 0.0, 0.0, 0.0, 0.0, 1.621436021022915E9, 2021-05-19 16:53:41.022
80.0, -39.452205657958984, -7.449880599975586, 48.4878044128418, 54.67172622680664, -0.09600000083446503, -0.03200000151991844, 1.055999994277954, 0.0, 0.0, 0.0, 0.0, 0.0, 1.621436021022915E9, 2021-05-19 16:53:41.022
81.0, -44.52350997924805, 3.048018455505371, 58.60797119140625, 62.04307174682617, -0.09600000083446503, -0.03200000151991844, 1.055999994277954, 0.0, 0.0, 0.0, 0.0, 0.0, 1.6214360210235548E9, 2021-05-19 16:53:41.023
81.0, -35.37197494506836, -0.1682955026626587, 70.93468475341797, 66.9610366821289, -0.09600000083446503, -0.03200000151991844, 1.055999994277954, 0.0, 0.0, 0.0, 0.0, 0.0, 1.6214360210235548E9, 2021-05-19 16:53:41.023
82.0, -42.8480339050293, 9.57788372039795, 67.87918090820312, 79.02595520019531, -0.1120000034570694, -0.03200000151991844, 1.055999994277954, 0.0, 0.0, 0.0, 0.0, 0.0, 1.6214360210342891E9, 2021-05-19 16:53:41.034
82.0, -55.33182144165039, 10.654974937438965, 54.75213623046875, 70.05393981933594, -0.1120000034570694, -0.03200000151991844, 1.055999994277954, 0.0, 0.0, 0.0, 0.0, 0.0, 1.6214360210342891E9, 2021-05-19 16:53:41.034
83.0, -49.261962890625, 10.621315956115723, 66.95169067382812, 73.05333709716797, -0.1120000034570694, -0.03200000151991844, 1.055999994277954, 0.0, 0.0, 0.0, 0.0, 0.0, 1.6214360210499763E9, 2021-05-19 16:53:41.049
83.0, -41.019222259521484, -12.44638729095459, 74.6558837890625, 69.74726104736328, -0.1120000034570694, -0.03200000151991844, 1.055999994277954, 0.0, 0.0, 0.0, 0.0, 0.0, 1.6214360210499763E9, 2021-05-19 16:53:41.049
84.0, -35.83572006225586, -1.2603462934494019, 69.83515167236328, 82.30584716796875, -0.1120000034570694, -0.03200000151991844, 1.055999994277954, 0.0, 0.0, 0.0, 0.0, 0.0, 1.621436021050738E9, 2021-05-19 16:53:41.050
84.0, -40.57791519165039, 1.4286417961120605, 57.231689453125, 75.14019775390625, -0.1120000034570694, -0.03200000151991844, 1.055999994277954, 0.0, 0.0, 0.0, 0.0, 0.0, 1.621436021050738E9, 2021-05-19 16:53:41.050
85.0, -42.67599868774414, -22.020530700683594, 54.61750030517578, 68.59537506103516, -0.1120000034570694, -0.03200000151991844, 1.055999994277954, 0.0, 0.0, 0.0, 0.0, 0.0, 1.6214360210642574E9, 2021-05-19 16:53:41.064
85.0, -20.29269790649414, -12.397768020629883, 71.2413558959961, 72.90747833251953, -0.1120000034570694, -0.03200000151991844, 1.055999994277954, 0.0, 0.0, 0.0, 0.0, 0.0, 1.6214360210642574E9, 2021-05-19 16:53:41.064
86.0, -22.663793563842773, -10.142608642578125, 61.177284240722656, 61.55314254760742, -0.1120000034570694, -0.03200000151991844, 1.055999994277954, 0.0, 0.0, 0.0, 0.0, 0.0, 1.621436021080056E9, 2021-05-19 16:53:41.080
86.0, -34.71375274658203, -15.195213317871094, 36.198490142822266, 46.630943298339844, -0.1120000034570694, -0.03200000151991844, 1.055999994277954, 0.0, 0.0, 0.0, 0.0, 0.0, 1.621436021080056E9, 2021-05-19 16:53:41.080
87.0, -30.768156051635742, -14.263978004455566, 53.70122528076172, 49.73505783081055, -0.1120000034570694, -0.03200000151991844, 1.055999994277954, 0.0, 0.0, 0.0, 0.0, 0.0, 1.6214360210807269E9, 2021-05-19 16:53:41.080
87.0, -20.73026466369629, -6.941254138946533, 58.17414474487305, 44.69741439819336, -0.1120000034570694, -0.03200000151991844, 1.055999994277954, 0.0, 0.0, 0.0, 0.0, 0.0, 1.6214360210807269E9, 2021-05-19 16:53:41.080
88.0, -23.6922664642334, 7.767772197723389, 45.43230438232422, 36.30133819580078, -0.1120000034570694, -0.03200000151991844, 1.055999994277954, 0.0, 0.0, 0.0, 0.0, 0.0, 1.6214360210942378E9, 2021-05-19 16:53:41.094
88.0, -34.22382354736328, -4.966587066650391, 38.438690185546875, 25.81839942932129, -0.1120000034570694, -0.03200000151991844, 1.055999994277954, 0.0, 0.0, 0.0, 0.0, 0.0, 1.6214360210942378E9, 2021-05-19 16:53:41.094
89.0, -31.14588737487793, -4.289665222167969, 42.41420364379883, 25.7697811126709, -0.1120000034570694, -0.03200000151991844, 1.055999994277954, 0.0, 0.0, 0.0, 0.0, 0.0, 1.6214360211100047E9, 2021-05-19 16:53:41.110
89.0, -37.17086410522461, -20.962139129638672, 37.18208694458008, 32.314605712890625, -0.1120000034570694, -0.03200000151991844, 1.055999994277954, 0.0, 0.0, 0.0, 0.0, 0.0, 1.6214360211100047E9, 2021-05-19 16:53:41.110
90.0, -14.563170433044434, 4.323324203491211, 53.095359802246094, 60.0833625793457, -0.1120000034570694, -0.03200000151991844, 1.040000081062317, 0.0, 0.0, 0.0, 0.0, 0.0, 1.6214360211107576E9, 2021-05-19 16:53:41.110
90.0, -27.981931686401367, 3.3322508335113525, 45.40986633300781, 61.919654846191406, -0.1120000034570694, -0.03200000151991844, 1.040000081062317, 0.0, 0.0, 0.0, 0.0, 0.0, 1.6214360211107576E9, 2021-05-19 16:53:41.110
91.0, -35.727264404296875, 0.590904176235199, 48.39430618286133, 60.427433013916016, -0.1120000034570694, -0.03200000151991844, 1.040000081062317, 0.0, 0.0, 0.0, 0.0, 0.0, 1.621436021124217E9, 2021-05-19 16:53:41.124
91.0, -25.461238861083984, 8.721446990966797, 64.91718292236328, 75.27857971191406, -0.1120000034570694, -0.03200000151991844, 1.040000081062317, 0.0, 0.0, 0.0, 0.0, 0.0, 1.621436021124217E9, 2021-05-19 16:53:41.124
92.0, -32.42493438720703, 3.339730739593506, 58.85106658935547, 74.49694061279297, -0.1120000034570694, -0.03200000151991844, 1.040000081062317, 0.0, 0.0, 0.0, 0.0, 0.0, 1.6214360211400154E9, 2021-05-19 16:53:41.140
92.0, -41.77094268798828, 4.289665222167969, 44.16447830200195, 75.49922943115234, -0.1120000034570694, -0.03200000151991844, 1.040000081062317, 0.0, 0.0, 0.0, 0.0, 0.0, 1.6214360211400154E9, 2021-05-19 16:53:41.140
93.0, -42.82559585571289, -8.747626304626465, 49.15724563598633, 79.82255554199219, -0.1120000034570694, -0.03200000151991844, 1.040000081062317, 0.0, 0.0, 0.0, 0.0, 0.0, 1.6214360211407351E9, 2021-05-19 16:53:41.140
93.0, -42.081356048583984, -14.944640159606934, 50.14457702636719, 84.21319580078125, -0.1120000034570694, -0.03200000151991844, 1.040000081062317, 0.0, 0.0, 0.0, 0.0, 0.0, 1.6214360211407351E9, 2021-05-19 16:53:41.140
94.0, -39.44098663330078, -4.484139919281006, 40.43206024169922, 65.31922149658203, -0.1120000034570694, -0.03200000151991844, 1.040000081062317, 0.0, 0.0, 0.0, 0.0, 0.0, 1.6214360211542122E9, 2021-05-19 16:53:41.154
94.0, -34.30610275268555, -22.110288619995117, 38.28535461425781, 69.88189697265625, -0.1120000034570694, -0.03200000151991844, 1.040000081062317, 0.0, 0.0, 0.0, 0.0, 0.0, 1.6214360211542122E9, 2021-05-19 16:53:41.154
95.0, -32.93729782104492, -15.8309965133667, 37.47005844116211, 61.47086715698242, -0.1120000034570694, -0.03200000151991844, 1.040000081062317, 0.0, 0.0, 0.0, 0.0, 0.0, 1.621436021169993E9, 2021-05-19 16:53:41.169
95.0, -26.957199096679688, -19.70553207397461, 48.5401611328125, 56.85582733154297, -0.1120000034570694, -0.03200000151991844, 1.040000081062317, 0.0, 0.0, 0.0, 0.0, 0.0, 1.621436021169993E9, 2021-05-19 16:53:41.169
96.0, -24.713258743286133, -35.13636016845703, 40.22636413574219, 51.51899337768555, -0.1120000034570694, -0.03200000151991844, 1.040000081062317, 0.0, 0.0, 0.0, 0.0, 0.0, 1.621436021170742E9, 2021-05-19 16:53:41.170
96.0, -15.05309772491455, -15.314889907836914, 43.599754333496094, 53.48617935180664, -0.1120000034570694, -0.03200000151991844, 1.040000081062317, 0.0, 0.0, 0.0, 0.0, 0.0, 1.621436021170742E9, 2021-05-19 16:53:41.170
97.0, -22.40574073791504, -20.719045639038086, 52.246402740478516, 51.7321662902832, -0.1120000034570694, -0.03200000151991844, 1.040000081062317, 0.0, 0.0, 0.0, 0.0, 0.0, 1.6214360211842215E9, 2021-05-19 16:53:41.184
97.0, -9.469427108764648, -8.212820053100586, 69.14701080322266, 59.219444274902344, -0.1120000034570694, -0.03200000151991844, 1.040000081062317, 0.0, 0.0, 0.0, 0.0, 0.0, 1.6214360211842215E9, 2021-05-19 16:53:41.184
98.0, -21.874675750732422, -12.453866958618164, 58.4284553527832, 48.08950424194336, -0.1120000034570694, -0.03200000151991844, 1.040000081062317, 0.0, 0.0, 0.0, 0.0, 0.0, 1.6214360211999533E9, 2021-05-19 16:53:41.199
98.0, -26.242877960205078, -20.431074142456055, 53.12527847290039, 48.56072998046875, -0.1120000034570694, -0.03200000151991844, 1.040000081062317, 0.0, 0.0, 0.0, 0.0, 0.0, 1.6214360211999533E9, 2021-05-19 16:53:41.199
99.0, -33.520721435546875, -6.608403205871582, 46.50565719604492, 57.07648468017578, -0.1120000034570694, -0.03200000151991844, 1.040000081062317, 0.0, 0.0, 0.0, 0.0, 0.0, 1.6214360212007396E9, 2021-05-19 16:53:41.200
99.0, -33.10185623168945, -7.483539581298828, 53.914398193359375, 58.89033508300781, -0.1120000034570694, -0.03200000151991844, 1.040000081062317, 0.0, 0.0, 0.0, 0.0, 0.0, 1.6214360212007396E9, 2021-05-19 16:53:41.200
100.0, -29.201139450073242, -0.77415931224823, 56.599647521972656, 64.66474151611328, -0.1120000034570694, -0.03200000151991844, 1.040000081062317, 0.0, 0.0, 0.0, 0.0, 0.0, 1.6214360212152035E9, 2021-05-19 16:53:41.215
100.0, -38.21803665161133, -17.244678497314453, 45.4771842956543, 68.99554443359375, -0.1120000034570694, -0.03200000151991844, 1.040000081062317, 0.0, 0.0, 0.0, 0.0, 0.0, 1.6214360212152035E9, 2021-05-19 16:53:41.215
0.0, -37.92819595336914, -16.37141227722168, 45.82499313354492, 69.83702087402344, -0.1120000034570694, -0.03200000151991844, 1.040000081062317, 0.0, 0.0, 0.0, 0.0, 0.0, 1.6214360212299972E9, 2021-05-19 16:53:41.229
1.0, -35.572059631347656, -1.5763678550720215, 54.9540901184082, 69.8856430053711, -0.1120000034570694, -0.03200000151991844, 1.040000081062317, 0.0, 0.0, 0.0, 0.0, 0.0, 1.6214360212307162E9, 2021-05-19 16:53:41.230
1.0, -28.16331672668457, -17.863632202148438, 50.814022064208984, 74.1453857421875, -0.1120000034570694, -0.03200000151991844, 1.040000081062317, 0.0, 0.0, 0.0, 0.0, 0.0, 1.6214360212307162E9, 2021-05-19 16:53:41.230
2.0, -33.997562408447266, -19.19129753112793, 43.74187088012695, 78.41635131835938, -0.1120000034570694, -0.03200000151991844, 1.040000081062317, 0.0, 0.0, 0.0, 0.0, 0.0, 1.6214360212449677E9, 2021-05-19 16:53:41.244
2.0, -31.99297332763672, -17.426063537597656, 50.64198684692383, 59.96742630004883, -0.1120000034570694, -0.03200000151991844, 1.040000081062317, 0.0, 0.0, 0.0, 0.0, 0.0, 1.6214360212449677E9, 2021-05-19 16:53:41.244
3.0, -21.857845306396484, -12.840946197509766, 56.18077850341797, 62.7012939453125, -0.1120000034570694, -0.03200000151991844, 1.040000081062317, 0.0, 0.0, 0.0, 0.0, 0.0, 1.621436021245689E9, 2021-05-19 16:53:41.245
3.0, -27.179723739624023, -14.123732566833496, 51.09077453613281, 59.07358932495117, -0.1120000034570694, -0.03200000151991844, 1.040000081062317, 0.0, 0.0, 0.0, 0.0, 0.0, 1.621436021245689E9, 2021-05-19 16:53:41.245
4.0, -27.572412490844727, -16.405071258544922, 40.6003532409668, 54.8437614440918, -0.1120000034570694, -0.03200000151991844, 1.040000081062317, 0.0, 0.0, 0.0, 0.0, 0.0, 1.6214360212592692E9, 2021-05-19 16:53:41.259
4.0, -31.98549461364746, -23.735275268554688, 41.24361801147461, 48.2989387512207, -0.1120000034570694, -0.03200000151991844, 1.040000081062317, 0.0, 0.0, 0.0, 0.0, 0.0, 1.6214360212592692E9, 2021-05-19 16:53:41.259
5.0, -22.03736114501953, -12.638992309570312, 51.77517318725586, 53.69187545776367, -0.1120000034570694, -0.03200000151991844, 1.040000081062317, 0.0, 0.0, 0.0, 0.0, 0.0, 1.6214360212753508E9, 2021-05-19 16:53:41.275
5.0, -25.74734115600586, -4.631865978240967, 46.797367095947266, 54.27155685424805, -0.1120000034570694, -0.03200000151991844, 1.040000081062317, 0.0, 0.0, 0.0, 0.0, 0.0, 1.6214360212753508E9, 2021-05-19 16:53:41.275
6.0, -31.742401123046875, -24.860984802246094, 37.2082633972168, 57.63372802734375, -0.1120000034570694, -0.03200000151991844, 1.040000081062317, 0.0, 0.0, 0.0, 0.0, 0.0, 1.6214360212899675E9, 2021-05-19 16:53:41.289
6.0, -30.108064651489258, -28.761699676513672, 46.333621978759766, 54.92230224609375, -0.1120000034570694, -0.03200000151991844, 1.040000081062317, 0.0, 0.0, 0.0, 0.0, 0.0, 1.6214360212899675E9, 2021-05-19 16:53:41.289
7.0, -27.834205627441406, -4.3999924659729, 54.669857025146484, 50.976707458496094, -0.1120000034570694, -0.03200000151991844, 1.040000081062317, 0.0, 0.0, 0.0, 0.0, 0.0, 1.621436021290708E9, 2021-05-19 16:53:41.290
7.0, -23.44356346130371, 14.875452041625977, 56.1583366394043, 61.538185119628906, -0.1120000034570694, -0.03200000151991844, 1.040000081062317, 0.0, 0.0, 0.0, 0.0, 0.0, 1.621436021290708E9, 2021-05-19 16:53:41.290
8.0, -23.33884620666504, 2.9676105976104736, 51.50590133666992, 74.88214874267578, -0.1120000034570694, -0.03200000151991844, 1.040000081062317, 0.0, 0.0, 0.0, 0.0, 0.0, 1.6214360213049617E9, 2021-05-19 16:53:41.304
8.0, -36.2041015625, 1.0752211809158325, 52.42591857910156, 79.45604705810547, -0.1120000034570694, -0.03200000151991844, 1.040000081062317, 0.0, 0.0, 0.0, 0.0, 0.0, 1.6214360213049617E9, 2021-05-19 16:53:41.304
9.0, -32.92420959472656, -6.034328460693359, 55.08498764038086, 66.56835174560547, -0.1120000034570694, -0.03200000151991844, 1.040000081062317, 0.0, 0.0, 0.0, 0.0, 0.0, 1.6214360213056955E9, 2021-05-19 16:53:41.305
9.0, -40.0075798034668, -9.381539344787598, 41.886878967285156, 73.37870788574219, -0.1120000034570694, -0.03200000151991844, 1.040000081062317, 0.0, 0.0, 0.0, 0.0, 0.0, 1.6214360213056955E9, 2021-05-19 16:53:41.305
10.0, -41.68679428100586, -4.631865978240967, 43.77178955078125, 75.02426147460938, -0.1120000034570694, -0.03200000151991844, 1.040000081062317, 0.0, 0.0, 0.0, 0.0, 0.0, 1.6214360213363457E9, 2021-05-19 16:53:41.336
10.0, -43.31739044189453, -10.219276428222656, 40.821006774902344, 65.21824645996094, -0.1120000034570694, -0.03200000151991844, 1.040000081062317, 0.0, 0.0, 0.0, 0.0, 0.0, 1.6214360213363457E9, 2021-05-19 16:53:41.336
11.0, -22.10841941833496, -5.664078712463379, 53.4469108581543, 74.57921600341797, -0.1120000034570694, -0.03200000151991844, 1.040000081062317, 0.0, 0.0, 0.0, 0.0, 0.0, 1.621436021337056E9, 2021-05-19 16:53:41.337
11.0, -28.53730583190918, -14.445363998413086, 44.3851318359375, 51.780784606933594, -0.1120000034570694, -0.03200000151991844, 1.040000081062317, 0.0, 0.0, 0.0, 0.0, 0.0, 1.621436021337056E9, 2021-05-19 16:53:41.337
12.0, -30.556852340698242, -1.8194613456726074, 40.073028564453125, 55.26637268066406, -0.1120000034570694, -0.03200000151991844, 1.040000081062317, 0.0, 0.0, 0.0, 0.0, 0.0, 1.6214360213378124E9, 2021-05-19 16:53:41.337
12.0, -25.582786560058594, -15.8366060256958, 49.16472625732422, 48.254058837890625, -0.1120000034570694, -0.03200000151991844, 1.040000081062317, 0.0, 0.0, 0.0, 0.0, 0.0, 1.6214360213378124E9, 2021-05-19 16:53:41.337
13.0, -18.15160369873047, -12.089226722717285, 60.71727752685547, 46.522483825683594, -0.1120000034570694, -0.03200000151991844, 1.040000081062317, 0.0, 0.0, 0.0, 0.0, 0.0, 1.6214360213492525E9, 2021-05-19 16:53:41.349
13.0, -14.591219902038574, -11.015874862670898, 59.595306396484375, 48.14186096191406, -0.1120000034570694, -0.03200000151991844, 1.040000081062317, 0.0, 0.0, 0.0, 0.0, 0.0, 1.6214360213492525E9, 2021-05-19 16:53:41.349
14.0, -29.89488983154297, -39.49521255493164, 43.416500091552734, 43.7811393737793, -0.1120000034570694, -0.03200000151991844, 1.040000081062317, 0.0, 0.0, 0.0, 0.0, 0.0, 1.6214360213649216E9, 2021-05-19 16:53:41.364
14.0, -28.017459869384766, -19.21747589111328, 49.527496337890625, 57.25973892211914, -0.1120000034570694, -0.03200000151991844, 1.040000081062317, 0.0, 0.0, 0.0, 0.0, 0.0, 1.6214360213649216E9, 2021-05-19 16:53:41.364
15.0, -21.113605499267578, -2.3954060077667236, 58.47707748413086, 51.11134338378906, -0.1120000034570694, -0.03200000151991844, 1.040000081062317, 0.0, 0.0, 0.0, 0.0, 0.0, 1.6214360213656995E9, 2021-05-19 16:53:41.365
15.0, -28.432588577270508, -2.8628933429718018, 45.20043182373047, 51.844364166259766, -0.1120000034570694, -0.03200000151991844, 1.040000081062317, 0.0, 0.0, 0.0, 0.0, 0.0, 1.6214360213656995E9, 2021-05-19 16:53:41.365
16.0, -30.504493713378906, -7.6125664710998535, 42.57876205444336, 62.252506256103516, -0.1120000034570694, -0.03200000151991844, 1.040000081062317, 0.0, 0.0, 0.0, 0.0, 0.0, 1.621436021394719E9, 2021-05-19 16:53:41.394
16.0, -27.01142692565918, 1.9279184341430664, 48.1998291015625, 59.52985763549805, -0.1120000034570694, -0.03200000151991844, 1.040000081062317, 0.0, 0.0, 0.0, 0.0, 0.0, 1.621436021394719E9, 2021-05-19 16:53:41.394
17.0, -27.026386260986328, 1.3407541513442993, 53.71992111206055, 67.33129119873047, -0.1120000034570694, -0.03200000151991844, 1.040000081062317, 0.0, 0.0, 0.0, 0.0, 0.0, 1.6214360214274223E9, 2021-05-19 16:53:41.427
17.0, -33.855445861816406, 3.4724972248077393, 49.138545989990234, 69.2909927368164, -0.1120000034570694, -0.03200000151991844, 1.040000081062317, 0.0, 0.0, 0.0, 0.0, 0.0, 1.6214360214274223E9, 2021-05-19 16:53:41.427
18.0, -38.01421356201172, -5.922131538391113, 37.76551055908203, 52.87283706665039, -0.1120000034570694, -0.03200000151991844, 1.040000081062317, 0.0, 0.0, 0.0, 0.0, 0.0, 1.6214360214281917E9, 2021-05-19 16:53:41.428
18.0, -38.362022399902344, 8.577460289001465, 52.16038513183594, 56.14524841308594, -0.1120000034570694, -0.03200000151991844, 1.040000081062317, 0.0, 0.0, 0.0, 0.0, 0.0, 1.6214360214281917E9, 2021-05-19 16:53:41.428
19.0, -38.71357345581055, -9.40397834777832, 47.06290054321289, 50.684993743896484, -0.1120000034570694, -0.03200000151991844, 1.040000081062317, 0.0, 0.0, 0.0, 0.0, 0.0, 1.621436021429045E9, 2021-05-19 16:53:41.429
19.0, -33.698368072509766, -2.6160600185394287, 43.74187088012695, 57.15127944946289, -0.1120000034570694, -0.03200000151991844, 1.040000081062317, 0.0, 0.0, 0.0, 0.0, 0.0, 1.621436021429045E9, 2021-05-19 16:53:41.429
20.0, -36.9782600402832, 4.149418830871582, 38.12080001831055, 55.659061431884766, -0.1120000034570694, -0.03200000151991844, 1.040000081062317, 0.0, 0.0, 0.0, 0.0, 0.0, 1.6214360214297252E9, 2021-05-19 16:53:41.429
20.0, -44.73481369018555, -17.70655632019043, 38.67804718017578, 50.636375427246094, -0.1120000034570694, -0.03200000151991844, 1.040000081062317, 0.0, 0.0, 0.0, 0.0, 0.0, 1.6214360214297252E9, 2021-05-19 16:53:41.429
21.0, -37.703800201416016, -2.245810031890869, 50.60458755493164, 52.311851501464844, -0.1120000034570694, -0.03200000151991844, 1.040000081062317, 0.0, 0.0, 0.0, 0.0, 0.0, 1.6214360214618573E9, 2021-05-19 16:53:41.461
21.0, -33.82178497314453, -4.572027683258057, 47.373313903808594, 50.75605392456055, -0.1120000034570694, -0.03200000151991844, 1.040000081062317, 0.0, 0.0, 0.0, 0.0, 0.0, 1.6214360214618573E9, 2021-05-19 16:53:41.461
22.0, -34.83903884887695, -4.227956771850586, 45.843692779541016, 51.19736099243164, -0.09600000083446503, -0.03200000151991844, 1.040000081062317, 0.0, 0.0, 0.0, 0.0, 0.0, 1.62143602146192E9, 2021-05-19 16:53:41.461
22.0, -35.227989196777344, -12.867125511169434, 42.844295501708984, 44.297245025634766, -0.09600000083446503, -0.03200000151991844, 1.040000081062317, 0.0, 0.0, 0.0, 0.0, 0.0, 1.62143602146192E9, 2021-05-19 16:53:41.461
23.0, -22.635744094848633, -2.70955753326416, 54.198631286621094, 46.51126480102539, -0.09600000083446503, -0.03200000151991844, 1.040000081062317, 0.0, 0.0, 0.0, 0.0, 0.0, 1.6214360214619546E9, 2021-05-19 16:53:41.461
23.0, -12.635251998901367, -12.998022079467773, 56.79412078857422, 58.33308792114258, -0.09600000083446503, -0.03200000151991844, 1.040000081062317, 0.0, 0.0, 0.0, 0.0, 0.0, 1.6214360214619546E9, 2021-05-19 16:53:41.461
24.0, -27.3068790435791, 1.3257945775985718, 47.24615478515625, 60.40873336791992, -0.09600000083446503, -0.03200000151991844, 1.040000081062317, 0.0, 0.0, 0.0, 0.0, 0.0, 1.62143602146199E9, 2021-05-19 16:53:41.461
24.0, -28.73552131652832, -4.979676723480225, 52.863487243652344, 71.10485076904297, -0.09600000083446503, -0.03200000151991844, 1.040000081062317, 0.0, 0.0, 0.0, 0.0, 0.0, 1.62143602146199E9, 2021-05-19 16:53:41.461
25.0, -29.947248458862305, -9.79666805267334, 57.76649475097656, 64.43660736083984, -0.09600000083446503, -0.03200000151991844, 1.040000081062317, 0.0, 0.0, 0.0, 0.0, 0.0, 1.6214360214692776E9, 2021-05-19 16:53:41.469
25.0, -37.322330474853516, 2.0924739837646484, 50.0959587097168, 72.64942932128906, -0.09600000083446503, -0.03200000151991844, 1.040000081062317, 0.0, 0.0, 0.0, 0.0, 0.0, 1.6214360214692776E9, 2021-05-19 16:53:41.469
26.0, -47.779090881347656, 6.44945764541626, 47.76226043701172, 63.65870666503906, -0.09600000083446503, -0.03200000151991844, 1.040000081062317, 0.0, 0.0, 0.0, 0.0, 0.0, 1.6214360215020385E9, 2021-05-19 16:53:41.502
26.0, -47.9361686706543, -5.133012771606445, 51.21419143676758, 63.049102783203125, -0.09600000083446503, -0.03200000151991844, 1.040000081062317, 0.0, 0.0, 0.0, 0.0, 0.0, 1.6214360215020385E9, 2021-05-19 16:53:41.502
27.0, -48.882362365722656, 1.2023777961730957, 56.599647521972656, 46.8328971862793, -0.09600000083446503, -0.03200000151991844, 1.040000081062317, 0.0, 0.0, 0.0, 0.0, 0.0, 1.62143602150311E9, 2021-05-19 16:53:41.503
27.0, -41.89249038696289, 17.527040481567383, 55.200923919677734, 54.30521774291992, -0.09600000083446503, -0.03200000151991844, 1.040000081062317, 0.0, 0.0, 0.0, 0.0, 0.0, 1.62143602150311E9, 2021-05-19 16:53:41.503
28.0, -51.69850540161133, -14.647317886352539, 36.531341552734375, 46.862815856933594, -0.09600000083446503, -0.03200000151991844, 1.040000081062317, 0.0, 0.0, 0.0, 0.0, 0.0, 1.6214360215034983E9, 2021-05-19 16:53:41.503
28.0, -54.032203674316406, -11.255228996276855, 43.94756317138672, 50.83832931518555, -0.09600000083446503, -0.03200000151991844, 1.040000081062317, 0.0, 0.0, 0.0, 0.0, 0.0, 1.6214360215034983E9, 2021-05-19 16:53:41.503
29.0, -42.225341796875, -1.2435166835784912, 57.545841217041016, 55.180355072021484, -0.09600000083446503, -0.03200000151991844, 1.040000081062317, 0.0, 0.0, 0.0, 0.0, 0.0, 1.6214360215042655E9, 2021-05-19 16:53:41.504
29.0, -44.151390075683594, 6.946864128112793, 48.091373443603516, 57.8543815612793, -0.09600000083446503, -0.03200000151991844, 1.040000081062317, 0.0, 0.0, 0.0, 0.0, 0.0, 1.6214360215042655E9, 2021-05-19 16:53:41.504
30.0, -39.05764389038086, -2.683378219604492, 48.820655822753906, 63.621307373046875, -0.09600000083446503, -0.03200000151991844, 1.055999994277954, 0.0, 0.0, 0.0, 0.0, 0.0, 1.6214360215142848E9, 2021-05-19 16:53:41.514
30.0, -35.52717971801758, -8.192251205444336, 54.621238708496094, 61.530704498291016, -0.09600000083446503, -0.03200000151991844, 1.055999994277954, 0.0, 0.0, 0.0, 0.0, 0.0, 1.6214360215142848E9, 2021-05-19 16:53:41.514
31.0, -33.19722366333008, 3.79412841796875, 57.022254943847656, 48.09698486328125, -0.09600000083446503, -0.03200000151991844, 1.055999994277954, 0.0, 0.0, 0.0, 0.0, 0.0, 1.6214360215292544E9, 2021-05-19 16:53:41.529
31.0, -22.11589813232422, 6.909465312957764, 59.34099197387695, 60.32645797729492, -0.09600000083446503, -0.03200000151991844, 1.055999994277954, 0.0, 0.0, 0.0, 0.0, 0.0, 1.6214360215292544E9, 2021-05-19 16:53:41.529
32.0, -28.67194366455078, -0.16268564760684967, 51.93598937988281, 51.7920036315918, -0.1120000034570694, -0.03200000151991844, 1.055999994277954, 0.0, 0.0, 0.0, 0.0, 0.0, 1.621436021544969E9, 2021-05-19 16:53:41.544
32.0, -26.536460876464844, 14.849272727966309, 57.572021484375, 45.202301025390625, -0.1120000034570694, -0.03200000151991844, 1.055999994277954, 0.0, 0.0, 0.0, 0.0, 0.0, 1.621436021544969E9, 2021-05-19 16:53:41.544
33.0, -25.990434646606445, 12.777368545532227, 64.49457550048828, 55.412227630615234, -0.1120000034570694, -0.03200000151991844, 1.055999994277954, 0.0, 0.0, 0.0, 0.0, 0.0, 1.62143602154572E9, 2021-05-19 16:53:41.545
33.0, -30.32497787475586, 9.493736267089844, 59.25871658325195, 47.99226760864258, -0.1120000034570694, -0.03200000151991844, 1.055999994277954, 0.0, 0.0, 0.0, 0.0, 0.0, 1.62143602154572E9, 2021-05-19 16:53:41.545
34.0, -33.08876419067383, 4.478530406951904, 51.54704284667969, 50.71491241455078, -0.1120000034570694, -0.03200000151991844, 1.055999994277954, 0.0, 0.0, 0.0, 0.0, 0.0, 1.6214360215756254E9, 2021-05-19 16:53:41.575
34.0, -45.04896545410156, -4.545848369598389, 45.570682525634766, 53.12714767456055, -0.1120000034570694, -0.03200000151991844, 1.055999994277954, 0.0, 0.0, 0.0, 0.0, 0.0, 1.6214360215756254E9, 2021-05-19 16:53:41.575
35.0, -28.873897552490234, 4.3775529861450195, 60.833213806152344, 73.45724487304688, -0.1120000034570694, -0.03200000151991844, 1.055999994277954, 0.0, 0.0, 0.0, 0.0, 0.0, 1.621436021576377E9, 2021-05-19 16:53:41.576
35.0, -35.19432830810547, 2.4253251552581787, 53.85456085205078, 66.50476837158203, -0.1120000034570694, -0.03200000151991844, 1.055999994277954, 0.0, 0.0, 0.0, 0.0, 0.0, 1.621436021576377E9, 2021-05-19 16:53:41.576
36.0, -41.72793197631836, -14.172350883483887, 48.4878044128418, 64.51514434814453, -0.1120000034570694, -0.03200000151991844, 1.055999994277954, 0.0, 0.0, 0.0, 0.0, 0.0, 1.621436021577131E9, 2021-05-19 16:53:41.577
36.0, -38.0590934753418, -25.003101348876953, 55.193443298339844, 77.50381469726562, -0.1120000034570694, -0.03200000151991844, 1.055999994277954, 0.0, 0.0, 0.0, 0.0, 0.0, 1.621436021577131E9, 2021-05-19 16:53:41.577
37.0, -30.549373626708984, -11.722716331481934, 64.03083038330078, 61.97201156616211, -0.1120000034570694, -0.03200000151991844, 1.055999994277954, 0.0, 0.0, 0.0, 0.0, 0.0, 1.621436021589284E9, 2021-05-19 16:53:41.589
37.0, -34.40895080566406, -13.865678787231445, 59.47188949584961, 65.03872680664062, -0.1120000034570694, -0.03200000151991844, 1.055999994277954, 0.0, 0.0, 0.0, 0.0, 0.0, 1.621436021589284E9, 2021-05-19 16:53:41.589
38.0, -31.099138259887695, -1.2322970628738403, 52.721370697021484, 65.49125671386719, -0.1120000034570694, -0.03200000151991844, 1.055999994277954, 0.0, 0.0, 0.0, 0.0, 0.0, 1.6214360216053977E9, 2021-05-19 16:53:41.605
38.0, -33.79560470581055, -3.229403495788574, 57.878692626953125, 59.384002685546875, -0.1120000034570694, -0.03200000151991844, 1.055999994277954, 0.0, 0.0, 0.0, 0.0, 0.0, 1.6214360216053977E9, 2021-05-19 16:53:41.605
39.0, -30.65035057067871, -13.820799827575684, 64.7376708984375, 48.669189453125, -0.1120000034570694, -0.03200000151991844, 1.055999994277954, 0.0, 0.0, 0.0, 0.0, 0.0, 1.6214360216206024E9, 2021-05-19 16:53:41.620
39.0, -33.62356948852539, -3.2069642543792725, 56.83525848388672, 52.92893600463867, -0.1120000034570694, -0.03200000151991844, 1.055999994277954, 0.0, 0.0, 0.0, 0.0, 0.0, 1.6214360216206024E9, 2021-05-19 16:53:41.620
40.0, -41.28288650512695, -18.832265853881836, 39.75139617919922, 45.04896545410156, -0.1120000034570694, -0.03200000151991844, 1.055999994277954, 0.0, 0.0, 0.0, 0.0, 0.0, 1.621436021621321E9, 2021-05-19 16:53:41.621
40.0, -32.179969787597656, -8.420384407043457, 51.468502044677734, 62.54421615600586, -0.1120000034570694, -0.03200000151991844, 1.055999994277954, 0.0, 0.0, 0.0, 0.0, 0.0, 1.621436021621321E9, 2021-05-19 16:53:41.621
41.0, -33.77316665649414, -4.934797763824463, 54.5501823425293, 56.69501495361328, -0.1120000034570694, -0.03200000151991844, 1.055999994277954, 0.0, 0.0, 0.0, 0.0, 0.0, 1.621436021634961E9, 2021-05-19 16:53:41.634
41.0, -29.318944931030273, -13.506649017333984, 42.19355010986328, 58.39292907714844, -0.1120000034570694, -0.03200000151991844, 1.055999994277954, 0.0, 0.0, 0.0, 0.0, 0.0, 1.621436021634961E9, 2021-05-19 16:53:41.634
42.0, -32.04533386230469, -2.5487418174743652, 46.96566390991211, 49.48822784423828, -0.1120000034570694, -0.03200000151991844, 1.055999994277954, 0.0, 0.0, 0.0, 0.0, 0.0, 1.6214360216357064E9, 2021-05-19 16:53:41.635
42.0, -31.233774185180664, 0.4917968511581421, 50.4587287902832, 51.590049743652344, -0.1120000034570694, -0.03200000151991844, 1.055999994277954, 0.0, 0.0, 0.0, 0.0, 0.0, 1.6214360216357064E9, 2021-05-19 16:53:41.635
43.0, -23.12567138671875, 0.4095190465450287, 64.42725372314453, 61.51948547363281, -0.1120000034570694, -0.03200000151991844, 1.055999994277954, 0.0, 0.0, 0.0, 0.0, 0.0, 1.6214360216493783E9, 2021-05-19 16:53:41.649
43.0, -30.942062377929688, 2.5263023376464844, 63.204307556152344, 61.31753158569336, -0.1120000034570694, -0.03200000151991844, 1.055999994277954, 0.0, 0.0, 0.0, 0.0, 0.0, 1.6214360216493783E9, 2021-05-19 16:53:41.649
44.0, -37.322330474853516, -3.569734573364258, 53.009342193603516, 73.87611389160156, -0.1120000034570694, -0.03200000151991844, 1.055999994277954, 0.0, 0.0, 0.0, 0.0, 0.0, 1.6214360216819928E9, 2021-05-19 16:53:41.681
44.0, -42.28144073486328, -12.941924095153809, 56.22939682006836, 67.7613754272461, -0.1120000034570694, -0.03200000151991844, 1.055999994277954, 0.0, 0.0, 0.0, 0.0, 0.0, 1.6214360216819928E9, 2021-05-19 16:53:41.681
45.0, -39.472774505615234, -4.740323066711426, 61.7981071472168, 56.2275276184082, -0.1120000034570694, -0.03200000151991844, 1.055999994277954, 0.0, 0.0, 0.0, 0.0, 0.0, 1.6214360216827233E9, 2021-05-19 16:53:41.682
45.0, -38.997806549072266, -0.41325893998146057, 59.28115463256836, 67.18917083740234, -0.1120000034570694, -0.03200000151991844, 1.055999994277954, 0.0, 0.0, 0.0, 0.0, 0.0, 1.6214360216827233E9, 2021-05-19 16:53:41.682
46.0, -41.83264923095703, 1.1238399744033813, 54.48286437988281, 64.5862045288086, -0.1120000034570694, -0.03200000151991844, 1.055999994277954, 0.0, 0.0, 0.0, 0.0, 0.0, 1.6214360216835468E9, 2021-05-19 16:53:41.683
46.0, -45.004085540771484, 4.149418830871582, 57.45608139038086, 59.50367736816406, -0.1120000034570694, -0.03200000151991844, 1.055999994277954, 0.0, 0.0, 0.0, 0.0, 0.0, 1.6214360216835468E9, 2021-05-19 16:53:41.683
47.0, -35.706695556640625, -11.666618347167969, 67.8492660522461, 54.01724624633789, -0.1120000034570694, -0.03200000151991844, 1.055999994277954, 0.0, 0.0, 0.0, 0.0, 0.0, 1.6214360216842344E9, 2021-05-19 16:53:41.684
47.0, -34.13593673706055, 3.569734573364258, 59.44197082519531, 54.697906494140625, -0.1120000034570694, -0.03200000151991844, 1.055999994277954, 0.0, 0.0, 0.0, 0.0, 0.0, 1.6214360216842344E9, 2021-05-19 16:53:41.684
48.0, -38.20868682861328, 7.249795913696289, 54.85685348510742, 61.87851333618164, -0.1120000034570694, -0.03200000151991844, 1.055999994277954, 0.0, 0.0, 0.0, 0.0, 0.0, 1.6214360216942482E9, 2021-05-19 16:53:41.694
48.0, -32.92047119140625, -1.0004231929779053, 49.55741500854492, 54.93352127075195, -0.1120000034570694, -0.03200000151991844, 1.055999994277954, 0.0, 0.0, 0.0, 0.0, 0.0, 1.6214360216942482E9, 2021-05-19 16:53:41.694
49.0, -31.233774185180664, -10.724163055419922, 55.148563385009766, 53.83024978637695, -0.1120000034570694, -0.03200000151991844, 1.055999994277954, 0.0, 0.0, 0.0, 0.0, 0.0, 1.621436021709268E9, 2021-05-19 16:53:41.709
49.0, -23.95966911315918, -7.399392127990723, 64.46839904785156, 60.41621398925781, -0.1120000034570694, -0.03200000151991844, 1.055999994277954, 0.0, 0.0, 0.0, 0.0, 0.0, 1.621436021709268E9, 2021-05-19 16:53:41.709
50.0, -30.07066535949707, -4.108280181884766, 52.19404220581055, 51.61996841430664, -0.1120000034570694, -0.03200000151991844, 1.040000081062317, 0.0, 0.0, 0.0, 0.0, 0.0, 1.6214360217249825E9, 2021-05-19 16:53:41.724
50.0, -32.0789909362793, -21.65589141845703, 50.97483825683594, 39.801883697509766, -0.1120000034570694, -0.03200000151991844, 1.040000081062317, 0.0, 0.0, 0.0, 0.0, 0.0, 1.6214360217249825E9, 2021-05-19 16:53:41.724
51.0, -21.008888244628906, -3.143385887145996, 68.60846710205078, 62.15900802612305, -0.1120000034570694, -0.03200000151991844, 1.040000081062317, 0.0, 0.0, 0.0, 0.0, 0.0, 1.621436021725696E9, 2021-05-19 16:53:41.725
51.0, -28.694381713867188, 0.08788765221834183, 54.344486236572266, 72.7204818725586, -0.1120000034570694, -0.03200000151991844, 1.040000081062317, 0.0, 0.0, 0.0, 0.0, 0.0, 1.621436021725696E9, 2021-05-19 16:53:41.725
52.0, -36.334999084472656, -4.5682878494262695, 43.222023010253906, 65.99988555908203, -0.09600000083446503, -0.03200000151991844, 1.040000081062317, 0.0, 0.0, 0.0, 0.0, 0.0, 1.6214360217393212E9, 2021-05-19 16:53:41.739
52.0, -35.07465362548828, -3.304201602935791, 46.524356842041016, 65.66703033447266, -0.09600000083446503, -0.03200000151991844, 1.040000081062317, 0.0, 0.0, 0.0, 0.0, 0.0, 1.6214360217393212E9, 2021-05-19 16:53:41.739
53.0, -44.532859802246094, -9.209503173828125, 56.296714782714844, 66.39257049560547, -0.09600000083446503, -0.03200000151991844, 1.040000081062317, 0.0, 0.0, 0.0, 0.0, 0.0, 1.6214360217549765E9, 2021-05-19 16:53:41.754
53.0, -37.58412551879883, 9.893905639648438, 58.13674545288086, 75.49175262451172, -0.09600000083446503, -0.03200000151991844, 1.040000081062317, 0.0, 0.0, 0.0, 0.0, 0.0, 1.6214360217549765E9, 2021-05-19 16:53:41.754
54.0, -49.364810943603516, -17.37370491027832, 46.73752975463867, 70.84679412841797, -0.09600000083446503, -0.03200000151991844, 1.040000081062317, 0.0, 0.0, 0.0, 0.0, 0.0, 1.6214360217557583E9, 2021-05-19 16:53:41.755
54.0, -41.189388275146484, -3.524855613708496, 59.023101806640625, 75.3907699584961, -0.09600000083446503, -0.03200000151991844, 1.040000081062317, 0.0, 0.0, 0.0, 0.0, 0.0, 1.6214360217557583E9, 2021-05-19 16:53:41.755
55.0, -28.585926055908203, -13.659984588623047, 65.36222839355469, 64.40294647216797, -0.09600000083446503, -0.03200000151991844, 1.040000081062317, 0.0, 0.0, 0.0, 0.0, 0.0, 1.621436021785642E9, 2021-05-19 16:53:41.785
55.0, -24.89090347290039, -14.161130905151367, 63.881229400634766, 61.2576904296875, -0.09600000083446503, -0.03200000151991844, 1.040000081062317, 0.0, 0.0, 0.0, 0.0, 0.0, 1.621436021785642E9, 2021-05-19 16:53:41.785
56.0, -29.217967987060547, -14.00405502319336, 56.24809646606445, 54.746524810791016, -0.09600000083446503, -0.03200000151991844, 1.040000081062317, 0.0, 0.0, 0.0, 0.0, 0.0, 1.6214360217863803E9, 2021-05-19 16:53:41.786
56.0, -36.95207977294922, -9.160884857177734, 63.036014556884766, 49.34611129760742, -0.09600000083446503, -0.03200000151991844, 1.040000081062317, 0.0, 0.0, 0.0, 0.0, 0.0, 1.6214360217863803E9, 2021-05-19 16:53:41.786
57.0, -22.987295150756836, -6.875805854797363, 71.10298156738281, 50.591495513916016, -0.09600000083446503, -0.03200000151991844, 1.040000081062317, 0.0, 0.0, 0.0, 0.0, 0.0, 1.6214360217871132E9, 2021-05-19 16:53:41.787
57.0, -18.46949577331543, 8.786894798278809, 70.34004211425781, 56.72867202758789, -0.09600000083446503, -0.03200000151991844, 1.040000081062317, 0.0, 0.0, 0.0, 0.0, 0.0, 1.6214360217871132E9, 2021-05-19 16:53:41.787
58.0, -29.25162696838379, -2.436544895172119, 54.924171447753906, 43.541786193847656, -0.09600000083446503, -0.03200000151991844, 1.040000081062317, 0.0, 0.0, 0.0, 0.0, 0.0, 1.621436021799264E9, 2021-05-19 16:53:41.799
58.0, -27.946401596069336, -6.984262943267822, 59.397090911865234, 38.10396957397461, -0.09600000083446503, -0.03200000151991844, 1.040000081062317, 0.0, 0.0, 0.0, 0.0, 0.0, 1.621436021799264E9, 2021-05-19 16:53:41.799
59.0, -27.310619354248047, -8.64103889465332, 63.89619064331055, 38.171287536621094, -0.09600000083446503, -0.03200000151991844, 1.040000081062317, 0.0, 0.0, 0.0, 0.0, 0.0, 1.6214360218155212E9, 2021-05-19 16:53:41.815
59.0, -34.11349868774414, -10.208057403564453, 51.93973159790039, 50.748573303222656, -0.09600000083446503, -0.03200000151991844, 1.040000081062317, 0.0, 0.0, 0.0, 0.0, 0.0, 1.6214360218155212E9, 2021-05-19 16:53:41.815
60.0, -34.502445220947266, -4.601946830749512, 48.78699493408203, 57.88056182861328, -0.09600000083446503, -0.03200000151991844, 1.055999994277954, 0.0, 0.0, 0.0, 0.0, 0.0, 1.621436021815709E9, 2021-05-19 16:53:41.815
60.0, -41.817691802978516, -2.8329741954803467, 48.334468841552734, 60.4648323059082, -0.09600000083446503, -0.03200000151991844, 1.055999994277954, 0.0, 0.0, 0.0, 0.0, 0.0, 1.621436021815709E9, 2021-05-19 16:53:41.815
61.0, -33.2047004699707, -6.329780578613281, 57.340145111083984, 64.10749816894531, -0.09600000083446503, -0.03200000151991844, 1.055999994277954, 0.0, 0.0, 0.0, 0.0, 0.0, 1.6214360218292727E9, 2021-05-19 16:53:41.829
61.0, -30.504493713378906, -0.6750519275665283, 53.19633865356445, 69.71734619140625, -0.09600000083446503, -0.03200000151991844, 1.055999994277954, 0.0, 0.0, 0.0, 0.0, 0.0, 1.6214360218292727E9, 2021-05-19 16:53:41.829
62.0, -35.523441314697266, -14.142431259155273, 42.04021453857422, 62.68633270263672, -0.1120000034570694, -0.03200000151991844, 1.055999994277954, 0.0, 0.0, 0.0, 0.0, 0.0, 1.6214360218454113E9, 2021-05-19 16:53:41.845
62.0, -31.536706924438477, -14.976428985595703, 49.92392349243164, 59.53359603881836, -0.1120000034570694, -0.03200000151991844, 1.055999994277954, 0.0, 0.0, 0.0, 0.0, 0.0, 1.6214360218454113E9, 2021-05-19 16:53:41.845
63.0, -25.956775665283203, -11.614259719848633, 58.4060173034668, 58.36674880981445, -0.1120000034570694, -0.03200000151991844, 1.055999994277954, 0.0, 0.0, 0.0, 0.0, 0.0, 1.6214360218458164E9, 2021-05-19 16:53:41.845
63.0, -28.324132919311523, -5.862293243408203, 56.910057067871094, 57.749664306640625, -0.1120000034570694, -0.03200000151991844, 1.055999994277954, 0.0, 0.0, 0.0, 0.0, 0.0, 1.6214360218458164E9, 2021-05-19 16:53:41.845
64.0, -35.38506317138672, 8.71209716796875, 53.581546783447266, 59.50741958618164, -0.1120000034570694, -0.03200000151991844, 1.055999994277954, 0.0, 0.0, 0.0, 0.0, 0.0, 1.621436021859416E9, 2021-05-19 16:53:41.859
64.0, -34.412689208984375, -0.8620469570159912, 61.03890609741211, 57.23729705810547, -0.1120000034570694, -0.03200000151991844, 1.055999994277954, 0.0, 0.0, 0.0, 0.0, 0.0, 1.621436021859416E9, 2021-05-19 16:53:41.859
65.0, -24.632850646972656, 2.245810031890869, 77.63658142089844, 54.499691009521484, -0.1120000034570694, -0.03200000151991844, 1.055999994277954, 0.0, 0.0, 0.0, 0.0, 0.0, 1.6214360218750408E9, 2021-05-19 16:53:41.875
65.0, -32.643714904785156, 1.617506742477417, 69.274169921875, 53.273006439208984, -0.1120000034570694, -0.03200000151991844, 1.055999994277954, 0.0, 0.0, 0.0, 0.0, 0.0, 1.6214360218750408E9, 2021-05-19 16:53:41.875
66.0, -34.883914947509766, 10.331473350524902, 67.99512481689453, 54.49595260620117, -0.1120000034570694, -0.03200000151991844, 1.055999994277954, 0.0, 0.0, 0.0, 0.0, 0.0, 1.621436021875924E9, 2021-05-19 16:53:41.875
66.0, -37.11663818359375, -5.600500106811523, 65.60906219482422, 60.11702346801758, -0.1120000034570694, -0.03200000151991844, 1.055999994277954, 0.0, 0.0, 0.0, 0.0, 0.0, 1.621436021875924E9, 2021-05-19 16:53:41.875
67.0, -31.02433967590332, 11.50206184387207, 65.65768432617188, 49.17033386230469, -0.1120000034570694, -0.03200000151991844, 1.055999994277954, 0.0, 0.0, 0.0, 0.0, 0.0, 1.621436021889295E9, 2021-05-19 16:53:41.889
67.0, -35.96474838256836, 21.165964126586914, 59.1091194152832, 51.31703567504883, -0.1120000034570694, -0.03200000151991844, 1.055999994277954, 0.0, 0.0, 0.0, 0.0, 0.0, 1.621436021889295E9, 2021-05-19 16:53:41.889
68.0, -38.029170989990234, 16.259214401245117, 55.89280319213867, 63.37073516845703, -0.1120000034570694, -0.03200000151991844, 1.055999994277954, 0.0, 0.0, 0.0, 0.0, 0.0, 1.6214360219056337E9, 2021-05-19 16:53:41.905
68.0, -38.88187026977539, -0.024309350177645683, 59.161476135253906, 65.8577651977539, -0.1120000034570694, -0.03200000151991844, 1.055999994277954, 0.0, 0.0, 0.0, 0.0, 0.0, 1.6214360219056337E9, 2021-05-19 16:53:41.905
69.0, -35.946048736572266, -2.7544362545013428, 56.55476760864258, 67.34624481201172, -0.1120000034570694, -0.03200000151991844, 1.055999994277954, 0.0, 0.0, 0.0, 0.0, 0.0, 1.6214360219064574E9, 2021-05-19 16:53:41.906
69.0, -32.00045394897461, 9.172104835510254, 46.849727630615234, 55.65532302856445, -0.1120000034570694, -0.03200000151991844, 1.055999994277954, 0.0, 0.0, 0.0, 0.0, 0.0, 1.6214360219064574E9, 2021-05-19 16:53:41.906
70.0, -40.02254104614258, -6.714990139007568, 32.851280212402344, 55.62914276123047, -0.1120000034570694, -0.03200000151991844, 1.040000081062317, 0.0, 0.0, 0.0, 0.0, 0.0, 1.6214360219192865E9, 2021-05-19 16:53:41.919
70.0, -28.75796127319336, 0.843347430229187, 49.228302001953125, 68.09423065185547, -0.1120000034570694, -0.03200000151991844, 1.040000081062317, 0.0, 0.0, 0.0, 0.0, 0.0, 1.6214360219192865E9, 2021-05-19 16:53:41.919
71.0, -26.1512508392334, 3.577214241027832, 54.69229507446289, 55.26637268066406, -0.1120000034570694, -0.03200000151991844, 1.040000081062317, 0.0, 0.0, 0.0, 0.0, 0.0, 1.6214360219349432E9, 2021-05-19 16:53:41.934
71.0, -33.04762649536133, 6.49807596206665, 49.433998107910156, 66.04850006103516, -0.1120000034570694, -0.03200000151991844, 1.040000081062317, 0.0, 0.0, 0.0, 0.0, 0.0, 1.6214360219349432E9, 2021-05-19 16:53:41.934
72.0, -42.053306579589844, -6.958083629608154, 46.92452621459961, 60.180599212646484, -0.1120000034570694, -0.03200000151991844, 1.040000081062317, 0.0, 0.0, 0.0, 0.0, 0.0, 1.6214360219357066E9, 2021-05-19 16:53:41.935
72.0, -39.6261100769043, -14.594959259033203, 55.26076126098633, 58.63228225708008, -0.1120000034570694, -0.03200000151991844, 1.040000081062317, 0.0, 0.0, 0.0, 0.0, 0.0, 1.6214360219357066E9, 2021-05-19 16:53:41.935
73.0, -31.506786346435547, -14.568779945373535, 69.08717346191406, 57.67860794067383, -0.1120000034570694, -0.03200000151991844, 1.040000081062317, 0.0, 0.0, 0.0, 0.0, 0.0, 1.621436021965644E9, 2021-05-19 16:53:41.965
73.0, -24.752527236938477, -3.382739543914795, 68.67204284667969, 68.59163665771484, -0.1120000034570694, -0.03200000151991844, 1.040000081062317, 0.0, 0.0, 0.0, 0.0, 0.0, 1.621436021965644E9, 2021-05-19 16:53:41.965
74.0, -33.94894027709961, -1.2584763765335083, 49.87530517578125, 48.14186096191406, -0.1120000034570694, -0.03200000151991844, 1.040000081062317, 0.0, 0.0, 0.0, 0.0, 0.0, 1.6214360219663672E9, 2021-05-19 16:53:41.966
74.0, -33.8853645324707, -3.491196632385254, 57.53462219238281, 49.7836799621582, -0.1120000034570694, -0.03200000151991844, 1.040000081062317, 0.0, 0.0, 0.0, 0.0, 0.0, 1.6214360219663672E9, 2021-05-19 16:53:41.966
75.0, -17.19045066833496, 6.2288031578063965, 64.16546630859375, 51.75460433959961, -0.1120000034570694, -0.03200000151991844, 1.040000081062317, 0.0, 0.0, 0.0, 0.0, 0.0, 1.6214360219672012E9, 2021-05-19 16:53:41.967
