Sample Index, EXG Channel 0, EXG Channel 1, EXG Channel 2, EXG Channel 3, Accel Channel 0, Accel Channel 1, Accel Channel 2, Other, Other, Other, Other, Other, Timestamp, Timestamp (Formatted)
0.0, -6.352220058441162, -6.453197479248047, -19.447479248046875, -20.457252502441406, 0.0, 0.0, 0.0, 0.0, 0.0, 0.0, 0.0, 0.0, 1.6214333932131562E9, 2021-05-19 16:09:53.213
1.0, -33.070064544677734, -43.87837600708008, -35.054080963134766, -45.40986633300781, 0.0, -0.01600000075995922, 0.0, 0.0, 0.0, 0.0, 0.0, 0.0, 1.6214333932265308E9, 2021-05-19 16:09:53.226
1.0, -35.29904556274414, -39.92156219482422, -33.30006790161133, -38.50975036621094, 0.0, -0.01600000075995922, 0.0, 0.0, 0.0, 0.0, 0.0, 0.0, 1.6214333932265308E9, 2021-05-19 16:09:53.226
2.0, -0.48057714104652405, 0.43943825364112854, -1.252866506576538, -5.2657790184021, -0.1120000034570694, -0.01600000075995922, 0.0, 0.0, 0.0, 0.0, 0.0, 0.0, 1.621433393243198E9, 2021-05-19 16:09:53.243
2.0, -11.90597152709961, 3.4014389514923096, -5.0152058601379395, -12.480046272277832, -0.1120000034570694, -0.01600000075995922, 0.0, 0.0, 0.0, 0.0, 0.0, 0.0, 1.621433393243198E9, 2021-05-19 16:09:53.243
3.0, -46.1110954284668, -31.0804386138916, -31.456298828125, -45.024654388427734, -0.1120000034570694, -0.01600000075995922, 0.0, 0.0, 0.0, 0.0, 0.0, 0.0, 1.6214333932439032E9, 2021-05-19 16:09:53.243
3.0, -55.63288116455078, -31.59654426574707, -36.52012252807617, -37.42517852783203, -0.1120000034570694, -0.01600000075995922, 0.0, 0.0, 0.0, 0.0, 0.0, 0.0, 1.6214333932439032E9, 2021-05-19 16:09:53.243
4.0, -19.625125885009766, 0.5179761648178101, -8.164201736450195, -9.390889167785645, -0.1120000034570694, -0.01600000075995922, 0.0, 0.0, 0.0, 0.0, 0.0, 0.0, 1.6214333932728488E9, 2021-05-19 16:09:53.272
4.0, -19.340892791748047, 10.155698776245117, -3.6838014125823975, -2.0868642330169678, -0.1120000034570694, -0.01600000075995922, 0.0, 0.0, 0.0, 0.0, 0.0, 0.0, 1.6214333932728488E9, 2021-05-19 16:09:53.272
5.0, -62.89202880859375, -44.59269714355469, -45.48092269897461, -40.62279510498047, -0.1120000034570694, -0.01600000075995922, 0.0, 0.0, 0.0, 0.0, 0.0, 0.0, 1.621433393273444E9, 2021-05-19 16:09:53.273
5.0, -70.39801025390625, -40.31051254272461, -51.07581329345703, -36.781917572021484, -0.1120000034570694, -0.01600000075995922, 0.0, 0.0, 0.0, 0.0, 0.0, 0.0, 1.621433393273444E9, 2021-05-19 16:09:53.273
6.0, -39.31195831298828, 6.333520412445068, -23.651126861572266, -3.919415235519409, -0.1120000034570694, -0.01600000075995922, 0.0, 0.0, 0.0, 0.0, 0.0, 0.0, 1.621433393274213E9, 2021-05-19 16:09:53.274
6.0, -24.685209274291992, 8.397945404052734, -14.450973510742188, 8.182901382446289, -0.1120000034570694, -0.01600000075995922, 0.0, 0.0, 0.0, 0.0, 0.0, 0.0, 1.621433393274213E9, 2021-05-19 16:09:53.274
7.0, -62.35722351074219, -31.62646484375, -46.49069595336914, -33.30754852294922, -0.1120000034570694, -0.01600000075995922, 0.0, 0.0, 0.0, 0.0, 0.0, 0.0, 1.6214333932862642E9, 2021-05-19 16:09:53.286
7.0, -70.16239166259766, -44.772212982177734, -64.43473815917969, -41.60264587402344, -0.1120000034570694, -0.01600000075995922, 0.0, 0.0, 0.0, 0.0, 0.0, 0.0, 1.6214333932862642E9, 2021-05-19 16:09:53.286
8.0, -30.470834732055664, -15.357898712158203, -33.636661529541016, -16.945486068725586, -0.1120000034570694, -0.01600000075995922, 0.0, 0.0, 0.0, 0.0, 0.0, 0.0, 1.6214333933018985E9, 2021-05-19 16:09:53.301
8.0, -12.624032020568848, -0.5291958451271057, -22.375822067260742, -8.949580192565918, -0.1120000034570694, -0.01600000075995922, 0.0, 0.0, 0.0, 0.0, 0.0, 0.0, 1.6214333933018985E9, 2021-05-19 16:09:53.301
9.0, -36.608009338378906, -35.4112434387207, -43.23324203491211, -38.12080001831055, -0.1120000034570694, -0.01600000075995922, 0.0, 0.0, 0.0, 0.0, 0.0, 0.0, 1.6214333933026276E9, 2021-05-19 16:09:53.302
9.0, -46.86655807495117, -32.77835464477539, -51.341346740722656, -42.219730377197266, -0.1120000034570694, -0.01600000075995922, 0.0, 0.0, 0.0, 0.0, 0.0, 0.0, 1.6214333933026276E9, 2021-05-19 16:09:53.302
10.0, -20.036514282226562, -1.2248172760009766, -23.22477912902832, -10.314643859863281, -0.1120000034570694, -0.01600000075995922, 1.040000081062317, 0.0, 0.0, 0.0, 0.0, 0.0, 1.621433393316237E9, 2021-05-19 16:09:53.316
10.0, -2.7170372009277344, 1.3631935119628906, -8.066964149475098, 2.5356521606445312, -0.1120000034570694, -0.01600000075995922, 1.040000081062317, 0.0, 0.0, 0.0, 0.0, 0.0, 1.621433393316237E9, 2021-05-19 16:09:53.316
11.0, -46.17841339111328, -37.180213928222656, -38.31527328491211, -31.344100952148438, -0.1120000034570694, -0.01600000075995922, 1.040000081062317, 0.0, 0.0, 0.0, 0.0, 0.0, 1.6214333933483815E9, 2021-05-19 16:09:53.348
11.0, -52.4427490234375, -36.1330451965332, -33.84983444213867, -36.116214752197266, -0.1120000034570694, -0.01600000075995922, 1.040000081062317, 0.0, 0.0, 0.0, 0.0, 0.0, 1.6214333933483815E9, 2021-05-19 16:09:53.348
12.0, -17.676637649536133, -6.44945764541626, -5.6173295974731445, -8.583070755004883, -0.09600000083446503, -0.01600000075995922, 1.040000081062317, 0.0, 0.0, 0.0, 0.0, 0.0, 1.6214333933490117E9, 2021-05-19 16:09:53.349
12.0, -16.03856086730957, 0.6787918210029602, 8.003385543823242, -3.7062408924102783, -0.09600000083446503, -0.01600000075995922, 1.040000081062317, 0.0, 0.0, 0.0, 0.0, 0.0, 1.6214333933490117E9, 2021-05-19 16:09:53.349
13.0, -54.49221420288086, -31.192636489868164, -29.298376083374023, -34.915706634521484, -0.09600000083446503, -0.01600000075995922, 1.040000081062317, 0.0, 0.0, 0.0, 0.0, 0.0, 1.6214333933499167E9, 2021-05-19 16:09:53.349
13.0, -65.70442962646484, -35.714176177978516, -35.6001091003418, -35.95539855957031, -0.09600000083446503, -0.01600000075995922, 1.040000081062317, 0.0, 0.0, 0.0, 0.0, 0.0, 1.6214333933499167E9, 2021-05-19 16:09:53.349
14.0, -26.37564468383789, 2.2832088470458984, 0.01869950070977211, 3.2724125385284424, -0.09600000083446503, -0.01600000075995922, 1.040000081062317, 0.0, 0.0, 0.0, 0.0, 0.0, 1.621433393350514E9, 2021-05-19 16:09:53.350
14.0, -29.94350814819336, 5.540661811828613, -1.073351263999939, 5.665948390960693, -0.09600000083446503, -0.01600000075995922, 1.040000081062317, 0.0, 0.0, 0.0, 0.0, 0.0, 1.621433393350514E9, 2021-05-19 16:09:53.350
15.0, -77.82918548583984, -47.82023239135742, -45.596858978271484, -41.7260627746582, -0.09600000083446503, -0.01600000075995922, 1.040000081062317, 0.0, 0.0, 0.0, 0.0, 0.0, 1.6214333933612514E9, 2021-05-19 16:09:53.361
15.0, -74.02944946289062, -42.63298797607422, -49.74814987182617, -38.77528381347656, -0.09600000083446503, -0.01600000075995922, 1.040000081062317, 0.0, 0.0, 0.0, 0.0, 0.0, 1.6214333933612514E9, 2021-05-19 16:09:53.361
16.0, -32.66241455078125, 5.3013081550598145, -25.352781295776367, -9.802277565002441, -0.09600000083446503, -0.01600000075995922, 1.040000081062317, 0.0, 0.0, 0.0, 0.0, 0.0, 1.6214333933763623E9, 2021-05-19 16:09:53.376
16.0, -28.398929595947266, 1.617506742477417, -28.20632553100586, -15.737499237060547, -0.09600000083446503, -0.01600000075995922, 1.040000081062317, 0.0, 0.0, 0.0, 0.0, 0.0, 1.6214333933763623E9, 2021-05-19 16:09:53.376
17.0, -58.8978157043457, -40.766780853271484, -64.17668151855469, -48.0876350402832, -0.09600000083446503, -0.01600000075995922, 1.040000081062317, 0.0, 0.0, 0.0, 0.0, 0.0, 1.6214333933927703E9, 2021-05-19 16:09:53.392
17.0, -60.4947509765625, -43.8222770690918, -69.55091857910156, -52.863487243652344, -0.09600000083446503, -0.01600000075995922, 1.040000081062317, 0.0, 0.0, 0.0, 0.0, 0.0, 1.6214333933927703E9, 2021-05-19 16:09:53.392
18.0, -20.500261306762695, -11.27392864227295, -31.179546356201172, -23.40803337097168, -0.09600000083446503, -0.01600000075995922, 1.040000081062317, 0.0, 0.0, 0.0, 0.0, 0.0, 1.6214333933933656E9, 2021-05-19 16:09:53.393
18.0, -8.644779205322266, 1.2509965896606445, -16.18628692626953, -13.751611709594727, -0.09600000083446503, -0.01600000075995922, 1.040000081062317, 0.0, 0.0, 0.0, 0.0, 0.0, 1.6214333933933656E9, 2021-05-19 16:09:53.393
19.0, -36.70524978637695, -32.595096588134766, -29.006664276123047, -39.50456237792969, -0.09600000083446503, -0.01600000075995922, 1.040000081062317, 0.0, 0.0, 0.0, 0.0, 0.0, 1.6214333934217107E9, 2021-05-19 16:09:53.421
19.0, -57.233558654785156, -45.70344924926758, -53.9106559753418, -55.70954895019531, -0.09600000083446503, -0.01600000075995922, 1.040000081062317, 0.0, 0.0, 0.0, 0.0, 0.0, 1.6214333934217107E9, 2021-05-19 16:09:53.421
20.0, -18.387218475341797, 2.7993152141571045, -11.720846176147461, -10.677413940429688, -0.09600000083446503, -0.01600000075995922, 1.040000081062317, 0.0, 0.0, 0.0, 0.0, 0.0, 1.6214333934375582E9, 2021-05-19 16:09:53.437
20.0, -16.408811569213867, 0.7984686493873596, -7.060931205749512, -11.118722915649414, -0.09600000083446503, -0.01600000075995922, 1.040000081062317, 0.0, 0.0, 0.0, 0.0, 0.0, 1.6214333934375582E9, 2021-05-19 16:09:53.437
21.0, -42.30387878417969, -35.09709167480469, -25.44253921508789, -32.301517486572266, -0.09600000083446503, -0.01600000075995922, 1.040000081062317, 0.0, 0.0, 0.0, 0.0, 0.0, 1.621433393453396E9, 2021-05-19 16:09:53.453
21.0, -63.527809143066406, -48.74398422241211, -44.95733642578125, -46.52061462402344, -0.09600000083446503, -0.01600000075995922, 1.040000081062317, 0.0, 0.0, 0.0, 0.0, 0.0, 1.621433393453396E9, 2021-05-19 16:09:53.453
22.0, -32.744693756103516, -17.485902786254883, -17.547611236572266, -13.171927452087402, -0.09600000083446503, -0.01600000075995922, 1.040000081062317, 0.0, 0.0, 0.0, 0.0, 0.0, 1.6214333934541612E9, 2021-05-19 16:09:53.454
22.0, -13.962916374206543, 2.844193935394287, 4.083970546722412, 2.008326292037964, -0.09600000083446503, -0.01600000075995922, 1.040000081062317, 0.0, 0.0, 0.0, 0.0, 0.0, 1.6214333934541612E9, 2021-05-19 16:09:53.454
23.0, -58.486427307128906, -36.64167022705078, -42.30200958251953, -33.6740608215332, -0.09600000083446503, -0.01600000075995922, 1.040000081062317, 0.0, 0.0, 0.0, 0.0, 0.0, 1.6214333934548028E9, 2021-05-19 16:09:53.454
23.0, -61.100616455078125, -33.35429763793945, -43.48007583618164, -32.16687774658203, -0.09600000083446503, -0.01600000075995922, 1.040000081062317, 0.0, 0.0, 0.0, 0.0, 0.0, 1.6214333934548028E9, 2021-05-19 16:09:53.454
24.0, -31.009380340576172, -0.2636629343032837, -17.551349639892578, -7.023531913757324, -0.09600000083446503, -0.01600000075995922, 1.040000081062317, 0.0, 0.0, 0.0, 0.0, 0.0, 1.621433393455552E9, 2021-05-19 16:09:53.455
24.0, -27.90900421142578, 3.711850643157959, -18.82291603088379, -4.611296653747559, -0.09600000083446503, -0.01600000075995922, 1.040000081062317, 0.0, 0.0, 0.0, 0.0, 0.0, 1.621433393455552E9, 2021-05-19 16:09:53.455
25.0, -62.89202880859375, -40.572303771972656, -45.66791915893555, -36.546302795410156, -0.09600000083446503, -0.01600000075995922, 1.040000081062317, 0.0, 0.0, 0.0, 0.0, 0.0, 1.6214333934662657E9, 2021-05-19 16:09:53.466
25.0, -69.6275863647461, -44.1027717590332, -54.2098503112793, -41.307193756103516, -0.09600000083446503, -0.01600000075995922, 1.040000081062317, 0.0, 0.0, 0.0, 0.0, 0.0, 1.6214333934662657E9, 2021-05-19 16:09:53.466
26.0, -30.38107681274414, -3.7006309032440186, -29.13755989074707, -9.854636192321777, -0.09600000083446503, -0.01600000075995922, 1.040000081062317, 0.0, 0.0, 0.0, 0.0, 0.0, 1.6214333934816844E9, 2021-05-19 16:09:53.481
26.0, -27.482654571533203, -8.768195152282715, -28.542917251586914, -6.791658401489258, -0.09600000083446503, -0.01600000075995922, 1.040000081062317, 0.0, 0.0, 0.0, 0.0, 0.0, 1.6214333934816844E9, 2021-05-19 16:09:53.481
27.0, -55.28881072998047, -42.7003059387207, -54.6137580871582, -37.60469436645508, -0.09600000083446503, -0.01600000075995922, 1.040000081062317, 0.0, 0.0, 0.0, 0.0, 0.0, 1.621433393513389E9, 2021-05-19 16:09:53.513
27.0, -69.41067504882812, -56.844608306884766, -72.96170806884766, -44.467411041259766, -0.09600000083446503, -0.01600000075995922, 1.040000081062317, 0.0, 0.0, 0.0, 0.0, 0.0, 1.621433393513389E9, 2021-05-19 16:09:53.513
28.0, -24.685209274291992, -6.460677146911621, -26.964677810668945, -0.4637475907802582, -0.09600000083446503, -0.01600000075995922, 1.040000081062317, 0.0, 0.0, 0.0, 0.0, 0.0, 1.6214333935141077E9, 2021-05-19 16:09:53.514
28.0, -19.299753189086914, -6.565394401550293, -17.278337478637695, -0.8751366138458252, -0.09600000083446503, -0.01600000075995922, 1.040000081062317, 0.0, 0.0, 0.0, 0.0, 0.0, 1.6214333935141077E9, 2021-05-19 16:09:53.514
29.0, -50.80467224121094, -34.221954345703125, -36.35930633544922, -28.793489456176758, -0.09600000083446503, -0.01600000075995922, 1.040000081062317, 0.0, 0.0, 0.0, 0.0, 0.0, 1.6214333935148563E9, 2021-05-19 16:09:53.514
29.0, -63.64374923706055, -44.151390075683594, -47.21623611450195, -41.217437744140625, -0.09600000083446503, -0.01600000075995922, 1.040000081062317, 0.0, 0.0, 0.0, 0.0, 0.0, 1.6214333935148563E9, 2021-05-19 16:09:53.514
30.0, -24.262601852416992, 1.0976606607437134, -11.23091983795166, -3.5753443241119385, -0.09600000083446503, -0.01600000075995922, 1.040000081062317, 0.0, 0.0, 0.0, 0.0, 0.0, 1.621433393515544E9, 2021-05-19 16:09:53.515
30.0, -18.0169677734375, 4.448610782623291, -8.964540481567383, -4.615036487579346, -0.09600000083446503, -0.01600000075995922, 1.040000081062317, 0.0, 0.0, 0.0, 0.0, 0.0, 1.621433393515544E9, 2021-05-19 16:09:53.515
31.0, -54.53709030151367, -30.50075340270996, -36.79313659667969, -36.13491439819336, -0.09600000083446503, -0.03200000151991844, 1.040000081062317, 0.0, 0.0, 0.0, 0.0, 0.0, 1.621433393526237E9, 2021-05-19 16:09:53.526
31.0, -59.95246505737305, -45.21352005004883, -45.4771842956543, -40.398399353027344, -0.09600000083446503, -0.03200000151991844, 1.040000081062317, 0.0, 0.0, 0.0, 0.0, 0.0, 1.621433393526237E9, 2021-05-19 16:09:53.526
32.0, -19.42317008972168, -1.1462793350219727, -12.162154197692871, -8.687788009643555, -0.09600000083446503, -0.03200000151991844, 1.040000081062317, 0.0, 0.0, 0.0, 0.0, 0.0, 1.621433393559023E9, 2021-05-19 16:09:53.559
32.0, -14.467803001403809, -3.7305502891540527, -6.402708530426025, 2.3224778175354004, -0.09600000083446503, -0.03200000151991844, 1.040000081062317, 0.0, 0.0, 0.0, 0.0, 0.0, 1.621433393559023E9, 2021-05-19 16:09:53.559
33.0, -59.16334915161133, -43.89333724975586, -38.90991973876953, -29.496591567993164, -0.09600000083446503, -0.03200000151991844, 1.040000081062317, 0.0, 0.0, 0.0, 0.0, 0.0, 1.6214333935597029E9, 2021-05-19 16:09:53.559
33.0, -56.638916015625, -37.02313995361328, -35.3121337890625, -24.93391227722168, -0.09600000083446503, -0.03200000151991844, 1.040000081062317, 0.0, 0.0, 0.0, 0.0, 0.0, 1.6214333935597029E9, 2021-05-19 16:09:53.559
34.0, -33.212181091308594, -7.118899345397949, -22.84330940246582, -6.679461479187012, -0.09600000083446503, -0.03200000151991844, 1.040000081062317, 0.0, 0.0, 0.0, 0.0, 0.0, 1.6214333935604448E9, 2021-05-19 16:09:53.560
34.0, -26.753374099731445, 5.028295516967773, -16.276044845581055, 0.2094343900680542, -0.09600000083446503, -0.03200000151991844, 1.040000081062317, 0.0, 0.0, 0.0, 0.0, 0.0, 1.6214333935604448E9, 2021-05-19 16:09:53.560
35.0, -58.037635803222656, -41.25670623779297, -46.95818328857422, -38.7042236328125, -0.09600000083446503, -0.03200000151991844, 1.040000081062317, 0.0, 0.0, 0.0, 0.0, 0.0, 1.6214333935611825E9, 2021-05-19 16:09:53.561
35.0, -65.13970947265625, -40.052459716796875, -51.75647735595703, -44.501068115234375, -0.09600000083446503, -0.03200000151991844, 1.040000081062317, 0.0, 0.0, 0.0, 0.0, 0.0, 1.6214333935611825E9, 2021-05-19 16:09:53.561
36.0, -29.790172576904297, -4.575767517089844, -25.277984619140625, -11.010265350341797, -0.09600000083446503, -0.03200000151991844, 1.040000081062317, 0.0, 0.0, 0.0, 0.0, 0.0, 1.6214333935712495E9, 2021-05-19 16:09:53.571
36.0, -10.174397468566895, 8.562500953674316, -7.5882568359375, 7.236706256866455, -0.09600000083446503, -0.03200000151991844, 1.040000081062317, 0.0, 0.0, 0.0, 0.0, 0.0, 1.6214333935712495E9, 2021-05-19 16:09:53.571
37.0, -54.09952163696289, -52.4427490234375, -43.173404693603516, -33.341209411621094, -0.09600000083446503, -0.03200000151991844, 1.040000081062317, 0.0, 0.0, 0.0, 0.0, 0.0, 1.621433393586337E9, 2021-05-19 16:09:53.586
37.0, -59.78417205810547, -54.832542419433594, -50.997276306152344, -37.152164459228516, -0.09600000083446503, -0.03200000151991844, 1.040000081062317, 0.0, 0.0, 0.0, 0.0, 0.0, 1.621433393586337E9, 2021-05-19 16:09:53.586
38.0, -27.01142692565918, -17.15679168701172, -30.5175838470459, -5.407895565032959, -0.09600000083446503, -0.03200000151991844, 1.040000081062317, 0.0, 0.0, 0.0, 0.0, 0.0, 1.6214333936023529E9, 2021-05-19 16:09:53.602
38.0, -17.168010711669922, -9.314220428466797, -23.060222625732422, -5.104963302612305, -0.09600000083446503, -0.03200000151991844, 1.040000081062317, 0.0, 0.0, 0.0, 0.0, 0.0, 1.6214333936023529E9, 2021-05-19 16:09:53.602
39.0, -45.344417572021484, -42.6180305480957, -46.21394348144531, -30.12115478515625, -0.09600000083446503, -0.03200000151991844, 1.040000081062317, 0.0, 0.0, 0.0, 0.0, 0.0, 1.621433393617002E9, 2021-05-19 16:09:53.617
39.0, -53.022430419921875, -48.13064193725586, -52.59421157836914, -32.813880920410156, -0.09600000083446503, -0.03200000151991844, 1.040000081062317, 0.0, 0.0, 0.0, 0.0, 0.0, 1.621433393617002E9, 2021-05-19 16:09:53.617
40.0, -18.11046600341797, -5.480823516845703, -19.432519912719727, -2.288818836212158, -0.09600000083446503, -0.03200000151991844, 1.055999994277954, 0.0, 0.0, 0.0, 0.0, 0.0, 1.621433393617747E9, 2021-05-19 16:09:53.617
40.0, -15.488795280456543, -4.9198384284973145, -14.783824920654297, -2.2177605628967285, -0.09600000083446503, -0.03200000151991844, 1.055999994277954, 0.0, 0.0, 0.0, 0.0, 0.0, 1.621433393617747E9, 2021-05-19 16:09:53.617
41.0, -46.24199295043945, -31.839637756347656, -27.06191635131836, -18.47510528564453, -0.09600000083446503, -0.03200000151991844, 1.055999994277954, 0.0, 0.0, 0.0, 0.0, 0.0, 1.6214333936319623E9, 2021-05-19 16:09:53.631
41.0, -55.57304382324219, -35.8114128112793, -35.31961441040039, -27.92957305908203, -0.09600000083446503, -0.03200000151991844, 1.055999994277954, 0.0, 0.0, 0.0, 0.0, 0.0, 1.6214333936319623E9, 2021-05-19 16:09:53.631
42.0, -27.40037727355957, -1.3706732988357544, -20.520830154418945, -4.012912750244141, -0.09600000083446503, -0.03200000151991844, 1.055999994277954, 0.0, 0.0, 0.0, 0.0, 0.0, 1.6214333936326456E9, 2021-05-19 16:09:53.632
42.0, -21.39409828186035, 1.8157213926315308, -16.08905029296875, -1.0434321165084839, -0.09600000083446503, -0.03200000151991844, 1.055999994277954, 0.0, 0.0, 0.0, 0.0, 0.0, 1.6214333936326456E9, 2021-05-19 16:09:53.632
43.0, -56.564117431640625, -39.042686462402344, -37.94502639770508, -26.99085807800293, -0.09600000083446503, -0.03200000151991844, 1.055999994277954, 0.0, 0.0, 0.0, 0.0, 0.0, 1.621433393646355E9, 2021-05-19 16:09:53.646
43.0, -67.11063385009766, -51.14500045776367, -49.20586395263672, -42.268348693847656, -0.09600000083446503, -0.03200000151991844, 1.055999994277954, 0.0, 0.0, 0.0, 0.0, 0.0, 1.621433393646355E9, 2021-05-19 16:09:53.646
44.0, -26.951589584350586, -7.563947677612305, -17.319477081298828, -4.7459330558776855, -0.09600000083446503, -0.03200000151991844, 1.055999994277954, 0.0, 0.0, 0.0, 0.0, 0.0, 1.6214333936623318E9, 2021-05-19 16:09:53.662
44.0, -23.21916961669922, -0.5067564249038696, -12.427687644958496, -6.028718948364258, -0.09600000083446503, -0.03200000151991844, 1.055999994277954, 0.0, 0.0, 0.0, 0.0, 0.0, 1.6214333936623318E9, 2021-05-19 16:09:53.662
45.0, -53.58341598510742, -34.165855407714844, -46.68517303466797, -36.19101333618164, -0.09600000083446503, -0.03200000151991844, 1.055999994277954, 0.0, 0.0, 0.0, 0.0, 0.0, 1.6214333936774704E9, 2021-05-19 16:09:53.677
45.0, -77.38414001464844, -57.87308120727539, -72.47552490234375, -53.581546783447266, -0.09600000083446503, -0.03200000151991844, 1.055999994277954, 0.0, 0.0, 0.0, 0.0, 0.0, 1.6214333936774704E9, 2021-05-19 16:09:53.677
46.0, -20.754575729370117, 1.4342516660690308, -19.503578186035156, 3.616483211517334, -0.09600000083446503, -0.03200000151991844, 1.055999994277954, 0.0, 0.0, 0.0, 0.0, 0.0, 1.6214333936925557E9, 2021-05-19 16:09:53.692
46.0, -23.828773498535156, 4.2129974365234375, -21.620361328125, -3.964293956756592, -0.09600000083446503, -0.03200000151991844, 1.055999994277954, 0.0, 0.0, 0.0, 0.0, 0.0, 1.6214333936925557E9, 2021-05-19 16:09:53.692
47.0, -47.94364929199219, -31.585325241088867, -39.642940521240234, -24.230812072753906, -0.09600000083446503, -0.03200000151991844, 1.055999994277954, 0.0, 0.0, 0.0, 0.0, 0.0, 1.621433393693348E9, 2021-05-19 16:09:53.693
47.0, -55.81613540649414, -40.48628616333008, -47.95673751831055, -29.174959182739258, -0.09600000083446503, -0.03200000151991844, 1.055999994277954, 0.0, 0.0, 0.0, 0.0, 0.0, 1.621433393693348E9, 2021-05-19 16:09:53.693
48.0, -32.20615005493164, -13.839499473571777, -25.382701873779297, -5.87164306640625, -0.09600000083446503, -0.03200000151991844, 1.055999994277954, 0.0, 0.0, 0.0, 0.0, 0.0, 1.621433393694137E9, 2021-05-19 16:09:53.694
48.0, -17.093212127685547, 4.227956771850586, -6.533605098724365, 6.855236530303955, -0.09600000083446503, -0.03200000151991844, 1.055999994277954, 0.0, 0.0, 0.0, 0.0, 0.0, 1.621433393694137E9, 2021-05-19 16:09:53.694
49.0, -46.92265319824219, -40.54612350463867, -31.134666442871094, -23.045263290405273, -0.09600000083446503, -0.03200000151991844, 1.055999994277954, 0.0, 0.0, 0.0, 0.0, 0.0, 1.6214333937232969E9, 2021-05-19 16:09:53.723
49.0, -61.06695556640625, -41.60077667236328, -47.91185760498047, -34.167724609375, -0.09600000083446503, -0.03200000151991844, 1.055999994277954, 0.0, 0.0, 0.0, 0.0, 0.0, 1.6214333937232969E9, 2021-05-19 16:09:53.723
50.0, -31.057998657226562, -8.4540433883667, -11.904101371765137, -7.307764530181885, -0.09600000083446503, -0.03200000151991844, 1.055999994277954, 0.0, 0.0, 0.0, 0.0, 0.0, 1.6214333937241127E9, 2021-05-19 16:09:53.724
50.0, -11.760115623474121, 2.818014621734619, 11.148641586303711, 9.368449211120605, -0.09600000083446503, -0.03200000151991844, 1.055999994277954, 0.0, 0.0, 0.0, 0.0, 0.0, 1.6214333937241127E9, 2021-05-19 16:09:53.724
51.0, -52.85787582397461, -39.6485481262207, -28.7860107421875, -22.09532928466797, -0.09600000083446503, -0.03200000151991844, 1.055999994277954, 0.0, 0.0, 0.0, 0.0, 0.0, 1.6214333937248583E9, 2021-05-19 16:09:53.724
51.0, -53.504878997802734, -40.69572067260742, -36.61735916137695, -32.11452102661133, -0.09600000083446503, -0.03200000151991844, 1.055999994277954, 0.0, 0.0, 0.0, 0.0, 0.0, 1.6214333937248583E9, 2021-05-19 16:09:53.724
52.0, -22.430049896240234, -2.3131282329559326, -12.094836235046387, -3.511765956878662, -0.09600000083446503, -0.03200000151991844, 1.055999994277954, 0.0, 0.0, 0.0, 0.0, 0.0, 1.6214333937362275E9, 2021-05-19 16:09:53.736
52.0, -13.30095386505127, 9.34414005279541, -9.162755012512207, -3.5192458629608154, -0.09600000083446503, -0.03200000151991844, 1.055999994277954, 0.0, 0.0, 0.0, 0.0, 0.0, 1.6214333937362275E9, 2021-05-19 16:09:53.736
53.0, -46.346710205078125, -33.500152587890625, -39.71773910522461, -35.446773529052734, -0.09600000083446503, -0.03200000151991844, 1.055999994277954, 0.0, 0.0, 0.0, 0.0, 0.0, 1.6214333937520316E9, 2021-05-19 16:09:53.752
53.0, -59.45880126953125, -40.4002685546875, -48.12129211425781, -46.90956497192383, -0.09600000083446503, -0.03200000151991844, 1.055999994277954, 0.0, 0.0, 0.0, 0.0, 0.0, 1.6214333937520316E9, 2021-05-19 16:09:53.752
54.0, -18.435836791992188, 3.064847946166992, -18.564863204956055, -20.36375617980957, -0.09600000083446503, -0.03200000151991844, 1.055999994277954, 0.0, 0.0, 0.0, 0.0, 0.0, 1.6214333937527757E9, 2021-05-19 16:09:53.752
54.0, -8.603639602661133, 10.144478797912598, -5.995059490203857, -6.066117763519287, -0.09600000083446503, -0.03200000151991844, 1.055999994277954, 0.0, 0.0, 0.0, 0.0, 0.0, 1.6214333937527757E9, 2021-05-19 16:09:53.752
55.0, -47.075992584228516, -37.40460968017578, -35.39815139770508, -37.66079330444336, -0.09600000083446503, -0.03200000151991844, 1.055999994277954, 0.0, 0.0, 0.0, 0.0, 0.0, 1.621433393783358E9, 2021-05-19 16:09:53.783
55.0, -55.63288116455078, -40.22075271606445, -45.4884033203125, -44.48984909057617, -0.09600000083446503, -0.03200000151991844, 1.055999994277954, 0.0, 0.0, 0.0, 0.0, 0.0, 1.621433393783358E9, 2021-05-19 16:09:53.783
56.0, -26.641178131103516, -1.6399461030960083, -24.60854148864746, -14.095683097839355, -0.09600000083446503, -0.03200000151991844, 1.055999994277954, 0.0, 0.0, 0.0, 0.0, 0.0, 1.6214333938117416E9, 2021-05-19 16:09:53.811
56.0, -17.901031494140625, -0.2823624610900879, -21.268810272216797, -8.066964149475098, -0.09600000083446503, -0.03200000151991844, 1.055999994277954, 0.0, 0.0, 0.0, 0.0, 0.0, 1.6214333938117416E9, 2021-05-19 16:09:53.811
57.0, -59.86644744873047, -38.63129806518555, -55.6758918762207, -35.9815788269043, -0.09600000083446503, -0.03200000151991844, 1.055999994277954, 0.0, 0.0, 0.0, 0.0, 0.0, 1.6214333938297403E9, 2021-05-19 16:09:53.829
57.0, -68.68513488769531, -41.30906677246094, -63.39878463745117, -36.50890350341797, -0.09600000083446503, -0.03200000151991844, 1.055999994277954, 0.0, 0.0, 0.0, 0.0, 0.0, 1.6214333938297403E9, 2021-05-19 16:09:53.829
58.0, -35.95726776123047, 1.538968801498413, -30.854175567626953, -3.321031093597412, -0.09600000083446503, -0.03200000151991844, 1.055999994277954, 0.0, 0.0, 0.0, 0.0, 0.0, 1.621433393830491E9, 2021-05-19 16:09:53.830
58.0, -29.73407554626465, 3.7754290103912354, -17.06890296936035, 11.739545822143555, -0.09600000083446503, -0.03200000151991844, 1.055999994277954, 0.0, 0.0, 0.0, 0.0, 0.0, 1.621433393830491E9, 2021-05-19 16:09:53.830
59.0, -56.14524841308594, -25.070419311523438, -39.4671630859375, -9.749918937683105, -0.09600000083446503, -0.03200000151991844, 1.055999994277954, 0.0, 0.0, 0.0, 0.0, 0.0, 1.6214333938312616E9, 2021-05-19 16:09:53.831
59.0, -66.08589935302734, -38.59763717651367, -51.849971771240234, -22.529157638549805, -0.09600000083446503, -0.03200000151991844, 1.055999994277954, 0.0, 0.0, 0.0, 0.0, 0.0, 1.6214333938312616E9, 2021-05-19 16:09:53.831
60.0, -39.154884338378906, 1.3070950508117676, -23.037784576416016, 0.8639168739318848, -0.09600000083446503, -0.03200000151991844, 1.040000081062317, 0.0, 0.0, 0.0, 0.0, 0.0, 1.621433393831895E9, 2021-05-19 16:09:53.831
60.0, -25.418230056762695, -0.9405848383903503, -7.4349212646484375, 5.553751468658447, -0.09600000083446503, -0.03200000151991844, 1.040000081062317, 0.0, 0.0, 0.0, 0.0, 0.0, 1.621433393831895E9, 2021-05-19 16:09:53.831
61.0, -57.40559387207031, -37.748680114746094, -35.85441970825195, -30.42408561706543, -0.09600000083446503, -0.03200000151991844, 1.040000081062317, 0.0, 0.0, 0.0, 0.0, 0.0, 1.6214333938427885E9, 2021-05-19 16:09:53.842
61.0, -60.39751434326172, -38.279747009277344, -43.416500091552734, -39.8598518371582, -0.09600000083446503, -0.03200000151991844, 1.040000081062317, 0.0, 0.0, 0.0, 0.0, 0.0, 1.6214333938427885E9, 2021-05-19 16:09:53.842
62.0, -22.62452507019043, 0.8844863176345825, -14.465932846069336, -10.834489822387695, -0.09600000083446503, -0.03200000151991844, 1.040000081062317, 0.0, 0.0, 0.0, 0.0, 0.0, 1.621433393843365E9, 2021-05-19 16:09:53.843
62.0, -18.68267059326172, -2.245810031890869, -11.8517427444458, -12.285571098327637, -0.09600000083446503, -0.03200000151991844, 1.040000081062317, 0.0, 0.0, 0.0, 0.0, 0.0, 1.621433393843365E9, 2021-05-19 16:09:53.843
63.0, -44.41692352294922, -30.612951278686523, -43.465118408203125, -38.449913024902344, -0.09600000083446503, -0.03200000151991844, 1.040000081062317, 0.0, 0.0, 0.0, 0.0, 0.0, 1.6214333938442008E9, 2021-05-19 16:09:53.844
63.0, -49.8435173034668, -37.557945251464844, -45.52580261230469, -40.016929626464844, -0.09600000083446503, -0.03200000151991844, 1.040000081062317, 0.0, 0.0, 0.0, 0.0, 0.0, 1.6214333938442008E9, 2021-05-19 16:09:53.844
64.0, -20.537660598754883, 1.1911581754684448, -17.446632385253906, -12.633381843566895, -0.09600000083446503, -0.03200000151991844, 1.040000081062317, 0.0, 0.0, 0.0, 0.0, 0.0, 1.6214333938563037E9, 2021-05-19 16:09:53.856
64.0, -18.200223922729492, -4.007302761077881, -14.477152824401855, -14.335036277770996, -0.09600000083446503, -0.03200000151991844, 1.040000081062317, 0.0, 0.0, 0.0, 0.0, 0.0, 1.6214333938563037E9, 2021-05-19 16:09:53.856
65.0, -42.84616470336914, -30.526933670043945, -34.97928237915039, -36.51638412475586, -0.09600000083446503, -0.03200000151991844, 1.040000081062317, 0.0, 0.0, 0.0, 0.0, 0.0, 1.621433393871935E9, 2021-05-19 16:09:53.871
65.0, -55.83857727050781, -39.57374954223633, -51.39370346069336, -49.04130935668945, -0.09600000083446503, -0.03200000151991844, 1.040000081062317, 0.0, 0.0, 0.0, 0.0, 0.0, 1.621433393871935E9, 2021-05-19 16:09:53.871
66.0, -23.798852920532227, -3.824047803878784, -25.954906463623047, -17.951519012451172, -0.09600000083446503, -0.03200000151991844, 1.040000081062317, 0.0, 0.0, 0.0, 0.0, 0.0, 1.621433393872635E9, 2021-05-19 16:09:53.872
66.0, -18.37599754333496, 2.8030550479888916, -20.535791397094727, -13.403800964355469, -0.09600000083446503, -0.03200000151991844, 1.040000081062317, 0.0, 0.0, 0.0, 0.0, 0.0, 1.621433393872635E9, 2021-05-19 16:09:53.872
67.0, -49.581722259521484, -24.737567901611328, -37.42144012451172, -35.551490783691406, -0.09600000083446503, -0.03200000151991844, 1.040000081062317, 0.0, 0.0, 0.0, 0.0, 0.0, 1.621433393902636E9, 2021-05-19 16:09:53.902
67.0, -58.662200927734375, -48.17177963256836, -47.97543716430664, -39.19415283203125, -0.09600000083446503, -0.03200000151991844, 1.040000081062317, 0.0, 0.0, 0.0, 0.0, 0.0, 1.621433393902636E9, 2021-05-19 16:09:53.902
68.0, -30.71392822265625, -1.4791303873062134, -22.678752899169922, -6.421408176422119, -0.09600000083446503, -0.03200000151991844, 1.040000081062317, 0.0, 0.0, 0.0, 0.0, 0.0, 1.621433393903329E9, 2021-05-19 16:09:53.903
68.0, -16.36393165588379, 7.062800884246826, -6.799138069152832, 12.704440116882324, -0.09600000083446503, -0.03200000151991844, 1.040000081062317, 0.0, 0.0, 0.0, 0.0, 0.0, 1.621433393903329E9, 2021-05-19 16:09:53.903
69.0, -62.08420944213867, -40.31051254272461, -41.692405700683594, -26.433612823486328, -0.09600000083446503, -0.03200000151991844, 1.040000081062317, 0.0, 0.0, 0.0, 0.0, 0.0, 1.6214333939040806E9, 2021-05-19 16:09:53.904
69.0, -64.27578735351562, -37.905757904052734, -45.944671630859375, -30.07253646850586, -0.09600000083446503, -0.03200000151991844, 1.040000081062317, 0.0, 0.0, 0.0, 0.0, 0.0, 1.6214333939040806E9, 2021-05-19 16:09:53.904
70.0, -26.936630249023438, 7.964117050170898, -18.366649627685547, 2.7824854850769043, -0.09600000083446503, -0.03200000151991844, 1.040000081062317, 0.0, 0.0, 0.0, 0.0, 0.0, 1.6214333939163456E9, 2021-05-19 16:09:53.916
70.0, -19.262353897094727, 13.173797607421875, -6.623363018035889, 6.387749195098877, -0.09600000083446503, -0.03200000151991844, 1.040000081062317, 0.0, 0.0, 0.0, 0.0, 0.0, 1.6214333939163456E9, 2021-05-19 16:09:53.916
71.0, -47.966087341308594, -31.712482452392578, -33.40852737426758, -31.699392318725586, -0.09600000083446503, -0.03200000151991844, 1.040000081062317, 0.0, 0.0, 0.0, 0.0, 0.0, 1.6214333939320424E9, 2021-05-19 16:09:53.932
71.0, -62.420799255371094, -41.63069534301758, -42.99388885498047, -43.173404693603516, -0.09600000083446503, -0.03200000151991844, 1.040000081062317, 0.0, 0.0, 0.0, 0.0, 0.0, 1.6214333939320424E9, 2021-05-19 16:09:53.932
72.0, -20.07391357421875, 1.6885647773742676, -10.568957328796387, -17.65606689453125, -0.09600000083446503, -0.03200000151991844, 1.040000081062317, 0.0, 0.0, 0.0, 0.0, 0.0, 1.6214333939326456E9, 2021-05-19 16:09:53.932
72.0, -17.732736587524414, 4.168118476867676, -0.01869950070977211, -19.174467086791992, -0.09600000083446503, -0.03200000151991844, 1.040000081062317, 0.0, 0.0, 0.0, 0.0, 0.0, 1.6214333939326456E9, 2021-05-19 16:09:53.932
73.0, -55.90963363647461, -37.82721710205078, -44.56464767456055, -50.529788970947266, -0.09600000083446503, -0.03200000151991844, 1.040000081062317, 0.0, 0.0, 0.0, 0.0, 0.0, 1.6214333939624424E9, 2021-05-19 16:09:53.962
73.0, -57.06526184082031, -33.00648880004883, -51.80509567260742, -53.06169891357422, -0.09600000083446503, -0.03200000151991844, 1.040000081062317, 0.0, 0.0, 0.0, 0.0, 0.0, 1.6214333939624424E9, 2021-05-19 16:09:53.962
74.0, -25.27985382080078, 7.092720031738281, -24.0849552154541, -22.07288932800293, -0.09600000083446503, -0.03200000151991844, 1.040000081062317, 0.0, 0.0, 0.0, 0.0, 0.0, 1.6214333939631777E9, 2021-05-19 16:09:53.963
74.0, -7.8556599617004395, 16.36393165588379, -6.56352424621582, -6.440107822418213, -0.09600000083446503, -0.03200000151991844, 1.040000081062317, 0.0, 0.0, 0.0, 0.0, 0.0, 1.6214333939631777E9, 2021-05-19 16:09:53.963
75.0, -48.197959899902344, -30.945802688598633, -38.55836868286133, -42.74705505371094, -0.09600000083446503, -0.03200000151991844, 1.040000081062317, 0.0, 0.0, 0.0, 0.0, 0.0, 1.621433393976993E9, 2021-05-19 16:09:53.976
75.0, -54.649288177490234, -37.464447021484375, -41.03792190551758, -41.10150146484375, -0.09600000083446503, -0.03200000151991844, 1.040000081062317, 0.0, 0.0, 0.0, 0.0, 0.0, 1.621433393976993E9, 2021-05-19 16:09:53.976
76.0, -30.53067398071289, 2.1261332035064697, -12.70818042755127, -6.522385597229004, -0.09600000083446503, -0.03200000151991844, 1.040000081062317, 0.0, 0.0, 0.0, 0.0, 0.0, 1.6214333939777281E9, 2021-05-19 16:09:53.977
76.0, -27.65468978881836, -1.5240092277526855, -17.02028465270996, -0.7105810046195984, -0.09600000083446503, -0.03200000151991844, 1.040000081062317, 0.0, 0.0, 0.0, 0.0, 0.0, 1.6214333939777281E9, 2021-05-19 16:09:53.977
77.0, -56.612735748291016, -32.14630889892578, -39.66164016723633, -20.726526260375977, -0.09600000083446503, -0.03200000151991844, 1.040000081062317, 0.0, 0.0, 0.0, 0.0, 0.0, 1.621433393992515E9, 2021-05-19 16:09:53.992
77.0, -77.36544036865234, -37.902015686035156, -52.89714431762695, -31.94996452331543, -0.09600000083446503, -0.03200000151991844, 1.040000081062317, 0.0, 0.0, 0.0, 0.0, 0.0, 1.621433393992515E9, 2021-05-19 16:09:53.992
78.0, -42.16550064086914, -2.081254243850708, -24.634721755981445, -4.5028395652771, -0.09600000083446503, -0.03200000151991844, 1.040000081062317, 0.0, 0.0, 0.0, 0.0, 0.0, 1.6214333940069427E9, 2021-05-19 16:09:54.006
78.0, -36.032066345214844, 5.320007801055908, -5.449034214019775, 8.452174186706543, -0.09600000083446503, -0.03200000151991844, 1.040000081062317, 0.0, 0.0, 0.0, 0.0, 0.0, 1.6214333940069427E9, 2021-05-19 16:09:54.006
79.0, -61.91591262817383, -22.699323654174805, -31.30670166015625, -22.74981117248535, -0.09600000083446503, -0.03200000151991844, 1.040000081062317, 0.0, 0.0, 0.0, 0.0, 0.0, 1.6214333940077226E9, 2021-05-19 16:09:54.007
79.0, -66.96477508544922, -28.656984329223633, -45.60808181762695, -34.201385498046875, -0.09600000083446503, -0.03200000151991844, 1.040000081062317, 0.0, 0.0, 0.0, 0.0, 0.0, 1.6214333940077226E9, 2021-05-19 16:09:54.007
80.0, -39.323177337646484, 4.72162389755249, -15.341069221496582, -12.902654647827148, -0.09600000083446503, -0.03200000151991844, 1.055999994277954, 0.0, 0.0, 0.0, 0.0, 0.0, 1.6214333940219617E9, 2021-05-19 16:09:54.021
80.0, -26.203609466552734, 16.17319679260254, -9.095437049865723, -5.886602401733398, -0.09600000083446503, -0.03200000151991844, 1.055999994277954, 0.0, 0.0, 0.0, 0.0, 0.0, 1.6214333940219617E9, 2021-05-19 16:09:54.021
81.0, -56.979244232177734, -19.449350357055664, -38.449913024902344, -39.018375396728516, -0.09600000083446503, -0.03200000151991844, 1.055999994277954, 0.0, 0.0, 0.0, 0.0, 0.0, 1.621433394022664E9, 2021-05-19 16:09:54.022
81.0, -67.94837188720703, -33.90032196044922, -54.94660949707031, -50.49238967895508, -0.09600000083446503, -0.03200000151991844, 1.055999994277954, 0.0, 0.0, 0.0, 0.0, 0.0, 1.621433394022664E9, 2021-05-19 16:09:54.022
82.0, -20.676036834716797, 8.05761432647705, -18.849096298217773, -8.54193115234375, -0.09600000083446503, -0.03200000151991844, 1.055999994277954, 0.0, 0.0, 0.0, 0.0, 0.0, 1.621433394036256E9, 2021-05-19 16:09:54.036
82.0, -13.573966979980469, 2.0401153564453125, -16.01051139831543, -7.524678707122803, -0.09600000083446503, -0.03200000151991844, 1.055999994277954, 0.0, 0.0, 0.0, 0.0, 0.0, 1.621433394036256E9, 2021-05-19 16:09:54.036
83.0, -40.58726501464844, -25.003101348876953, -38.199337005615234, -31.359060287475586, -0.09600000083446503, -0.03200000151991844, 1.055999994277954, 0.0, 0.0, 0.0, 0.0, 0.0, 1.6214333940523508E9, 2021-05-19 16:09:54.052
83.0, -56.88200759887695, -35.325225830078125, -52.36233901977539, -45.8586540222168, -0.09600000083446503, -0.03200000151991844, 1.055999994277954, 0.0, 0.0, 0.0, 0.0, 0.0, 1.6214333940523508E9, 2021-05-19 16:09:54.052
84.0, -23.974628448486328, 4.616906642913818, -21.624101638793945, -16.283523559570312, -0.09600000083446503, -0.03200000151991844, 1.055999994277954, 0.0, 0.0, 0.0, 0.0, 0.0, 1.621433394067062E9, 2021-05-19 16:09:54.067
84.0, -15.754328727722168, 6.109126567840576, -11.892881393432617, -10.000492095947266, -0.09600000083446503, -0.03200000151991844, 1.055999994277954, 0.0, 0.0, 0.0, 0.0, 0.0, 1.621433394067062E9, 2021-05-19 16:09:54.067
85.0, -50.15018844604492, -29.947248458862305, -47.272335052490234, -38.341453552246094, -0.09600000083446503, -0.03200000151991844, 1.055999994277954, 0.0, 0.0, 0.0, 0.0, 0.0, 1.6214333940676641E9, 2021-05-19 16:09:54.067
85.0, -59.85149002075195, -34.68196105957031, -63.20804977416992, -47.567787170410156, -0.09600000083446503, -0.03200000151991844, 1.055999994277954, 0.0, 0.0, 0.0, 0.0, 0.0, 1.6214333940676641E9, 2021-05-19 16:09:54.067
86.0, -37.31485366821289, 3.6669719219207764, -40.779869079589844, -9.095437049865723, -0.09600000083446503, -0.03200000151991844, 1.055999994277954, 0.0, 0.0, 0.0, 0.0, 0.0, 1.6214333940820456E9, 2021-05-19 16:09:54.082
86.0, -25.264894485473633, 10.92985725402832, -24.705780029296875, 4.719753742218018, -0.09600000083446503, -0.03200000151991844, 1.055999994277954, 0.0, 0.0, 0.0, 0.0, 0.0, 1.6214333940820456E9, 2021-05-19 16:09:54.082
87.0, -60.090843200683594, -32.28094482421875, -52.526893615722656, -26.740283966064453, -0.09600000083446503, -0.03200000151991844, 1.055999994277954, 0.0, 0.0, 0.0, 0.0, 0.0, 1.62143339408281E9, 2021-05-19 16:09:54.082
87.0, -55.39726638793945, -32.703556060791016, -47.60144805908203, -24.68708038330078, -0.09600000083446503, -0.03200000151991844, 1.055999994277954, 0.0, 0.0, 0.0, 0.0, 0.0, 1.62143339408281E9, 2021-05-19 16:09:54.082
88.0, -31.49930763244629, -6.483116626739502, -30.700838088989258, -2.7301268577575684, -0.09600000083446503, -0.03200000151991844, 1.055999994277954, 0.0, 0.0, 0.0, 0.0, 0.0, 1.6214333940963564E9, 2021-05-19 16:09:54.096
88.0, -25.926856994628906, 0.5516352653503418, -20.711565017700195, 6.260592460632324, -0.09600000083446503, -0.03200000151991844, 1.055999994277954, 0.0, 0.0, 0.0, 0.0, 0.0, 1.6214333940963564E9, 2021-05-19 16:09:54.096
89.0, -48.44853210449219, -26.5738582611084, -47.54534912109375, -24.477645874023438, -0.09600000083446503, -0.03200000151991844, 1.055999994277954, 0.0, 0.0, 0.0, 0.0, 0.0, 1.6214333941127682E9, 2021-05-19 16:09:54.112
89.0, -62.42454147338867, -43.13413619995117, -56.109718322753906, -43.57357406616211, -0.09600000083446503, -0.03200000151991844, 1.055999994277954, 0.0, 0.0, 0.0, 0.0, 0.0, 1.6214333941127682E9, 2021-05-19 16:09:54.112
90.0, -13.484209060668945, 3.1546056270599365, -15.584162712097168, -0.06731820106506348, -0.09600000083446503, -0.03200000151991844, 1.040000081062317, 0.0, 0.0, 0.0, 0.0, 0.0, 1.621433394113522E9, 2021-05-19 16:09:54.113
90.0, -18.64527130126953, 4.033482074737549, -9.850896835327148, -5.576190948486328, -0.09600000083446503, -0.03200000151991844, 1.040000081062317, 0.0, 0.0, 0.0, 0.0, 0.0, 1.621433394113522E9, 2021-05-19 16:09:54.113
91.0, -41.1519889831543, -26.222309112548828, -29.653667449951172, -30.592382431030273, -0.09600000083446503, -0.03200000151991844, 1.040000081062317, 0.0, 0.0, 0.0, 0.0, 0.0, 1.6214333941264496E9, 2021-05-19 16:09:54.126
91.0, -58.953914642333984, -48.50837326049805, -54.23603057861328, -52.32868194580078, -0.09600000083446503, -0.03200000151991844, 1.040000081062317, 0.0, 0.0, 0.0, 0.0, 0.0, 1.6214333941264496E9, 2021-05-19 16:09:54.126
92.0, -19.871957778930664, 3.165825366973877, -19.107149124145508, -14.125601768493652, -0.1120000034570694, -0.03200000151991844, 1.040000081062317, 0.0, 0.0, 0.0, 0.0, 0.0, 1.6214333941420472E9, 2021-05-19 16:09:54.142
92.0, -18.050626754760742, 1.5464485883712769, -25.517337799072266, -14.619269371032715, -0.1120000034570694, -0.03200000151991844, 1.040000081062317, 0.0, 0.0, 0.0, 0.0, 0.0, 1.6214333941420472E9, 2021-05-19 16:09:54.142
93.0, -51.88924026489258, -29.191789627075195, -49.01512908935547, -31.467517852783203, -0.1120000034570694, -0.03200000151991844, 1.040000081062317, 0.0, 0.0, 0.0, 0.0, 0.0, 1.621433394142792E9, 2021-05-19 16:09:54.142
93.0, -57.517791748046875, -30.61669158935547, -50.35401153564453, -33.3748664855957, -0.1120000034570694, -0.03200000151991844, 1.040000081062317, 0.0, 0.0, 0.0, 0.0, 0.0, 1.621433394142792E9, 2021-05-19 16:09:54.142
94.0, -24.299999237060547, -1.7671027183532715, -26.097021102905273, 2.5917506217956543, -0.1120000034570694, -0.03200000151991844, 1.040000081062317, 0.0, 0.0, 0.0, 0.0, 0.0, 1.6214333941726303E9, 2021-05-19 16:09:54.172
94.0, -26.300846099853516, 0.5441554188728333, -25.524816513061523, 3.564124584197998, -0.1120000034570694, -0.03200000151991844, 1.040000081062317, 0.0, 0.0, 0.0, 0.0, 0.0, 1.6214333941726303E9, 2021-05-19 16:09:54.172
95.0, -50.85702896118164, -36.72394943237305, -44.16073989868164, -25.33782196044922, -0.1120000034570694, -0.03200000151991844, 1.040000081062317, 0.0, 0.0, 0.0, 0.0, 0.0, 1.6214333941733327E9, 2021-05-19 16:09:54.173
95.0, -66.06346130371094, -51.76582336425781, -58.675289154052734, -41.804603576660156, -0.1120000034570694, -0.03200000151991844, 1.040000081062317, 0.0, 0.0, 0.0, 0.0, 0.0, 1.6214333941733327E9, 2021-05-19 16:09:54.173
96.0, -23.26030731201172, -2.847933769226074, -19.054790496826172, 0.7068411111831665, -0.1120000034570694, -0.03200000151991844, 1.040000081062317, 0.0, 0.0, 0.0, 0.0, 0.0, 1.6214333941740906E9, 2021-05-19 16:09:54.174
96.0, -24.62911033630371, -0.9031858444213867, -14.35373592376709, 5.729526519775391, -0.1120000034570694, -0.03200000151991844, 1.040000081062317, 0.0, 0.0, 0.0, 0.0, 0.0, 1.6214333941740906E9, 2021-05-19 16:09:54.174
97.0, -48.18300247192383, -26.3270263671875, -34.89700698852539, -23.26591682434082, -0.1120000034570694, -0.03200000151991844, 1.040000081062317, 0.0, 0.0, 0.0, 0.0, 0.0, 1.6214333941862483E9, 2021-05-19 16:09:54.186
97.0, -63.73350524902344, -44.573997497558594, -48.715938568115234, -39.972049713134766, -0.1120000034570694, -0.03200000151991844, 1.040000081062317, 0.0, 0.0, 0.0, 0.0, 0.0, 1.6214333941862483E9, 2021-05-19 16:09:54.186
98.0, -27.045085906982422, -1.5988072156906128, -12.30427074432373, -8.766325950622559, -0.1120000034570694, -0.03200000151991844, 1.040000081062317, 0.0, 0.0, 0.0, 0.0, 0.0, 1.6214333942019715E9, 2021-05-19 16:09:54.201
98.0, -9.000069618225098, 8.985109329223633, 5.284478664398193, 4.454220771789551, -0.1120000034570694, -0.03200000151991844, 1.040000081062317, 0.0, 0.0, 0.0, 0.0, 0.0, 1.6214333942019715E9, 2021-05-19 16:09:54.201
99.0, -43.08551788330078, -32.0191535949707, -27.581762313842773, -28.591535568237305, -0.1120000034570694, -0.03200000151991844, 1.040000081062317, 0.0, 0.0, 0.0, 0.0, 0.0, 1.6214333942026787E9, 2021-05-19 16:09:54.202
99.0, -60.84256362915039, -48.44853210449219, -38.69674301147461, -42.63486099243164, -0.1120000034570694, -0.03200000151991844, 1.040000081062317, 0.0, 0.0, 0.0, 0.0, 0.0, 1.6214333942026787E9, 2021-05-19 16:09:54.202
100.0, -33.48145294189453, -10.843839645385742, -19.623254776000977, -10.819530487060547, -0.1120000034570694, -0.03200000151991844, 1.055999994277954, 0.0, 0.0, 0.0, 0.0, 0.0, 1.621433394216958E9, 2021-05-19 16:09:54.216
100.0, -24.472034454345703, -3.0498883724212646, -19.630735397338867, -4.955367565155029, -0.1120000034570694, -0.03200000151991844, 1.055999994277954, 0.0, 0.0, 0.0, 0.0, 0.0, 1.621433394216958E9, 2021-05-19 16:09:54.216
0.0, -62.99674606323242, -40.564823150634766, -53.837730407714844, -32.1893196105957, -0.1120000034570694, -0.03200000151991844, 1.055999994277954, 0.0, 0.0, 0.0, 0.0, 0.0, 1.6214333942176604E9, 2021-05-19 16:09:54.217
1.0, -65.4314193725586, -40.39278793334961, -68.49440002441406, -33.008358001708984, -0.1120000034570694, -0.03200000151991844, 1.055999994277954, 0.0, 0.0, 0.0, 0.0, 0.0, 1.621433394246718E9, 2021-05-19 16:09:54.246
1.0, -20.40676498413086, 8.607379913330078, -37.54672622680664, 7.715413570404053, -0.1120000034570694, -0.03200000151991844, 1.055999994277954, 0.0, 0.0, 0.0, 0.0, 0.0, 1.621433394246718E9, 2021-05-19 16:09:54.246
2.0, -18.52559471130371, 1.8942593336105347, -31.824678421020508, 13.314043998718262, -0.1120000034570694, -0.03200000151991844, 1.055999994277954, 0.0, 0.0, 0.0, 0.0, 0.0, 1.6214333942625709E9, 2021-05-19 16:09:54.262
2.0, -48.601871490478516, -26.20734977722168, -56.84086990356445, -14.967079162597656, -0.1120000034570694, -0.03200000151991844, 1.055999994277954, 0.0, 0.0, 0.0, 0.0, 0.0, 1.6214333942625709E9, 2021-05-19 16:09:54.262
3.0, -57.858123779296875, -47.580875396728516, -70.71589660644531, -22.046710968017578, -0.1120000034570694, -0.03200000151991844, 1.055999994277954, 0.0, 0.0, 0.0, 0.0, 0.0, 1.6214333942783396E9, 2021-05-19 16:09:54.278
3.0, -23.611858367919922, -5.9296112060546875, -41.79151153564453, 9.910735130310059, -0.1120000034570694, -0.03200000151991844, 1.055999994277954, 0.0, 0.0, 0.0, 0.0, 0.0, 1.6214333942783396E9, 2021-05-19 16:09:54.278
4.0, -7.548987865447998, -2.5524816513061523, -27.935182571411133, 17.229719161987305, -0.1120000034570694, -0.03200000151991844, 1.055999994277954, 0.0, 0.0, 0.0, 0.0, 0.0, 1.6214333942791064E9, 2021-05-19 16:09:54.279
4.0, -45.39677429199219, -47.37144088745117, -53.538536071777344, -25.090988159179688, -0.1120000034570694, -0.03200000151991844, 1.055999994277954, 0.0, 0.0, 0.0, 0.0, 0.0, 1.6214333942791064E9, 2021-05-19 16:09:54.279
5.0, -43.37348937988281, -43.900814056396484, -50.25116729736328, -19.944887161254883, -0.1120000034570694, -0.03200000151991844, 1.055999994277954, 0.0, 0.0, 0.0, 0.0, 0.0, 1.6214333942798493E9, 2021-05-19 16:09:54.279
5.0, -17.901031494140625, -15.885225296020508, -23.574459075927734, 1.2453867197036743, -0.1120000034570694, -0.03200000151991844, 1.055999994277954, 0.0, 0.0, 0.0, 0.0, 0.0, 1.6214333942798493E9, 2021-05-19 16:09:54.279
6.0, -17.665416717529297, -11.105632781982422, -17.485902786254883, 2.1541824340820312, -0.1120000034570694, -0.03200000151991844, 1.055999994277954, 0.0, 0.0, 0.0, 0.0, 0.0, 1.6214333942805786E9, 2021-05-19 16:09:54.280
6.0, -38.5228385925293, -35.523441314697266, -34.00878143310547, -23.426733016967773, -0.1120000034570694, -0.03200000151991844, 1.055999994277954, 0.0, 0.0, 0.0, 0.0, 0.0, 1.6214333942805786E9, 2021-05-19 16:09:54.280
7.0, -50.28856658935547, -45.86052322387695, -49.873435974121094, -38.09836196899414, -0.1120000034570694, -0.03200000151991844, 1.055999994277954, 0.0, 0.0, 0.0, 0.0, 0.0, 1.6214333942913208E9, 2021-05-19 16:09:54.291
7.0, -5.637899398803711, 0.8919661641120911, -17.553220748901367, -0.373989999294281, -0.1120000034570694, -0.03200000151991844, 1.055999994277954, 0.0, 0.0, 0.0, 0.0, 0.0, 1.6214333942913208E9, 2021-05-19 16:09:54.291
8.0, -8.012735366821289, -3.0947673320770264, -10.443670272827148, -4.7982916831970215, -0.1120000034570694, -0.03200000151991844, 1.055999994277954, 0.0, 0.0, 0.0, 0.0, 0.0, 1.6214333943071978E9, 2021-05-19 16:09:54.307
8.0, -42.03086471557617, -52.76811981201172, -39.10626220703125, -40.90702438354492, -0.1120000034570694, -0.03200000151991844, 1.055999994277954, 0.0, 0.0, 0.0, 0.0, 0.0, 1.6214333943071978E9, 2021-05-19 16:09:54.307
9.0, -56.2686653137207, -51.257198333740234, -43.26129150390625, -50.17823791503906, -0.1120000034570694, -0.03200000151991844, 1.055999994277954, 0.0, 0.0, 0.0, 0.0, 0.0, 1.621433394322024E9, 2021-05-19 16:09:54.322
9.0, -28.907556533813477, -10.888718605041504, -22.138338088989258, -19.555936813354492, -0.1120000034570694, -0.03200000151991844, 1.055999994277954, 0.0, 0.0, 0.0, 0.0, 0.0, 1.621433394322024E9, 2021-05-19 16:09:54.322
10.0, -19.37455177307129, 7.320854187011719, -10.664324760437012, 1.6979146003723145, -0.1120000034570694, -0.03200000151991844, 1.055999994277954, 0.0, 0.0, 0.0, 0.0, 0.0, 1.6214333943227556E9, 2021-05-19 16:09:54.322
10.0, -56.272403717041016, -27.938922882080078, -47.1956672668457, -27.66029930114746, -0.1120000034570694, -0.03200000151991844, 1.055999994277954, 0.0, 0.0, 0.0, 0.0, 0.0, 1.6214333943227556E9, 2021-05-19 16:09:54.322
11.0, -66.18313598632812, -41.89997100830078, -64.7133560180664, -29.006664276123047, -0.1120000034570694, -0.03200000151991844, 1.055999994277954, 0.0, 0.0, 0.0, 0.0, 0.0, 1.6214333943370705E9, 2021-05-19 16:09:54.337
11.0, -33.68714904785156, -1.112620234489441, -30.47457504272461, 4.951627731323242, -0.1120000034570694, -0.03200000151991844, 1.055999994277954, 0.0, 0.0, 0.0, 0.0, 0.0, 1.6214333943370705E9, 2021-05-19 16:09:54.337
12.0, -23.30892562866211, 1.8942593336105347, -20.354406356811523, 14.047063827514648, -0.09600000083446503, -0.03200000151991844, 1.055999994277954, 0.0, 0.0, 0.0, 0.0, 0.0, 1.62143339433763E9, 2021-05-19 16:09:54.337
12.0, -53.08600997924805, -36.619232177734375, -40.88645553588867, -13.164447784423828, -0.09600000083446503, -0.03200000151991844, 1.055999994277954, 0.0, 0.0, 0.0, 0.0, 0.0, 1.62143339433763E9, 2021-05-19 16:09:54.337
13.0, -58.374229431152344, -49.57050323486328, -46.51874542236328, -19.421300888061523, -0.09600000083446503, -0.03200000151991844, 1.055999994277954, 0.0, 0.0, 0.0, 0.0, 0.0, 1.621433394351338E9, 2021-05-19 16:09:54.351
13.0, -25.878238677978516, -16.161977767944336, -24.98440170288086, 4.076490879058838, -0.09600000083446503, -0.03200000151991844, 1.055999994277954, 0.0, 0.0, 0.0, 0.0, 0.0, 1.621433394351338E9, 2021-05-19 16:09:54.351
14.0, -11.401084899902344, -4.931057929992676, -14.83431339263916, 8.878522872924805, -0.09600000083446503, -0.03200000151991844, 1.055999994277954, 0.0, 0.0, 0.0, 0.0, 0.0, 1.6214333943835075E9, 2021-05-19 16:09:54.383
14.0, -53.03364944458008, -54.53335189819336, -53.886348724365234, -27.06191635131836, -0.09600000083446503, -0.03200000151991844, 1.055999994277954, 0.0, 0.0, 0.0, 0.0, 0.0, 1.6214333943835075E9, 2021-05-19 16:09:54.383
15.0, -51.52647018432617, -49.65278244018555, -47.913726806640625, -29.73968505859375, -0.09600000083446503, -0.03200000151991844, 1.055999994277954, 0.0, 0.0, 0.0, 0.0, 0.0, 1.621433394384055E9, 2021-05-19 16:09:54.384
15.0, -21.278160095214844, -17.886072158813477, -24.479515075683594, -2.9470412731170654, -0.09600000083446503, -0.03200000151991844, 1.055999994277954, 0.0, 0.0, 0.0, 0.0, 0.0, 1.621433394384055E9, 2021-05-19 16:09:54.384
16.0, -8.326887130737305, 2.4440245628356934, -7.0403618812561035, 2.688987970352173, -0.09600000083446503, -0.03200000151991844, 1.055999994277954, 0.0, 0.0, 0.0, 0.0, 0.0, 1.6214333943848178E9, 2021-05-19 16:09:54.384
16.0, -42.63298797607422, -41.31280517578125, -32.265987396240234, -30.180992126464844, -0.09600000083446503, -0.03200000151991844, 1.055999994277954, 0.0, 0.0, 0.0, 0.0, 0.0, 1.6214333943848178E9, 2021-05-19 16:09:54.384
17.0, -54.09952163696289, -43.98683166503906, -43.40715026855469, -36.35930633544922, -0.09600000083446503, -0.03200000151991844, 1.055999994277954, 0.0, 0.0, 0.0, 0.0, 0.0, 1.6214333943855438E9, 2021-05-19 16:09:54.385
17.0, -18.043148040771484, -11.25148868560791, -10.656845092773438, -8.822423934936523, -0.09600000083446503, -0.03200000151991844, 1.055999994277954, 0.0, 0.0, 0.0, 0.0, 0.0, 1.6214333943855438E9, 2021-05-19 16:09:54.385
18.0, -6.688811302185059, -0.8583070635795593, -2.844193935394287, 0.6021239161491394, -0.09600000083446503, -0.03200000151991844, 1.055999994277954, 0.0, 0.0, 0.0, 0.0, 0.0, 1.6214333943962913E9, 2021-05-19 16:09:54.396
18.0, -43.46698760986328, -40.29555130004883, -30.747587203979492, -25.842708587646484, -0.09600000083446503, -0.03200000151991844, 1.055999994277954, 0.0, 0.0, 0.0, 0.0, 0.0, 1.6214333943962913E9, 2021-05-19 16:09:54.396
19.0, -64.2271728515625, -50.98418426513672, -50.36336135864258, -38.64812469482422, -0.09600000083446503, -0.03200000151991844, 1.055999994277954, 0.0, 0.0, 0.0, 0.0, 0.0, 1.621433394428419E9, 2021-05-19 16:09:54.428
19.0, -24.737567901611328, -7.391912460327148, -15.65709114074707, -3.9007155895233154, -0.09600000083446503, -0.03200000151991844, 1.055999994277954, 0.0, 0.0, 0.0, 0.0, 0.0, 1.621433394428419E9, 2021-05-19 16:09:54.428
20.0, -15.993681907653809, -2.814274787902832, -8.693397521972656, -0.0822777971625328, -0.09600000083446503, -0.03200000151991844, 1.055999994277954, 0.0, 0.0, 0.0, 0.0, 0.0, 1.6214333944291227E9, 2021-05-19 16:09:54.429
20.0, -49.61538314819336, -38.25730514526367, -38.39568328857422, -24.208372116088867, -0.09600000083446503, -0.03200000151991844, 1.055999994277954, 0.0, 0.0, 0.0, 0.0, 0.0, 1.6214333944291227E9, 2021-05-19 16:09:54.429
21.0, -59.384002685546875, -43.70634078979492, -47.36770248413086, -34.377159118652344, -0.09600000083446503, -0.03200000151991844, 1.055999994277954, 0.0, 0.0, 0.0, 0.0, 0.0, 1.6214333944298756E9, 2021-05-19 16:09:54.429
21.0, -24.191543579101562, -13.1663179397583, -22.19817543029785, -1.6380761861801147, -0.09600000083446503, -0.03200000151991844, 1.055999994277954, 0.0, 0.0, 0.0, 0.0, 0.0, 1.6214333944298756E9, 2021-05-19 16:09:54.429
22.0, -20.2646484375, -1.3145748376846313, -12.743709564208984, 3.4182684421539307, -0.09600000083446503, -0.03200000151991844, 1.055999994277954, 0.0, 0.0, 0.0, 0.0, 0.0, 1.6214333944412448E9, 2021-05-19 16:09:54.441
22.0, -57.92169952392578, -42.03460693359375, -43.60162353515625, -31.942485809326172, -0.09600000083446503, -0.03200000151991844, 1.055999994277954, 0.0, 0.0, 0.0, 0.0, 0.0, 1.6214333944412448E9, 2021-05-19 16:09:54.441
23.0, -54.13692092895508, -34.15089797973633, -43.02193832397461, -26.235397338867188, -0.09600000083446503, -0.03200000151991844, 1.055999994277954, 0.0, 0.0, 0.0, 0.0, 0.0, 1.6214333944570432E9, 2021-05-19 16:09:54.457
23.0, -24.400978088378906, -4.575767517089844, -20.17115020751953, -5.583670616149902, -0.09600000083446503, -0.03200000151991844, 1.055999994277954, 0.0, 0.0, 0.0, 0.0, 0.0, 1.6214333944570432E9, 2021-05-19 16:09:54.457
24.0, -25.792219161987305, -0.9031858444213867, -13.30095386505127, -0.8414775133132935, -0.09600000083446503, -0.03200000151991844, 1.055999994277954, 0.0, 0.0, 0.0, 0.0, 0.0, 1.6214333944577458E9, 2021-05-19 16:09:54.457
24.0, -52.64470291137695, -47.640716552734375, -39.255859375, -31.463777542114258, -0.09600000083446503, -0.03200000151991844, 1.055999994277954, 0.0, 0.0, 0.0, 0.0, 0.0, 1.6214333944577458E9, 2021-05-19 16:09:54.457
25.0, -54.466033935546875, -36.428497314453125, -43.956912994384766, -31.460039138793945, -0.09600000083446503, -0.03200000151991844, 1.055999994277954, 0.0, 0.0, 0.0, 0.0, 0.0, 1.6214333945191307E9, 2021-05-19 16:09:54.519
25.0, -27.83046531677246, -9.377799034118652, -23.899829864501953, -14.263978004455566, -0.09600000083446503, -0.03200000151991844, 1.055999994277954, 0.0, 0.0, 0.0, 0.0, 0.0, 1.6214333945191307E9, 2021-05-19 16:09:54.519
26.0, -19.21747589111328, -5.267649173736572, -11.730195999145508, -4.155028820037842, -0.09600000083446503, -0.03200000151991844, 1.055999994277954, 0.0, 0.0, 0.0, 0.0, 0.0, 1.621433394519718E9, 2021-05-19 16:09:54.519
26.0, -43.37348937988281, -37.29241180419922, -32.35200500488281, -34.724971771240234, -0.09600000083446503, -0.03200000151991844, 1.055999994277954, 0.0, 0.0, 0.0, 0.0, 0.0, 1.621433394519718E9, 2021-05-19 16:09:54.519
27.0, -55.39352798461914, -36.19662094116211, -42.74144744873047, -44.06724166870117, -0.09600000083446503, -0.03200000151991844, 1.055999994277954, 0.0, 0.0, 0.0, 0.0, 0.0, 1.6214333945205033E9, 2021-05-19 16:09:54.520
27.0, -28.350311279296875, -0.5179761648178101, -16.947357177734375, -12.524925231933594, -0.09600000083446503, -0.03200000151991844, 1.055999994277954, 0.0, 0.0, 0.0, 0.0, 0.0, 1.6214333945205033E9, 2021-05-19 16:09:54.520
28.0, -23.821292877197266, -3.307941436767578, -14.06015396118164, -3.911935329437256, -0.09600000083446503, -0.03200000151991844, 1.055999994277954, 0.0, 0.0, 0.0, 0.0, 0.0, 1.621433394521224E9, 2021-05-19 16:09:54.521
28.0, -60.60694885253906, -36.626708984375, -47.85015106201172, -38.37885284423828, -0.09600000083446503, -0.03200000151991844, 1.055999994277954, 0.0, 0.0, 0.0, 0.0, 0.0, 1.621433394521224E9, 2021-05-19 16:09:54.521
29.0, -66.16443634033203, -42.681610107421875, -55.44588851928711, -42.545101165771484, -0.09600000083446503, -0.03200000151991844, 1.055999994277954, 0.0, 0.0, 0.0, 0.0, 0.0, 1.6214333945490885E9, 2021-05-19 16:09:54.549
29.0, -39.338138580322266, -11.150511741638184, -29.135690689086914, -13.246726036071777, -0.09600000083446503, -0.03200000151991844, 1.055999994277954, 0.0, 0.0, 0.0, 0.0, 0.0, 1.6214333945490885E9, 2021-05-19 16:09:54.549
30.0, -21.90272331237793, 0.12902654707431793, -10.10707950592041, 1.7053943872451782, -0.09600000083446503, -0.03200000151991844, 1.040000081062317, 0.0, 0.0, 0.0, 0.0, 0.0, 1.6214333945497887E9, 2021-05-19 16:09:54.549
30.0, -57.62250900268555, -39.345619201660156, -32.65119552612305, -26.239137649536133, -0.09600000083446503, -0.03200000151991844, 1.040000081062317, 0.0, 0.0, 0.0, 0.0, 0.0, 1.6214333945497887E9, 2021-05-19 16:09:54.549
31.0, -60.31897735595703, -45.624908447265625, -44.155128479003906, -30.700838088989258, -0.09600000083446503, -0.03200000151991844, 1.040000081062317, 0.0, 0.0, 0.0, 0.0, 0.0, 1.62143339455057E9, 2021-05-19 16:09:54.550
31.0, -24.84228515625, -11.008395195007324, -17.878591537475586, -8.414774894714355, -0.09600000083446503, -0.03200000151991844, 1.040000081062317, 0.0, 0.0, 0.0, 0.0, 0.0, 1.62143339455057E9, 2021-05-19 16:09:54.550
32.0, -16.693042755126953, 2.294428586959839, -11.625478744506836, -2.0831241607666016, -0.09600000083446503, -0.03200000151991844, 1.040000081062317, 0.0, 0.0, 0.0, 0.0, 0.0, 1.621433394551282E9, 2021-05-19 16:09:54.551
32.0, -51.739646911621094, -32.7708740234375, -44.678714752197266, -34.41830062866211, -0.09600000083446503, -0.03200000151991844, 1.040000081062317, 0.0, 0.0, 0.0, 0.0, 0.0, 1.621433394551282E9, 2021-05-19 16:09:54.551
33.0, -67.24153137207031, -48.03340530395508, -54.32765579223633, -47.88193893432617, -0.09600000083446503, -0.03200000151991844, 1.040000081062317, 0.0, 0.0, 0.0, 0.0, 0.0, 1.6214333945619676E9, 2021-05-19 16:09:54.561
33.0, -29.135690689086914, -5.540661811828613, -14.725855827331543, -14.503332138061523, -0.09600000083446503, -0.03200000151991844, 1.040000081062317, 0.0, 0.0, 0.0, 0.0, 0.0, 1.6214333945619676E9, 2021-05-19 16:09:54.561
34.0, -16.55466651916504, -5.940831184387207, 1.348233938217163, -11.215959548950195, -0.09600000083446503, -0.03200000151991844, 1.040000081062317, 0.0, 0.0, 0.0, 0.0, 0.0, 1.6214333945626273E9, 2021-05-19 16:09:54.562
34.0, -41.36890411376953, -37.382171630859375, -21.869064331054688, -37.163387298583984, -0.09600000083446503, -0.03200000151991844, 1.040000081062317, 0.0, 0.0, 0.0, 0.0, 0.0, 1.6214333945626273E9, 2021-05-19 16:09:54.562
35.0, -56.77355194091797, -44.573997497558594, -33.72828674316406, -39.48960494995117, -0.09600000083446503, -0.03200000151991844, 1.040000081062317, 0.0, 0.0, 0.0, 0.0, 0.0, 1.6214333945770516E9, 2021-05-19 16:09:54.577
35.0, -22.26923370361328, -9.08234691619873, -11.991989135742188, -4.686094760894775, -0.09600000083446503, -0.03200000151991844, 1.040000081062317, 0.0, 0.0, 0.0, 0.0, 0.0, 1.6214333945770516E9, 2021-05-19 16:09:54.577
36.0, -18.439577102661133, -10.080900192260742, -10.092120170593262, -7.348903179168701, -0.09600000083446503, -0.03200000151991844, 1.040000081062317, 0.0, 0.0, 0.0, 0.0, 0.0, 1.6214333945777345E9, 2021-05-19 16:09:54.577
36.0, -53.28422546386719, -39.51017379760742, -43.85593795776367, -28.973005294799805, -0.09600000083446503, -0.03200000151991844, 1.040000081062317, 0.0, 0.0, 0.0, 0.0, 0.0, 1.6214333945777345E9, 2021-05-19 16:09:54.577
37.0, -55.24767303466797, -39.25960159301758, -44.31594467163086, -29.672367095947266, -0.09600000083446503, -0.03200000151991844, 1.040000081062317, 0.0, 0.0, 0.0, 0.0, 0.0, 1.6214333946073787E9, 2021-05-19 16:09:54.607
37.0, -25.833358764648438, -1.8194613456726074, -18.671449661254883, -8.680307388305664, -0.09600000083446503, -0.03200000151991844, 1.040000081062317, 0.0, 0.0, 0.0, 0.0, 0.0, 1.6214333946073787E9, 2021-05-19 16:09:54.607
38.0, -15.309280395507812, -3.408918857574463, -7.851920127868652, -9.177714347839355, -0.09600000083446503, -0.03200000151991844, 1.040000081062317, 0.0, 0.0, 0.0, 0.0, 0.0, 1.6214333946080973E9, 2021-05-19 16:09:54.608
38.0, -48.91228103637695, -41.24922561645508, -33.71706771850586, -37.75054931640625, -0.09600000083446503, -0.03200000151991844, 1.040000081062317, 0.0, 0.0, 0.0, 0.0, 0.0, 1.6214333946080973E9, 2021-05-19 16:09:54.608
39.0, -53.186988830566406, -42.63298797607422, -39.30447769165039, -41.38199234008789, -0.09600000083446503, -0.03200000151991844, 1.040000081062317, 0.0, 0.0, 0.0, 0.0, 0.0, 1.6214333946220727E9, 2021-05-19 16:09:54.622
39.0, -23.473482131958008, -0.8732666373252869, -17.84867286682129, -7.969727039337158, -0.09600000083446503, -0.03200000151991844, 1.040000081062317, 0.0, 0.0, 0.0, 0.0, 0.0, 1.6214333946220727E9, 2021-05-19 16:09:54.622
40.0, -14.695937156677246, 4.299015045166016, -7.698584079742432, 2.1878414154052734, -0.09600000083446503, -0.03200000151991844, 1.055999994277954, 0.0, 0.0, 0.0, 0.0, 0.0, 1.6214333946227007E9, 2021-05-19 16:09:54.622
40.0, -49.065616607666016, -34.427650451660156, -38.01047134399414, -27.376068115234375, -0.09600000083446503, -0.03200000151991844, 1.055999994277954, 0.0, 0.0, 0.0, 0.0, 0.0, 1.6214333946227007E9, 2021-05-19 16:09:54.622
41.0, -59.058631896972656, -41.0809326171875, -48.48967361450195, -32.567047119140625, -0.09600000083446503, -0.03200000151991844, 1.055999994277954, 0.0, 0.0, 0.0, 0.0, 0.0, 1.6214333946369288E9, 2021-05-19 16:09:54.636
41.0, -28.53730583190918, -0.27114275097846985, -7.874359130859375, 1.0097730159759521, -0.09600000083446503, -0.03200000151991844, 1.055999994277954, 0.0, 0.0, 0.0, 0.0, 0.0, 1.6214333946369288E9, 2021-05-19 16:09:54.636
42.0, -24.307479858398438, 2.1186532974243164, 0.24496345221996307, 1.5931973457336426, -0.09600000083446503, -0.03200000151991844, 1.055999994277954, 0.0, 0.0, 0.0, 0.0, 0.0, 1.621433394637663E9, 2021-05-19 16:09:54.637
42.0, -59.417659759521484, -34.15463638305664, -30.986940383911133, -35.12887954711914, -0.09600000083446503, -0.03200000151991844, 1.055999994277954, 0.0, 0.0, 0.0, 0.0, 0.0, 1.621433394637663E9, 2021-05-19 16:09:54.637
43.0, -63.8569221496582, -40.92011642456055, -33.83674621582031, -41.93549728393555, -0.09600000083446503, -0.03200000151991844, 1.055999994277954, 0.0, 0.0, 0.0, 0.0, 0.0, 1.6214333946683152E9, 2021-05-19 16:09:54.668
43.0, -22.441268920898438, -1.48287034034729, -8.517621994018555, -16.960445404052734, -0.09600000083446503, -0.03200000151991844, 1.055999994277954, 0.0, 0.0, 0.0, 0.0, 0.0, 1.6214333946683152E9, 2021-05-19 16:09:54.668
44.0, -16.550928115844727, 1.183678388595581, -3.2929818630218506, -9.5629243850708, -0.09600000083446503, -0.03200000151991844, 1.055999994277954, 0.0, 0.0, 0.0, 0.0, 0.0, 1.6214333946691403E9, 2021-05-19 16:09:54.669
44.0, -49.95571517944336, -36.52199172973633, -33.559993743896484, -37.21574401855469, -0.09600000083446503, -0.03200000151991844, 1.055999994277954, 0.0, 0.0, 0.0, 0.0, 0.0, 1.6214333946691403E9, 2021-05-19 16:09:54.669
45.0, -55.87223434448242, -38.68365478515625, -31.884517669677734, -35.211158752441406, -0.09600000083446503, -0.03200000151991844, 1.055999994277954, 0.0, 0.0, 0.0, 0.0, 0.0, 1.6214333946697888E9, 2021-05-19 16:09:54.669
45.0, -22.60956573486328, -8.985109329223633, -13.36079216003418, -5.49017333984375, -0.09600000083446503, -0.03200000151991844, 1.055999994277954, 0.0, 0.0, 0.0, 0.0, 0.0, 1.6214333946697888E9, 2021-05-19 16:09:54.669
46.0, -11.431004524230957, 1.9840168952941895, -4.830080986022949, 7.292804718017578, -0.09600000083446503, -0.03200000151991844, 1.055999994277954, 0.0, 0.0, 0.0, 0.0, 0.0, 1.6214333946813433E9, 2021-05-19 16:09:54.681
46.0, -51.298336029052734, -33.21592330932617, -33.1411247253418, -34.35472106933594, -0.09600000083446503, -0.03200000151991844, 1.055999994277954, 0.0, 0.0, 0.0, 0.0, 0.0, 1.6214333946813433E9, 2021-05-19 16:09:54.681
47.0, -68.81228637695312, -48.66170883178711, -53.800331115722656, -47.952999114990234, -0.09600000083446503, -0.03200000151991844, 1.055999994277954, 0.0, 0.0, 0.0, 0.0, 0.0, 1.6214333946969433E9, 2021-05-19 16:09:54.696
47.0, -39.240901947021484, -6.554174900054932, -25.646364212036133, -20.15058135986328, -0.09600000083446503, -0.03200000151991844, 1.055999994277954, 0.0, 0.0, 0.0, 0.0, 0.0, 1.6214333946969433E9, 2021-05-19 16:09:54.696
48.0, -16.408811569213867, 14.333166122436523, -2.0401153564453125, -6.211973667144775, -0.09600000083446503, -0.03200000151991844, 1.055999994277954, 0.0, 0.0, 0.0, 0.0, 0.0, 1.6214333946976428E9, 2021-05-19 16:09:54.697
48.0, -45.41547393798828, -25.41448974609375, -33.2234001159668, -35.59636688232422, -0.09600000083446503, -0.03200000151991844, 1.055999994277954, 0.0, 0.0, 0.0, 0.0, 0.0, 1.6214333946976428E9, 2021-05-19 16:09:54.697
49.0, -58.81553649902344, -35.66181564331055, -44.17756652832031, -49.9837646484375, -0.09600000083446503, -0.03200000151991844, 1.055999994277954, 0.0, 0.0, 0.0, 0.0, 0.0, 1.6214333947274623E9, 2021-05-19 16:09:54.727
49.0, -30.437175750732422, -1.9840168952941895, -25.829618453979492, -24.238290786743164, -0.09600000083446503, -0.03200000151991844, 1.055999994277954, 0.0, 0.0, 0.0, 0.0, 0.0, 1.6214333947274623E9, 2021-05-19 16:09:54.727
50.0, -13.229896545410156, 12.98680305480957, -10.338953018188477, -3.1452558040618896, -0.09600000083446503, -0.03200000151991844, 1.040000081062317, 0.0, 0.0, 0.0, 0.0, 0.0, 1.621433394728205E9, 2021-05-19 16:09:54.728
50.0, -49.00204086303711, -26.768333435058594, -35.699214935302734, -35.521568298339844, -0.09600000083446503, -0.03200000151991844, 1.040000081062317, 0.0, 0.0, 0.0, 0.0, 0.0, 1.621433394728205E9, 2021-05-19 16:09:54.728
51.0, -60.77898406982422, -45.85304260253906, -59.3204231262207, -50.20441818237305, -0.09600000083446503, -0.03200000151991844, 1.040000081062317, 0.0, 0.0, 0.0, 0.0, 0.0, 1.6214333947420132E9, 2021-05-19 16:09:54.742
51.0, -26.091411590576172, 5.376106262207031, -22.07476043701172, -7.356383323669434, -0.09600000083446503, -0.03200000151991844, 1.040000081062317, 0.0, 0.0, 0.0, 0.0, 0.0, 1.6214333947420132E9, 2021-05-19 16:09:54.742
52.0, -27.49761390686035, 5.136752605438232, -13.155097961425781, -7.696713924407959, -0.09600000083446503, -0.03200000151991844, 1.040000081062317, 0.0, 0.0, 0.0, 0.0, 0.0, 1.6214333947427132E9, 2021-05-19 16:09:54.742
52.0, -57.17372131347656, -22.564685821533203, -42.232818603515625, -30.592382431030273, -0.09600000083446503, -0.03200000151991844, 1.040000081062317, 0.0, 0.0, 0.0, 0.0, 0.0, 1.6214333947427132E9, 2021-05-19 16:09:54.742
53.0, -63.77464294433594, -27.553712844848633, -50.69621276855469, -36.81931686401367, -0.09600000083446503, -0.03200000151991844, 1.040000081062317, 0.0, 0.0, 0.0, 0.0, 0.0, 1.6214333947570193E9, 2021-05-19 16:09:54.757
53.0, -30.568071365356445, 11.864832878112793, -23.305187225341797, -11.002785682678223, -0.09600000083446503, -0.03200000151991844, 1.040000081062317, 0.0, 0.0, 0.0, 0.0, 0.0, 1.6214333947570193E9, 2021-05-19 16:09:54.757
54.0, -18.129165649414062, 15.627171516418457, -9.957483291625977, -3.7997384071350098, -0.09600000083446503, -0.03200000151991844, 1.040000081062317, 0.0, 0.0, 0.0, 0.0, 0.0, 1.621433394757746E9, 2021-05-19 16:09:54.757
54.0, -57.611289978027344, -32.81949234008789, -47.89502716064453, -48.37934494018555, -0.09600000083446503, -0.03200000151991844, 1.040000081062317, 0.0, 0.0, 0.0, 0.0, 0.0, 1.621433394757746E9, 2021-05-19 16:09:54.757
55.0, -53.878868103027344, -29.18804931640625, -46.975013732910156, -43.65959167480469, -0.09600000083446503, -0.03200000151991844, 1.040000081062317, 0.0, 0.0, 0.0, 0.0, 0.0, 1.6214333947712164E9, 2021-05-19 16:09:54.771
55.0, -36.088165283203125, -4.766502380371094, -28.484947204589844, -16.94922637939453, -0.09600000083446503, -0.03200000151991844, 1.040000081062317, 0.0, 0.0, 0.0, 0.0, 0.0, 1.6214333947712164E9, 2021-05-19 16:09:54.771
56.0, -17.12687110900879, 11.625478744506836, -10.840100288391113, 1.604417085647583, -0.09600000083446503, -0.03200000151991844, 1.040000081062317, 0.0, 0.0, 0.0, 0.0, 0.0, 1.6214333947869513E9, 2021-05-19 16:09:54.786
56.0, -50.77475357055664, -19.66252326965332, -41.9373664855957, -28.774789810180664, -0.09600000083446503, -0.03200000151991844, 1.040000081062317, 0.0, 0.0, 0.0, 0.0, 0.0, 1.6214333947869513E9, 2021-05-19 16:09:54.786
57.0, -64.31693267822266, -36.2452392578125, -49.8659553527832, -39.27642822265625, -0.09600000083446503, -0.03200000151991844, 1.040000081062317, 0.0, 0.0, 0.0, 0.0, 0.0, 1.6214333947876685E9, 2021-05-19 16:09:54.787
57.0, -33.1224250793457, -8.020215034484863, -19.59894561767578, -12.308011054992676, -0.09600000083446503, -0.03200000151991844, 1.040000081062317, 0.0, 0.0, 0.0, 0.0, 0.0, 1.6214333947876685E9, 2021-05-19 16:09:54.787
58.0, -21.371658325195312, 5.133012771606445, -10.159438133239746, -7.580777168273926, -0.09600000083446503, -0.03200000151991844, 1.040000081062317, 0.0, 0.0, 0.0, 0.0, 0.0, 1.6214333948013282E9, 2021-05-19 16:09:54.801
58.0, -57.97779846191406, -27.905263900756836, -33.369258880615234, -38.16193771362305, -0.09600000083446503, -0.03200000151991844, 1.040000081062317, 0.0, 0.0, 0.0, 0.0, 0.0, 1.6214333948013282E9, 2021-05-19 16:09:54.801
59.0, -62.89202880859375, -39.45407485961914, -43.70260238647461, -42.57876205444336, -0.09600000083446503, -0.03200000151991844, 1.040000081062317, 0.0, 0.0, 0.0, 0.0, 0.0, 1.6214333948169825E9, 2021-05-19 16:09:54.816
59.0, -27.516313552856445, -4.082100868225098, -19.187557220458984, -14.836183547973633, -0.09600000083446503, -0.03200000151991844, 1.040000081062317, 0.0, 0.0, 0.0, 0.0, 0.0, 1.6214333948169825E9, 2021-05-19 16:09:54.816
60.0, -19.00056266784668, 1.7035244703292847, -16.004901885986328, -20.849943161010742, -0.09600000083446503, -0.03200000151991844, 1.040000081062317, 0.0, 0.0, 0.0, 0.0, 0.0, 1.6214333948177E9, 2021-05-19 16:09:54.817
60.0, -53.654476165771484, -28.253074645996094, -44.431880950927734, -43.83536911010742, -0.09600000083446503, -0.03200000151991844, 1.040000081062317, 0.0, 0.0, 0.0, 0.0, 0.0, 1.6214333948177E9, 2021-05-19 16:09:54.817
61.0, -66.95355987548828, -32.84941101074219, -51.07768249511719, -51.66297912597656, -0.09600000083446503, -0.03200000151991844, 1.040000081062317, 0.0, 0.0, 0.0, 0.0, 0.0, 1.6214333948312585E9, 2021-05-19 16:09:54.831
61.0, -33.608612060546875, 3.0199692249298096, -26.618738174438477, -15.584162712097168, -0.09600000083446503, -0.03200000151991844, 1.040000081062317, 0.0, 0.0, 0.0, 0.0, 0.0, 1.6214333948312585E9, 2021-05-19 16:09:54.831
62.0, -19.63634490966797, 1.086440920829773, -7.922977924346924, -3.7174606323242188, -0.1120000034570694, -0.03200000151991844, 1.040000081062317, 0.0, 0.0, 0.0, 0.0, 0.0, 1.621433394847185E9, 2021-05-19 16:09:54.847
62.0, -61.6279411315918, -39.1848030090332, -38.29470443725586, -33.614219665527344, -0.1120000034570694, -0.03200000151991844, 1.040000081062317, 0.0, 0.0, 0.0, 0.0, 0.0, 1.621433394847185E9, 2021-05-19 16:09:54.847
63.0, -70.207275390625, -35.09709167480469, -51.83314514160156, -43.57357406616211, -0.1120000034570694, -0.03200000151991844, 1.040000081062317, 0.0, 0.0, 0.0, 0.0, 0.0, 1.6214333948477297E9, 2021-05-19 16:09:54.847
63.0, -35.72539520263672, -9.781708717346191, -26.00165367126465, -16.133928298950195, -0.1120000034570694, -0.03200000151991844, 1.040000081062317, 0.0, 0.0, 0.0, 0.0, 0.0, 1.6214333948477297E9, 2021-05-19 16:09:54.847
64.0, -26.917930603027344, 6.2026238441467285, -19.546586990356445, -8.912181854248047, -0.1120000034570694, -0.03200000151991844, 1.040000081062317, 0.0, 0.0, 0.0, 0.0, 0.0, 1.6214333948612297E9, 2021-05-19 16:09:54.861
64.0, -52.5250244140625, -26.929149627685547, -42.75266647338867, -36.74077606201172, -0.1120000034570694, -0.03200000151991844, 1.040000081062317, 0.0, 0.0, 0.0, 0.0, 0.0, 1.6214333948612297E9, 2021-05-19 16:09:54.861
65.0, -52.75315856933594, -35.92734909057617, -42.13184356689453, -43.06120681762695, -0.1120000034570694, -0.03200000151991844, 1.040000081062317, 0.0, 0.0, 0.0, 0.0, 0.0, 1.6214333948769288E9, 2021-05-19 16:09:54.876
65.0, -33.997562408447266, -6.920684814453125, -27.25826072692871, -20.479692459106445, -0.1120000034570694, -0.03200000151991844, 1.040000081062317, 0.0, 0.0, 0.0, 0.0, 0.0, 1.6214333948769288E9, 2021-05-19 16:09:54.876
66.0, -22.048580169677734, 2.6871180534362793, -11.902231216430664, -10.546518325805664, -0.1120000034570694, -0.03200000151991844, 1.040000081062317, 0.0, 0.0, 0.0, 0.0, 0.0, 1.6214333948776588E9, 2021-05-19 16:09:54.877
66.0, -58.84171676635742, -34.36033248901367, -44.90311050415039, -45.75767517089844, -0.1120000034570694, -0.03200000151991844, 1.040000081062317, 0.0, 0.0, 0.0, 0.0, 0.0, 1.6214333948776588E9, 2021-05-19 16:09:54.877
67.0, -59.24562454223633, -34.21073532104492, -51.05150604248047, -50.0548210144043, -0.1120000034570694, -0.03200000151991844, 1.040000081062317, 0.0, 0.0, 0.0, 0.0, 0.0, 1.6214333948913205E9, 2021-05-19 16:09:54.891
67.0, -20.07391357421875, 6.43823766708374, -19.647563934326172, -15.180253982543945, -0.1120000034570694, -0.03200000151991844, 1.040000081062317, 0.0, 0.0, 0.0, 0.0, 0.0, 1.6214333948913205E9, 2021-05-19 16:09:54.891
68.0, -19.060400009155273, 12.825986862182617, -18.72380828857422, -10.535298347473145, -0.1120000034570694, -0.03200000151991844, 1.040000081062317, 0.0, 0.0, 0.0, 0.0, 0.0, 1.6214333949069674E9, 2021-05-19 16:09:54.906
68.0, -48.3176383972168, -31.37963104248047, -38.39942169189453, -41.19873809814453, -0.1120000034570694, -0.03200000151991844, 1.040000081062317, 0.0, 0.0, 0.0, 0.0, 0.0, 1.6214333949069674E9, 2021-05-19 16:09:54.906
69.0, -55.63288116455078, -25.15269660949707, -40.003841400146484, -42.975189208984375, -0.1120000034570694, -0.03200000151991844, 1.040000081062317, 0.0, 0.0, 0.0, 0.0, 0.0, 1.6214333949076557E9, 2021-05-19 16:09:54.907
69.0, -29.913589477539062, -5.394805908203125, -19.774721145629883, -14.85488224029541, -0.1120000034570694, -0.03200000151991844, 1.040000081062317, 0.0, 0.0, 0.0, 0.0, 0.0, 1.6214333949076557E9, 2021-05-19 16:09:54.907
70.0, -25.29481315612793, 0.8396075367927551, -13.274774551391602, -12.416467666625977, -0.1120000034570694, -0.03200000151991844, 1.040000081062317, 0.0, 0.0, 0.0, 0.0, 0.0, 1.6214333949213865E9, 2021-05-19 16:09:54.921
70.0, -52.25575256347656, -25.1826171875, -39.513912200927734, -27.783716201782227, -0.1120000034570694, -0.03200000151991844, 1.040000081062317, 0.0, 0.0, 0.0, 0.0, 0.0, 1.6214333949213865E9, 2021-05-19 16:09:54.921
71.0, -61.75135803222656, -33.649749755859375, -49.533103942871094, -36.284507751464844, -0.1120000034570694, -0.03200000151991844, 1.040000081062317, 0.0, 0.0, 0.0, 0.0, 0.0, 1.621433394936956E9, 2021-05-19 16:09:54.936
71.0, -27.35175895690918, 4.351373672485352, -15.208303451538086, -9.334790229797363, -0.1120000034570694, -0.03200000151991844, 1.040000081062317, 0.0, 0.0, 0.0, 0.0, 0.0, 1.621433394936956E9, 2021-05-19 16:09:54.936
72.0, -33.44779586791992, -0.10284724831581116, -12.612812995910645, -9.727479934692383, -0.09600000083446503, -0.03200000151991844, 1.040000081062317, 0.0, 0.0, 0.0, 0.0, 0.0, 1.621433394937681E9, 2021-05-19 16:09:54.937
72.0, -59.249366760253906, -33.552513122558594, -37.0081787109375, -32.196800231933594, -0.09600000083446503, -0.03200000151991844, 1.040000081062317, 0.0, 0.0, 0.0, 0.0, 0.0, 1.621433394937681E9, 2021-05-19 16:09:54.937
73.0, -66.58330535888672, -46.29435348510742, -50.684993743896484, -40.405879974365234, -0.09600000083446503, -0.03200000151991844, 1.040000081062317, 0.0, 0.0, 0.0, 0.0, 0.0, 1.6214333949512727E9, 2021-05-19 16:09:54.951
73.0, -34.850257873535156, -12.642731666564941, -23.727794647216797, -10.221146583557129, -0.09600000083446503, -0.03200000151991844, 1.040000081062317, 0.0, 0.0, 0.0, 0.0, 0.0, 1.6214333949512727E9, 2021-05-19 16:09:54.951
74.0, -20.548879623413086, 3.958684206008911, -9.699430465698242, 1.791412115097046, -0.09600000083446503, -0.03200000151991844, 1.040000081062317, 0.0, 0.0, 0.0, 0.0, 0.0, 1.621433394966937E9, 2021-05-19 16:09:54.966
74.0, -49.215213775634766, -23.731534957885742, -32.17622756958008, -27.82485580444336, -0.09600000083446503, -0.03200000151991844, 1.040000081062317, 0.0, 0.0, 0.0, 0.0, 0.0, 1.621433394966937E9, 2021-05-19 16:09:54.966
75.0, -67.33502960205078, -46.122314453125, -48.396175384521484, -39.826194763183594, -0.09600000083446503, -0.03200000151991844, 1.040000081062317, 0.0, 0.0, 0.0, 0.0, 0.0, 1.6214333949676507E9, 2021-05-19 16:09:54.967
75.0, -28.380229949951172, -4.534628868103027, -15.765548706054688, -11.23091983795166, -0.09600000083446503, -0.03200000151991844, 1.040000081062317, 0.0, 0.0, 0.0, 0.0, 0.0, 1.6214333949676507E9, 2021-05-19 16:09:54.967
76.0, -19.587726593017578, -1.3145748376846313, -10.8101806640625, -9.297390937805176, -0.09600000083446503, -0.03200000151991844, 1.040000081062317, 0.0, 0.0, 0.0, 0.0, 0.0, 1.6214333949813461E9, 2021-05-19 16:09:54.981
76.0, -49.71635818481445, -36.462154388427734, -31.368410110473633, -36.0451545715332, -0.09600000083446503, -0.03200000151991844, 1.040000081062317, 0.0, 0.0, 0.0, 0.0, 0.0, 1.6214333949813461E9, 2021-05-19 16:09:54.981
77.0, -61.78875732421875, -49.66400146484375, -59.043670654296875, -51.01971435546875, -0.09600000083446503, -0.03200000151991844, 1.040000081062317, 0.0, 0.0, 0.0, 0.0, 0.0, 1.6214333949970453E9, 2021-05-19 16:09:54.997
77.0, -26.682315826416016, -2.9040322303771973, -25.762300491333008, -15.18773365020752, -0.09600000083446503, -0.03200000151991844, 1.040000081062317, 0.0, 0.0, 0.0, 0.0, 0.0, 1.6214333949970453E9, 2021-05-19 16:09:54.997
78.0, -23.525840759277344, -1.0939207077026367, -17.257768630981445, -8.676568031311035, -0.09600000083446503, -0.03200000151991844, 1.040000081062317, 0.0, 0.0, 0.0, 0.0, 0.0, 1.6214333949976847E9, 2021-05-19 16:09:54.997
78.0, -52.973812103271484, -33.19722366333008, -36.5743522644043, -31.97240447998047, -0.09600000083446503, -0.03200000151991844, 1.040000081062317, 0.0, 0.0, 0.0, 0.0, 0.0, 1.6214333949976847E9, 2021-05-19 16:09:54.997
79.0, -68.56919860839844, -37.96559524536133, -48.09698486328125, -41.251094818115234, -0.09600000083446503, -0.03200000151991844, 1.040000081062317, 0.0, 0.0, 0.0, 0.0, 0.0, 1.6214333950112605E9, 2021-05-19 16:09:55.011
79.0, -32.7409553527832, 12.21264362335205, -16.20685577392578, -3.2798922061920166, -0.09600000083446503, -0.03200000151991844, 1.040000081062317, 0.0, 0.0, 0.0, 0.0, 0.0, 1.6214333950112605E9, 2021-05-19 16:09:55.011
80.0, -19.11275863647461, 7.3395538330078125, -9.602192878723145, -3.803478240966797, -0.09600000083446503, -0.03200000151991844, 1.055999994277954, 0.0, 0.0, 0.0, 0.0, 0.0, 1.62143339502696E9, 2021-05-19 16:09:55.026
80.0, -48.47471237182617, -35.418724060058594, -44.5852165222168, -39.485862731933594, -0.09600000083446503, -0.03200000151991844, 1.055999994277954, 0.0, 0.0, 0.0, 0.0, 0.0, 1.62143339502696E9, 2021-05-19 16:09:55.026
81.0, -63.74846649169922, -51.3394775390625, -64.24213409423828, -53.0467414855957, -0.09600000083446503, -0.03200000151991844, 1.055999994277954, 0.0, 0.0, 0.0, 0.0, 0.0, 1.6214333950276732E9, 2021-05-19 16:09:55.027
81.0, -31.72370147705078, -9.789188385009766, -34.951236724853516, -22.873228073120117, -0.09600000083446503, -0.03200000151991844, 1.055999994277954, 0.0, 0.0, 0.0, 0.0, 0.0, 1.6214333950276732E9, 2021-05-19 16:09:55.027
82.0, -15.810426712036133, 6.894505500793457, -12.938183784484863, -5.714567184448242, -0.09600000083446503, -0.03200000151991844, 1.055999994277954, 0.0, 0.0, 0.0, 0.0, 0.0, 1.6214333950414035E9, 2021-05-19 16:09:55.041
82.0, -58.942691802978516, -37.16899490356445, -41.93362808227539, -31.819068908691406, -0.09600000083446503, -0.03200000151991844, 1.055999994277954, 0.0, 0.0, 0.0, 0.0, 0.0, 1.6214333950414035E9, 2021-05-19 16:09:55.041
83.0, -68.61781311035156, -37.281192779541016, -59.49619674682617, -44.83766174316406, -0.09600000083446503, -0.03200000151991844, 1.055999994277954, 0.0, 0.0, 0.0, 0.0, 0.0, 1.6214333950740275E9, 2021-05-19 16:09:55.074
83.0, -33.19722366333008, -1.2547364234924316, -31.731182098388672, -14.398614883422852, -0.09600000083446503, -0.03200000151991844, 1.055999994277954, 0.0, 0.0, 0.0, 0.0, 0.0, 1.6214333950740275E9, 2021-05-19 16:09:55.074
84.0, -19.497968673706055, 3.655752182006836, -17.76265525817871, -7.39752197265625, -0.09600000083446503, -0.03200000151991844, 1.055999994277954, 0.0, 0.0, 0.0, 0.0, 0.0, 1.6214333950746953E9, 2021-05-19 16:09:55.074
84.0, -48.59064865112305, -36.15174102783203, -43.02193832397461, -34.72871017456055, -0.09600000083446503, -0.03200000151991844, 1.055999994277954, 0.0, 0.0, 0.0, 0.0, 0.0, 1.6214333950746953E9, 2021-05-19 16:09:55.074
85.0, -55.68524169921875, -41.286624908447266, -48.85618209838867, -45.166770935058594, -0.09600000083446503, -0.03200000151991844, 1.055999994277954, 0.0, 0.0, 0.0, 0.0, 0.0, 1.621433395075426E9, 2021-05-19 16:09:55.075
85.0, -22.747941970825195, 1.5314890146255493, -14.045194625854492, -9.892035484313965, -0.09600000083446503, -0.03200000151991844, 1.055999994277954, 0.0, 0.0, 0.0, 0.0, 0.0, 1.621433395075426E9, 2021-05-19 16:09:55.075
86.0, -25.97173500061035, -3.4724972248077393, -14.826833724975586, -10.13512897491455, -0.09600000083446503, -0.03200000151991844, 1.055999994277954, 0.0, 0.0, 0.0, 0.0, 0.0, 1.6214333950761745E9, 2021-05-19 16:09:55.076
86.0, -56.72493362426758, -37.7598991394043, -40.84531784057617, -34.42951965332031, -0.09600000083446503, -0.03200000151991844, 1.055999994277954, 0.0, 0.0, 0.0, 0.0, 0.0, 1.6214333950761745E9, 2021-05-19 16:09:55.076
87.0, -64.9302749633789, -44.69741439819336, -60.752803802490234, -43.330482482910156, -0.09600000083446503, -0.03200000151991844, 1.055999994277954, 0.0, 0.0, 0.0, 0.0, 0.0, 1.62143339508634E9, 2021-05-19 16:09:55.086
87.0, -24.696430206298828, -0.47683724761009216, -30.216522216796875, -14.076983451843262, -0.09600000083446503, -0.03200000151991844, 1.055999994277954, 0.0, 0.0, 0.0, 0.0, 0.0, 1.62143339508634E9, 2021-05-19 16:09:55.086
88.0, -15.365379333496094, 6.696290969848633, -11.423524856567383, -2.3523969650268555, -0.09600000083446503, -0.03200000151991844, 1.055999994277954, 0.0, 0.0, 0.0, 0.0, 0.0, 1.6214333951012547E9, 2021-05-19 16:09:55.101
88.0, -56.02931213378906, -43.21641540527344, -49.28253173828125, -48.25218963623047, -0.09600000083446503, -0.03200000151991844, 1.055999994277954, 0.0, 0.0, 0.0, 0.0, 0.0, 1.6214333951012547E9, 2021-05-19 16:09:55.101
89.0, -55.25889205932617, -43.91203689575195, -44.79091262817383, -43.42023849487305, -0.09600000083446503, -0.03200000151991844, 1.055999994277954, 0.0, 0.0, 0.0, 0.0, 0.0, 1.6214333951169584E9, 2021-05-19 16:09:55.116
89.0, -27.834205627441406, -4.635605812072754, -19.157636642456055, -12.992412567138672, -0.09600000083446503, -0.03200000151991844, 1.055999994277954, 0.0, 0.0, 0.0, 0.0, 0.0, 1.6214333951169584E9, 2021-05-19 16:09:55.116
90.0, -20.141231536865234, 6.778568744659424, -11.240269660949707, -0.7816390991210938, -0.09600000083446503, -0.03200000151991844, 1.040000081062317, 0.0, 0.0, 0.0, 0.0, 0.0, 1.6214333951176405E9, 2021-05-19 16:09:55.117
90.0, -51.025325775146484, -25.276113510131836, -38.8220329284668, -22.63013458251953, -0.09600000083446503, -0.03200000151991844, 1.040000081062317, 0.0, 0.0, 0.0, 0.0, 0.0, 1.6214333951176405E9, 2021-05-19 16:09:55.117
91.0, -70.33442687988281, -40.32173156738281, -60.84256362915039, -39.91969299316406, -0.09600000083446503, -0.03200000151991844, 1.040000081062317, 0.0, 0.0, 0.0, 0.0, 0.0, 1.621433395131307E9, 2021-05-19 16:09:55.131
91.0, -37.24753189086914, -4.317714691162109, -31.660123825073242, -12.240692138671875, -0.09600000083446503, -0.03200000151991844, 1.040000081062317, 0.0, 0.0, 0.0, 0.0, 0.0, 1.621433395131307E9, 2021-05-19 16:09:55.131
92.0, -28.772920608520508, -4.7814621925354, -24.692689895629883, -14.017145156860352, -0.1120000034570694, -0.03200000151991844, 1.040000081062317, 0.0, 0.0, 0.0, 0.0, 0.0, 1.621433395146904E9, 2021-05-19 16:09:55.146
92.0, -63.00422286987305, -45.33319854736328, -49.28627014160156, -47.72860336303711, -0.1120000034570694, -0.03200000151991844, 1.040000081062317, 0.0, 0.0, 0.0, 0.0, 0.0, 1.621433395146904E9, 2021-05-19 16:09:55.146
93.0, -64.94149017333984, -39.910343170166016, -54.33887481689453, -45.05831527709961, -0.1120000034570694, -0.03200000151991844, 1.040000081062317, 0.0, 0.0, 0.0, 0.0, 0.0, 1.6214333951476583E9, 2021-05-19 16:09:55.147
93.0, -32.39688491821289, 0.45439785718917847, -27.83794593811035, -16.276044845581055, -0.1120000034570694, -0.03200000151991844, 1.040000081062317, 0.0, 0.0, 0.0, 0.0, 0.0, 1.6214333951476583E9, 2021-05-19 16:09:55.147
94.0, -19.845779418945312, 10.709203720092773, -13.529088020324707, -16.747272491455078, -0.1120000034570694, -0.03200000151991844, 1.040000081062317, 0.0, 0.0, 0.0, 0.0, 0.0, 1.6214333951947415E9, 2021-05-19 16:09:55.194
94.0, -58.01893615722656, -26.929149627685547, -53.12714767456055, -53.0243034362793, -0.1120000034570694, -0.03200000151991844, 1.040000081062317, 0.0, 0.0, 0.0, 0.0, 0.0, 1.6214333951947415E9, 2021-05-19 16:09:55.194
95.0, -57.16250228881836, -25.29481315612793, -54.63806915283203, -46.43833923339844, -0.1120000034570694, -0.03200000151991844, 1.040000081062317, 0.0, 0.0, 0.0, 0.0, 0.0, 1.6214333951954489E9, 2021-05-19 16:09:55.195
95.0, -32.20988845825195, -5.1629319190979, -29.468542098999023, -21.941993713378906, -0.1120000034570694, -0.03200000151991844, 1.040000081062317, 0.0, 0.0, 0.0, 0.0, 0.0, 1.6214333951954489E9, 2021-05-19 16:09:55.195
96.0, -22.76664161682129, 7.298414707183838, -11.950850486755371, 1.2005078792572021, -0.1120000034570694, -0.03200000151991844, 1.040000081062317, 0.0, 0.0, 0.0, 0.0, 0.0, 1.621433395196262E9, 2021-05-19 16:09:55.196
96.0, -62.82844924926758, -35.45612335205078, -39.31195831298828, -29.45545196533203, -0.1120000034570694, -0.03200000151991844, 1.040000081062317, 0.0, 0.0, 0.0, 0.0, 0.0, 1.621433395196262E9, 2021-05-19 16:09:55.196
97.0, -75.5478515625, -41.428741455078125, -54.80636215209961, -38.19559860229492, -0.1120000034570694, -0.03200000151991844, 1.040000081062317, 0.0, 0.0, 0.0, 0.0, 0.0, 1.6214333951969433E9, 2021-05-19 16:09:55.196
97.0, -34.95497512817383, -9.183324813842773, -24.546833038330078, -2.662808656692505, -0.1120000034570694, -0.03200000151991844, 1.040000081062317, 0.0, 0.0, 0.0, 0.0, 0.0, 1.6214333951969433E9, 2021-05-19 16:09:55.196
98.0, -28.503646850585938, 0.1140669509768486, -19.935537338256836, -5.239599704742432, -0.1120000034570694, -0.03200000151991844, 1.040000081062317, 0.0, 0.0, 0.0, 0.0, 0.0, 1.621433395207012E9, 2021-05-19 16:09:55.207
98.0, -57.26721954345703, -33.77690505981445, -53.85643005371094, -39.212852478027344, -0.1120000034570694, -0.03200000151991844, 1.040000081062317, 0.0, 0.0, 0.0, 0.0, 0.0, 1.621433395207012E9, 2021-05-19 16:09:55.207
99.0, -56.87078857421875, -37.88331604003906, -54.80636215209961, -47.00680160522461, -0.1120000034570694, -0.03200000151991844, 1.040000081062317, 0.0, 0.0, 0.0, 0.0, 0.0, 1.621433395207752E9, 2021-05-19 16:09:55.207
99.0, -25.717422485351562, -8.83177375793457, -33.99382019042969, -32.10704040527344, -0.1120000034570694, -0.03200000151991844, 1.040000081062317, 0.0, 0.0, 0.0, 0.0, 0.0, 1.621433395207752E9, 2021-05-19 16:09:55.207
100.0, -18.076807022094727, -5.4135050773620605, -26.076452255249023, -18.0113582611084, -0.1120000034570694, -0.03200000151991844, 1.055999994277954, 0.0, 0.0, 0.0, 0.0, 0.0, 1.6214333952220807E9, 2021-05-19 16:09:55.222
100.0, -51.829402923583984, -34.936275482177734, -52.266971588134766, -49.24700164794922, -0.1120000034570694, -0.03200000151991844, 1.055999994277954, 0.0, 0.0, 0.0, 0.0, 0.0, 1.6214333952220807E9, 2021-05-19 16:09:55.222
0.0, -58.27511978149414, -40.759300231933594, -56.393951416015625, -51.93973159790039, -0.1120000034570694, -0.03200000151991844, 1.055999994277954, 0.0, 0.0, 0.0, 0.0, 0.0, 1.6214333952227404E9, 2021-05-19 16:09:55.222
1.0, -24.111135482788086, 1.7072643041610718, -28.819669723510742, -17.323217391967773, -0.1120000034570694, -0.03200000151991844, 1.055999994277954, 0.0, 0.0, 0.0, 0.0, 0.0, 1.621433395253389E9, 2021-05-19 16:09:55.253
1.0, -23.142501831054688, -0.8844863176345825, -15.011958122253418, -9.144055366516113, -0.1120000034570694, -0.03200000151991844, 1.055999994277954, 0.0, 0.0, 0.0, 0.0, 0.0, 1.621433395253389E9, 2021-05-19 16:09:55.253
2.0, -56.95493698120117, -29.28154754638672, -41.18751907348633, -35.529048919677734, -0.09600000083446503, -0.03200000151991844, 1.055999994277954, 0.0, 0.0, 0.0, 0.0, 0.0, 1.6214333952540736E9, 2021-05-19 16:09:55.254
2.0, -57.74031448364258, -31.114097595214844, -44.21683883666992, -34.339759826660156, -0.09600000083446503, -0.03200000151991844, 1.055999994277954, 0.0, 0.0, 0.0, 0.0, 0.0, 1.6214333952540736E9, 2021-05-19 16:09:55.254
3.0, -30.727018356323242, 1.0266025066375732, -20.91352081298828, -10.333343505859375, -0.09600000083446503, -0.03200000151991844, 1.055999994277954, 0.0, 0.0, 0.0, 0.0, 0.0, 1.621433395254868E9, 2021-05-19 16:09:55.254
3.0, -26.25035858154297, -1.5240092277526855, -12.5062255859375, -0.721800684928894, -0.09600000083446503, -0.03200000151991844, 1.055999994277954, 0.0, 0.0, 0.0, 0.0, 0.0, 1.621433395254868E9, 2021-05-19 16:09:55.254
4.0, -66.0241928100586, -39.82432556152344, -47.3433952331543, -39.90473175048828, -0.09600000083446503, -0.03200000151991844, 1.055999994277954, 0.0, 0.0, 0.0, 0.0, 0.0, 1.6214333952664108E9, 2021-05-19 16:09:55.266
4.0, -65.35475158691406, -44.75725173950195, -54.11635208129883, -45.8287353515625, -0.09600000083446503, -0.03200000151991844, 1.055999994277954, 0.0, 0.0, 0.0, 0.0, 0.0, 1.6214333952664108E9, 2021-05-19 16:09:55.266
5.0, -32.60444641113281, -7.511589050292969, -26.16434097290039, -17.588748931884766, -0.09600000083446503, -0.03200000151991844, 1.055999994277954, 0.0, 0.0, 0.0, 0.0, 0.0, 1.621433395281982E9, 2021-05-19 16:09:55.281
5.0, -21.844755172729492, 3.0798075199127197, -11.967679977416992, -4.75341272354126, -0.09600000083446503, -0.03200000151991844, 1.055999994277954, 0.0, 0.0, 0.0, 0.0, 0.0, 1.621433395281982E9, 2021-05-19 16:09:55.281
6.0, -50.802799224853516, -35.706695556640625, -37.75802993774414, -36.97639083862305, -0.09600000083446503, -0.03200000151991844, 1.055999994277954, 0.0, 0.0, 0.0, 0.0, 0.0, 1.6214333952826743E9, 2021-05-19 16:09:55.282
6.0, -56.210697174072266, -46.589805603027344, -52.87096405029297, -40.2301025390625, -0.09600000083446503, -0.03200000151991844, 1.055999994277954, 0.0, 0.0, 0.0, 0.0, 0.0, 1.6214333952826743E9, 2021-05-19 16:09:55.282
7.0, -33.55812072753906, -9.557313919067383, -26.762723922729492, -18.677061080932617, -0.09600000083446503, -0.03200000151991844, 1.055999994277954, 0.0, 0.0, 0.0, 0.0, 0.0, 1.6214333953126533E9, 2021-05-19 16:09:55.312
7.0, -21.915813446044922, 2.193451404571533, -11.608649253845215, -16.051651000976562, -0.09600000083446503, -0.03200000151991844, 1.055999994277954, 0.0, 0.0, 0.0, 0.0, 0.0, 1.6214333953126533E9, 2021-05-19 16:09:55.312
8.0, -52.46331787109375, -26.667356491088867, -36.07881546020508, -37.61591339111328, -0.09600000083446503, -0.03200000151991844, 1.055999994277954, 0.0, 0.0, 0.0, 0.0, 0.0, 1.6214333953133538E9, 2021-05-19 16:09:55.313
8.0, -63.178131103515625, -42.52827072143555, -49.561153411865234, -51.55826187133789, -0.09600000083446503, -0.03200000151991844, 1.055999994277954, 0.0, 0.0, 0.0, 0.0, 0.0, 1.6214333953133538E9, 2021-05-19 16:09:55.313
9.0, -32.04346466064453, -6.913205146789551, -18.35542869567871, -19.85512924194336, -0.09600000083446503, -0.03200000151991844, 1.055999994277954, 0.0, 0.0, 0.0, 0.0, 0.0, 1.6214333953140688E9, 2021-05-19 16:09:55.314
9.0, -27.955751419067383, 6.614013195037842, -8.403554916381836, -9.3871488571167, -0.09600000083446503, -0.03200000151991844, 1.055999994277954, 0.0, 0.0, 0.0, 0.0, 0.0, 1.6214333953140688E9, 2021-05-19 16:09:55.314
10.0, -60.780853271484375, -34.77920150756836, -45.166770935058594, -47.709903717041016, -0.09600000083446503, -0.03200000151991844, 1.040000081062317, 0.0, 0.0, 0.0, 0.0, 0.0, 1.6214333953263876E9, 2021-05-19 16:09:55.326
10.0, -62.63584518432617, -43.72877883911133, -63.933589935302734, -52.287540435791016, -0.09600000083446503, -0.03200000151991844, 1.040000081062317, 0.0, 0.0, 0.0, 0.0, 0.0, 1.6214333953263876E9, 2021-05-19 16:09:55.326
11.0, -34.47065734863281, -9.598453521728516, -40.91450500488281, -22.345901489257812, -0.09600000083446503, -0.03200000151991844, 1.040000081062317, 0.0, 0.0, 0.0, 0.0, 0.0, 1.6214333953589647E9, 2021-05-19 16:09:55.358
11.0, -24.817975997924805, -0.9966833591461182, -33.7151985168457, -20.53205108642578, -0.09600000083446503, -0.03200000151991844, 1.040000081062317, 0.0, 0.0, 0.0, 0.0, 0.0, 1.6214333953589647E9, 2021-05-19 16:09:55.358
12.0, -51.79387283325195, -36.566871643066406, -60.74345397949219, -37.33916091918945, -0.09600000083446503, -0.03200000151991844, 1.040000081062317, 0.0, 0.0, 0.0, 0.0, 0.0, 1.6214333953597975E9, 2021-05-19 16:09:55.359
12.0, -58.32373809814453, -35.67303466796875, -60.55271911621094, -35.54026794433594, -0.09600000083446503, -0.03200000151991844, 1.040000081062317, 0.0, 0.0, 0.0, 0.0, 0.0, 1.6214333953597975E9, 2021-05-19 16:09:55.359
13.0, -31.70313262939453, -3.117206573486328, -30.195951461791992, -18.074935913085938, -0.09600000083446503, -0.03200000151991844, 1.040000081062317, 0.0, 0.0, 0.0, 0.0, 0.0, 1.621433395360468E9, 2021-05-19 16:09:55.360
13.0, -27.948272705078125, 1.6511658430099487, -20.479692459106445, -8.960800170898438, -0.09600000083446503, -0.03200000151991844, 1.040000081062317, 0.0, 0.0, 0.0, 0.0, 0.0, 1.621433395360468E9, 2021-05-19 16:09:55.360
14.0, -52.627872467041016, -22.684362411499023, -38.41625213623047, -27.69769859313965, -0.09600000083446503, -0.03200000151991844, 1.040000081062317, 0.0, 0.0, 0.0, 0.0, 0.0, 1.6214333953613122E9, 2021-05-19 16:09:55.361
14.0, -70.40735626220703, -34.6370849609375, -51.434844970703125, -43.07242965698242, -0.09600000083446503, -0.03200000151991844, 1.040000081062317, 0.0, 0.0, 0.0, 0.0, 0.0, 1.6214333953613122E9, 2021-05-19 16:09:55.361
15.0, -34.867088317871094, 11.341246604919434, -21.07059669494629, -9.095437049865723, -0.09600000083446503, -0.03200000151991844, 1.040000081062317, 0.0, 0.0, 0.0, 0.0, 0.0, 1.6214333953712752E9, 2021-05-19 16:09:55.371
15.0, -27.260129928588867, 14.198530197143555, -13.676814079284668, -8.325016975402832, -0.09600000083446503, -0.03200000151991844, 1.040000081062317, 0.0, 0.0, 0.0, 0.0, 0.0, 1.6214333953712752E9, 2021-05-19 16:09:55.371
16.0, -65.4819107055664, -29.232927322387695, -45.64173889160156, -43.076168060302734, -0.09600000083446503, -0.03200000151991844, 1.040000081062317, 0.0, 0.0, 0.0, 0.0, 0.0, 1.6214333953864443E9, 2021-05-19 16:09:55.386
16.0, -64.95458221435547, -32.0378532409668, -52.32120132446289, -51.36004638671875, -0.09600000083446503, -0.03200000151991844, 1.040000081062317, 0.0, 0.0, 0.0, 0.0, 0.0, 1.6214333953864443E9, 2021-05-19 16:09:55.386
17.0, -40.85466766357422, -1.9204386472702026, -29.87432098388672, -23.957799911499023, -0.09600000083446503, -0.03200000151991844, 1.040000081062317, 0.0, 0.0, 0.0, 0.0, 0.0, 1.6214333954019666E9, 2021-05-19 16:09:55.401
17.0, -22.704933166503906, 6.142785549163818, -17.484031677246094, -6.152135372161865, -0.09600000083446503, -0.03200000151991844, 1.040000081062317, 0.0, 0.0, 0.0, 0.0, 0.0, 1.6214333954019666E9, 2021-05-19 16:09:55.401
18.0, -59.95059585571289, -26.525239944458008, -44.27293395996094, -35.910518646240234, -0.09600000083446503, -0.03200000151991844, 1.040000081062317, 0.0, 0.0, 0.0, 0.0, 0.0, 1.6214333954026892E9, 2021-05-19 16:09:55.402
18.0, -64.03083038330078, -31.09539794921875, -53.0467414855957, -41.58020782470703, -0.09600000083446503, -0.03200000151991844, 1.040000081062317, 0.0, 0.0, 0.0, 0.0, 0.0, 1.6214333954026892E9, 2021-05-19 16:09:55.402
19.0, -32.98965835571289, 2.193451404571533, -23.123802185058594, -15.169034004211426, -0.09600000083446503, -0.03200000151991844, 1.040000081062317, 0.0, 0.0, 0.0, 0.0, 0.0, 1.621433395432705E9, 2021-05-19 16:09:55.432
19.0, -29.35821533203125, 4.1568989753723145, -19.129589080810547, -11.859222412109375, -0.09600000083446503, -0.03200000151991844, 1.040000081062317, 0.0, 0.0, 0.0, 0.0, 0.0, 1.621433395432705E9, 2021-05-19 16:09:55.432
20.0, -66.60762023925781, -34.25187301635742, -54.9727897644043, -44.7254638671875, -0.09600000083446503, -0.03200000151991844, 1.055999994277954, 0.0, 0.0, 0.0, 0.0, 0.0, 1.6214333954333897E9, 2021-05-19 16:09:55.433
20.0, -70.06328582763672, -35.882469177246094, -56.8614387512207, -46.26630401611328, -0.09600000083446503, -0.03200000151991844, 1.055999994277954, 0.0, 0.0, 0.0, 0.0, 0.0, 1.6214333954333897E9, 2021-05-19 16:09:55.433
21.0, -38.51723098754883, -8.932750701904297, -26.60190773010254, -16.721092224121094, -0.09600000083446503, -0.03200000151991844, 1.055999994277954, 0.0, 0.0, 0.0, 0.0, 0.0, 1.621433395434252E9, 2021-05-19 16:09:55.434
21.0, -27.55558204650879, 7.171257972717285, -12.091096878051758, -12.779237747192383, -0.09600000083446503, -0.03200000151991844, 1.055999994277954, 0.0, 0.0, 0.0, 0.0, 0.0, 1.621433395434252E9, 2021-05-19 16:09:55.434
22.0, -67.42291259765625, -36.42475509643555, -43.648372650146484, -40.72003173828125, -0.09600000083446503, -0.03200000151991844, 1.055999994277954, 0.0, 0.0, 0.0, 0.0, 0.0, 1.6214333954462383E9, 2021-05-19 16:09:55.446
22.0, -69.96231079101562, -29.995866775512695, -52.79990768432617, -48.663578033447266, -0.09600000083446503, -0.03200000151991844, 1.055999994277954, 0.0, 0.0, 0.0, 0.0, 0.0, 1.6214333954462383E9, 2021-05-19 16:09:55.446
23.0, -31.86394691467285, -6.090426921844482, -28.87576675415039, -22.05792999267578, -0.09600000083446503, -0.03200000151991844, 1.055999994277954, 0.0, 0.0, 0.0, 0.0, 0.0, 1.621433395462052E9, 2021-05-19 16:09:55.462
23.0, -23.553890228271484, 3.73429012298584, -15.213912963867188, -21.97565269470215, -0.09600000083446503, -0.03200000151991844, 1.055999994277954, 0.0, 0.0, 0.0, 0.0, 0.0, 1.621433395462052E9, 2021-05-19 16:09:55.462
24.0, -68.08861541748047, -27.194683074951172, -45.54450225830078, -47.35835266113281, -0.09600000083446503, -0.03200000151991844, 1.055999994277954, 0.0, 0.0, 0.0, 0.0, 0.0, 1.621433395462744E9, 2021-05-19 16:09:55.462
24.0, -62.42266845703125, -37.96559524536133, -49.53871536254883, -44.18691635131836, -0.09600000083446503, -0.03200000151991844, 1.055999994277954, 0.0, 0.0, 0.0, 0.0, 0.0, 1.621433395462744E9, 2021-05-19 16:09:55.462
25.0, -29.496591567993164, 1.3444939851760864, -24.182193756103516, -17.884201049804688, -0.09600000083446503, -0.03200000151991844, 1.055999994277954, 0.0, 0.0, 0.0, 0.0, 0.0, 1.6214333954924836E9, 2021-05-19 16:09:55.492
25.0, -23.40803337097168, 1.9914966821670532, -17.786964416503906, -11.077583312988281, -0.09600000083446503, -0.03200000151991844, 1.055999994277954, 0.0, 0.0, 0.0, 0.0, 0.0, 1.6214333954924836E9, 2021-05-19 16:09:55.492
26.0, -57.60567855834961, -36.1330451965332, -40.74995040893555, -33.01957702636719, -0.09600000083446503, -0.03200000151991844, 1.055999994277954, 0.0, 0.0, 0.0, 0.0, 0.0, 1.6214333954931047E9, 2021-05-19 16:09:55.493
26.0, -63.077152252197266, -33.44779586791992, -45.761417388916016, -37.5485954284668, -0.09600000083446503, -0.03200000151991844, 1.055999994277954, 0.0, 0.0, 0.0, 0.0, 0.0, 1.6214333954931047E9, 2021-05-19 16:09:55.493
27.0, -28.916906356811523, -9.721869468688965, -13.714213371276855, -7.494759559631348, -0.09600000083446503, -0.03200000151991844, 1.055999994277954, 0.0, 0.0, 0.0, 0.0, 0.0, 1.6214333955071473E9, 2021-05-19 16:09:55.507
27.0, -34.44447708129883, -1.9653173685073853, -11.414175033569336, -16.111488342285156, -0.09600000083446503, -0.03200000151991844, 1.055999994277954, 0.0, 0.0, 0.0, 0.0, 0.0, 1.6214333955071473E9, 2021-05-19 16:09:55.507
28.0, -72.2660903930664, -47.27794647216797, -48.09511184692383, -49.26944351196289, -0.09600000083446503, -0.03200000151991844, 1.055999994277954, 0.0, 0.0, 0.0, 0.0, 0.0, 1.6214333955076928E9, 2021-05-19 16:09:55.507
28.0, -64.34497833251953, -34.23317337036133, -42.52266311645508, -43.08738708496094, -0.09600000083446503, -0.03200000151991844, 1.055999994277954, 0.0, 0.0, 0.0, 0.0, 0.0, 1.6214333955076928E9, 2021-05-19 16:09:55.507
29.0, -32.88119888305664, 2.8067948818206787, -24.17845344543457, -22.948026657104492, -0.09600000083446503, -0.03200000151991844, 1.055999994277954, 0.0, 0.0, 0.0, 0.0, 0.0, 1.621433395538967E9, 2021-05-19 16:09:55.538
29.0, -25.565956115722656, 1.3557137250900269, -31.445077896118164, -23.998937606811523, -0.09600000083446503, -0.03200000151991844, 1.055999994277954, 0.0, 0.0, 0.0, 0.0, 0.0, 1.621433395538967E9, 2021-05-19 16:09:55.538
30.0, -55.93768310546875, -26.9254093170166, -51.442325592041016, -50.64198684692383, -0.09600000083446503, -0.03200000151991844, 1.055999994277954, 0.0, 0.0, 0.0, 0.0, 0.0, 1.6214333955397692E9, 2021-05-19 16:09:55.539
30.0, -66.27850341796875, -35.67677688598633, -53.8096809387207, -51.13191223144531, -0.09600000083446503, -0.03200000151991844, 1.055999994277954, 0.0, 0.0, 0.0, 0.0, 0.0, 1.6214333955397692E9, 2021-05-19 16:09:55.539
31.0, -31.882646560668945, -11.920930862426758, -21.683940887451172, -23.179899215698242, -0.09600000083446503, -0.01600000075995922, 1.055999994277954, 0.0, 0.0, 0.0, 0.0, 0.0, 1.6214333955405354E9, 2021-05-19 16:09:55.540
31.0, -23.355674743652344, 3.3453404903411865, -7.636875629425049, -12.356629371643066, -0.09600000083446503, -0.01600000075995922, 1.055999994277954, 0.0, 0.0, 0.0, 0.0, 0.0, 1.6214333955405354E9, 2021-05-19 16:09:55.540
32.0, -56.96241760253906, -37.54672622680664, -35.37197494506836, -48.87301254272461, -0.09600000083446503, -0.01600000075995922, 1.055999994277954, 0.0, 0.0, 0.0, 0.0, 0.0, 1.6214333955412288E9, 2021-05-19 16:09:55.541
32.0, -77.6066665649414, -36.21158218383789, -61.23712158203125, -54.146270751953125, -0.09600000083446503, -0.01600000075995922, 1.055999994277954, 0.0, 0.0, 0.0, 0.0, 0.0, 1.6214333955412288E9, 2021-05-19 16:09:55.541
33.0, -36.4154052734375, 10.002362251281738, -32.279075622558594, -25.913766860961914, -0.09600000083446503, -0.01600000075995922, 1.055999994277954, 0.0, 0.0, 0.0, 0.0, 0.0, 1.621433395551224E9, 2021-05-19 16:09:55.551
33.0, -28.748611450195312, 13.285994529724121, -23.09762191772461, -22.45435905456543, -0.09600000083446503, -0.01600000075995922, 1.055999994277954, 0.0, 0.0, 0.0, 0.0, 0.0, 1.621433395551224E9, 2021-05-19 16:09:55.551
34.0, -60.38068389892578, -16.65938377380371, -46.05686950683594, -46.191505432128906, -0.09600000083446503, -0.01600000075995922, 1.055999994277954, 0.0, 0.0, 0.0, 0.0, 0.0, 1.6214333955662704E9, 2021-05-19 16:09:55.566
34.0, -72.81959533691406, -28.391450881958008, -59.05302047729492, -50.41385269165039, -0.09600000083446503, -0.01600000075995922, 1.055999994277954, 0.0, 0.0, 0.0, 0.0, 0.0, 1.6214333955662704E9, 2021-05-19 16:09:55.566
35.0, -39.8785514831543, 5.252689361572266, -32.46607208251953, -15.722538948059082, -0.09600000083446503, -0.01600000075995922, 1.055999994277954, 0.0, 0.0, 0.0, 0.0, 0.0, 1.6214333955819964E9, 2021-05-19 16:09:55.581
35.0, -29.504070281982422, 12.897045135498047, -27.11053466796875, -18.026317596435547, -0.09600000083446503, -0.01600000075995922, 1.055999994277954, 0.0, 0.0, 0.0, 0.0, 0.0, 1.6214333955819964E9, 2021-05-19 16:09:55.581
36.0, -65.44824981689453, -28.944955825805664, -56.56598663330078, -45.32758712768555, -0.09600000083446503, -0.01600000075995922, 1.055999994277954, 0.0, 0.0, 0.0, 0.0, 0.0, 1.6214333955827005E9, 2021-05-19 16:09:55.582
36.0, -61.68217086791992, -36.84736251831055, -61.16606521606445, -42.552581787109375, -0.09600000083446503, -0.01600000075995922, 1.055999994277954, 0.0, 0.0, 0.0, 0.0, 0.0, 1.6214333955827005E9, 2021-05-19 16:09:55.582
37.0, -26.949718475341797, -4.456090927124023, -27.727619171142578, -18.35542869567871, -0.09600000083446503, -0.01600000075995922, 1.055999994277954, 0.0, 0.0, 0.0, 0.0, 0.0, 1.6214333955963533E9, 2021-05-19 16:09:55.596
37.0, -20.098222732543945, 5.7126970291137695, -16.234905242919922, -6.398968696594238, -0.09600000083446503, -0.01600000075995922, 1.055999994277954, 0.0, 0.0, 0.0, 0.0, 0.0, 1.6214333955963533E9, 2021-05-19 16:09:55.596
38.0, -57.05217361450195, -35.467342376708984, -43.547393798828125, -37.62339401245117, -0.09600000083446503, -0.01600000075995922, 1.055999994277954, 0.0, 0.0, 0.0, 0.0, 0.0, 1.6214333956119933E9, 2021-05-19 16:09:55.611
38.0, -73.46659851074219, -41.716712951660156, -61.36427688598633, -54.860591888427734, -0.09600000083446503, -0.01600000075995922, 1.055999994277954, 0.0, 0.0, 0.0, 0.0, 0.0, 1.6214333956119933E9, 2021-05-19 16:09:55.611
39.0, -35.2410774230957, -8.588680267333984, -33.11681365966797, -29.702285766601562, -0.09600000083446503, -0.01600000075995922, 1.055999994277954, 0.0, 0.0, 0.0, 0.0, 0.0, 1.6214333956127E9, 2021-05-19 16:09:55.612
39.0, -24.339269638061523, 12.066786766052246, -24.372928619384766, -23.651126861572266, -0.09600000083446503, -0.01600000075995922, 1.055999994277954, 0.0, 0.0, 0.0, 0.0, 0.0, 1.6214333956127E9, 2021-05-19 16:09:55.612
40.0, -51.65549850463867, -18.9856014251709, -48.240970611572266, -48.805694580078125, -0.09600000083446503, -0.01600000075995922, 1.040000081062317, 0.0, 0.0, 0.0, 0.0, 0.0, 1.6214333956263292E9, 2021-05-19 16:09:55.626
40.0, -67.748291015625, -36.9259033203125, -61.81306457519531, -57.250389099121094, -0.09600000083446503, -0.01600000075995922, 1.040000081062317, 0.0, 0.0, 0.0, 0.0, 0.0, 1.6214333956263292E9, 2021-05-19 16:09:55.626
41.0, -31.95744514465332, 0.2187841534614563, -31.149625778198242, -22.611434936523438, -0.09600000083446503, -0.03200000151991844, 1.040000081062317, 0.0, 0.0, 0.0, 0.0, 0.0, 1.6214333956419647E9, 2021-05-19 16:09:55.641
41.0, -13.669334411621094, 9.834067344665527, -7.449880599975586, -11.193520545959473, -0.09600000083446503, -0.03200000151991844, 1.040000081062317, 0.0, 0.0, 0.0, 0.0, 0.0, 1.6214333956419647E9, 2021-05-19 16:09:55.641
42.0, -59.23627471923828, -35.119529724121094, -47.986656188964844, -48.622440338134766, -0.1120000034570694, -0.03200000151991844, 1.040000081062317, 0.0, 0.0, 0.0, 0.0, 0.0, 1.6214333956426895E9, 2021-05-19 16:09:55.642
42.0, -61.52509307861328, -31.21507453918457, -56.760459899902344, -43.14348602294922, -0.1120000034570694, -0.03200000151991844, 1.040000081062317, 0.0, 0.0, 0.0, 0.0, 0.0, 1.6214333956426895E9, 2021-05-19 16:09:55.642
43.0, -28.81218910217285, 9.123485565185547, -30.525062561035156, -12.106056213378906, -0.1120000034570694, -0.03200000151991844, 1.040000081062317, 0.0, 0.0, 0.0, 0.0, 0.0, 1.6214333956562529E9, 2021-05-19 16:09:55.656
43.0, -22.521677017211914, 11.543201446533203, -21.799877166748047, -11.717106819152832, -0.1120000034570694, -0.03200000151991844, 1.040000081062317, 0.0, 0.0, 0.0, 0.0, 0.0, 1.6214333956562529E9, 2021-05-19 16:09:55.656
44.0, -55.3766975402832, -26.263446807861328, -45.10693359375, -37.97868347167969, -0.1120000034570694, -0.03200000151991844, 1.040000081062317, 0.0, 0.0, 0.0, 0.0, 0.0, 1.6214333956720495E9, 2021-05-19 16:09:55.672
44.0, -68.19707489013672, -29.28154754638672, -55.200923919677734, -50.20441818237305, -0.1120000034570694, -0.03200000151991844, 1.040000081062317, 0.0, 0.0, 0.0, 0.0, 0.0, 1.6214333956720495E9, 2021-05-19 16:09:55.672
45.0, -32.35387420654297, 1.7633628845214844, -21.792396545410156, -20.22163963317871, -0.1120000034570694, -0.03200000151991844, 1.040000081062317, 0.0, 0.0, 0.0, 0.0, 0.0, 1.6214333956726809E9, 2021-05-19 16:09:55.672
45.0, -32.06964111328125, -0.48431703448295593, -20.6816463470459, -21.75499725341797, -0.1120000034570694, -0.03200000151991844, 1.040000081062317, 0.0, 0.0, 0.0, 0.0, 0.0, 1.6214333956726809E9, 2021-05-19 16:09:55.672
46.0, -39.15675354003906, -18.16656494140625, -31.62459373474121, -36.62110137939453, -0.1120000034570694, -0.03200000151991844, 1.040000081062317, 0.0, 0.0, 0.0, 0.0, 0.0, 1.6214333956864026E9, 2021-05-19 16:09:55.686
46.0, -49.46391677856445, -26.46166229248047, -50.92995834350586, -44.093421936035156, -0.1120000034570694, -0.03200000151991844, 1.040000081062317, 0.0, 0.0, 0.0, 0.0, 0.0, 1.6214333956864026E9, 2021-05-19 16:09:55.686
47.0, -29.197399139404297, 3.4201385974884033, -36.729557037353516, -22.5889949798584, -0.1120000034570694, -0.03200000151991844, 1.040000081062317, 0.0, 0.0, 0.0, 0.0, 0.0, 1.6214333957021623E9, 2021-05-19 16:09:55.702
47.0, -21.324909210205078, 5.174151420593262, -23.445432662963867, -15.94693374633789, -0.1120000034570694, -0.03200000151991844, 1.040000081062317, 0.0, 0.0, 0.0, 0.0, 0.0, 1.6214333957021623E9, 2021-05-19 16:09:55.702
48.0, -62.38153076171875, -35.20554733276367, -55.52629470825195, -55.208404541015625, -0.1120000034570694, -0.03200000151991844, 1.040000081062317, 0.0, 0.0, 0.0, 0.0, 0.0, 1.6214333957028875E9, 2021-05-19 16:09:55.702
48.0, -57.47478103637695, -26.469141006469727, -52.55307388305664, -45.1368522644043, -0.1120000034570694, -0.03200000151991844, 1.040000081062317, 0.0, 0.0, 0.0, 0.0, 0.0, 1.6214333957028875E9, 2021-05-19 16:09:55.702
49.0, -30.252050399780273, 6.31856107711792, -24.096176147460938, -19.110889434814453, -0.1120000034570694, -0.03200000151991844, 1.040000081062317, 0.0, 0.0, 0.0, 0.0, 0.0, 1.6214333957331781E9, 2021-05-19 16:09:55.733
49.0, -25.184486389160156, 5.06943416595459, -23.67730712890625, -21.137914657592773, -0.1120000034570694, -0.03200000151991844, 1.040000081062317, 0.0, 0.0, 0.0, 0.0, 0.0, 1.6214333957331781E9, 2021-05-19 16:09:55.733
50.0, -51.55078125, -24.939523696899414, -41.696144104003906, -45.36872482299805, -0.1120000034570694, -0.03200000151991844, 1.040000081062317, 0.0, 0.0, 0.0, 0.0, 0.0, 1.6214333957339914E9, 2021-05-19 16:09:55.733
50.0, -64.9620590209961, -30.676528930664062, -54.21358871459961, -44.39261245727539, -0.1120000034570694, -0.03200000151991844, 1.040000081062317, 0.0, 0.0, 0.0, 0.0, 0.0, 1.6214333957339914E9, 2021-05-19 16:09:55.733
51.0, -39.25025177001953, 0.8059484362602234, -30.872873306274414, -14.772604942321777, -0.1120000034570694, -0.01600000075995922, 1.040000081062317, 0.0, 0.0, 0.0, 0.0, 0.0, 1.621433395746942E9, 2021-05-19 16:09:55.746
51.0, -23.580068588256836, 20.687255859375, -20.591888427734375, -3.6314427852630615, -0.1120000034570694, -0.01600000075995922, 1.040000081062317, 0.0, 0.0, 0.0, 0.0, 0.0, 1.621433395746942E9, 2021-05-19 16:09:55.746
52.0, -54.80075454711914, -19.213735580444336, -46.6627311706543, -30.71953773498535, -0.09600000083446503, -0.01600000075995922, 1.040000081062317, 0.0, 0.0, 0.0, 0.0, 0.0, 1.6214333957476668E9, 2021-05-19 16:09:55.747
52.0, -64.15050506591797, -32.647457122802734, -58.32748031616211, -38.928619384765625, -0.09600000083446503, -0.01600000075995922, 1.040000081062317, 0.0, 0.0, 0.0, 0.0, 0.0, 1.6214333957476668E9, 2021-05-19 16:09:55.747
53.0, -36.21345138549805, -1.9877568483352661, -30.229610443115234, -14.540731430053711, -0.09600000083446503, -0.01600000075995922, 1.040000081062317, 0.0, 0.0, 0.0, 0.0, 0.0, 1.621433395762628E9, 2021-05-19 16:09:55.762
53.0, -24.395366668701172, 6.430757999420166, -14.843663215637207, -11.747025489807129, -0.09600000083446503, -0.01600000075995922, 1.040000081062317, 0.0, 0.0, 0.0, 0.0, 0.0, 1.621433395762628E9, 2021-05-19 16:09:55.762
54.0, -57.2017707824707, -31.34971046447754, -43.40153884887695, -42.39924621582031, -0.09600000083446503, -0.01600000075995922, 1.040000081062317, 0.0, 0.0, 0.0, 0.0, 0.0, 1.6214333957633927E9, 2021-05-19 16:09:55.763
54.0, -70.5831298828125, -34.39025115966797, -49.6434326171875, -48.57756042480469, -0.09600000083446503, -0.01600000075995922, 1.040000081062317, 0.0, 0.0, 0.0, 0.0, 0.0, 1.6214333957633927E9, 2021-05-19 16:09:55.763
55.0, -35.828243255615234, 7.541508197784424, -24.597322463989258, -21.38100814819336, -0.09600000083446503, -0.01600000075995922, 1.040000081062317, 0.0, 0.0, 0.0, 0.0, 0.0, 1.62143339577628E9, 2021-05-19 16:09:55.776
55.0, -17.659807205200195, 12.066786766052246, -1.0396921634674072, -8.61298942565918, -0.09600000083446503, -0.01600000075995922, 1.040000081062317, 0.0, 0.0, 0.0, 0.0, 0.0, 1.62143339577628E9, 2021-05-19 16:09:55.776
56.0, -53.83211898803711, -24.251380920410156, -34.36220169067383, -39.0445556640625, -0.09600000083446503, -0.01600000075995922, 1.040000081062317, 0.0, 0.0, 0.0, 0.0, 0.0, 1.621433395792335E9, 2021-05-19 16:09:55.792
56.0, -66.28972625732422, -36.095645904541016, -46.31492233276367, -48.26340866088867, -0.09600000083446503, -0.01600000075995922, 1.040000081062317, 0.0, 0.0, 0.0, 0.0, 0.0, 1.621433395792335E9, 2021-05-19 16:09:55.792
57.0, -36.69215774536133, -5.305047988891602, -27.74631690979004, -26.033443450927734, -0.09600000083446503, -0.01600000075995922, 1.040000081062317, 0.0, 0.0, 0.0, 0.0, 0.0, 1.6214333958069665E9, 2021-05-19 16:09:55.806
57.0, -23.509010314941406, 14.557560920715332, -4.457960605621338, -3.160215377807617, -0.09600000083446503, -0.01600000075995922, 1.040000081062317, 0.0, 0.0, 0.0, 0.0, 0.0, 1.6214333958069665E9, 2021-05-19 16:09:55.806
58.0, -54.80075454711914, -25.657583236694336, -37.83656692504883, -31.2917423248291, -0.09600000083446503, -0.01600000075995922, 1.040000081062317, 0.0, 0.0, 0.0, 0.0, 0.0, 1.621433395807791E9, 2021-05-19 16:09:55.807
58.0, -62.23941421508789, -32.20615005493164, -49.11984634399414, -34.8596076965332, -0.09600000083446503, -0.01600000075995922, 1.040000081062317, 0.0, 0.0, 0.0, 0.0, 0.0, 1.621433395807791E9, 2021-05-19 16:09:55.807
59.0, -32.34639358520508, 6.150265693664551, -25.90254783630371, -10.011712074279785, -0.09600000083446503, -0.01600000075995922, 1.040000081062317, 0.0, 0.0, 0.0, 0.0, 0.0, 1.621433395821991E9, 2021-05-19 16:09:55.821
59.0, -33.65536117553711, 0.8059484362602234, -19.32406234741211, -11.126202583312988, -0.09600000083446503, -0.01600000075995922, 1.040000081062317, 0.0, 0.0, 0.0, 0.0, 0.0, 1.621433395821991E9, 2021-05-19 16:09:55.821
60.0, -58.6865119934082, -29.820093154907227, -38.689266204833984, -36.16857147216797, -0.09600000083446503, -0.01600000075995922, 1.040000081062317, 0.0, 0.0, 0.0, 0.0, 0.0, 1.6214333958227513E9, 2021-05-19 16:09:55.822
60.0, -64.31131744384766, -36.42475509643555, -42.52640151977539, -42.71713638305664, -0.09600000083446503, -0.01600000075995922, 1.040000081062317, 0.0, 0.0, 0.0, 0.0, 0.0, 1.6214333958227513E9, 2021-05-19 16:09:55.822
61.0, -29.294635772705078, 3.498676300048828, -14.694067001342773, -6.167095184326172, -0.09600000083446503, -0.03200000151991844, 1.040000081062317, 0.0, 0.0, 0.0, 0.0, 0.0, 1.6214333958363347E9, 2021-05-19 16:09:55.836
61.0, -17.573789596557617, 6.329780578613281, -7.745332717895508, -4.652435779571533, -0.09600000083446503, -0.03200000151991844, 1.040000081062317, 0.0, 0.0, 0.0, 0.0, 0.0, 1.6214333958363347E9, 2021-05-19 16:09:55.836
62.0, -56.75672149658203, -40.73311996459961, -41.49419021606445, -36.17979049682617, -0.09600000083446503, -0.03200000151991844, 1.040000081062317, 0.0, 0.0, 0.0, 0.0, 0.0, 1.6214333958519387E9, 2021-05-19 16:09:55.851
62.0, -74.86905670166016, -51.06272506713867, -58.0656852722168, -48.63739776611328, -0.09600000083446503, -0.03200000151991844, 1.040000081062317, 0.0, 0.0, 0.0, 0.0, 0.0, 1.6214333958519387E9, 2021-05-19 16:09:55.851
63.0, -28.034290313720703, -0.27114275097846985, -21.57174301147461, -8.777544975280762, -0.09600000083446503, -0.03200000151991844, 1.040000081062317, 0.0, 0.0, 0.0, 0.0, 0.0, 1.6214333958526525E9, 2021-05-19 16:09:55.852
63.0, -16.08905029296875, 13.102739334106445, -7.853789806365967, 3.343470573425293, -0.09600000083446503, -0.03200000151991844, 1.040000081062317, 0.0, 0.0, 0.0, 0.0, 0.0, 1.6214333958526525E9, 2021-05-19 16:09:55.852
64.0, -55.46271514892578, -30.033266067504883, -38.6518669128418, -29.40683364868164, -0.09600000083446503, -0.03200000151991844, 1.040000081062317, 0.0, 0.0, 0.0, 0.0, 0.0, 1.6214333958663692E9, 2021-05-19 16:09:55.866
64.0, -59.688804626464844, -33.76194763183594, -47.68372344970703, -31.942485809326172, -0.09600000083446503, -0.03200000151991844, 1.040000081062317, 0.0, 0.0, 0.0, 0.0, 0.0, 1.6214333958663692E9, 2021-05-19 16:09:55.866
65.0, -35.64872741699219, -4.732843399047852, -23.07518196105957, -11.80312442779541, -0.09600000083446503, -0.03200000151991844, 1.040000081062317, 0.0, 0.0, 0.0, 0.0, 0.0, 1.6214333958819413E9, 2021-05-19 16:09:55.881
65.0, -22.775991439819336, 0.4282185435295105, -4.345763683319092, -3.7660791873931885, -0.09600000083446503, -0.03200000151991844, 1.040000081062317, 0.0, 0.0, 0.0, 0.0, 0.0, 1.6214333958819413E9, 2021-05-19 16:09:55.881
66.0, -61.7382698059082, -35.56831741333008, -32.60818862915039, -32.18183898925781, -0.09600000083446503, -0.03200000151991844, 1.040000081062317, 0.0, 0.0, 0.0, 0.0, 0.0, 1.6214333958826432E9, 2021-05-19 16:09:55.882
66.0, -76.1219253540039, -39.35309600830078, -49.04878616333008, -43.06494903564453, -0.09600000083446503, -0.03200000151991844, 1.040000081062317, 0.0, 0.0, 0.0, 0.0, 0.0, 1.6214333958826432E9, 2021-05-19 16:09:55.882
67.0, -30.648479461669922, 3.225663661956787, -15.105456352233887, -1.9148287773132324, -0.09600000083446503, -0.03200000151991844, 1.040000081062317, 0.0, 0.0, 0.0, 0.0, 0.0, 1.6214333959126246E9, 2021-05-19 16:09:55.912
67.0, -28.50177764892578, 1.9840168952941895, -15.479445457458496, 2.2626395225524902, -0.09600000083446503, -0.03200000151991844, 1.040000081062317, 0.0, 0.0, 0.0, 0.0, 0.0, 1.6214333959126246E9, 2021-05-19 16:09:55.912
68.0, -56.70810317993164, -25.17513656616211, -34.5379753112793, -24.48886489868164, -0.09600000083446503, -0.03200000151991844, 1.040000081062317, 0.0, 0.0, 0.0, 0.0, 0.0, 1.6214333959133875E9, 2021-05-19 16:09:55.913
68.0, -67.01900482177734, -40.31051254272461, -54.36692428588867, -39.867332458496094, -0.09600000083446503, -0.03200000151991844, 1.040000081062317, 0.0, 0.0, 0.0, 0.0, 0.0, 1.6214333959133875E9, 2021-05-19 16:09:55.913
69.0, -34.676353454589844, -3.038668632507324, -20.251558303833008, -7.629395961761475, -0.09600000083446503, -0.03200000151991844, 1.040000081062317, 0.0, 0.0, 0.0, 0.0, 0.0, 1.6214333959141681E9, 2021-05-19 16:09:55.914
69.0, -21.998090744018555, 4.250396251678467, -9.731219291687012, 1.742793321609497, -0.09600000083446503, -0.03200000151991844, 1.040000081062317, 0.0, 0.0, 0.0, 0.0, 0.0, 1.6214333959141681E9, 2021-05-19 16:09:55.914
70.0, -52.94202423095703, -39.427894592285156, -42.96023178100586, -29.97903823852539, -0.09600000083446503, -0.03200000151991844, 1.040000081062317, 0.0, 0.0, 0.0, 0.0, 0.0, 1.6214333959263856E9, 2021-05-19 16:09:55.926
70.0, -54.89799118041992, -37.853397369384766, -49.29936218261719, -28.688772201538086, -0.09600000083446503, -0.03200000151991844, 1.040000081062317, 0.0, 0.0, 0.0, 0.0, 0.0, 1.6214333959263856E9, 2021-05-19 16:09:55.926
71.0, -27.005817413330078, -7.107679843902588, -20.113182067871094, -5.254559516906738, -0.09600000083446503, -0.03200000151991844, 1.040000081062317, 0.0, 0.0, 0.0, 0.0, 0.0, 1.621433395959088E9, 2021-05-19 16:09:55.959
71.0, -19.76911163330078, 8.719576835632324, -1.2416467666625977, 2.610450267791748, -0.09600000083446503, -0.03200000151991844, 1.040000081062317, 0.0, 0.0, 0.0, 0.0, 0.0, 1.621433395959088E9, 2021-05-19 16:09:55.959
