Sample Index, EXG Channel 0, EXG Channel 1, EXG Channel 2, EXG Channel 3, Accel Channel 0, Accel Channel 1, Accel Channel 2, Other, Other, Other, Other, Other, Timestamp, Timestamp (Formatted)
0.0, -67.74080657958984, -28.6102352142334, -60.535892486572266, -35.59449768066406, 0.0, 0.0, 0.0, 0.0, 0.0, 0.0, 0.0, 0.0, 1.6214327628320415E9, 2021-05-19 15:59:22.832
1.0, -57.29526901245117, -5.912781715393066, -45.99515914916992, -9.78544807434082, 0.0, -0.03200000151991844, 0.0, 0.0, 0.0, 0.0, 0.0, 0.0, 1.621432762845264E9, 2021-05-19 15:59:22.845
1.0, -27.974451065063477, 25.356521606445312, -24.77870750427246, 15.960022926330566, 0.0, -0.03200000151991844, 0.0, 0.0, 0.0, 0.0, 0.0, 0.0, 1.621432762845264E9, 2021-05-19 15:59:22.845
0.0, -67.74080657958984, -28.6102352142334, -60.535892486572266, -35.59449768066406, 0.0, -0.03200000151991844, 0.0, 0.0, 0.0, 0.0, 0.0, 0.0, 1.6214327628320415E9, 2021-05-19 15:59:22.832
3.0, -40.85092544555664, -12.81663703918457, -43.0181999206543, -12.545494079589844, 0.0, -0.03200000151991844, 0.0, 0.0, 0.0, 0.0, 0.0, 0.0, 1.6214327628634756E9, 2021-05-19 15:59:22.863
3.0, -28.187625885009766, 16.0740909576416, -17.964609146118164, 4.863739967346191, 0.0, -0.03200000151991844, 0.0, 0.0, 0.0, 0.0, 0.0, 0.0, 1.6214327628634756E9, 2021-05-19 15:59:22.863
4.0, -52.523155212402344, -4.903008937835693, -33.642269134521484, -15.316760063171387, 0.0, -0.03200000151991844, 0.0, 0.0, 0.0, 0.0, 0.0, 0.0, 1.6214327628750336E9, 2021-05-19 15:59:22.875
4.0, -60.27596664428711, -24.05877685546875, -53.73301315307617, -27.34427833557129, 0.0, -0.03200000151991844, 0.0, 0.0, 0.0, 0.0, 0.0, 0.0, 1.6214327628750336E9, 2021-05-19 15:59:22.875
5.0, -46.565494537353516, -1.5557984113693237, -46.51874542236328, -7.792081356048584, 0.0, -0.03200000151991844, 0.0, 0.0, 0.0, 0.0, 0.0, 0.0, 1.6214327628908076E9, 2021-05-19 15:59:22.890
5.0, -20.980838775634766, 26.175559997558594, -24.228940963745117, 5.503262996673584, 0.0, -0.03200000151991844, 0.0, 0.0, 0.0, 0.0, 0.0, 0.0, 1.6214327628908076E9, 2021-05-19 15:59:22.890
6.0, -44.66936492919922, -7.382562637329102, -41.87004852294922, -9.733089447021484, 0.0, -0.03200000151991844, 0.0, 0.0, 0.0, 0.0, 0.0, 0.0, 1.6214327628914647E9, 2021-05-19 15:59:22.891
6.0, -57.50844192504883, -23.254697799682617, -54.83628463745117, -23.342586517333984, 0.0, -0.03200000151991844, 0.0, 0.0, 0.0, 0.0, 0.0, 0.0, 1.6214327628914647E9, 2021-05-19 15:59:22.891
7.0, -47.36209487915039, 3.672581672668457, -40.523685455322266, -0.8620469570159912, 0.0, -0.03200000151991844, 0.0, 0.0, 0.0, 0.0, 0.0, 0.0, 1.6214327629051273E9, 2021-05-19 15:59:22.905
7.0, -28.606494903564453, 12.289311408996582, -28.37649154663086, 5.443424224853516, 0.0, -0.03200000151991844, 0.0, 0.0, 0.0, 0.0, 0.0, 0.0, 1.6214327629051273E9, 2021-05-19 15:59:22.905
8.0, -43.76804733276367, 3.938114643096924, -36.02458572387695, -3.2368834018707275, 0.0, -0.03200000151991844, 0.0, 0.0, 0.0, 0.0, 0.0, 0.0, 1.6214327629204366E9, 2021-05-19 15:59:22.920
8.0, -66.51412200927734, -19.264225006103516, -57.05778503417969, -22.613304138183594, 0.0, -0.03200000151991844, 0.0, 0.0, 0.0, 0.0, 0.0, 0.0, 1.6214327629204366E9, 2021-05-19 15:59:22.920
9.0, -46.2625617980957, 3.8969757556915283, -40.194576263427734, -8.442824363708496, 0.0, -0.03200000151991844, 0.0, 0.0, 0.0, 0.0, 0.0, 0.0, 1.621432762935773E9, 2021-05-19 15:59:22.935
9.0, -30.094974517822266, 23.3220157623291, -14.228449821472168, 11.27392864227295, 0.0, -0.03200000151991844, 0.0, 0.0, 0.0, 0.0, 0.0, 0.0, 1.621432762935773E9, 2021-05-19 15:59:22.935
10.0, -53.73488235473633, -9.102916717529297, -32.36696243286133, -5.533182144165039, 0.0, -0.03200000151991844, 1.040000081062317, 0.0, 0.0, 0.0, 0.0, 0.0, 1.6214327629365532E9, 2021-05-19 15:59:22.936
10.0, -67.59869384765625, -34.31358337402344, -50.52791976928711, -29.292766571044922, 0.0, -0.03200000151991844, 1.040000081062317, 0.0, 0.0, 0.0, 0.0, 0.0, 1.6214327629365532E9, 2021-05-19 15:59:22.936
11.0, -48.03153610229492, -0.508626401424408, -45.6585693359375, -8.334366798400879, 0.0, -0.03200000151991844, 1.040000081062317, 0.0, 0.0, 0.0, 0.0, 0.0, 1.6214327629507768E9, 2021-05-19 15:59:22.950
11.0, -18.49754524230957, 27.716398239135742, -28.836498260498047, 14.075113296508789, 0.0, -0.03200000151991844, 1.040000081062317, 0.0, 0.0, 0.0, 0.0, 0.0, 1.6214327629507768E9, 2021-05-19 15:59:22.950
12.0, -48.513980865478516, -4.760892868041992, -43.28373336791992, -4.564548015594482, -0.09600000083446503, -0.03200000151991844, 1.040000081062317, 0.0, 0.0, 0.0, 0.0, 0.0, 1.6214327629514403E9, 2021-05-19 15:59:22.951
12.0, -65.95687866210938, -32.533390045166016, -63.06780242919922, -26.8842716217041, -0.09600000083446503, -0.03200000151991844, 1.040000081062317, 0.0, 0.0, 0.0, 0.0, 0.0, 1.6214327629514403E9, 2021-05-19 15:59:22.951
13.0, -38.921138763427734, -16.691173553466797, -48.08576202392578, -6.292381763458252, -0.09600000083446503, -0.03200000151991844, 1.040000081062317, 0.0, 0.0, 0.0, 0.0, 0.0, 1.621432762965036E9, 2021-05-19 15:59:22.965
13.0, -28.019330978393555, 15.969372749328613, -21.566133499145508, 15.563593864440918, -0.09600000083446503, -0.03200000151991844, 1.040000081062317, 0.0, 0.0, 0.0, 0.0, 0.0, 1.621432762965036E9, 2021-05-19 15:59:22.965
14.0, -38.405033111572266, -2.2701191902160645, -45.407997131347656, -8.016475677490234, -0.09600000083446503, -0.03200000151991844, 1.040000081062317, 0.0, 0.0, 0.0, 0.0, 0.0, 1.6214327629972863E9, 2021-05-19 15:59:22.997
14.0, -73.54138946533203, -22.08036994934082, -69.43311309814453, -36.29385757446289, -0.09600000083446503, -0.03200000151991844, 1.040000081062317, 0.0, 0.0, 0.0, 0.0, 0.0, 1.6214327629972863E9, 2021-05-19 15:59:22.997
15.0, -38.446170806884766, -14.8623628616333, -48.927242279052734, -9.942523956298828, -0.09600000083446503, -0.03200000151991844, 1.040000081062317, 0.0, 0.0, 0.0, 0.0, 0.0, 1.6214327629977827E9, 2021-05-19 15:59:22.997
15.0, -25.60709571838379, 22.97794532775879, -25.751081466674805, 11.539461135864258, -0.09600000083446503, -0.03200000151991844, 1.040000081062317, 0.0, 0.0, 0.0, 0.0, 0.0, 1.6214327629977827E9, 2021-05-19 15:59:22.997
16.0, -40.413360595703125, 9.570404052734375, -37.000701904296875, -6.483116626739502, -0.09600000083446503, -0.03200000151991844, 1.040000081062317, 0.0, 0.0, 0.0, 0.0, 0.0, 1.621432762998538E9, 2021-05-19 15:59:22.998
16.0, -75.85265350341797, -7.0534515380859375, -63.763423919677734, -33.847965240478516, -0.09600000083446503, -0.03200000151991844, 1.040000081062317, 0.0, 0.0, 0.0, 0.0, 0.0, 1.621432762998538E9, 2021-05-19 15:59:22.998
17.0, -51.46476364135742, -0.5123662948608398, -49.24513244628906, -10.735383033752441, -0.09600000083446503, -0.03200000151991844, 1.040000081062317, 0.0, 0.0, 0.0, 0.0, 0.0, 1.621432762999284E9, 2021-05-19 15:59:22.999
17.0, -18.56112289428711, 20.726526260375977, -23.630558013916016, 8.300707817077637, -0.09600000083446503, -0.03200000151991844, 1.040000081062317, 0.0, 0.0, 0.0, 0.0, 0.0, 1.621432762999284E9, 2021-05-19 15:59:22.999
18.0, -50.11465835571289, -2.423455238342285, -45.55010986328125, -14.6921968460083, -0.09600000083446503, -0.03200000151991844, 1.040000081062317, 0.0, 0.0, 0.0, 0.0, 0.0, 1.621432763010072E9, 2021-05-19 15:59:23.010
18.0, -79.03156280517578, -23.475351333618164, -66.1569595336914, -34.278053283691406, -0.09600000083446503, -0.03200000151991844, 1.040000081062317, 0.0, 0.0, 0.0, 0.0, 0.0, 1.621432763010072E9, 2021-05-19 15:59:23.010
19.0, -39.392364501953125, -5.897822380065918, -46.64590072631836, -9.65455150604248, -0.09600000083446503, -0.03200000151991844, 1.040000081062317, 0.0, 0.0, 0.0, 0.0, 0.0, 1.6214327630252335E9, 2021-05-19 15:59:23.025
19.0, -14.357476234436035, 30.82799530029297, -19.284793853759766, 19.49422836303711, -0.09600000083446503, -0.03200000151991844, 1.040000081062317, 0.0, 0.0, 0.0, 0.0, 0.0, 1.6214327630252335E9, 2021-05-19 15:59:23.025
20.0, -52.91584396362305, -12.25565242767334, -42.382415771484375, -3.5136361122131348, -0.09600000083446503, -0.03200000151991844, 1.055999994277954, 0.0, 0.0, 0.0, 0.0, 0.0, 1.6214327630411587E9, 2021-05-19 15:59:23.041
20.0, -73.59001159667969, -28.53917694091797, -60.89118194580078, -23.95218849182129, -0.09600000083446503, -0.03200000151991844, 1.055999994277954, 0.0, 0.0, 0.0, 0.0, 0.0, 1.6214327630411587E9, 2021-05-19 15:59:23.041
21.0, -38.84260177612305, -7.064671039581299, -51.7321662902832, 1.0752211809158325, -0.09600000083446503, -0.01600000075995922, 1.055999994277954, 0.0, 0.0, 0.0, 0.0, 0.0, 1.6214327630558684E9, 2021-05-19 15:59:23.055
21.0, -24.03633689880371, 8.908441543579102, -35.500999450683594, 6.778568744659424, -0.09600000083446503, -0.01600000075995922, 1.055999994277954, 0.0, 0.0, 0.0, 0.0, 0.0, 1.6214327630558684E9, 2021-05-19 15:59:23.055
22.0, -54.29212951660156, -9.656421661376953, -49.05439758300781, -21.8316650390625, -0.09600000083446503, -0.01600000075995922, 1.055999994277954, 0.0, 0.0, 0.0, 0.0, 0.0, 1.621432763056668E9, 2021-05-19 15:59:23.056
22.0, -60.84443283081055, -34.64643478393555, -60.621910095214844, -33.316898345947266, -0.09600000083446503, -0.01600000075995922, 1.055999994277954, 0.0, 0.0, 0.0, 0.0, 0.0, 1.621432763056668E9, 2021-05-19 15:59:23.056
23.0, -44.01862335205078, -10.726033210754395, -47.5958366394043, -9.72560977935791, -0.09600000083446503, -0.01600000075995922, 1.055999994277954, 0.0, 0.0, 0.0, 0.0, 0.0, 1.6214327630707524E9, 2021-05-19 15:59:23.070
23.0, -20.11692237854004, 28.187625885009766, -20.417984008789062, 16.954835891723633, -0.09600000083446503, -0.01600000075995922, 1.055999994277954, 0.0, 0.0, 0.0, 0.0, 0.0, 1.6214327630707524E9, 2021-05-19 15:59:23.070
24.0, -44.650665283203125, -2.5356521606445312, -43.769920349121094, -5.114313125610352, -0.09600000083446503, -0.01600000075995922, 1.055999994277954, 0.0, 0.0, 0.0, 0.0, 0.0, 1.6214327630714712E9, 2021-05-19 15:59:23.071
24.0, -62.89015579223633, -28.793489456176758, -60.378814697265625, -24.29252052307129, -0.09600000083446503, -0.01600000075995922, 1.055999994277954, 0.0, 0.0, 0.0, 0.0, 0.0, 1.6214327630714712E9, 2021-05-19 15:59:23.071
25.0, -44.98725509643555, -4.929188251495361, -44.36456298828125, 0.6563524603843689, -0.09600000083446503, -0.01600000075995922, 1.055999994277954, 0.0, 0.0, 0.0, 0.0, 0.0, 1.621432763102115E9, 2021-05-19 15:59:23.102
25.0, -19.114627838134766, 15.262531280517578, -22.07849884033203, 6.314821243286133, -0.09600000083446503, -0.01600000075995922, 1.055999994277954, 0.0, 0.0, 0.0, 0.0, 0.0, 1.621432763102115E9, 2021-05-19 15:59:23.102
26.0, -44.63570785522461, -9.761138916015625, -30.964502334594727, -7.429311275482178, -0.09600000083446503, -0.01600000075995922, 1.055999994277954, 0.0, 0.0, 0.0, 0.0, 0.0, 1.621432763102808E9, 2021-05-19 15:59:23.102
26.0, -62.8714599609375, -24.402847290039062, -50.91312789916992, -29.57699966430664, -0.09600000083446503, -0.01600000075995922, 1.055999994277954, 0.0, 0.0, 0.0, 0.0, 0.0, 1.621432763102808E9, 2021-05-19 15:59:23.102
27.0, -45.125633239746094, -13.418761253356934, -41.82891082763672, -14.636098861694336, -0.09600000083446503, -0.01600000075995922, 1.055999994277954, 0.0, 0.0, 0.0, 0.0, 0.0, 1.6214327631035612E9, 2021-05-19 15:59:23.103
27.0, -19.80651092529297, 0.40764909982681274, -25.4294490814209, 9.359099388122559, -0.09600000083446503, -0.01600000075995922, 1.055999994277954, 0.0, 0.0, 0.0, 0.0, 0.0, 1.6214327631035612E9, 2021-05-19 15:59:23.103
28.0, -45.02839660644531, 5.060084819793701, -39.427894592285156, -5.106833457946777, -0.09600000083446503, -0.01600000075995922, 1.055999994277954, 0.0, 0.0, 0.0, 0.0, 0.0, 1.6214327631150365E9, 2021-05-19 15:59:23.115
28.0, -68.32049560546875, -30.48018455505371, -68.47570037841797, -22.964855194091797, -0.09600000083446503, -0.01600000075995922, 1.055999994277954, 0.0, 0.0, 0.0, 0.0, 0.0, 1.6214327631150365E9, 2021-05-19 15:59:23.115
29.0, -45.084495544433594, -5.841723918914795, -50.71491241455078, 4.489749908447266, -0.09600000083446503, -0.01600000075995922, 1.055999994277954, 0.0, 0.0, 0.0, 0.0, 0.0, 1.621432763130705E9, 2021-05-19 15:59:23.130
29.0, -20.446033477783203, 19.77659034729004, -26.87679100036621, 17.272727966308594, -0.09600000083446503, -0.01600000075995922, 1.055999994277954, 0.0, 0.0, 0.0, 0.0, 0.0, 1.621432763130705E9, 2021-05-19 15:59:23.130
30.0, -39.68033981323242, -8.500792503356934, -40.359130859375, -8.360546112060547, -0.09600000083446503, -0.01600000075995922, 1.055999994277954, 0.0, 0.0, 0.0, 0.0, 0.0, 1.6214327631314237E9, 2021-05-19 15:59:23.131
30.0, -50.05855941772461, -20.46099281311035, -52.80177688598633, -31.62646484375, -0.09600000083446503, -0.01600000075995922, 1.055999994277954, 0.0, 0.0, 0.0, 0.0, 0.0, 1.6214327631314237E9, 2021-05-19 15:59:23.131
31.0, -46.43459701538086, -1.062131643295288, -32.0602912902832, -6.763608932495117, -0.09600000083446503, -0.03200000151991844, 1.055999994277954, 0.0, 0.0, 0.0, 0.0, 0.0, 1.6214327631614847E9, 2021-05-19 15:59:23.161
31.0, -14.028365135192871, 14.581870079040527, -18.892105102539062, 9.90512466430664, -0.09600000083446503, -0.03200000151991844, 1.055999994277954, 0.0, 0.0, 0.0, 0.0, 0.0, 1.6214327631614847E9, 2021-05-19 15:59:23.161
32.0, -34.56415557861328, -11.152381896972656, -45.42295455932617, -13.996575355529785, -0.1120000034570694, -0.03200000151991844, 1.055999994277954, 0.0, 0.0, 0.0, 0.0, 0.0, 1.621432763162299E9, 2021-05-19 15:59:23.162
32.0, -64.85734558105469, -17.45037269592285, -61.84485626220703, -25.496767044067383, -0.1120000034570694, -0.03200000151991844, 1.055999994277954, 0.0, 0.0, 0.0, 0.0, 0.0, 1.621432763162299E9, 2021-05-19 15:59:23.162
33.0, -44.7142448425293, -8.534451484680176, -52.5549430847168, -2.0176761150360107, -0.1120000034570694, -0.03200000151991844, 1.055999994277954, 0.0, 0.0, 0.0, 0.0, 0.0, 1.621432763162923E9, 2021-05-19 15:59:23.162
33.0, -25.472457885742188, 3.4706270694732666, -30.80742645263672, 14.864232063293457, -0.1120000034570694, -0.03200000151991844, 1.055999994277954, 0.0, 0.0, 0.0, 0.0, 0.0, 1.621432763162923E9, 2021-05-19 15:59:23.162
34.0, -37.32794189453125, -0.34033089876174927, -34.43138885498047, 1.6249865293502808, -0.1120000034570694, -0.03200000151991844, 1.055999994277954, 0.0, 0.0, 0.0, 0.0, 0.0, 1.621432763175007E9, 2021-05-19 15:59:23.175
34.0, -64.180419921875, -13.796490669250488, -44.8657112121582, -11.12059211730957, -0.1120000034570694, -0.03200000151991844, 1.055999994277954, 0.0, 0.0, 0.0, 0.0, 0.0, 1.621432763175007E9, 2021-05-19 15:59:23.175
35.0, -42.077613830566406, -3.7959985733032227, -37.326072692871094, 4.220477104187012, -0.1120000034570694, -0.03200000151991844, 1.055999994277954, 0.0, 0.0, 0.0, 0.0, 0.0, 1.621432763190822E9, 2021-05-19 15:59:23.190
35.0, -30.345548629760742, 35.293434143066406, -25.86701774597168, 15.365379333496094, -0.1120000034570694, -0.03200000151991844, 1.055999994277954, 0.0, 0.0, 0.0, 0.0, 0.0, 1.621432763190822E9, 2021-05-19 15:59:23.190
36.0, -49.53497314453125, -7.117029666900635, -50.63263702392578, 0.734890341758728, -0.1120000034570694, -0.03200000151991844, 1.055999994277954, 0.0, 0.0, 0.0, 0.0, 0.0, 1.6214327631915307E9, 2021-05-19 15:59:23.191
36.0, -75.16451263427734, -23.74088478088379, -77.68707275390625, -19.11275863647461, -0.1120000034570694, -0.03200000151991844, 1.055999994277954, 0.0, 0.0, 0.0, 0.0, 0.0, 1.6214327631915307E9, 2021-05-19 15:59:23.191
37.0, -47.186317443847656, 9.087956428527832, -64.45156860351562, -7.717283725738525, -0.1120000034570694, -0.03200000151991844, 1.055999994277954, 0.0, 0.0, 0.0, 0.0, 0.0, 1.6214327632216835E9, 2021-05-19 15:59:23.221
37.0, -32.82136154174805, 27.20403289794922, -35.72913360595703, 13.858199119567871, -0.1120000034570694, -0.03200000151991844, 1.055999994277954, 0.0, 0.0, 0.0, 0.0, 0.0, 1.6214327632216835E9, 2021-05-19 15:59:23.221
38.0, -45.66417694091797, 1.6792150735855103, -43.710079193115234, -7.691104412078857, -0.1120000034570694, -0.03200000151991844, 1.055999994277954, 0.0, 0.0, 0.0, 0.0, 0.0, 1.621432763250516E9, 2021-05-19 15:59:23.250
38.0, -71.80607604980469, -29.649927139282227, -63.8980598449707, -34.87269592285156, -0.1120000034570694, -0.03200000151991844, 1.055999994277954, 0.0, 0.0, 0.0, 0.0, 0.0, 1.621432763250516E9, 2021-05-19 15:59:23.250
39.0, -45.95589065551758, 8.212820053100586, -38.11518859863281, -12.747448921203613, -0.1120000034570694, -0.03200000151991844, 1.055999994277954, 0.0, 0.0, 0.0, 0.0, 0.0, 1.6214327632684243E9, 2021-05-19 15:59:23.268
39.0, -23.729665756225586, 28.38957977294922, -20.93408966064453, 0.9218853116035461, -0.1120000034570694, -0.03200000151991844, 1.055999994277954, 0.0, 0.0, 0.0, 0.0, 0.0, 1.6214327632684243E9, 2021-05-19 15:59:23.268
40.0, -36.579959869384766, 7.565817832946777, -37.7187614440918, -20.83685302734375, -0.1120000034570694, -0.03200000151991844, 1.055999994277954, 0.0, 0.0, 0.0, 0.0, 0.0, 1.6214327632691777E9, 2021-05-19 15:59:23.269
40.0, -52.16412353515625, -23.995197296142578, -60.40499496459961, -37.99177551269531, -0.1120000034570694, -0.03200000151991844, 1.055999994277954, 0.0, 0.0, 0.0, 0.0, 0.0, 1.6214327632691777E9, 2021-05-19 15:59:23.269
41.0, -31.2805233001709, -3.257452964782715, -44.81709289550781, -16.876298904418945, -0.1120000034570694, -0.03200000151991844, 1.055999994277954, 0.0, 0.0, 0.0, 0.0, 0.0, 1.6214327632698948E9, 2021-05-19 15:59:23.269
41.0, -16.291004180908203, 21.956953048706055, -21.869064331054688, 17.32508659362793, -0.1120000034570694, -0.03200000151991844, 1.055999994277954, 0.0, 0.0, 0.0, 0.0, 0.0, 1.6214327632698948E9, 2021-05-19 15:59:23.269
42.0, -47.73234176635742, -10.539037704467773, -43.98309326171875, -4.1045403480529785, -0.1120000034570694, -0.03200000151991844, 1.055999994277954, 0.0, 0.0, 0.0, 0.0, 0.0, 1.6214327632706313E9, 2021-05-19 15:59:23.270
42.0, -71.17403411865234, -22.19256591796875, -62.764869689941406, -14.88293170928955, -0.1120000034570694, -0.03200000151991844, 1.055999994277954, 0.0, 0.0, 0.0, 0.0, 0.0, 1.6214327632706313E9, 2021-05-19 15:59:23.270
43.0, -50.73548126220703, 0.17951519787311554, -56.713714599609375, -2.1485724449157715, -0.1120000034570694, -0.03200000151991844, 1.055999994277954, 0.0, 0.0, 0.0, 0.0, 0.0, 1.62143276328143E9, 2021-05-19 15:59:23.281
43.0, -31.97988510131836, 32.51095199584961, -32.411842346191406, 24.528133392333984, -0.1120000034570694, -0.03200000151991844, 1.055999994277954, 0.0, 0.0, 0.0, 0.0, 0.0, 1.62143276328143E9, 2021-05-19 15:59:23.281
44.0, -39.444725036621094, 9.394628524780273, -51.679805755615234, 1.8830395936965942, -0.1120000034570694, -0.03200000151991844, 1.055999994277954, 0.0, 0.0, 0.0, 0.0, 0.0, 1.6214327632821455E9, 2021-05-19 15:59:23.282
44.0, -71.73876190185547, -16.6612548828125, -84.20198059082031, -31.854597091674805, -0.1120000034570694, -0.03200000151991844, 1.055999994277954, 0.0, 0.0, 0.0, 0.0, 0.0, 1.6214327632821455E9, 2021-05-19 15:59:23.282
45.0, -48.25218963623047, -0.4749673008918762, -67.320068359375, -4.830080986022949, -0.1120000034570694, -0.03200000151991844, 1.055999994277954, 0.0, 0.0, 0.0, 0.0, 0.0, 1.621432763282902E9, 2021-05-19 15:59:23.282
45.0, -32.60444641113281, 17.038984298706055, -43.85593795776367, 7.3395538330078125, -0.1120000034570694, -0.03200000151991844, 1.055999994277954, 0.0, 0.0, 0.0, 0.0, 0.0, 1.621432763282902E9, 2021-05-19 15:59:23.282
46.0, -54.2322883605957, -12.835336685180664, -55.038238525390625, -16.543447494506836, -0.1120000034570694, -0.03200000151991844, 1.055999994277954, 0.0, 0.0, 0.0, 0.0, 0.0, 1.621432763295015E9, 2021-05-19 15:59:23.295
46.0, -58.05820846557617, -21.97565269470215, -62.001930236816406, -30.33993911743164, -0.1120000034570694, -0.03200000151991844, 1.055999994277954, 0.0, 0.0, 0.0, 0.0, 0.0, 1.621432763295015E9, 2021-05-19 15:59:23.295
47.0, -53.46561050415039, 0.30293190479278564, -54.466033935546875, -17.852413177490234, -0.1120000034570694, -0.03200000151991844, 1.055999994277954, 0.0, 0.0, 0.0, 0.0, 0.0, 1.6214327633106709E9, 2021-05-19 15:59:23.310
47.0, -29.474151611328125, 18.692020416259766, -38.10396957397461, -3.2406232357025146, -0.1120000034570694, -0.03200000151991844, 1.055999994277954, 0.0, 0.0, 0.0, 0.0, 0.0, 1.6214327633106709E9, 2021-05-19 15:59:23.310
48.0, -49.228302001953125, -6.881415843963623, -53.16828918457031, -23.67543601989746, -0.1120000034570694, -0.03200000151991844, 1.055999994277954, 0.0, 0.0, 0.0, 0.0, 0.0, 1.6214327633113878E9, 2021-05-19 15:59:23.311
48.0, -60.96784973144531, -23.96527862548828, -65.33792114257812, -42.83494567871094, -0.1120000034570694, -0.03200000151991844, 1.055999994277954, 0.0, 0.0, 0.0, 0.0, 0.0, 1.6214327633113878E9, 2021-05-19 15:59:23.311
49.0, -36.02645492553711, 8.055744171142578, -37.090457916259766, -23.00599479675293, -0.1120000034570694, -0.03200000151991844, 1.055999994277954, 0.0, 0.0, 0.0, 0.0, 0.0, 1.6214327633412056E9, 2021-05-19 15:59:23.341
49.0, -9.346010208129883, 24.30561065673828, -21.072465896606445, -1.9391381740570068, -0.1120000034570694, -0.03200000151991844, 1.055999994277954, 0.0, 0.0, 0.0, 0.0, 0.0, 1.6214327633412056E9, 2021-05-19 15:59:23.341
50.0, -42.1075325012207, -8.437213897705078, -42.07574462890625, -12.369719505310059, -0.1120000034570694, -0.03200000151991844, 1.040000081062317, 0.0, 0.0, 0.0, 0.0, 0.0, 1.6214327633418753E9, 2021-05-19 15:59:23.341
50.0, -67.41169738769531, -22.944286346435547, -60.8463020324707, -21.715728759765625, -0.1120000034570694, -0.03200000151991844, 1.040000081062317, 0.0, 0.0, 0.0, 0.0, 0.0, 1.6214327633418753E9, 2021-05-19 15:59:23.341
51.0, -43.596012115478516, -5.718307018280029, -48.81130599975586, -0.360900342464447, -0.1120000034570694, -0.03200000151991844, 1.040000081062317, 0.0, 0.0, 0.0, 0.0, 0.0, 1.6214327633557537E9, 2021-05-19 15:59:23.355
51.0, -17.166141510009766, 15.692620277404785, -31.4619083404541, 24.70016860961914, -0.1120000034570694, -0.03200000151991844, 1.040000081062317, 0.0, 0.0, 0.0, 0.0, 0.0, 1.6214327633557537E9, 2021-05-19 15:59:23.355
52.0, -50.428810119628906, -13.964786529541016, -55.28133010864258, -1.7932820320129395, -0.1120000034570694, -0.03200000151991844, 1.040000081062317, 0.0, 0.0, 0.0, 0.0, 0.0, 1.6214327633564575E9, 2021-05-19 15:59:23.356
52.0, -61.64850997924805, -19.99724578857422, -63.101463317871094, -17.287687301635742, -0.1120000034570694, -0.03200000151991844, 1.040000081062317, 0.0, 0.0, 0.0, 0.0, 0.0, 1.6214327633564575E9, 2021-05-19 15:59:23.356
53.0, -52.45583724975586, -0.16081570088863373, -47.075992584228516, 2.4963831901550293, -0.1120000034570694, -0.03200000151991844, 1.040000081062317, 0.0, 0.0, 0.0, 0.0, 0.0, 1.6214327633711772E9, 2021-05-19 15:59:23.371
53.0, -43.49503707885742, 17.82810401916504, -35.75905227661133, 11.4646635055542, -0.1120000034570694, -0.03200000151991844, 1.040000081062317, 0.0, 0.0, 0.0, 0.0, 0.0, 1.6214327633711772E9, 2021-05-19 15:59:23.371
54.0, -55.79930877685547, -6.12221622467041, -41.17068862915039, -0.7573297619819641, -0.1120000034570694, -0.03200000151991844, 1.040000081062317, 0.0, 0.0, 0.0, 0.0, 0.0, 1.6214327633871884E9, 2021-05-19 15:59:23.387
54.0, -64.00838470458984, -21.777437210083008, -54.09952163696289, -20.78823471069336, -0.1120000034570694, -0.03200000151991844, 1.040000081062317, 0.0, 0.0, 0.0, 0.0, 0.0, 1.6214327633871884E9, 2021-05-19 15:59:23.387
55.0, -48.431705474853516, -0.48992690443992615, -53.53479766845703, -12.463216781616211, -0.1120000034570694, -0.03200000151991844, 1.040000081062317, 0.0, 0.0, 0.0, 0.0, 0.0, 1.6214327633877804E9, 2021-05-19 15:59:23.387
55.0, -34.51179504394531, 16.9080867767334, -49.65652084350586, 5.974490165710449, -0.1120000034570694, -0.03200000151991844, 1.040000081062317, 0.0, 0.0, 0.0, 0.0, 0.0, 1.6214327633877804E9, 2021-05-19 15:59:23.387
56.0, -50.802799224853516, -4.611296653747559, -59.64205551147461, -24.47577476501465, -0.1120000034570694, -0.03200000151991844, 1.040000081062317, 0.0, 0.0, 0.0, 0.0, 0.0, 1.6214327633885553E9, 2021-05-19 15:59:23.388
56.0, -56.891357421875, -33.27389144897461, -61.54940414428711, -35.93482971191406, -0.1120000034570694, -0.03200000151991844, 1.040000081062317, 0.0, 0.0, 0.0, 0.0, 0.0, 1.6214327633885553E9, 2021-05-19 15:59:23.388
57.0, -35.42807388305664, 9.873335838317871, -35.28782653808594, -14.284547805786133, -0.1120000034570694, -0.03200000151991844, 1.040000081062317, 0.0, 0.0, 0.0, 0.0, 0.0, 1.6214327634000697E9, 2021-05-19 15:59:23.400
57.0, -24.256990432739258, 10.26976490020752, -22.112157821655273, -11.752635955810547, -0.1120000034570694, -0.03200000151991844, 1.040000081062317, 0.0, 0.0, 0.0, 0.0, 0.0, 1.6214327634000697E9, 2021-05-19 15:59:23.400
58.0, -40.76490783691406, -17.09882354736328, -36.38361740112305, -27.3068790435791, -0.1120000034570694, -0.03200000151991844, 1.040000081062317, 0.0, 0.0, 0.0, 0.0, 0.0, 1.621432763414986E9, 2021-05-19 15:59:23.414
58.0, -53.84708023071289, -37.20078659057617, -51.53395080566406, -42.614288330078125, -0.1120000034570694, -0.03200000151991844, 1.040000081062317, 0.0, 0.0, 0.0, 0.0, 0.0, 1.621432763414986E9, 2021-05-19 15:59:23.414
59.0, -37.544857025146484, -2.6515891551971436, -48.81130599975586, -23.080793380737305, -0.1120000034570694, -0.03200000151991844, 1.040000081062317, 0.0, 0.0, 0.0, 0.0, 0.0, 1.621432763461812E9, 2021-05-19 15:59:23.461
59.0, -13.407541275024414, 16.51165771484375, -29.51342010498047, 5.619199752807617, -0.1120000034570694, -0.03200000151991844, 1.040000081062317, 0.0, 0.0, 0.0, 0.0, 0.0, 1.621432763461812E9, 2021-05-19 15:59:23.461
60.0, -48.513980865478516, -16.156368255615234, -49.04691696166992, -11.595560073852539, -0.1120000034570694, -0.03200000151991844, 1.055999994277954, 0.0, 0.0, 0.0, 0.0, 0.0, 1.62143276346253E9, 2021-05-19 15:59:23.462
60.0, -55.365478515625, -29.844402313232422, -56.83338928222656, -20.331966400146484, -0.1120000034570694, -0.03200000151991844, 1.055999994277954, 0.0, 0.0, 0.0, 0.0, 0.0, 1.62143276346253E9, 2021-05-19 15:59:23.462
61.0, -44.26545715332031, -8.145502090454102, -51.01410675048828, -0.0317891500890255, -0.1120000034570694, -0.03200000151991844, 1.055999994277954, 0.0, 0.0, 0.0, 0.0, 0.0, 1.6214327634775395E9, 2021-05-19 15:59:23.477
61.0, -25.554737091064453, 6.795398235321045, -27.220861434936523, 19.19129753112793, -0.1120000034570694, -0.03200000151991844, 1.055999994277954, 0.0, 0.0, 0.0, 0.0, 0.0, 1.6214327634775395E9, 2021-05-19 15:59:23.477
62.0, -49.17594528198242, -17.16240119934082, -48.43357467651367, -6.352220058441162, -0.1120000034570694, -0.03200000151991844, 1.055999994277954, 0.0, 0.0, 0.0, 0.0, 0.0, 1.6214327634782195E9, 2021-05-19 15:59:23.478
62.0, -72.43812561035156, -38.689266204833984, -80.47329711914062, -32.80453109741211, -0.1120000034570694, -0.03200000151991844, 1.055999994277954, 0.0, 0.0, 0.0, 0.0, 0.0, 1.6214327634782195E9, 2021-05-19 15:59:23.478
63.0, -35.6225471496582, -5.2059407234191895, -60.98093795776367, 0.31602153182029724, -0.1120000034570694, -0.03200000151991844, 1.055999994277954, 0.0, 0.0, 0.0, 0.0, 0.0, 1.6214327634789956E9, 2021-05-19 15:59:23.478
63.0, -17.136220932006836, 15.086756706237793, -40.60222244262695, 12.519314765930176, -0.1120000034570694, -0.03200000151991844, 1.055999994277954, 0.0, 0.0, 0.0, 0.0, 0.0, 1.6214327634789956E9, 2021-05-19 15:59:23.478
64.0, -42.4366455078125, -1.9971065521240234, -47.13208770751953, -2.952651023864746, -0.1120000034570694, -0.03200000151991844, 1.055999994277954, 0.0, 0.0, 0.0, 0.0, 0.0, 1.6214327634797213E9, 2021-05-19 15:59:23.479
64.0, -59.628963470458984, -30.203432083129883, -61.721439361572266, -21.73442840576172, -0.1120000034570694, -0.03200000151991844, 1.055999994277954, 0.0, 0.0, 0.0, 0.0, 0.0, 1.6214327634797213E9, 2021-05-19 15:59:23.479
65.0, -50.79158020019531, -5.2882184982299805, -52.15103530883789, -15.238222122192383, -0.1120000034570694, -0.03200000151991844, 1.055999994277954, 0.0, 0.0, 0.0, 0.0, 0.0, 1.6214327634907606E9, 2021-05-19 15:59:23.490
65.0, -32.193058013916016, 12.165894508361816, -32.464202880859375, 0.11032705008983612, -0.1120000034570694, -0.03200000151991844, 1.055999994277954, 0.0, 0.0, 0.0, 0.0, 0.0, 1.6214327634907606E9, 2021-05-19 15:59:23.490
66.0, -50.89255905151367, -7.098330020904541, -43.01445770263672, -4.72162389755249, -0.1120000034570694, -0.03200000151991844, 1.055999994277954, 0.0, 0.0, 0.0, 0.0, 0.0, 1.6214327634914458E9, 2021-05-19 15:59:23.491
66.0, -66.7871322631836, -26.27653694152832, -69.2685546875, -34.644561767578125, -0.1120000034570694, -0.03200000151991844, 1.055999994277954, 0.0, 0.0, 0.0, 0.0, 0.0, 1.6214327634914458E9, 2021-05-19 15:59:23.491
67.0, -34.440738677978516, 9.301131248474121, -45.07514572143555, -8.016475677490234, -0.1120000034570694, -0.03200000151991844, 1.055999994277954, 0.0, 0.0, 0.0, 0.0, 0.0, 1.6214327635050924E9, 2021-05-19 15:59:23.505
67.0, -23.71844482421875, 24.563663482666016, -29.479761123657227, 8.035175323486328, -0.1120000034570694, -0.03200000151991844, 1.055999994277954, 0.0, 0.0, 0.0, 0.0, 0.0, 1.6214327635050924E9, 2021-05-19 15:59:23.505
68.0, -53.009342193603516, -14.551950454711914, -39.083824157714844, -8.083793640136719, -0.1120000034570694, -0.03200000151991844, 1.055999994277954, 0.0, 0.0, 0.0, 0.0, 0.0, 1.621432763520902E9, 2021-05-19 15:59:23.520
68.0, -65.22759246826172, -17.644847869873047, -55.11677551269531, -22.381431579589844, -0.1120000034570694, -0.03200000151991844, 1.055999994277954, 0.0, 0.0, 0.0, 0.0, 0.0, 1.621432763520902E9, 2021-05-19 15:59:23.520
69.0, -48.27088928222656, 3.0816776752471924, -38.799591064453125, -3.8090879917144775, -0.1120000034570694, -0.03200000151991844, 1.055999994277954, 0.0, 0.0, 0.0, 0.0, 0.0, 1.6214327635214095E9, 2021-05-19 15:59:23.521
69.0, -14.903501510620117, 23.666086196899414, -16.296613693237305, 22.344032287597656, -0.1120000034570694, -0.03200000151991844, 1.055999994277954, 0.0, 0.0, 0.0, 0.0, 0.0, 1.6214327635214095E9, 2021-05-19 15:59:23.521
70.0, -53.69000244140625, -13.426240921020508, -41.529720306396484, 0.37959983944892883, -0.1120000034570694, -0.03200000151991844, 1.055999994277954, 0.0, 0.0, 0.0, 0.0, 0.0, 1.62143276353501E9, 2021-05-19 15:59:23.535
70.0, -71.82852172851562, -36.12743377685547, -71.80420684814453, -29.232927322387695, -0.1120000034570694, -0.03200000151991844, 1.055999994277954, 0.0, 0.0, 0.0, 0.0, 0.0, 1.62143276353501E9, 2021-05-19 15:59:23.535
71.0, -44.48984909057617, -21.07059669494629, -57.510311126708984, -9.430157661437988, -0.1120000034570694, -0.03200000151991844, 1.055999994277954, 0.0, 0.0, 0.0, 0.0, 0.0, 1.6214327635507493E9, 2021-05-19 15:59:23.550
71.0, -24.507564544677734, 10.183747291564941, -36.21906280517578, 10.95229721069336, -0.1120000034570694, -0.03200000151991844, 1.055999994277954, 0.0, 0.0, 0.0, 0.0, 0.0, 1.6214327635507493E9, 2021-05-19 15:59:23.550
72.0, -51.10573196411133, -17.334436416625977, -52.28193283081055, -11.154252052307129, -0.1120000034570694, -0.03200000151991844, 1.055999994277954, 0.0, 0.0, 0.0, 0.0, 0.0, 1.6214327635514843E9, 2021-05-19 15:59:23.551
72.0, -65.10791778564453, -27.1254940032959, -56.53419876098633, -22.94241714477539, -0.1120000034570694, -0.03200000151991844, 1.055999994277954, 0.0, 0.0, 0.0, 0.0, 0.0, 1.6214327635514843E9, 2021-05-19 15:59:23.551
73.0, -39.00341796875, -4.424301624298096, -47.008670806884766, -4.7590227127075195, -0.1120000034570694, -0.03200000151991844, 1.055999994277954, 0.0, 0.0, 0.0, 0.0, 0.0, 1.6214327635651093E9, 2021-05-19 15:59:23.565
73.0, -18.7855167388916, 15.670181274414062, -31.192636489868164, 17.42232322692871, -0.1120000034570694, -0.03200000151991844, 1.055999994277954, 0.0, 0.0, 0.0, 0.0, 0.0, 1.6214327635651093E9, 2021-05-19 15:59:23.565
74.0, -45.26774978637695, -9.177714347839355, -56.15646743774414, -15.185863494873047, -0.1120000034570694, -0.03200000151991844, 1.055999994277954, 0.0, 0.0, 0.0, 0.0, 0.0, 1.6214327635807204E9, 2021-05-19 15:59:23.580
74.0, -70.17174530029297, -38.16193771362305, -73.94717407226562, -35.52717971801758, -0.1120000034570694, -0.03200000151991844, 1.055999994277954, 0.0, 0.0, 0.0, 0.0, 0.0, 1.6214327635807204E9, 2021-05-19 15:59:23.580
75.0, -52.11924743652344, 1.0546517372131348, -53.179508209228516, -5.619199752807617, -0.1120000034570694, -0.03200000151991844, 1.055999994277954, 0.0, 0.0, 0.0, 0.0, 0.0, 1.621432763581498E9, 2021-05-19 15:59:23.581
75.0, -17.86924171447754, 31.654512405395508, -22.979814529418945, 9.923824310302734, -0.1120000034570694, -0.03200000151991844, 1.055999994277954, 0.0, 0.0, 0.0, 0.0, 0.0, 1.621432763581498E9, 2021-05-19 15:59:23.581
76.0, -45.323848724365234, -0.13463640213012695, -36.5855712890625, -5.4135050773620605, -0.1120000034570694, -0.03200000151991844, 1.055999994277954, 0.0, 0.0, 0.0, 0.0, 0.0, 1.621432763595018E9, 2021-05-19 15:59:23.595
76.0, -64.82368469238281, -25.33782196044922, -49.01325988769531, -26.222309112548828, -0.1120000034570694, -0.03200000151991844, 1.055999994277954, 0.0, 0.0, 0.0, 0.0, 0.0, 1.621432763595018E9, 2021-05-19 15:59:23.595
77.0, -42.892913818359375, -5.052604675292969, -41.761592864990234, -9.901385307312012, -0.1120000034570694, -0.03200000151991844, 1.055999994277954, 0.0, 0.0, 0.0, 0.0, 0.0, 1.6214327636107347E9, 2021-05-19 15:59:23.610
77.0, -19.241785049438477, 18.25071144104004, -24.05316734313965, 3.7006309032440186, -0.1120000034570694, -0.03200000151991844, 1.055999994277954, 0.0, 0.0, 0.0, 0.0, 0.0, 1.6214327636107347E9, 2021-05-19 15:59:23.610
78.0, -50.514827728271484, -17.35313606262207, -50.168888092041016, -20.799453735351562, -0.1120000034570694, -0.03200000151991844, 1.055999994277954, 0.0, 0.0, 0.0, 0.0, 0.0, 1.621432763611451E9, 2021-05-19 15:59:23.611
78.0, -61.00150680541992, -26.762723922729492, -64.51140594482422, -27.022647857666016, -0.1120000034570694, -0.03200000151991844, 1.055999994277954, 0.0, 0.0, 0.0, 0.0, 0.0, 1.621432763611451E9, 2021-05-19 15:59:23.611
79.0, -43.72690963745117, -5.785625457763672, -44.390743255615234, -6.034328460693359, -0.1120000034570694, -0.03200000151991844, 1.055999994277954, 0.0, 0.0, 0.0, 0.0, 0.0, 1.6214327636251807E9, 2021-05-19 15:59:23.625
79.0, -24.447725296020508, 19.170726776123047, -29.509679794311523, 8.293228149414062, -0.1120000034570694, -0.03200000151991844, 1.055999994277954, 0.0, 0.0, 0.0, 0.0, 0.0, 1.6214327636251807E9, 2021-05-19 15:59:23.625
80.0, -51.17679214477539, -16.17880630493164, -47.9773063659668, -20.029033660888672, -0.1120000034570694, -0.03200000151991844, 1.055999994277954, 0.0, 0.0, 0.0, 0.0, 0.0, 1.6214327636407607E9, 2021-05-19 15:59:23.640
80.0, -68.67578125, -22.323463439941406, -55.63288116455078, -25.474328994750977, -0.1120000034570694, -0.03200000151991844, 1.055999994277954, 0.0, 0.0, 0.0, 0.0, 0.0, 1.6214327636407607E9, 2021-05-19 15:59:23.640
81.0, -45.82499313354492, -16.425640106201172, -45.277099609375, -9.2843017578125, -0.1120000034570694, -0.03200000151991844, 1.055999994277954, 0.0, 0.0, 0.0, 0.0, 0.0, 1.6214327636414666E9, 2021-05-19 15:59:23.641
81.0, -39.7775764465332, 15.991811752319336, -38.97162628173828, 9.243163108825684, -0.1120000034570694, -0.03200000151991844, 1.055999994277954, 0.0, 0.0, 0.0, 0.0, 0.0, 1.6214327636414666E9, 2021-05-19 15:59:23.641
82.0, -60.27970886230469, -9.357229232788086, -60.10954284667969, -12.579153060913086, -0.1120000034570694, -0.03200000151991844, 1.055999994277954, 0.0, 0.0, 0.0, 0.0, 0.0, 1.6214327636550107E9, 2021-05-19 15:59:23.655
82.0, -70.59061431884766, -31.56849479675293, -75.64134979248047, -29.88741111755371, -0.1120000034570694, -0.03200000151991844, 1.055999994277954, 0.0, 0.0, 0.0, 0.0, 0.0, 1.6214327636550107E9, 2021-05-19 15:59:23.655
83.0, -51.21044921875, -5.411635398864746, -66.46736907958984, -12.006948471069336, -0.1120000034570694, -0.03200000151991844, 1.055999994277954, 0.0, 0.0, 0.0, 0.0, 0.0, 1.6214327636708667E9, 2021-05-19 15:59:23.670
83.0, -32.27533721923828, 28.378360748291016, -44.98538589477539, 2.7544362545013428, -0.1120000034570694, -0.03200000151991844, 1.055999994277954, 0.0, 0.0, 0.0, 0.0, 0.0, 1.6214327636708667E9, 2021-05-19 15:59:23.670
84.0, -43.2818603515625, -9.854636192321777, -57.4429931640625, -18.177783966064453, -0.1120000034570694, -0.03200000151991844, 1.055999994277954, 0.0, 0.0, 0.0, 0.0, 0.0, 1.6214327636714714E9, 2021-05-19 15:59:23.671
84.0, -63.701717376708984, -24.230812072753906, -62.41706085205078, -34.81659698486328, -0.1120000034570694, -0.03200000151991844, 1.055999994277954, 0.0, 0.0, 0.0, 0.0, 0.0, 1.6214327636714714E9, 2021-05-19 15:59:23.671
85.0, -52.95698165893555, 8.41103458404541, -46.354190826416016, -12.882085800170898, -0.1120000034570694, -0.03200000151991844, 1.055999994277954, 0.0, 0.0, 0.0, 0.0, 0.0, 1.6214327636850133E9, 2021-05-19 15:59:23.685
85.0, -22.084108352661133, 25.651973724365234, -28.68690299987793, 7.0665411949157715, -0.1120000034570694, -0.03200000151991844, 1.055999994277954, 0.0, 0.0, 0.0, 0.0, 0.0, 1.6214327636850133E9, 2021-05-19 15:59:23.685
86.0, -43.48755645751953, -2.150442361831665, -45.531410217285156, -15.002608299255371, -0.1120000034570694, -0.03200000151991844, 1.055999994277954, 0.0, 0.0, 0.0, 0.0, 0.0, 1.6214327637171843E9, 2021-05-19 15:59:23.717
86.0, -74.7194595336914, -33.771297454833984, -65.99988555908203, -26.80573272705078, -0.1120000034570694, -0.03200000151991844, 1.055999994277954, 0.0, 0.0, 0.0, 0.0, 0.0, 1.6214327637171843E9, 2021-05-19 15:59:23.717
87.0, -44.7254638671875, -3.7660791873931885, -52.46144485473633, -2.0139360427856445, -0.1120000034570694, -0.03200000151991844, 1.055999994277954, 0.0, 0.0, 0.0, 0.0, 0.0, 1.6214327637178948E9, 2021-05-19 15:59:23.717
87.0, -24.713258743286133, 23.348196029663086, -30.27635955810547, 14.479022979736328, -0.1120000034570694, -0.03200000151991844, 1.055999994277954, 0.0, 0.0, 0.0, 0.0, 0.0, 1.6214327637178948E9, 2021-05-19 15:59:23.717
88.0, -41.123939514160156, -12.741839408874512, -41.45492172241211, -8.375506401062012, -0.1120000034570694, -0.03200000151991844, 1.055999994277954, 0.0, 0.0, 0.0, 0.0, 0.0, 1.6214327637185972E9, 2021-05-19 15:59:23.718
88.0, -69.7566146850586, -24.75065803527832, -59.410179138183594, -35.699214935302734, -0.1120000034570694, -0.03200000151991844, 1.055999994277954, 0.0, 0.0, 0.0, 0.0, 0.0, 1.6214327637185972E9, 2021-05-19 15:59:23.718
89.0, -43.80544662475586, 1.847510576248169, -52.966331481933594, -21.07620620727539, -0.1120000034570694, -0.03200000151991844, 1.055999994277954, 0.0, 0.0, 0.0, 0.0, 0.0, 1.6214327637193592E9, 2021-05-19 15:59:23.719
89.0, -27.54062271118164, 24.331789016723633, -32.7409553527832, -1.3108348846435547, -0.1120000034570694, -0.03200000151991844, 1.055999994277954, 0.0, 0.0, 0.0, 0.0, 0.0, 1.6214327637193592E9, 2021-05-19 15:59:23.719
90.0, -48.72715759277344, -18.69576072692871, -52.18843460083008, -21.08368682861328, -0.1120000034570694, -0.03200000151991844, 1.055999994277954, 0.0, 0.0, 0.0, 0.0, 0.0, 1.6214327637302191E9, 2021-05-19 15:59:23.730
90.0, -70.65792846679688, -30.603601455688477, -71.37786102294922, -36.81744384765625, -0.1120000034570694, -0.03200000151991844, 1.055999994277954, 0.0, 0.0, 0.0, 0.0, 0.0, 1.6214327637302191E9, 2021-05-19 15:59:23.730
91.0, -44.33651351928711, -13.729172706604004, -55.21027374267578, -6.101646900177002, -0.1120000034570694, -0.01600000075995922, 1.055999994277954, 0.0, 0.0, 0.0, 0.0, 0.0, 1.621432763745032E9, 2021-05-19 15:59:23.745
91.0, -28.83462905883789, 14.454712867736816, -38.38820266723633, 6.344740390777588, -0.1120000034570694, -0.01600000075995922, 1.055999994277954, 0.0, 0.0, 0.0, 0.0, 0.0, 1.621432763745032E9, 2021-05-19 15:59:23.745
92.0, -51.67793655395508, -15.572943687438965, -56.6089973449707, -6.726210117340088, -0.1120000034570694, -0.01600000075995922, 1.055999994277954, 0.0, 0.0, 0.0, 0.0, 0.0, 1.621432763760797E9, 2021-05-19 15:59:23.760
92.0, -57.785194396972656, -24.4552059173584, -61.97201156616211, -16.08717918395996, -0.1120000034570694, -0.01600000075995922, 1.055999994277954, 0.0, 0.0, 0.0, 0.0, 0.0, 1.621432763760797E9, 2021-05-19 15:59:23.760
93.0, -45.507102966308594, -2.1915814876556396, -57.7833251953125, -6.1203460693359375, -0.1120000034570694, -0.01600000075995922, 1.055999994277954, 0.0, 0.0, 0.0, 0.0, 0.0, 1.6214327637615051E9, 2021-05-19 15:59:23.761
93.0, -13.28038501739502, 15.546764373779297, -31.125316619873047, 13.532828330993652, -0.1120000034570694, -0.01600000075995922, 1.055999994277954, 0.0, 0.0, 0.0, 0.0, 0.0, 1.6214327637615051E9, 2021-05-19 15:59:23.761
94.0, -43.936344146728516, -6.066117763519287, -46.13353729248047, -8.90283203125, -0.1120000034570694, -0.01600000075995922, 1.055999994277954, 0.0, 0.0, 0.0, 0.0, 0.0, 1.6214327637750733E9, 2021-05-19 15:59:23.775
94.0, -60.2123908996582, -27.92209243774414, -64.42538452148438, -19.93179702758789, -0.1120000034570694, -0.01600000075995922, 1.055999994277954, 0.0, 0.0, 0.0, 0.0, 0.0, 1.6214327637750733E9, 2021-05-19 15:59:23.775
95.0, -30.334327697753906, -14.768864631652832, -57.10640335083008, -6.464416980743408, -0.1120000034570694, -0.01600000075995922, 1.055999994277954, 0.0, 0.0, 0.0, 0.0, 0.0, 1.621432763790882E9, 2021-05-19 15:59:23.790
95.0, -17.053943634033203, 10.33708381652832, -37.898277282714844, 7.036621570587158, -0.1120000034570694, -0.01600000075995922, 1.055999994277954, 0.0, 0.0, 0.0, 0.0, 0.0, 1.621432763790882E9, 2021-05-19 15:59:23.790
96.0, -54.774574279785156, -12.521184921264648, -55.96199417114258, -17.18297004699707, -0.1120000034570694, -0.01600000075995922, 1.055999994277954, 0.0, 0.0, 0.0, 0.0, 0.0, 1.6214327637914414E9, 2021-05-19 15:59:23.791
96.0, -73.25716400146484, -13.717952728271484, -69.36953735351562, -33.500152587890625, -0.1120000034570694, -0.01600000075995922, 1.055999994277954, 0.0, 0.0, 0.0, 0.0, 0.0, 1.6214327637914414E9, 2021-05-19 15:59:23.791
97.0, -51.45728302001953, -5.621069431304932, -59.051151275634766, -9.90512466430664, -0.1120000034570694, -0.01600000075995922, 1.055999994277954, 0.0, 0.0, 0.0, 0.0, 0.0, 1.6214327638214731E9, 2021-05-19 15:59:23.821
97.0, -23.995197296142578, 27.30875015258789, -32.26972579956055, 10.567087173461914, -0.1120000034570694, -0.01600000075995922, 1.055999994277954, 0.0, 0.0, 0.0, 0.0, 0.0, 1.6214327638214731E9, 2021-05-19 15:59:23.821
98.0, -37.70193099975586, -0.9312350749969482, -45.70718765258789, -15.47757625579834, -0.1120000034570694, -0.01600000075995922, 1.055999994277954, 0.0, 0.0, 0.0, 0.0, 0.0, 1.6214327638221679E9, 2021-05-19 15:59:23.822
98.0, -71.44705200195312, -31.856468200683594, -78.26301574707031, -43.279991149902344, -0.1120000034570694, -0.01600000075995922, 1.055999994277954, 0.0, 0.0, 0.0, 0.0, 0.0, 1.6214327638221679E9, 2021-05-19 15:59:23.822
99.0, -45.18547058105469, -6.844017028808594, -56.706233978271484, -14.39300537109375, -0.1120000034570694, -0.01600000075995922, 1.055999994277954, 0.0, 0.0, 0.0, 0.0, 0.0, 1.6214327638228877E9, 2021-05-19 15:59:23.822
99.0, -27.54810333251953, 21.74003791809082, -34.595943450927734, 13.708602905273438, -0.1120000034570694, -0.01600000075995922, 1.055999994277954, 0.0, 0.0, 0.0, 0.0, 0.0, 1.6214327638228877E9, 2021-05-19 15:59:23.822
100.0, -51.277767181396484, -7.887448787689209, -52.121116638183594, -16.6556453704834, -0.1120000034570694, -0.01600000075995922, 1.055999994277954, 0.0, 0.0, 0.0, 0.0, 0.0, 1.6214327638357615E9, 2021-05-19 15:59:23.835
100.0, -71.34980773925781, -21.534343719482422, -67.32754516601562, -22.699323654174805, -0.1120000034570694, -0.01600000075995922, 1.055999994277954, 0.0, 0.0, 0.0, 0.0, 0.0, 1.6214327638357615E9, 2021-05-19 15:59:23.835
0.0, -40.45823669433594, -12.2332124710083, -51.872413635253906, -9.130966186523438, -0.1120000034570694, -0.01600000075995922, 1.055999994277954, 0.0, 0.0, 0.0, 0.0, 0.0, 1.6214327638364923E9, 2021-05-19 15:59:23.836
1.0, -32.59322738647461, 10.864409446716309, -26.168079376220703, 12.14532470703125, -0.1120000034570694, -0.03200000151991844, 1.055999994277954, 0.0, 0.0, 0.0, 0.0, 0.0, 1.6214327638671668E9, 2021-05-19 15:59:23.867
1.0, -46.16158676147461, -21.074337005615234, -33.588043212890625, -4.411211967468262, -0.1120000034570694, -0.03200000151991844, 1.055999994277954, 0.0, 0.0, 0.0, 0.0, 0.0, 1.6214327638671668E9, 2021-05-19 15:59:23.867
2.0, -63.47732162475586, -21.40718650817871, -50.50360870361328, -16.330272674560547, -0.09600000083446503, -0.03200000151991844, 1.055999994277954, 0.0, 0.0, 0.0, 0.0, 0.0, 1.6214327638678606E9, 2021-05-19 15:59:23.867
2.0, -49.11610794067383, -4.861869812011719, -39.79253387451172, -5.480823516845703, -0.09600000083446503, -0.03200000151991844, 1.055999994277954, 0.0, 0.0, 0.0, 0.0, 0.0, 1.6214327638678606E9, 2021-05-19 15:59:23.867
3.0, -20.288957595825195, 10.004232406616211, -23.314537048339844, 14.19478988647461, -0.09600000083446503, -0.03200000151991844, 1.055999994277954, 0.0, 0.0, 0.0, 0.0, 0.0, 1.6214327638685658E9, 2021-05-19 15:59:23.868
3.0, -44.3851318359375, -20.330095291137695, -31.149625778198242, -8.005255699157715, -0.09600000083446503, -0.03200000151991844, 1.055999994277954, 0.0, 0.0, 0.0, 0.0, 0.0, 1.6214327638685658E9, 2021-05-19 15:59:23.868
4.0, -67.69966888427734, -45.54450225830078, -56.386470794677734, -23.204208374023438, -0.09600000083446503, -0.03200000151991844, 1.055999994277954, 0.0, 0.0, 0.0, 0.0, 0.0, 1.6214327638800168E9, 2021-05-19 15:59:23.880
4.0, -52.10802459716797, -12.221993446350098, -47.63136672973633, -17.138092041015625, -0.09600000083446503, -0.03200000151991844, 1.055999994277954, 0.0, 0.0, 0.0, 0.0, 0.0, 1.6214327638800168E9, 2021-05-19 15:59:23.880
5.0, -29.61252784729004, 20.06830406188965, -28.2699031829834, 7.15255880355835, -0.09600000083446503, -0.03200000151991844, 1.055999994277954, 0.0, 0.0, 0.0, 0.0, 0.0, 1.6214327638957813E9, 2021-05-19 15:59:23.895
5.0, -58.7276496887207, -10.213666915893555, -55.343040466308594, -13.072820663452148, -0.09600000083446503, -0.03200000151991844, 1.055999994277954, 0.0, 0.0, 0.0, 0.0, 0.0, 1.6214327638957813E9, 2021-05-19 15:59:23.895
6.0, -70.32508087158203, -41.2810173034668, -68.9936752319336, -22.422569274902344, -0.09600000083446503, -0.03200000151991844, 1.055999994277954, 0.0, 0.0, 0.0, 0.0, 0.0, 1.621432763896526E9, 2021-05-19 15:59:23.896
6.0, -41.550289154052734, 0.2505733072757721, -48.29706954956055, -7.792081356048584, -0.09600000083446503, -0.03200000151991844, 1.055999994277954, 0.0, 0.0, 0.0, 0.0, 0.0, 1.621432763896526E9, 2021-05-19 15:59:23.896
7.0, -29.474151611328125, 20.711565017700195, -31.920045852661133, -0.41325893998146057, -0.09600000083446503, -0.03200000151991844, 1.055999994277954, 0.0, 0.0, 0.0, 0.0, 0.0, 1.621432763926263E9, 2021-05-19 15:59:23.926
7.0, -51.84249496459961, -21.650279998779297, -42.52266311645508, -11.797513961791992, -0.09600000083446503, -0.03200000151991844, 1.055999994277954, 0.0, 0.0, 0.0, 0.0, 0.0, 1.621432763926263E9, 2021-05-19 15:59:23.926
8.0, -65.81101989746094, -40.45823669433594, -63.23796844482422, -35.269126892089844, -0.09600000083446503, -0.03200000151991844, 1.055999994277954, 0.0, 0.0, 0.0, 0.0, 0.0, 1.6214327639419148E9, 2021-05-19 15:59:23.941
8.0, -45.080753326416016, -14.409834861755371, -44.68806457519531, -1.2883955240249634, -0.09600000083446503, -0.03200000151991844, 1.055999994277954, 0.0, 0.0, 0.0, 0.0, 0.0, 1.6214327639419148E9, 2021-05-19 15:59:23.941
9.0, -28.329742431640625, 7.345163345336914, -30.259531021118164, 9.680730819702148, -0.09600000083446503, -0.03200000151991844, 1.055999994277954, 0.0, 0.0, 0.0, 0.0, 0.0, 1.6214327639426577E9, 2021-05-19 15:59:23.942
9.0, -46.475738525390625, -23.793243408203125, -45.24156951904297, -5.1629319190979, -0.09600000083446503, -0.03200000151991844, 1.055999994277954, 0.0, 0.0, 0.0, 0.0, 0.0, 1.6214327639426577E9, 2021-05-19 15:59:23.942
10.0, -67.912841796875, -28.367141723632812, -64.7975082397461, -16.86507797241211, -0.09600000083446503, -0.03200000151991844, 1.055999994277954, 0.0, 0.0, 0.0, 0.0, 0.0, 1.6214327639433084E9, 2021-05-19 15:59:23.943
10.0, -42.21599197387695, -17.547611236572266, -48.16617202758789, -6.198884010314941, -0.09600000083446503, -0.03200000151991844, 1.055999994277954, 0.0, 0.0, 0.0, 0.0, 0.0, 1.6214327639433084E9, 2021-05-19 15:59:23.943
11.0, -14.09194278717041, -2.853543758392334, -28.68503189086914, 8.786894798278809, -0.09600000083446503, -0.03200000151991844, 1.055999994277954, 0.0, 0.0, 0.0, 0.0, 0.0, 1.6214327639557736E9, 2021-05-19 15:59:23.955
11.0, -42.934051513671875, -24.982532501220703, -44.44123077392578, -16.988494873046875, -0.09600000083446503, -0.03200000151991844, 1.055999994277954, 0.0, 0.0, 0.0, 0.0, 0.0, 1.6214327639557736E9, 2021-05-19 15:59:23.955
12.0, -69.07221221923828, -51.053375244140625, -63.28658676147461, -30.95328140258789, -0.09600000083446503, -0.03200000151991844, 1.055999994277954, 0.0, 0.0, 0.0, 0.0, 0.0, 1.6214327639564126E9, 2021-05-19 15:59:23.956
12.0, -42.85177230834961, -7.262885570526123, -33.2925910949707, -0.12902654707431793, -0.09600000083446503, -0.03200000151991844, 1.055999994277954, 0.0, 0.0, 0.0, 0.0, 0.0, 1.6214327639564126E9, 2021-05-19 15:59:23.956
13.0, -15.662700653076172, 6.339130401611328, -19.1669864654541, 12.208903312683105, -0.09600000083446503, -0.03200000151991844, 1.055999994277954, 0.0, 0.0, 0.0, 0.0, 0.0, 1.6214327639864938E9, 2021-05-19 15:59:23.986
13.0, -50.656944274902344, -13.789011001586914, -43.94756317138672, -7.279715061187744, -0.09600000083446503, -0.03200000151991844, 1.055999994277954, 0.0, 0.0, 0.0, 0.0, 0.0, 1.6214327639864938E9, 2021-05-19 15:59:23.986
14.0, -63.615699768066406, -37.25688171386719, -61.925262451171875, -25.777259826660156, -0.09600000083446503, -0.03200000151991844, 1.055999994277954, 0.0, 0.0, 0.0, 0.0, 0.0, 1.621432763987228E9, 2021-05-19 15:59:23.987
14.0, -45.94841003417969, -34.13032531738281, -48.375606536865234, -6.053028106689453, -0.09600000083446503, -0.03200000151991844, 1.055999994277954, 0.0, 0.0, 0.0, 0.0, 0.0, 1.621432763987228E9, 2021-05-19 15:59:23.987
15.0, -27.248910903930664, 12.700699806213379, -26.287755966186523, 6.419538497924805, -0.09600000083446503, -0.03200000151991844, 1.055999994277954, 0.0, 0.0, 0.0, 0.0, 0.0, 1.6214327639879243E9, 2021-05-19 15:59:23.987
15.0, -53.4469108581543, -23.85308265686035, -44.71050262451172, -21.323040008544922, -0.09600000083446503, -0.03200000151991844, 1.055999994277954, 0.0, 0.0, 0.0, 0.0, 0.0, 1.6214327639879243E9, 2021-05-19 15:59:23.987
16.0, -63.75407409667969, -42.85551452636719, -55.45149612426758, -30.216522216796875, -0.09600000083446503, -0.03200000151991844, 1.055999994277954, 0.0, 0.0, 0.0, 0.0, 0.0, 1.6214327640001552E9, 2021-05-19 15:59:24.000
16.0, -63.05845260620117, -6.698160648345947, -52.16786575317383, -17.628019332885742, -0.09600000083446503, -0.03200000151991844, 1.055999994277954, 0.0, 0.0, 0.0, 0.0, 0.0, 1.6214327640001552E9, 2021-05-19 15:59:24.000
17.0, -34.32106018066406, 4.895529270172119, -30.11367416381836, 2.7245171070098877, -0.09600000083446503, -0.03200000151991844, 1.055999994277954, 0.0, 0.0, 0.0, 0.0, 0.0, 1.621432764015722E9, 2021-05-19 15:59:24.015
17.0, -46.83102798461914, -12.023777961730957, -43.81292724609375, -8.113713264465332, -0.09600000083446503, -0.03200000151991844, 1.055999994277954, 0.0, 0.0, 0.0, 0.0, 0.0, 1.621432764015722E9, 2021-05-19 15:59:24.015
18.0, -67.71463012695312, -29.500329971313477, -63.43618392944336, -26.04279327392578, -0.09600000083446503, -0.03200000151991844, 1.055999994277954, 0.0, 0.0, 0.0, 0.0, 0.0, 1.6214327640164657E9, 2021-05-19 15:59:24.016
18.0, -45.7988166809082, -15.176513671875, -53.91813659667969, -8.603639602661133, -0.09600000083446503, -0.03200000151991844, 1.055999994277954, 0.0, 0.0, 0.0, 0.0, 0.0, 1.6214327640164657E9, 2021-05-19 15:59:24.016
19.0, -29.7658634185791, 7.969727039337158, -37.069889068603516, -0.08040785044431686, -0.09600000083446503, -0.03200000151991844, 1.055999994277954, 0.0, 0.0, 0.0, 0.0, 0.0, 1.6214327640463743E9, 2021-05-19 15:59:24.046
19.0, -52.93828201293945, -17.442893981933594, -48.181129455566406, -11.71523666381836, -0.09600000083446503, -0.03200000151991844, 1.055999994277954, 0.0, 0.0, 0.0, 0.0, 0.0, 1.6214327640463743E9, 2021-05-19 15:59:24.046
20.0, -57.93852996826172, -36.0040168762207, -57.59819793701172, -25.122777938842773, -0.09600000083446503, -0.03200000151991844, 1.055999994277954, 0.0, 0.0, 0.0, 0.0, 0.0, 1.6214327640471196E9, 2021-05-19 15:59:24.047
20.0, -37.51493835449219, -21.0631160736084, -52.564292907714844, -11.094412803649902, -0.09600000083446503, -0.03200000151991844, 1.055999994277954, 0.0, 0.0, 0.0, 0.0, 0.0, 1.6214327640471196E9, 2021-05-19 15:59:24.047
21.0, -24.271949768066406, 2.8722431659698486, -30.45400619506836, 11.546940803527832, -0.09600000083446503, -0.03200000151991844, 1.055999994277954, 0.0, 0.0, 0.0, 0.0, 0.0, 1.6214327640478396E9, 2021-05-19 15:59:24.047
21.0, -54.153751373291016, -24.99001121520996, -58.23772048950195, -16.023601531982422, -0.09600000083446503, -0.03200000151991844, 1.055999994277954, 0.0, 0.0, 0.0, 0.0, 0.0, 1.6214327640478396E9, 2021-05-19 15:59:24.047
22.0, -60.937931060791016, -39.05203628540039, -64.21408081054688, -24.53935432434082, -0.09600000083446503, -0.03200000151991844, 1.055999994277954, 0.0, 0.0, 0.0, 0.0, 0.0, 1.6214327640601041E9, 2021-05-19 15:59:24.060
22.0, -43.1696662902832, -15.086756706237793, -48.29332733154297, -0.8807464241981506, -0.09600000083446503, -0.03200000151991844, 1.055999994277954, 0.0, 0.0, 0.0, 0.0, 0.0, 1.6214327640601041E9, 2021-05-19 15:59:24.060
23.0, -19.039831161499023, -0.747979998588562, -28.958045959472656, 7.840700149536133, -0.09600000083446503, -0.03200000151991844, 1.055999994277954, 0.0, 0.0, 0.0, 0.0, 0.0, 1.621432764075457E9, 2021-05-19 15:59:24.075
23.0, -51.27029037475586, -17.858022689819336, -39.19789123535156, -15.234482765197754, -0.09600000083446503, -0.03200000151991844, 1.055999994277954, 0.0, 0.0, 0.0, 0.0, 0.0, 1.621432764075457E9, 2021-05-19 15:59:24.075
24.0, -72.75227355957031, -42.05143356323242, -63.05471420288086, -35.654335021972656, -0.09600000083446503, -0.03200000151991844, 1.055999994277954, 0.0, 0.0, 0.0, 0.0, 0.0, 1.6214327640921328E9, 2021-05-19 15:59:24.092
24.0, -50.761661529541016, -2.008326292037964, -42.844295501708984, -10.896198272705078, -0.09600000083446503, -0.03200000151991844, 1.055999994277954, 0.0, 0.0, 0.0, 0.0, 0.0, 1.6214327640921328E9, 2021-05-19 15:59:24.092
25.0, -38.2928352355957, -3.3060715198516846, -24.68708038330078, 5.181631565093994, -0.09600000083446503, -0.03200000151991844, 1.055999994277954, 0.0, 0.0, 0.0, 0.0, 0.0, 1.62143276409285E9, 2021-05-19 15:59:24.092
25.0, -62.273075103759766, -15.984332084655762, -40.24132537841797, -16.947357177734375, -0.09600000083446503, -0.03200000151991844, 1.055999994277954, 0.0, 0.0, 0.0, 0.0, 0.0, 1.62143276409285E9, 2021-05-19 15:59:24.092
26.0, -64.72644805908203, -42.72087860107422, -51.97713088989258, -26.465402603149414, -0.09600000083446503, -0.03200000151991844, 1.055999994277954, 0.0, 0.0, 0.0, 0.0, 0.0, 1.6214327640936577E9, 2021-05-19 15:59:24.093
26.0, -61.461517333984375, -9.57788372039795, -49.179683685302734, -10.918638229370117, -0.09600000083446503, -0.03200000151991844, 1.055999994277954, 0.0, 0.0, 0.0, 0.0, 0.0, 1.6214327640936577E9, 2021-05-19 15:59:24.093
27.0, -34.964324951171875, 23.494050979614258, -34.5491943359375, -0.895706057548523, -0.09600000083446503, -0.03200000151991844, 1.055999994277954, 0.0, 0.0, 0.0, 0.0, 0.0, 1.621432764105108E9, 2021-05-19 15:59:24.105
27.0, -60.58638000488281, -8.369895935058594, -51.29646682739258, -22.19817543029785, -0.09600000083446503, -0.03200000151991844, 1.055999994277954, 0.0, 0.0, 0.0, 0.0, 0.0, 1.621432764105108E9, 2021-05-19 15:59:24.105
28.0, -80.69207763671875, -19.956106185913086, -69.1170883178711, -31.71622085571289, -0.09600000083446503, -0.03200000151991844, 1.055999994277954, 0.0, 0.0, 0.0, 0.0, 0.0, 1.621432764120063E9, 2021-05-19 15:59:24.120
28.0, -54.49782180786133, -11.99385929107666, -47.84080123901367, -12.908265113830566, -0.09600000083446503, -0.03200000151991844, 1.055999994277954, 0.0, 0.0, 0.0, 0.0, 0.0, 1.621432764120063E9, 2021-05-19 15:59:24.120
29.0, -24.53748321533203, 23.62120819091797, -25.876367568969727, 10.38009262084961, -0.09600000083446503, -0.03200000151991844, 1.055999994277954, 0.0, 0.0, 0.0, 0.0, 0.0, 1.6214327641527536E9, 2021-05-19 15:59:24.152
29.0, -49.60603332519531, -11.238399505615234, -43.266902923583984, -9.79666805267334, -0.09600000083446503, -0.03200000151991844, 1.055999994277954, 0.0, 0.0, 0.0, 0.0, 0.0, 1.6214327641527536E9, 2021-05-19 15:59:24.152
30.0, -86.57494354248047, -53.69748306274414, -68.54114532470703, -36.660369873046875, -0.09600000083446503, -0.03200000151991844, 1.055999994277954, 0.0, 0.0, 0.0, 0.0, 0.0, 1.6214327641534872E9, 2021-05-19 15:59:24.153
30.0, -35.783363342285156, -7.4349212646484375, -42.82559585571289, -5.555621147155762, -0.09600000083446503, -0.03200000151991844, 1.055999994277954, 0.0, 0.0, 0.0, 0.0, 0.0, 1.6214327641534872E9, 2021-05-19 15:59:24.153
31.0, -22.959245681762695, 19.017391204833984, -23.213558197021484, 15.874005317687988, -0.09600000083446503, -0.03200000151991844, 1.055999994277954, 0.0, 0.0, 0.0, 0.0, 0.0, 1.6214327641542387E9, 2021-05-19 15:59:24.154
31.0, -58.47707748413086, -14.780084609985352, -40.77238845825195, -10.884979248046875, -0.09600000083446503, -0.03200000151991844, 1.055999994277954, 0.0, 0.0, 0.0, 0.0, 0.0, 1.6214327641542387E9, 2021-05-19 15:59:24.154
32.0, -66.0241928100586, -30.603601455688477, -59.72246170043945, -26.87679100036621, -0.1120000034570694, -0.03200000151991844, 1.055999994277954, 0.0, 0.0, 0.0, 0.0, 0.0, 1.6214327641549425E9, 2021-05-19 15:59:24.154
32.0, -54.288387298583984, -20.180500030517578, -55.283199310302734, -15.567333221435547, -0.1120000034570694, -0.03200000151991844, 1.055999994277954, 0.0, 0.0, 0.0, 0.0, 0.0, 1.6214327641549425E9, 2021-05-19 15:59:24.154
33.0, -27.82485580444336, 10.292204856872559, -29.13755989074707, 9.935044288635254, -0.1120000034570694, -0.03200000151991844, 1.055999994277954, 0.0, 0.0, 0.0, 0.0, 0.0, 1.6214327641651587E9, 2021-05-19 15:59:24.165
33.0, -53.858299255371094, -35.70856475830078, -45.929710388183594, -13.704863548278809, -0.1120000034570694, -0.03200000151991844, 1.055999994277954, 0.0, 0.0, 0.0, 0.0, 0.0, 1.6214327641651587E9, 2021-05-19 15:59:24.165
34.0, -63.163169860839844, -51.58818054199219, -68.05496215820312, -32.66615676879883, -0.1120000034570694, -0.03200000151991844, 1.055999994277954, 0.0, 0.0, 0.0, 0.0, 0.0, 1.6214327641800325E9, 2021-05-19 15:59:24.180
34.0, -58.204063415527344, -11.545071601867676, -43.521217346191406, -9.21324348449707, -0.1120000034570694, -0.03200000151991844, 1.055999994277954, 0.0, 0.0, 0.0, 0.0, 0.0, 1.6214327641800325E9, 2021-05-19 15:59:24.180
35.0, -32.41745376586914, -1.8587303161621094, -24.88529396057129, 13.143877983093262, -0.1120000034570694, -0.03200000151991844, 1.055999994277954, 0.0, 0.0, 0.0, 0.0, 0.0, 1.6214327641958592E9, 2021-05-19 15:59:24.195
35.0, -59.78977966308594, -28.670072555541992, -50.522308349609375, -19.071619033813477, -0.1120000034570694, -0.03200000151991844, 1.055999994277954, 0.0, 0.0, 0.0, 0.0, 0.0, 1.6214327641958592E9, 2021-05-19 15:59:24.195
36.0, -71.645263671875, -45.39116668701172, -66.00175476074219, -32.56892013549805, -0.1120000034570694, -0.03200000151991844, 1.055999994277954, 0.0, 0.0, 0.0, 0.0, 0.0, 1.621432764196621E9, 2021-05-19 15:59:24.196
36.0, -39.691558837890625, -6.238152980804443, -47.20501708984375, 2.4178452491760254, -0.1120000034570694, -0.03200000151991844, 1.055999994277954, 0.0, 0.0, 0.0, 0.0, 0.0, 1.621432764196621E9, 2021-05-19 15:59:24.196
37.0, -31.18702507019043, -1.6642554998397827, -33.35616683959961, 12.85590648651123, -0.1120000034570694, -0.03200000151991844, 1.055999994277954, 0.0, 0.0, 0.0, 0.0, 0.0, 1.6214327642268956E9, 2021-05-19 15:59:24.226
37.0, -48.34194564819336, -10.703593254089355, -43.46885681152344, -5.757575988769531, -0.1120000034570694, -0.03200000151991844, 1.055999994277954, 0.0, 0.0, 0.0, 0.0, 0.0, 1.6214327642268956E9, 2021-05-19 15:59:24.226
38.0, -70.51581573486328, -34.683834075927734, -67.3668212890625, -33.30567932128906, -0.1120000034570694, -0.03200000151991844, 1.055999994277954, 0.0, 0.0, 0.0, 0.0, 0.0, 1.6214327642275133E9, 2021-05-19 15:59:24.227
38.0, -41.09775924682617, 2.008326292037964, -40.30116271972656, -4.355113506317139, -0.1120000034570694, -0.03200000151991844, 1.055999994277954, 0.0, 0.0, 0.0, 0.0, 0.0, 1.6214327642275133E9, 2021-05-19 15:59:24.227
39.0, -30.11367416381836, 15.774897575378418, -23.78950309753418, 11.431004524230957, -0.1120000034570694, -0.03200000151991844, 1.055999994277954, 0.0, 0.0, 0.0, 0.0, 0.0, 1.6214327642572036E9, 2021-05-19 15:59:24.257
39.0, -42.743316650390625, -36.50890350341797, -44.14204025268555, -20.50400161743164, -0.1120000034570694, -0.03200000151991844, 1.055999994277954, 0.0, 0.0, 0.0, 0.0, 0.0, 1.6214327642572036E9, 2021-05-19 15:59:24.257
40.0, -72.88317108154297, -37.55607604980469, -64.180419921875, -31.884517669677734, -0.1120000034570694, -0.03200000151991844, 1.055999994277954, 0.0, 0.0, 0.0, 0.0, 0.0, 1.621432764257926E9, 2021-05-19 15:59:24.257
40.0, -50.522308349609375, -11.133682250976562, -49.40033721923828, -10.522208213806152, -0.1120000034570694, -0.03200000151991844, 1.055999994277954, 0.0, 0.0, 0.0, 0.0, 0.0, 1.621432764257926E9, 2021-05-19 15:59:24.257
41.0, -27.51444435119629, 10.871889114379883, -23.714706420898438, 7.960377216339111, -0.1120000034570694, -0.03200000151991844, 1.055999994277954, 0.0, 0.0, 0.0, 0.0, 0.0, 1.6214327642587025E9, 2021-05-19 15:59:24.258
41.0, -48.08015441894531, -32.45859146118164, -41.58020782470703, -17.69159698486328, -0.1120000034570694, -0.03200000151991844, 1.055999994277954, 0.0, 0.0, 0.0, 0.0, 0.0, 1.6214327642587025E9, 2021-05-19 15:59:24.258
42.0, -69.74913787841797, -24.047555923461914, -52.17534255981445, -22.501108169555664, -0.1120000034570694, -0.03200000151991844, 1.055999994277954, 0.0, 0.0, 0.0, 0.0, 0.0, 1.6214327642593343E9, 2021-05-19 15:59:24.259
42.0, -28.51673698425293, -3.321031093597412, -36.306949615478516, -11.06075382232666, -0.1120000034570694, -0.03200000151991844, 1.055999994277954, 0.0, 0.0, 0.0, 0.0, 0.0, 1.6214327642593343E9, 2021-05-19 15:59:24.259
43.0, -52.205265045166016, 0.49366679787635803, -28.101608276367188, -6.105386734008789, -0.1120000034570694, -0.03200000151991844, 1.055999994277954, 0.0, 0.0, 0.0, 0.0, 0.0, 1.6214327642700264E9, 2021-05-19 15:59:24.270
43.0, -62.463809967041016, -24.769357681274414, -38.81268310546875, -25.298553466796875, -0.1120000034570694, -0.03200000151991844, 1.055999994277954, 0.0, 0.0, 0.0, 0.0, 0.0, 1.6214327642700264E9, 2021-05-19 15:59:24.270
44.0, -72.15389251708984, -41.606388092041016, -63.44366455078125, -30.897184371948242, -0.1120000034570694, -0.03200000151991844, 1.055999994277954, 0.0, 0.0, 0.0, 0.0, 0.0, 1.621432764285669E9, 2021-05-19 15:59:24.285
44.0, -43.95878219604492, -8.358675956726074, -43.43893814086914, -9.190804481506348, -0.1120000034570694, -0.03200000151991844, 1.055999994277954, 0.0, 0.0, 0.0, 0.0, 0.0, 1.621432764285669E9, 2021-05-19 15:59:24.285
45.0, -19.81024932861328, 0.23935359716415405, -28.576576232910156, 8.77193546295166, -0.1120000034570694, -0.03200000151991844, 1.055999994277954, 0.0, 0.0, 0.0, 0.0, 0.0, 1.6214327642863884E9, 2021-05-19 15:59:24.286
45.0, -53.66382598876953, -13.69925308227539, -45.87361145019531, -17.164270401000977, -0.1120000034570694, -0.03200000151991844, 1.055999994277954, 0.0, 0.0, 0.0, 0.0, 0.0, 1.6214327642863884E9, 2021-05-19 15:59:24.286
46.0, -71.3647689819336, -17.05768394470215, -61.17354202270508, -24.965702056884766, -0.1120000034570694, -0.03200000151991844, 1.055999994277954, 0.0, 0.0, 0.0, 0.0, 0.0, 1.6214327642999809E9, 2021-05-19 15:59:24.299
46.0, -56.577205657958984, 3.3883492946624756, -47.36209487915039, -4.149418830871582, -0.1120000034570694, -0.03200000151991844, 1.055999994277954, 0.0, 0.0, 0.0, 0.0, 0.0, 1.6214327642999809E9, 2021-05-19 15:59:24.299
47.0, -34.582855224609375, 13.57957649230957, -30.09123420715332, 1.9241784811019897, -0.1120000034570694, -0.03200000151991844, 1.055999994277954, 0.0, 0.0, 0.0, 0.0, 0.0, 1.6214327643156712E9, 2021-05-19 15:59:24.315
47.0, -48.43544387817383, -8.238999366760254, -37.03248977661133, -16.29287338256836, -0.1120000034570694, -0.03200000151991844, 1.055999994277954, 0.0, 0.0, 0.0, 0.0, 0.0, 1.6214327643156712E9, 2021-05-19 15:59:24.315
48.0, -74.49132537841797, -20.748964309692383, -60.500362396240234, -32.4193229675293, -0.1120000034570694, -0.03200000151991844, 1.055999994277954, 0.0, 0.0, 0.0, 0.0, 0.0, 1.62143276431639E9, 2021-05-19 15:59:24.316
48.0, -52.13046646118164, -27.383546829223633, -48.72341537475586, -12.874605178833008, -0.1120000034570694, -0.03200000151991844, 1.055999994277954, 0.0, 0.0, 0.0, 0.0, 0.0, 1.62143276431639E9, 2021-05-19 15:59:24.316
49.0, -28.097867965698242, 30.61482048034668, -31.987363815307617, 3.5024163722991943, -0.1120000034570694, -0.03200000151991844, 1.055999994277954, 0.0, 0.0, 0.0, 0.0, 0.0, 1.621432764330012E9, 2021-05-19 15:59:24.330
49.0, -70.31011962890625, -17.29703712463379, -47.91185760498047, -16.535966873168945, -0.1120000034570694, -0.03200000151991844, 1.055999994277954, 0.0, 0.0, 0.0, 0.0, 0.0, 1.621432764330012E9, 2021-05-19 15:59:24.330
50.0, -74.18091583251953, -40.72003173828125, -60.37320327758789, -27.14606475830078, -0.1120000034570694, -0.03200000151991844, 1.055999994277954, 0.0, 0.0, 0.0, 0.0, 0.0, 1.62143276434574E9, 2021-05-19 15:59:24.345
50.0, -53.671302795410156, -11.444093704223633, -48.562599182128906, -16.382631301879883, -0.1120000034570694, -0.03200000151991844, 1.055999994277954, 0.0, 0.0, 0.0, 0.0, 0.0, 1.62143276434574E9, 2021-05-19 15:59:24.345
51.0, -29.133821487426758, 1.207987666130066, -31.381500244140625, 3.7529895305633545, -0.1120000034570694, -0.03200000151991844, 1.055999994277954, 0.0, 0.0, 0.0, 0.0, 0.0, 1.6214327643465486E9, 2021-05-19 15:59:24.346
51.0, -47.952999114990234, -38.072181701660156, -53.32349395751953, -23.963409423828125, -0.1120000034570694, -0.03200000151991844, 1.055999994277954, 0.0, 0.0, 0.0, 0.0, 0.0, 1.6214327643465486E9, 2021-05-19 15:59:24.346
52.0, -66.69737243652344, -42.61989974975586, -67.71836853027344, -25.65384292602539, -0.09600000083446503, -0.03200000151991844, 1.055999994277954, 0.0, 0.0, 0.0, 0.0, 0.0, 1.6214327643905263E9, 2021-05-19 15:59:24.390
52.0, -37.52615737915039, -2.9171218872070312, -48.05771255493164, -5.196590900421143, -0.09600000083446503, -0.03200000151991844, 1.055999994277954, 0.0, 0.0, 0.0, 0.0, 0.0, 1.6214327643905263E9, 2021-05-19 15:59:24.390
53.0, -26.63556671142578, 2.8348441123962402, -31.841508865356445, -0.6189534664154053, -0.09600000083446503, -0.03200000151991844, 1.055999994277954, 0.0, 0.0, 0.0, 0.0, 0.0, 1.6214327644070728E9, 2021-05-19 15:59:24.407
53.0, -41.23239517211914, -4.56267786026001, -42.85177230834961, -15.933843612670898, -0.09600000083446503, -0.03200000151991844, 1.055999994277954, 0.0, 0.0, 0.0, 0.0, 0.0, 1.6214327644070728E9, 2021-05-19 15:59:24.407
54.0, -82.46853637695312, -26.51589012145996, -67.74080657958984, -31.693782806396484, -0.09600000083446503, -0.03200000151991844, 1.055999994277954, 0.0, 0.0, 0.0, 0.0, 0.0, 1.6214327644077563E9, 2021-05-19 15:59:24.407
54.0, -43.04250717163086, 10.071550369262695, -45.8287353515625, -10.039761543273926, -0.09600000083446503, -0.03200000151991844, 1.055999994277954, 0.0, 0.0, 0.0, 0.0, 0.0, 1.6214327644077563E9, 2021-05-19 15:59:24.407
55.0, -32.46607208251953, 18.01883888244629, -28.808448791503906, 4.003562927246094, -0.09600000083446503, -0.03200000151991844, 1.055999994277954, 0.0, 0.0, 0.0, 0.0, 0.0, 1.6214327644230092E9, 2021-05-19 15:59:24.423
55.0, -47.661285400390625, -4.233566761016846, -47.62388610839844, -16.147018432617188, -0.09600000083446503, -0.03200000151991844, 1.055999994277954, 0.0, 0.0, 0.0, 0.0, 0.0, 1.6214327644230092E9, 2021-05-19 15:59:24.423
56.0, -69.098388671875, -18.12355613708496, -64.38237762451172, -25.926856994628906, -0.09600000083446503, -0.03200000151991844, 1.055999994277954, 0.0, 0.0, 0.0, 0.0, 0.0, 1.6214327644237268E9, 2021-05-19 15:59:24.423
56.0, -47.58274841308594, -14.641708374023438, -40.64897155761719, 1.6923047304153442, -0.09600000083446503, -0.03200000151991844, 1.055999994277954, 0.0, 0.0, 0.0, 0.0, 0.0, 1.6214327644237268E9, 2021-05-19 15:59:24.423
57.0, -24.507564544677734, 24.19341278076172, -28.6214542388916, 1.8755598068237305, -0.09600000083446503, -0.03200000151991844, 1.055999994277954, 0.0, 0.0, 0.0, 0.0, 0.0, 1.6214327644244864E9, 2021-05-19 15:59:24.424
57.0, -53.18885803222656, -10.957906723022461, -41.77094268798828, -15.159684181213379, -0.09600000083446503, -0.03200000151991844, 1.055999994277954, 0.0, 0.0, 0.0, 0.0, 0.0, 1.6214327644244864E9, 2021-05-19 15:59:24.424
58.0, -69.99971008300781, -28.550395965576172, -64.91344451904297, -38.8444709777832, -0.09600000083446503, -0.03200000151991844, 1.055999994277954, 0.0, 0.0, 0.0, 0.0, 0.0, 1.6214327644252148E9, 2021-05-19 15:59:24.425
58.0, -37.840309143066406, -0.06731820106506348, -41.845741271972656, -13.203717231750488, -0.09600000083446503, -0.03200000151991844, 1.055999994277954, 0.0, 0.0, 0.0, 0.0, 0.0, 1.6214327644252148E9, 2021-05-19 15:59:24.425
59.0, -26.833782196044922, 8.844862937927246, -31.94996452331543, 1.860600233078003, -0.09600000083446503, -0.03200000151991844, 1.055999994277954, 0.0, 0.0, 0.0, 0.0, 0.0, 1.621432764436002E9, 2021-05-19 15:59:24.436
59.0, -49.87530517578125, -15.958152770996094, -42.98640823364258, -18.248842239379883, -0.09600000083446503, -0.03200000151991844, 1.055999994277954, 0.0, 0.0, 0.0, 0.0, 0.0, 1.621432764436002E9, 2021-05-19 15:59:24.436
60.0, -66.65997314453125, -52.41095733642578, -59.64018630981445, -33.81430435180664, -0.09600000083446503, -0.03200000151991844, 1.055999994277954, 0.0, 0.0, 0.0, 0.0, 0.0, 1.621432764436519E9, 2021-05-19 15:59:24.436
60.0, -44.62074661254883, 7.315244197845459, -40.828487396240234, -16.58458709716797, -0.09600000083446503, -0.03200000151991844, 1.055999994277954, 0.0, 0.0, 0.0, 0.0, 0.0, 1.621432764436519E9, 2021-05-19 15:59:24.436
61.0, -29.631227493286133, 9.604063034057617, -21.751258850097656, 3.5659945011138916, -0.09600000083446503, -0.03200000151991844, 1.055999994277954, 0.0, 0.0, 0.0, 0.0, 0.0, 1.6214327644500196E9, 2021-05-19 15:59:24.450
61.0, -41.224918365478516, -27.77623748779297, -47.72860336303711, -20.8630313873291, -0.09600000083446503, -0.03200000151991844, 1.055999994277954, 0.0, 0.0, 0.0, 0.0, 0.0, 1.6214327644500196E9, 2021-05-19 15:59:24.450
62.0, -80.28816986083984, -28.718690872192383, -69.43124389648438, -35.80767059326172, -0.1120000034570694, -0.03200000151991844, 1.055999994277954, 0.0, 0.0, 0.0, 0.0, 0.0, 1.6214327644657283E9, 2021-05-19 15:59:24.465
62.0, -51.618099212646484, 8.081923484802246, -56.56224822998047, -11.790034294128418, -0.1120000034570694, -0.03200000151991844, 1.055999994277954, 0.0, 0.0, 0.0, 0.0, 0.0, 1.6214327644657283E9, 2021-05-19 15:59:24.465
63.0, -22.02427101135254, 18.153474807739258, -31.168325424194336, 13.846979141235352, -0.1120000034570694, -0.03200000151991844, 1.055999994277954, 0.0, 0.0, 0.0, 0.0, 0.0, 1.6214327644664779E9, 2021-05-19 15:59:24.466
63.0, -55.623531341552734, -18.71072006225586, -60.118892669677734, -27.490135192871094, -0.1120000034570694, -0.03200000151991844, 1.055999994277954, 0.0, 0.0, 0.0, 0.0, 0.0, 1.6214327644664779E9, 2021-05-19 15:59:24.466
64.0, -67.66600799560547, -22.951766967773438, -66.98908996582031, -31.4918270111084, -0.1120000034570694, -0.03200000151991844, 1.055999994277954, 0.0, 0.0, 0.0, 0.0, 0.0, 1.6214327644800093E9, 2021-05-19 15:59:24.480
64.0, -34.39585876464844, -1.9110888242721558, -44.84513854980469, -4.2690958976745605, -0.1120000034570694, -0.03200000151991844, 1.055999994277954, 0.0, 0.0, 0.0, 0.0, 0.0, 1.6214327644800093E9, 2021-05-19 15:59:24.480
65.0, -31.665733337402344, 7.827610492706299, -33.93585205078125, 0.7049711346626282, -0.1120000034570694, -0.03200000151991844, 1.055999994277954, 0.0, 0.0, 0.0, 0.0, 0.0, 1.6214327644957461E9, 2021-05-19 15:59:24.495
65.0, -64.87604522705078, -3.590303897857666, -56.20695495605469, -17.321346282958984, -0.1120000034570694, -0.03200000151991844, 1.055999994277954, 0.0, 0.0, 0.0, 0.0, 0.0, 1.6214327644957461E9, 2021-05-19 15:59:24.495
66.0, -82.17681884765625, -22.521677017211914, -75.65069580078125, -37.232574462890625, -0.1120000034570694, -0.03200000151991844, 1.055999994277954, 0.0, 0.0, 0.0, 0.0, 0.0, 1.621432764496452E9, 2021-05-19 15:59:24.496
66.0, -53.1290168762207, 11.6759672164917, -58.39105987548828, -11.07197380065918, -0.1120000034570694, -0.03200000151991844, 1.055999994277954, 0.0, 0.0, 0.0, 0.0, 0.0, 1.621432764496452E9, 2021-05-19 15:59:24.496
67.0, -38.150718688964844, 18.89397430419922, -38.50600814819336, 0.9144055247306824, -0.1120000034570694, -0.03200000151991844, 1.055999994277954, 0.0, 0.0, 0.0, 0.0, 0.0, 1.6214327645099993E9, 2021-05-19 15:59:24.509
67.0, -68.6159439086914, -19.503578186035156, -56.8203010559082, -16.08717918395996, -0.1120000034570694, -0.03200000151991844, 1.055999994277954, 0.0, 0.0, 0.0, 0.0, 0.0, 1.6214327645099993E9, 2021-05-19 15:59:24.509
68.0, -77.23641204833984, -33.7451171875, -75.63199615478516, -42.969581604003906, -0.1120000034570694, -0.03200000151991844, 1.055999994277954, 0.0, 0.0, 0.0, 0.0, 0.0, 1.621432764525741E9, 2021-05-19 15:59:24.525
68.0, -48.34942626953125, -1.525879144668579, -46.905826568603516, -5.114313125610352, -0.1120000034570694, -0.03200000151991844, 1.055999994277954, 0.0, 0.0, 0.0, 0.0, 0.0, 1.621432764525741E9, 2021-05-19 15:59:24.525
69.0, -20.73774528503418, 22.35712242126465, -31.2805233001709, 2.597360610961914, -0.1120000034570694, -0.03200000151991844, 1.055999994277954, 0.0, 0.0, 0.0, 0.0, 0.0, 1.6214327645264547E9, 2021-05-19 15:59:24.526
69.0, -57.83755111694336, -22.364601135253906, -50.66068649291992, -11.973289489746094, -0.1120000034570694, -0.03200000151991844, 1.055999994277954, 0.0, 0.0, 0.0, 0.0, 0.0, 1.6214327645264547E9, 2021-05-19 15:59:24.526
70.0, -86.91153717041016, -29.189918518066406, -68.1484603881836, -34.24065399169922, -0.1120000034570694, -0.03200000151991844, 1.055999994277954, 0.0, 0.0, 0.0, 0.0, 0.0, 1.62143276454006E9, 2021-05-19 15:59:24.540
70.0, -44.45619201660156, -4.858129978179932, -49.44521713256836, -3.360300064086914, -0.1120000034570694, -0.03200000151991844, 1.055999994277954, 0.0, 0.0, 0.0, 0.0, 0.0, 1.62143276454006E9, 2021-05-19 15:59:24.540
71.0, -30.8990535736084, 7.928587913513184, -35.345794677734375, 13.74974250793457, -0.1120000034570694, -0.03200000151991844, 1.055999994277954, 0.0, 0.0, 0.0, 0.0, 0.0, 1.6214327645556855E9, 2021-05-19 15:59:24.555
71.0, -61.12492370605469, -22.26362419128418, -61.95144271850586, -19.57276725769043, -0.1120000034570694, -0.03200000151991844, 1.055999994277954, 0.0, 0.0, 0.0, 0.0, 0.0, 1.6214327645556855E9, 2021-05-19 15:59:24.555
72.0, -73.8331069946289, -23.591289520263672, -68.76927947998047, -27.28070068359375, -0.09600000083446503, -0.03200000151991844, 1.055999994277954, 0.0, 0.0, 0.0, 0.0, 0.0, 1.621432764556437E9, 2021-05-19 15:59:24.556
72.0, -46.9432258605957, -2.688987970352173, -52.17908477783203, -9.037467956542969, -0.09600000083446503, -0.03200000151991844, 1.055999994277954, 0.0, 0.0, 0.0, 0.0, 0.0, 1.621432764556437E9, 2021-05-19 15:59:24.556
73.0, -36.84175491333008, 14.436014175415039, -31.57597541809082, 6.812227725982666, -0.09600000083446503, -0.03200000151991844, 1.055999994277954, 0.0, 0.0, 0.0, 0.0, 0.0, 1.6214327645864651E9, 2021-05-19 15:59:24.586
73.0, -54.9129524230957, -5.052604675292969, -52.21648406982422, -13.121438980102539, -0.09600000083446503, -0.03200000151991844, 1.055999994277954, 0.0, 0.0, 0.0, 0.0, 0.0, 1.6214327645864651E9, 2021-05-19 15:59:24.586
74.0, -65.81849670410156, -15.909534454345703, -73.05520629882812, -19.51666831970215, -0.09600000083446503, -0.03200000151991844, 1.055999994277954, 0.0, 0.0, 0.0, 0.0, 0.0, 1.6214327645871239E9, 2021-05-19 15:59:24.587
74.0, -72.54283905029297, 3.343470573425293, -63.47732162475586, -10.073420524597168, -0.09600000083446503, -0.03200000151991844, 1.055999994277954, 0.0, 0.0, 0.0, 0.0, 0.0, 1.6214327645871239E9, 2021-05-19 15:59:24.587
75.0, -41.367034912109375, 4.899269104003906, -53.25243377685547, -7.391912460327148, -0.09600000083446503, -0.03200000151991844, 1.055999994277954, 0.0, 0.0, 0.0, 0.0, 0.0, 1.6214327645878804E9, 2021-05-19 15:59:24.587
75.0, -61.96266174316406, -17.27459716796875, -58.634151458740234, -17.358745574951172, -0.09600000083446503, -0.03200000151991844, 1.055999994277954, 0.0, 0.0, 0.0, 0.0, 0.0, 1.6214327645878804E9, 2021-05-19 15:59:24.587
76.0, -70.19044494628906, -24.612281799316406, -67.1274642944336, -28.339092254638672, -0.09600000083446503, -0.03200000151991844, 1.055999994277954, 0.0, 0.0, 0.0, 0.0, 0.0, 1.6214327646000116E9, 2021-05-19 15:59:24.600
76.0, -55.49263381958008, -8.788764953613281, -50.97857666015625, -25.08163833618164, -0.09600000083446503, -0.03200000151991844, 1.055999994277954, 0.0, 0.0, 0.0, 0.0, 0.0, 1.6214327646000116E9, 2021-05-19 15:59:24.600
77.0, -18.66584014892578, 41.75972366333008, -25.60709571838379, 5.880992889404297, -0.09600000083446503, -0.03200000151991844, 1.055999994277954, 0.0, 0.0, 0.0, 0.0, 0.0, 1.6214327646467905E9, 2021-05-19 15:59:24.646
77.0, -64.67034912109375, -6.69442081451416, -57.42242431640625, -24.718868255615234, -0.09600000083446503, -0.03200000151991844, 1.055999994277954, 0.0, 0.0, 0.0, 0.0, 0.0, 1.6214327646467905E9, 2021-05-19 15:59:24.646
78.0, -75.89752960205078, -27.82485580444336, -72.01551055908203, -35.856292724609375, -0.09600000083446503, -0.03200000151991844, 1.055999994277954, 0.0, 0.0, 0.0, 0.0, 0.0, 1.6214327646475072E9, 2021-05-19 15:59:24.647
78.0, -50.96735763549805, -1.2266871929168701, -57.65055847167969, -16.195636749267578, -0.09600000083446503, -0.03200000151991844, 1.055999994277954, 0.0, 0.0, 0.0, 0.0, 0.0, 1.6214327646475072E9, 2021-05-19 15:59:24.647
79.0, -37.61217498779297, 21.646541595458984, -36.93899154663086, -4.9759368896484375, -0.09600000083446503, -0.03200000151991844, 1.055999994277954, 0.0, 0.0, 0.0, 0.0, 0.0, 1.621432764648298E9, 2021-05-19 15:59:24.648
79.0, -54.60627746582031, 3.6052634716033936, -48.48406219482422, -25.96051597595215, -0.09600000083446503, -0.03200000151991844, 1.055999994277954, 0.0, 0.0, 0.0, 0.0, 0.0, 1.621432764648298E9, 2021-05-19 15:59:24.648
80.0, -81.17453002929688, -46.56923294067383, -72.5503158569336, -39.69342803955078, -0.09600000083446503, -0.03200000151991844, 1.055999994277954, 0.0, 0.0, 0.0, 0.0, 0.0, 1.6214327646621685E9, 2021-05-19 15:59:24.662
80.0, -51.65549850463867, -10.348302841186523, -54.78205490112305, -17.033374786376953, -0.09600000083446503, -0.03200000151991844, 1.055999994277954, 0.0, 0.0, 0.0, 0.0, 0.0, 1.6214327646621685E9, 2021-05-19 15:59:24.662
81.0, -26.73654556274414, 19.185686111450195, -38.38259506225586, 2.90029239654541, -0.09600000083446503, -0.03200000151991844, 1.055999994277954, 0.0, 0.0, 0.0, 0.0, 0.0, 1.621432764662882E9, 2021-05-19 15:59:24.662
81.0, -67.20600128173828, -20.176759719848633, -61.401676177978516, -20.474082946777344, -0.09600000083446503, -0.03200000151991844, 1.055999994277954, 0.0, 0.0, 0.0, 0.0, 0.0, 1.621432764662882E9, 2021-05-19 15:59:24.662
82.0, -74.66336059570312, -8.048264503479004, -67.84552764892578, -15.664570808410645, -0.1120000034570694, -0.03200000151991844, 1.055999994277954, 0.0, 0.0, 0.0, 0.0, 0.0, 1.6214327646636708E9, 2021-05-19 15:59:24.663
82.0, -49.80424880981445, 16.47052001953125, -57.250389099121094, -7.739722728729248, -0.1120000034570694, -0.03200000151991844, 1.055999994277954, 0.0, 0.0, 0.0, 0.0, 0.0, 1.6214327646636708E9, 2021-05-19 15:59:24.663
83.0, -21.029457092285156, 30.252050399780273, -38.10210037231445, 6.180184841156006, -0.1120000034570694, -0.03200000151991844, 1.055999994277954, 0.0, 0.0, 0.0, 0.0, 0.0, 1.621432764664402E9, 2021-05-19 15:59:24.664
83.0, -50.64572525024414, -17.723386764526367, -58.74260711669922, -17.24654769897461, -0.1120000034570694, -0.03200000151991844, 1.055999994277954, 0.0, 0.0, 0.0, 0.0, 0.0, 1.621432764664402E9, 2021-05-19 15:59:24.664
84.0, -81.02119445800781, -25.461238861083984, -75.62825775146484, -30.88970375061035, -0.1120000034570694, -0.03200000151991844, 1.055999994277954, 0.0, 0.0, 0.0, 0.0, 0.0, 1.621432764690778E9, 2021-05-19 15:59:24.690
84.0, -54.6436767578125, 4.166248321533203, -63.91489028930664, -17.358745574951172, -0.1120000034570694, -0.03200000151991844, 1.055999994277954, 0.0, 0.0, 0.0, 0.0, 0.0, 1.621432764690778E9, 2021-05-19 15:59:24.690
85.0, -35.34205627441406, 21.964431762695312, -46.5804557800293, 2.9077723026275635, -0.1120000034570694, -0.03200000151991844, 1.055999994277954, 0.0, 0.0, 0.0, 0.0, 0.0, 1.621432764691537E9, 2021-05-19 15:59:24.691
85.0, -52.526893615722656, 2.1280031204223633, -57.75901412963867, -12.365979194641113, -0.1120000034570694, -0.03200000151991844, 1.055999994277954, 0.0, 0.0, 0.0, 0.0, 0.0, 1.621432764691537E9, 2021-05-19 15:59:24.691
86.0, -67.067626953125, -16.051651000976562, -71.37973022460938, -37.50184631347656, -0.1120000034570694, -0.03200000151991844, 1.055999994277954, 0.0, 0.0, 0.0, 0.0, 0.0, 1.6214327647057452E9, 2021-05-19 15:59:24.705
86.0, -50.17075729370117, 0.5161061882972717, -58.85106658935547, -26.9141902923584, -0.1120000034570694, -0.03200000151991844, 1.055999994277954, 0.0, 0.0, 0.0, 0.0, 0.0, 1.6214327647057452E9, 2021-05-19 15:59:24.705
87.0, -41.48297119140625, 18.089895248413086, -43.2706413269043, -10.712943077087402, -0.1120000034570694, -0.03200000151991844, 1.055999994277954, 0.0, 0.0, 0.0, 0.0, 0.0, 1.6214327647064595E9, 2021-05-19 15:59:24.706
87.0, -58.57057189941406, -2.1392228603363037, -52.36233901977539, -25.395790100097656, -0.1120000034570694, -0.03200000151991844, 1.055999994277954, 0.0, 0.0, 0.0, 0.0, 0.0, 1.6214327647064595E9, 2021-05-19 15:59:24.706
88.0, -66.54029846191406, -16.982885360717773, -67.31446075439453, -29.700414657592773, -0.1120000034570694, -0.03200000151991844, 1.055999994277954, 0.0, 0.0, 0.0, 0.0, 0.0, 1.6214327647199948E9, 2021-05-19 15:59:24.719
88.0, -64.41230010986328, -2.1280031204223633, -57.254127502441406, -21.143524169921875, -0.1120000034570694, -0.03200000151991844, 1.055999994277954, 0.0, 0.0, 0.0, 0.0, 0.0, 1.6214327647199948E9, 2021-05-19 15:59:24.719
89.0, -37.70193099975586, 24.746917724609375, -34.66139221191406, 3.2406232357025146, -0.1120000034570694, -0.03200000151991844, 1.055999994277954, 0.0, 0.0, 0.0, 0.0, 0.0, 1.6214327647364526E9, 2021-05-19 15:59:24.736
89.0, -64.62921142578125, 1.9447479248046875, -52.867225646972656, -21.554912567138672, -0.1120000034570694, -0.03200000151991844, 1.055999994277954, 0.0, 0.0, 0.0, 0.0, 0.0, 1.6214327647364526E9, 2021-05-19 15:59:24.736
90.0, -73.70594787597656, -26.485971450805664, -74.85783386230469, -34.98115539550781, -0.1120000034570694, -0.03200000151991844, 1.055999994277954, 0.0, 0.0, 0.0, 0.0, 0.0, 1.6214327647371895E9, 2021-05-19 15:59:24.737
90.0, -51.36378479003906, 1.7614928483963013, -53.955535888671875, -11.517022132873535, -0.1120000034570694, -0.03200000151991844, 1.055999994277954, 0.0, 0.0, 0.0, 0.0, 0.0, 1.6214327647371895E9, 2021-05-19 15:59:24.737
91.0, -28.857067108154297, 13.968525886535645, -32.245418548583984, 1.6062870025634766, -0.1120000034570694, -0.03200000151991844, 1.055999994277954, 0.0, 0.0, 0.0, 0.0, 0.0, 1.6214327647663953E9, 2021-05-19 15:59:24.766
91.0, -58.118045806884766, -7.502239227294922, -55.64223098754883, -18.13664436340332, -0.1120000034570694, -0.03200000151991844, 1.055999994277954, 0.0, 0.0, 0.0, 0.0, 0.0, 1.6214327647663953E9, 2021-05-19 15:59:24.766
92.0, -72.73731231689453, -28.726171493530273, -68.96375274658203, -35.96474838256836, -0.1120000034570694, -0.03200000151991844, 1.055999994277954, 0.0, 0.0, 0.0, 0.0, 0.0, 1.6214327647672017E9, 2021-05-19 15:59:24.767
92.0, -49.89026641845703, 11.10002326965332, -53.72740173339844, -17.00719451904297, -0.1120000034570694, -0.03200000151991844, 1.055999994277954, 0.0, 0.0, 0.0, 0.0, 0.0, 1.6214327647672017E9, 2021-05-19 15:59:24.767
93.0, -43.88398742675781, 18.826656341552734, -41.27727508544922, -4.87869930267334, -0.1120000034570694, -0.03200000151991844, 1.055999994277954, 0.0, 0.0, 0.0, 0.0, 0.0, 1.621432764767862E9, 2021-05-19 15:59:24.767
93.0, -47.57900619506836, 1.5109195709228516, -51.10573196411133, -15.922623634338379, -0.1120000034570694, -0.03200000151991844, 1.055999994277954, 0.0, 0.0, 0.0, 0.0, 0.0, 1.621432764767862E9, 2021-05-19 15:59:24.767
94.0, -86.57494354248047, -17.23345947265625, -72.63633728027344, -32.19866943359375, -0.1120000034570694, -0.03200000151991844, 1.055999994277954, 0.0, 0.0, 0.0, 0.0, 0.0, 1.6214327647800655E9, 2021-05-19 15:59:24.780
94.0, -52.7475471496582, 1.847510576248169, -56.76420211791992, -8.293228149414062, -0.1120000034570694, -0.03200000151991844, 1.055999994277954, 0.0, 0.0, 0.0, 0.0, 0.0, 1.6214327647800655E9, 2021-05-19 15:59:24.780
95.0, -24.65342140197754, 18.837875366210938, -34.49309539794922, 0.37585994601249695, -0.1120000034570694, -0.03200000151991844, 1.055999994277954, 0.0, 0.0, 0.0, 0.0, 0.0, 1.6214327647965648E9, 2021-05-19 15:59:24.796
95.0, -47.941776275634766, -3.964293956756592, -54.65115737915039, -18.925764083862305, -0.1120000034570694, -0.03200000151991844, 1.055999994277954, 0.0, 0.0, 0.0, 0.0, 0.0, 1.6214327647965648E9, 2021-05-19 15:59:24.796
96.0, -69.37140655517578, -27.600461959838867, -74.98499298095703, -42.962100982666016, -0.1120000034570694, -0.03200000151991844, 1.055999994277954, 0.0, 0.0, 0.0, 0.0, 0.0, 1.6214327647971637E9, 2021-05-19 15:59:24.797
96.0, -48.79447555541992, -10.318384170532227, -44.39261245727539, -8.985109329223633, -0.1120000034570694, -0.03200000151991844, 1.055999994277954, 0.0, 0.0, 0.0, 0.0, 0.0, 1.6214327647971637E9, 2021-05-19 15:59:24.797
97.0, -23.609989166259766, 31.295482635498047, -29.537729263305664, 10.372612953186035, -0.1120000034570694, -0.03200000151991844, 1.055999994277954, 0.0, 0.0, 0.0, 0.0, 0.0, 1.6214327648100865E9, 2021-05-19 15:59:24.810
97.0, -57.54209899902344, -23.41551399230957, -53.95927810668945, -17.30264663696289, -0.1120000034570694, -0.03200000151991844, 1.055999994277954, 0.0, 0.0, 0.0, 0.0, 0.0, 1.6214327648100865E9, 2021-05-19 15:59:24.810
98.0, -67.43787384033203, -19.885047912597656, -67.9726791381836, -35.366363525390625, -0.1120000034570694, -0.03200000151991844, 1.055999994277954, 0.0, 0.0, 0.0, 0.0, 0.0, 1.6214327648256867E9, 2021-05-19 15:59:24.825
98.0, -43.82040786743164, 17.667287826538086, -53.27113342285156, -23.166810989379883, -0.1120000034570694, -0.03200000151991844, 1.055999994277954, 0.0, 0.0, 0.0, 0.0, 0.0, 1.6214327648256867E9, 2021-05-19 15:59:24.825
99.0, -15.894575119018555, 8.149242401123047, -40.90328598022461, -6.89076566696167, -0.1120000034570694, -0.03200000151991844, 1.055999994277954, 0.0, 0.0, 0.0, 0.0, 0.0, 1.621432764826476E9, 2021-05-19 15:59:24.826
99.0, -72.20624542236328, -13.609496116638184, -57.93852996826172, -34.96619415283203, -0.1120000034570694, -0.03200000151991844, 1.055999994277954, 0.0, 0.0, 0.0, 0.0, 0.0, 1.621432764826476E9, 2021-05-19 15:59:24.826
100.0, -68.48878479003906, -32.69420623779297, -68.17463684082031, -47.203147888183594, -0.1120000034570694, -0.03200000151991844, 1.055999994277954, 0.0, 0.0, 0.0, 0.0, 0.0, 1.6214327648407617E9, 2021-05-19 15:59:24.840
100.0, -58.45463562011719, 11.877922058105469, -51.64427947998047, -17.628019332885742, -0.1120000034570694, -0.03200000151991844, 1.055999994277954, 0.0, 0.0, 0.0, 0.0, 0.0, 1.6214327648407617E9, 2021-05-19 15:59:24.840
0.0, -26.96280860900879, 28.765439987182617, -31.59841537475586, -0.19821469485759735, -0.1120000034570694, -0.03200000151991844, 1.055999994277954, 0.0, 0.0, 0.0, 0.0, 0.0, 1.6214327648414986E9, 2021-05-19 15:59:24.841
1.0, -66.98722076416016, -4.426171779632568, -52.87844467163086, -20.180500030517578, -0.1120000034570694, -0.03200000151991844, 1.055999994277954, 0.0, 0.0, 0.0, 0.0, 0.0, 1.6214327648711708E9, 2021-05-19 15:59:24.871
1.0, -74.09302520751953, -32.08647155761719, -68.5299301147461, -38.74162292480469, -0.1120000034570694, -0.03200000151991844, 1.055999994277954, 0.0, 0.0, 0.0, 0.0, 0.0, 1.6214327648711708E9, 2021-05-19 15:59:24.871
2.0, -42.33005905151367, 5.993189811706543, -38.90243911743164, -6.346610069274902, -0.1120000034570694, -0.03200000151991844, 1.055999994277954, 0.0, 0.0, 0.0, 0.0, 0.0, 1.6214327648719492E9, 2021-05-19 15:59:24.871
2.0, -31.731182098388672, 29.543338775634766, -23.475351333618164, 0.4562678039073944, -0.1120000034570694, -0.03200000151991844, 1.055999994277954, 0.0, 0.0, 0.0, 0.0, 0.0, 1.6214327648719492E9, 2021-05-19 15:59:24.871
3.0, -50.15766906738281, -4.53088903427124, -44.078460693359375, -25.435060501098633, -0.1120000034570694, -0.03200000151991844, 1.055999994277954, 0.0, 0.0, 0.0, 0.0, 0.0, 1.6214327648857663E9, 2021-05-19 15:59:24.885
3.0, -74.69515228271484, -28.956174850463867, -61.09500503540039, -40.94816589355469, -0.1120000034570694, -0.03200000151991844, 1.055999994277954, 0.0, 0.0, 0.0, 0.0, 0.0, 1.6214327648857663E9, 2021-05-19 15:59:24.885
4.0, -51.462894439697266, 0.18886494636535645, -51.89485168457031, -22.633874893188477, -0.1120000034570694, -0.03200000151991844, 1.055999994277954, 0.0, 0.0, 0.0, 0.0, 0.0, 1.6214327648864784E9, 2021-05-19 15:59:24.886
4.0, -25.87449836730957, 35.77027130126953, -25.52107810974121, 8.018345832824707, -0.1120000034570694, -0.03200000151991844, 1.055999994277954, 0.0, 0.0, 0.0, 0.0, 0.0, 1.6214327648864784E9, 2021-05-19 15:59:24.886
5.0, -65.8166275024414, -4.011042594909668, -60.02165603637695, -30.801816940307617, -0.1120000034570694, -0.03200000151991844, 1.055999994277954, 0.0, 0.0, 0.0, 0.0, 0.0, 1.6214327649012847E9, 2021-05-19 15:59:24.901
5.0, -66.35891723632812, -25.773521423339844, -61.28200149536133, -39.3549690246582, -0.1120000034570694, -0.03200000151991844, 1.055999994277954, 0.0, 0.0, 0.0, 0.0, 0.0, 1.6214327649012847E9, 2021-05-19 15:59:24.901
6.0, -45.75206756591797, 1.5127894878387451, -38.341453552246094, -16.474258422851562, -0.1120000034570694, -0.03200000151991844, 1.055999994277954, 0.0, 0.0, 0.0, 0.0, 0.0, 1.6214327649154692E9, 2021-05-19 15:59:24.915
6.0, -42.45347595214844, 25.982954025268555, -27.050697326660156, -0.4600076973438263, -0.1120000034570694, -0.03200000151991844, 1.055999994277954, 0.0, 0.0, 0.0, 0.0, 0.0, 1.6214327649154692E9, 2021-05-19 15:59:24.915
7.0, -56.02183151245117, -20.0888729095459, -40.319862365722656, -22.989164352416992, -0.1120000034570694, -0.03200000151991844, 1.055999994277954, 0.0, 0.0, 0.0, 0.0, 0.0, 1.6214327649318295E9, 2021-05-19 15:59:24.931
7.0, -78.59212493896484, -23.279006958007812, -66.46549987792969, -30.588642120361328, -0.1120000034570694, -0.03200000151991844, 1.055999994277954, 0.0, 0.0, 0.0, 0.0, 0.0, 1.6214327649318295E9, 2021-05-19 15:59:24.931
8.0, -48.93846130371094, 5.271389007568359, -55.821746826171875, -17.229719161987305, -0.1120000034570694, -0.03200000151991844, 1.055999994277954, 0.0, 0.0, 0.0, 0.0, 0.0, 1.6214327649325209E9, 2021-05-19 15:59:24.932
8.0, -24.763748168945312, 23.144371032714844, -45.71279525756836, -3.560384750366211, -0.1120000034570694, -0.03200000151991844, 1.055999994277954, 0.0, 0.0, 0.0, 0.0, 0.0, 1.6214327649325209E9, 2021-05-19 15:59:24.932
9.0, -64.14115142822266, 13.30095386505127, -61.450294494628906, -24.746917724609375, -0.1120000034570694, -0.03200000151991844, 1.055999994277954, 0.0, 0.0, 0.0, 0.0, 0.0, 1.6214327649457662E9, 2021-05-19 15:59:24.945
9.0, -71.76306915283203, -18.200223922729492, -70.99078369140625, -38.76032257080078, -0.1120000034570694, -0.03200000151991844, 1.055999994277954, 0.0, 0.0, 0.0, 0.0, 0.0, 1.6214327649457662E9, 2021-05-19 15:59:24.945
10.0, -36.742645263671875, 5.376106262207031, -48.06519317626953, -5.965140342712402, -0.1120000034570694, -0.03200000151991844, 1.055999994277954, 0.0, 0.0, 0.0, 0.0, 0.0, 1.6214327649464834E9, 2021-05-19 15:59:24.946
10.0, -30.65035057067871, 19.920578002929688, -35.03538131713867, 0.40390920639038086, -0.1120000034570694, -0.03200000151991844, 1.055999994277954, 0.0, 0.0, 0.0, 0.0, 0.0, 1.6214327649464834E9, 2021-05-19 15:59:24.946
11.0, -60.909881591796875, -17.35126495361328, -59.079200744628906, -33.199092864990234, -0.1120000034570694, -0.03200000151991844, 1.055999994277954, 0.0, 0.0, 0.0, 0.0, 0.0, 1.6214327649608471E9, 2021-05-19 15:59:24.960
11.0, -66.47859191894531, -15.440176963806152, -65.69508361816406, -32.37257385253906, -0.1120000034570694, -0.03200000151991844, 1.055999994277954, 0.0, 0.0, 0.0, 0.0, 0.0, 1.6214327649608471E9, 2021-05-19 15:59:24.960
12.0, -47.17696762084961, 11.853612899780273, -52.82234573364258, -16.036691665649414, -0.1120000034570694, -0.03200000151991844, 1.055999994277954, 0.0, 0.0, 0.0, 0.0, 0.0, 1.6214327649615545E9, 2021-05-19 15:59:24.961
12.0, -30.033266067504883, 22.83769989013672, -33.16917419433594, -0.265532910823822, -0.1120000034570694, -0.03200000151991844, 1.055999994277954, 0.0, 0.0, 0.0, 0.0, 0.0, 1.6214327649615545E9, 2021-05-19 15:59:24.961
13.0, -51.31703567504883, -1.0153828859329224, -46.270042419433594, -25.48741912841797, -0.1120000034570694, -0.03200000151991844, 1.055999994277954, 0.0, 0.0, 0.0, 0.0, 0.0, 1.6214327649751072E9, 2021-05-19 15:59:24.975
13.0, -81.56534576416016, -14.901631355285645, -70.86736297607422, -40.86588668823242, -0.1120000034570694, -0.03200000151991844, 1.055999994277954, 0.0, 0.0, 0.0, 0.0, 0.0, 1.6214327649751072E9, 2021-05-19 15:59:24.975
14.0, -54.81758499145508, 8.727056503295898, -50.671905517578125, -14.952119827270508, -0.1120000034570694, -0.03200000151991844, 1.055999994277954, 0.0, 0.0, 0.0, 0.0, 0.0, 1.62143276499073E9, 2021-05-19 15:59:24.990
14.0, -34.56602478027344, 9.665771484375, -31.878908157348633, -4.18120813369751, -0.1120000034570694, -0.03200000151991844, 1.055999994277954, 0.0, 0.0, 0.0, 0.0, 0.0, 1.62143276499073E9, 2021-05-19 15:59:24.990
15.0, -65.36410522460938, -2.3692266941070557, -62.448848724365234, -38.72666549682617, -0.1120000034570694, -0.03200000151991844, 1.055999994277954, 0.0, 0.0, 0.0, 0.0, 0.0, 1.6214327649914389E9, 2021-05-19 15:59:24.991
15.0, -72.46990966796875, -13.476729393005371, -68.48130798339844, -37.33916091918945, -0.1120000034570694, -0.03200000151991844, 1.055999994277954, 0.0, 0.0, 0.0, 0.0, 0.0, 1.6214327649914389E9, 2021-05-19 15:59:24.991
16.0, -63.37821578979492, 6.101646900177002, -56.973636627197266, -16.01799201965332, -0.1120000034570694, -0.03200000151991844, 1.055999994277954, 0.0, 0.0, 0.0, 0.0, 0.0, 1.6214327650051475E9, 2021-05-19 15:59:25.005
16.0, -31.316051483154297, 19.277315139770508, -35.903038024902344, 5.774405479431152, -0.1120000034570694, -0.03200000151991844, 1.055999994277954, 0.0, 0.0, 0.0, 0.0, 0.0, 1.6214327650051475E9, 2021-05-19 15:59:25.005
17.0, -57.34575653076172, -10.649365425109863, -59.53546905517578, -21.687679290771484, -0.1120000034570694, -0.03200000151991844, 1.055999994277954, 0.0, 0.0, 0.0, 0.0, 0.0, 1.6214327650207303E9, 2021-05-19 15:59:25.020
17.0, -91.30404663085938, -36.02084732055664, -85.08272552490234, -38.48731231689453, -0.1120000034570694, -0.03200000151991844, 1.055999994277954, 0.0, 0.0, 0.0, 0.0, 0.0, 1.6214327650207303E9, 2021-05-19 15:59:25.020
18.0, -41.716712951660156, 18.551773071289062, -46.20646286010742, -2.9507811069488525, -0.1120000034570694, -0.03200000151991844, 1.055999994277954, 0.0, 0.0, 0.0, 0.0, 0.0, 1.6214327650214417E9, 2021-05-19 15:59:25.021
18.0, -29.917329788208008, 26.158729553222656, -42.13371276855469, 3.0928971767425537, -0.1120000034570694, -0.03200000151991844, 1.055999994277954, 0.0, 0.0, 0.0, 0.0, 0.0, 1.6214327650214417E9, 2021-05-19 15:59:25.021
19.0, -56.848350524902344, -7.193697452545166, -61.22590255737305, -15.898314476013184, -0.1120000034570694, -0.03200000151991844, 1.055999994277954, 0.0, 0.0, 0.0, 0.0, 0.0, 1.6214327650349865E9, 2021-05-19 15:59:25.034
19.0, -78.90628051757812, -29.2030086517334, -78.23870849609375, -27.8472957611084, -0.1120000034570694, -0.03200000151991844, 1.055999994277954, 0.0, 0.0, 0.0, 0.0, 0.0, 1.6214327650349865E9, 2021-05-19 15:59:25.034
20.0, -50.449378967285156, 8.214690208435059, -60.93418884277344, -9.18519401550293, -0.1120000034570694, -0.03200000151991844, 1.055999994277954, 0.0, 0.0, 0.0, 0.0, 0.0, 1.6214327650507207E9, 2021-05-19 15:59:25.050
20.0, -45.65108871459961, 31.248733520507812, -40.9406852722168, 2.741346597671509, -0.1120000034570694, -0.03200000151991844, 1.055999994277954, 0.0, 0.0, 0.0, 0.0, 0.0, 1.6214327650507207E9, 2021-05-19 15:59:25.050
21.0, -68.4420394897461, -20.533920288085938, -56.99233627319336, -15.64026165008545, -0.1120000034570694, -0.03200000151991844, 1.055999994277954, 0.0, 0.0, 0.0, 0.0, 0.0, 1.6214327650514245E9, 2021-05-19 15:59:25.051
21.0, -69.96417999267578, -24.258861541748047, -66.83201599121094, -26.579469680786133, -0.1120000034570694, -0.03200000151991844, 1.055999994277954, 0.0, 0.0, 0.0, 0.0, 0.0, 1.6214327650514245E9, 2021-05-19 15:59:25.051
22.0, -46.56736373901367, 10.204317092895508, -55.918983459472656, -11.129941940307617, -0.1120000034570694, -0.03200000151991844, 1.055999994277954, 0.0, 0.0, 0.0, 0.0, 0.0, 1.6214327650654476E9, 2021-05-19 15:59:25.065
22.0, -43.22015380859375, 24.281299591064453, -46.318660736083984, -5.213420391082764, -0.1120000034570694, -0.03200000151991844, 1.055999994277954, 0.0, 0.0, 0.0, 0.0, 0.0, 1.6214327650654476E9, 2021-05-19 15:59:25.065
23.0, -61.048255920410156, -14.950249671936035, -65.70256042480469, -31.953704833984375, -0.1120000034570694, -0.03200000151991844, 1.055999994277954, 0.0, 0.0, 0.0, 0.0, 0.0, 1.6214327650807712E9, 2021-05-19 15:59:25.080
23.0, -63.778385162353516, -32.53900146484375, -71.35355377197266, -37.152164459228516, -0.1120000034570694, -0.03200000151991844, 1.055999994277954, 0.0, 0.0, 0.0, 0.0, 0.0, 1.6214327650807712E9, 2021-05-19 15:59:25.080
24.0, -48.6991081237793, -4.112020015716553, -52.93080520629883, -18.778038024902344, -0.1120000034570694, -0.03200000151991844, 1.055999994277954, 0.0, 0.0, 0.0, 0.0, 0.0, 1.6214327650815096E9, 2021-05-19 15:59:25.081
24.0, -27.594852447509766, 23.95966911315918, -32.64558792114258, -9.136575698852539, -0.1120000034570694, -0.03200000151991844, 1.055999994277954, 0.0, 0.0, 0.0, 0.0, 0.0, 1.6214327650815096E9, 2021-05-19 15:59:25.081
25.0, -67.7239761352539, -21.801746368408203, -54.70725631713867, -30.35302734375, -0.1120000034570694, -0.03200000151991844, 1.055999994277954, 0.0, 0.0, 0.0, 0.0, 0.0, 1.6214327650950668E9, 2021-05-19 15:59:25.095
25.0, -72.15576171875, -33.178524017333984, -70.95338439941406, -44.77408218383789, -0.1120000034570694, -0.03200000151991844, 1.055999994277954, 0.0, 0.0, 0.0, 0.0, 0.0, 1.6214327650950668E9, 2021-05-19 15:59:25.095
26.0, -49.08805847167969, -1.5801076889038086, -53.47309112548828, -23.767065048217773, -0.1120000034570694, -0.03200000151991844, 1.055999994277954, 0.0, 0.0, 0.0, 0.0, 0.0, 1.6214327651107724E9, 2021-05-19 15:59:25.110
26.0, -34.315452575683594, 19.984155654907227, -37.458839416503906, -7.1095499992370605, -0.1120000034570694, -0.03200000151991844, 1.055999994277954, 0.0, 0.0, 0.0, 0.0, 0.0, 1.6214327651107724E9, 2021-05-19 15:59:25.110
27.0, -48.14186096191406, -18.058107376098633, -48.10259246826172, -22.611434936523438, -0.1120000034570694, -0.03200000151991844, 1.055999994277954, 0.0, 0.0, 0.0, 0.0, 0.0, 1.6214327651114829E9, 2021-05-19 15:59:25.111
27.0, -64.52262115478516, -30.908403396606445, -61.510135650634766, -43.06494903564453, -0.1120000034570694, -0.03200000151991844, 1.055999994277954, 0.0, 0.0, 0.0, 0.0, 0.0, 1.6214327651114829E9, 2021-05-19 15:59:25.111
28.0, -46.64590072631836, 4.598206996917725, -43.547393798828125, -23.452913284301758, -0.1120000034570694, -0.03200000151991844, 1.055999994277954, 0.0, 0.0, 0.0, 0.0, 0.0, 1.621432765125048E9, 2021-05-19 15:59:25.125
28.0, -29.030973434448242, 0.5329357385635376, -27.712657928466797, -4.996506214141846, -0.1120000034570694, -0.03200000151991844, 1.055999994277954, 0.0, 0.0, 0.0, 0.0, 0.0, 1.621432765125048E9, 2021-05-19 15:59:25.125
29.0, -42.41607666015625, -1.4230319261550903, -46.2513427734375, -39.70277786254883, -0.1120000034570694, -0.03200000151991844, 1.055999994277954, 0.0, 0.0, 0.0, 0.0, 0.0, 1.621432765140824E9, 2021-05-19 15:59:25.140
29.0, -80.7874526977539, -28.335351943969727, -66.01671600341797, -50.94117736816406, -0.1120000034570694, -0.03200000151991844, 1.055999994277954, 0.0, 0.0, 0.0, 0.0, 0.0, 1.621432765140824E9, 2021-05-19 15:59:25.140
30.0, -44.77595138549805, 12.078006744384766, -46.44581604003906, -10.217406272888184, -0.1120000034570694, -0.03200000151991844, 1.040000081062317, 0.0, 0.0, 0.0, 0.0, 0.0, 1.6214327651414528E9, 2021-05-19 15:59:25.141
30.0, -34.87643814086914, 28.118438720703125, -32.77648162841797, 0.8040785193443298, -0.1120000034570694, -0.03200000151991844, 1.040000081062317, 0.0, 0.0, 0.0, 0.0, 0.0, 1.6214327651414528E9, 2021-05-19 15:59:25.141
31.0, -68.41211700439453, -4.388772487640381, -58.28634262084961, -21.994352340698242, -0.1120000034570694, -0.03200000151991844, 1.040000081062317, 0.0, 0.0, 0.0, 0.0, 0.0, 1.621432765155106E9, 2021-05-19 15:59:25.155
31.0, -68.0231704711914, -33.664710998535156, -71.99681091308594, -42.8891716003418, -0.1120000034570694, -0.03200000151991844, 1.040000081062317, 0.0, 0.0, 0.0, 0.0, 0.0, 1.621432765155106E9, 2021-05-19 15:59:25.155
32.0, -58.27699279785156, -7.649965286254883, -62.02997970581055, -28.46063804626465, -0.1120000034570694, -0.03200000151991844, 1.040000081062317, 0.0, 0.0, 0.0, 0.0, 0.0, 1.62143276517053E9, 2021-05-19 15:59:25.170
32.0, -25.309772491455078, 20.55261993408203, -28.247465133666992, -1.686694860458374, -0.1120000034570694, -0.03200000151991844, 1.040000081062317, 0.0, 0.0, 0.0, 0.0, 0.0, 1.62143276517053E9, 2021-05-19 15:59:25.170
33.0, -52.558685302734375, -34.71187973022461, -49.2918815612793, -28.176406860351562, -0.1120000034570694, -0.03200000151991844, 1.040000081062317, 0.0, 0.0, 0.0, 0.0, 0.0, 1.621432765185718E9, 2021-05-19 15:59:25.185
33.0, -67.03583526611328, -17.029634475708008, -69.83141326904297, -47.29477310180664, -0.1120000034570694, -0.03200000151991844, 1.040000081062317, 0.0, 0.0, 0.0, 0.0, 0.0, 1.621432765185718E9, 2021-05-19 15:59:25.185
34.0, -42.55071258544922, 17.893550872802734, -39.43350601196289, -20.090742111206055, -0.1120000034570694, -0.03200000151991844, 1.040000081062317, 0.0, 0.0, 0.0, 0.0, 0.0, 1.6214327651864305E9, 2021-05-19 15:59:25.186
34.0, -40.3703498840332, 29.962207794189453, -30.401647567749023, -15.255051612854004, -0.1120000034570694, -0.03200000151991844, 1.040000081062317, 0.0, 0.0, 0.0, 0.0, 0.0, 1.6214327651864305E9, 2021-05-19 15:59:25.186
35.0, -60.62938690185547, -11.999468803405762, -46.43833923339844, -25.554737091064453, -0.1120000034570694, -0.03200000151991844, 1.040000081062317, 0.0, 0.0, 0.0, 0.0, 0.0, 1.6214327652007697E9, 2021-05-19 15:59:25.200
35.0, -67.9820327758789, -10.956036567687988, -63.750335693359375, -42.7881965637207, -0.1120000034570694, -0.03200000151991844, 1.040000081062317, 0.0, 0.0, 0.0, 0.0, 0.0, 1.6214327652007697E9, 2021-05-19 15:59:25.200
36.0, -43.74747848510742, -11.00091552734375, -48.00909423828125, -25.06106948852539, -0.1120000034570694, -0.03200000151991844, 1.040000081062317, 0.0, 0.0, 0.0, 0.0, 0.0, 1.6214327652015195E9, 2021-05-19 15:59:25.201
36.0, -33.49641418457031, 11.812474250793457, -26.542070388793945, -5.867903232574463, -0.1120000034570694, -0.03200000151991844, 1.040000081062317, 0.0, 0.0, 0.0, 0.0, 0.0, 1.6214327652015195E9, 2021-05-19 15:59:25.201
37.0, -39.45781326293945, -9.243163108825684, -39.4372444152832, -17.36809539794922, -0.1120000034570694, -0.03200000151991844, 1.040000081062317, 0.0, 0.0, 0.0, 0.0, 0.0, 1.6214327652151313E9, 2021-05-19 15:59:25.215
37.0, -72.1370620727539, -39.16984176635742, -63.82513427734375, -43.977481842041016, -0.1120000034570694, -0.03200000151991844, 1.040000081062317, 0.0, 0.0, 0.0, 0.0, 0.0, 1.6214327652151313E9, 2021-05-19 15:59:25.215
38.0, -50.95052719116211, 20.739614486694336, -40.84718704223633, -18.9500732421875, -0.1120000034570694, -0.03200000151991844, 1.040000081062317, 0.0, 0.0, 0.0, 0.0, 0.0, 1.6214327652309005E9, 2021-05-19 15:59:25.230
38.0, -31.54792594909668, 17.448503494262695, -35.293434143066406, -21.0331974029541, -0.1120000034570694, -0.03200000151991844, 1.040000081062317, 0.0, 0.0, 0.0, 0.0, 0.0, 1.6214327652309005E9, 2021-05-19 15:59:25.230
39.0, -63.62504959106445, -16.913698196411133, -54.83815383911133, -32.1481819152832, -0.1120000034570694, -0.03200000151991844, 1.040000081062317, 0.0, 0.0, 0.0, 0.0, 0.0, 1.6214327652315187E9, 2021-05-19 15:59:25.231
39.0, -72.31657409667969, -31.162715911865234, -65.5006103515625, -36.29573059082031, -0.1120000034570694, -0.03200000151991844, 1.040000081062317, 0.0, 0.0, 0.0, 0.0, 0.0, 1.6214327652315187E9, 2021-05-19 15:59:25.231
40.0, -42.07574462890625, 1.7858022451400757, -54.45294189453125, -18.482585906982422, -0.1120000034570694, -0.03200000151991844, 1.040000081062317, 0.0, 0.0, 0.0, 0.0, 0.0, 1.6214327652451298E9, 2021-05-19 15:59:25.245
40.0, -40.617183685302734, 17.583139419555664, -36.538822174072266, -3.803478240966797, -0.1120000034570694, -0.03200000151991844, 1.040000081062317, 0.0, 0.0, 0.0, 0.0, 0.0, 1.6214327652451298E9, 2021-05-19 15:59:25.245
41.0, -57.11014175415039, -17.448503494262695, -59.98051452636719, -28.569095611572266, -0.1120000034570694, -0.03200000151991844, 1.040000081062317, 0.0, 0.0, 0.0, 0.0, 0.0, 1.6214327652608266E9, 2021-05-19 15:59:25.260
41.0, -61.36614990234375, -32.520301818847656, -70.74394989013672, -38.14323806762695, -0.1120000034570694, -0.03200000151991844, 1.040000081062317, 0.0, 0.0, 0.0, 0.0, 0.0, 1.6214327652608266E9, 2021-05-19 15:59:25.260
42.0, -56.91940689086914, 14.426664352416992, -52.87470626831055, -21.706378936767578, -0.09600000083446503, -0.03200000151991844, 1.040000081062317, 0.0, 0.0, 0.0, 0.0, 0.0, 1.621432765261567E9, 2021-05-19 15:59:25.261
42.0, -31.319791793823242, 0.761069655418396, -37.817867279052734, -9.690080642700195, -0.09600000083446503, -0.03200000151991844, 1.040000081062317, 0.0, 0.0, 0.0, 0.0, 0.0, 1.621432765261567E9, 2021-05-19 15:59:25.261
43.0, -52.10615539550781, -1.4043323993682861, -41.23613739013672, -19.40260124206543, -0.09600000083446503, -0.03200000151991844, 1.040000081062317, 0.0, 0.0, 0.0, 0.0, 0.0, 1.6214327652751236E9, 2021-05-19 15:59:25.275
43.0, -80.12174987792969, -38.410640716552734, -66.23362731933594, -38.16941833496094, -0.09600000083446503, -0.03200000151991844, 1.040000081062317, 0.0, 0.0, 0.0, 0.0, 0.0, 1.6214327652751236E9, 2021-05-19 15:59:25.275
44.0, -61.02581787109375, 11.606779098510742, -50.12213897705078, -13.355182647705078, -0.09600000083446503, -0.03200000151991844, 1.040000081062317, 0.0, 0.0, 0.0, 0.0, 0.0, 1.6214327652907488E9, 2021-05-19 15:59:25.290
44.0, -44.28602600097656, 26.308326721191406, -38.689266204833984, -7.427441120147705, -0.09600000083446503, -0.03200000151991844, 1.040000081062317, 0.0, 0.0, 0.0, 0.0, 0.0, 1.6214327652907488E9, 2021-05-19 15:59:25.290
45.0, -58.927734375, -6.479376792907715, -53.31227493286133, -27.551843643188477, -0.09600000083446503, -0.03200000151991844, 1.040000081062317, 0.0, 0.0, 0.0, 0.0, 0.0, 1.6214327652914236E9, 2021-05-19 15:59:25.291
45.0, -77.85163116455078, -29.939769744873047, -73.45911407470703, -44.13829803466797, -0.09600000083446503, -0.03200000151991844, 1.040000081062317, 0.0, 0.0, 0.0, 0.0, 0.0, 1.6214327652914236E9, 2021-05-19 15:59:25.291
46.0, -47.69307327270508, 8.809334754943848, -46.58419418334961, -8.687788009643555, -0.09600000083446503, -0.03200000151991844, 1.040000081062317, 0.0, 0.0, 0.0, 0.0, 0.0, 1.6214327653051364E9, 2021-05-19 15:59:25.305
46.0, -35.43742370605469, 10.638145446777344, -32.64558792114258, 4.057791233062744, -0.09600000083446503, -0.03200000151991844, 1.040000081062317, 0.0, 0.0, 0.0, 0.0, 0.0, 1.6214327653051364E9, 2021-05-19 15:59:25.305
47.0, -59.07733154296875, -14.344386100769043, -53.1065788269043, -24.238290786743164, -0.09600000083446503, -0.03200000151991844, 1.040000081062317, 0.0, 0.0, 0.0, 0.0, 0.0, 1.621432765351887E9, 2021-05-19 15:59:25.351
47.0, -68.73001098632812, -17.16053009033203, -66.64127349853516, -26.448572158813477, -0.09600000083446503, -0.03200000151991844, 1.040000081062317, 0.0, 0.0, 0.0, 0.0, 0.0, 1.621432765351887E9, 2021-05-19 15:59:25.351
48.0, -54.499691009521484, -13.121438980102539, -56.20695495605469, -14.148041725158691, -0.09600000083446503, -0.03200000151991844, 1.040000081062317, 0.0, 0.0, 0.0, 0.0, 0.0, 1.6214327653525703E9, 2021-05-19 15:59:25.352
48.0, -46.802978515625, 21.40157699584961, -43.26316452026367, 5.755705833435059, -0.09600000083446503, -0.03200000151991844, 1.040000081062317, 0.0, 0.0, 0.0, 0.0, 0.0, 1.6214327653525703E9, 2021-05-19 15:59:25.352
49.0, -70.22222900390625, -4.444870948791504, -62.45259094238281, -20.217899322509766, -0.09600000083446503, -0.03200000151991844, 1.040000081062317, 0.0, 0.0, 0.0, 0.0, 0.0, 1.6214327653533244E9, 2021-05-19 15:59:25.353
49.0, -63.39317321777344, -11.255228996276855, -68.57854461669922, -34.51553726196289, -0.09600000083446503, -0.03200000151991844, 1.040000081062317, 0.0, 0.0, 0.0, 0.0, 0.0, 1.6214327653533244E9, 2021-05-19 15:59:25.353
50.0, -77.76934814453125, 7.597606658935547, -55.3953971862793, -29.171218872070312, -0.09600000083446503, -0.03200000151991844, 1.040000081062317, 0.0, 0.0, 0.0, 0.0, 0.0, 1.6214327653671596E9, 2021-05-19 15:59:25.367
50.0, -22.7591609954834, 24.083086013793945, -27.140453338623047, -10.180007934570312, -0.09600000083446503, -0.03200000151991844, 1.040000081062317, 0.0, 0.0, 0.0, 0.0, 0.0, 1.6214327653671596E9, 2021-05-19 15:59:25.367
51.0, -69.75848388671875, -9.21324348449707, -48.39804458618164, -32.43989181518555, -0.09600000083446503, -0.03200000151991844, 1.040000081062317, 0.0, 0.0, 0.0, 0.0, 0.0, 1.6214327653678284E9, 2021-05-19 15:59:25.367
51.0, -80.53313446044922, -13.214936256408691, -62.441368103027344, -40.98930358886719, -0.09600000083446503, -0.03200000151991844, 1.040000081062317, 0.0, 0.0, 0.0, 0.0, 0.0, 1.6214327653678284E9, 2021-05-19 15:59:25.367
52.0, -52.63722229003906, -1.8942593336105347, -37.82160949707031, -13.055991172790527, -0.09600000083446503, -0.03200000151991844, 1.040000081062317, 0.0, 0.0, 0.0, 0.0, 0.0, 1.6214327653685942E9, 2021-05-19 15:59:25.368
52.0, -35.31400680541992, 25.27237319946289, -35.196197509765625, -5.628549575805664, -0.09600000083446503, -0.03200000151991844, 1.040000081062317, 0.0, 0.0, 0.0, 0.0, 0.0, 1.6214327653685942E9, 2021-05-19 15:59:25.368
53.0, -51.71720504760742, -22.452489852905273, -50.428810119628906, -33.55064392089844, -0.09600000083446503, -0.03200000151991844, 1.040000081062317, 0.0, 0.0, 0.0, 0.0, 0.0, 1.6214327653692992E9, 2021-05-19 15:59:25.369
53.0, -70.91036987304688, -20.395544052124023, -60.739715576171875, -35.27099609375, -0.09600000083446503, -0.03200000151991844, 1.040000081062317, 0.0, 0.0, 0.0, 0.0, 0.0, 1.6214327653692992E9, 2021-05-19 15:59:25.369
54.0, -44.9779052734375, -3.9474644660949707, -45.428565979003906, -19.978546142578125, -0.09600000083446503, -0.03200000151991844, 1.040000081062317, 0.0, 0.0, 0.0, 0.0, 0.0, 1.6214327653962379E9, 2021-05-19 15:59:25.396
54.0, -25.20879554748535, 6.389618873596191, -29.234798431396484, -6.769218921661377, -0.09600000083446503, -0.03200000151991844, 1.040000081062317, 0.0, 0.0, 0.0, 0.0, 0.0, 1.6214327653962379E9, 2021-05-19 15:59:25.396
55.0, -53.751712799072266, -14.475282669067383, -44.658145904541016, -23.071443557739258, -0.09600000083446503, -0.03200000151991844, 1.040000081062317, 0.0, 0.0, 0.0, 0.0, 0.0, 1.621432765411506E9, 2021-05-19 15:59:25.411
55.0, -81.59526824951172, -44.473018646240234, -70.15304565429688, -34.76237106323242, -0.09600000083446503, -0.03200000151991844, 1.040000081062317, 0.0, 0.0, 0.0, 0.0, 0.0, 1.621432765411506E9, 2021-05-19 15:59:25.411
56.0, -57.39811325073242, 13.147618293762207, -61.06134796142578, -15.460746765136719, -0.09600000083446503, -0.03200000151991844, 1.040000081062317, 0.0, 0.0, 0.0, 0.0, 0.0, 1.6214327654122293E9, 2021-05-19 15:59:25.412
56.0, -40.73311996459961, 5.716436862945557, -42.95275115966797, -0.6694421172142029, -0.09600000083446503, -0.03200000151991844, 1.040000081062317, 0.0, 0.0, 0.0, 0.0, 0.0, 1.6214327654122293E9, 2021-05-19 15:59:25.412
57.0, -57.59259033203125, 0.18138514459133148, -57.818851470947266, -17.024024963378906, -0.09600000083446503, -0.03200000151991844, 1.040000081062317, 0.0, 0.0, 0.0, 0.0, 0.0, 1.6214327654129565E9, 2021-05-19 15:59:25.412
57.0, -76.14623260498047, -12.440776824951172, -74.5960464477539, -40.18896484375, -0.09600000083446503, -0.03200000151991844, 1.040000081062317, 0.0, 0.0, 0.0, 0.0, 0.0, 1.6214327654129565E9, 2021-05-19 15:59:25.412
58.0, -56.24996566772461, -6.0642476081848145, -62.34787368774414, -21.878414154052734, -0.09600000083446503, -0.03200000151991844, 1.040000081062317, 0.0, 0.0, 0.0, 0.0, 0.0, 1.621432765457788E9, 2021-05-19 15:59:25.457
58.0, -50.95052719116211, 22.804040908813477, -43.88398742675781, -3.53794527053833, -0.09600000083446503, -0.03200000151991844, 1.040000081062317, 0.0, 0.0, 0.0, 0.0, 0.0, 1.621432765457788E9, 2021-05-19 15:59:25.457
59.0, -70.13621520996094, -0.5030165314674377, -59.404571533203125, -30.237091064453125, -0.09600000083446503, -0.03200000151991844, 1.040000081062317, 0.0, 0.0, 0.0, 0.0, 0.0, 1.621432765458534E9, 2021-05-19 15:59:25.458
59.0, -76.17240905761719, -22.53850746154785, -68.60098266601562, -38.356414794921875, -0.09600000083446503, -0.03200000151991844, 1.040000081062317, 0.0, 0.0, 0.0, 0.0, 0.0, 1.621432765458534E9, 2021-05-19 15:59:25.458
60.0, -45.43043518066406, 7.279715061187744, -46.2513427734375, -17.921600341796875, -0.09600000083446503, -0.03200000151991844, 1.055999994277954, 0.0, 0.0, 0.0, 0.0, 0.0, 1.6214327654592679E9, 2021-05-19 15:59:25.459
60.0, -40.8116569519043, 22.833959579467773, -47.33965301513672, -9.981793403625488, -0.09600000083446503, -0.03200000151991844, 1.055999994277954, 0.0, 0.0, 0.0, 0.0, 0.0, 1.6214327654592679E9, 2021-05-19 15:59:25.459
61.0, -59.623355865478516, 2.107433557510376, -60.455482482910156, -40.31612014770508, -0.09600000083446503, -0.03200000151991844, 1.055999994277954, 0.0, 0.0, 0.0, 0.0, 0.0, 1.6214327654600224E9, 2021-05-19 15:59:25.460
61.0, -62.60779571533203, -34.10601806640625, -69.19937133789062, -48.1699104309082, -0.09600000083446503, -0.03200000151991844, 1.055999994277954, 0.0, 0.0, 0.0, 0.0, 0.0, 1.6214327654600224E9, 2021-05-19 15:59:25.460
62.0, -28.122177124023438, 1.3519738912582397, -39.69529724121094, -19.694313049316406, -0.1120000034570694, -0.03200000151991844, 1.055999994277954, 0.0, 0.0, 0.0, 0.0, 0.0, 1.6214327654875352E9, 2021-05-19 15:59:25.487
62.0, -15.41773796081543, 11.887271881103516, -23.08266258239746, -12.558584213256836, -0.1120000034570694, -0.03200000151991844, 1.055999994277954, 0.0, 0.0, 0.0, 0.0, 0.0, 1.6214327654875352E9, 2021-05-19 15:59:25.487
63.0, -44.84326934814453, -40.340431213378906, -48.88797378540039, -40.974342346191406, -0.1120000034570694, -0.03200000151991844, 1.055999994277954, 0.0, 0.0, 0.0, 0.0, 0.0, 1.6214327654882345E9, 2021-05-19 15:59:25.488
63.0, -58.74821853637695, -41.35020446777344, -70.35125732421875, -51.42362594604492, -0.1120000034570694, -0.03200000151991844, 1.055999994277954, 0.0, 0.0, 0.0, 0.0, 0.0, 1.6214327654882345E9, 2021-05-19 15:59:25.488
64.0, -48.40739440917969, -14.673497200012207, -50.26051712036133, -27.162893295288086, -0.1120000034570694, -0.03200000151991844, 1.055999994277954, 0.0, 0.0, 0.0, 0.0, 0.0, 1.62143276548898E9, 2021-05-19 15:59:25.488
64.0, -36.54817199707031, 9.46381664276123, -42.93031311035156, -12.771758079528809, -0.1120000034570694, -0.03200000151991844, 1.055999994277954, 0.0, 0.0, 0.0, 0.0, 0.0, 1.62143276548898E9, 2021-05-19 15:59:25.488
65.0, -52.394126892089844, -8.876652717590332, -50.49612808227539, -32.5595703125, -0.1120000034570694, -0.03200000151991844, 1.055999994277954, 0.0, 0.0, 0.0, 0.0, 0.0, 1.6214327655014322E9, 2021-05-19 15:59:25.501
65.0, -67.02835845947266, -35.86751174926758, -66.57769775390625, -36.31816864013672, -0.1120000034570694, -0.03200000151991844, 1.055999994277954, 0.0, 0.0, 0.0, 0.0, 0.0, 1.6214327655014322E9, 2021-05-19 15:59:25.501
66.0, -40.418968200683594, 1.9129588603973389, -51.36004638671875, -16.765972137451172, -0.1120000034570694, -0.03200000151991844, 1.055999994277954, 0.0, 0.0, 0.0, 0.0, 0.0, 1.6214327655021784E9, 2021-05-19 15:59:25.502
66.0, -43.429588317871094, 17.82623291015625, -39.99449157714844, -1.7240939140319824, -0.1120000034570694, -0.03200000151991844, 1.055999994277954, 0.0, 0.0, 0.0, 0.0, 0.0, 1.6214327655021784E9, 2021-05-19 15:59:25.502
67.0, -60.88370132446289, -9.53487491607666, -57.00355529785156, -26.456052780151367, -0.1120000034570694, -0.03200000151991844, 1.055999994277954, 0.0, 0.0, 0.0, 0.0, 0.0, 1.621432765515106E9, 2021-05-19 15:59:25.515
67.0, -73.92847442626953, -22.209396362304688, -69.96604919433594, -32.391273498535156, -0.1120000034570694, -0.03200000151991844, 1.055999994277954, 0.0, 0.0, 0.0, 0.0, 0.0, 1.621432765515106E9, 2021-05-19 15:59:25.515
68.0, -49.86969757080078, 4.534628868103027, -54.33326721191406, -10.20618724822998, -0.1120000034570694, -0.03200000151991844, 1.055999994277954, 0.0, 0.0, 0.0, 0.0, 0.0, 1.6214327655307138E9, 2021-05-19 15:59:25.530
68.0, -36.76508712768555, 25.680023193359375, -39.104393005371094, 0.0822777971625328, -0.1120000034570694, -0.03200000151991844, 1.055999994277954, 0.0, 0.0, 0.0, 0.0, 0.0, 1.6214327655307138E9, 2021-05-19 15:59:25.530
69.0, -55.37482833862305, -14.70715618133545, -48.042755126953125, -16.881908416748047, -0.1120000034570694, -0.03200000151991844, 1.055999994277954, 0.0, 0.0, 0.0, 0.0, 0.0, 1.6214327655314825E9, 2021-05-19 15:59:25.531
69.0, -72.79901885986328, -32.11265182495117, -59.307334899902344, -22.90688705444336, -0.1120000034570694, -0.03200000151991844, 1.055999994277954, 0.0, 0.0, 0.0, 0.0, 0.0, 1.6214327655314825E9, 2021-05-19 15:59:25.531
70.0, -42.26274108886719, 5.005856037139893, -47.608924865722656, -20.423593521118164, -0.1120000034570694, -0.03200000151991844, 1.040000081062317, 0.0, 0.0, 0.0, 0.0, 0.0, 1.6214327655450525E9, 2021-05-19 15:59:25.545
70.0, -22.026140213012695, 12.459476470947266, -25.375221252441406, -5.467733860015869, -0.1120000034570694, -0.03200000151991844, 1.040000081062317, 0.0, 0.0, 0.0, 0.0, 0.0, 1.6214327655450525E9, 2021-05-19 15:59:25.545
71.0, -50.57279586791992, -8.77193546295166, -53.286094665527344, -34.433258056640625, -0.1120000034570694, -0.03200000151991844, 1.040000081062317, 0.0, 0.0, 0.0, 0.0, 0.0, 1.6214327655772853E9, 2021-05-19 15:59:25.577
71.0, -63.041622161865234, -35.654335021972656, -68.9151382446289, -51.191749572753906, -0.1120000034570694, -0.03200000151991844, 1.040000081062317, 0.0, 0.0, 0.0, 0.0, 0.0, 1.6214327655772853E9, 2021-05-19 15:59:25.577
72.0, -38.896827697753906, -11.25148868560791, -50.12213897705078, -22.289804458618164, -0.1120000034570694, -0.03200000151991844, 1.040000081062317, 0.0, 0.0, 0.0, 0.0, 0.0, 1.6214327655778058E9, 2021-05-19 15:59:25.577
72.0, -34.90261459350586, 19.587726593017578, -35.77214431762695, -9.600322723388672, -0.1120000034570694, -0.03200000151991844, 1.040000081062317, 0.0, 0.0, 0.0, 0.0, 0.0, 1.6214327655778058E9, 2021-05-19 15:59:25.577
73.0, -48.328857421875, -14.38552474975586, -51.2403678894043, -22.540376663208008, -0.1120000034570694, -0.03200000151991844, 1.040000081062317, 0.0, 0.0, 0.0, 0.0, 0.0, 1.6214327655786555E9, 2021-05-19 15:59:25.578
73.0, -73.50586700439453, -41.48857879638672, -62.01128005981445, -38.2928352355957, -0.1120000034570694, -0.03200000151991844, 1.040000081062317, 0.0, 0.0, 0.0, 0.0, 0.0, 1.6214327655786555E9, 2021-05-19 15:59:25.578
