Sample Index, EXG Channel 0, EXG Channel 1, EXG Channel 2, EXG Channel 3, Accel Channel 0, Accel Channel 1, Accel Channel 2, Other, Other, Other, Other, Other, Timestamp, Timestamp (Formatted)
0.0, -33.7563362121582, 30.895313262939453, -52.57738494873047, -8.45030403137207, 0.0, 0.0, 0.0, 0.0, 0.0, 0.0, 0.0, 0.0, 1.6214323935645175E9, 2021-05-19 15:53:13.564
1.0, -62.96121597290039, -0.9574143886566162, -67.7651138305664, -28.271774291992188, 0.0, -0.03200000151991844, 0.0, 0.0, 0.0, 0.0, 0.0, 0.0, 1.6214323935948231E9, 2021-05-19 15:53:13.594
1.0, -72.71861267089844, -20.232858657836914, -72.97106170654297, -37.606563568115234, 0.0, -0.03200000151991844, 0.0, 0.0, 0.0, 0.0, 0.0, 0.0, 1.6214323935948231E9, 2021-05-19 15:53:13.594
2.0, -49.70701217651367, 4.338284015655518, -60.75654602050781, -15.488795280456543, -0.09600000083446503, -0.03200000151991844, 0.0, 0.0, 0.0, 0.0, 0.0, 0.0, 1.6214323935961576E9, 2021-05-19 15:53:13.596
2.0, -30.076274871826172, 19.432519912719727, -46.35044860839844, -9.362839698791504, -0.09600000083446503, -0.03200000151991844, 0.0, 0.0, 0.0, 0.0, 0.0, 0.0, 1.6214323935961576E9, 2021-05-19 15:53:13.596
3.0, -43.48007583618164, -1.073351263999939, -62.90324783325195, -24.726348876953125, -0.09600000083446503, -0.03200000151991844, 0.0, 0.0, 0.0, 0.0, 0.0, 0.0, 1.6214323935968947E9, 2021-05-19 15:53:13.596
3.0, -70.50459289550781, -15.965632438659668, -62.0318489074707, -33.25706100463867, -0.09600000083446503, -0.03200000151991844, 0.0, 0.0, 0.0, 0.0, 0.0, 0.0, 1.6214323935968947E9, 2021-05-19 15:53:13.596
4.0, -48.44292449951172, 30.5288028717041, -58.415367126464844, -22.396390914916992, -0.09600000083446503, -0.03200000151991844, 0.0, 0.0, 0.0, 0.0, 0.0, 0.0, 1.6214323936077063E9, 2021-05-19 15:53:13.607
4.0, -28.744871139526367, 33.86479568481445, -40.482547760009766, -11.094412803649902, -0.09600000083446503, -0.03200000151991844, 0.0, 0.0, 0.0, 0.0, 0.0, 0.0, 1.6214323936077063E9, 2021-05-19 15:53:13.607
5.0, -44.7142448425293, 17.151180267333984, -51.86306381225586, -34.81285858154297, -0.09600000083446503, -0.03200000151991844, 0.0, 0.0, 0.0, 0.0, 0.0, 0.0, 1.621432393623356E9, 2021-05-19 15:53:13.623
5.0, -58.757568359375, -14.798784255981445, -70.12873077392578, -46.41776657104492, -0.09600000083446503, -0.03200000151991844, 0.0, 0.0, 0.0, 0.0, 0.0, 0.0, 1.621432393623356E9, 2021-05-19 15:53:13.623
6.0, -45.47344207763672, 6.144655704498291, -55.86101531982422, -29.797653198242188, -0.09600000083446503, -0.03200000151991844, 0.0, 0.0, 0.0, 0.0, 0.0, 0.0, 1.6214323936241183E9, 2021-05-19 15:53:13.624
6.0, -32.582008361816406, 33.32624816894531, -50.11652755737305, -21.192142486572266, -0.09600000083446503, -0.03200000151991844, 0.0, 0.0, 0.0, 0.0, 0.0, 0.0, 1.6214323936241183E9, 2021-05-19 15:53:13.624
7.0, -50.98231506347656, 18.549903869628906, -59.93376541137695, -39.562530517578125, -0.09600000083446503, -0.03200000151991844, 0.0, 0.0, 0.0, 0.0, 0.0, 0.0, 1.6214323936547413E9, 2021-05-19 15:53:13.654
7.0, -59.793521881103516, -2.8385841846466064, -71.9388427734375, -53.837730407714844, -0.09600000083446503, -0.03200000151991844, 0.0, 0.0, 0.0, 0.0, 0.0, 0.0, 1.6214323936547413E9, 2021-05-19 15:53:13.654
8.0, -40.031890869140625, 26.53084945678711, -52.465187072753906, -32.19492721557617, -0.09600000083446503, -0.03200000151991844, 0.0, 0.0, 0.0, 0.0, 0.0, 0.0, 1.6214323936554675E9, 2021-05-19 15:53:13.655
8.0, -20.36375617980957, 29.964078903198242, -40.856536865234375, -16.247995376586914, -0.09600000083446503, -0.03200000151991844, 0.0, 0.0, 0.0, 0.0, 0.0, 0.0, 1.6214323936554675E9, 2021-05-19 15:53:13.655
9.0, -55.18222427368164, 10.625055313110352, -66.14574432373047, -50.47555923461914, -0.09600000083446503, -0.03200000151991844, 0.0, 0.0, 0.0, 0.0, 0.0, 0.0, 1.6214323936561644E9, 2021-05-19 15:53:13.656
9.0, -71.17029571533203, -8.025825500488281, -78.12837982177734, -51.440452575683594, -0.09600000083446503, -0.03200000151991844, 0.0, 0.0, 0.0, 0.0, 0.0, 0.0, 1.6214323936561644E9, 2021-05-19 15:53:13.656
10.0, -56.36029052734375, 12.44638729095459, -68.53553771972656, -37.59534454345703, -0.09600000083446503, -0.03200000151991844, 1.040000081062317, 0.0, 0.0, 0.0, 0.0, 0.0, 1.6214323936677585E9, 2021-05-19 15:53:13.667
10.0, -18.572343826293945, 43.794227600097656, -41.31280517578125, -11.958330154418945, -0.09600000083446503, -0.03200000151991844, 1.040000081062317, 0.0, 0.0, 0.0, 0.0, 0.0, 1.6214323936677585E9, 2021-05-19 15:53:13.667
11.0, -61.30818176269531, 7.274105548858643, -63.30715560913086, -35.96848678588867, -0.09600000083446503, -0.01600000075995922, 1.040000081062317, 0.0, 0.0, 0.0, 0.0, 0.0, 1.621432393683402E9, 2021-05-19 15:53:13.683
11.0, -68.01756286621094, -13.026071548461914, -80.89216613769531, -45.87922286987305, -0.09600000083446503, -0.01600000075995922, 1.040000081062317, 0.0, 0.0, 0.0, 0.0, 0.0, 1.621432393683402E9, 2021-05-19 15:53:13.683
12.0, -54.344486236572266, 9.936914443969727, -64.6497802734375, -28.26055335998535, -0.1120000034570694, -0.01600000075995922, 1.040000081062317, 0.0, 0.0, 0.0, 0.0, 0.0, 1.6214323936841438E9, 2021-05-19 15:53:13.684
12.0, -35.162540435791016, 31.617115020751953, -53.568458557128906, -17.164270401000977, -0.1120000034570694, -0.01600000075995922, 1.040000081062317, 0.0, 0.0, 0.0, 0.0, 0.0, 1.6214323936841438E9, 2021-05-19 15:53:13.684
13.0, -50.870121002197266, 6.862716197967529, -68.341064453125, -37.05305862426758, -0.1120000034570694, -0.01600000075995922, 1.040000081062317, 0.0, 0.0, 0.0, 0.0, 0.0, 1.6214323937141404E9, 2021-05-19 15:53:13.714
13.0, -60.9940299987793, -6.219453811645508, -76.41924285888672, -41.671836853027344, -0.1120000034570694, -0.01600000075995922, 1.040000081062317, 0.0, 0.0, 0.0, 0.0, 0.0, 1.6214323937141404E9, 2021-05-19 15:53:13.714
14.0, -46.82354736328125, 11.459053039550781, -69.44058990478516, -30.534412384033203, -0.1120000034570694, -0.01600000075995922, 1.040000081062317, 0.0, 0.0, 0.0, 0.0, 0.0, 1.6214323937147682E9, 2021-05-19 15:53:13.714
14.0, -29.021623611450195, 17.723386764526367, -56.638916015625, -25.900676727294922, -0.1120000034570694, -0.01600000075995922, 1.040000081062317, 0.0, 0.0, 0.0, 0.0, 0.0, 1.6214323937147682E9, 2021-05-19 15:53:13.714
15.0, -39.066993713378906, -9.839676856994629, -61.50452423095703, -33.32063674926758, -0.1120000034570694, -0.01600000075995922, 1.040000081062317, 0.0, 0.0, 0.0, 0.0, 0.0, 1.6214323937154968E9, 2021-05-19 15:53:13.715
15.0, -73.5713119506836, 0.007479799911379814, -72.90747833251953, -44.764732360839844, -0.1120000034570694, -0.01600000075995922, 1.040000081062317, 0.0, 0.0, 0.0, 0.0, 0.0, 1.6214323937154968E9, 2021-05-19 15:53:13.715
16.0, -55.731990814208984, 13.564617156982422, -65.22572326660156, -27.14606475830078, -0.1120000034570694, -0.01600000075995922, 1.040000081062317, 0.0, 0.0, 0.0, 0.0, 0.0, 1.621432393744115E9, 2021-05-19 15:53:13.744
16.0, -34.74740982055664, 39.766357421875, -45.3182373046875, -9.52365493774414, -0.1120000034570694, -0.01600000075995922, 1.040000081062317, 0.0, 0.0, 0.0, 0.0, 0.0, 1.621432393744115E9, 2021-05-19 15:53:13.744
17.0, -43.01258850097656, 7.876229286193848, -55.15043640136719, -26.667356491088867, -0.1120000034570694, -0.01600000075995922, 1.040000081062317, 0.0, 0.0, 0.0, 0.0, 0.0, 1.621432393744887E9, 2021-05-19 15:53:13.744
17.0, -79.76832580566406, -14.967079162597656, -79.25782775878906, -49.016998291015625, -0.1120000034570694, -0.01600000075995922, 1.040000081062317, 0.0, 0.0, 0.0, 0.0, 0.0, 1.621432393744887E9, 2021-05-19 15:53:13.744
18.0, -50.22685623168945, 9.779838562011719, -62.660152435302734, -21.079946517944336, -0.1120000034570694, -0.01600000075995922, 1.040000081062317, 0.0, 0.0, 0.0, 0.0, 0.0, 1.6214323937456155E9, 2021-05-19 15:53:13.745
18.0, -29.006664276123047, 35.39067459106445, -46.75061798095703, -17.852413177490234, -0.1120000034570694, -0.01600000075995922, 1.040000081062317, 0.0, 0.0, 0.0, 0.0, 0.0, 1.6214323937456155E9, 2021-05-19 15:53:13.745
19.0, -51.40866470336914, 5.737006664276123, -61.29508972167969, -35.43742370605469, -0.1120000034570694, -0.01600000075995922, 1.040000081062317, 0.0, 0.0, 0.0, 0.0, 0.0, 1.6214323937740304E9, 2021-05-19 15:53:13.774
19.0, -67.89788055419922, -3.365910053253174, -72.96357727050781, -53.19446563720703, -0.1120000034570694, -0.01600000075995922, 1.040000081062317, 0.0, 0.0, 0.0, 0.0, 0.0, 1.6214323937740304E9, 2021-05-19 15:53:13.774
20.0, -51.73403549194336, 12.921354293823242, -66.1756591796875, -36.10686492919922, -0.1120000034570694, -0.01600000075995922, 1.055999994277954, 0.0, 0.0, 0.0, 0.0, 0.0, 1.621432393774777E9, 2021-05-19 15:53:13.774
20.0, -30.779376983642578, 47.54908752441406, -46.51874542236328, -10.410011291503906, -0.1120000034570694, -0.01600000075995922, 1.055999994277954, 0.0, 0.0, 0.0, 0.0, 0.0, 1.621432393774777E9, 2021-05-19 15:53:13.774
21.0, -51.524600982666016, -2.7039477825164795, -63.722286224365234, -35.81515121459961, -0.1120000034570694, -0.01600000075995922, 1.055999994277954, 0.0, 0.0, 0.0, 0.0, 0.0, 1.6214323937755404E9, 2021-05-19 15:53:13.775
21.0, -63.043495178222656, 1.7353135347366333, -77.30934143066406, -46.578582763671875, -0.1120000034570694, -0.01600000075995922, 1.055999994277954, 0.0, 0.0, 0.0, 0.0, 0.0, 1.6214323937755404E9, 2021-05-19 15:53:13.775
22.0, -50.12213897705078, 10.049111366271973, -65.3304443359375, -28.698122024536133, -0.1120000034570694, -0.01600000075995922, 1.055999994277954, 0.0, 0.0, 0.0, 0.0, 0.0, 1.621432393787691E9, 2021-05-19 15:53:13.787
22.0, -27.77623748779297, 27.649080276489258, -44.97416687011719, -10.271635055541992, -0.1120000034570694, -0.01600000075995922, 1.055999994277954, 0.0, 0.0, 0.0, 0.0, 0.0, 1.621432393787691E9, 2021-05-19 15:53:13.787
23.0, -40.28246307373047, 13.41128158569336, -64.85547637939453, -33.5038948059082, -0.1120000034570694, -0.01600000075995922, 1.055999994277954, 0.0, 0.0, 0.0, 0.0, 0.0, 1.621432393803372E9, 2021-05-19 15:53:13.803
23.0, -78.08163452148438, -8.886002540588379, -87.74365997314453, -47.84640884399414, -0.1120000034570694, -0.01600000075995922, 1.055999994277954, 0.0, 0.0, 0.0, 0.0, 0.0, 1.621432393803372E9, 2021-05-19 15:53:13.803
24.0, -37.817867279052734, 14.080723762512207, -65.46508026123047, -35.366363525390625, -0.1120000034570694, -0.01600000075995922, 1.055999994277954, 0.0, 0.0, 0.0, 0.0, 0.0, 1.6214323938040967E9, 2021-05-19 15:53:13.804
24.0, -38.99967575073242, 45.4584846496582, -53.09722900390625, -17.010934829711914, -0.1120000034570694, -0.01600000075995922, 1.055999994277954, 0.0, 0.0, 0.0, 0.0, 0.0, 1.6214323938040967E9, 2021-05-19 15:53:13.804
25.0, -62.38153076171875, 14.761384963989258, -61.67655944824219, -26.371904373168945, -0.1120000034570694, -0.01600000075995922, 1.055999994277954, 0.0, 0.0, 0.0, 0.0, 0.0, 1.621432393851225E9, 2021-05-19 15:53:13.851
25.0, -79.81694793701172, -12.595983505249023, -81.89071655273438, -51.556392669677734, -0.1120000034570694, -0.01600000075995922, 1.055999994277954, 0.0, 0.0, 0.0, 0.0, 0.0, 1.621432393851225E9, 2021-05-19 15:53:13.851
26.0, -56.891357421875, 19.279184341430664, -64.82929229736328, -23.70535659790039, -0.1120000034570694, -0.01600000075995922, 1.055999994277954, 0.0, 0.0, 0.0, 0.0, 0.0, 1.6214323938519084E9, 2021-05-19 15:53:13.851
26.0, -29.320816040039062, 45.843692779541016, -42.55819320678711, -4.1045403480529785, -0.1120000034570694, -0.01600000075995922, 1.055999994277954, 0.0, 0.0, 0.0, 0.0, 0.0, 1.6214323938519084E9, 2021-05-19 15:53:13.851
27.0, -46.845985412597656, 16.197505950927734, -57.383155822753906, -27.030126571655273, -0.1120000034570694, -0.01600000075995922, 1.055999994277954, 0.0, 0.0, 0.0, 0.0, 0.0, 1.6214323938526533E9, 2021-05-19 15:53:13.852
27.0, -70.41483306884766, -18.347949981689453, -75.5889892578125, -38.833251953125, -0.1120000034570694, -0.01600000075995922, 1.055999994277954, 0.0, 0.0, 0.0, 0.0, 0.0, 1.6214323938526533E9, 2021-05-19 15:53:13.852
28.0, -56.50240707397461, -1.4024624824523926, -65.52865600585938, -23.821292877197266, -0.1120000034570694, -0.01600000075995922, 1.055999994277954, 0.0, 0.0, 0.0, 0.0, 0.0, 1.621432393853349E9, 2021-05-19 15:53:13.853
28.0, -36.74825668334961, 15.24757194519043, -47.053550720214844, -3.173305034637451, -0.1120000034570694, -0.01600000075995922, 1.055999994277954, 0.0, 0.0, 0.0, 0.0, 0.0, 1.621432393853349E9, 2021-05-19 15:53:13.853
29.0, -53.25617599487305, 16.313444137573242, -53.9985466003418, -30.47457504272461, -0.1120000034570694, -0.01600000075995922, 1.055999994277954, 0.0, 0.0, 0.0, 0.0, 0.0, 1.6214323938806937E9, 2021-05-19 15:53:13.880
29.0, -76.6230697631836, -27.495744705200195, -69.95669555664062, -46.960052490234375, -0.1120000034570694, -0.01600000075995922, 1.055999994277954, 0.0, 0.0, 0.0, 0.0, 0.0, 1.6214323938806937E9, 2021-05-19 15:53:13.880
30.0, -46.64777374267578, 19.802770614624023, -51.72468566894531, -22.968595504760742, -0.1120000034570694, -0.01600000075995922, 1.055999994277954, 0.0, 0.0, 0.0, 0.0, 0.0, 1.6214323938811765E9, 2021-05-19 15:53:13.881
30.0, -42.477783203125, 29.773344039916992, -52.61852264404297, -14.366826057434082, -0.1120000034570694, -0.01600000075995922, 1.055999994277954, 0.0, 0.0, 0.0, 0.0, 0.0, 1.6214323938811765E9, 2021-05-19 15:53:13.881
31.0, -59.17643737792969, 19.44373893737793, -68.30366516113281, -24.068126678466797, -0.1120000034570694, -0.03200000151991844, 1.055999994277954, 0.0, 0.0, 0.0, 0.0, 0.0, 1.6214323938819427E9, 2021-05-19 15:53:13.881
31.0, -79.78702545166016, -9.996752738952637, -84.89385986328125, -45.65108871459961, -0.1120000034570694, -0.03200000151991844, 1.055999994277954, 0.0, 0.0, 0.0, 0.0, 0.0, 1.6214323938819427E9, 2021-05-19 15:53:13.881
32.0, -53.30479431152344, 11.881662368774414, -70.53638458251953, -24.05690574645996, -0.09600000083446503, -0.03200000151991844, 1.055999994277954, 0.0, 0.0, 0.0, 0.0, 0.0, 1.6214323938826098E9, 2021-05-19 15:53:13.882
32.0, -36.441585540771484, 30.33806800842285, -60.25539779663086, -7.111419677734375, -0.09600000083446503, -0.03200000151991844, 1.055999994277954, 0.0, 0.0, 0.0, 0.0, 0.0, 1.6214323938826098E9, 2021-05-19 15:53:13.882
33.0, -45.701576232910156, 17.046464920043945, -62.3908805847168, -19.681222915649414, -0.09600000083446503, -0.03200000151991844, 1.055999994277954, 0.0, 0.0, 0.0, 0.0, 0.0, 1.621432393892701E9, 2021-05-19 15:53:13.892
33.0, -60.6761360168457, -17.356876373291016, -79.92353057861328, -47.648197174072266, -0.09600000083446503, -0.03200000151991844, 1.055999994277954, 0.0, 0.0, 0.0, 0.0, 0.0, 1.621432393892701E9, 2021-05-19 15:53:13.892
34.0, -46.1802864074707, 20.210418701171875, -68.22512817382812, -33.799346923828125, -0.09600000083446503, -0.03200000151991844, 1.055999994277954, 0.0, 0.0, 0.0, 0.0, 0.0, 1.6214323939076967E9, 2021-05-19 15:53:13.907
34.0, -20.83498191833496, 28.153966903686523, -50.99540710449219, -17.20541000366211, -0.09600000083446503, -0.03200000151991844, 1.055999994277954, 0.0, 0.0, 0.0, 0.0, 0.0, 1.6214323939076967E9, 2021-05-19 15:53:13.907
35.0, -69.19937133789062, 2.498253107070923, -69.45928955078125, -35.83011245727539, -0.09600000083446503, -0.03200000151991844, 1.055999994277954, 0.0, 0.0, 0.0, 0.0, 0.0, 1.6214323939234505E9, 2021-05-19 15:53:13.923
35.0, -86.64974212646484, 0.2954520881175995, -79.22042846679688, -50.303524017333984, -0.09600000083446503, -0.03200000151991844, 1.055999994277954, 0.0, 0.0, 0.0, 0.0, 0.0, 1.6214323939234505E9, 2021-05-19 15:53:13.923
36.0, -50.619544982910156, 11.646048545837402, -63.232357025146484, -26.18490982055664, -0.09600000083446503, -0.03200000151991844, 1.055999994277954, 0.0, 0.0, 0.0, 0.0, 0.0, 1.621432393924164E9, 2021-05-19 15:53:13.924
36.0, -37.9300651550293, 51.468502044677734, -45.194820404052734, -2.7170372009277344, -0.09600000083446503, -0.03200000151991844, 1.055999994277954, 0.0, 0.0, 0.0, 0.0, 0.0, 1.621432393924164E9, 2021-05-19 15:53:13.924
37.0, -55.32059860229492, -2.5468719005584717, -68.8870849609375, -37.96933364868164, -0.09600000083446503, -0.03200000151991844, 1.055999994277954, 0.0, 0.0, 0.0, 0.0, 0.0, 1.6214323939377067E9, 2021-05-19 15:53:13.937
37.0, -73.77326965332031, -5.101223468780518, -80.17410278320312, -47.31160354614258, -0.09600000083446503, -0.03200000151991844, 1.055999994277954, 0.0, 0.0, 0.0, 0.0, 0.0, 1.6214323939377067E9, 2021-05-19 15:53:13.937
38.0, -50.918739318847656, 11.313197135925293, -67.7239761352539, -38.37324523925781, -0.09600000083446503, -0.03200000151991844, 1.055999994277954, 0.0, 0.0, 0.0, 0.0, 0.0, 1.6214323939534688E9, 2021-05-19 15:53:13.953
38.0, -26.46727180480957, 49.052528381347656, -52.8653564453125, -19.23243522644043, -0.09600000083446503, -0.03200000151991844, 1.055999994277954, 0.0, 0.0, 0.0, 0.0, 0.0, 1.6214323939534688E9, 2021-05-19 15:53:13.953
39.0, -51.58818054199219, 13.224286079406738, -65.98492431640625, -33.07380676269531, -0.09600000083446503, -0.03200000151991844, 1.055999994277954, 0.0, 0.0, 0.0, 0.0, 0.0, 1.621432393954213E9, 2021-05-19 15:53:13.954
39.0, -70.29515838623047, -19.26048469543457, -79.93101501464844, -48.50463104248047, -0.09600000083446503, -0.03200000151991844, 1.055999994277954, 0.0, 0.0, 0.0, 0.0, 0.0, 1.621432393954213E9, 2021-05-19 15:53:13.954
40.0, -48.416744232177734, 28.479337692260742, -67.83243560791016, -22.34029197692871, -0.09600000083446503, -0.03200000151991844, 1.055999994277954, 0.0, 0.0, 0.0, 0.0, 0.0, 1.6214323939678173E9, 2021-05-19 15:53:13.967
40.0, -37.1671257019043, 21.45206642150879, -52.82421875, -12.160284996032715, -0.09600000083446503, -0.03200000151991844, 1.055999994277954, 0.0, 0.0, 0.0, 0.0, 0.0, 1.6214323939678173E9, 2021-05-19 15:53:13.967
41.0, -61.495174407958984, 20.442293167114258, -61.91591262817383, -28.200716018676758, -0.09600000083446503, -0.03200000151991844, 1.055999994277954, 0.0, 0.0, 0.0, 0.0, 0.0, 1.6214323939834232E9, 2021-05-19 15:53:13.983
41.0, -75.40760040283203, -14.095683097839355, -75.52540588378906, -48.2989387512207, -0.09600000083446503, -0.03200000151991844, 1.055999994277954, 0.0, 0.0, 0.0, 0.0, 0.0, 1.6214323939834232E9, 2021-05-19 15:53:13.983
42.0, -52.65779113769531, -4.0091729164123535, -67.44722747802734, -29.954729080200195, -0.09600000083446503, -0.03200000151991844, 1.055999994277954, 0.0, 0.0, 0.0, 0.0, 0.0, 1.621432393984125E9, 2021-05-19 15:53:13.984
42.0, -32.70542526245117, 20.6517276763916, -48.02592468261719, -11.270188331604004, -0.09600000083446503, -0.03200000151991844, 1.055999994277954, 0.0, 0.0, 0.0, 0.0, 0.0, 1.621432393984125E9, 2021-05-19 15:53:13.984
43.0, -46.277523040771484, 17.087602615356445, -55.67776107788086, -32.48290252685547, -0.09600000083446503, -0.03200000151991844, 1.055999994277954, 0.0, 0.0, 0.0, 0.0, 0.0, 1.621432393997692E9, 2021-05-19 15:53:13.997
43.0, -76.3238754272461, -24.19341278076172, -79.77019500732422, -54.85872268676758, -0.09600000083446503, -0.03200000151991844, 1.055999994277954, 0.0, 0.0, 0.0, 0.0, 0.0, 1.621432393997692E9, 2021-05-19 15:53:13.997
44.0, -47.893157958984375, 25.191967010498047, -64.14863586425781, -19.68496322631836, -0.09600000083446503, -0.03200000151991844, 1.055999994277954, 0.0, 0.0, 0.0, 0.0, 0.0, 1.6214323940134673E9, 2021-05-19 15:53:14.013
44.0, -32.39875411987305, 43.158447265625, -45.93906021118164, -8.289487838745117, -0.09600000083446503, -0.03200000151991844, 1.055999994277954, 0.0, 0.0, 0.0, 0.0, 0.0, 1.6214323940134673E9, 2021-05-19 15:53:14.013
45.0, -57.014774322509766, -4.615036487579346, -64.15611267089844, -36.136783599853516, -0.09600000083446503, -0.03200000151991844, 1.055999994277954, 0.0, 0.0, 0.0, 0.0, 0.0, 1.6214323940141473E9, 2021-05-19 15:53:14.014
45.0, -58.67155075073242, -7.274105548858643, -76.72217559814453, -51.54143142700195, -0.09600000083446503, -0.03200000151991844, 1.055999994277954, 0.0, 0.0, 0.0, 0.0, 0.0, 1.6214323940141473E9, 2021-05-19 15:53:14.014
46.0, -39.52700424194336, 8.983240127563477, -66.12704467773438, -37.81599807739258, -0.09600000083446503, -0.03200000151991844, 1.055999994277954, 0.0, 0.0, 0.0, 0.0, 0.0, 1.6214323940276632E9, 2021-05-19 15:53:14.027
46.0, -31.561016082763672, 28.42323875427246, -44.248626708984375, -14.789434432983398, -0.09600000083446503, -0.03200000151991844, 1.055999994277954, 0.0, 0.0, 0.0, 0.0, 0.0, 1.6214323940276632E9, 2021-05-19 15:53:14.027
47.0, -57.448604583740234, 13.310303688049316, -57.16250228881836, -23.30144691467285, -0.09600000083446503, -0.03200000151991844, 1.055999994277954, 0.0, 0.0, 0.0, 0.0, 0.0, 1.6214323940581236E9, 2021-05-19 15:53:14.058
47.0, -66.386962890625, -10.423101425170898, -75.5889892578125, -39.472774505615234, -0.09600000083446503, -0.03200000151991844, 1.055999994277954, 0.0, 0.0, 0.0, 0.0, 0.0, 1.6214323940581236E9, 2021-05-19 15:53:14.058
48.0, -43.300559997558594, 3.6090035438537598, -60.965980529785156, -19.856998443603516, -0.09600000083446503, -0.03200000151991844, 1.055999994277954, 0.0, 0.0, 0.0, 0.0, 0.0, 1.6214323940740106E9, 2021-05-19 15:53:14.074
48.0, -40.19644546508789, 31.276782989501953, -48.08202362060547, -5.611720085144043, -0.09600000083446503, -0.03200000151991844, 1.055999994277954, 0.0, 0.0, 0.0, 0.0, 0.0, 1.6214323940740106E9, 2021-05-19 15:53:14.074
49.0, -57.14567184448242, 0.5011466145515442, -59.14838790893555, -30.167903900146484, -0.09600000083446503, -0.03200000151991844, 1.055999994277954, 0.0, 0.0, 0.0, 0.0, 0.0, 1.621432394090145E9, 2021-05-19 15:53:14.090
49.0, -72.59146118164062, -12.207033157348633, -75.69744873046875, -47.969825744628906, -0.09600000083446503, -0.03200000151991844, 1.055999994277954, 0.0, 0.0, 0.0, 0.0, 0.0, 1.621432394090145E9, 2021-05-19 15:53:14.090
50.0, -59.07545852661133, -13.59079647064209, -64.2496109008789, -28.73552131652832, -0.09600000083446503, -0.03200000151991844, 1.040000081062317, 0.0, 0.0, 0.0, 0.0, 0.0, 1.6214323940909507E9, 2021-05-19 15:53:14.090
50.0, -36.09751510620117, 33.12803268432617, -46.212074279785156, -10.597006797790527, -0.09600000083446503, -0.03200000151991844, 1.040000081062317, 0.0, 0.0, 0.0, 0.0, 0.0, 1.6214323940909507E9, 2021-05-19 15:53:14.090
51.0, -30.81303596496582, -1.9073489904403687, -53.87512969970703, -24.632850646972656, -0.09600000083446503, -0.03200000151991844, 1.040000081062317, 0.0, 0.0, 0.0, 0.0, 0.0, 1.621432394091742E9, 2021-05-19 15:53:14.091
51.0, -77.41967010498047, -5.654728889465332, -77.08494567871094, -47.46868133544922, -0.09600000083446503, -0.03200000151991844, 1.040000081062317, 0.0, 0.0, 0.0, 0.0, 0.0, 1.621432394091742E9, 2021-05-19 15:53:14.091
52.0, -58.61545181274414, 16.967926025390625, -66.14199829101562, -24.797407150268555, -0.09600000083446503, -0.03200000151991844, 1.040000081062317, 0.0, 0.0, 0.0, 0.0, 0.0, 1.621432394092553E9, 2021-05-19 15:53:14.092
52.0, -33.995689392089844, 23.927879333496094, -48.3400764465332, -12.889565467834473, -0.09600000083446503, -0.03200000151991844, 1.040000081062317, 0.0, 0.0, 0.0, 0.0, 0.0, 1.621432394092553E9, 2021-05-19 15:53:14.092
53.0, -51.483463287353516, 15.083016395568848, -52.58860397338867, -26.1213321685791, -0.09600000083446503, -0.03200000151991844, 1.040000081062317, 0.0, 0.0, 0.0, 0.0, 0.0, 1.6214323941040576E9, 2021-05-19 15:53:14.104
53.0, -56.12467956542969, -13.538437843322754, -72.52227020263672, -44.768470764160156, -0.09600000083446503, -0.03200000151991844, 1.040000081062317, 0.0, 0.0, 0.0, 0.0, 0.0, 1.6214323941040576E9, 2021-05-19 15:53:14.104
54.0, -44.516029357910156, 16.97166633605957, -59.249366760253906, -24.146663665771484, -0.09600000083446503, -0.03200000151991844, 1.040000081062317, 0.0, 0.0, 0.0, 0.0, 0.0, 1.62143239410474E9, 2021-05-19 15:53:14.104
54.0, -18.75185775756836, 23.62120819091797, -49.99311447143555, -11.26270866394043, -0.09600000083446503, -0.03200000151991844, 1.040000081062317, 0.0, 0.0, 0.0, 0.0, 0.0, 1.62143239410474E9, 2021-05-19 15:53:14.104
55.0, -52.85600662231445, 3.9792535305023193, -65.4725570678711, -34.95497512817383, -0.09600000083446503, -0.03200000151991844, 1.040000081062317, 0.0, 0.0, 0.0, 0.0, 0.0, 1.6214323941177392E9, 2021-05-19 15:53:14.117
55.0, -88.82636260986328, -14.608049392700195, -78.43878936767578, -50.55409622192383, -0.09600000083446503, -0.03200000151991844, 1.040000081062317, 0.0, 0.0, 0.0, 0.0, 0.0, 1.6214323941177392E9, 2021-05-19 15:53:14.117
56.0, -61.517616271972656, 7.367602825164795, -66.25045776367188, -34.19577407836914, -0.09600000083446503, -0.03200000151991844, 1.040000081062317, 0.0, 0.0, 0.0, 0.0, 0.0, 1.6214323941337743E9, 2021-05-19 15:53:14.133
56.0, -26.54581069946289, 31.58345603942871, -48.44105529785156, -1.3407541513442993, -0.09600000083446503, -0.03200000151991844, 1.040000081062317, 0.0, 0.0, 0.0, 0.0, 0.0, 1.6214323941337743E9, 2021-05-19 15:53:14.133
57.0, -62.022499084472656, 22.648834228515625, -63.1126823425293, -28.365270614624023, -0.09600000083446503, -0.03200000151991844, 1.040000081062317, 0.0, 0.0, 0.0, 0.0, 0.0, 1.621432394148606E9, 2021-05-19 15:53:14.148
57.0, -79.39433288574219, -16.107749938964844, -81.93560028076172, -51.7920036315918, -0.09600000083446503, -0.03200000151991844, 1.040000081062317, 0.0, 0.0, 0.0, 0.0, 0.0, 1.621432394148606E9, 2021-05-19 15:53:14.148
58.0, -49.45269775390625, 13.549657821655273, -61.59428405761719, -40.19831466674805, -0.09600000083446503, -0.03200000151991844, 1.040000081062317, 0.0, 0.0, 0.0, 0.0, 0.0, 1.6214323941491485E9, 2021-05-19 15:53:14.149
58.0, -32.1481819152832, 26.287755966186523, -48.38495635986328, -26.58133888244629, -0.09600000083446503, -0.03200000151991844, 1.040000081062317, 0.0, 0.0, 0.0, 0.0, 0.0, 1.6214323941491485E9, 2021-05-19 15:53:14.149
59.0, -70.08198547363281, -2.098083972930908, -63.714805603027344, -48.75894546508789, -0.09600000083446503, -0.03200000151991844, 1.040000081062317, 0.0, 0.0, 0.0, 0.0, 0.0, 1.62143239416315E9, 2021-05-19 15:53:14.163
59.0, -70.23158264160156, 0.38894960284233093, -67.2976303100586, -56.73241424560547, -0.09600000083446503, -0.03200000151991844, 1.040000081062317, 0.0, 0.0, 0.0, 0.0, 0.0, 1.62143239416315E9, 2021-05-19 15:53:14.163
60.0, -46.81232833862305, 10.13512897491455, -60.77150344848633, -38.956668853759766, -0.09600000083446503, -0.03200000151991844, 1.040000081062317, 0.0, 0.0, 0.0, 0.0, 0.0, 1.6214323941789043E9, 2021-05-19 15:53:14.178
60.0, -33.26266860961914, 23.441692352294922, -40.381568908691406, -23.83999252319336, -0.09600000083446503, -0.03200000151991844, 1.040000081062317, 0.0, 0.0, 0.0, 0.0, 0.0, 1.6214323941789043E9, 2021-05-19 15:53:14.178
61.0, -54.85685348510742, 27.076875686645508, -55.651580810546875, -35.0709114074707, -0.09600000083446503, -0.03200000151991844, 1.040000081062317, 0.0, 0.0, 0.0, 0.0, 0.0, 1.6214323941941044E9, 2021-05-19 15:53:14.194
61.0, -71.90705871582031, 6.38400936126709, -69.89311981201172, -60.1544189453125, -0.09600000083446503, -0.03200000151991844, 1.040000081062317, 0.0, 0.0, 0.0, 0.0, 0.0, 1.6214323941941044E9, 2021-05-19 15:53:14.194
62.0, -47.77348327636719, 32.33143615722656, -57.383155822753906, -33.593650817871094, -0.09600000083446503, -0.03200000151991844, 1.040000081062317, 0.0, 0.0, 0.0, 0.0, 0.0, 1.6214323941948776E9, 2021-05-19 15:53:14.194
62.0, -34.13406753540039, 23.954059600830078, -49.48822784423828, -23.18177032470703, -0.09600000083446503, -0.03200000151991844, 1.040000081062317, 0.0, 0.0, 0.0, 0.0, 0.0, 1.6214323941948776E9, 2021-05-19 15:53:14.194
63.0, -55.346778869628906, 10.082770347595215, -53.886348724365234, -32.838191986083984, -0.09600000083446503, -0.03200000151991844, 1.040000081062317, 0.0, 0.0, 0.0, 0.0, 0.0, 1.6214323941955187E9, 2021-05-19 15:53:14.195
63.0, -71.51062774658203, -7.487279891967773, -73.56570434570312, -50.28856658935547, -0.09600000083446503, -0.03200000151991844, 1.040000081062317, 0.0, 0.0, 0.0, 0.0, 0.0, 1.6214323941955187E9, 2021-05-19 15:53:14.195
64.0, -53.71992111206055, 13.287864685058594, -58.669681549072266, -29.360084533691406, -0.09600000083446503, -0.03200000151991844, 1.040000081062317, 0.0, 0.0, 0.0, 0.0, 0.0, 1.6214323942076387E9, 2021-05-19 15:53:14.207
64.0, -28.266164779663086, 52.571773529052734, -36.84736251831055, -9.216983795166016, -0.09600000083446503, -0.03200000151991844, 1.040000081062317, 0.0, 0.0, 0.0, 0.0, 0.0, 1.6214323942076387E9, 2021-05-19 15:53:14.207
65.0, -38.05348205566406, 7.001092910766602, -57.57762908935547, -35.190589904785156, -0.09600000083446503, -0.03200000151991844, 1.040000081062317, 0.0, 0.0, 0.0, 0.0, 0.0, 1.6214323942233703E9, 2021-05-19 15:53:14.223
65.0, -57.399986267089844, 2.5992305278778076, -69.06660461425781, -49.85847473144531, -0.09600000083446503, -0.03200000151991844, 1.040000081062317, 0.0, 0.0, 0.0, 0.0, 0.0, 1.6214323942233703E9, 2021-05-19 15:53:14.223
66.0, -53.11405944824219, 13.183147430419922, -57.805763244628906, -39.39049530029297, -0.09600000083446503, -0.03200000151991844, 1.040000081062317, 0.0, 0.0, 0.0, 0.0, 0.0, 1.6214323942241716E9, 2021-05-19 15:53:14.224
66.0, -48.65235900878906, 29.320816040039062, -42.954620361328125, -17.844932556152344, -0.09600000083446503, -0.03200000151991844, 1.040000081062317, 0.0, 0.0, 0.0, 0.0, 0.0, 1.6214323942241716E9, 2021-05-19 15:53:14.224
67.0, -60.534019470214844, 18.97251319885254, -56.17890548706055, -36.892242431640625, -0.09600000083446503, -0.03200000151991844, 1.040000081062317, 0.0, 0.0, 0.0, 0.0, 0.0, 1.6214323942376652E9, 2021-05-19 15:53:14.237
67.0, -76.93722534179688, 3.4444477558135986, -76.67729949951172, -46.98623275756836, -0.09600000083446503, -0.03200000151991844, 1.040000081062317, 0.0, 0.0, 0.0, 0.0, 0.0, 1.6214323942376652E9, 2021-05-19 15:53:14.237
68.0, -59.89823913574219, 15.56920337677002, -64.35433197021484, -35.8226318359375, -0.09600000083446503, -0.03200000151991844, 1.040000081062317, 0.0, 0.0, 0.0, 0.0, 0.0, 1.6214323942535238E9, 2021-05-19 15:53:14.253
68.0, -32.36509323120117, 37.08484649658203, -43.39592742919922, -5.435944557189941, -0.09600000083446503, -0.03200000151991844, 1.040000081062317, 0.0, 0.0, 0.0, 0.0, 0.0, 1.6214323942535238E9, 2021-05-19 15:53:14.253
69.0, -56.26305389404297, 13.751611709594727, -64.44034576416016, -41.8962287902832, -0.09600000083446503, -0.03200000151991844, 1.040000081062317, 0.0, 0.0, 0.0, 0.0, 0.0, 1.6214323942541215E9, 2021-05-19 15:53:14.254
69.0, -75.90875244140625, -12.861515998840332, -81.78226470947266, -56.92688751220703, -0.09600000083446503, -0.03200000151991844, 1.040000081062317, 0.0, 0.0, 0.0, 0.0, 0.0, 1.6214323942541215E9, 2021-05-19 15:53:14.254
70.0, -48.42048645019531, 22.71615219116211, -70.69719696044922, -28.062339782714844, -0.09600000083446503, -0.03200000151991844, 1.055999994277954, 0.0, 0.0, 0.0, 0.0, 0.0, 1.6214323942676668E9, 2021-05-19 15:53:14.267
70.0, -31.38524055480957, 47.4069709777832, -49.65278244018555, -10.574566841125488, -0.09600000083446503, -0.03200000151991844, 1.055999994277954, 0.0, 0.0, 0.0, 0.0, 0.0, 1.6214323942676668E9, 2021-05-19 15:53:14.267
71.0, -55.10368728637695, -1.4884802103042603, -65.2706069946289, -32.33330535888672, -0.09600000083446503, -0.03200000151991844, 1.055999994277954, 0.0, 0.0, 0.0, 0.0, 0.0, 1.6214323943004692E9, 2021-05-19 15:53:14.300
71.0, -67.56503295898438, 9.043078422546387, -71.02256774902344, -42.06078338623047, -0.09600000083446503, -0.03200000151991844, 1.055999994277954, 0.0, 0.0, 0.0, 0.0, 0.0, 1.6214323943004692E9, 2021-05-19 15:53:14.300
72.0, -61.0875244140625, 23.078922271728516, -64.69091796875, -23.350065231323242, -0.1120000034570694, -0.03200000151991844, 1.055999994277954, 0.0, 0.0, 0.0, 0.0, 0.0, 1.6214323943011339E9, 2021-05-19 15:53:14.301
72.0, -40.1478271484375, 31.56849479675293, -55.1429557800293, -18.40591812133789, -0.1120000034570694, -0.03200000151991844, 1.055999994277954, 0.0, 0.0, 0.0, 0.0, 0.0, 1.6214323943011339E9, 2021-05-19 15:53:14.301
73.0, -51.999568939208984, 14.263978004455566, -58.69960021972656, -33.62356948852539, -0.1120000034570694, -0.03200000151991844, 1.055999994277954, 0.0, 0.0, 0.0, 0.0, 0.0, 1.621432394301966E9, 2021-05-19 15:53:14.301
73.0, -67.13494110107422, -8.620469093322754, -72.72796630859375, -46.26443099975586, -0.1120000034570694, -0.03200000151991844, 1.055999994277954, 0.0, 0.0, 0.0, 0.0, 0.0, 1.621432394301966E9, 2021-05-19 15:53:14.301
74.0, -38.880001068115234, 11.503931999206543, -56.73615264892578, -31.85833740234375, -0.1120000034570694, -0.03200000151991844, 1.055999994277954, 0.0, 0.0, 0.0, 0.0, 0.0, 1.6214323943026147E9, 2021-05-19 15:53:14.302
74.0, -25.37148094177246, 24.713258743286133, -46.496307373046875, -18.705110549926758, -0.1120000034570694, -0.03200000151991844, 1.055999994277954, 0.0, 0.0, 0.0, 0.0, 0.0, 1.6214323943026147E9, 2021-05-19 15:53:14.302
75.0, -38.88373947143555, 11.937760353088379, -44.40944290161133, -29.43488311767578, -0.1120000034570694, -0.03200000151991844, 1.055999994277954, 0.0, 0.0, 0.0, 0.0, 0.0, 1.6214323943128233E9, 2021-05-19 15:53:14.312
75.0, -51.950950622558594, -12.079876899719238, -65.71565246582031, -45.950279235839844, -0.1120000034570694, -0.03200000151991844, 1.055999994277954, 0.0, 0.0, 0.0, 0.0, 0.0, 1.6214323943128233E9, 2021-05-19 15:53:14.312
76.0, -58.66781234741211, 11.657268524169922, -57.824462890625, -23.615598678588867, -0.1120000034570694, -0.03200000151991844, 1.055999994277954, 0.0, 0.0, 0.0, 0.0, 0.0, 1.6214323943277736E9, 2021-05-19 15:53:14.327
76.0, -32.914859771728516, 37.58225631713867, -42.44973373413086, -11.457183837890625, -0.1120000034570694, -0.03200000151991844, 1.055999994277954, 0.0, 0.0, 0.0, 0.0, 0.0, 1.6214323943277736E9, 2021-05-19 15:53:14.327
77.0, -56.46500778198242, -3.2163140773773193, -47.71177291870117, -18.170303344726562, -0.1120000034570694, -0.03200000151991844, 1.055999994277954, 0.0, 0.0, 0.0, 0.0, 0.0, 1.6214323943590927E9, 2021-05-19 15:53:14.359
77.0, -76.65299224853516, -4.996506214141846, -75.71614074707031, -44.36456298828125, -0.1120000034570694, -0.03200000151991844, 1.055999994277954, 0.0, 0.0, 0.0, 0.0, 0.0, 1.6214323943590927E9, 2021-05-19 15:53:14.359
78.0, -46.09052658081055, 29.889280319213867, -53.20942687988281, -18.66771125793457, -0.1120000034570694, -0.03200000151991844, 1.055999994277954, 0.0, 0.0, 0.0, 0.0, 0.0, 1.621432394374532E9, 2021-05-19 15:53:14.374
78.0, -39.18667221069336, 38.3115348815918, -45.37433624267578, -8.947710990905762, -0.1120000034570694, -0.03200000151991844, 1.055999994277954, 0.0, 0.0, 0.0, 0.0, 0.0, 1.621432394374532E9, 2021-05-19 15:53:14.374
79.0, -62.32917404174805, 15.370988845825195, -65.22198486328125, -29.337644577026367, -0.1120000034570694, -0.03200000151991844, 1.055999994277954, 0.0, 0.0, 0.0, 0.0, 0.0, 1.6214323943752112E9, 2021-05-19 15:53:14.375
79.0, -75.38516235351562, -8.033305168151855, -78.02740478515625, -45.916622161865234, -0.1120000034570694, -0.03200000151991844, 1.055999994277954, 0.0, 0.0, 0.0, 0.0, 0.0, 1.6214323943752112E9, 2021-05-19 15:53:14.375
80.0, -47.78096008300781, 19.757890701293945, -57.992759704589844, -22.00370216369629, -0.1120000034570694, -0.03200000151991844, 1.040000081062317, 0.0, 0.0, 0.0, 0.0, 0.0, 1.6214323943759491E9, 2021-05-19 15:53:14.375
80.0, -41.10523986816406, 31.74427032470703, -47.117130279541016, -8.786894798278809, -0.1120000034570694, -0.03200000151991844, 1.040000081062317, 0.0, 0.0, 0.0, 0.0, 0.0, 1.6214323943759491E9, 2021-05-19 15:53:14.375
81.0, -61.81680679321289, 8.796244621276855, -58.97261428833008, -35.1307487487793, -0.1120000034570694, -0.03200000151991844, 1.040000081062317, 0.0, 0.0, 0.0, 0.0, 0.0, 1.6214323944205773E9, 2021-05-19 15:53:14.420
81.0, -64.74140930175781, -20.849943161010742, -70.20352935791016, -41.720455169677734, -0.1120000034570694, -0.03200000151991844, 1.040000081062317, 0.0, 0.0, 0.0, 0.0, 0.0, 1.6214323944205773E9, 2021-05-19 15:53:14.420
82.0, -48.517723083496094, 5.449034214019775, -60.1020622253418, -31.016860961914062, -0.1120000034570694, -0.03200000151991844, 1.040000081062317, 0.0, 0.0, 0.0, 0.0, 0.0, 1.6214323944212365E9, 2021-05-19 15:53:14.421
82.0, -19.00617218017578, 29.14504051208496, -43.41462707519531, -11.554420471191406, -0.1120000034570694, -0.03200000151991844, 1.040000081062317, 0.0, 0.0, 0.0, 0.0, 0.0, 1.6214323944212365E9, 2021-05-19 15:53:14.421
83.0, -57.912349700927734, 11.15986156463623, -58.31813049316406, -30.639129638671875, -0.1120000034570694, -0.03200000151991844, 1.040000081062317, 0.0, 0.0, 0.0, 0.0, 0.0, 1.6214323944218917E9, 2021-05-19 15:53:14.421
83.0, -72.08283233642578, -4.1213698387146, -73.60684204101562, -31.60402488708496, -0.1120000034570694, -0.03200000151991844, 1.040000081062317, 0.0, 0.0, 0.0, 0.0, 0.0, 1.6214323944218917E9, 2021-05-19 15:53:14.421
84.0, -46.55427551269531, 22.731111526489258, -58.29195022583008, -9.27308177947998, -0.1120000034570694, -0.03200000151991844, 1.040000081062317, 0.0, 0.0, 0.0, 0.0, 0.0, 1.621432394422645E9, 2021-05-19 15:53:14.422
84.0, -36.033935546875, 37.006309509277344, -55.90963363647461, -4.7590227127075195, -0.1120000034570694, -0.03200000151991844, 1.040000081062317, 0.0, 0.0, 0.0, 0.0, 0.0, 1.621432394422645E9, 2021-05-19 15:53:14.422
85.0, -50.49612808227539, 12.76801872253418, -65.97370147705078, -20.346925735473633, -0.1120000034570694, -0.03200000151991844, 1.040000081062317, 0.0, 0.0, 0.0, 0.0, 0.0, 1.621432394434019E9, 2021-05-19 15:53:14.434
85.0, -60.201168060302734, -1.8549903631210327, -76.39306640625, -34.15089797973633, -0.1120000034570694, -0.03200000151991844, 1.040000081062317, 0.0, 0.0, 0.0, 0.0, 0.0, 1.621432394434019E9, 2021-05-19 15:53:14.434
86.0, -55.79556655883789, 30.641000747680664, -56.9904670715332, -6.756129264831543, -0.1120000034570694, -0.03200000151991844, 1.040000081062317, 0.0, 0.0, 0.0, 0.0, 0.0, 1.6214323944347563E9, 2021-05-19 15:53:14.434
86.0, -38.48731231689453, 44.325294494628906, -54.009765625, -2.3056483268737793, -0.1120000034570694, -0.03200000151991844, 1.040000081062317, 0.0, 0.0, 0.0, 0.0, 0.0, 1.6214323944347563E9, 2021-05-19 15:53:14.434
87.0, -52.46331787109375, 16.881908416748047, -63.60634994506836, -27.40037727355957, -0.1120000034570694, -0.03200000151991844, 1.040000081062317, 0.0, 0.0, 0.0, 0.0, 0.0, 1.6214323944355261E9, 2021-05-19 15:53:14.435
87.0, -85.2734603881836, -4.256006240844727, -85.78021240234375, -50.18010711669922, -0.1120000034570694, -0.03200000151991844, 1.040000081062317, 0.0, 0.0, 0.0, 0.0, 0.0, 1.6214323944355261E9, 2021-05-19 15:53:14.435
88.0, -58.13300323486328, 27.57054328918457, -69.2461166381836, -27.434036254882812, -0.1120000034570694, -0.03200000151991844, 1.040000081062317, 0.0, 0.0, 0.0, 0.0, 0.0, 1.6214323944478233E9, 2021-05-19 15:53:14.447
88.0, -37.8590087890625, 45.55198287963867, -53.411380767822266, -11.348726272583008, -0.1120000034570694, -0.03200000151991844, 1.040000081062317, 0.0, 0.0, 0.0, 0.0, 0.0, 1.6214323944478233E9, 2021-05-19 15:53:14.447
89.0, -58.08438491821289, 20.891080856323242, -68.59911346435547, -29.150650024414062, -0.1120000034570694, -0.03200000151991844, 1.040000081062317, 0.0, 0.0, 0.0, 0.0, 0.0, 1.6214323944640737E9, 2021-05-19 15:53:14.464
89.0, -50.27921676635742, -0.30667179822921753, -79.05213165283203, -42.326316833496094, -0.1120000034570694, -0.03200000151991844, 1.040000081062317, 0.0, 0.0, 0.0, 0.0, 0.0, 1.6214323944640737E9, 2021-05-19 15:53:14.464
90.0, -62.1907958984375, 16.474258422851562, -74.62409210205078, -35.082130432128906, -0.1120000034570694, -0.03200000151991844, 1.040000081062317, 0.0, 0.0, 0.0, 0.0, 0.0, 1.6214323944648163E9, 2021-05-19 15:53:14.464
90.0, -35.47294998168945, 21.422147750854492, -47.390140533447266, -5.435944557189941, -0.1120000034570694, -0.03200000151991844, 1.040000081062317, 0.0, 0.0, 0.0, 0.0, 0.0, 1.6214323944648163E9, 2021-05-19 15:53:14.464
91.0, -55.997520446777344, 12.32671070098877, -61.46338653564453, -30.908403396606445, -0.1120000034570694, -0.03200000151991844, 1.040000081062317, 0.0, 0.0, 0.0, 0.0, 0.0, 1.6214323944940343E9, 2021-05-19 15:53:14.494
91.0, -63.757816314697266, -5.662208557128906, -74.02944946289062, -43.160316467285156, -0.1120000034570694, -0.03200000151991844, 1.040000081062317, 0.0, 0.0, 0.0, 0.0, 0.0, 1.6214323944940343E9, 2021-05-19 15:53:14.494
92.0, -41.71858215332031, 11.432873725891113, -57.274696350097656, -22.99851417541504, -0.09600000083446503, -0.03200000151991844, 1.040000081062317, 0.0, 0.0, 0.0, 0.0, 0.0, 1.621432394494763E9, 2021-05-19 15:53:14.494
92.0, -25.659454345703125, 18.770557403564453, -47.82770919799805, -16.150758743286133, -0.09600000083446503, -0.03200000151991844, 1.040000081062317, 0.0, 0.0, 0.0, 0.0, 0.0, 1.621432394494763E9, 2021-05-19 15:53:14.494
93.0, -41.87565994262695, 15.621562004089355, -54.92230224609375, -26.906709671020508, -0.09600000083446503, -0.03200000151991844, 1.040000081062317, 0.0, 0.0, 0.0, 0.0, 0.0, 1.621432394495515E9, 2021-05-19 15:53:14.495
93.0, -65.78484344482422, -18.134775161743164, -76.14623260498047, -44.2149658203125, -0.09600000083446503, -0.03200000151991844, 1.040000081062317, 0.0, 0.0, 0.0, 0.0, 0.0, 1.621432394495515E9, 2021-05-19 15:53:14.495
94.0, -48.06519317626953, 7.921108245849609, -62.3497428894043, -21.28938102722168, -0.09600000083446503, -0.03200000151991844, 1.040000081062317, 0.0, 0.0, 0.0, 0.0, 0.0, 1.6214323945076513E9, 2021-05-19 15:53:14.507
94.0, -32.92607879638672, 41.06410217285156, -47.37892150878906, -2.0588150024414062, -0.09600000083446503, -0.03200000151991844, 1.040000081062317, 0.0, 0.0, 0.0, 0.0, 0.0, 1.6214323945076513E9, 2021-05-19 15:53:14.507
95.0, -48.64487838745117, -3.1901347637176514, -57.58137130737305, -27.254520416259766, -0.09600000083446503, -0.03200000151991844, 1.040000081062317, 0.0, 0.0, 0.0, 0.0, 0.0, 1.6214323945240672E9, 2021-05-19 15:53:14.524
95.0, -52.444618225097656, -5.149842262268066, -74.93450164794922, -42.07574462890625, -0.09600000083446503, -0.03200000151991844, 1.040000081062317, 0.0, 0.0, 0.0, 0.0, 0.0, 1.6214323945240672E9, 2021-05-19 15:53:14.524
96.0, -55.006446838378906, 15.041877746582031, -64.72831726074219, -25.0180606842041, -0.09600000083446503, -0.03200000151991844, 1.040000081062317, 0.0, 0.0, 0.0, 0.0, 0.0, 1.6214323945247214E9, 2021-05-19 15:53:14.524
96.0, -39.17919158935547, 40.98930358886719, -45.235958099365234, -9.729350090026855, -0.09600000083446503, -0.03200000151991844, 1.040000081062317, 0.0, 0.0, 0.0, 0.0, 0.0, 1.6214323945247214E9, 2021-05-19 15:53:14.524
97.0, -57.231689453125, 9.839676856994629, -67.49210357666016, -37.90949630737305, -0.09600000083446503, -0.03200000151991844, 1.040000081062317, 0.0, 0.0, 0.0, 0.0, 0.0, 1.621432394537633E9, 2021-05-19 15:53:14.537
97.0, -65.27621459960938, -3.6763217449188232, -82.27967071533203, -50.924346923828125, -0.09600000083446503, -0.03200000151991844, 1.040000081062317, 0.0, 0.0, 0.0, 0.0, 0.0, 1.621432394537633E9, 2021-05-19 15:53:14.537
98.0, -51.07581329345703, 17.349395751953125, -67.53697967529297, -23.858692169189453, -0.09600000083446503, -0.03200000151991844, 1.040000081062317, 0.0, 0.0, 0.0, 0.0, 0.0, 1.6214323945533803E9, 2021-05-19 15:53:14.553
98.0, -35.671165466308594, 42.982669830322266, -54.93352127075195, -8.58120059967041, -0.09600000083446503, -0.03200000151991844, 1.040000081062317, 0.0, 0.0, 0.0, 0.0, 0.0, 1.6214323945533803E9, 2021-05-19 15:53:14.553
99.0, -44.362693786621094, -2.285078763961792, -65.3117446899414, -28.80657958984375, -0.09600000083446503, -0.03200000151991844, 1.040000081062317, 0.0, 0.0, 0.0, 0.0, 0.0, 1.62143239455421E9, 2021-05-19 15:53:14.554
99.0, -71.03565979003906, -12.5062255859375, -86.17290496826172, -39.10252380371094, -0.09600000083446503, -0.03200000151991844, 1.040000081062317, 0.0, 0.0, 0.0, 0.0, 0.0, 1.62143239455421E9, 2021-05-19 15:53:14.554
100.0, -54.5501823425293, 12.861515998840332, -73.14309692382812, -20.690996170043945, -0.09600000083446503, -0.03200000151991844, 1.055999994277954, 0.0, 0.0, 0.0, 0.0, 0.0, 1.6214323945690737E9, 2021-05-19 15:53:14.569
100.0, -22.671274185180664, 20.902301788330078, -54.92230224609375, -1.0228626728057861, -0.09600000083446503, -0.03200000151991844, 1.055999994277954, 0.0, 0.0, 0.0, 0.0, 0.0, 1.6214323945690737E9, 2021-05-19 15:53:14.569
0.0, -41.18377685546875, 4.089580535888672, -57.24851989746094, -25.45001983642578, -0.09600000083446503, -0.03200000151991844, 1.055999994277954, 0.0, 0.0, 0.0, 0.0, 0.0, 1.621432394569837E9, 2021-05-19 15:53:14.569
1.0, -71.52184295654297, -3.951204299926758, -73.6629409790039, -42.82185363769531, -0.09600000083446503, -0.03200000151991844, 1.055999994277954, 0.0, 0.0, 0.0, 0.0, 0.0, 1.621432394598826E9, 2021-05-19 15:53:14.598
1.0, -45.10693359375, 4.87869930267334, -63.082763671875, -24.335529327392578, -0.09600000083446503, -0.03200000151991844, 1.055999994277954, 0.0, 0.0, 0.0, 0.0, 0.0, 1.621432394598826E9, 2021-05-19 15:53:14.598
2.0, -21.650279998779297, 35.50474166870117, -46.1110954284668, -7.360123157501221, -0.09600000083446503, -0.03200000151991844, 1.055999994277954, 0.0, 0.0, 0.0, 0.0, 0.0, 1.621432394599502E9, 2021-05-19 15:53:14.599
2.0, -24.634721755981445, 22.138338088989258, -54.323917388916016, -20.27773666381836, -0.09600000083446503, -0.03200000151991844, 1.055999994277954, 0.0, 0.0, 0.0, 0.0, 0.0, 1.621432394599502E9, 2021-05-19 15:53:14.599
3.0, -93.40026092529297, -3.569734573364258, -79.78889465332031, -46.572975158691406, -0.09600000083446503, -0.03200000151991844, 1.055999994277954, 0.0, 0.0, 0.0, 0.0, 0.0, 1.621432394613472E9, 2021-05-19 15:53:14.613
3.0, -62.64332580566406, 8.091273307800293, -62.90324783325195, -20.049604415893555, -0.09600000083446503, -0.03200000151991844, 1.055999994277954, 0.0, 0.0, 0.0, 0.0, 0.0, 1.621432394613472E9, 2021-05-19 15:53:14.613
4.0, -36.392967224121094, 26.00913429260254, -52.24079132080078, -6.548564910888672, -0.09600000083446503, -0.03200000151991844, 1.055999994277954, 0.0, 0.0, 0.0, 0.0, 0.0, 1.6214323946141982E9, 2021-05-19 15:53:14.614
4.0, -48.72341537475586, 18.690149307250977, -51.320777893066406, -13.044771194458008, -0.09600000083446503, -0.03200000151991844, 1.055999994277954, 0.0, 0.0, 0.0, 0.0, 0.0, 1.6214323946141982E9, 2021-05-19 15:53:14.614
5.0, -73.26837921142578, -12.28744125366211, -81.4157485961914, -42.070133209228516, -0.09600000083446503, -0.03200000151991844, 1.055999994277954, 0.0, 0.0, 0.0, 0.0, 0.0, 1.6214323946284049E9, 2021-05-19 15:53:14.628
5.0, -49.261962890625, 25.87449836730957, -70.3306884765625, -17.78322410583496, -0.09600000083446503, -0.03200000151991844, 1.055999994277954, 0.0, 0.0, 0.0, 0.0, 0.0, 1.6214323946284049E9, 2021-05-19 15:53:14.628
6.0, -30.48018455505371, 28.514867782592773, -56.38460159301758, -10.995306015014648, -0.09600000083446503, -0.03200000151991844, 1.055999994277954, 0.0, 0.0, 0.0, 0.0, 0.0, 1.6214323946291404E9, 2021-05-19 15:53:14.629
6.0, -43.797969818115234, 2.896552562713623, -71.32923889160156, -30.390426635742188, -0.09600000083446503, -0.03200000151991844, 1.055999994277954, 0.0, 0.0, 0.0, 0.0, 0.0, 1.6214323946291404E9, 2021-05-19 15:53:14.629
7.0, -73.0664291381836, -12.706310272216797, -85.51842498779297, -50.98231506347656, -0.09600000083446503, -0.03200000151991844, 1.055999994277954, 0.0, 0.0, 0.0, 0.0, 0.0, 1.6214323946427045E9, 2021-05-19 15:53:14.642
7.0, -56.637046813964844, 13.024201393127441, -75.49922943115234, -28.980484008789062, -0.09600000083446503, -0.03200000151991844, 1.055999994277954, 0.0, 0.0, 0.0, 0.0, 0.0, 1.6214323946427045E9, 2021-05-19 15:53:14.642
8.0, -37.585994720458984, 20.036514282226562, -57.50657272338867, -8.938361167907715, -0.09600000083446503, -0.03200000151991844, 1.055999994277954, 0.0, 0.0, 0.0, 0.0, 0.0, 1.6214323946583405E9, 2021-05-19 15:53:14.658
8.0, -52.20900344848633, 18.66023063659668, -65.65955352783203, -26.500930786132812, -0.09600000083446503, -0.03200000151991844, 1.055999994277954, 0.0, 0.0, 0.0, 0.0, 0.0, 1.6214323946583405E9, 2021-05-19 15:53:14.658
9.0, -66.12891387939453, -0.26740285754203796, -76.5164794921875, -33.85731506347656, -0.09600000083446503, -0.03200000151991844, 1.055999994277954, 0.0, 0.0, 0.0, 0.0, 0.0, 1.6214323946590831E9, 2021-05-19 15:53:14.659
9.0, -57.156890869140625, 18.600393295288086, -60.801422119140625, -25.80156898498535, -0.09600000083446503, -0.03200000151991844, 1.055999994277954, 0.0, 0.0, 0.0, 0.0, 0.0, 1.6214323946590831E9, 2021-05-19 15:53:14.659
10.0, -42.90413284301758, 36.11808395385742, -48.246578216552734, -12.367849349975586, -0.09600000083446503, -0.03200000151991844, 1.055999994277954, 0.0, 0.0, 0.0, 0.0, 0.0, 1.621432394672705E9, 2021-05-19 15:53:14.672
10.0, -44.983516693115234, 15.14472484588623, -62.07299041748047, -26.22791862487793, -0.09600000083446503, -0.03200000151991844, 1.055999994277954, 0.0, 0.0, 0.0, 0.0, 0.0, 1.621432394672705E9, 2021-05-19 15:53:14.672
11.0, -58.11430358886719, -3.270542621612549, -71.82290649414062, -39.19789123535156, -0.09600000083446503, -0.03200000151991844, 1.055999994277954, 0.0, 0.0, 0.0, 0.0, 0.0, 1.6214323946883953E9, 2021-05-19 15:53:14.688
11.0, -37.496238708496094, 10.754082679748535, -53.28422546386719, -21.63532066345215, -0.09600000083446503, -0.03200000151991844, 1.055999994277954, 0.0, 0.0, 0.0, 0.0, 0.0, 1.6214323946883953E9, 2021-05-19 15:53:14.688
12.0, -36.23588943481445, 29.11699104309082, -43.94195556640625, -7.539638519287109, -0.09600000083446503, -0.03200000151991844, 1.055999994277954, 0.0, 0.0, 0.0, 0.0, 0.0, 1.6214323946892843E9, 2021-05-19 15:53:14.689
12.0, -38.75658416748047, -4.216737270355225, -67.76885986328125, -26.17181968688965, -0.09600000083446503, -0.03200000151991844, 1.055999994277954, 0.0, 0.0, 0.0, 0.0, 0.0, 1.6214323946892843E9, 2021-05-19 15:53:14.689
13.0, -77.85350036621094, -19.221216201782227, -90.37281036376953, -49.40407943725586, -0.09600000083446503, -0.03200000151991844, 1.055999994277954, 0.0, 0.0, 0.0, 0.0, 0.0, 1.621432394702664E9, 2021-05-19 15:53:14.702
13.0, -49.30684280395508, 17.306386947631836, -74.91580963134766, -21.362308502197266, -0.09600000083446503, -0.03200000151991844, 1.055999994277954, 0.0, 0.0, 0.0, 0.0, 0.0, 1.621432394702664E9, 2021-05-19 15:53:14.702
14.0, -33.726417541503906, 41.8737907409668, -61.051998138427734, -6.735559940338135, -0.09600000083446503, -0.03200000151991844, 1.055999994277954, 0.0, 0.0, 0.0, 0.0, 0.0, 1.621432394718417E9, 2021-05-19 15:53:14.718
14.0, -49.87904739379883, 19.554067611694336, -67.31259155273438, -30.7344970703125, -0.09600000083446503, -0.03200000151991844, 1.055999994277954, 0.0, 0.0, 0.0, 0.0, 0.0, 1.621432394718417E9, 2021-05-19 15:53:14.718
15.0, -68.59724426269531, -6.2549824714660645, -71.69200897216797, -43.53617477416992, -0.09600000083446503, -0.03200000151991844, 1.055999994277954, 0.0, 0.0, 0.0, 0.0, 0.0, 1.6214323947190783E9, 2021-05-19 15:53:14.719
15.0, -57.246646881103516, 36.10686492919922, -67.48088836669922, -31.542316436767578, -0.09600000083446503, -0.03200000151991844, 1.055999994277954, 0.0, 0.0, 0.0, 0.0, 0.0, 1.6214323947190783E9, 2021-05-19 15:53:14.719
16.0, -27.495744705200195, 49.15537643432617, -52.592342376708984, -9.791058540344238, -0.09600000083446503, -0.03200000151991844, 1.055999994277954, 0.0, 0.0, 0.0, 0.0, 0.0, 1.6214323947487903E9, 2021-05-19 15:53:14.748
16.0, -56.30793380737305, 32.61753845214844, -63.677406311035156, -23.935359954833984, -0.09600000083446503, -0.03200000151991844, 1.055999994277954, 0.0, 0.0, 0.0, 0.0, 0.0, 1.6214323947487903E9, 2021-05-19 15:53:14.748
17.0, -72.88317108154297, -1.6249865293502808, -80.98566436767578, -44.0148811340332, -0.09600000083446503, -0.03200000151991844, 1.055999994277954, 0.0, 0.0, 0.0, 0.0, 0.0, 1.6214323947641563E9, 2021-05-19 15:53:14.764
17.0, -41.2623176574707, 4.388772487640381, -57.716007232666016, -18.811697006225586, -0.09600000083446503, -0.03200000151991844, 1.055999994277954, 0.0, 0.0, 0.0, 0.0, 0.0, 1.6214323947641563E9, 2021-05-19 15:53:14.764
18.0, -24.88529396057129, 21.487594604492188, -37.614044189453125, 3.0592381954193115, -0.09600000083446503, -0.03200000151991844, 1.055999994277954, 0.0, 0.0, 0.0, 0.0, 0.0, 1.621432394764785E9, 2021-05-19 15:53:14.764
18.0, -43.36040115356445, 4.762762546539307, -62.095428466796875, -23.77454376220703, -0.09600000083446503, -0.03200000151991844, 1.055999994277954, 0.0, 0.0, 0.0, 0.0, 0.0, 1.621432394764785E9, 2021-05-19 15:53:14.764
19.0, -64.70027160644531, -13.764701843261719, -78.1583023071289, -33.25144958496094, -0.09600000083446503, -0.03200000151991844, 1.055999994277954, 0.0, 0.0, 0.0, 0.0, 0.0, 1.6214323947656293E9, 2021-05-19 15:53:14.765
19.0, -39.8187141418457, 20.05147361755371, -65.56979370117188, -20.012205123901367, -0.09600000083446503, -0.03200000151991844, 1.055999994277954, 0.0, 0.0, 0.0, 0.0, 0.0, 1.6214323947656293E9, 2021-05-19 15:53:14.765
20.0, -24.96383285522461, 34.3491096496582, -52.85039520263672, -8.86356258392334, -0.09600000083446503, -0.03200000151991844, 1.040000081062317, 0.0, 0.0, 0.0, 0.0, 0.0, 1.6214323947784677E9, 2021-05-19 15:53:14.778
20.0, -46.93574523925781, 19.116498947143555, -63.76716232299805, -20.6816463470459, -0.09600000083446503, -0.03200000151991844, 1.040000081062317, 0.0, 0.0, 0.0, 0.0, 0.0, 1.6214323947784677E9, 2021-05-19 15:53:14.778
21.0, -66.70111846923828, -10.61944580078125, -82.3133316040039, -45.58190155029297, -0.09600000083446503, -0.03200000151991844, 1.040000081062317, 0.0, 0.0, 0.0, 0.0, 0.0, 1.6214323947792268E9, 2021-05-19 15:53:14.779
21.0, -32.43989181518555, 18.963163375854492, -68.20268249511719, -31.736791610717773, -0.09600000083446503, -0.03200000151991844, 1.040000081062317, 0.0, 0.0, 0.0, 0.0, 0.0, 1.6214323947792268E9, 2021-05-19 15:53:14.779
22.0, -49.79302978515625, 27.976322174072266, -52.640960693359375, -8.238999366760254, -0.09600000083446503, -0.03200000151991844, 1.040000081062317, 0.0, 0.0, 0.0, 0.0, 0.0, 1.621432394792756E9, 2021-05-19 15:53:14.792
22.0, -71.93697357177734, 14.437883377075195, -72.36893463134766, -18.721939086914062, -0.09600000083446503, -0.03200000151991844, 1.040000081062317, 0.0, 0.0, 0.0, 0.0, 0.0, 1.621432394792756E9, 2021-05-19 15:53:14.792
23.0, -66.00923156738281, 0.14024624228477478, -78.43131256103516, -27.43590545654297, -0.09600000083446503, -0.03200000151991844, 1.040000081062317, 0.0, 0.0, 0.0, 0.0, 0.0, 1.6214323948090432E9, 2021-05-19 15:53:14.809
23.0, -62.33291244506836, 11.434743881225586, -65.48377990722656, -13.77031135559082, -0.09600000083446503, -0.03200000151991844, 1.040000081062317, 0.0, 0.0, 0.0, 0.0, 0.0, 1.6214323948090432E9, 2021-05-19 15:53:14.809
24.0, -27.701438903808594, 34.48000717163086, -43.964393615722656, 11.713366508483887, -0.09600000083446503, -0.03200000151991844, 1.040000081062317, 0.0, 0.0, 0.0, 0.0, 0.0, 1.6214323948097825E9, 2021-05-19 15:53:14.809
24.0, -52.12298583984375, -11.950850486755371, -63.56147003173828, -11.975159645080566, -0.09600000083446503, -0.03200000151991844, 1.040000081062317, 0.0, 0.0, 0.0, 0.0, 0.0, 1.6214323948097825E9, 2021-05-19 15:53:14.809
25.0, -60.605079650878906, -11.318807601928711, -72.7017822265625, -26.669225692749023, -0.09600000083446503, -0.03200000151991844, 1.040000081062317, 0.0, 0.0, 0.0, 0.0, 0.0, 1.6214323948226714E9, 2021-05-19 15:53:14.822
25.0, -54.30708694458008, 7.9379377365112305, -80.00955200195312, -19.821470260620117, -0.09600000083446503, -0.03200000151991844, 1.040000081062317, 0.0, 0.0, 0.0, 0.0, 0.0, 1.6214323948226714E9, 2021-05-19 15:53:14.822
26.0, -38.2928352355957, 32.520301818847656, -64.7918930053711, -5.2059407234191895, -0.09600000083446503, -0.03200000151991844, 1.040000081062317, 0.0, 0.0, 0.0, 0.0, 0.0, 1.6214323948382528E9, 2021-05-19 15:53:14.838
26.0, -54.924171447753906, 2.1523125171661377, -77.30560302734375, -20.939699172973633, -0.09600000083446503, -0.03200000151991844, 1.040000081062317, 0.0, 0.0, 0.0, 0.0, 0.0, 1.6214323948382528E9, 2021-05-19 15:53:14.838
27.0, -65.46694946289062, -15.189603805541992, -85.95599365234375, -29.130081176757812, -0.09600000083446503, -0.03200000151991844, 1.040000081062317, 0.0, 0.0, 0.0, 0.0, 0.0, 1.621432394854128E9, 2021-05-19 15:53:14.854
27.0, -55.365478515625, -11.33376693725586, -76.08265686035156, -19.174467086791992, -0.09600000083446503, -0.03200000151991844, 1.040000081062317, 0.0, 0.0, 0.0, 0.0, 0.0, 1.621432394854128E9, 2021-05-19 15:53:14.854
28.0, -25.779130935668945, 18.865924835205078, -50.80093002319336, -11.212220191955566, -0.09600000083446503, -0.03200000151991844, 1.040000081062317, 0.0, 0.0, 0.0, 0.0, 0.0, 1.621432394854828E9, 2021-05-19 15:53:14.854
28.0, -40.60783386230469, -3.7230703830718994, -52.34925079345703, -23.81194305419922, -0.09600000083446503, -0.03200000151991844, 1.040000081062317, 0.0, 0.0, 0.0, 0.0, 0.0, 1.621432394854828E9, 2021-05-19 15:53:14.854
29.0, -52.22770309448242, -24.48325538635254, -68.19520568847656, -36.060115814208984, -0.09600000083446503, -0.03200000151991844, 1.040000081062317, 0.0, 0.0, 0.0, 0.0, 0.0, 1.6214323948684E9, 2021-05-19 15:53:14.868
29.0, -42.78071594238281, 12.463216781616211, -59.48871994018555, -24.48138427734375, -0.09600000083446503, -0.03200000151991844, 1.040000081062317, 0.0, 0.0, 0.0, 0.0, 0.0, 1.6214323948684E9, 2021-05-19 15:53:14.868
30.0, -30.319368362426758, 30.47457504272461, -44.27106475830078, -8.882262229919434, -0.09600000083446503, -0.03200000151991844, 1.040000081062317, 0.0, 0.0, 0.0, 0.0, 0.0, 1.6214323948692E9, 2021-05-19 15:53:14.869
30.0, -52.40347671508789, 12.825986862182617, -53.66569519042969, -15.359768867492676, -0.09600000083446503, -0.03200000151991844, 1.040000081062317, 0.0, 0.0, 0.0, 0.0, 0.0, 1.6214323948692E9, 2021-05-19 15:53:14.869
31.0, -74.192138671875, -11.58434009552002, -76.70347595214844, -33.79747772216797, -0.09600000083446503, -0.03200000151991844, 1.040000081062317, 0.0, 0.0, 0.0, 0.0, 0.0, 1.6214323948827665E9, 2021-05-19 15:53:14.882
31.0, -47.395751953125, 10.421231269836426, -66.8750228881836, -14.596829414367676, -0.09600000083446503, -0.03200000151991844, 1.040000081062317, 0.0, 0.0, 0.0, 0.0, 0.0, 1.6214323948827665E9, 2021-05-19 15:53:14.882
32.0, -18.63966178894043, 30.145463943481445, -54.48473358154297, 0.36651018261909485, -0.1120000034570694, -0.03200000151991844, 1.040000081062317, 0.0, 0.0, 0.0, 0.0, 0.0, 1.6214323948983552E9, 2021-05-19 15:53:14.898
32.0, -68.26065063476562, -3.6370527744293213, -73.4647216796875, -18.837875366210938, -0.1120000034570694, -0.03200000151991844, 1.040000081062317, 0.0, 0.0, 0.0, 0.0, 0.0, 1.6214323948983552E9, 2021-05-19 15:53:14.898
33.0, -57.2429084777832, -18.106725692749023, -76.64737701416016, -31.875167846679688, -0.1120000034570694, -0.03200000151991844, 1.040000081062317, 0.0, 0.0, 0.0, 0.0, 0.0, 1.6214323948992865E9, 2021-05-19 15:53:14.899
33.0, -39.84489440917969, -9.007549285888672, -79.93101501464844, -28.19884490966797, -0.1120000034570694, -0.03200000151991844, 1.040000081062317, 0.0, 0.0, 0.0, 0.0, 0.0, 1.6214323948992865E9, 2021-05-19 15:53:14.899
34.0, -32.2603759765625, 9.433897972106934, -61.13053512573242, -6.073597431182861, -0.1120000034570694, -0.03200000151991844, 1.040000081062317, 0.0, 0.0, 0.0, 0.0, 0.0, 1.6214323949126873E9, 2021-05-19 15:53:14.912
34.0, -39.66537857055664, -9.089826583862305, -68.93570709228516, -13.72169303894043, -0.1120000034570694, -0.03200000151991844, 1.040000081062317, 0.0, 0.0, 0.0, 0.0, 0.0, 1.6214323949126873E9, 2021-05-19 15:53:14.912
35.0, -66.0054931640625, -17.60931968688965, -87.42203521728516, -41.29597473144531, -0.1120000034570694, -0.03200000151991844, 1.040000081062317, 0.0, 0.0, 0.0, 0.0, 0.0, 1.6214323949284482E9, 2021-05-19 15:53:14.928
35.0, -52.03322982788086, 15.84782600402832, -74.17904663085938, -23.98771858215332, -0.1120000034570694, -0.03200000151991844, 1.040000081062317, 0.0, 0.0, 0.0, 0.0, 0.0, 1.6214323949284482E9, 2021-05-19 15:53:14.928
36.0, -31.493698120117188, 24.513174057006836, -54.417415618896484, -1.6642554998397827, -0.1120000034570694, -0.03200000151991844, 1.040000081062317, 0.0, 0.0, 0.0, 0.0, 0.0, 1.6214323949292004E9, 2021-05-19 15:53:14.929
36.0, -49.602294921875, -2.784355401992798, -69.8856430053711, -30.349288940429688, -0.1120000034570694, -0.03200000151991844, 1.040000081062317, 0.0, 0.0, 0.0, 0.0, 0.0, 1.6214323949292004E9, 2021-05-19 15:53:14.929
37.0, -63.45488357543945, -18.1927433013916, -83.03887176513672, -41.542808532714844, -0.1120000034570694, -0.03200000151991844, 1.040000081062317, 0.0, 0.0, 0.0, 0.0, 0.0, 1.621432394942654E9, 2021-05-19 15:53:14.942
37.0, -51.45354461669922, 11.244009017944336, -67.37616729736328, -19.14080810546875, -0.1120000034570694, -0.03200000151991844, 1.040000081062317, 0.0, 0.0, 0.0, 0.0, 0.0, 1.621432394942654E9, 2021-05-19 15:53:14.942
38.0, -29.485370635986328, 36.72394943237305, -51.167442321777344, -6.178314685821533, -0.1120000034570694, -0.03200000151991844, 1.040000081062317, 0.0, 0.0, 0.0, 0.0, 0.0, 1.6214323949589136E9, 2021-05-19 15:53:14.958
38.0, -28.296083450317383, -14.808134078979492, -59.283023834228516, -12.19581413269043, -0.1120000034570694, -0.03200000151991844, 1.040000081062317, 0.0, 0.0, 0.0, 0.0, 0.0, 1.6214323949589136E9, 2021-05-19 15:53:14.958
39.0, -69.33026885986328, -34.379032135009766, -82.83317565917969, -39.98326873779297, -0.1120000034570694, -0.03200000151991844, 1.040000081062317, 0.0, 0.0, 0.0, 0.0, 0.0, 1.621432394973371E9, 2021-05-19 15:53:14.973
39.0, -50.705562591552734, 10.8101806640625, -72.82520294189453, -13.06721019744873, -0.1120000034570694, -0.03200000151991844, 1.040000081062317, 0.0, 0.0, 0.0, 0.0, 0.0, 1.621432394973371E9, 2021-05-19 15:53:14.973
40.0, -38.52470779418945, 16.154497146606445, -65.31548309326172, -4.532758712768555, -0.1120000034570694, -0.03200000151991844, 1.040000081062317, 0.0, 0.0, 0.0, 0.0, 0.0, 1.6214323949740937E9, 2021-05-19 15:53:14.974
40.0, -57.6430778503418, -2.6085801124572754, -75.40573120117188, -21.036937713623047, -0.1120000034570694, -0.03200000151991844, 1.040000081062317, 0.0, 0.0, 0.0, 0.0, 0.0, 1.6214323949740937E9, 2021-05-19 15:53:14.974
41.0, -72.75227355957031, -16.790281295776367, -90.20451354980469, -39.92717361450195, -0.1120000034570694, -0.03200000151991844, 1.040000081062317, 0.0, 0.0, 0.0, 0.0, 0.0, 1.6214323949883952E9, 2021-05-19 15:53:14.988
41.0, -59.28489303588867, 2.51882266998291, -80.27508544921875, -17.753305435180664, -0.1120000034570694, -0.03200000151991844, 1.040000081062317, 0.0, 0.0, 0.0, 0.0, 0.0, 1.6214323949883952E9, 2021-05-19 15:53:14.988
42.0, -35.2410774230957, 24.692689895629883, -60.97719955444336, -2.337437391281128, -0.09600000083446503, -0.03200000151991844, 1.040000081062317, 0.0, 0.0, 0.0, 0.0, 0.0, 1.6214323949891436E9, 2021-05-19 15:53:14.989
42.0, -49.10114669799805, 1.7596229314804077, -65.76052856445312, -13.171927452087402, -0.09600000083446503, -0.03200000151991844, 1.040000081062317, 0.0, 0.0, 0.0, 0.0, 0.0, 1.6214323949891436E9, 2021-05-19 15:53:14.989
43.0, -62.23941421508789, -7.444271087646484, -83.80928802490234, -39.52326202392578, -0.09600000083446503, -0.03200000151991844, 1.040000081062317, 0.0, 0.0, 0.0, 0.0, 0.0, 1.621432395002694E9, 2021-05-19 15:53:15.002
43.0, -52.97194290161133, 15.713190078735352, -74.05937194824219, -23.09014320373535, -0.09600000083446503, -0.03200000151991844, 1.040000081062317, 0.0, 0.0, 0.0, 0.0, 0.0, 1.621432395002694E9, 2021-05-19 15:53:15.002
44.0, -29.3843936920166, 36.563133239746094, -55.45710754394531, -1.2042478322982788, -0.09600000083446503, -0.03200000151991844, 1.040000081062317, 0.0, 0.0, 0.0, 0.0, 0.0, 1.6214323950184085E9, 2021-05-19 15:53:15.018
44.0, -62.84153747558594, 15.327980041503906, -69.97914123535156, -22.678752899169922, -0.09600000083446503, -0.03200000151991844, 1.040000081062317, 0.0, 0.0, 0.0, 0.0, 0.0, 1.6214323950184085E9, 2021-05-19 15:53:15.018
45.0, -57.47478103637695, -9.497475624084473, -82.54520416259766, -34.485618591308594, -0.09600000083446503, -0.03200000151991844, 1.040000081062317, 0.0, 0.0, 0.0, 0.0, 0.0, 1.621432395019154E9, 2021-05-19 15:53:15.019
45.0, -48.10259246826172, 11.236529350280762, -71.95006561279297, -22.35712242126465, -0.09600000083446503, -0.03200000151991844, 1.040000081062317, 0.0, 0.0, 0.0, 0.0, 0.0, 1.621432395019154E9, 2021-05-19 15:53:15.019
46.0, -47.567787170410156, 26.472881317138672, -57.01664352416992, -10.598875999450684, -0.09600000083446503, -0.03200000151991844, 1.040000081062317, 0.0, 0.0, 0.0, 0.0, 0.0, 1.621432395032735E9, 2021-05-19 15:53:15.032
46.0, -56.17703628540039, 11.064494132995605, -57.080223083496094, -14.439753532409668, -0.09600000083446503, -0.03200000151991844, 1.040000081062317, 0.0, 0.0, 0.0, 0.0, 0.0, 1.621432395032735E9, 2021-05-19 15:53:15.032
47.0, -62.97617721557617, -7.264755725860596, -75.88443756103516, -32.5296516418457, -0.09600000083446503, -0.03200000151991844, 1.040000081062317, 0.0, 0.0, 0.0, 0.0, 0.0, 1.6214323950483637E9, 2021-05-19 15:53:15.048
47.0, -54.41180419921875, -2.574921131134033, -71.08240509033203, -18.62470245361328, -0.09600000083446503, -0.03200000151991844, 1.040000081062317, 0.0, 0.0, 0.0, 0.0, 0.0, 1.6214323950483637E9, 2021-05-19 15:53:15.048
48.0, -29.3843936920166, 32.8007926940918, -46.103614807128906, -4.94414758682251, -0.09600000083446503, -0.03200000151991844, 1.040000081062317, 0.0, 0.0, 0.0, 0.0, 0.0, 1.6214323950490768E9, 2021-05-19 15:53:15.049
48.0, -49.030086517333984, 3.4799768924713135, -63.17251968383789, -28.13526725769043, -0.09600000083446503, -0.03200000151991844, 1.040000081062317, 0.0, 0.0, 0.0, 0.0, 0.0, 1.6214323950490768E9, 2021-05-19 15:53:15.049
49.0, -55.89654541015625, -21.222063064575195, -88.1999282836914, -43.03876876831055, -0.09600000083446503, -0.03200000151991844, 1.040000081062317, 0.0, 0.0, 0.0, 0.0, 0.0, 1.6214323950790894E9, 2021-05-19 15:53:15.079
49.0, -58.435935974121094, 12.934444427490234, -72.24551391601562, -29.85188102722168, -0.09600000083446503, -0.03200000151991844, 1.040000081062317, 0.0, 0.0, 0.0, 0.0, 0.0, 1.6214323950790894E9, 2021-05-19 15:53:15.079
50.0, -36.101253509521484, 27.022647857666016, -60.22547912597656, -2.722647190093994, -0.09600000083446503, -0.03200000151991844, 1.040000081062317, 0.0, 0.0, 0.0, 0.0, 0.0, 1.6214323950797276E9, 2021-05-19 15:53:15.079
50.0, -52.908363342285156, 5.566841125488281, -68.12040710449219, -19.70553207397461, -0.09600000083446503, -0.03200000151991844, 1.040000081062317, 0.0, 0.0, 0.0, 0.0, 0.0, 1.6214323950797276E9, 2021-05-19 15:53:15.079
51.0, -66.93672943115234, -6.341000556945801, -79.10075378417969, -41.456790924072266, -0.09600000083446503, -0.03200000151991844, 1.040000081062317, 0.0, 0.0, 0.0, 0.0, 0.0, 1.621432395080471E9, 2021-05-19 15:53:15.080
51.0, -46.24760437011719, 16.01612091064453, -62.90324783325195, -19.215606689453125, -0.09600000083446503, -0.03200000151991844, 1.040000081062317, 0.0, 0.0, 0.0, 0.0, 0.0, 1.621432395080471E9, 2021-05-19 15:53:15.080
52.0, -34.17520523071289, 25.19757652282715, -46.27565383911133, -1.020992636680603, -0.09600000083446503, -0.03200000151991844, 1.040000081062317, 0.0, 0.0, 0.0, 0.0, 0.0, 1.621432395092812E9, 2021-05-19 15:53:15.092
52.0, -54.72221755981445, -0.5179761648178101, -60.11702346801758, -21.186532974243164, -0.09600000083446503, -0.03200000151991844, 1.040000081062317, 0.0, 0.0, 0.0, 0.0, 0.0, 1.621432395092812E9, 2021-05-19 15:53:15.092
53.0, -65.15653991699219, -8.491442680358887, -74.56051635742188, -35.79832077026367, -0.09600000083446503, -0.03200000151991844, 1.040000081062317, 0.0, 0.0, 0.0, 0.0, 0.0, 1.621432395125605E9, 2021-05-19 15:53:15.125
53.0, -40.81726837158203, 1.7708426713943481, -69.3096923828125, -16.672473907470703, -0.09600000083446503, -0.03200000151991844, 1.040000081062317, 0.0, 0.0, 0.0, 0.0, 0.0, 1.621432395125605E9, 2021-05-19 15:53:15.125
54.0, -44.070980072021484, 28.94869613647461, -53.80781173706055, -3.291111946105957, -0.09600000083446503, -0.03200000151991844, 1.040000081062317, 0.0, 0.0, 0.0, 0.0, 0.0, 1.6214323951262462E9, 2021-05-19 15:53:15.126
54.0, -52.92706298828125, 5.361146450042725, -67.55194091796875, -13.811450958251953, -0.09600000083446503, -0.03200000151991844, 1.040000081062317, 0.0, 0.0, 0.0, 0.0, 0.0, 1.6214323951262462E9, 2021-05-19 15:53:15.126
55.0, -79.77580261230469, -12.2276029586792, -88.25228881835938, -42.118751525878906, -0.09600000083446503, -0.03200000151991844, 1.040000081062317, 0.0, 0.0, 0.0, 0.0, 0.0, 1.6214323951269436E9, 2021-05-19 15:53:15.126
55.0, -41.09028244018555, 10.406271934509277, -64.83303833007812, -16.6612548828125, -0.09600000083446503, -0.03200000151991844, 1.040000081062317, 0.0, 0.0, 0.0, 0.0, 0.0, 1.6214323951269436E9, 2021-05-19 15:53:15.126
56.0, -31.044910430908203, 28.122177124023438, -47.55843734741211, -0.04861870035529137, -0.09600000083446503, -0.03200000151991844, 1.040000081062317, 0.0, 0.0, 0.0, 0.0, 0.0, 1.6214323951277547E9, 2021-05-19 15:53:15.127
56.0, -47.754783630371094, 7.683624267578125, -56.16020584106445, -19.462438583374023, -0.09600000083446503, -0.03200000151991844, 1.040000081062317, 0.0, 0.0, 0.0, 0.0, 0.0, 1.6214323951277547E9, 2021-05-19 15:53:15.127
57.0, -62.38527297973633, -11.019615173339844, -70.37931060791016, -28.258684158325195, -0.09600000083446503, -0.03200000151991844, 1.040000081062317, 0.0, 0.0, 0.0, 0.0, 0.0, 1.621432395137645E9, 2021-05-19 15:53:15.137
57.0, -51.74151611328125, 12.579153060913086, -61.36614990234375, -12.165894508361816, -0.09600000083446503, -0.03200000151991844, 1.040000081062317, 0.0, 0.0, 0.0, 0.0, 0.0, 1.621432395137645E9, 2021-05-19 15:53:15.137
58.0, -24.544963836669922, 17.71403694152832, -51.52273178100586, -3.747379779815674, -0.09600000083446503, -0.03200000151991844, 1.040000081062317, 0.0, 0.0, 0.0, 0.0, 0.0, 1.621432395152678E9, 2021-05-19 15:53:15.152
58.0, -52.736328125, 7.444271087646484, -64.26457214355469, -20.35627555847168, -0.09600000083446503, -0.03200000151991844, 1.040000081062317, 0.0, 0.0, 0.0, 0.0, 0.0, 1.621432395152678E9, 2021-05-19 15:53:15.152
59.0, -69.02359008789062, -23.002254486083984, -77.96756744384766, -33.281368255615234, -0.09600000083446503, -0.03200000151991844, 1.040000081062317, 0.0, 0.0, 0.0, 0.0, 0.0, 1.6214323951840613E9, 2021-05-19 15:53:15.184
59.0, -51.576961517333984, 4.141939163208008, -65.40898132324219, -20.337575912475586, -0.09600000083446503, -0.03200000151991844, 1.040000081062317, 0.0, 0.0, 0.0, 0.0, 0.0, 1.6214323951840613E9, 2021-05-19 15:53:15.184
60.0, -43.52495574951172, 35.508480072021484, -49.22643280029297, -2.9283416271209717, -0.09600000083446503, -0.03200000151991844, 1.055999994277954, 0.0, 0.0, 0.0, 0.0, 0.0, 1.6214323951848168E9, 2021-05-19 15:53:15.184
60.0, -42.66851806640625, -4.014782428741455, -61.89347457885742, -15.333589553833008, -0.09600000083446503, -0.03200000151991844, 1.055999994277954, 0.0, 0.0, 0.0, 0.0, 0.0, 1.6214323951848168E9, 2021-05-19 15:53:15.184
61.0, -74.26692962646484, -27.063785552978516, -78.23310089111328, -26.96841812133789, -0.09600000083446503, -0.01600000075995922, 1.055999994277954, 0.0, 0.0, 0.0, 0.0, 0.0, 1.6214323951855133E9, 2021-05-19 15:53:15.185
61.0, -53.50674819946289, 7.025402069091797, -66.34769439697266, -19.454959869384766, -0.09600000083446503, -0.01600000075995922, 1.055999994277954, 0.0, 0.0, 0.0, 0.0, 0.0, 1.6214323951855133E9, 2021-05-19 15:53:15.185
62.0, -33.12055587768555, 34.10601806640625, -49.76123809814453, -8.575590133666992, -0.09600000083446503, -0.01600000075995922, 1.055999994277954, 0.0, 0.0, 0.0, 0.0, 0.0, 1.6214323951984572E9, 2021-05-19 15:53:15.198
62.0, -63.312767028808594, 3.027449131011963, -72.47364807128906, -29.750904083251953, -0.09600000083446503, -0.01600000075995922, 1.055999994277954, 0.0, 0.0, 0.0, 0.0, 0.0, 1.6214323951984572E9, 2021-05-19 15:53:15.198
63.0, -68.30179595947266, -7.02166223526001, -74.39221954345703, -36.722076416015625, -0.09600000083446503, -0.01600000075995922, 1.055999994277954, 0.0, 0.0, 0.0, 0.0, 0.0, 1.6214323951991787E9, 2021-05-19 15:53:15.199
63.0, -54.30708694458008, 20.014074325561523, -62.97430419921875, -18.71072006225586, -0.09600000083446503, -0.01600000075995922, 1.055999994277954, 0.0, 0.0, 0.0, 0.0, 0.0, 1.6214323951991787E9, 2021-05-19 15:53:15.199
64.0, -32.095821380615234, 43.50064468383789, -50.53913879394531, -5.628549575805664, -0.09600000083446503, -0.01600000075995922, 1.055999994277954, 0.0, 0.0, 0.0, 0.0, 0.0, 1.621432395212712E9, 2021-05-19 15:53:15.212
64.0, -52.88218688964844, -2.9676105976104736, -61.16419219970703, -25.87262725830078, -0.09600000083446503, -0.01600000075995922, 1.055999994277954, 0.0, 0.0, 0.0, 0.0, 0.0, 1.621432395212712E9, 2021-05-19 15:53:15.212
65.0, -80.72947692871094, -10.89245891571045, -79.65052032470703, -43.71569061279297, -0.09600000083446503, -0.01600000075995922, 1.055999994277954, 0.0, 0.0, 0.0, 0.0, 0.0, 1.6214323952291672E9, 2021-05-19 15:53:15.229
65.0, -68.62716674804688, 7.3657331466674805, -72.76162719726562, -26.874921798706055, -0.09600000083446503, -0.01600000075995922, 1.055999994277954, 0.0, 0.0, 0.0, 0.0, 0.0, 1.6214323952291672E9, 2021-05-19 15:53:15.229
66.0, -37.07362747192383, 25.451889038085938, -52.648441314697266, -14.256498336791992, -0.09600000083446503, -0.01600000075995922, 1.055999994277954, 0.0, 0.0, 0.0, 0.0, 0.0, 1.6214323952298222E9, 2021-05-19 15:53:15.229
66.0, -53.83586120605469, 7.7210235595703125, -61.50826644897461, -28.56535530090332, -0.09600000083446503, -0.01600000075995922, 1.055999994277954, 0.0, 0.0, 0.0, 0.0, 0.0, 1.6214323952298222E9, 2021-05-19 15:53:15.229
67.0, -60.10767364501953, -16.090919494628906, -78.46497344970703, -41.258575439453125, -0.09600000083446503, -0.01600000075995922, 1.055999994277954, 0.0, 0.0, 0.0, 0.0, 0.0, 1.621432395242728E9, 2021-05-19 15:53:15.242
67.0, -55.728248596191406, 10.51098918914795, -66.4524154663086, -24.309349060058594, -0.09600000083446503, -0.01600000075995922, 1.055999994277954, 0.0, 0.0, 0.0, 0.0, 0.0, 1.621432395242728E9, 2021-05-19 15:53:15.242
68.0, -36.250850677490234, 31.963054656982422, -52.37168884277344, -9.469427108764648, -0.09600000083446503, -0.01600000075995922, 1.055999994277954, 0.0, 0.0, 0.0, 0.0, 0.0, 1.6214323952583556E9, 2021-05-19 15:53:15.258
68.0, -59.26619338989258, 4.990896701812744, -65.87272644042969, -23.912919998168945, -0.09600000083446503, -0.01600000075995922, 1.055999994277954, 0.0, 0.0, 0.0, 0.0, 0.0, 1.6214323952583556E9, 2021-05-19 15:53:15.258
69.0, -65.29491424560547, -22.87135887145996, -78.9586410522461, -31.418899536132812, -0.09600000083446503, -0.01600000075995922, 1.055999994277954, 0.0, 0.0, 0.0, 0.0, 0.0, 1.6214323952591426E9, 2021-05-19 15:53:15.259
69.0, -56.352813720703125, 19.7485408782959, -68.75993347167969, -13.949827194213867, -0.09600000083446503, -0.01600000075995922, 1.055999994277954, 0.0, 0.0, 0.0, 0.0, 0.0, 1.6214323952591426E9, 2021-05-19 15:53:15.259
70.0, -45.29393005371094, 28.125917434692383, -54.89986038208008, -7.419961452484131, -0.09600000083446503, -0.01600000075995922, 1.040000081062317, 0.0, 0.0, 0.0, 0.0, 0.0, 1.6214323952726912E9, 2021-05-19 15:53:15.272
70.0, -65.45947265625, 7.7771220207214355, -68.30740356445312, -24.48886489868164, -0.09600000083446503, -0.01600000075995922, 1.040000081062317, 0.0, 0.0, 0.0, 0.0, 0.0, 1.6214323952726912E9, 2021-05-19 15:53:15.272
71.0, -73.36187744140625, -17.661678314208984, -83.24830627441406, -35.81328201293945, -0.09600000083446503, -0.01600000075995922, 1.040000081062317, 0.0, 0.0, 0.0, 0.0, 0.0, 1.621432395304119E9, 2021-05-19 15:53:15.304
71.0, -53.0243034362793, 3.517375946044922, -67.1966552734375, -21.448326110839844, -0.09600000083446503, -0.01600000075995922, 1.040000081062317, 0.0, 0.0, 0.0, 0.0, 0.0, 1.621432395304119E9, 2021-05-19 15:53:15.304
72.0, -30.491403579711914, 43.99431228637695, -49.723838806152344, -4.899269104003906, -0.1120000034570694, -0.01600000075995922, 1.040000081062317, 0.0, 0.0, 0.0, 0.0, 0.0, 1.6214323953048313E9, 2021-05-19 15:53:15.304
72.0, -35.99653625488281, 8.91405200958252, -62.667633056640625, -20.33383560180664, -0.1120000034570694, -0.01600000075995922, 1.040000081062317, 0.0, 0.0, 0.0, 0.0, 0.0, 1.6214323953048313E9, 2021-05-19 15:53:15.304
73.0, -69.98848724365234, -24.427156448364258, -84.57222747802734, -38.491050720214844, -0.1120000034570694, -0.01600000075995922, 1.040000081062317, 0.0, 0.0, 0.0, 0.0, 0.0, 1.6214323953055809E9, 2021-05-19 15:53:15.305
73.0, -47.055419921875, 17.433544158935547, -66.63192749023438, -19.574636459350586, -0.1120000034570694, -0.01600000075995922, 1.040000081062317, 0.0, 0.0, 0.0, 0.0, 0.0, 1.6214323953055809E9, 2021-05-19 15:53:15.305
74.0, -31.142147064208984, 21.76808738708496, -49.4022102355957, -5.591150283813477, -0.1120000034570694, -0.01600000075995922, 1.040000081062317, 0.0, 0.0, 0.0, 0.0, 0.0, 1.6214323953184445E9, 2021-05-19 15:53:15.318
74.0, -61.12492370605469, 4.572027683258057, -63.69236755371094, -27.402246475219727, -0.1120000034570694, -0.01600000075995922, 1.040000081062317, 0.0, 0.0, 0.0, 0.0, 0.0, 1.6214323953184445E9, 2021-05-19 15:53:15.318
75.0, -78.33220672607422, -22.632003784179688, -83.35675811767578, -41.505409240722656, -0.1120000034570694, -0.01600000075995922, 1.040000081062317, 0.0, 0.0, 0.0, 0.0, 0.0, 1.6214323953191428E9, 2021-05-19 15:53:15.319
75.0, -54.74091720581055, 8.708356857299805, -63.064064025878906, -17.151180267333984, -0.1120000034570694, -0.01600000075995922, 1.040000081062317, 0.0, 0.0, 0.0, 0.0, 0.0, 1.6214323953191428E9, 2021-05-19 15:53:15.319
76.0, -35.97035598754883, 33.825523376464844, -55.63662338256836, -10.381961822509766, -0.1120000034570694, -0.01600000075995922, 1.040000081062317, 0.0, 0.0, 0.0, 0.0, 0.0, 1.6214323953327904E9, 2021-05-19 15:53:15.332
76.0, -57.14567184448242, 23.002254486083984, -66.56835174560547, -23.29583740234375, -0.1120000034570694, -0.01600000075995922, 1.040000081062317, 0.0, 0.0, 0.0, 0.0, 0.0, 1.6214323953327904E9, 2021-05-19 15:53:15.332
77.0, -76.95966339111328, -17.059553146362305, -83.89530944824219, -40.51433563232422, -0.1120000034570694, -0.01600000075995922, 1.040000081062317, 0.0, 0.0, 0.0, 0.0, 0.0, 1.621432395349038E9, 2021-05-19 15:53:15.349
77.0, -49.91270446777344, 7.290935039520264, -74.38848114013672, -21.085556030273438, -0.1120000034570694, -0.01600000075995922, 1.040000081062317, 0.0, 0.0, 0.0, 0.0, 0.0, 1.621432395349038E9, 2021-05-19 15:53:15.349
78.0, -29.496591567993164, 26.895490646362305, -49.00204086303711, -1.5109195709228516, -0.1120000034570694, -0.01600000075995922, 1.040000081062317, 0.0, 0.0, 0.0, 0.0, 0.0, 1.6214323953497572E9, 2021-05-19 15:53:15.349
78.0, -55.37295913696289, -3.435098171234131, -67.55194091796875, -30.49514389038086, -0.1120000034570694, -0.01600000075995922, 1.040000081062317, 0.0, 0.0, 0.0, 0.0, 0.0, 1.6214323953497572E9, 2021-05-19 15:53:15.349
79.0, -74.48384857177734, -10.88123893737793, -84.16831970214844, -39.24277114868164, -0.1120000034570694, -0.01600000075995922, 1.040000081062317, 0.0, 0.0, 0.0, 0.0, 0.0, 1.621432395362712E9, 2021-05-19 15:53:15.362
79.0, -51.101993560791016, -1.6586456298828125, -71.40778350830078, -22.761030197143555, -0.1120000034570694, -0.01600000075995922, 1.040000081062317, 0.0, 0.0, 0.0, 0.0, 0.0, 1.621432395362712E9, 2021-05-19 15:53:15.362
80.0, -22.78721046447754, 25.919376373291016, -49.8248176574707, 0.9274951815605164, -0.1120000034570694, -0.01600000075995922, 1.040000081062317, 0.0, 0.0, 0.0, 0.0, 0.0, 1.621432395378496E9, 2021-05-19 15:53:15.378
80.0, -38.057220458984375, 4.355113506317139, -61.22403335571289, -23.84560203552246, -0.1120000034570694, -0.01600000075995922, 1.040000081062317, 0.0, 0.0, 0.0, 0.0, 0.0, 1.621432395378496E9, 2021-05-19 15:53:15.378
81.0, -72.15763092041016, -15.54863452911377, -78.42008972167969, -31.59841537475586, -0.1120000034570694, -0.03200000151991844, 1.040000081062317, 0.0, 0.0, 0.0, 0.0, 0.0, 1.6214323953790793E9, 2021-05-19 15:53:15.379
81.0, -51.195491790771484, 4.7852020263671875, -73.763916015625, -20.505870819091797, -0.1120000034570694, -0.03200000151991844, 1.040000081062317, 0.0, 0.0, 0.0, 0.0, 0.0, 1.6214323953790793E9, 2021-05-19 15:53:15.379
82.0, -35.824501037597656, 8.139892578125, -62.54795837402344, -9.970573425292969, -0.09600000083446503, -0.03200000151991844, 1.040000081062317, 0.0, 0.0, 0.0, 0.0, 0.0, 1.6214323953928168E9, 2021-05-19 15:53:15.392
82.0, -62.972434997558594, 9.706910133361816, -59.14838790893555, -12.2332124710083, -0.09600000083446503, -0.03200000151991844, 1.040000081062317, 0.0, 0.0, 0.0, 0.0, 0.0, 1.6214323953928168E9, 2021-05-19 15:53:15.392
83.0, -76.91477966308594, -16.42751121520996, -80.89216613769531, -38.62568664550781, -0.09600000083446503, -0.03200000151991844, 1.040000081062317, 0.0, 0.0, 0.0, 0.0, 0.0, 1.621432395408424E9, 2021-05-19 15:53:15.408
83.0, -53.26365661621094, 3.981123447418213, -66.06719970703125, -16.33588218688965, -0.09600000083446503, -0.03200000151991844, 1.040000081062317, 0.0, 0.0, 0.0, 0.0, 0.0, 1.621432395408424E9, 2021-05-19 15:53:15.408
84.0, -24.74317741394043, 22.9349365234375, -56.10411071777344, -9.37592887878418, -0.09600000083446503, -0.03200000151991844, 1.040000081062317, 0.0, 0.0, 0.0, 0.0, 0.0, 1.6214323954091876E9, 2021-05-19 15:53:15.409
84.0, -65.17523956298828, -2.6908581256866455, -65.74931335449219, -21.971912384033203, -0.09600000083446503, -0.03200000151991844, 1.040000081062317, 0.0, 0.0, 0.0, 0.0, 0.0, 1.6214323954091876E9, 2021-05-19 15:53:15.409
85.0, -78.34342193603516, -21.356698989868164, -83.77562713623047, -41.43809127807617, -0.09600000083446503, -0.03200000151991844, 1.040000081062317, 0.0, 0.0, 0.0, 0.0, 0.0, 1.62143239542274E9, 2021-05-19 15:53:15.422
85.0, -60.75093460083008, 11.891012191772461, -70.41670989990234, -25.614574432373047, -0.09600000083446503, -0.03200000151991844, 1.040000081062317, 0.0, 0.0, 0.0, 0.0, 0.0, 1.62143239542274E9, 2021-05-19 15:53:15.422
86.0, -29.08894157409668, 27.430295944213867, -44.46928024291992, -1.8961292505264282, -0.09600000083446503, -0.03200000151991844, 1.040000081062317, 0.0, 0.0, 0.0, 0.0, 0.0, 1.6214323954384532E9, 2021-05-19 15:53:15.438
86.0, -52.381038665771484, -14.71463680267334, -64.87043762207031, -26.493452072143555, -0.09600000083446503, -0.03200000151991844, 1.040000081062317, 0.0, 0.0, 0.0, 0.0, 0.0, 1.6214323954384532E9, 2021-05-19 15:53:15.438
87.0, -81.02867126464844, -26.083932876586914, -83.54375457763672, -39.7775764465332, -0.09600000083446503, -0.03200000151991844, 1.040000081062317, 0.0, 0.0, 0.0, 0.0, 0.0, 1.62143239543916E9, 2021-05-19 15:53:15.439
87.0, -56.30793380737305, 11.229049682617188, -63.12016296386719, -19.305362701416016, -0.09600000083446503, -0.03200000151991844, 1.040000081062317, 0.0, 0.0, 0.0, 0.0, 0.0, 1.62143239543916E9, 2021-05-19 15:53:15.439
88.0, -44.92741775512695, 17.99078941345215, -53.927486419677734, -9.686341285705566, -0.09600000083446503, -0.03200000151991844, 1.040000081062317, 0.0, 0.0, 0.0, 0.0, 0.0, 1.6214323954527345E9, 2021-05-19 15:53:15.452
88.0, -53.21503829956055, -12.897045135498047, -66.47111511230469, -25.999784469604492, -0.09600000083446503, -0.03200000151991844, 1.040000081062317, 0.0, 0.0, 0.0, 0.0, 0.0, 1.6214323954527345E9, 2021-05-19 15:53:15.452
89.0, -73.80692291259766, -19.647563934326172, -81.46437072753906, -32.31647491455078, -0.09600000083446503, -0.03200000151991844, 1.040000081062317, 0.0, 0.0, 0.0, 0.0, 0.0, 1.6214323954685135E9, 2021-05-19 15:53:15.468
89.0, -61.72330856323242, 5.9857096672058105, -72.73544311523438, -16.1451473236084, -0.09600000083446503, -0.03200000151991844, 1.040000081062317, 0.0, 0.0, 0.0, 0.0, 0.0, 1.6214323954685135E9, 2021-05-19 15:53:15.468
90.0, -30.786855697631836, 23.72031593322754, -45.04896545410156, 1.8923894166946411, -0.09600000083446503, -0.03200000151991844, 1.040000081062317, 0.0, 0.0, 0.0, 0.0, 0.0, 1.6214323954692135E9, 2021-05-19 15:53:15.469
90.0, -53.244956970214844, 4.362593173980713, -62.84714889526367, -22.15142822265625, -0.09600000083446503, -0.03200000151991844, 1.040000081062317, 0.0, 0.0, 0.0, 0.0, 0.0, 1.6214323954692135E9, 2021-05-19 15:53:15.469
91.0, -61.80558776855469, -15.881484985351562, -78.20317840576172, -41.890621185302734, -0.09600000083446503, -0.03200000151991844, 1.040000081062317, 0.0, 0.0, 0.0, 0.0, 0.0, 1.621432395482642E9, 2021-05-19 15:53:15.482
91.0, -62.662025451660156, -1.2809157371520996, -68.7449722290039, -14.61552906036377, -0.09600000083446503, -0.03200000151991844, 1.040000081062317, 0.0, 0.0, 0.0, 0.0, 0.0, 1.621432395482642E9, 2021-05-19 15:53:15.482
92.0, -35.98905563354492, 20.272127151489258, -40.25441360473633, -1.8101115226745605, -0.09600000083446503, -0.03200000151991844, 1.040000081062317, 0.0, 0.0, 0.0, 0.0, 0.0, 1.6214323954985137E9, 2021-05-19 15:53:15.498
92.0, -48.22975158691406, 0.9256252646446228, -54.20798110961914, -19.00617218017578, -0.09600000083446503, -0.03200000151991844, 1.040000081062317, 0.0, 0.0, 0.0, 0.0, 0.0, 1.6214323954985137E9, 2021-05-19 15:53:15.498
93.0, -88.3663558959961, -18.237621307373047, -79.54954528808594, -45.03587341308594, -0.09600000083446503, -0.03200000151991844, 1.040000081062317, 0.0, 0.0, 0.0, 0.0, 0.0, 1.6214323954991105E9, 2021-05-19 15:53:15.499
93.0, -57.40746307373047, 6.849626541137695, -61.69525909423828, -19.440000534057617, -0.09600000083446503, -0.03200000151991844, 1.040000081062317, 0.0, 0.0, 0.0, 0.0, 0.0, 1.6214323954991105E9, 2021-05-19 15:53:15.499
94.0, -45.01343536376953, 17.717775344848633, -50.5877571105957, -7.210526943206787, -0.09600000083446503, -0.03200000151991844, 1.040000081062317, 0.0, 0.0, 0.0, 0.0, 0.0, 1.6214323955291655E9, 2021-05-19 15:53:15.529
94.0, -70.96086120605469, -12.912004470825195, -63.673667907714844, -32.540870666503906, -0.09600000083446503, -0.03200000151991844, 1.040000081062317, 0.0, 0.0, 0.0, 0.0, 0.0, 1.6214323955291655E9, 2021-05-19 15:53:15.529
95.0, -76.87364196777344, -15.092366218566895, -74.65027618408203, -38.82390213012695, -0.09600000083446503, -0.03200000151991844, 1.040000081062317, 0.0, 0.0, 0.0, 0.0, 0.0, 1.6214323955298865E9, 2021-05-19 15:53:15.529
95.0, -48.17365264892578, 9.056167602539062, -60.65556716918945, -14.611788749694824, -0.09600000083446503, -0.03200000151991844, 1.040000081062317, 0.0, 0.0, 0.0, 0.0, 0.0, 1.6214323955298865E9, 2021-05-19 15:53:15.529
96.0, -38.95479965209961, 20.533920288085938, -47.969825744628906, -12.32671070098877, -0.09600000083446503, -0.03200000151991844, 1.040000081062317, 0.0, 0.0, 0.0, 0.0, 0.0, 1.6214323955306294E9, 2021-05-19 15:53:15.530
96.0, -47.30225372314453, 0.12528665363788605, -56.23500442504883, -23.505271911621094, -0.09600000083446503, -0.03200000151991844, 1.040000081062317, 0.0, 0.0, 0.0, 0.0, 0.0, 1.6214323955306294E9, 2021-05-19 15:53:15.530
97.0, -75.06352996826172, -25.119037628173828, -86.32250213623047, -40.256282806396484, -0.09600000083446503, -0.03200000151991844, 1.040000081062317, 0.0, 0.0, 0.0, 0.0, 0.0, 1.6214323955591705E9, 2021-05-19 15:53:15.559
97.0, -51.992088317871094, -1.9316582679748535, -69.21620178222656, -21.934513092041016, -0.09600000083446503, -0.03200000151991844, 1.040000081062317, 0.0, 0.0, 0.0, 0.0, 0.0, 1.6214323955591705E9, 2021-05-19 15:53:15.559
98.0, -28.699993133544922, 17.57939910888672, -48.3176383972168, -7.894928932189941, -0.09600000083446503, -0.03200000151991844, 1.040000081062317, 0.0, 0.0, 0.0, 0.0, 0.0, 1.6214323955598907E9, 2021-05-19 15:53:15.559
98.0, -38.300315856933594, -3.9661638736724854, -64.94149017333984, -26.994598388671875, -0.09600000083446503, -0.03200000151991844, 1.040000081062317, 0.0, 0.0, 0.0, 0.0, 0.0, 1.6214323955598907E9, 2021-05-19 15:53:15.559
99.0, -57.721614837646484, -25.163917541503906, -81.25867462158203, -42.78071594238281, -0.09600000083446503, -0.03200000151991844, 1.040000081062317, 0.0, 0.0, 0.0, 0.0, 0.0, 1.6214323955606225E9, 2021-05-19 15:53:15.560
99.0, -58.99692153930664, -0.3235013484954834, -66.5384292602539, -26.557029724121094, -0.09600000083446503, -0.03200000151991844, 1.040000081062317, 0.0, 0.0, 0.0, 0.0, 0.0, 1.6214323955606225E9, 2021-05-19 15:53:15.560
100.0, -35.11017990112305, 2.9638707637786865, -46.784278869628906, -12.831596374511719, -0.09600000083446503, -0.03200000151991844, 1.055999994277954, 0.0, 0.0, 0.0, 0.0, 0.0, 1.6214323955733445E9, 2021-05-19 15:53:15.573
100.0, -47.59022521972656, -4.8113813400268555, -56.24248504638672, -30.94019317626953, -0.09600000083446503, -0.03200000151991844, 1.055999994277954, 0.0, 0.0, 0.0, 0.0, 0.0, 1.6214323955733445E9, 2021-05-19 15:53:15.573
0.0, -71.12541961669922, -23.714706420898438, -72.52413940429688, -39.94213104248047, -0.09600000083446503, -0.03200000151991844, 1.055999994277954, 0.0, 0.0, 0.0, 0.0, 0.0, 1.6214323955741503E9, 2021-05-19 15:53:15.574
1.0, -52.470794677734375, -3.074197769165039, -63.13325119018555, -20.853681564331055, -0.09600000083446503, -0.03200000151991844, 1.055999994277954, 0.0, 0.0, 0.0, 0.0, 0.0, 1.6214323956045475E9, 2021-05-19 15:53:15.604
1.0, -50.7990608215332, 18.725679397583008, -48.5289421081543, 1.2940053939819336, -0.09600000083446503, -0.03200000151991844, 1.055999994277954, 0.0, 0.0, 0.0, 0.0, 0.0, 1.6214323956045475E9, 2021-05-19 15:53:15.604
2.0, -65.07425689697266, -11.87418270111084, -66.3046875, -32.09208297729492, -0.09600000083446503, -0.03200000151991844, 1.055999994277954, 0.0, 0.0, 0.0, 0.0, 0.0, 1.6214323956052587E9, 2021-05-19 15:53:15.605
2.0, -65.63898468017578, -21.560523986816406, -84.09912872314453, -37.75802993774414, -0.09600000083446503, -0.03200000151991844, 1.055999994277954, 0.0, 0.0, 0.0, 0.0, 0.0, 1.6214323956052587E9, 2021-05-19 15:53:15.605
3.0, -73.7919692993164, 2.1616621017456055, -72.95423126220703, -18.68079948425293, -0.09600000083446503, -0.03200000151991844, 1.055999994277954, 0.0, 0.0, 0.0, 0.0, 0.0, 1.6214323956183841E9, 2021-05-19 15:53:15.618
3.0, -52.32120132446289, 30.267009735107422, -54.9316520690918, -6.226933479309082, -0.09600000083446503, -0.03200000151991844, 1.055999994277954, 0.0, 0.0, 0.0, 0.0, 0.0, 1.6214323956183841E9, 2021-05-19 15:53:15.618
4.0, -61.495174407958984, -11.80312442779541, -69.08717346191406, -29.04032325744629, -0.09600000083446503, -0.03200000151991844, 1.055999994277954, 0.0, 0.0, 0.0, 0.0, 0.0, 1.6214323956191032E9, 2021-05-19 15:53:15.619
4.0, -75.60955810546875, -20.083263397216797, -77.84601593017578, -39.29138946533203, -0.09600000083446503, -0.03200000151991844, 1.055999994277954, 0.0, 0.0, 0.0, 0.0, 0.0, 1.6214323956191032E9, 2021-05-19 15:53:15.619
5.0, -50.46995162963867, 5.232120037078857, -64.16920471191406, -21.194013595581055, -0.09600000083446503, -0.03200000151991844, 1.055999994277954, 0.0, 0.0, 0.0, 0.0, 0.0, 1.621432395633445E9, 2021-05-19 15:53:15.633
5.0, -31.89386749267578, 19.518537521362305, -51.01597595214844, -9.734959602355957, -0.09600000083446503, -0.03200000151991844, 1.055999994277954, 0.0, 0.0, 0.0, 0.0, 0.0, 1.621432395633445E9, 2021-05-19 15:53:15.633
6.0, -38.3115348815918, -4.016652584075928, -61.62607192993164, -27.413467407226562, -0.09600000083446503, -0.03200000151991844, 1.055999994277954, 0.0, 0.0, 0.0, 0.0, 0.0, 1.6214323956341884E9, 2021-05-19 15:53:15.634
6.0, -68.51496887207031, -9.906994819641113, -81.48493957519531, -44.23927688598633, -0.09600000083446503, -0.03200000151991844, 1.055999994277954, 0.0, 0.0, 0.0, 0.0, 0.0, 1.6214323956341884E9, 2021-05-19 15:53:15.634
7.0, -54.868072509765625, -17.13996124267578, -71.33485412597656, -34.17146682739258, -0.09600000083446503, -0.03200000151991844, 1.055999994277954, 0.0, 0.0, 0.0, 0.0, 0.0, 1.6214323956477425E9, 2021-05-19 15:53:15.647
7.0, -35.94417953491211, 10.086509704589844, -59.39335250854492, -17.644847869873047, -0.09600000083446503, -0.03200000151991844, 1.055999994277954, 0.0, 0.0, 0.0, 0.0, 0.0, 1.6214323956477425E9, 2021-05-19 15:53:15.647
8.0, -52.02200698852539, 8.927141189575195, -64.0794448852539, -28.363401412963867, -0.09600000083446503, -0.03200000151991844, 1.055999994277954, 0.0, 0.0, 0.0, 0.0, 0.0, 1.6214323956640563E9, 2021-05-19 15:53:15.664
8.0, -76.99331665039062, -17.37557601928711, -81.29046630859375, -46.169063568115234, -0.09600000083446503, -0.03200000151991844, 1.055999994277954, 0.0, 0.0, 0.0, 0.0, 0.0, 1.6214323956640563E9, 2021-05-19 15:53:15.664
9.0, -52.197784423828125, -7.700454235076904, -60.52654266357422, -25.644493103027344, -0.09600000083446503, -0.03200000151991844, 1.055999994277954, 0.0, 0.0, 0.0, 0.0, 0.0, 1.621432395664752E9, 2021-05-19 15:53:15.664
9.0, -26.44109344482422, 7.663054943084717, -46.02320861816406, -0.5385456085205078, -0.09600000083446503, -0.03200000151991844, 1.055999994277954, 0.0, 0.0, 0.0, 0.0, 0.0, 1.621432395664752E9, 2021-05-19 15:53:15.664
10.0, -50.230594635009766, -5.048864841461182, -58.824886322021484, -31.276782989501953, -0.09600000083446503, -0.03200000151991844, 1.055999994277954, 0.0, 0.0, 0.0, 0.0, 0.0, 1.62143239569419E9, 2021-05-19 15:53:15.694
10.0, -68.58976745605469, -23.707225799560547, -81.17453002929688, -41.79338073730469, -0.09600000083446503, -0.03200000151991844, 1.055999994277954, 0.0, 0.0, 0.0, 0.0, 0.0, 1.62143239569419E9, 2021-05-19 15:53:15.694
11.0, -51.01223373413086, -3.665102005004883, -65.99427795410156, -19.249265670776367, -0.09600000083446503, -0.03200000151991844, 1.055999994277954, 0.0, 0.0, 0.0, 0.0, 0.0, 1.6214323956947758E9, 2021-05-19 15:53:15.694
11.0, -48.820655822753906, 6.982393264770508, -58.13300323486328, -8.261439323425293, -0.09600000083446503, -0.03200000151991844, 1.055999994277954, 0.0, 0.0, 0.0, 0.0, 0.0, 1.6214323956947758E9, 2021-05-19 15:53:15.694
12.0, -67.32942199707031, -18.168434143066406, -65.89329528808594, -19.84764862060547, -0.1120000034570694, -0.03200000151991844, 1.055999994277954, 0.0, 0.0, 0.0, 0.0, 0.0, 1.6214323956955416E9, 2021-05-19 15:53:15.695
12.0, -81.22689056396484, -9.555444717407227, -78.10033416748047, -33.861053466796875, -0.1120000034570694, -0.03200000151991844, 1.055999994277954, 0.0, 0.0, 0.0, 0.0, 0.0, 1.6214323956955416E9, 2021-05-19 15:53:15.695
13.0, -64.27017974853516, 7.891189098358154, -68.98245239257812, -17.72712516784668, -0.1120000034570694, -0.03200000151991844, 1.055999994277954, 0.0, 0.0, 0.0, 0.0, 0.0, 1.6214323957078617E9, 2021-05-19 15:53:15.707
13.0, -40.5704345703125, 25.494897842407227, -51.333866119384766, -6.959953784942627, -0.1120000034570694, -0.03200000151991844, 1.055999994277954, 0.0, 0.0, 0.0, 0.0, 0.0, 1.6214323957078617E9, 2021-05-19 15:53:15.707
14.0, -52.953243255615234, -5.41911506652832, -65.5604476928711, -31.022470474243164, -0.1120000034570694, -0.03200000151991844, 1.055999994277954, 0.0, 0.0, 0.0, 0.0, 0.0, 1.6214323957233489E9, 2021-05-19 15:53:15.723
14.0, -69.09465026855469, -20.57318878173828, -79.94783782958984, -39.17919158935547, -0.1120000034570694, -0.03200000151991844, 1.055999994277954, 0.0, 0.0, 0.0, 0.0, 0.0, 1.6214323957233489E9, 2021-05-19 15:53:15.723
15.0, -42.24216842651367, 12.289311408996582, -65.75118255615234, -13.953566551208496, -0.1120000034570694, -0.03200000151991844, 1.055999994277954, 0.0, 0.0, 0.0, 0.0, 0.0, 1.6214323957240667E9, 2021-05-19 15:53:15.724
15.0, -33.83487319946289, 22.50297737121582, -57.639339447021484, -16.036691665649414, -0.1120000034570694, -0.03200000151991844, 1.055999994277954, 0.0, 0.0, 0.0, 0.0, 0.0, 1.6214323957240667E9, 2021-05-19 15:53:15.724
16.0, -55.93768310546875, -12.319230079650879, -61.15110397338867, -29.7546443939209, -0.1120000034570694, -0.03200000151991844, 1.055999994277954, 0.0, 0.0, 0.0, 0.0, 0.0, 1.621432395737707E9, 2021-05-19 15:53:15.737
16.0, -71.51810455322266, -16.070350646972656, -78.8296127319336, -41.53907012939453, -0.1120000034570694, -0.03200000151991844, 1.055999994277954, 0.0, 0.0, 0.0, 0.0, 0.0, 1.621432395737707E9, 2021-05-19 15:53:15.737
17.0, -49.50505447387695, 10.524078369140625, -67.31819915771484, -26.557029724121094, -0.1120000034570694, -0.03200000151991844, 1.055999994277954, 0.0, 0.0, 0.0, 0.0, 0.0, 1.621432395753342E9, 2021-05-19 15:53:15.753
17.0, -34.822208404541016, 16.317184448242188, -56.75672149658203, -12.360369682312012, -0.1120000034570694, -0.03200000151991844, 1.055999994277954, 0.0, 0.0, 0.0, 0.0, 0.0, 1.621432395753342E9, 2021-05-19 15:53:15.753
18.0, -55.54499435424805, -14.3051176071167, -71.69388580322266, -34.160247802734375, -0.1120000034570694, -0.03200000151991844, 1.055999994277954, 0.0, 0.0, 0.0, 0.0, 0.0, 1.621432395754068E9, 2021-05-19 15:53:15.754
18.0, -66.46176147460938, -21.467025756835938, -83.97945404052734, -40.652713775634766, -0.1120000034570694, -0.03200000151991844, 1.055999994277954, 0.0, 0.0, 0.0, 0.0, 0.0, 1.621432395754068E9, 2021-05-19 15:53:15.754
19.0, -44.81521987915039, -18.015098571777344, -74.88775634765625, -22.297283172607422, -0.1120000034570694, -0.03200000151991844, 1.055999994277954, 0.0, 0.0, 0.0, 0.0, 0.0, 1.6214323957840583E9, 2021-05-19 15:53:15.784
19.0, -12.682001113891602, 9.850896835327148, -47.837059020996094, -1.3314043283462524, -0.1120000034570694, -0.03200000151991844, 1.055999994277954, 0.0, 0.0, 0.0, 0.0, 0.0, 1.6214323957840583E9, 2021-05-19 15:53:15.784
20.0, -65.99801635742188, -12.31549072265625, -69.21432495117188, -16.204986572265625, -0.1120000034570694, -0.03200000151991844, 1.040000081062317, 0.0, 0.0, 0.0, 0.0, 0.0, 1.621432395784798E9, 2021-05-19 15:53:15.784
20.0, -73.2945556640625, -12.87647533416748, -80.98379516601562, -31.751750946044922, -0.1120000034570694, -0.03200000151991844, 1.040000081062317, 0.0, 0.0, 0.0, 0.0, 0.0, 1.621432395784798E9, 2021-05-19 15:53:15.784
21.0, -52.43339920043945, 6.529865264892578, -72.41942596435547, -20.401153564453125, -0.1120000034570694, -0.01600000075995922, 1.040000081062317, 0.0, 0.0, 0.0, 0.0, 0.0, 1.6214323957855427E9, 2021-05-19 15:53:15.785
21.0, -33.7151985168457, 17.588748931884766, -62.489990234375, -3.7698192596435547, -0.1120000034570694, -0.01600000075995922, 1.040000081062317, 0.0, 0.0, 0.0, 0.0, 0.0, 1.6214323957855427E9, 2021-05-19 15:53:15.785
22.0, -73.43293762207031, 4.428041458129883, -78.37334442138672, -33.10185623168945, -0.09600000083446503, -0.01600000075995922, 1.040000081062317, 0.0, 0.0, 0.0, 0.0, 0.0, 1.6214323957977936E9, 2021-05-19 15:53:15.797
22.0, -89.16669464111328, -10.131388664245605, -94.873779296875, -49.69205093383789, -0.09600000083446503, -0.01600000075995922, 1.040000081062317, 0.0, 0.0, 0.0, 0.0, 0.0, 1.6214323957977936E9, 2021-05-19 15:53:15.797
23.0, -56.37151336669922, 15.270011901855469, -67.0900650024414, -20.939699172973633, -0.09600000083446503, -0.01600000075995922, 1.040000081062317, 0.0, 0.0, 0.0, 0.0, 0.0, 1.6214323958445697E9, 2021-05-19 15:53:15.844
23.0, -42.642337799072266, 33.25893020629883, -54.295867919921875, -3.511765956878662, -0.09600000083446503, -0.01600000075995922, 1.040000081062317, 0.0, 0.0, 0.0, 0.0, 0.0, 1.6214323958445697E9, 2021-05-19 15:53:15.844
24.0, -55.60483169555664, 8.43347454071045, -64.23651885986328, -16.975406646728516, -0.09600000083446503, -0.01600000075995922, 1.040000081062317, 0.0, 0.0, 0.0, 0.0, 0.0, 1.6214323958452418E9, 2021-05-19 15:53:15.845
24.0, -81.35778045654297, -10.864409446716309, -90.15776824951172, -41.542808532714844, -0.09600000083446503, -0.01600000075995922, 1.040000081062317, 0.0, 0.0, 0.0, 0.0, 0.0, 1.6214323958452418E9, 2021-05-19 15:53:15.845
25.0, -57.553321838378906, 11.73206615447998, -70.47093200683594, -25.71181297302246, -0.09600000083446503, -0.01600000075995922, 1.040000081062317, 0.0, 0.0, 0.0, 0.0, 0.0, 1.621432395845911E9, 2021-05-19 15:53:15.845
25.0, -38.023563385009766, 24.088695526123047, -53.1065788269043, -5.87164306640625, -0.09600000083446503, -0.01600000075995922, 1.040000081062317, 0.0, 0.0, 0.0, 0.0, 0.0, 1.621432395845911E9, 2021-05-19 15:53:15.845
26.0, -55.17848205566406, -10.026671409606934, -64.9620590209961, -30.40912628173828, -0.09600000083446503, -0.01600000075995922, 1.040000081062317, 0.0, 0.0, 0.0, 0.0, 0.0, 1.6214323958591375E9, 2021-05-19 15:53:15.859
26.0, -59.57660675048828, -16.777191162109375, -69.62571716308594, -32.78396224975586, -0.09600000083446503, -0.01600000075995922, 1.040000081062317, 0.0, 0.0, 0.0, 0.0, 0.0, 1.6214323958591375E9, 2021-05-19 15:53:15.859
27.0, -32.75404357910156, 7.977206707000732, -56.81282043457031, -25.401399612426758, -0.09600000083446503, -0.01600000075995922, 1.040000081062317, 0.0, 0.0, 0.0, 0.0, 0.0, 1.6214323958599737E9, 2021-05-19 15:53:15.859
27.0, -19.492359161376953, 19.821470260620117, -38.76406478881836, -0.5946440696716309, -0.09600000083446503, -0.01600000075995922, 1.040000081062317, 0.0, 0.0, 0.0, 0.0, 0.0, 1.6214323958599737E9, 2021-05-19 15:53:15.859
28.0, -34.766109466552734, 5.55001163482666, -54.50904083251953, -30.753196716308594, -0.09600000083446503, -0.01600000075995922, 1.040000081062317, 0.0, 0.0, 0.0, 0.0, 0.0, 1.6214323958605995E9, 2021-05-19 15:53:15.860
28.0, -52.98316192626953, -17.2596378326416, -72.37454223632812, -41.84947967529297, -0.09600000083446503, -0.01600000075995922, 1.040000081062317, 0.0, 0.0, 0.0, 0.0, 0.0, 1.6214323958605995E9, 2021-05-19 15:53:15.860
29.0, -72.69617462158203, 1.686694860458374, -59.254974365234375, -22.981685638427734, -0.09600000083446503, -0.01600000075995922, 1.040000081062317, 0.0, 0.0, 0.0, 0.0, 0.0, 1.6214323958906531E9, 2021-05-19 15:53:15.890
29.0, -38.78276443481445, 18.890233993530273, -45.03587341308594, -9.56666374206543, -0.09600000083446503, -0.01600000075995922, 1.040000081062317, 0.0, 0.0, 0.0, 0.0, 0.0, 1.6214323958906531E9, 2021-05-19 15:53:15.890
30.0, -55.50759506225586, 5.363016605377197, -48.9627685546875, -16.78093147277832, -0.09600000083446503, -0.01600000075995922, 1.040000081062317, 0.0, 0.0, 0.0, 0.0, 0.0, 1.6214323958911715E9, 2021-05-19 15:53:15.891
30.0, -68.71318054199219, -24.4664249420166, -72.83454895019531, -38.247955322265625, -0.09600000083446503, -0.01600000075995922, 1.040000081062317, 0.0, 0.0, 0.0, 0.0, 0.0, 1.6214323958911715E9, 2021-05-19 15:53:15.891
31.0, -55.68336868286133, -13.553397178649902, -69.10213470458984, -26.803863525390625, -0.09600000083446503, -0.03200000151991844, 1.040000081062317, 0.0, 0.0, 0.0, 0.0, 0.0, 1.6214323958919735E9, 2021-05-19 15:53:15.891
31.0, -36.258331298828125, 10.482939720153809, -45.04335403442383, -5.875382900238037, -0.09600000083446503, -0.03200000151991844, 1.040000081062317, 0.0, 0.0, 0.0, 0.0, 0.0, 1.6214323958919735E9, 2021-05-19 15:53:15.891
32.0, -58.80618667602539, 10.692374229431152, -60.19742965698242, -32.1481819152832, -0.09600000083446503, -0.03200000151991844, 1.040000081062317, 0.0, 0.0, 0.0, 0.0, 0.0, 1.6214323958927503E9, 2021-05-19 15:53:15.892
32.0, -64.98075866699219, -12.04247760772705, -75.09345245361328, -43.6109733581543, -0.09600000083446503, -0.03200000151991844, 1.040000081062317, 0.0, 0.0, 0.0, 0.0, 0.0, 1.6214323958927503E9, 2021-05-19 15:53:15.892
33.0, -56.71558380126953, 3.777298927307129, -65.97183227539062, -23.116321563720703, -0.09600000083446503, -0.03200000151991844, 1.040000081062317, 0.0, 0.0, 0.0, 0.0, 0.0, 1.6214323959027102E9, 2021-05-19 15:53:15.902
33.0, -35.2298583984375, 27.439645767211914, -52.17160415649414, 0.3141515851020813, -0.09600000083446503, -0.03200000151991844, 1.040000081062317, 0.0, 0.0, 0.0, 0.0, 0.0, 1.6214323959027102E9, 2021-05-19 15:53:15.902
34.0, -50.324092864990234, 7.696713924407959, -66.49542236328125, -33.61048126220703, -0.09600000083446503, -0.03200000151991844, 1.040000081062317, 0.0, 0.0, 0.0, 0.0, 0.0, 1.6214323959176912E9, 2021-05-19 15:53:15.917
34.0, -72.36332702636719, -15.370988845825195, -81.6046142578125, -44.990997314453125, -0.09600000083446503, -0.03200000151991844, 1.040000081062317, 0.0, 0.0, 0.0, 0.0, 0.0, 1.6214323959176912E9, 2021-05-19 15:53:15.917
35.0, -54.011634826660156, 6.930034637451172, -64.43099975585938, -32.540870666503906, -0.09600000083446503, -0.03200000151991844, 1.040000081062317, 0.0, 0.0, 0.0, 0.0, 0.0, 1.6214323959504597E9, 2021-05-19 15:53:15.950
35.0, -29.410573959350586, 33.73763656616211, -43.76804733276367, -7.879969120025635, -0.09600000083446503, -0.03200000151991844, 1.040000081062317, 0.0, 0.0, 0.0, 0.0, 0.0, 1.6214323959504597E9, 2021-05-19 15:53:15.950
36.0, -54.2509880065918, 1.3501038551330566, -56.681922912597656, -24.986270904541016, -0.09600000083446503, -0.03200000151991844, 1.040000081062317, 0.0, 0.0, 0.0, 0.0, 0.0, 1.6214323959511333E9, 2021-05-19 15:53:15.951
36.0, -71.82477569580078, -11.436614036560059, -77.4271469116211, -41.04914093017578, -0.09600000083446503, -0.03200000151991844, 1.040000081062317, 0.0, 0.0, 0.0, 0.0, 0.0, 1.6214323959511333E9, 2021-05-19 15:53:15.951
37.0, -40.42457962036133, 12.18459415435791, -57.38502502441406, -18.063716888427734, -0.09600000083446503, -0.03200000151991844, 1.040000081062317, 0.0, 0.0, 0.0, 0.0, 0.0, 1.6214323959518757E9, 2021-05-19 15:53:15.951
37.0, -24.137313842773438, 7.977206707000732, -41.76346206665039, -2.943301200866699, -0.09600000083446503, -0.03200000151991844, 1.040000081062317, 0.0, 0.0, 0.0, 0.0, 0.0, 1.6214323959518757E9, 2021-05-19 15:53:15.951
38.0, -44.01114273071289, -7.591997146606445, -57.18680953979492, -26.14190101623535, -0.09600000083446503, -0.03200000151991844, 1.040000081062317, 0.0, 0.0, 0.0, 0.0, 0.0, 1.621432395952613E9, 2021-05-19 15:53:15.952
38.0, -62.164615631103516, -27.177852630615234, -82.99960327148438, -43.06494903564453, -0.09600000083446503, -0.03200000151991844, 1.040000081062317, 0.0, 0.0, 0.0, 0.0, 0.0, 1.621432395952613E9, 2021-05-19 15:53:15.952
39.0, -55.877845764160156, 9.282431602478027, -66.05411529541016, -17.970218658447266, -0.09600000083446503, -0.03200000151991844, 1.040000081062317, 0.0, 0.0, 0.0, 0.0, 0.0, 1.6214323959627085E9, 2021-05-19 15:53:15.962
39.0, -34.14154815673828, 24.530004501342773, -52.571773529052734, -2.96574068069458, -0.09600000083446503, -0.03200000151991844, 1.040000081062317, 0.0, 0.0, 0.0, 0.0, 0.0, 1.6214323959627085E9, 2021-05-19 15:53:15.962
40.0, -40.61905288696289, -3.582824230194092, -66.05785369873047, -20.86490249633789, -0.09600000083446503, -0.03200000151991844, 1.055999994277954, 0.0, 0.0, 0.0, 0.0, 0.0, 1.6214323959777842E9, 2021-05-19 15:53:15.977
40.0, -86.69461822509766, -24.05877685546875, -85.89054107666016, -36.09003448486328, -0.09600000083446503, -0.03200000151991844, 1.055999994277954, 0.0, 0.0, 0.0, 0.0, 0.0, 1.6214323959777842E9, 2021-05-19 15:53:15.977
41.0, -46.1989860534668, -3.7585995197296143, -60.03661346435547, -16.22368621826172, -0.09600000083446503, -0.01600000075995922, 1.055999994277954, 0.0, 0.0, 0.0, 0.0, 0.0, 1.6214323960091364E9, 2021-05-19 15:53:16.009
41.0, -35.88808059692383, 43.599754333496094, -45.63800048828125, -6.361569881439209, -0.09600000083446503, -0.01600000075995922, 1.055999994277954, 0.0, 0.0, 0.0, 0.0, 0.0, 1.6214323960091364E9, 2021-05-19 15:53:16.009
42.0, -51.94721221923828, -0.17951519787311554, -53.0467414855957, -19.226825714111328, -0.1120000034570694, -0.01600000075995922, 1.055999994277954, 0.0, 0.0, 0.0, 0.0, 0.0, 1.6214323960098388E9, 2021-05-19 15:53:16.009
42.0, -69.56961822509766, -14.409834861755371, -72.9317855834961, -31.834028244018555, -0.1120000034570694, -0.01600000075995922, 1.055999994277954, 0.0, 0.0, 0.0, 0.0, 0.0, 1.6214323960098388E9, 2021-05-19 15:53:16.009
43.0, -51.81257247924805, 10.767171859741211, -64.1205825805664, -14.480892181396484, -0.1120000034570694, -0.01600000075995922, 1.055999994277954, 0.0, 0.0, 0.0, 0.0, 0.0, 1.6214323960105696E9, 2021-05-19 15:53:16.010
43.0, -28.980484008789062, 11.518892288208008, -47.16761779785156, -2.068164587020874, -0.1120000034570694, -0.01600000075995922, 1.055999994277954, 0.0, 0.0, 0.0, 0.0, 0.0, 1.6214323960105696E9, 2021-05-19 15:53:16.010
44.0, -56.932498931884766, -1.0957907438278198, -61.67469024658203, -17.510211944580078, -0.1120000034570694, -0.01600000075995922, 1.055999994277954, 0.0, 0.0, 0.0, 0.0, 0.0, 1.6214323960234067E9, 2021-05-19 15:53:16.023
44.0, -76.59689331054688, -20.95465850830078, -78.9118881225586, -33.580562591552734, -0.1120000034570694, -0.01600000075995922, 1.055999994277954, 0.0, 0.0, 0.0, 0.0, 0.0, 1.6214323960234067E9, 2021-05-19 15:53:16.023
45.0, -52.96446228027344, 10.995306015014648, -60.38068389892578, -19.45870018005371, -0.1120000034570694, -0.01600000075995922, 1.055999994277954, 0.0, 0.0, 0.0, 0.0, 0.0, 1.621432396024145E9, 2021-05-19 15:53:16.024
45.0, -29.631227493286133, 15.217653274536133, -40.80604934692383, -6.791658401489258, -0.1120000034570694, -0.01600000075995922, 1.055999994277954, 0.0, 0.0, 0.0, 0.0, 0.0, 1.621432396024145E9, 2021-05-19 15:53:16.024
46.0, -45.95962905883789, -6.776698589324951, -56.681922912597656, -27.4658260345459, -0.1120000034570694, -0.01600000075995922, 1.055999994277954, 0.0, 0.0, 0.0, 0.0, 0.0, 1.6214323960376427E9, 2021-05-19 15:53:16.037
46.0, -68.66456604003906, -4.570157527923584, -67.48649597167969, -39.22407150268555, -0.1120000034570694, -0.01600000075995922, 1.055999994277954, 0.0, 0.0, 0.0, 0.0, 0.0, 1.6214323960376427E9, 2021-05-19 15:53:16.037
47.0, -65.75492095947266, 2.558091640472412, -67.06388854980469, -29.5489501953125, -0.1120000034570694, -0.01600000075995922, 1.055999994277954, 0.0, 0.0, 0.0, 0.0, 0.0, 1.6214323960537646E9, 2021-05-19 15:53:16.053
47.0, -39.747657775878906, 23.804462432861328, -49.2208251953125, -12.502485275268555, -0.1120000034570694, -0.01600000075995922, 1.055999994277954, 0.0, 0.0, 0.0, 0.0, 0.0, 1.6214323960537646E9, 2021-05-19 15:53:16.053
48.0, -51.528343200683594, -0.6844016909599304, -57.91609191894531, -29.94537925720215, -0.1120000034570694, -0.01600000075995922, 1.055999994277954, 0.0, 0.0, 0.0, 0.0, 0.0, 1.6214323960684893E9, 2021-05-19 15:53:16.068
48.0, -61.708351135253906, -15.101716041564941, -68.88521575927734, -40.86588668823242, -0.1120000034570694, -0.01600000075995922, 1.055999994277954, 0.0, 0.0, 0.0, 0.0, 0.0, 1.6214323960684893E9, 2021-05-19 15:53:16.068
49.0, -71.69013977050781, -3.1938745975494385, -69.89872741699219, -31.931264877319336, -0.1120000034570694, -0.01600000075995922, 1.055999994277954, 0.0, 0.0, 0.0, 0.0, 0.0, 1.621432396069118E9, 2021-05-19 15:53:16.069
49.0, -26.620607376098633, 25.51359748840332, -46.382240295410156, -5.920261859893799, -0.1120000034570694, -0.01600000075995922, 1.055999994277954, 0.0, 0.0, 0.0, 0.0, 0.0, 1.621432396069118E9, 2021-05-19 15:53:16.069
50.0, -40.402137756347656, 9.050558090209961, -62.123477935791016, -19.862607955932617, -0.1120000034570694, -0.01600000075995922, 1.055999994277954, 0.0, 0.0, 0.0, 0.0, 0.0, 1.62143239608348E9, 2021-05-19 15:53:16.083
50.0, -60.86313247680664, -14.768864631652832, -74.58482360839844, -37.967464447021484, -0.1120000034570694, -0.01600000075995922, 1.055999994277954, 0.0, 0.0, 0.0, 0.0, 0.0, 1.62143239608348E9, 2021-05-19 15:53:16.083
51.0, -56.70810317993164, 3.5716044902801514, -70.10816192626953, -21.066856384277344, -0.1120000034570694, -0.01600000075995922, 1.055999994277954, 0.0, 0.0, 0.0, 0.0, 0.0, 1.62143239608408E9, 2021-05-19 15:53:16.084
51.0, -42.56380081176758, 22.065410614013672, -53.83586120605469, -14.60430908203125, -0.1120000034570694, -0.01600000075995922, 1.055999994277954, 0.0, 0.0, 0.0, 0.0, 0.0, 1.62143239608408E9, 2021-05-19 15:53:16.084
52.0, -54.22854995727539, -3.399569034576416, -62.15713882446289, -28.584054946899414, -0.1120000034570694, -0.01600000075995922, 1.055999994277954, 0.0, 0.0, 0.0, 0.0, 0.0, 1.6214323960978115E9, 2021-05-19 15:53:16.097
52.0, -63.68301773071289, -12.491266250610352, -75.08596801757812, -40.933204650878906, -0.1120000034570694, -0.01600000075995922, 1.055999994277954, 0.0, 0.0, 0.0, 0.0, 0.0, 1.6214323960978115E9, 2021-05-19 15:53:16.097
53.0, -38.20307922363281, 8.459653854370117, -72.24364471435547, -27.806156158447266, -0.1120000034570694, -0.01600000075995922, 1.055999994277954, 0.0, 0.0, 0.0, 0.0, 0.0, 1.621432396114158E9, 2021-05-19 15:53:16.114
53.0, -36.66223907470703, 11.7432861328125, -66.6038818359375, -11.821824073791504, -0.1120000034570694, -0.01600000075995922, 1.055999994277954, 0.0, 0.0, 0.0, 0.0, 0.0, 1.621432396114158E9, 2021-05-19 15:53:16.114
54.0, -42.496482849121094, 2.363616704940796, -67.60243225097656, -29.7658634185791, -0.1120000034570694, -0.01600000075995922, 1.055999994277954, 0.0, 0.0, 0.0, 0.0, 0.0, 1.6214323961147485E9, 2021-05-19 15:53:16.114
54.0, -59.71124267578125, 0.0411388985812664, -73.33195495605469, -38.69674301147461, -0.1120000034570694, -0.01600000075995922, 1.055999994277954, 0.0, 0.0, 0.0, 0.0, 0.0, 1.6214323961147485E9, 2021-05-19 15:53:16.114
55.0, -46.00450897216797, 2.8722431659698486, -62.96869659423828, -23.770803451538086, -0.1120000034570694, -0.01600000075995922, 1.055999994277954, 0.0, 0.0, 0.0, 0.0, 0.0, 1.6214323961277366E9, 2021-05-19 15:53:16.127
55.0, -35.2822151184082, 24.612281799316406, -44.27293395996094, -9.589103698730469, -0.1120000034570694, -0.01600000075995922, 1.055999994277954, 0.0, 0.0, 0.0, 0.0, 0.0, 1.6214323961277366E9, 2021-05-19 15:53:16.127
56.0, -50.13710021972656, 16.620115280151367, -56.109718322753906, -23.591289520263672, -0.1120000034570694, -0.01600000075995922, 1.055999994277954, 0.0, 0.0, 0.0, 0.0, 0.0, 1.6214323961435196E9, 2021-05-19 15:53:16.143
56.0, -75.10466766357422, -7.341423511505127, -84.87702941894531, -44.990997314453125, -0.1120000034570694, -0.01600000075995922, 1.055999994277954, 0.0, 0.0, 0.0, 0.0, 0.0, 1.6214323961435196E9, 2021-05-19 15:53:16.143
57.0, -58.499515533447266, 22.746070861816406, -77.9469985961914, -19.391382217407227, -0.1120000034570694, -0.01600000075995922, 1.055999994277954, 0.0, 0.0, 0.0, 0.0, 0.0, 1.6214323961442215E9, 2021-05-19 15:53:16.144
57.0, -40.85840606689453, 29.126340866088867, -63.608219146728516, -3.2798922061920166, -0.1120000034570694, -0.01600000075995922, 1.055999994277954, 0.0, 0.0, 0.0, 0.0, 0.0, 1.6214323961442215E9, 2021-05-19 15:53:16.144
58.0, -55.93394470214844, 1.7502732276916504, -74.46888732910156, -18.048757553100586, -0.1120000034570694, -0.01600000075995922, 1.055999994277954, 0.0, 0.0, 0.0, 0.0, 0.0, 1.621432396157682E9, 2021-05-19 15:53:16.157
58.0, -67.86048126220703, -6.219453811645508, -73.676025390625, -31.875167846679688, -0.1120000034570694, -0.01600000075995922, 1.055999994277954, 0.0, 0.0, 0.0, 0.0, 0.0, 1.621432396157682E9, 2021-05-19 15:53:16.157
59.0, -33.90593338012695, 8.691527366638184, -63.39130401611328, -19.18942642211914, -0.1120000034570694, -0.01600000075995922, 1.055999994277954, 0.0, 0.0, 0.0, 0.0, 0.0, 1.62143239617343E9, 2021-05-19 15:53:16.173
59.0, -30.087495803833008, 21.283771514892578, -46.509395599365234, -11.174820899963379, -0.1120000034570694, -0.01600000075995922, 1.055999994277954, 0.0, 0.0, 0.0, 0.0, 0.0, 1.62143239617343E9, 2021-05-19 15:53:16.173
60.0, -50.3951530456543, -4.398122310638428, -58.18910217285156, -24.690818786621094, -0.1120000034570694, -0.01600000075995922, 1.055999994277954, 0.0, 0.0, 0.0, 0.0, 0.0, 1.621432396174136E9, 2021-05-19 15:53:16.174
60.0, -80.80427551269531, -32.619407653808594, -87.53984069824219, -49.385379791259766, -0.1120000034570694, -0.01600000075995922, 1.055999994277954, 0.0, 0.0, 0.0, 0.0, 0.0, 1.621432396174136E9, 2021-05-19 15:53:16.174
61.0, -42.13371276855469, 4.330804347991943, -81.2007064819336, -28.80097007751465, -0.1120000034570694, -0.03200000151991844, 1.055999994277954, 0.0, 0.0, 0.0, 0.0, 0.0, 1.6214323961876442E9, 2021-05-19 15:53:16.187
61.0, -35.47669219970703, 34.874568939208984, -48.846832275390625, -4.450480937957764, -0.1120000034570694, -0.03200000151991844, 1.055999994277954, 0.0, 0.0, 0.0, 0.0, 0.0, 1.6214323961876442E9, 2021-05-19 15:53:16.187
62.0, -60.57889938354492, 12.584763526916504, -62.96869659423828, -25.565956115722656, -0.1120000034570694, -0.03200000151991844, 1.055999994277954, 0.0, 0.0, 0.0, 0.0, 0.0, 1.62143239620351E9, 2021-05-19 15:53:16.203
62.0, -82.01226806640625, -9.510565757751465, -84.26742553710938, -43.57357406616211, -0.1120000034570694, -0.03200000151991844, 1.055999994277954, 0.0, 0.0, 0.0, 0.0, 0.0, 1.62143239620351E9, 2021-05-19 15:53:16.203
63.0, -55.75442886352539, 9.170234680175781, -64.9209213256836, -23.624948501586914, -0.1120000034570694, -0.03200000151991844, 1.055999994277954, 0.0, 0.0, 0.0, 0.0, 0.0, 1.621432396204207E9, 2021-05-19 15:53:16.204
63.0, -31.47125816345215, 46.550533294677734, -56.44630813598633, -10.714813232421875, -0.1120000034570694, -0.03200000151991844, 1.055999994277954, 0.0, 0.0, 0.0, 0.0, 0.0, 1.621432396204207E9, 2021-05-19 15:53:16.204
64.0, -52.29875946044922, 13.815190315246582, -79.82442474365234, -26.938499450683594, -0.1120000034570694, -0.03200000151991844, 1.055999994277954, 0.0, 0.0, 0.0, 0.0, 0.0, 1.621432396251122E9, 2021-05-19 15:53:16.251
64.0, -77.56926727294922, -17.48029327392578, -93.29554748535156, -40.488155364990234, -0.1120000034570694, -0.03200000151991844, 1.055999994277954, 0.0, 0.0, 0.0, 0.0, 0.0, 1.621432396251122E9, 2021-05-19 15:53:16.251
65.0, -52.7662467956543, 2.2626395225524902, -79.27091979980469, -30.921493530273438, -0.1120000034570694, -0.03200000151991844, 1.055999994277954, 0.0, 0.0, 0.0, 0.0, 0.0, 1.621432396251837E9, 2021-05-19 15:53:16.251
65.0, -34.863346099853516, 38.3526725769043, -50.952396392822266, -9.772358894348145, -0.1120000034570694, -0.03200000151991844, 1.055999994277954, 0.0, 0.0, 0.0, 0.0, 0.0, 1.621432396251837E9, 2021-05-19 15:53:16.251
66.0, -56.386470794677734, 9.978053092956543, -63.27910614013672, -27.215251922607422, -0.1120000034570694, -0.03200000151991844, 1.055999994277954, 0.0, 0.0, 0.0, 0.0, 0.0, 1.6214323962525692E9, 2021-05-19 15:53:16.252
66.0, -74.16595458984375, -3.885756015777588, -74.85783386230469, -40.95938491821289, -0.1120000034570694, -0.03200000151991844, 1.055999994277954, 0.0, 0.0, 0.0, 0.0, 0.0, 1.6214323962525692E9, 2021-05-19 15:53:16.252
67.0, -52.777469635009766, 5.449034214019775, -67.37055969238281, -20.97709846496582, -0.1120000034570694, -0.03200000151991844, 1.055999994277954, 0.0, 0.0, 0.0, 0.0, 0.0, 1.6214323962533283E9, 2021-05-19 15:53:16.253
67.0, -27.121753692626953, 30.626041412353516, -52.11176681518555, -7.547118186950684, -0.1120000034570694, -0.03200000151991844, 1.055999994277954, 0.0, 0.0, 0.0, 0.0, 0.0, 1.6214323962533283E9, 2021-05-19 15:53:16.253
68.0, -50.73922348022461, 14.914721488952637, -61.641029357910156, -30.498884201049805, -0.1120000034570694, -0.03200000151991844, 1.055999994277954, 0.0, 0.0, 0.0, 0.0, 0.0, 1.6214323962646513E9, 2021-05-19 15:53:16.264
68.0, -71.5854263305664, -7.083370685577393, -84.58158111572266, -48.704715728759766, -0.1120000034570694, -0.03200000151991844, 1.055999994277954, 0.0, 0.0, 0.0, 0.0, 0.0, 1.6214323962646513E9, 2021-05-19 15:53:16.264
69.0, -44.16447830200195, 25.064809799194336, -61.32687759399414, -23.93910026550293, -0.1120000034570694, -0.03200000151991844, 1.055999994277954, 0.0, 0.0, 0.0, 0.0, 0.0, 1.6214323962783892E9, 2021-05-19 15:53:16.278
69.0, -28.509258270263672, 42.42168426513672, -53.54414749145508, -9.076737403869629, -0.1120000034570694, -0.03200000151991844, 1.055999994277954, 0.0, 0.0, 0.0, 0.0, 0.0, 1.6214323962783892E9, 2021-05-19 15:53:16.278
70.0, -59.61774444580078, 6.967433452606201, -73.06268310546875, -29.642446517944336, -0.1120000034570694, -0.03200000151991844, 1.040000081062317, 0.0, 0.0, 0.0, 0.0, 0.0, 1.6214323962791688E9, 2021-05-19 15:53:16.279
70.0, -72.17259216308594, -2.0494651794433594, -81.45127868652344, -33.16169357299805, -0.1120000034570694, -0.03200000151991844, 1.040000081062317, 0.0, 0.0, 0.0, 0.0, 0.0, 1.6214323962791688E9, 2021-05-19 15:53:16.279
71.0, -47.990394592285156, 27.884693145751953, -70.9421615600586, -22.364601135253906, -0.1120000034570694, -0.01600000075995922, 1.040000081062317, 0.0, 0.0, 0.0, 0.0, 0.0, 1.6214323962934177E9, 2021-05-19 15:53:16.293
71.0, -35.97035598754883, 40.81352996826172, -52.437137603759766, -12.098576545715332, -0.1120000034570694, -0.01600000075995922, 1.040000081062317, 0.0, 0.0, 0.0, 0.0, 0.0, 1.6214323962934177E9, 2021-05-19 15:53:16.293
72.0, -52.55307388305664, 18.87901496887207, -61.068824768066406, -26.306455612182617, -0.1120000034570694, -0.01600000075995922, 1.040000081062317, 0.0, 0.0, 0.0, 0.0, 0.0, 1.6214323962941422E9, 2021-05-19 15:53:16.294
72.0, -72.2660903930664, -0.2281339019536972, -79.79076385498047, -42.57501983642578, -0.1120000034570694, -0.01600000075995922, 1.040000081062317, 0.0, 0.0, 0.0, 0.0, 0.0, 1.6214323962941422E9, 2021-05-19 15:53:16.294
