Sample Index, EXG Channel 0, EXG Channel 1, EXG Channel 2, EXG Channel 3, Accel Channel 0, Accel Channel 1, Accel Channel 2, Other, Other, Other, Other, Other, Timestamp, Timestamp (Formatted)
0.0, 111.41535949707031, 146.69383239746094, -181.37767028808594, 169.01168823242188, 0.0, 0.0, 0.0, 0.0, 0.0, 0.0, 0.0, 0.0, 1.6215957661572268E9, 2021-05-21 13:16:06.157
1.0, 179.1973114013672, 192.5936279296875, -112.69440460205078, 203.34771728515625, 0.0, -0.06400000303983688, 0.0, 0.0, 0.0, 0.0, 0.0, 0.0, 1.6215957661580749E9, 2021-05-21 13:16:06.158
1.0, 192.05882263183594, 195.23025512695312, -95.30760955810547, 209.5447235107422, 0.0, -0.06400000303983688, 0.0, 0.0, 0.0, 0.0, 0.0, 0.0, 1.6215957661580749E9, 2021-05-21 13:16:06.158
2.0, 123.34938049316406, 149.5623321533203, -169.42494201660156, 174.37844848632812, 0.03200000151991844, -0.06400000303983688, 0.0, 0.0, 0.0, 0.0, 0.0, 0.0, 1.6215957661725976E9, 2021-05-21 13:16:06.172
2.0, 107.8213119506836, 147.610107421875, -186.5349884033203, 166.17684936523438, 0.03200000151991844, -0.06400000303983688, 0.0, 0.0, 0.0, 0.0, 0.0, 0.0, 1.6215957661725976E9, 2021-05-21 13:16:06.172
3.0, 186.54246520996094, 192.92648315429688, -108.43840026855469, 207.68972778320312, 0.03200000151991844, -0.06400000303983688, 0.0, 0.0, 0.0, 0.0, 0.0, 0.0, 1.6215957661739907E9, 2021-05-21 13:16:06.173
3.0, 184.81089782714844, 181.11961364746094, -102.6378173828125, 214.49635314941406, 0.03200000151991844, -0.06400000303983688, 0.0, 0.0, 0.0, 0.0, 0.0, 0.0, 1.6215957661739907E9, 2021-05-21 13:16:06.173
4.0, 123.9365463256836, 154.37933349609375, -170.4683837890625, 180.79237365722656, 0.03200000151991844, -0.06400000303983688, 0.0, 0.0, 0.0, 0.0, 0.0, 0.0, 1.6215957661863823E9, 2021-05-21 13:16:06.186
4.0, 115.02810668945312, 150.35519409179688, -181.11587524414062, 171.47254943847656, 0.03200000151991844, -0.06400000303983688, 0.0, 0.0, 0.0, 0.0, 0.0, 0.0, 1.6215957661863823E9, 2021-05-21 13:16:06.186
5.0, 179.97894287109375, 184.49301147460938, -118.6371078491211, 201.09254455566406, 0.03200000151991844, -0.06400000303983688, 0.0, 0.0, 0.0, 0.0, 0.0, 0.0, 1.62159576620251E9, 2021-05-21 13:16:06.202
5.0, 194.69544982910156, 210.67230224609375, -99.15222930908203, 220.09872436523438, 0.03200000151991844, -0.06400000303983688, 0.0, 0.0, 0.0, 0.0, 0.0, 0.0, 1.62159576620251E9, 2021-05-21 13:16:06.202
6.0, 120.72396850585938, 141.03536987304688, -174.2045440673828, 170.70960998535156, 0.03200000151991844, -0.06400000303983688, 0.0, 0.0, 0.0, 0.0, 0.0, 0.0, 1.621595766217204E9, 2021-05-21 13:16:06.217
6.0, 108.85353088378906, 145.15673828125, -184.69869995117188, 167.26889038085938, 0.03200000151991844, -0.06400000303983688, 0.0, 0.0, 0.0, 0.0, 0.0, 0.0, 1.621595766217204E9, 2021-05-21 13:16:06.217
7.0, 183.28501892089844, 194.64683532714844, -111.23210144042969, 202.0125732421875, 0.03200000151991844, -0.06400000303983688, 0.0, 0.0, 0.0, 0.0, 0.0, 0.0, 1.621595766217863E9, 2021-05-21 13:16:06.217
7.0, 193.8240509033203, 191.01539611816406, -106.81902313232422, 200.9467010498047, 0.03200000151991844, -0.06400000303983688, 0.0, 0.0, 0.0, 0.0, 0.0, 0.0, 1.621595766217863E9, 2021-05-21 13:16:06.217
8.0, 120.5444564819336, 153.94549560546875, -174.64210510253906, 168.731201171875, 0.03200000151991844, -0.06400000303983688, 0.0, 0.0, 0.0, 0.0, 0.0, 0.0, 1.621595766232211E9, 2021-05-21 13:16:06.232
8.0, 116.59138488769531, 150.3739013671875, -177.31239318847656, 173.90721130371094, 0.03200000151991844, -0.06400000303983688, 0.0, 0.0, 0.0, 0.0, 0.0, 0.0, 1.621595766232211E9, 2021-05-21 13:16:06.232
9.0, 187.3390655517578, 190.63392639160156, -108.4010009765625, 208.00389099121094, 0.03200000151991844, -0.06400000303983688, 0.0, 0.0, 0.0, 0.0, 0.0, 0.0, 1.6215957662329006E9, 2021-05-21 13:16:06.232
9.0, 195.95205688476562, 196.9094696044922, -89.29385375976562, 216.549560546875, 0.03200000151991844, -0.06400000303983688, 0.0, 0.0, 0.0, 0.0, 0.0, 0.0, 1.6215957662329006E9, 2021-05-21 13:16:06.232
10.0, 117.39920043945312, 150.23178100585938, -168.99859619140625, 172.6244354248047, 0.03200000151991844, -0.06400000303983688, 1.055999994277954, 0.0, 0.0, 0.0, 0.0, 0.0, 1.6215957662463207E9, 2021-05-21 13:16:06.246
10.0, 112.22692108154297, 159.12899780273438, -180.28561401367188, 168.19639587402344, 0.03200000151991844, -0.06400000303983688, 1.055999994277954, 0.0, 0.0, 0.0, 0.0, 0.0, 1.6215957662463207E9, 2021-05-21 13:16:06.246
11.0, 193.43136596679688, 196.45693969726562, -112.92627716064453, 205.8609161376953, 0.03200000151991844, -0.06400000303983688, 1.055999994277954, 0.0, 0.0, 0.0, 0.0, 0.0, 1.6215957662625604E9, 2021-05-21 13:16:06.262
11.0, 188.9060821533203, 186.0226287841797, -101.82999420166016, 217.16664123535156, 0.03200000151991844, -0.06400000303983688, 1.055999994277954, 0.0, 0.0, 0.0, 0.0, 0.0, 1.6215957662625604E9, 2021-05-21 13:16:06.262
12.0, 124.11979675292969, 154.9477996826172, -160.06398010253906, 181.0653839111328, 0.03200000151991844, -0.06400000303983688, 1.055999994277954, 0.0, 0.0, 0.0, 0.0, 0.0, 1.621595766277174E9, 2021-05-21 13:16:06.277
12.0, 111.26202392578125, 143.4924774169922, -180.02381896972656, 165.30545043945312, 0.03200000151991844, -0.06400000303983688, 1.055999994277954, 0.0, 0.0, 0.0, 0.0, 0.0, 1.621595766277174E9, 2021-05-21 13:16:06.277
13.0, 188.58819580078125, 199.2057647705078, -108.89093017578125, 207.81689453125, 0.03200000151991844, -0.06400000303983688, 1.055999994277954, 0.0, 0.0, 0.0, 0.0, 0.0, 1.621595766277934E9, 2021-05-21 13:16:06.277
13.0, 186.1049041748047, 195.79872131347656, -99.75809478759766, 203.94235229492188, 0.03200000151991844, -0.06400000303983688, 1.055999994277954, 0.0, 0.0, 0.0, 0.0, 0.0, 1.621595766277934E9, 2021-05-21 13:16:06.277
14.0, 115.77234649658203, 149.2556610107422, -168.5086669921875, 171.1434326171875, 0.03200000151991844, -0.06400000303983688, 1.055999994277954, 0.0, 0.0, 0.0, 0.0, 0.0, 1.621595766292046E9, 2021-05-21 13:16:06.292
14.0, 119.85631561279297, 152.41587829589844, -177.21142578125, 176.80938720703125, 0.03200000151991844, -0.06400000303983688, 1.055999994277954, 0.0, 0.0, 0.0, 0.0, 0.0, 1.621595766292046E9, 2021-05-21 13:16:06.292
15.0, 179.7021942138672, 186.50880432128906, -106.37397766113281, 204.2639923095703, 0.03200000151991844, -0.06400000303983688, 1.055999994277954, 0.0, 0.0, 0.0, 0.0, 0.0, 1.6215957662927985E9, 2021-05-21 13:16:06.292
15.0, 187.7953338623047, 202.7698974609375, -96.44454193115234, 205.11668395996094, 0.03200000151991844, -0.06400000303983688, 1.055999994277954, 0.0, 0.0, 0.0, 0.0, 0.0, 1.6215957662927985E9, 2021-05-21 13:16:06.292
16.0, 128.38702392578125, 145.13055419921875, -166.1749725341797, 176.25587463378906, 0.03200000151991844, -0.06400000303983688, 1.055999994277954, 0.0, 0.0, 0.0, 0.0, 0.0, 1.6215957663234296E9, 2021-05-21 13:16:06.323
16.0, 115.3684310913086, 145.09689331054688, -175.23301696777344, 173.01712036132812, 0.03200000151991844, -0.06400000303983688, 1.055999994277954, 0.0, 0.0, 0.0, 0.0, 0.0, 1.6215957663234296E9, 2021-05-21 13:16:06.323
17.0, 186.67710876464844, 193.75674438476562, -109.1415023803711, 203.42625427246094, 0.03200000151991844, -0.06400000303983688, 1.055999994277954, 0.0, 0.0, 0.0, 0.0, 0.0, 1.6215957663241825E9, 2021-05-21 13:16:06.324
17.0, 187.57467651367188, 187.61956787109375, -103.83832550048828, 208.22828674316406, 0.03200000151991844, -0.06400000303983688, 1.055999994277954, 0.0, 0.0, 0.0, 0.0, 0.0, 1.6215957663241825E9, 2021-05-21 13:16:06.324
18.0, 118.30425262451172, 151.78384399414062, -169.54837036132812, 176.04269409179688, 0.03200000151991844, -0.06400000303983688, 1.055999994277954, 0.0, 0.0, 0.0, 0.0, 0.0, 1.6215957663248878E9, 2021-05-21 13:16:06.324
18.0, 119.90867614746094, 154.16989135742188, -177.78363037109375, 175.59765625, 0.03200000151991844, -0.06400000303983688, 1.055999994277954, 0.0, 0.0, 0.0, 0.0, 0.0, 1.6215957663248878E9, 2021-05-21 13:16:06.324
19.0, 186.08619689941406, 195.16293334960938, -104.76581573486328, 203.12332153320312, 0.03200000151991844, -0.06400000303983688, 1.055999994277954, 0.0, 0.0, 0.0, 0.0, 0.0, 1.6215957663364384E9, 2021-05-21 13:16:06.336
19.0, 186.00392150878906, 191.92417907714844, -102.40968322753906, 206.7996368408203, 0.03200000151991844, -0.06400000303983688, 1.055999994277954, 0.0, 0.0, 0.0, 0.0, 0.0, 1.6215957663364384E9, 2021-05-21 13:16:06.336
20.0, 119.00361633300781, 155.1123504638672, -169.98219299316406, 177.27313232421875, 0.03200000151991844, -0.06400000303983688, 1.055999994277954, 0.0, 0.0, 0.0, 0.0, 0.0, 1.6215957663522863E9, 2021-05-21 13:16:06.352
20.0, 118.39775085449219, 140.13404846191406, -179.4104766845703, 168.42079162597656, 0.03200000151991844, -0.06400000303983688, 1.055999994277954, 0.0, 0.0, 0.0, 0.0, 0.0, 1.6215957663522863E9, 2021-05-21 13:16:06.352
21.0, 179.829345703125, 186.63970947265625, -108.94328308105469, 202.16590881347656, 0.03200000151991844, -0.06400000303983688, 1.055999994277954, 0.0, 0.0, 0.0, 0.0, 0.0, 1.621595766352794E9, 2021-05-21 13:16:06.352
21.0, 193.2780303955078, 196.77110290527344, -90.30362701416016, 212.4207000732422, 0.03200000151991844, -0.06400000303983688, 1.055999994277954, 0.0, 0.0, 0.0, 0.0, 0.0, 1.621595766352794E9, 2021-05-21 13:16:06.352
22.0, 125.93365478515625, 155.78179931640625, -165.61024475097656, 180.7774200439453, 0.03200000151991844, -0.06400000303983688, 1.055999994277954, 0.0, 0.0, 0.0, 0.0, 0.0, 1.6215957663834467E9, 2021-05-21 13:16:06.383
22.0, 128.02426147460938, 148.89663696289062, -178.83453369140625, 172.98719787597656, 0.03200000151991844, -0.06400000303983688, 1.055999994277954, 0.0, 0.0, 0.0, 0.0, 0.0, 1.6215957663834467E9, 2021-05-21 13:16:06.383
23.0, 175.16943359375, 186.56117248535156, -115.32355499267578, 195.9875946044922, 0.03200000151991844, -0.06400000303983688, 1.055999994277954, 0.0, 0.0, 0.0, 0.0, 0.0, 1.621595766384238E9, 2021-05-21 13:16:06.384
23.0, 195.2676544189453, 200.58206176757812, -95.46468353271484, 214.5599365234375, 0.03200000151991844, -0.06400000303983688, 1.055999994277954, 0.0, 0.0, 0.0, 0.0, 0.0, 1.621595766384238E9, 2021-05-21 13:16:06.384
24.0, 124.30679321289062, 152.5654754638672, -167.18101501464844, 171.34164428710938, 0.03200000151991844, -0.06400000303983688, 1.055999994277954, 0.0, 0.0, 0.0, 0.0, 0.0, 1.6215957663849676E9, 2021-05-21 13:16:06.384
24.0, 115.57038879394531, 151.75765991210938, -177.3198699951172, 166.43115234375, 0.03200000151991844, -0.06400000303983688, 1.055999994277954, 0.0, 0.0, 0.0, 0.0, 0.0, 1.6215957663849676E9, 2021-05-21 13:16:06.384
25.0, 184.64634704589844, 203.9105682373047, -109.32849884033203, 205.83474731445312, 0.03200000151991844, -0.06400000303983688, 1.055999994277954, 0.0, 0.0, 0.0, 0.0, 0.0, 1.6215957663965027E9, 2021-05-21 13:16:06.396
25.0, 196.2475128173828, 186.6172637939453, -97.17755889892578, 211.1304473876953, 0.03200000151991844, -0.06400000303983688, 1.055999994277954, 0.0, 0.0, 0.0, 0.0, 0.0, 1.6215957663965027E9, 2021-05-21 13:16:06.396
26.0, 123.5176773071289, 140.77731323242188, -172.9180145263672, 177.25442504882812, 0.03200000151991844, -0.06400000303983688, 1.055999994277954, 0.0, 0.0, 0.0, 0.0, 0.0, 1.6215957664120824E9, 2021-05-21 13:16:06.412
26.0, 113.87995147705078, 148.38427734375, -182.4622344970703, 171.7268524169922, 0.03200000151991844, -0.06400000303983688, 1.055999994277954, 0.0, 0.0, 0.0, 0.0, 0.0, 1.6215957664120824E9, 2021-05-21 13:16:06.412
27.0, 181.56092834472656, 193.84649658203125, -117.01024627685547, 203.0597381591797, 0.03200000151991844, -0.06400000303983688, 1.055999994277954, 0.0, 0.0, 0.0, 0.0, 0.0, 1.621595766412798E9, 2021-05-21 13:16:06.412
27.0, 198.6148681640625, 196.7037811279297, -88.51969146728516, 220.05758666992188, 0.03200000151991844, -0.06400000303983688, 1.055999994277954, 0.0, 0.0, 0.0, 0.0, 0.0, 1.621595766412798E9, 2021-05-21 13:16:06.412
28.0, 115.52176666259766, 145.98699951171875, -171.36221313476562, 174.56544494628906, 0.03200000151991844, -0.06400000303983688, 1.055999994277954, 0.0, 0.0, 0.0, 0.0, 0.0, 1.6215957664431608E9, 2021-05-21 13:16:06.443
28.0, 117.33936309814453, 148.99388122558594, -178.52786254882812, 172.5421600341797, 0.03200000151991844, -0.06400000303983688, 1.055999994277954, 0.0, 0.0, 0.0, 0.0, 0.0, 1.6215957664431608E9, 2021-05-21 13:16:06.443
29.0, 181.6581573486328, 194.48228454589844, -116.44552612304688, 204.8436737060547, 0.03200000151991844, -0.06400000303983688, 1.055999994277954, 0.0, 0.0, 0.0, 0.0, 0.0, 1.6215957664439538E9, 2021-05-21 13:16:06.443
29.0, 183.9394989013672, 206.95111083984375, -102.7425308227539, 213.47535705566406, 0.03200000151991844, -0.06400000303983688, 1.055999994277954, 0.0, 0.0, 0.0, 0.0, 0.0, 1.6215957664439538E9, 2021-05-21 13:16:06.443
30.0, 117.66099548339844, 133.6565399169922, -174.3204803466797, 176.91409301757812, 0.03200000151991844, -0.06400000303983688, 1.040000081062317, 0.0, 0.0, 0.0, 0.0, 0.0, 1.6215957664570725E9, 2021-05-21 13:16:06.457
30.0, 126.01593017578125, 157.80882263183594, -165.02308654785156, 178.5933074951172, 0.03200000151991844, -0.06400000303983688, 1.040000081062317, 0.0, 0.0, 0.0, 0.0, 0.0, 1.6215957664570725E9, 2021-05-21 13:16:06.457
31.0, 179.27584838867188, 186.62474060058594, -117.14488983154297, 197.35264587402344, 0.03200000151991844, -0.06400000303983688, 1.040000081062317, 0.0, 0.0, 0.0, 0.0, 0.0, 1.621595766457759E9, 2021-05-21 13:16:06.457
31.0, 199.6620330810547, 208.0281982421875, -88.69920349121094, 220.88784790039062, 0.03200000151991844, -0.06400000303983688, 1.040000081062317, 0.0, 0.0, 0.0, 0.0, 0.0, 1.621595766457759E9, 2021-05-21 13:16:06.457
32.0, 110.90673065185547, 137.1832733154297, -175.79774475097656, 163.64492797851562, 0.03200000151991844, -0.06400000303983688, 1.040000081062317, 0.0, 0.0, 0.0, 0.0, 0.0, 1.6215957664720852E9, 2021-05-21 13:16:06.472
32.0, 124.32923126220703, 150.29910278320312, -175.8089599609375, 174.9581298828125, 0.03200000151991844, -0.06400000303983688, 1.040000081062317, 0.0, 0.0, 0.0, 0.0, 0.0, 1.6215957664720852E9, 2021-05-21 13:16:06.472
33.0, 195.03952026367188, 190.03179931640625, -107.49594116210938, 206.9716796875, 0.03200000151991844, -0.06400000303983688, 1.040000081062317, 0.0, 0.0, 0.0, 0.0, 0.0, 1.6215957664728858E9, 2021-05-21 13:16:06.472
33.0, 181.695556640625, 187.12216186523438, -93.59473419189453, 211.98313903808594, 0.03200000151991844, -0.06400000303983688, 1.040000081062317, 0.0, 0.0, 0.0, 0.0, 0.0, 1.6215957664728858E9, 2021-05-21 13:16:06.472
34.0, 127.60912322998047, 152.4420623779297, -160.9989471435547, 178.9934844970703, 0.03200000151991844, -0.06400000303983688, 1.040000081062317, 0.0, 0.0, 0.0, 0.0, 0.0, 1.6215957665027437E9, 2021-05-21 13:16:06.502
34.0, 110.72348022460938, 157.9883270263672, -179.1898193359375, 168.8920135498047, 0.03200000151991844, -0.06400000303983688, 1.040000081062317, 0.0, 0.0, 0.0, 0.0, 0.0, 1.6215957665027437E9, 2021-05-21 13:16:06.502
35.0, 170.5880584716797, 183.84974670410156, -119.40752410888672, 198.50079345703125, 0.03200000151991844, -0.06400000303983688, 1.040000081062317, 0.0, 0.0, 0.0, 0.0, 0.0, 1.6215957665035043E9, 2021-05-21 13:16:06.503
35.0, 181.55343627929688, 190.3908233642578, -99.32052612304688, 209.49237060546875, 0.03200000151991844, -0.06400000303983688, 1.040000081062317, 0.0, 0.0, 0.0, 0.0, 0.0, 1.6215957665035043E9, 2021-05-21 13:16:06.503
36.0, 115.32355499267578, 151.66416931152344, -163.03720092773438, 175.47048950195312, 0.03200000151991844, -0.06400000303983688, 1.040000081062317, 0.0, 0.0, 0.0, 0.0, 0.0, 1.621595766504188E9, 2021-05-21 13:16:06.504
36.0, 116.63999938964844, 148.89663696289062, -176.3923797607422, 171.67076110839844, 0.03200000151991844, -0.06400000303983688, 1.040000081062317, 0.0, 0.0, 0.0, 0.0, 0.0, 1.621595766504188E9, 2021-05-21 13:16:06.504
37.0, 183.40469360351562, 192.64224243164062, -104.32450866699219, 205.6514892578125, 0.03200000151991844, -0.06400000303983688, 1.040000081062317, 0.0, 0.0, 0.0, 0.0, 0.0, 1.621595766516426E9, 2021-05-21 13:16:06.516
37.0, 193.33787536621094, 192.3468017578125, -86.01396179199219, 215.15830993652344, 0.03200000151991844, -0.06400000303983688, 1.040000081062317, 0.0, 0.0, 0.0, 0.0, 0.0, 1.621595766516426E9, 2021-05-21 13:16:06.516
38.0, 114.45589447021484, 140.8408966064453, -168.62460327148438, 175.9267578125, 0.03200000151991844, -0.06400000303983688, 1.040000081062317, 0.0, 0.0, 0.0, 0.0, 0.0, 1.6215957665322387E9, 2021-05-21 13:16:06.532
38.0, 116.00421905517578, 159.38331604003906, -172.3271026611328, 171.74929809570312, 0.03200000151991844, -0.06400000303983688, 1.040000081062317, 0.0, 0.0, 0.0, 0.0, 0.0, 1.6215957665322387E9, 2021-05-21 13:16:06.532
39.0, 173.92030334472656, 192.0775146484375, -114.0819091796875, 196.0997772216797, 0.03200000151991844, -0.06400000303983688, 1.040000081062317, 0.0, 0.0, 0.0, 0.0, 0.0, 1.6215957665328715E9, 2021-05-21 13:16:06.532
39.0, 200.87750244140625, 205.6496124267578, -84.00563049316406, 216.2952423095703, 0.03200000151991844, -0.06400000303983688, 1.040000081062317, 0.0, 0.0, 0.0, 0.0, 0.0, 1.6215957665328715E9, 2021-05-21 13:16:06.532
40.0, 108.65904998779297, 153.69866943359375, -169.3202362060547, 170.2084503173828, 0.03200000151991844, -0.06400000303983688, 1.055999994277954, 0.0, 0.0, 0.0, 0.0, 0.0, 1.6215957665463855E9, 2021-05-21 13:16:06.546
40.0, 106.411376953125, 151.06951904296875, -177.14784240722656, 171.0574188232422, 0.03200000151991844, -0.06400000303983688, 1.055999994277954, 0.0, 0.0, 0.0, 0.0, 0.0, 1.6215957665463855E9, 2021-05-21 13:16:06.546
41.0, 176.88230895996094, 204.4715576171875, -109.11531829833984, 209.05853271484375, 0.03200000151991844, -0.06400000303983688, 1.055999994277954, 0.0, 0.0, 0.0, 0.0, 0.0, 1.621595766562048E9, 2021-05-21 13:16:06.562
41.0, 180.9774932861328, 202.01443481445312, -99.39906311035156, 211.68020629882812, 0.03200000151991844, -0.06400000303983688, 1.055999994277954, 0.0, 0.0, 0.0, 0.0, 0.0, 1.621595766562048E9, 2021-05-21 13:16:06.562
42.0, 117.58619689941406, 159.55160522460938, -167.91029357910156, 180.16407775878906, 0.03200000151991844, -0.06400000303983688, 1.055999994277954, 0.0, 0.0, 0.0, 0.0, 0.0, 1.621595766562762E9, 2021-05-21 13:16:06.562
42.0, 99.96004486083984, 165.26617431640625, -177.60411071777344, 167.205322265625, 0.03200000151991844, -0.06400000303983688, 1.055999994277954, 0.0, 0.0, 0.0, 0.0, 0.0, 1.621595766562762E9, 2021-05-21 13:16:06.562
43.0, 168.31419372558594, 199.43389892578125, -110.15127563476562, 206.74354553222656, 0.03200000151991844, -0.06400000303983688, 1.055999994277954, 0.0, 0.0, 0.0, 0.0, 0.0, 1.6215957665764189E9, 2021-05-21 13:16:06.576
43.0, 179.64984130859375, 203.21119689941406, -93.9275894165039, 213.5763397216797, 0.03200000151991844, -0.06400000303983688, 1.055999994277954, 0.0, 0.0, 0.0, 0.0, 0.0, 1.6215957665764189E9, 2021-05-21 13:16:06.576
44.0, 126.43479919433594, 165.1951141357422, -159.56283569335938, 189.95138549804688, 0.03200000151991844, -0.06400000303983688, 1.055999994277954, 0.0, 0.0, 0.0, 0.0, 0.0, 1.6215957665920036E9, 2021-05-21 13:16:06.592
44.0, 99.7319107055664, 158.94949340820312, -175.2105712890625, 175.00674438476562, 0.03200000151991844, -0.06400000303983688, 1.055999994277954, 0.0, 0.0, 0.0, 0.0, 0.0, 1.6215957665920036E9, 2021-05-21 13:16:06.592
45.0, 174.15591430664062, 214.32618713378906, -102.20024871826172, 211.5941925048828, 0.03200000151991844, -0.06400000303983688, 1.055999994277954, 0.0, 0.0, 0.0, 0.0, 0.0, 1.6215957665927396E9, 2021-05-21 13:16:06.592
45.0, 180.57359313964844, 193.34909057617188, -90.51679992675781, 212.70867919921875, 0.03200000151991844, -0.06400000303983688, 1.055999994277954, 0.0, 0.0, 0.0, 0.0, 0.0, 1.6215957665927396E9, 2021-05-21 13:16:06.592
46.0, 112.68692779541016, 154.42047119140625, -164.32373046875, 176.95523071289062, 0.03200000151991844, -0.06400000303983688, 1.055999994277954, 0.0, 0.0, 0.0, 0.0, 0.0, 1.6215957666225302E9, 2021-05-21 13:16:06.622
46.0, 105.25948333740234, 157.11318969726562, -174.6121826171875, 170.245849609375, 0.03200000151991844, -0.06400000303983688, 1.055999994277954, 0.0, 0.0, 0.0, 0.0, 0.0, 1.6215957666225302E9, 2021-05-21 13:16:06.622
47.0, 178.8607177734375, 205.03627014160156, -106.68064880371094, 205.24757385253906, 0.03200000151991844, -0.06400000303983688, 1.055999994277954, 0.0, 0.0, 0.0, 0.0, 0.0, 1.6215957666233068E9, 2021-05-21 13:16:06.623
47.0, 185.2484588623047, 202.2500457763672, -88.6244125366211, 209.73171997070312, 0.03200000151991844, -0.06400000303983688, 1.055999994277954, 0.0, 0.0, 0.0, 0.0, 0.0, 1.6215957666233068E9, 2021-05-21 13:16:06.623
48.0, 117.18228912353516, 158.6016845703125, -164.76129150390625, 178.4773712158203, 0.03200000151991844, -0.06400000303983688, 1.055999994277954, 0.0, 0.0, 0.0, 0.0, 0.0, 1.6215957666370945E9, 2021-05-21 13:16:06.637
48.0, 104.11881256103516, 159.94430541992188, -168.66200256347656, 173.15550231933594, 0.03200000151991844, -0.06400000303983688, 1.055999994277954, 0.0, 0.0, 0.0, 0.0, 0.0, 1.6215957666370945E9, 2021-05-21 13:16:06.637
49.0, 167.2034454345703, 198.88040161132812, -105.7120132446289, 207.98892211914062, 0.03200000151991844, -0.06400000303983688, 1.055999994277954, 0.0, 0.0, 0.0, 0.0, 0.0, 1.6215957666378164E9, 2021-05-21 13:16:06.637
49.0, 180.79798889160156, 202.6838836669922, -90.6177749633789, 219.3395233154297, 0.03200000151991844, -0.06400000303983688, 1.055999994277954, 0.0, 0.0, 0.0, 0.0, 0.0, 1.6215957666378164E9, 2021-05-21 13:16:06.637
50.0, 110.91421508789062, 151.3013916015625, -163.94973754882812, 180.938232421875, 0.03200000151991844, -0.06400000303983688, 1.055999994277954, 0.0, 0.0, 0.0, 0.0, 0.0, 1.621595766652151E9, 2021-05-21 13:16:06.652
50.0, 108.92084503173828, 159.68624877929688, -166.7209930419922, 180.24635314941406, 0.03200000151991844, -0.06400000303983688, 1.055999994277954, 0.0, 0.0, 0.0, 0.0, 0.0, 1.621595766652151E9, 2021-05-21 13:16:06.652
51.0, 170.10934448242188, 196.01190185546875, -107.3164291381836, 208.63966369628906, 0.03200000151991844, -0.06400000303983688, 1.055999994277954, 0.0, 0.0, 0.0, 0.0, 0.0, 1.621595766652854E9, 2021-05-21 13:16:06.652
51.0, 185.252197265625, 194.01852416992188, -84.65263366699219, 220.2744903564453, 0.03200000151991844, -0.06400000303983688, 1.055999994277954, 0.0, 0.0, 0.0, 0.0, 0.0, 1.621595766652854E9, 2021-05-21 13:16:06.652
52.0, 106.90129852294922, 150.497314453125, -166.41807556152344, 184.38641357421875, 0.03200000151991844, -0.06400000303983688, 1.055999994277954, 0.0, 0.0, 0.0, 0.0, 0.0, 1.6215957666663358E9, 2021-05-21 13:16:06.666
52.0, 105.59607696533203, 147.49417114257812, -176.9122314453125, 176.1399383544922, 0.03200000151991844, -0.06400000303983688, 1.055999994277954, 0.0, 0.0, 0.0, 0.0, 0.0, 1.6215957666663358E9, 2021-05-21 13:16:06.666
53.0, 187.9598846435547, 203.09901428222656, -91.19746398925781, 222.92234802246094, 0.03200000151991844, -0.06400000303983688, 1.055999994277954, 0.0, 0.0, 0.0, 0.0, 0.0, 1.6215957666822832E9, 2021-05-21 13:16:06.682
53.0, 177.84719848632812, 201.83865356445312, -93.265625, 210.8237762451172, 0.03200000151991844, -0.06400000303983688, 1.055999994277954, 0.0, 0.0, 0.0, 0.0, 0.0, 1.6215957666822832E9, 2021-05-21 13:16:06.682
54.0, 121.42333221435547, 144.7790069580078, -162.4014129638672, 177.65834045410156, 0.03200000151991844, -0.06400000303983688, 1.055999994277954, 0.0, 0.0, 0.0, 0.0, 0.0, 1.6215957666829796E9, 2021-05-21 13:16:06.682
54.0, 98.89791107177734, 146.03561401367188, -177.2899627685547, 169.47169494628906, 0.03200000151991844, -0.06400000303983688, 1.055999994277954, 0.0, 0.0, 0.0, 0.0, 0.0, 1.6215957666829796E9, 2021-05-21 13:16:06.682
55.0, 177.36476135253906, 195.7837677001953, -104.45914459228516, 214.5861053466797, 0.03200000151991844, -0.06400000303983688, 1.055999994277954, 0.0, 0.0, 0.0, 0.0, 0.0, 1.6215957666963296E9, 2021-05-21 13:16:06.696
55.0, 179.39926147460938, 189.86349487304688, -95.05703735351562, 213.58755493164062, 0.03200000151991844, -0.06400000303983688, 1.055999994277954, 0.0, 0.0, 0.0, 0.0, 0.0, 1.6215957666963296E9, 2021-05-21 13:16:06.696
56.0, 119.65061950683594, 144.2703857421875, -159.33096313476562, 180.32489013671875, 0.03200000151991844, -0.06400000303983688, 1.055999994277954, 0.0, 0.0, 0.0, 0.0, 0.0, 1.6215957667120695E9, 2021-05-21 13:16:06.712
56.0, 120.6678695678711, 168.5647735595703, -165.36715698242188, 175.9267578125, 0.03200000151991844, -0.06400000303983688, 1.055999994277954, 0.0, 0.0, 0.0, 0.0, 0.0, 1.6215957667120695E9, 2021-05-21 13:16:06.712
57.0, 169.76527404785156, 177.97061157226562, -104.82939910888672, 207.3905487060547, 0.03200000151991844, -0.06400000303983688, 1.055999994277954, 0.0, 0.0, 0.0, 0.0, 0.0, 1.6215957667128768E9, 2021-05-21 13:16:06.712
57.0, 186.6658935546875, 201.43475341796875, -84.90695190429688, 214.6796112060547, 0.03200000151991844, -0.06400000303983688, 1.055999994277954, 0.0, 0.0, 0.0, 0.0, 0.0, 1.6215957667128768E9, 2021-05-21 13:16:06.712
58.0, 121.587890625, 157.8798828125, -156.2230987548828, 185.010986328125, 0.03200000151991844, -0.06400000303983688, 1.055999994277954, 0.0, 0.0, 0.0, 0.0, 0.0, 1.6215957667264144E9, 2021-05-21 13:16:06.726
58.0, 95.56192016601562, 144.29281616210938, -176.90475463867188, 168.92567443847656, 0.03200000151991844, -0.06400000303983688, 1.055999994277954, 0.0, 0.0, 0.0, 0.0, 0.0, 1.6215957667264144E9, 2021-05-21 13:16:06.726
59.0, 172.89556884765625, 193.5323486328125, -99.80297088623047, 214.45895385742188, 0.03200000151991844, -0.06400000303983688, 1.055999994277954, 0.0, 0.0, 0.0, 0.0, 0.0, 1.6215957667421188E9, 2021-05-21 13:16:06.742
59.0, 186.34799194335938, 188.6966552734375, -84.03181457519531, 221.8863983154297, 0.03200000151991844, -0.06400000303983688, 1.055999994277954, 0.0, 0.0, 0.0, 0.0, 0.0, 1.6215957667421188E9, 2021-05-21 13:16:06.742
60.0, 110.15875244140625, 146.53302001953125, -158.93826293945312, 182.2434539794922, 0.03200000151991844, -0.06400000303983688, 1.055999994277954, 0.0, 0.0, 0.0, 0.0, 0.0, 1.621595766742901E9, 2021-05-21 13:16:06.742
60.0, 110.35322570800781, 149.2556610107422, -169.76153564453125, 179.77137756347656, 0.03200000151991844, -0.06400000303983688, 1.055999994277954, 0.0, 0.0, 0.0, 0.0, 0.0, 1.621595766742901E9, 2021-05-21 13:16:06.742
61.0, 176.6541748046875, 206.39759826660156, -96.54925537109375, 214.14854431152344, 0.03200000151991844, -0.06400000303983688, 1.055999994277954, 0.0, 0.0, 0.0, 0.0, 0.0, 1.6215957667564976E9, 2021-05-21 13:16:06.756
61.0, 182.6716766357422, 182.86614990234375, -87.29674530029297, 214.19342041015625, 0.03200000151991844, -0.06400000303983688, 1.055999994277954, 0.0, 0.0, 0.0, 0.0, 0.0, 1.6215957667564976E9, 2021-05-21 13:16:06.756
62.0, 115.57786560058594, 146.77610778808594, -157.13937377929688, 177.64712524414062, 0.03200000151991844, -0.06400000303983688, 1.055999994277954, 0.0, 0.0, 0.0, 0.0, 0.0, 1.621595766772127E9, 2021-05-21 13:16:06.772
62.0, 110.97405242919922, 150.5347137451172, -169.9971466064453, 169.54275512695312, 0.03200000151991844, -0.06400000303983688, 1.055999994277954, 0.0, 0.0, 0.0, 0.0, 0.0, 1.621595766772127E9, 2021-05-21 13:16:06.772
63.0, 173.3443603515625, 197.45175170898438, -99.75809478759766, 208.074951171875, 0.03200000151991844, -0.06400000303983688, 1.055999994277954, 0.0, 0.0, 0.0, 0.0, 0.0, 1.6215957667727723E9, 2021-05-21 13:16:06.772
63.0, 185.02032470703125, 196.25125122070312, -86.83673858642578, 213.35194396972656, 0.03200000151991844, -0.06400000303983688, 1.055999994277954, 0.0, 0.0, 0.0, 0.0, 0.0, 1.6215957667727723E9, 2021-05-21 13:16:06.772
64.0, 116.0939712524414, 150.25048828125, -160.17991638183594, 177.26939392089844, 0.03200000151991844, -0.06400000303983688, 1.055999994277954, 0.0, 0.0, 0.0, 0.0, 0.0, 1.6215957667865412E9, 2021-05-21 13:16:06.786
64.0, 106.32161712646484, 153.77720642089844, -164.406005859375, 180.70262145996094, 0.03200000151991844, -0.06400000303983688, 1.055999994277954, 0.0, 0.0, 0.0, 0.0, 0.0, 1.6215957667865412E9, 2021-05-21 13:16:06.786
65.0, 176.4896240234375, 196.06051635742188, -93.82660675048828, 209.95985412597656, 0.03200000151991844, -0.06400000303983688, 1.055999994277954, 0.0, 0.0, 0.0, 0.0, 0.0, 1.621595766802219E9, 2021-05-21 13:16:06.802
65.0, 182.22662353515625, 212.1383514404297, -82.3488540649414, 212.44688415527344, 0.03200000151991844, -0.06400000303983688, 1.055999994277954, 0.0, 0.0, 0.0, 0.0, 0.0, 1.621595766802219E9, 2021-05-21 13:16:06.802
66.0, 116.02291870117188, 142.39669799804688, -151.5557098388672, 180.8185577392578, 0.03200000151991844, -0.06400000303983688, 1.055999994277954, 0.0, 0.0, 0.0, 0.0, 0.0, 1.621595766802908E9, 2021-05-21 13:16:06.802
66.0, 113.37133026123047, 153.11524963378906, -165.251220703125, 176.2371826171875, 0.03200000151991844, -0.06400000303983688, 1.055999994277954, 0.0, 0.0, 0.0, 0.0, 0.0, 1.621595766802908E9, 2021-05-21 13:16:06.802
67.0, 173.4266357421875, 194.42617797851562, -106.50861358642578, 202.28558349609375, 0.03200000151991844, -0.06400000303983688, 1.055999994277954, 0.0, 0.0, 0.0, 0.0, 0.0, 1.6215957668165812E9, 2021-05-21 13:16:06.816
67.0, 188.37127685546875, 196.51678466796875, -88.43741607666016, 214.40660095214844, 0.03200000151991844, -0.06400000303983688, 1.055999994277954, 0.0, 0.0, 0.0, 0.0, 0.0, 1.6215957668165812E9, 2021-05-21 13:16:06.816
68.0, 113.83507537841797, 151.24903869628906, -161.20091247558594, 176.865478515625, 0.03200000151991844, -0.06400000303983688, 1.055999994277954, 0.0, 0.0, 0.0, 0.0, 0.0, 1.6215957668320754E9, 2021-05-21 13:16:06.832
68.0, 108.78620910644531, 150.6319580078125, -161.36172485351562, 176.41668701171875, 0.03200000151991844, -0.06400000303983688, 1.055999994277954, 0.0, 0.0, 0.0, 0.0, 0.0, 1.6215957668320754E9, 2021-05-21 13:16:06.832
69.0, 176.47091674804688, 189.89341735839844, -100.46118927001953, 210.13563537597656, 0.03200000151991844, -0.06400000303983688, 1.055999994277954, 0.0, 0.0, 0.0, 0.0, 0.0, 1.6215957668327887E9, 2021-05-21 13:16:06.832
69.0, 187.05484008789062, 198.90658569335938, -79.39433288574219, 217.86599731445312, 0.03200000151991844, -0.06400000303983688, 1.055999994277954, 0.0, 0.0, 0.0, 0.0, 0.0, 1.6215957668327887E9, 2021-05-21 13:16:06.832
70.0, 112.65326690673828, 156.62327575683594, -165.10536193847656, 175.82952880859375, 0.03200000151991844, -0.06400000303983688, 1.055999994277954, 0.0, 0.0, 0.0, 0.0, 0.0, 1.6215957668492591E9, 2021-05-21 13:16:06.849
70.0, 111.41535949707031, 143.032470703125, -174.9637451171875, 171.4800262451172, 0.03200000151991844, -0.06400000303983688, 1.055999994277954, 0.0, 0.0, 0.0, 0.0, 0.0, 1.6215957668492591E9, 2021-05-21 13:16:06.849
71.0, 174.8328399658203, 192.4328155517578, -101.4747085571289, 204.61180114746094, 0.03200000151991844, -0.06400000303983688, 1.055999994277954, 0.0, 0.0, 0.0, 0.0, 0.0, 1.6215957668620396E9, 2021-05-21 13:16:06.862
71.0, 184.13397216796875, 202.2575225830078, -83.25017547607422, 216.06336975097656, 0.03200000151991844, -0.06400000303983688, 1.055999994277954, 0.0, 0.0, 0.0, 0.0, 0.0, 1.6215957668620396E9, 2021-05-21 13:16:06.862
72.0, 113.93231201171875, 154.8542938232422, -160.5464324951172, 181.77223205566406, 0.03200000151991844, -0.06400000303983688, 1.055999994277954, 0.0, 0.0, 0.0, 0.0, 0.0, 1.621595766862757E9, 2021-05-21 13:16:06.862
72.0, 110.48786163330078, 153.6463165283203, -172.55523681640625, 174.16900634765625, 0.03200000151991844, -0.06400000303983688, 1.055999994277954, 0.0, 0.0, 0.0, 0.0, 0.0, 1.621595766862757E9, 2021-05-21 13:16:06.862
73.0, 173.91656494140625, 187.02865600585938, -110.34201049804688, 203.77406311035156, 0.03200000151991844, -0.06400000303983688, 1.055999994277954, 0.0, 0.0, 0.0, 0.0, 0.0, 1.621595766876362E9, 2021-05-21 13:16:06.876
73.0, 187.7953338623047, 195.57058715820312, -94.86256408691406, 216.98712158203125, 0.03200000151991844, -0.06400000303983688, 1.055999994277954, 0.0, 0.0, 0.0, 0.0, 0.0, 1.621595766876362E9, 2021-05-21 13:16:06.876
74.0, 113.19181060791016, 158.3885040283203, -167.3605194091797, 180.31365966796875, 0.03200000151991844, -0.06400000303983688, 1.055999994277954, 0.0, 0.0, 0.0, 0.0, 0.0, 1.6215957668921597E9, 2021-05-21 13:16:06.892
74.0, 109.36589813232422, 151.58563232421875, -165.70001220703125, 175.52659606933594, 0.03200000151991844, -0.06400000303983688, 1.055999994277954, 0.0, 0.0, 0.0, 0.0, 0.0, 1.6215957668921597E9, 2021-05-21 13:16:06.892
75.0, 177.05059814453125, 193.93251037597656, -99.0512466430664, 210.88734436035156, 0.03200000151991844, -0.06400000303983688, 1.055999994277954, 0.0, 0.0, 0.0, 0.0, 0.0, 1.6215957668927727E9, 2021-05-21 13:16:06.892
75.0, 188.3002166748047, 202.96437072753906, -86.14485931396484, 211.61288452148438, 0.03200000151991844, -0.06400000303983688, 1.055999994277954, 0.0, 0.0, 0.0, 0.0, 0.0, 1.6215957668927727E9, 2021-05-21 13:16:06.892
76.0, 112.9786376953125, 138.2753143310547, -163.57200622558594, 178.50355529785156, 0.03200000151991844, -0.06400000303983688, 1.055999994277954, 0.0, 0.0, 0.0, 0.0, 0.0, 1.621595766906413E9, 2021-05-21 13:16:06.906
76.0, 107.2977294921875, 144.68551635742188, -173.49395751953125, 168.94436645507812, 0.03200000151991844, -0.06400000303983688, 1.055999994277954, 0.0, 0.0, 0.0, 0.0, 0.0, 1.621595766906413E9, 2021-05-21 13:16:06.906
77.0, 179.7096710205078, 190.92562866210938, -100.0311050415039, 208.26942443847656, 0.03200000151991844, -0.06400000303983688, 1.055999994277954, 0.0, 0.0, 0.0, 0.0, 0.0, 1.6215957669221044E9, 2021-05-21 13:16:06.922
77.0, 184.15267944335938, 194.44113159179688, -87.71187591552734, 215.6632080078125, 0.03200000151991844, -0.06400000303983688, 1.055999994277954, 0.0, 0.0, 0.0, 0.0, 0.0, 1.6215957669221044E9, 2021-05-21 13:16:06.922
78.0, 111.95016479492188, 140.81097412109375, -157.43856811523438, 182.00784301757812, 0.03200000151991844, -0.06400000303983688, 1.055999994277954, 0.0, 0.0, 0.0, 0.0, 0.0, 1.6215957669227855E9, 2021-05-21 13:16:06.922
78.0, 108.89840698242188, 151.95960998535156, -168.9387664794922, 174.90951538085938, 0.03200000151991844, -0.06400000303983688, 1.055999994277954, 0.0, 0.0, 0.0, 0.0, 0.0, 1.6215957669227855E9, 2021-05-21 13:16:06.922
79.0, 180.9700164794922, 187.47744750976562, -98.14619445800781, 211.31369018554688, 0.03200000151991844, -0.06400000303983688, 1.055999994277954, 0.0, 0.0, 0.0, 0.0, 0.0, 1.6215957669363613E9, 2021-05-21 13:16:06.936
79.0, 187.32037353515625, 201.12060546875, -88.49351501464844, 222.29779052734375, 0.03200000151991844, -0.06400000303983688, 1.055999994277954, 0.0, 0.0, 0.0, 0.0, 0.0, 1.6215957669363613E9, 2021-05-21 13:16:06.936
80.0, 114.24272155761719, 145.95333862304688, -158.19776916503906, 181.7049102783203, 0.03200000151991844, -0.06400000303983688, 1.055999994277954, 0.0, 0.0, 0.0, 0.0, 0.0, 1.6215957669520848E9, 2021-05-21 13:16:06.952
80.0, 114.71021270751953, 162.89508056640625, -166.6536865234375, 181.80213928222656, 0.03200000151991844, -0.06400000303983688, 1.055999994277954, 0.0, 0.0, 0.0, 0.0, 0.0, 1.6215957669520848E9, 2021-05-21 13:16:06.952
81.0, 174.73187255859375, 184.87448120117188, -104.95281219482422, 206.33963012695312, 0.03200000151991844, -0.06400000303983688, 1.055999994277954, 0.0, 0.0, 0.0, 0.0, 0.0, 1.62159576695279E9, 2021-05-21 13:16:06.952
81.0, 194.4224395751953, 191.59881591796875, -83.29131317138672, 220.01644897460938, 0.03200000151991844, -0.06400000303983688, 1.055999994277954, 0.0, 0.0, 0.0, 0.0, 0.0, 1.62159576695279E9, 2021-05-21 13:16:06.952
82.0, 115.57786560058594, 143.5934600830078, -160.0340576171875, 179.741455078125, 0.03200000151991844, -0.06400000303983688, 1.055999994277954, 0.0, 0.0, 0.0, 0.0, 0.0, 1.621595766966408E9, 2021-05-21 13:16:06.966
82.0, 111.69585418701172, 149.46510314941406, -167.77565002441406, 174.3223419189453, 0.03200000151991844, -0.06400000303983688, 1.055999994277954, 0.0, 0.0, 0.0, 0.0, 0.0, 1.621595766966408E9, 2021-05-21 13:16:06.966
83.0, 184.3808135986328, 195.01708984375, -91.40689849853516, 212.6787567138672, 0.03200000151991844, -0.06400000303983688, 1.055999994277954, 0.0, 0.0, 0.0, 0.0, 0.0, 1.6215957669821415E9, 2021-05-21 13:16:06.982
83.0, 188.10574340820312, 189.25015258789062, -83.88595581054688, 220.88784790039062, 0.03200000151991844, -0.06400000303983688, 1.055999994277954, 0.0, 0.0, 0.0, 0.0, 0.0, 1.6215957669821415E9, 2021-05-21 13:16:06.982
84.0, 116.84195709228516, 151.39114379882812, -160.44544982910156, 182.65484619140625, 0.03200000151991844, -0.06400000303983688, 1.055999994277954, 0.0, 0.0, 0.0, 0.0, 0.0, 1.621595766982859E9, 2021-05-21 13:16:06.982
84.0, 110.51030731201172, 149.79421997070312, -170.11683654785156, 173.9483642578125, 0.03200000151991844, -0.06400000303983688, 1.055999994277954, 0.0, 0.0, 0.0, 0.0, 0.0, 1.621595766982859E9, 2021-05-21 13:16:06.982
85.0, 179.829345703125, 196.67759704589844, -94.15198516845703, 210.36001586914062, 0.03200000151991844, -0.06400000303983688, 1.055999994277954, 0.0, 0.0, 0.0, 0.0, 0.0, 1.6215957669963598E9, 2021-05-21 13:16:06.996
85.0, 193.07608032226562, 207.6093292236328, -76.2827377319336, 226.89785766601562, 0.03200000151991844, -0.06400000303983688, 1.055999994277954, 0.0, 0.0, 0.0, 0.0, 0.0, 1.6215957669963598E9, 2021-05-21 13:16:06.996
86.0, 117.86668395996094, 138.09954833984375, -157.950927734375, 181.2336883544922, 0.03200000151991844, -0.06400000303983688, 1.055999994277954, 0.0, 0.0, 0.0, 0.0, 0.0, 1.621595767012114E9, 2021-05-21 13:16:07.012
86.0, 120.51079559326172, 147.6886444091797, -167.9252471923828, 177.73687744140625, 0.03200000151991844, -0.06400000303983688, 1.055999994277954, 0.0, 0.0, 0.0, 0.0, 0.0, 1.621595767012114E9, 2021-05-21 13:16:07.012
87.0, 174.97122192382812, 188.6517791748047, -101.02591705322266, 206.38450622558594, 0.03200000151991844, -0.06400000303983688, 1.055999994277954, 0.0, 0.0, 0.0, 0.0, 0.0, 1.6215957670128496E9, 2021-05-21 13:16:07.012
87.0, 185.57009887695312, 191.9915008544922, -80.59110260009766, 217.86973571777344, 0.03200000151991844, -0.06400000303983688, 1.055999994277954, 0.0, 0.0, 0.0, 0.0, 0.0, 1.6215957670128496E9, 2021-05-21 13:16:07.012
88.0, 119.99095153808594, 154.92161560058594, -149.9026641845703, 183.91519165039062, 0.03200000151991844, -0.06400000303983688, 1.055999994277954, 0.0, 0.0, 0.0, 0.0, 0.0, 1.621595767026477E9, 2021-05-21 13:16:07.026
88.0, 118.45384979248047, 155.4938201904297, -163.4224090576172, 172.5047607421875, 0.03200000151991844, -0.06400000303983688, 1.055999994277954, 0.0, 0.0, 0.0, 0.0, 0.0, 1.621595767026477E9, 2021-05-21 13:16:07.026
89.0, 194.43365478515625, 194.06341552734375, -91.6761703491211, 208.9463348388672, 0.03200000151991844, -0.06400000303983688, 1.055999994277954, 0.0, 0.0, 0.0, 0.0, 0.0, 1.6215957670422435E9, 2021-05-21 13:16:07.042
89.0, 183.44956970214844, 201.90223693847656, -85.38939666748047, 216.85623168945312, 0.03200000151991844, -0.06400000303983688, 1.055999994277954, 0.0, 0.0, 0.0, 0.0, 0.0, 1.6215957670422435E9, 2021-05-21 13:16:07.042
90.0, 115.23379516601562, 147.84947204589844, -157.8312530517578, 179.98081970214844, 0.03200000151991844, -0.06400000303983688, 1.055999994277954, 0.0, 0.0, 0.0, 0.0, 0.0, 1.6215957670429013E9, 2021-05-21 13:16:07.042
90.0, 109.1415023803711, 156.4213104248047, -165.82716369628906, 173.52200317382812, 0.03200000151991844, -0.06400000303983688, 1.055999994277954, 0.0, 0.0, 0.0, 0.0, 0.0, 1.6215957670429013E9, 2021-05-21 13:16:07.042
91.0, 184.93057250976562, 189.65032958984375, -96.57169342041016, 210.5731964111328, 0.03200000151991844, -0.06400000303983688, 1.055999994277954, 0.0, 0.0, 0.0, 0.0, 0.0, 1.621595767056408E9, 2021-05-21 13:16:07.056
91.0, 188.07957458496094, 201.39735412597656, -82.59943389892578, 217.29005432128906, 0.03200000151991844, -0.06400000303983688, 1.055999994277954, 0.0, 0.0, 0.0, 0.0, 0.0, 1.621595767056408E9, 2021-05-21 13:16:07.056
92.0, 115.05054473876953, 147.80831909179688, -156.84017944335938, 180.36228942871094, 0.03200000151991844, -0.06400000303983688, 1.055999994277954, 0.0, 0.0, 0.0, 0.0, 0.0, 1.6215957670720763E9, 2021-05-21 13:16:07.072
92.0, 112.39521026611328, 147.25108337402344, -159.3533935546875, 178.3053436279297, 0.03200000151991844, -0.06400000303983688, 1.055999994277954, 0.0, 0.0, 0.0, 0.0, 0.0, 1.6215957670720763E9, 2021-05-21 13:16:07.072
93.0, 177.79110717773438, 196.70004272460938, -92.24089050292969, 212.37208557128906, 0.03200000151991844, -0.06400000303983688, 1.055999994277954, 0.0, 0.0, 0.0, 0.0, 0.0, 1.6215957670727615E9, 2021-05-21 13:16:07.072
93.0, 186.46392822265625, 197.6088409423828, -74.90645599365234, 223.04576110839844, 0.03200000151991844, -0.06400000303983688, 1.055999994277954, 0.0, 0.0, 0.0, 0.0, 0.0, 1.6215957670727615E9, 2021-05-21 13:16:07.072
94.0, 120.79129028320312, 152.27377319335938, -147.4081573486328, 185.84498596191406, 0.03200000151991844, -0.06400000303983688, 1.055999994277954, 0.0, 0.0, 0.0, 0.0, 0.0, 1.6215957670864356E9, 2021-05-21 13:16:07.086
94.0, 106.33283233642578, 144.41998291015625, -169.1107940673828, 171.0087890625, 0.03200000151991844, -0.06400000303983688, 1.055999994277954, 0.0, 0.0, 0.0, 0.0, 0.0, 1.6215957670864356E9, 2021-05-21 13:16:07.086
95.0, 176.5345001220703, 196.90573120117188, -100.1919174194336, 212.62266540527344, 0.03200000151991844, -0.06400000303983688, 1.055999994277954, 0.0, 0.0, 0.0, 0.0, 0.0, 1.6215957671020415E9, 2021-05-21 13:16:07.102
95.0, 189.1641387939453, 196.03807067871094, -85.9952621459961, 220.70458984375, 0.03200000151991844, -0.06400000303983688, 1.055999994277954, 0.0, 0.0, 0.0, 0.0, 0.0, 1.6215957671020415E9, 2021-05-21 13:16:07.102
96.0, 124.75558471679688, 163.2054901123047, -152.6253204345703, 182.91290283203125, 0.03200000151991844, -0.06400000303983688, 1.055999994277954, 0.0, 0.0, 0.0, 0.0, 0.0, 1.6215957671027548E9, 2021-05-21 13:16:07.102
96.0, 105.6484375, 141.19618225097656, -169.94105529785156, 173.91470336914062, 0.03200000151991844, -0.06400000303983688, 1.055999994277954, 0.0, 0.0, 0.0, 0.0, 0.0, 1.6215957671027548E9, 2021-05-21 13:16:07.102
97.0, 170.64414978027344, 192.047607421875, -103.17636108398438, 211.5530548095703, 0.03200000151991844, -0.06400000303983688, 1.055999994277954, 0.0, 0.0, 0.0, 0.0, 0.0, 1.6215957671165168E9, 2021-05-21 13:16:07.116
97.0, 192.28321838378906, 198.58120727539062, -84.4319839477539, 222.3090057373047, 0.03200000151991844, -0.06400000303983688, 1.055999994277954, 0.0, 0.0, 0.0, 0.0, 0.0, 1.6215957671165168E9, 2021-05-21 13:16:07.116
98.0, 122.9155502319336, 152.80482482910156, -157.00474548339844, 189.55496215820312, 0.03200000151991844, -0.06400000303983688, 1.055999994277954, 0.0, 0.0, 0.0, 0.0, 0.0, 1.621595767148596E9, 2021-05-21 13:16:07.148
98.0, 117.6572494506836, 150.21682739257812, -174.7879638671875, 175.87440490722656, 0.03200000151991844, -0.06400000303983688, 1.055999994277954, 0.0, 0.0, 0.0, 0.0, 0.0, 1.621595767148596E9, 2021-05-21 13:16:07.148
99.0, 178.22866821289062, 182.7202911376953, -108.101806640625, 207.07638549804688, 0.03200000151991844, -0.06400000303983688, 1.055999994277954, 0.0, 0.0, 0.0, 0.0, 0.0, 1.6215957671493487E9, 2021-05-21 13:16:07.149
99.0, 176.8299560546875, 190.03179931640625, -94.7279281616211, 214.9675750732422, 0.03200000151991844, -0.06400000303983688, 1.055999994277954, 0.0, 0.0, 0.0, 0.0, 0.0, 1.6215957671493487E9, 2021-05-21 13:16:07.149
100.0, 110.87681579589844, 156.58961486816406, -160.4716339111328, 183.04379272460938, 0.03200000151991844, -0.06400000303983688, 1.055999994277954, 0.0, 0.0, 0.0, 0.0, 0.0, 1.6215957671500163E9, 2021-05-21 13:16:07.150
100.0, 109.31727600097656, 146.92196655273438, -174.1110382080078, 174.80479431152344, 0.03200000151991844, -0.06400000303983688, 1.055999994277954, 0.0, 0.0, 0.0, 0.0, 0.0, 1.6215957671500163E9, 2021-05-21 13:16:07.150
0.0, 174.34478759765625, 192.0737762451172, -111.45462799072266, 209.89627075195312, 0.03200000151991844, -0.06400000303983688, 1.055999994277954, 0.0, 0.0, 0.0, 0.0, 0.0, 1.6215957671507847E9, 2021-05-21 13:16:07.150
1.0, 185.66920471191406, 205.75807189941406, -88.17375183105469, 220.4091339111328, 0.03200000151991844, -0.06400000303983688, 1.055999994277954, 0.0, 0.0, 0.0, 0.0, 0.0, 1.6215957671613452E9, 2021-05-21 13:16:07.161
1.0, 105.5418472290039, 147.7447509765625, -172.29531860351562, 179.27023315429688, 0.03200000151991844, -0.06400000303983688, 1.055999994277954, 0.0, 0.0, 0.0, 0.0, 0.0, 1.6215957671613452E9, 2021-05-21 13:16:07.161
2.0, 99.99183654785156, 152.08677673339844, -178.6942901611328, 174.70755004882812, 0.03200000151991844, -0.06400000303983688, 1.055999994277954, 0.0, 0.0, 0.0, 0.0, 0.0, 1.6215957671771903E9, 2021-05-21 13:16:07.177
2.0, 178.48484802246094, 193.66697692871094, -104.84996795654297, 216.89736938476562, 0.03200000151991844, -0.06400000303983688, 1.055999994277954, 0.0, 0.0, 0.0, 0.0, 0.0, 1.6215957671771903E9, 2021-05-21 13:16:07.177
3.0, 179.34877014160156, 193.2742919921875, -93.54425048828125, 218.8795166015625, 0.03200000151991844, -0.06400000303983688, 1.055999994277954, 0.0, 0.0, 0.0, 0.0, 0.0, 1.6215957671779652E9, 2021-05-21 13:16:07.177
3.0, 113.23481750488281, 156.3427734375, -160.09950256347656, 188.65737915039062, 0.03200000151991844, -0.06400000303983688, 1.055999994277954, 0.0, 0.0, 0.0, 0.0, 0.0, 1.6215957671779652E9, 2021-05-21 13:16:07.177
4.0, 109.4762191772461, 151.54823303222656, -175.86692810058594, 177.77427673339844, 0.03200000151991844, -0.06400000303983688, 1.055999994277954, 0.0, 0.0, 0.0, 0.0, 0.0, 1.6215957672077267E9, 2021-05-21 13:16:07.207
4.0, 178.24549865722656, 197.36199951171875, -99.79736328125, 216.16061401367188, 0.03200000151991844, -0.06400000303983688, 1.055999994277954, 0.0, 0.0, 0.0, 0.0, 0.0, 1.6215957672077267E9, 2021-05-21 13:16:07.207
5.0, 183.02134704589844, 190.61148071289062, -96.15095520019531, 214.94140625, 0.03200000151991844, -0.06400000303983688, 1.055999994277954, 0.0, 0.0, 0.0, 0.0, 0.0, 1.6215957672085068E9, 2021-05-21 13:16:07.208
5.0, 123.99451446533203, 160.9765167236328, -148.63671875, 194.5327606201172, 0.03200000151991844, -0.06400000303983688, 1.055999994277954, 0.0, 0.0, 0.0, 0.0, 0.0, 1.6215957672085068E9, 2021-05-21 13:16:07.208
6.0, 102.26569366455078, 151.79505920410156, -182.3668670654297, 177.22076416015625, 0.03200000151991844, -0.06400000303983688, 1.055999994277954, 0.0, 0.0, 0.0, 0.0, 0.0, 1.6215957672093468E9, 2021-05-21 13:16:07.209
6.0, 183.20460510253906, 201.63296508789062, -104.20296478271484, 216.889892578125, 0.03200000151991844, -0.06400000303983688, 1.055999994277954, 0.0, 0.0, 0.0, 0.0, 0.0, 1.6215957672093468E9, 2021-05-21 13:16:07.209
7.0, 192.48704528808594, 198.7831573486328, -87.26869201660156, 218.55413818359375, 0.03200000151991844, -0.06400000303983688, 1.055999994277954, 0.0, 0.0, 0.0, 0.0, 0.0, 1.6215957672214537E9, 2021-05-21 13:16:07.221
7.0, 115.27680969238281, 155.40406799316406, -165.79164123535156, 184.33779907226562, 0.03200000151991844, -0.06400000303983688, 1.055999994277954, 0.0, 0.0, 0.0, 0.0, 0.0, 1.6215957672214537E9, 2021-05-21 13:16:07.221
8.0, 110.18680572509766, 150.78903198242188, -176.77572631835938, 176.0988006591797, 0.03200000151991844, -0.06400000303983688, 1.055999994277954, 0.0, 0.0, 0.0, 0.0, 0.0, 1.6215957672370455E9, 2021-05-21 13:16:07.237
8.0, 184.18072509765625, 190.91441345214844, -103.3951416015625, 212.92559814453125, 0.03200000151991844, -0.06400000303983688, 1.055999994277954, 0.0, 0.0, 0.0, 0.0, 0.0, 1.6215957672370455E9, 2021-05-21 13:16:07.237
9.0, 192.27012634277344, 200.75408935546875, -86.63665008544922, 223.07568359375, 0.03200000151991844, -0.06400000303983688, 1.055999994277954, 0.0, 0.0, 0.0, 0.0, 0.0, 1.6215957672378116E9, 2021-05-21 13:16:07.237
9.0, 115.01127624511719, 149.82412719726562, -163.4766387939453, 180.4595184326172, 0.03200000151991844, -0.06400000303983688, 1.055999994277954, 0.0, 0.0, 0.0, 0.0, 0.0, 1.6215957672378116E9, 2021-05-21 13:16:07.237
10.0, 116.06966400146484, 147.4044189453125, -172.68800354003906, 181.47677612304688, 0.03200000151991844, -0.06400000303983688, 1.055999994277954, 0.0, 0.0, 0.0, 0.0, 0.0, 1.621595767268212E9, 2021-05-21 13:16:07.268
10.0, 179.72276306152344, 187.35403442382812, -106.51795959472656, 213.8680419921875, 0.03200000151991844, -0.06400000303983688, 1.055999994277954, 0.0, 0.0, 0.0, 0.0, 0.0, 1.621595767268212E9, 2021-05-21 13:16:07.268
11.0, 192.66281127929688, 195.66783142089844, -92.2091064453125, 216.56077575683594, 0.03200000151991844, -0.06400000303983688, 1.055999994277954, 0.0, 0.0, 0.0, 0.0, 0.0, 1.62159576726887E9, 2021-05-21 13:16:07.268
11.0, 127.38660430908203, 161.96011352539062, -155.36105346679688, 192.0008544921875, 0.03200000151991844, -0.06400000303983688, 1.055999994277954, 0.0, 0.0, 0.0, 0.0, 0.0, 1.62159576726887E9, 2021-05-21 13:16:07.268
12.0, 118.39588165283203, 154.98146057128906, -170.60488891601562, 181.66751098632812, 0.03200000151991844, -0.06400000303983688, 1.055999994277954, 0.0, 0.0, 0.0, 0.0, 0.0, 1.621595767282132E9, 2021-05-21 13:16:07.282
12.0, 176.11749267578125, 196.0305938720703, -106.54039764404297, 211.6764678955078, 0.03200000151991844, -0.06400000303983688, 1.055999994277954, 0.0, 0.0, 0.0, 0.0, 0.0, 1.621595767282132E9, 2021-05-21 13:16:07.282
13.0, 193.85211181640625, 211.10987854003906, -83.03887176513672, 222.6568145751953, 0.03200000151991844, -0.06400000303983688, 1.055999994277954, 0.0, 0.0, 0.0, 0.0, 0.0, 1.6215957672828434E9, 2021-05-21 13:16:07.282
13.0, 123.4671859741211, 170.10186767578125, -157.84434509277344, 185.88986206054688, 0.03200000151991844, -0.06400000303983688, 1.055999994277954, 0.0, 0.0, 0.0, 0.0, 0.0, 1.6215957672828434E9, 2021-05-21 13:16:07.282
14.0, 116.29779815673828, 172.9180145263672, -168.10289001464844, 175.06658935546875, 0.03200000151991844, -0.06400000303983688, 1.055999994277954, 0.0, 0.0, 0.0, 0.0, 0.0, 1.6215957672971892E9, 2021-05-21 13:16:07.297
14.0, 181.2374267578125, 211.7232208251953, -103.48863983154297, 208.56112670898438, 0.03200000151991844, -0.06400000303983688, 1.055999994277954, 0.0, 0.0, 0.0, 0.0, 0.0, 1.6215957672971892E9, 2021-05-21 13:16:07.297
15.0, 193.32852172851562, 227.5654296875, -86.9695053100586, 214.36920166015625, 0.03200000151991844, -0.06400000303983688, 1.055999994277954, 0.0, 0.0, 0.0, 0.0, 0.0, 1.6215957672978275E9, 2021-05-21 13:16:07.297
15.0, 126.29080963134766, 182.63427734375, -155.8883819580078, 180.8821258544922, 0.03200000151991844, -0.06400000303983688, 1.055999994277954, 0.0, 0.0, 0.0, 0.0, 0.0, 1.6215957672978275E9, 2021-05-21 13:16:07.297
16.0, 123.26148986816406, 190.73863220214844, -160.4061737060547, 179.8349609375, 0.03200000151991844, -0.06400000303983688, 1.055999994277954, 0.0, 0.0, 0.0, 0.0, 0.0, 1.6215957673113332E9, 2021-05-21 13:16:07.311
16.0, 183.08493041992188, 218.84397888183594, -99.97313690185547, 209.1295928955078, 0.03200000151991844, -0.06400000303983688, 1.055999994277954, 0.0, 0.0, 0.0, 0.0, 0.0, 1.6215957673113332E9, 2021-05-21 13:16:07.311
17.0, 202.1210174560547, 240.86451721191406, -69.55652618408203, 224.6427001953125, 0.03200000151991844, -0.06400000303983688, 1.055999994277954, 0.0, 0.0, 0.0, 0.0, 0.0, 1.621595767327046E9, 2021-05-21 13:16:07.327
17.0, 122.23301696777344, 189.81861877441406, -149.7661590576172, 187.86827087402344, 0.03200000151991844, -0.06400000303983688, 1.055999994277954, 0.0, 0.0, 0.0, 0.0, 0.0, 1.621595767327046E9, 2021-05-21 13:16:07.327
18.0, 118.73995208740234, 189.26138305664062, -163.6000518798828, 174.21388244628906, 0.03200000151991844, -0.06400000303983688, 1.055999994277954, 0.0, 0.0, 0.0, 0.0, 0.0, 1.6215957673278873E9, 2021-05-21 13:16:07.327
18.0, 189.50259399414062, 238.65049743652344, -90.15963745117188, 211.4296417236328, 0.03200000151991844, -0.06400000303983688, 1.055999994277954, 0.0, 0.0, 0.0, 0.0, 0.0, 1.6215957673278873E9, 2021-05-21 13:16:07.327
19.0, 192.5618438720703, 235.6249237060547, -75.44313049316406, 214.0400848388672, 0.03200000151991844, -0.06400000303983688, 1.055999994277954, 0.0, 0.0, 0.0, 0.0, 0.0, 1.621595767341437E9, 2021-05-21 13:16:07.341
19.0, 119.83948516845703, 216.2484893798828, -142.71644592285156, 182.60623168945312, 0.03200000151991844, -0.06400000303983688, 1.055999994277954, 0.0, 0.0, 0.0, 0.0, 0.0, 1.621595767341437E9, 2021-05-21 13:16:07.341
20.0, 114.02020263671875, 183.58421325683594, -158.61102294921875, 165.44007873535156, 0.03200000151991844, -0.06400000303983688, 1.055999994277954, 0.0, 0.0, 0.0, 0.0, 0.0, 1.6215957673570592E9, 2021-05-21 13:16:07.357
20.0, 189.52130126953125, 236.30557250976562, -82.28714752197266, 210.33384704589844, 0.03200000151991844, -0.06400000303983688, 1.055999994277954, 0.0, 0.0, 0.0, 0.0, 0.0, 1.6215957673570592E9, 2021-05-21 13:16:07.357
21.0, 196.81410217285156, 240.62142944335938, -73.24781036376953, 211.6166229248047, 0.03200000151991844, -0.06400000303983688, 1.055999994277954, 0.0, 0.0, 0.0, 0.0, 0.0, 1.6215957673577876E9, 2021-05-21 13:16:07.357
21.0, 122.17691802978516, 190.74986267089844, -148.47589111328125, 173.45094299316406, 0.03200000151991844, -0.06400000303983688, 1.055999994277954, 0.0, 0.0, 0.0, 0.0, 0.0, 1.6215957673577876E9, 2021-05-21 13:16:07.357
22.0, 117.55066680908203, 194.0821075439453, -157.88548278808594, 167.35865783691406, 0.03200000151991844, -0.06400000303983688, 1.055999994277954, 0.0, 0.0, 0.0, 0.0, 0.0, 1.6215957673713927E9, 2021-05-21 13:16:07.371
22.0, 186.2002716064453, 237.659423828125, -85.79891204833984, 208.1609649658203, 0.03200000151991844, -0.06400000303983688, 1.055999994277954, 0.0, 0.0, 0.0, 0.0, 0.0, 1.6215957673713927E9, 2021-05-21 13:16:07.371
23.0, 196.3765411376953, 234.49546813964844, -75.15142059326172, 215.56222534179688, 0.03200000151991844, -0.06400000303983688, 1.055999994277954, 0.0, 0.0, 0.0, 0.0, 0.0, 1.621595767387076E9, 2021-05-21 13:16:07.387
23.0, 122.6257095336914, 178.8046112060547, -151.6473388671875, 172.9946746826172, 0.03200000151991844, -0.06400000303983688, 1.055999994277954, 0.0, 0.0, 0.0, 0.0, 0.0, 1.621595767387076E9, 2021-05-21 13:16:07.387
24.0, 117.93587493896484, 189.53439331054688, -162.13027954101562, 167.07815551757812, 0.03200000151991844, -0.06400000303983688, 1.055999994277954, 0.0, 0.0, 0.0, 0.0, 0.0, 1.6215957673877754E9, 2021-05-21 13:16:07.387
24.0, 192.65533447265625, 232.42356872558594, -91.66681671142578, 208.568603515625, 0.03200000151991844, -0.06400000303983688, 1.055999994277954, 0.0, 0.0, 0.0, 0.0, 0.0, 1.6215957673877754E9, 2021-05-21 13:16:07.387
25.0, 191.2341766357422, 224.13967895507812, -79.77767944335938, 208.54617309570312, 0.03200000151991844, -0.06400000303983688, 1.055999994277954, 0.0, 0.0, 0.0, 0.0, 0.0, 1.6215957674013913E9, 2021-05-21 13:16:07.401
25.0, 119.60761260986328, 172.39442443847656, -147.9560546875, 180.78489685058594, 0.03200000151991844, -0.06400000303983688, 1.055999994277954, 0.0, 0.0, 0.0, 0.0, 0.0, 1.6215957674013913E9, 2021-05-21 13:16:07.401
26.0, 117.09066009521484, 180.33798217773438, -155.7462615966797, 180.73252868652344, 0.03200000151991844, -0.06400000303983688, 1.055999994277954, 0.0, 0.0, 0.0, 0.0, 0.0, 1.621595767417254E9, 2021-05-21 13:16:07.417
26.0, 184.3340606689453, 216.70101928710938, -89.48271942138672, 208.95382690429688, 0.03200000151991844, -0.06400000303983688, 1.055999994277954, 0.0, 0.0, 0.0, 0.0, 0.0, 1.621595767417254E9, 2021-05-21 13:16:07.417
27.0, 193.68006896972656, 220.96450805664062, -76.0938720703125, 221.23191833496094, 0.03200000151991844, -0.06400000303983688, 1.055999994277954, 0.0, 0.0, 0.0, 0.0, 0.0, 1.6215957674178543E9, 2021-05-21 13:16:07.417
27.0, 117.47960662841797, 166.02911376953125, -149.42208862304688, 187.1801300048828, 0.03200000151991844, -0.06400000303983688, 1.055999994277954, 0.0, 0.0, 0.0, 0.0, 0.0, 1.6215957674178543E9, 2021-05-21 13:16:07.417
28.0, 111.95203399658203, 169.94105529785156, -156.5166778564453, 178.6531524658203, 0.03200000151991844, -0.06400000303983688, 1.055999994277954, 0.0, 0.0, 0.0, 0.0, 0.0, 1.621595767431484E9, 2021-05-21 13:16:07.431
28.0, 172.8824920654297, 194.8039093017578, -99.81231689453125, 209.90000915527344, 0.03200000151991844, -0.06400000303983688, 1.055999994277954, 0.0, 0.0, 0.0, 0.0, 0.0, 1.621595767431484E9, 2021-05-21 13:16:07.431
29.0, 188.9490966796875, 207.41111755371094, -68.84220886230469, 219.3021240234375, 0.03200000151991844, -0.06400000303983688, 1.055999994277954, 0.0, 0.0, 0.0, 0.0, 0.0, 1.6215957674470994E9, 2021-05-21 13:16:07.447
29.0, 126.21227264404297, 160.06024169921875, -144.5489959716797, 187.0828857421875, 0.03200000151991844, -0.06400000303983688, 1.055999994277954, 0.0, 0.0, 0.0, 0.0, 0.0, 1.6215957674470994E9, 2021-05-21 13:16:07.447
30.0, 106.12901306152344, 155.85659790039062, -169.17623901367188, 176.80563354492188, 0.03200000151991844, -0.06400000303983688, 1.055999994277954, 0.0, 0.0, 0.0, 0.0, 0.0, 1.6215957674479394E9, 2021-05-21 13:16:07.447
30.0, 170.8816375732422, 202.48565673828125, -103.15579223632812, 213.00413513183594, 0.03200000151991844, -0.06400000303983688, 1.055999994277954, 0.0, 0.0, 0.0, 0.0, 0.0, 1.6215957674479394E9, 2021-05-21 13:16:07.447
31.0, 185.90481567382812, 214.090576171875, -81.90941619873047, 221.13467407226562, 0.03200000151991844, -0.06400000303983688, 1.055999994277954, 0.0, 0.0, 0.0, 0.0, 0.0, 1.6215957674614944E9, 2021-05-21 13:16:07.461
31.0, 119.43931579589844, 151.52578735351562, -150.97415161132812, 181.39450073242188, 0.03200000151991844, -0.06400000303983688, 1.055999994277954, 0.0, 0.0, 0.0, 0.0, 0.0, 1.6215957674614944E9, 2021-05-21 13:16:07.461
32.0, 105.65030670166016, 148.98638916015625, -165.60464477539062, 171.7343292236328, 0.03200000151991844, -0.06400000303983688, 1.055999994277954, 0.0, 0.0, 0.0, 0.0, 0.0, 1.6215957674770856E9, 2021-05-21 13:16:07.477
32.0, 181.6862030029297, 192.64971923828125, -100.53785705566406, 216.0708465576172, 0.03200000151991844, -0.06400000303983688, 1.055999994277954, 0.0, 0.0, 0.0, 0.0, 0.0, 1.6215957674770856E9, 2021-05-21 13:16:07.477
33.0, 191.39125061035156, 198.89535522460938, -86.15794372558594, 222.06590270996094, 0.03200000151991844, -0.06400000303983688, 1.055999994277954, 0.0, 0.0, 0.0, 0.0, 0.0, 1.6215957674778287E9, 2021-05-21 13:16:07.477
33.0, 116.00608825683594, 156.17074584960938, -151.92782592773438, 190.18325805664062, 0.03200000151991844, -0.06400000303983688, 1.055999994277954, 0.0, 0.0, 0.0, 0.0, 0.0, 1.6215957674778287E9, 2021-05-21 13:16:07.477
34.0, 110.01102447509766, 151.24530029296875, -162.50799560546875, 180.87464904785156, 0.03200000151991844, -0.06400000303983688, 1.055999994277954, 0.0, 0.0, 0.0, 0.0, 0.0, 1.6215957674913816E9, 2021-05-21 13:16:07.491
34.0, 176.98141479492188, 188.12818908691406, -94.69239807128906, 213.69227600097656, 0.03200000151991844, -0.06400000303983688, 1.055999994277954, 0.0, 0.0, 0.0, 0.0, 0.0, 1.6215957674913816E9, 2021-05-21 13:16:07.491
35.0, 185.24659729003906, 195.63043212890625, -72.73170471191406, 223.88723754882812, 0.03200000151991844, -0.06400000303983688, 1.055999994277954, 0.0, 0.0, 0.0, 0.0, 0.0, 1.6215957675070553E9, 2021-05-21 13:16:07.507
35.0, 118.63897705078125, 144.28907775878906, -151.3331756591797, 192.640380859375, 0.03200000151991844, -0.06400000303983688, 1.055999994277954, 0.0, 0.0, 0.0, 0.0, 0.0, 1.6215957675070553E9, 2021-05-21 13:16:07.507
36.0, 112.9094467163086, 144.15444946289062, -166.4872589111328, 180.59042358398438, 0.03200000151991844, -0.06400000303983688, 1.055999994277954, 0.0, 0.0, 0.0, 0.0, 0.0, 1.621595767507812E9, 2021-05-21 13:16:07.507
36.0, 176.4391326904297, 196.71499633789062, -101.065185546875, 213.61000061035156, 0.03200000151991844, -0.06400000303983688, 1.055999994277954, 0.0, 0.0, 0.0, 0.0, 0.0, 1.621595767507812E9, 2021-05-21 13:16:07.507
37.0, 189.6260223388672, 184.63885498046875, -77.36544036865234, 224.96058654785156, 0.03200000151991844, -0.06400000303983688, 1.055999994277954, 0.0, 0.0, 0.0, 0.0, 0.0, 1.6215957675215173E9, 2021-05-21 13:16:07.521
37.0, 115.04867553710938, 145.4447021484375, -156.96173095703125, 180.86343383789062, 0.03200000151991844, -0.06400000303983688, 1.055999994277954, 0.0, 0.0, 0.0, 0.0, 0.0, 1.6215957675215173E9, 2021-05-21 13:16:07.521
38.0, 110.94974517822266, 134.69248962402344, -164.80804443359375, 180.4782257080078, 0.03200000151991844, -0.06400000303983688, 1.055999994277954, 0.0, 0.0, 0.0, 0.0, 0.0, 1.6215957675370915E9, 2021-05-21 13:16:07.537
38.0, 170.00650024414062, 182.47720336914062, -103.17823028564453, 211.68020629882812, 0.03200000151991844, -0.06400000303983688, 1.055999994277954, 0.0, 0.0, 0.0, 0.0, 0.0, 1.6215957675370915E9, 2021-05-21 13:16:07.537
39.0, 182.99891662597656, 189.1155242919922, -89.75199127197266, 218.67381286621094, 0.03200000151991844, -0.06400000303983688, 1.055999994277954, 0.0, 0.0, 0.0, 0.0, 0.0, 1.6215957675378013E9, 2021-05-21 13:16:07.537
39.0, 113.45173645019531, 138.9559783935547, -160.73902893066406, 189.67837524414062, 0.03200000151991844, -0.06400000303983688, 1.055999994277954, 0.0, 0.0, 0.0, 0.0, 0.0, 1.6215957675378013E9, 2021-05-21 13:16:07.537
40.0, 111.08811950683594, 135.69479370117188, -168.2188262939453, 178.15948486328125, 0.03200000151991844, -0.06400000303983688, 1.055999994277954, 0.0, 0.0, 0.0, 0.0, 0.0, 1.6215957675514233E9, 2021-05-21 13:16:07.551
40.0, 180.83351135253906, 178.19126892089844, -104.52459716796875, 215.693115234375, 0.03200000151991844, -0.06400000303983688, 1.055999994277954, 0.0, 0.0, 0.0, 0.0, 0.0, 1.6215957675514233E9, 2021-05-21 13:16:07.551
41.0, 188.16371154785156, 182.21914672851562, -86.73388671875, 223.92837524414062, 0.03200000151991844, -0.06400000303983688, 1.055999994277954, 0.0, 0.0, 0.0, 0.0, 0.0, 1.6215957675671415E9, 2021-05-21 13:16:07.567
41.0, 118.17523193359375, 135.3170623779297, -159.83396911621094, 189.13235473632812, 0.03200000151991844, -0.06400000303983688, 1.055999994277954, 0.0, 0.0, 0.0, 0.0, 0.0, 1.6215957675671415E9, 2021-05-21 13:16:07.567
42.0, 116.94853973388672, 136.78683471679688, -170.5899200439453, 181.1177520751953, 0.03200000151991844, -0.06400000303983688, 1.055999994277954, 0.0, 0.0, 0.0, 0.0, 0.0, 1.6215957675678413E9, 2021-05-21 13:16:07.567
42.0, 178.53347778320312, 171.67262268066406, -104.53207397460938, 216.65802001953125, 0.03200000151991844, -0.06400000303983688, 1.055999994277954, 0.0, 0.0, 0.0, 0.0, 0.0, 1.6215957675678413E9, 2021-05-21 13:16:07.567
43.0, 197.49102783203125, 191.50531005859375, -82.18991088867188, 229.54571533203125, 0.03200000151991844, -0.06400000303983688, 1.055999994277954, 0.0, 0.0, 0.0, 0.0, 0.0, 1.6215957675814595E9, 2021-05-21 13:16:07.581
43.0, 115.3366470336914, 132.20919799804688, -159.6133270263672, 183.9338836669922, 0.03200000151991844, -0.06400000303983688, 1.055999994277954, 0.0, 0.0, 0.0, 0.0, 0.0, 1.6215957675814595E9, 2021-05-21 13:16:07.581
44.0, 114.42784881591797, 133.43589782714844, -166.93978881835938, 182.85305786132812, 0.03200000151991844, -0.06400000303983688, 1.055999994277954, 0.0, 0.0, 0.0, 0.0, 0.0, 1.6215957676134849E9, 2021-05-21 13:16:07.613
44.0, 174.51681518554688, 177.8771209716797, -102.4489517211914, 210.3974151611328, 0.03200000151991844, -0.06400000303983688, 1.055999994277954, 0.0, 0.0, 0.0, 0.0, 0.0, 1.6215957676134849E9, 2021-05-21 13:16:07.613
45.0, 186.55181884765625, 192.634765625, -86.146728515625, 222.46981811523438, 0.03200000151991844, -0.06400000303983688, 1.055999994277954, 0.0, 0.0, 0.0, 0.0, 0.0, 1.6215957676142688E9, 2021-05-21 13:16:07.614
45.0, 112.53919982910156, 138.5520782470703, -166.25912475585938, 184.28170776367188, 0.03200000151991844, -0.06400000303983688, 1.055999994277954, 0.0, 0.0, 0.0, 0.0, 0.0, 1.6215957676142688E9, 2021-05-21 13:16:07.614
46.0, 110.42989349365234, 142.9127960205078, -170.9676513671875, 180.2164306640625, 0.03200000151991844, -0.06400000303983688, 1.055999994277954, 0.0, 0.0, 0.0, 0.0, 0.0, 1.6215957676149433E9, 2021-05-21 13:16:07.614
46.0, 178.75038146972656, 196.7037811279297, -102.931396484375, 211.38475036621094, 0.03200000151991844, -0.06400000303983688, 1.055999994277954, 0.0, 0.0, 0.0, 0.0, 0.0, 1.6215957676149433E9, 2021-05-21 13:16:07.614
47.0, 188.0178680419922, 188.5246124267578, -87.0555191040039, 221.99110412597656, 0.03200000151991844, -0.06400000303983688, 1.055999994277954, 0.0, 0.0, 0.0, 0.0, 0.0, 1.621595767615668E9, 2021-05-21 13:16:07.615
47.0, 115.34786224365234, 144.1394805908203, -157.04026794433594, 185.8412322998047, 0.03200000151991844, -0.06400000303983688, 1.055999994277954, 0.0, 0.0, 0.0, 0.0, 0.0, 1.621595767615668E9, 2021-05-21 13:16:07.615
48.0, 112.66261291503906, 140.27243041992188, -166.008544921875, 181.02798461914062, 0.03200000151991844, -0.06400000303983688, 1.055999994277954, 0.0, 0.0, 0.0, 0.0, 0.0, 1.6215957676264064E9, 2021-05-21 13:16:07.626
48.0, 178.9486083984375, 185.5476531982422, -108.5524673461914, 209.09219360351562, 0.03200000151991844, -0.06400000303983688, 1.055999994277954, 0.0, 0.0, 0.0, 0.0, 0.0, 1.6215957676264064E9, 2021-05-21 13:16:07.626
49.0, 194.60755920410156, 194.254150390625, -84.69190216064453, 228.10211181640625, 0.03200000151991844, -0.06400000303983688, 1.055999994277954, 0.0, 0.0, 0.0, 0.0, 0.0, 1.621595767641364E9, 2021-05-21 13:16:07.641
49.0, 112.60277557373047, 135.6461639404297, -165.14089965820312, 181.05043029785156, 0.03200000151991844, -0.06400000303983688, 1.055999994277954, 0.0, 0.0, 0.0, 0.0, 0.0, 1.621595767641364E9, 2021-05-21 13:16:07.641
50.0, 119.52159118652344, 141.36447143554688, -165.61585998535156, 173.82867431640625, 0.03200000151991844, -0.06400000303983688, 1.055999994277954, 0.0, 0.0, 0.0, 0.0, 0.0, 1.6215957676571956E9, 2021-05-21 13:16:07.657
50.0, 174.81600952148438, 186.09368896484375, -98.80628967285156, 211.9195556640625, 0.03200000151991844, -0.06400000303983688, 1.055999994277954, 0.0, 0.0, 0.0, 0.0, 0.0, 1.6215957676571956E9, 2021-05-21 13:16:07.657
51.0, 185.0970001220703, 187.4288330078125, -80.98192596435547, 223.65162658691406, 0.03200000151991844, -0.06400000303983688, 1.055999994277954, 0.0, 0.0, 0.0, 0.0, 0.0, 1.6215957676578877E9, 2021-05-21 13:16:07.657
51.0, 114.2333755493164, 161.3392791748047, -156.29603576660156, 184.01991271972656, 0.03200000151991844, -0.06400000303983688, 1.055999994277954, 0.0, 0.0, 0.0, 0.0, 0.0, 1.6215957676578877E9, 2021-05-21 13:16:07.657
52.0, 118.5080795288086, 138.05093383789062, -169.63250732421875, 183.3916015625, 0.03200000151991844, -0.06400000303983688, 1.055999994277954, 0.0, 0.0, 0.0, 0.0, 0.0, 1.6215957676716084E9, 2021-05-21 13:16:07.671
52.0, 175.5078887939453, 180.27813720703125, -109.66321563720703, 208.2245330810547, 0.03200000151991844, -0.06400000303983688, 1.055999994277954, 0.0, 0.0, 0.0, 0.0, 0.0, 1.6215957676716084E9, 2021-05-21 13:16:07.671
53.0, 191.16685485839844, 190.37960815429688, -74.14164733886719, 223.43096923828125, 0.03200000151991844, -0.06400000303983688, 1.055999994277954, 0.0, 0.0, 0.0, 0.0, 0.0, 1.6215957676871257E9, 2021-05-21 13:16:07.687
53.0, 122.67433166503906, 146.54049682617188, -152.8590545654297, 182.05271911621094, 0.03200000151991844, -0.06400000303983688, 1.055999994277954, 0.0, 0.0, 0.0, 0.0, 0.0, 1.6215957676871257E9, 2021-05-21 13:16:07.687
54.0, 106.4244613647461, 147.2772674560547, -171.442626953125, 176.83929443359375, 0.03200000151991844, -0.06400000303983688, 1.055999994277954, 0.0, 0.0, 0.0, 0.0, 0.0, 1.6215957676878932E9, 2021-05-21 13:16:07.687
54.0, 172.51971435546875, 185.08016967773438, -109.46126556396484, 209.06227111816406, 0.03200000151991844, -0.06400000303983688, 1.055999994277954, 0.0, 0.0, 0.0, 0.0, 0.0, 1.6215957676878932E9, 2021-05-21 13:16:07.687
55.0, 184.7978057861328, 196.1502685546875, -83.31562042236328, 218.1614532470703, 0.03200000151991844, -0.06400000303983688, 1.055999994277954, 0.0, 0.0, 0.0, 0.0, 0.0, 1.6215957677014453E9, 2021-05-21 13:16:07.701
55.0, 119.81704711914062, 146.57415771484375, -155.91830444335938, 184.54348754882812, 0.03200000151991844, -0.06400000303983688, 1.055999994277954, 0.0, 0.0, 0.0, 0.0, 0.0, 1.6215957677014453E9, 2021-05-21 13:16:07.701
56.0, 111.54812622070312, 145.239013671875, -171.19578552246094, 179.6180419921875, 0.03200000151991844, -0.06400000303983688, 1.055999994277954, 0.0, 0.0, 0.0, 0.0, 0.0, 1.621595767717848E9, 2021-05-21 13:16:07.717
56.0, 175.70611572265625, 198.40542602539062, -103.6756362915039, 209.9822998046875, 0.03200000151991844, -0.06400000303983688, 1.055999994277954, 0.0, 0.0, 0.0, 0.0, 0.0, 1.621595767717848E9, 2021-05-21 13:16:07.717
57.0, 184.22560119628906, 191.6623992919922, -84.7255630493164, 224.3809051513672, 0.03200000151991844, -0.06400000303983688, 1.055999994277954, 0.0, 0.0, 0.0, 0.0, 0.0, 1.6215957677185965E9, 2021-05-21 13:16:07.718
57.0, 118.29490661621094, 147.43434143066406, -159.07476806640625, 186.865966796875, 0.03200000151991844, -0.06400000303983688, 1.055999994277954, 0.0, 0.0, 0.0, 0.0, 0.0, 1.6215957677185965E9, 2021-05-21 13:16:07.718
58.0, 110.52339172363281, 141.6449737548828, -172.8712615966797, 176.80563354492188, 0.03200000151991844, -0.06400000303983688, 1.055999994277954, 0.0, 0.0, 0.0, 0.0, 0.0, 1.6215957677313244E9, 2021-05-21 13:16:07.731
58.0, 175.28724670410156, 188.1431427001953, -103.05107116699219, 205.857177734375, 0.03200000151991844, -0.06400000303983688, 1.055999994277954, 0.0, 0.0, 0.0, 0.0, 0.0, 1.6215957677313244E9, 2021-05-21 13:16:07.731
59.0, 194.51780700683594, 191.8269500732422, -85.04345703125, 219.09268188476562, 0.03200000151991844, -0.06400000303983688, 1.055999994277954, 0.0, 0.0, 0.0, 0.0, 0.0, 1.6215957677471392E9, 2021-05-21 13:16:07.747
59.0, 116.70170593261719, 146.48440551757812, -155.19650268554688, 180.1304168701172, 0.03200000151991844, -0.06400000303983688, 1.055999994277954, 0.0, 0.0, 0.0, 0.0, 0.0, 1.6215957677471392E9, 2021-05-21 13:16:07.747
60.0, 108.48514556884766, 143.74305725097656, -174.0194091796875, 177.041259765625, 0.03200000151991844, -0.06400000303983688, 1.055999994277954, 0.0, 0.0, 0.0, 0.0, 0.0, 1.621595767747932E9, 2021-05-21 13:16:07.747
60.0, 173.72023010253906, 192.62728881835938, -103.14083099365234, 209.07723999023438, 0.03200000151991844, -0.06400000303983688, 1.055999994277954, 0.0, 0.0, 0.0, 0.0, 0.0, 1.621595767747932E9, 2021-05-21 13:16:07.747
61.0, 185.09326171875, 192.82923889160156, -87.40333557128906, 214.87782287597656, 0.03200000151991844, -0.06400000303983688, 1.055999994277954, 0.0, 0.0, 0.0, 0.0, 0.0, 1.6215957677614348E9, 2021-05-21 13:16:07.761
61.0, 112.3447265625, 153.0030517578125, -161.0868377685547, 180.20895385742188, 0.03200000151991844, -0.06400000303983688, 1.055999994277954, 0.0, 0.0, 0.0, 0.0, 0.0, 1.6215957677614348E9, 2021-05-21 13:16:07.761
62.0, 110.55331420898438, 151.0882110595703, -168.65640258789062, 173.24151611328125, 0.03200000151991844, -0.06400000303983688, 1.055999994277954, 0.0, 0.0, 0.0, 0.0, 0.0, 1.6215957677770233E9, 2021-05-21 13:16:07.777
62.0, 173.0956573486328, 192.01394653320312, -100.54907989501953, 206.13768005371094, 0.03200000151991844, -0.06400000303983688, 1.055999994277954, 0.0, 0.0, 0.0, 0.0, 0.0, 1.6215957677770233E9, 2021-05-21 13:16:07.777
63.0, 186.42092895507812, 199.74806213378906, -84.16083526611328, 214.89651489257812, 0.03200000151991844, -0.06400000303983688, 1.055999994277954, 0.0, 0.0, 0.0, 0.0, 0.0, 1.621595767777737E9, 2021-05-21 13:16:07.777
63.0, 108.77686309814453, 155.5125274658203, -165.08853149414062, 177.61720275878906, 0.03200000151991844, -0.06400000303983688, 1.055999994277954, 0.0, 0.0, 0.0, 0.0, 0.0, 1.621595767777737E9, 2021-05-21 13:16:07.777
64.0, 111.5593490600586, 150.31405639648438, -174.8721160888672, 172.71044921875, 0.03200000151991844, -0.06400000303983688, 1.055999994277954, 0.0, 0.0, 0.0, 0.0, 0.0, 1.6215957677914052E9, 2021-05-21 13:16:07.791
64.0, 180.82603454589844, 194.8787078857422, -108.29815673828125, 206.60890197753906, 0.03200000151991844, -0.06400000303983688, 1.055999994277954, 0.0, 0.0, 0.0, 0.0, 0.0, 1.6215957677914052E9, 2021-05-21 13:16:07.791
65.0, 192.5057373046875, 192.15606689453125, -88.91051483154297, 218.7860107421875, 0.03200000151991844, -0.06400000303983688, 1.055999994277954, 0.0, 0.0, 0.0, 0.0, 0.0, 1.6215957678070316E9, 2021-05-21 13:16:07.807
65.0, 123.41857147216797, 151.64920043945312, -164.64723205566406, 182.98020935058594, 0.03200000151991844, -0.06400000303983688, 1.055999994277954, 0.0, 0.0, 0.0, 0.0, 0.0, 1.6215957678070316E9, 2021-05-21 13:16:07.807
66.0, 115.15338897705078, 150.04852294921875, -171.32669067382812, 178.87380981445312, 0.03200000151991844, -0.06400000303983688, 1.055999994277954, 0.0, 0.0, 0.0, 0.0, 0.0, 1.6215957678077614E9, 2021-05-21 13:16:07.807
66.0, 187.83834838867188, 191.72222900390625, -104.7377700805664, 215.3677520751953, 0.03200000151991844, -0.06400000303983688, 1.055999994277954, 0.0, 0.0, 0.0, 0.0, 0.0, 1.6215957678077614E9, 2021-05-21 13:16:07.807
67.0, 193.2275390625, 196.1951446533203, -91.77527618408203, 218.8421173095703, 0.03200000151991844, -0.06400000303983688, 1.055999994277954, 0.0, 0.0, 0.0, 0.0, 0.0, 1.621595767821409E9, 2021-05-21 13:16:07.821
67.0, 123.19791412353516, 144.6107177734375, -161.9844207763672, 179.18421936035156, 0.03200000151991844, -0.06400000303983688, 1.055999994277954, 0.0, 0.0, 0.0, 0.0, 0.0, 1.621595767821409E9, 2021-05-21 13:16:07.821
68.0, 110.77396392822266, 148.18605041503906, -178.83267211914062, 174.2774658203125, 0.03200000151991844, -0.06400000303983688, 1.055999994277954, 0.0, 0.0, 0.0, 0.0, 0.0, 1.621595767837157E9, 2021-05-21 13:16:07.837
68.0, 174.60658264160156, 191.7858123779297, -109.33784484863281, 209.45497131347656, 0.03200000151991844, -0.06400000303983688, 1.055999994277954, 0.0, 0.0, 0.0, 0.0, 0.0, 1.621595767837157E9, 2021-05-21 13:16:07.837
69.0, 186.4844970703125, 197.0328826904297, -92.91968536376953, 218.8234100341797, 0.03200000151991844, -0.06400000303983688, 1.055999994277954, 0.0, 0.0, 0.0, 0.0, 0.0, 1.6215957678378632E9, 2021-05-21 13:16:07.837
69.0, 113.72474670410156, 151.9857940673828, -167.14547729492188, 180.62408447265625, 0.03200000151991844, -0.06400000303983688, 1.055999994277954, 0.0, 0.0, 0.0, 0.0, 0.0, 1.6215957678378632E9, 2021-05-21 13:16:07.837
70.0, 109.27800750732422, 149.9400634765625, -170.47024536132812, 181.34588623046875, 0.03200000151991844, -0.06400000303983688, 1.055999994277954, 0.0, 0.0, 0.0, 0.0, 0.0, 1.6215957678514917E9, 2021-05-21 13:16:07.851
70.0, 177.10482788085938, 188.1955108642578, -112.60651397705078, 208.5835723876953, 0.03200000151991844, -0.06400000303983688, 1.055999994277954, 0.0, 0.0, 0.0, 0.0, 0.0, 1.6215957678514917E9, 2021-05-21 13:16:07.851
71.0, 185.175537109375, 206.0310821533203, -91.83511352539062, 217.46957397460938, 0.03200000151991844, -0.06400000303983688, 1.055999994277954, 0.0, 0.0, 0.0, 0.0, 0.0, 1.6215957678672028E9, 2021-05-21 13:16:07.867
71.0, 104.34507751464844, 155.78553771972656, -163.56639099121094, 175.45179748535156, 0.03200000151991844, -0.06400000303983688, 1.055999994277954, 0.0, 0.0, 0.0, 0.0, 0.0, 1.6215957678672028E9, 2021-05-21 13:16:07.867
72.0, 105.19029235839844, 161.83668518066406, -168.8920135498047, 172.80020141601562, 0.03200000151991844, -0.06400000303983688, 1.055999994277954, 0.0, 0.0, 0.0, 0.0, 0.0, 1.6215957678679292E9, 2021-05-21 13:16:07.867
72.0, 176.87295532226562, 204.0938262939453, -99.99931335449219, 209.47740173339844, 0.03200000151991844, -0.06400000303983688, 1.055999994277954, 0.0, 0.0, 0.0, 0.0, 0.0, 1.6215957678679292E9, 2021-05-21 13:16:07.867
73.0, 184.16201782226562, 197.85940551757812, -89.18726348876953, 206.14515686035156, 0.03200000151991844, -0.06400000303983688, 1.055999994277954, 0.0, 0.0, 0.0, 0.0, 0.0, 1.6215957678813767E9, 2021-05-21 13:16:07.881
73.0, 119.97038269042969, 160.6361846923828, -160.93724060058594, 181.09156799316406, 0.03200000151991844, -0.06400000303983688, 1.055999994277954, 0.0, 0.0, 0.0, 0.0, 0.0, 1.6215957678813767E9, 2021-05-21 13:16:07.881
74.0, 116.44365692138672, 146.56668090820312, -170.9227752685547, 176.59620666503906, 0.03200000151991844, -0.06400000303983688, 1.055999994277954, 0.0, 0.0, 0.0, 0.0, 0.0, 1.6215957678972318E9, 2021-05-21 13:16:07.897
74.0, 184.97732543945312, 195.37611389160156, -102.931396484375, 207.11378479003906, 0.03200000151991844, -0.06400000303983688, 1.055999994277954, 0.0, 0.0, 0.0, 0.0, 0.0, 1.6215957678972318E9, 2021-05-21 13:16:07.897
75.0, 190.3777313232422, 197.130126953125, -89.90532684326172, 217.54437255859375, 0.03200000151991844, -0.06400000303983688, 1.055999994277954, 0.0, 0.0, 0.0, 0.0, 0.0, 1.6215957678979807E9, 2021-05-21 13:16:07.897
75.0, 123.1492919921875, 144.37509155273438, -162.38458251953125, 176.93653869628906, 0.03200000151991844, -0.06400000303983688, 1.055999994277954, 0.0, 0.0, 0.0, 0.0, 0.0, 1.6215957678979807E9, 2021-05-21 13:16:07.897
76.0, 115.71063232421875, 152.67767333984375, -172.4972686767578, 174.47567749023438, 0.03200000151991844, -0.06400000303983688, 1.055999994277954, 0.0, 0.0, 0.0, 0.0, 0.0, 1.6215957679113276E9, 2021-05-21 13:16:07.911
76.0, 183.28688049316406, 192.15231323242188, -97.68805694580078, 209.3390350341797, 0.03200000151991844, -0.06400000303983688, 1.055999994277954, 0.0, 0.0, 0.0, 0.0, 0.0, 1.6215957679113276E9, 2021-05-21 13:16:07.911
77.0, 188.41802978515625, 193.4538116455078, -81.01932525634766, 217.40599060058594, 0.03200000151991844, -0.06400000303983688, 1.055999994277954, 0.0, 0.0, 0.0, 0.0, 0.0, 1.621595767927134E9, 2021-05-21 13:16:07.927
77.0, 115.26932525634766, 152.55426025390625, -155.4059295654297, 181.05043029785156, 0.03200000151991844, -0.06400000303983688, 1.055999994277954, 0.0, 0.0, 0.0, 0.0, 0.0, 1.621595767927134E9, 2021-05-21 13:16:07.927
78.0, 110.99088287353516, 148.03271484375, -166.75279235839844, 171.45384216308594, 0.03200000151991844, -0.06400000303983688, 1.055999994277954, 0.0, 0.0, 0.0, 0.0, 0.0, 1.621595767927848E9, 2021-05-21 13:16:07.927
78.0, 179.14308166503906, 195.33123779296875, -98.61180877685547, 208.09738159179688, 0.03200000151991844, -0.06400000303983688, 1.055999994277954, 0.0, 0.0, 0.0, 0.0, 0.0, 1.621595767927848E9, 2021-05-21 13:16:07.927
79.0, 195.2134246826172, 197.10394287109375, -78.13960266113281, 218.61398315429688, 0.03200000151991844, -0.06400000303983688, 1.055999994277954, 0.0, 0.0, 0.0, 0.0, 0.0, 1.6215957679413402E9, 2021-05-21 13:16:07.941
79.0, 119.06906127929688, 161.27944946289062, -156.10154724121094, 179.1954345703125, 0.03200000151991844, -0.06400000303983688, 1.055999994277954, 0.0, 0.0, 0.0, 0.0, 0.0, 1.6215957679413402E9, 2021-05-21 13:16:07.941
80.0, 116.32023620605469, 146.00942993164062, -169.72227478027344, 176.02774047851562, 0.03200000151991844, -0.06400000303983688, 1.055999994277954, 0.0, 0.0, 0.0, 0.0, 0.0, 1.6215957679571736E9, 2021-05-21 13:16:07.957
80.0, 174.48316955566406, 185.61871337890625, -101.21478271484375, 198.03704833984375, 0.03200000151991844, -0.06400000303983688, 1.055999994277954, 0.0, 0.0, 0.0, 0.0, 0.0, 1.6215957679571736E9, 2021-05-21 13:16:07.957
81.0, 198.650390625, 201.5058135986328, -71.80795288085938, 221.0486602783203, 0.03200000151991844, -0.06400000303983688, 1.055999994277954, 0.0, 0.0, 0.0, 0.0, 0.0, 1.62159576795795E9, 2021-05-21 13:16:07.957
81.0, 129.9484405517578, 153.31346130371094, -148.28515625, 180.75123596191406, 0.03200000151991844, -0.06400000303983688, 1.055999994277954, 0.0, 0.0, 0.0, 0.0, 0.0, 1.62159576795795E9, 2021-05-21 13:16:07.957
82.0, 120.91283416748047, 152.9918212890625, -169.47169494628906, 167.33995056152344, 0.03200000151991844, -0.06400000303983688, 1.055999994277954, 0.0, 0.0, 0.0, 0.0, 0.0, 1.6215957679715483E9, 2021-05-21 13:16:07.971
82.0, 186.03945922851562, 187.55224609375, -101.25965881347656, 203.73666381835938, 0.03200000151991844, -0.06400000303983688, 1.055999994277954, 0.0, 0.0, 0.0, 0.0, 0.0, 1.6215957679715483E9, 2021-05-21 13:16:07.971
83.0, 199.248779296875, 206.09840393066406, -76.68852233886719, 215.0648193359375, 0.03200000151991844, -0.06400000303983688, 1.055999994277954, 0.0, 0.0, 0.0, 0.0, 0.0, 1.6215957679871256E9, 2021-05-21 13:16:07.987
83.0, 118.25376892089844, 150.156982421875, -162.3172607421875, 169.411865234375, 0.03200000151991844, -0.06400000303983688, 1.055999994277954, 0.0, 0.0, 0.0, 0.0, 0.0, 1.6215957679871256E9, 2021-05-21 13:16:07.987
84.0, 118.4295425415039, 154.98519897460938, -158.02760314941406, 172.6693115234375, 0.03200000151991844, -0.06400000303983688, 1.055999994277954, 0.0, 0.0, 0.0, 0.0, 0.0, 1.6215957679879615E9, 2021-05-21 13:16:07.987
84.0, 179.94715881347656, 192.99005126953125, -101.5064926147461, 201.2122344970703, 0.03200000151991844, -0.06400000303983688, 1.055999994277954, 0.0, 0.0, 0.0, 0.0, 0.0, 1.6215957679879615E9, 2021-05-21 13:16:07.987
85.0, 190.5198516845703, 204.7183837890625, -80.66777038574219, 219.5639190673828, 0.03200000151991844, -0.06400000303983688, 1.055999994277954, 0.0, 0.0, 0.0, 0.0, 0.0, 1.6215957680014827E9, 2021-05-21 13:16:08.001
85.0, 122.33773803710938, 166.93417358398438, -152.58604431152344, 183.66835021972656, 0.03200000151991844, -0.06400000303983688, 1.055999994277954, 0.0, 0.0, 0.0, 0.0, 0.0, 1.6215957680014827E9, 2021-05-21 13:16:08.001
86.0, 111.83609771728516, 143.77297973632812, -169.96910095214844, 171.30050659179688, 0.03200000151991844, -0.06400000303983688, 1.055999994277954, 0.0, 0.0, 0.0, 0.0, 0.0, 1.6215957680170631E9, 2021-05-21 13:16:08.017
86.0, 176.09132385253906, 192.98257446289062, -109.56971740722656, 204.55569458007812, 0.03200000151991844, -0.06400000303983688, 1.055999994277954, 0.0, 0.0, 0.0, 0.0, 0.0, 1.6215957680170631E9, 2021-05-21 13:16:08.017
87.0, 190.5572509765625, 197.68362426757812, -82.69105529785156, 218.8421173095703, 0.03200000151991844, -0.06400000303983688, 1.055999994277954, 0.0, 0.0, 0.0, 0.0, 0.0, 1.621595768017922E9, 2021-05-21 13:16:08.017
87.0, 121.40650177001953, 154.4840545654297, -155.70138549804688, 182.15370178222656, 0.03200000151991844, -0.06400000303983688, 1.055999994277954, 0.0, 0.0, 0.0, 0.0, 0.0, 1.621595768017922E9, 2021-05-21 13:16:08.017
88.0, 115.91632843017578, 152.33734130859375, -173.88104248046875, 170.5188751220703, 0.03200000151991844, -0.06400000303983688, 1.055999994277954, 0.0, 0.0, 0.0, 0.0, 0.0, 1.6215957680315173E9, 2021-05-21 13:16:08.031
88.0, 183.63844299316406, 201.29263305664062, -103.04733276367188, 209.02113342285156, 0.03200000151991844, -0.06400000303983688, 1.055999994277954, 0.0, 0.0, 0.0, 0.0, 0.0, 1.6215957680315173E9, 2021-05-21 13:16:08.031
89.0, 197.36387634277344, 195.63043212890625, -88.54774475097656, 213.30332946777344, 0.03200000151991844, -0.06400000303983688, 1.055999994277954, 0.0, 0.0, 0.0, 0.0, 0.0, 1.621595768047073E9, 2021-05-21 13:16:08.047
89.0, 119.02044677734375, 152.41213989257812, -163.40931701660156, 177.90516662597656, 0.03200000151991844, -0.06400000303983688, 1.055999994277954, 0.0, 0.0, 0.0, 0.0, 0.0, 1.621595768047073E9, 2021-05-21 13:16:08.047
90.0, 110.63932800292969, 157.64051818847656, -171.16961669921875, 167.1978302001953, 0.03200000151991844, -0.06400000303983688, 1.055999994277954, 0.0, 0.0, 0.0, 0.0, 0.0, 1.62159576804779E9, 2021-05-21 13:16:08.047
90.0, 180.257568359375, 193.42388916015625, -107.07894897460938, 199.2936553955078, 0.03200000151991844, -0.06400000303983688, 1.055999994277954, 0.0, 0.0, 0.0, 0.0, 0.0, 1.62159576804779E9, 2021-05-21 13:16:08.047
91.0, 192.86477661132812, 203.5290985107422, -86.53941345214844, 214.78807067871094, 0.03200000151991844, -0.06400000303983688, 1.055999994277954, 0.0, 0.0, 0.0, 0.0, 0.0, 1.621595768061368E9, 2021-05-21 13:16:08.061
91.0, 119.3121566772461, 158.47825622558594, -161.88343811035156, 176.37554931640625, 0.03200000151991844, -0.06400000303983688, 1.055999994277954, 0.0, 0.0, 0.0, 0.0, 0.0, 1.621595768061368E9, 2021-05-21 13:16:08.061
92.0, 112.84213256835938, 156.22683715820312, -174.0755157470703, 171.85775756835938, 0.03200000151991844, -0.06400000303983688, 1.055999994277954, 0.0, 0.0, 0.0, 0.0, 0.0, 1.621595768077464E9, 2021-05-21 13:16:08.077
92.0, 178.215576171875, 193.98861694335938, -103.75043487548828, 202.3379364013672, 0.03200000151991844, -0.06400000303983688, 1.055999994277954, 0.0, 0.0, 0.0, 0.0, 0.0, 1.621595768077464E9, 2021-05-21 13:16:08.077
93.0, 190.433837890625, 203.73104858398438, -84.39271545410156, 218.5840606689453, 0.03200000151991844, -0.06400000303983688, 1.055999994277954, 0.0, 0.0, 0.0, 0.0, 0.0, 1.6215957680921323E9, 2021-05-21 13:16:08.092
93.0, 119.22614288330078, 159.46185302734375, -153.22930908203125, 180.20895385742188, 0.03200000151991844, -0.06400000303983688, 1.055999994277954, 0.0, 0.0, 0.0, 0.0, 0.0, 1.6215957680921323E9, 2021-05-21 13:16:08.092
94.0, 120.61363983154297, 159.0280303955078, -170.44407653808594, 174.72625732421875, 0.03200000151991844, -0.06400000303983688, 1.055999994277954, 0.0, 0.0, 0.0, 0.0, 0.0, 1.6215957680929308E9, 2021-05-21 13:16:08.092
94.0, 175.3769989013672, 196.34100341796875, -107.43049621582031, 201.0364532470703, 0.03200000151991844, -0.06400000303983688, 1.055999994277954, 0.0, 0.0, 0.0, 0.0, 0.0, 1.6215957680929308E9, 2021-05-21 13:16:08.092
95.0, 195.62107849121094, 206.63694763183594, -77.22706604003906, 218.08665466308594, 0.03200000151991844, -0.06400000303983688, 1.055999994277954, 0.0, 0.0, 0.0, 0.0, 0.0, 1.6215957681071277E9, 2021-05-21 13:16:08.107
95.0, 122.767822265625, 164.98568725585938, -152.1484832763672, 183.17843627929688, 0.03200000151991844, -0.06400000303983688, 1.055999994277954, 0.0, 0.0, 0.0, 0.0, 0.0, 1.6215957681071277E9, 2021-05-21 13:16:08.107
96.0, 117.0270767211914, 154.15493774414062, -161.9096221923828, 180.4258575439453, 0.03200000151991844, -0.06400000303983688, 1.055999994277954, 0.0, 0.0, 0.0, 0.0, 0.0, 1.621595768107794E9, 2021-05-21 13:16:08.107
96.0, 175.02919006347656, 192.09996032714844, -107.34822082519531, 195.58741760253906, 0.03200000151991844, -0.06400000303983688, 1.055999994277954, 0.0, 0.0, 0.0, 0.0, 0.0, 1.621595768107794E9, 2021-05-21 13:16:08.107
97.0, 202.0050811767578, 203.34210205078125, -78.47618865966797, 211.00328063964844, 0.03200000151991844, -0.06400000303983688, 1.055999994277954, 0.0, 0.0, 0.0, 0.0, 0.0, 1.6215957681215594E9, 2021-05-21 13:16:08.121
97.0, 128.94239807128906, 155.5424346923828, -149.11167907714844, 181.64132690429688, 0.03200000151991844, -0.06400000303983688, 1.055999994277954, 0.0, 0.0, 0.0, 0.0, 0.0, 1.6215957681215594E9, 2021-05-21 13:16:08.121
98.0, 116.40625762939453, 155.74440002441406, -166.3526153564453, 171.2631072998047, 0.03200000151991844, -0.06400000303983688, 1.055999994277954, 0.0, 0.0, 0.0, 0.0, 0.0, 1.621595768137118E9, 2021-05-21 13:16:08.137
98.0, 186.1927947998047, 194.1569061279297, -95.33940124511719, 207.0015869140625, 0.03200000151991844, -0.06400000303983688, 1.055999994277954, 0.0, 0.0, 0.0, 0.0, 0.0, 1.621595768137118E9, 2021-05-21 13:16:08.137
99.0, 196.97866821289062, 209.96546936035156, -81.52046966552734, 208.1011199951172, 0.03200000151991844, -0.06400000303983688, 1.055999994277954, 0.0, 0.0, 0.0, 0.0, 0.0, 1.6215957681377907E9, 2021-05-21 13:16:08.137
99.0, 124.31988525390625, 160.08267211914062, -152.86280822753906, 176.16986083984375, 0.03200000151991844, -0.06400000303983688, 1.055999994277954, 0.0, 0.0, 0.0, 0.0, 0.0, 1.6215957681377907E9, 2021-05-21 13:16:08.137
100.0, 115.3777847290039, 158.54931640625, -167.28759765625, 170.3767547607422, 0.03200000151991844, -0.06400000303983688, 1.055999994277954, 0.0, 0.0, 0.0, 0.0, 0.0, 1.621595768152178E9, 2021-05-21 13:16:08.152
100.0, 182.55760192871094, 196.03433227539062, -95.46281433105469, 200.62879943847656, 0.03200000151991844, -0.06400000303983688, 1.055999994277954, 0.0, 0.0, 0.0, 0.0, 0.0, 1.621595768152178E9, 2021-05-21 13:16:08.152
0.0, 186.67710876464844, 199.70692443847656, -87.06487274169922, 204.14430236816406, 0.03200000151991844, -0.06400000303983688, 1.055999994277954, 0.0, 0.0, 0.0, 0.0, 0.0, 1.6215957681529331E9, 2021-05-21 13:16:08.152
1.0, 118.98865509033203, 163.33639526367188, -154.54762268066406, 172.8488311767578, 0.03200000151991844, -0.06400000303983688, 1.055999994277954, 0.0, 0.0, 0.0, 0.0, 0.0, 1.6215957681664336E9, 2021-05-21 13:16:08.166
1.0, 111.5125961303711, 158.47825622558594, -168.29176330566406, 170.44781494140625, 0.03200000151991844, -0.06400000303983688, 1.055999994277954, 0.0, 0.0, 0.0, 0.0, 0.0, 1.6215957681664336E9, 2021-05-21 13:16:08.166
2.0, 181.93490600585938, 218.1670684814453, -106.48242950439453, 206.69491577148438, 0.03200000151991844, -0.06400000303983688, 1.055999994277954, 0.0, 0.0, 0.0, 0.0, 0.0, 1.6215957681827452E9, 2021-05-21 13:16:08.182
2.0, 186.01889038085938, 199.61715698242188, -87.36405944824219, 215.012451171875, 0.03200000151991844, -0.06400000303983688, 1.055999994277954, 0.0, 0.0, 0.0, 0.0, 0.0, 1.6215957681827452E9, 2021-05-21 13:16:08.182
3.0, 117.31317901611328, 167.60362243652344, -164.67901611328125, 170.02146911621094, 0.03200000151991844, -0.06400000303983688, 1.055999994277954, 0.0, 0.0, 0.0, 0.0, 0.0, 1.621595768183448E9, 2021-05-21 13:16:08.183
3.0, 107.69416046142578, 156.9374237060547, -177.43580627441406, 162.74362182617188, 0.03200000151991844, -0.06400000303983688, 1.055999994277954, 0.0, 0.0, 0.0, 0.0, 0.0, 1.621595768183448E9, 2021-05-21 13:16:08.183
4.0, 174.48876953125, 200.06968688964844, -112.33163452148438, 197.95851135253906, 0.03200000151991844, -0.06400000303983688, 1.055999994277954, 0.0, 0.0, 0.0, 0.0, 0.0, 1.6215957681964767E9, 2021-05-21 13:16:08.196
4.0, 187.68687438964844, 208.38348388671875, -82.2628402709961, 212.37208557128906, 0.03200000151991844, -0.06400000303983688, 1.055999994277954, 0.0, 0.0, 0.0, 0.0, 0.0, 1.6215957681964767E9, 2021-05-21 13:16:08.196
5.0, 120.45095825195312, 157.6255645751953, -163.1232147216797, 173.33876037597656, 0.03200000151991844, -0.06400000303983688, 1.055999994277954, 0.0, 0.0, 0.0, 0.0, 0.0, 1.6215957682120297E9, 2021-05-21 13:16:08.212
5.0, 117.47773742675781, 160.78578186035156, -175.32276916503906, 169.6960906982422, 0.03200000151991844, -0.06400000303983688, 1.055999994277954, 0.0, 0.0, 0.0, 0.0, 0.0, 1.6215957682120297E9, 2021-05-21 13:16:08.212
6.0, 186.6284942626953, 206.3415069580078, -105.58111572265625, 203.26168823242188, 0.03200000151991844, -0.06400000303983688, 1.055999994277954, 0.0, 0.0, 0.0, 0.0, 0.0, 1.6215957682127655E9, 2021-05-21 13:16:08.212
6.0, 183.15411376953125, 203.7534942626953, -88.63562774658203, 213.51649475097656, 0.03200000151991844, -0.06400000303983688, 1.055999994277954, 0.0, 0.0, 0.0, 0.0, 0.0, 1.6215957682127655E9, 2021-05-21 13:16:08.212
7.0, 115.85836029052734, 159.55909729003906, -152.528076171875, 180.22390747070312, 0.03200000151991844, -0.06400000303983688, 1.055999994277954, 0.0, 0.0, 0.0, 0.0, 0.0, 1.6215957682263565E9, 2021-05-21 13:16:08.226
7.0, 112.5373306274414, 159.41697692871094, -172.7833709716797, 171.0050506591797, 0.03200000151991844, -0.06400000303983688, 1.055999994277954, 0.0, 0.0, 0.0, 0.0, 0.0, 1.6215957682263565E9, 2021-05-21 13:16:08.226
8.0, 175.79774475097656, 201.7937774658203, -102.05065155029297, 200.66246032714844, 0.03200000151991844, -0.06400000303983688, 1.055999994277954, 0.0, 0.0, 0.0, 0.0, 0.0, 1.6215957682420568E9, 2021-05-21 13:16:08.242
8.0, 188.3525848388672, 209.69619750976562, -80.14605712890625, 214.45895385742188, 0.03200000151991844, -0.06400000303983688, 1.055999994277954, 0.0, 0.0, 0.0, 0.0, 0.0, 1.6215957682420568E9, 2021-05-21 13:16:08.242
9.0, 118.43515014648438, 161.18594360351562, -153.6724853515625, 179.1991729736328, 0.03200000151991844, -0.06400000303983688, 1.055999994277954, 0.0, 0.0, 0.0, 0.0, 0.0, 1.6215957682427523E9, 2021-05-21 13:16:08.242
9.0, 110.45794677734375, 162.6594696044922, -167.7008514404297, 169.94667053222656, 0.03200000151991844, -0.06400000303983688, 1.055999994277954, 0.0, 0.0, 0.0, 0.0, 0.0, 1.6215957682427523E9, 2021-05-21 13:16:08.242
10.0, 174.09234619140625, 202.65769958496094, -100.9361572265625, 201.65353393554688, 0.03200000151991844, -0.06400000303983688, 1.055999994277954, 0.0, 0.0, 0.0, 0.0, 0.0, 1.621595768256587E9, 2021-05-21 13:16:08.256
10.0, 194.3738250732422, 205.93759155273438, -75.56842041015625, 211.8821563720703, 0.03200000151991844, -0.06400000303983688, 1.055999994277954, 0.0, 0.0, 0.0, 0.0, 0.0, 1.621595768256587E9, 2021-05-21 13:16:08.256
11.0, 117.63107299804688, 162.4163818359375, -154.38681030273438, 169.17623901367188, 0.03200000151991844, -0.06400000303983688, 1.055999994277954, 0.0, 0.0, 0.0, 0.0, 0.0, 1.621595768272833E9, 2021-05-21 13:16:08.272
11.0, 116.40438842773438, 162.43507385253906, -168.25436401367188, 168.52923583984375, 0.03200000151991844, -0.06400000303983688, 1.055999994277954, 0.0, 0.0, 0.0, 0.0, 0.0, 1.621595768272833E9, 2021-05-21 13:16:08.272
12.0, 174.97496032714844, 200.0547332763672, -98.45660400390625, 201.290771484375, 0.03200000151991844, -0.06400000303983688, 1.055999994277954, 0.0, 0.0, 0.0, 0.0, 0.0, 1.6215957682735076E9, 2021-05-21 13:16:08.273
12.0, 188.0945281982422, 213.20046997070312, -80.72947692871094, 209.6793670654297, 0.03200000151991844, -0.06400000303983688, 1.055999994277954, 0.0, 0.0, 0.0, 0.0, 0.0, 1.6215957682735076E9, 2021-05-21 13:16:08.273
13.0, 115.96308135986328, 157.01596069335938, -157.73402404785156, 171.89141845703125, 0.03200000151991844, -0.06400000303983688, 1.055999994277954, 0.0, 0.0, 0.0, 0.0, 0.0, 1.6215957682864776E9, 2021-05-21 13:16:08.286
13.0, 116.95789337158203, 170.69651794433594, -166.59010314941406, 169.17250061035156, 0.03200000151991844, -0.06400000303983688, 1.055999994277954, 0.0, 0.0, 0.0, 0.0, 0.0, 1.6215957682864776E9, 2021-05-21 13:16:08.286
14.0, 183.11671447753906, 205.7356414794922, -95.70404052734375, 202.58102416992188, 0.03200000151991844, -0.06400000303983688, 1.055999994277954, 0.0, 0.0, 0.0, 0.0, 0.0, 1.6215957683028584E9, 2021-05-21 13:16:08.302
14.0, 187.1146697998047, 199.40025329589844, -84.58531951904297, 206.40695190429688, 0.03200000151991844, -0.06400000303983688, 1.055999994277954, 0.0, 0.0, 0.0, 0.0, 0.0, 1.6215957683028584E9, 2021-05-21 13:16:08.302
15.0, 123.95150756835938, 170.85733032226562, -150.68057250976562, 173.92965698242188, 0.03200000151991844, -0.06400000303983688, 1.055999994277954, 0.0, 0.0, 0.0, 0.0, 0.0, 1.6215957683036048E9, 2021-05-21 13:16:08.303
15.0, 104.12255096435547, 157.80882263183594, -173.9427490234375, 161.8497772216797, 0.03200000151991844, -0.06400000303983688, 1.055999994277954, 0.0, 0.0, 0.0, 0.0, 0.0, 1.6215957683036048E9, 2021-05-21 13:16:08.303
16.0, 177.31613159179688, 204.39300537109375, -105.3492431640625, 196.63458251953125, 0.03200000151991844, -0.06400000303983688, 1.055999994277954, 0.0, 0.0, 0.0, 0.0, 0.0, 1.6215957683163972E9, 2021-05-21 13:16:08.316
16.0, 190.33099365234375, 219.14317321777344, -87.1022720336914, 209.4661865234375, 0.03200000151991844, -0.06400000303983688, 1.055999994277954, 0.0, 0.0, 0.0, 0.0, 0.0, 1.6215957683163972E9, 2021-05-21 13:16:08.316
17.0, 116.22486877441406, 162.00872802734375, -153.26109313964844, 176.349365234375, 0.03200000151991844, -0.06400000303983688, 1.055999994277954, 0.0, 0.0, 0.0, 0.0, 0.0, 1.6215957683321457E9, 2021-05-21 13:16:08.332
17.0, 107.82879638671875, 162.3191375732422, -178.28851318359375, 164.08250427246094, 0.03200000151991844, -0.06400000303983688, 1.055999994277954, 0.0, 0.0, 0.0, 0.0, 0.0, 1.6215957683321457E9, 2021-05-21 13:16:08.332
18.0, 179.16738891601562, 202.28370666503906, -105.74192810058594, 201.69093322753906, 0.03200000151991844, -0.06400000303983688, 1.055999994277954, 0.0, 0.0, 0.0, 0.0, 0.0, 1.6215957683328853E9, 2021-05-21 13:16:08.332
18.0, 185.73838806152344, 201.03457641601562, -87.16584777832031, 210.49465942382812, 0.03200000151991844, -0.06400000303983688, 1.055999994277954, 0.0, 0.0, 0.0, 0.0, 0.0, 1.6215957683328853E9, 2021-05-21 13:16:08.332
19.0, 114.1454849243164, 159.17388916015625, -159.21876525878906, 177.68077087402344, 0.03200000151991844, -0.06400000303983688, 1.055999994277954, 0.0, 0.0, 0.0, 0.0, 0.0, 1.6215957683463879E9, 2021-05-21 13:16:08.346
19.0, 113.18433380126953, 165.26991271972656, -170.24398803710938, 168.23753356933594, 0.03200000151991844, -0.06400000303983688, 1.055999994277954, 0.0, 0.0, 0.0, 0.0, 0.0, 1.6215957683463879E9, 2021-05-21 13:16:08.346
20.0, 177.2450714111328, 201.48336791992188, -106.22811889648438, 201.58621215820312, 0.03200000151991844, -0.06400000303983688, 1.055999994277954, 0.0, 0.0, 0.0, 0.0, 0.0, 1.621595768362032E9, 2021-05-21 13:16:08.362
20.0, 189.6278839111328, 205.7431182861328, -83.45586395263672, 208.56112670898438, 0.03200000151991844, -0.06400000303983688, 1.055999994277954, 0.0, 0.0, 0.0, 0.0, 0.0, 1.621595768362032E9, 2021-05-21 13:16:08.362
21.0, 112.52610778808594, 162.57345581054688, -158.47825622558594, 173.56314086914062, 0.03200000151991844, -0.06400000303983688, 1.055999994277954, 0.0, 0.0, 0.0, 0.0, 0.0, 1.6215957683627813E9, 2021-05-21 13:16:08.362
21.0, 107.596923828125, 164.64161682128906, -174.63836669921875, 170.27203369140625, 0.03200000151991844, -0.06400000303983688, 1.055999994277954, 0.0, 0.0, 0.0, 0.0, 0.0, 1.6215957683627813E9, 2021-05-21 13:16:08.362
22.0, 174.50747680664062, 197.32460021972656, -103.71864318847656, 198.84486389160156, 0.03200000151991844, -0.06400000303983688, 1.055999994277954, 0.0, 0.0, 0.0, 0.0, 0.0, 1.6215957683763523E9, 2021-05-21 13:16:08.376
22.0, 192.2906951904297, 215.9044189453125, -78.79595184326172, 214.09617614746094, 0.03200000151991844, -0.06400000303983688, 1.055999994277954, 0.0, 0.0, 0.0, 0.0, 0.0, 1.6215957683763523E9, 2021-05-21 13:16:08.376
23.0, 115.24127960205078, 169.05844116210938, -157.18051147460938, 172.59825134277344, 0.03200000151991844, -0.06400000303983688, 1.055999994277954, 0.0, 0.0, 0.0, 0.0, 0.0, 1.621595768392071E9, 2021-05-21 13:16:08.392
23.0, 109.9455795288086, 169.49600219726562, -169.01356506347656, 174.4083709716797, 0.03200000151991844, -0.06400000303983688, 1.055999994277954, 0.0, 0.0, 0.0, 0.0, 0.0, 1.621595768392071E9, 2021-05-21 13:16:08.392
24.0, 173.49395751953125, 205.099853515625, -103.95426177978516, 205.2288818359375, 0.03200000151991844, -0.06400000303983688, 1.055999994277954, 0.0, 0.0, 0.0, 0.0, 0.0, 1.6215957683927639E9, 2021-05-21 13:16:08.392
24.0, 191.93167114257812, 207.5233154296875, -79.2110824584961, 218.18016052246094, 0.03200000151991844, -0.06400000303983688, 1.055999994277954, 0.0, 0.0, 0.0, 0.0, 0.0, 1.6215957683927639E9, 2021-05-21 13:16:08.392
25.0, 115.71624755859375, 161.75814819335938, -159.98170471191406, 177.39654541015625, 0.03200000151991844, -0.06400000303983688, 1.055999994277954, 0.0, 0.0, 0.0, 0.0, 0.0, 1.6215957684063663E9, 2021-05-21 13:16:08.406
25.0, 115.29737854003906, 166.63497924804688, -168.71063232421875, 173.39859008789062, 0.03200000151991844, -0.06400000303983688, 1.055999994277954, 0.0, 0.0, 0.0, 0.0, 0.0, 1.6215957684063663E9, 2021-05-21 13:16:08.406
26.0, 182.90728759765625, 207.44851684570312, -96.60909271240234, 207.86550903320312, 0.03200000151991844, -0.06400000303983688, 1.055999994277954, 0.0, 0.0, 0.0, 0.0, 0.0, 1.6215957684219224E9, 2021-05-21 13:16:08.421
26.0, 187.634521484375, 217.71827697753906, -84.08416748046875, 215.00497436523438, 0.03200000151991844, -0.06400000303983688, 1.055999994277954, 0.0, 0.0, 0.0, 0.0, 0.0, 1.6215957684219224E9, 2021-05-21 13:16:08.421
27.0, 115.79852294921875, 154.40176391601562, -159.66380310058594, 173.3125762939453, 0.03200000151991844, -0.06400000303983688, 1.055999994277954, 0.0, 0.0, 0.0, 0.0, 0.0, 1.6215957684371798E9, 2021-05-21 13:16:08.437
27.0, 107.60066223144531, 158.1715850830078, -178.643798828125, 163.24850463867188, 0.03200000151991844, -0.06400000303983688, 1.055999994277954, 0.0, 0.0, 0.0, 0.0, 0.0, 1.6215957684371798E9, 2021-05-21 13:16:08.437
28.0, 176.52328491210938, 195.58180236816406, -108.34490203857422, 201.2533721923828, 0.03200000151991844, -0.06400000303983688, 1.055999994277954, 0.0, 0.0, 0.0, 0.0, 0.0, 1.6215957684377625E9, 2021-05-21 13:16:08.437
28.0, 187.13711547851562, 205.17465209960938, -83.74384307861328, 211.80361938476562, 0.03200000151991844, -0.06400000303983688, 1.055999994277954, 0.0, 0.0, 0.0, 0.0, 0.0, 1.6215957684377625E9, 2021-05-21 13:16:08.437
29.0, 121.70008087158203, 165.14649963378906, -161.11114501953125, 180.53805541992188, 0.03200000151991844, -0.06400000303983688, 1.055999994277954, 0.0, 0.0, 0.0, 0.0, 0.0, 1.6215957684521627E9, 2021-05-21 13:16:08.452
29.0, 110.96282958984375, 159.85079956054688, -171.870849609375, 172.05223083496094, 0.03200000151991844, -0.06400000303983688, 1.055999994277954, 0.0, 0.0, 0.0, 0.0, 0.0, 1.6215957684521627E9, 2021-05-21 13:16:08.452
30.0, 175.61448669433594, 194.9273223876953, -106.62454986572266, 207.1811065673828, 0.03200000151991844, -0.06400000303983688, 1.040000081062317, 0.0, 0.0, 0.0, 0.0, 0.0, 1.6215957684529269E9, 2021-05-21 13:16:08.452
30.0, 189.1230010986328, 208.667724609375, -84.92938995361328, 219.1001739501953, 0.03200000151991844, -0.06400000303983688, 1.040000081062317, 0.0, 0.0, 0.0, 0.0, 0.0, 1.6215957684529269E9, 2021-05-21 13:16:08.452
31.0, 119.99468994140625, 165.48683166503906, -158.41094970703125, 178.83641052246094, 0.03200000151991844, -0.06400000303983688, 1.040000081062317, 0.0, 0.0, 0.0, 0.0, 0.0, 1.6215957684663463E9, 2021-05-21 13:16:08.466
31.0, 112.39895629882812, 157.92849731445312, -170.96578979492188, 170.24960327148438, 0.03200000151991844, -0.06400000303983688, 1.040000081062317, 0.0, 0.0, 0.0, 0.0, 0.0, 1.6215957684663463E9, 2021-05-21 13:16:08.466
32.0, 179.90040588378906, 210.96401977539062, -104.8667984008789, 204.39862060546875, 0.03200000151991844, -0.06400000303983688, 1.040000081062317, 0.0, 0.0, 0.0, 0.0, 0.0, 1.621595768482191E9, 2021-05-21 13:16:08.482
32.0, 188.9883575439453, 212.39639282226562, -89.37986755371094, 209.23057556152344, 0.03200000151991844, -0.06400000303983688, 1.040000081062317, 0.0, 0.0, 0.0, 0.0, 0.0, 1.621595768482191E9, 2021-05-21 13:16:08.482
33.0, 123.5999526977539, 163.3476104736328, -156.31285095214844, 180.23512268066406, 0.03200000151991844, -0.06400000303983688, 1.040000081062317, 0.0, 0.0, 0.0, 0.0, 0.0, 1.6215957684827716E9, 2021-05-21 13:16:08.482
33.0, 112.1521224975586, 158.09304809570312, -178.32217407226562, 165.8402557373047, 0.03200000151991844, -0.06400000303983688, 1.040000081062317, 0.0, 0.0, 0.0, 0.0, 0.0, 1.6215957684827716E9, 2021-05-21 13:16:08.482
34.0, 181.13832092285156, 202.56045532226562, -101.317626953125, 204.70529174804688, 0.03200000151991844, -0.06400000303983688, 1.040000081062317, 0.0, 0.0, 0.0, 0.0, 0.0, 1.6215957684964724E9, 2021-05-21 13:16:08.496
34.0, 189.43341064453125, 216.1175994873047, -84.6339340209961, 215.18075561523438, 0.03200000151991844, -0.06400000303983688, 1.040000081062317, 0.0, 0.0, 0.0, 0.0, 0.0, 1.6215957684964724E9, 2021-05-21 13:16:08.496
35.0, 114.885986328125, 166.5714111328125, -154.558837890625, 177.85655212402344, 0.03200000151991844, -0.06400000303983688, 1.040000081062317, 0.0, 0.0, 0.0, 0.0, 0.0, 1.621595768512185E9, 2021-05-21 13:16:08.512
35.0, 113.33393096923828, 164.67527770996094, -163.87493896484375, 169.7858428955078, 0.03200000151991844, -0.06400000303983688, 1.040000081062317, 0.0, 0.0, 0.0, 0.0, 0.0, 1.621595768512185E9, 2021-05-21 13:16:08.512
36.0, 174.39527893066406, 200.07716369628906, -102.11796569824219, 203.33274841308594, 0.03200000151991844, -0.06400000303983688, 1.040000081062317, 0.0, 0.0, 0.0, 0.0, 0.0, 1.6215957685129173E9, 2021-05-21 13:16:08.512
36.0, 189.35113525390625, 209.38577270507812, -80.8603744506836, 217.3498992919922, 0.03200000151991844, -0.06400000303983688, 1.040000081062317, 0.0, 0.0, 0.0, 0.0, 0.0, 1.6215957685129173E9, 2021-05-21 13:16:08.512
37.0, 117.81806945800781, 170.62545776367188, -147.92800903320312, 178.0959014892578, 0.03200000151991844, -0.06400000303983688, 1.040000081062317, 0.0, 0.0, 0.0, 0.0, 0.0, 1.6215957685264091E9, 2021-05-21 13:16:08.526
37.0, 107.3613052368164, 159.37210083007812, -168.6395721435547, 173.32379150390625, 0.03200000151991844, -0.06400000303983688, 1.040000081062317, 0.0, 0.0, 0.0, 0.0, 0.0, 1.6215957685264091E9, 2021-05-21 13:16:08.526
38.0, 179.05519104003906, 206.30784606933594, -97.04666137695312, 208.7892608642578, 0.03200000151991844, -0.06400000303983688, 1.040000081062317, 0.0, 0.0, 0.0, 0.0, 0.0, 1.6215957685425124E9, 2021-05-21 13:16:08.542
38.0, 194.078369140625, 215.21253967285156, -75.5197982788086, 218.32974243164062, 0.03200000151991844, -0.06400000303983688, 1.040000081062317, 0.0, 0.0, 0.0, 0.0, 0.0, 1.6215957685425124E9, 2021-05-21 13:16:08.542
39.0, 117.58619689941406, 160.82318115234375, -155.59854125976562, 174.50186157226562, 0.03200000151991844, -0.06400000303983688, 1.040000081062317, 0.0, 0.0, 0.0, 0.0, 0.0, 1.6215957685570347E9, 2021-05-21 13:16:08.557
39.0, 115.29737854003906, 160.2771453857422, -171.41458129882812, 171.21075439453125, 0.03200000151991844, -0.06400000303983688, 1.040000081062317, 0.0, 0.0, 0.0, 0.0, 0.0, 1.6215957685570347E9, 2021-05-21 13:16:08.557
40.0, 178.12396240234375, 205.4439239501953, -102.86968994140625, 205.79734802246094, 0.03200000151991844, -0.06400000303983688, 1.055999994277954, 0.0, 0.0, 0.0, 0.0, 0.0, 1.621595768557886E9, 2021-05-21 13:16:08.557
40.0, 195.97076416015625, 205.88523864746094, -76.19672393798828, 216.9684295654297, 0.03200000151991844, -0.06400000303983688, 1.055999994277954, 0.0, 0.0, 0.0, 0.0, 0.0, 1.621595768557886E9, 2021-05-21 13:16:08.557
41.0, 119.0185775756836, 160.0789337158203, -146.57041931152344, 186.34613037109375, 0.03200000151991844, -0.06400000303983688, 1.055999994277954, 0.0, 0.0, 0.0, 0.0, 0.0, 1.6215957685720873E9, 2021-05-21 13:16:08.572
41.0, 110.58509826660156, 155.48260498046875, -165.44195556640625, 177.8715057373047, 0.03200000151991844, -0.06400000303983688, 1.055999994277954, 0.0, 0.0, 0.0, 0.0, 0.0, 1.6215957685720873E9, 2021-05-21 13:16:08.572
42.0, 181.03733825683594, 199.3815460205078, -97.79838562011719, 212.2636260986328, 0.03200000151991844, -0.06400000303983688, 1.055999994277954, 0.0, 0.0, 0.0, 0.0, 0.0, 1.6215957685728185E9, 2021-05-21 13:16:08.572
42.0, 189.86724853515625, 210.2235107421875, -75.88630676269531, 225.49539184570312, 0.03200000151991844, -0.06400000303983688, 1.055999994277954, 0.0, 0.0, 0.0, 0.0, 0.0, 1.6215957685728185E9, 2021-05-21 13:16:08.572
43.0, 120.09941101074219, 157.43109130859375, -149.64462280273438, 190.95742797851562, 0.03200000151991844, -0.06400000303983688, 1.055999994277954, 0.0, 0.0, 0.0, 0.0, 0.0, 1.6215957685863853E9, 2021-05-21 13:16:08.586
43.0, 105.69331359863281, 152.9918212890625, -170.00088500976562, 175.35081481933594, 0.03200000151991844, -0.06400000303983688, 1.055999994277954, 0.0, 0.0, 0.0, 0.0, 0.0, 1.6215957685863853E9, 2021-05-21 13:16:08.586
44.0, 185.5476531982422, 202.53802490234375, -97.54781341552734, 210.58067321777344, 0.03200000151991844, -0.06400000303983688, 1.055999994277954, 0.0, 0.0, 0.0, 0.0, 0.0, 1.6215957686021292E9, 2021-05-21 13:16:08.602
44.0, 175.8089599609375, 207.4335479736328, -85.7783432006836, 212.301025390625, 0.03200000151991844, -0.06400000303983688, 1.055999994277954, 0.0, 0.0, 0.0, 0.0, 0.0, 1.6215957686021292E9, 2021-05-21 13:16:08.602
45.0, 111.3891830444336, 154.1324920654297, -156.3801727294922, 181.2000274658203, 0.03200000151991844, -0.06400000303983688, 1.055999994277954, 0.0, 0.0, 0.0, 0.0, 0.0, 1.6215957686027472E9, 2021-05-21 13:16:08.602
45.0, 108.00830841064453, 159.3159942626953, -168.71063232421875, 168.48062133789062, 0.03200000151991844, -0.06400000303983688, 1.055999994277954, 0.0, 0.0, 0.0, 0.0, 0.0, 1.6215957686027472E9, 2021-05-21 13:16:08.602
46.0, 178.80087280273438, 202.45948791503906, -96.26502227783203, 213.03030395507812, 0.03200000151991844, -0.06400000303983688, 1.055999994277954, 0.0, 0.0, 0.0, 0.0, 0.0, 1.621595768616416E9, 2021-05-21 13:16:08.616
46.0, 187.69061279296875, 208.44332885742188, -78.7884750366211, 214.6459503173828, 0.03200000151991844, -0.06400000303983688, 1.055999994277954, 0.0, 0.0, 0.0, 0.0, 0.0, 1.621595768616416E9, 2021-05-21 13:16:08.616
47.0, 113.80889892578125, 168.74429321289062, -153.65379333496094, 183.0998992919922, 0.03200000151991844, -0.06400000303983688, 1.055999994277954, 0.0, 0.0, 0.0, 0.0, 0.0, 1.621595768632152E9, 2021-05-21 13:16:08.632
47.0, 107.02845764160156, 157.21417236328125, -167.31564331054688, 171.81661987304688, 0.03200000151991844, -0.06400000303983688, 1.055999994277954, 0.0, 0.0, 0.0, 0.0, 0.0, 1.621595768632152E9, 2021-05-21 13:16:08.632
48.0, 172.85069274902344, 204.1573944091797, -103.26612091064453, 209.49610900878906, 0.03200000151991844, -0.06400000303983688, 1.055999994277954, 0.0, 0.0, 0.0, 0.0, 0.0, 1.6215957686328356E9, 2021-05-21 13:16:08.632
48.0, 187.78785705566406, 210.33944702148438, -80.58736419677734, 221.89013671875, 0.03200000151991844, -0.06400000303983688, 1.055999994277954, 0.0, 0.0, 0.0, 0.0, 0.0, 1.6215957686328356E9, 2021-05-21 13:16:08.632
49.0, 124.25069427490234, 162.0797882080078, -148.53761291503906, 185.31016540527344, 0.03200000151991844, -0.06400000303983688, 1.055999994277954, 0.0, 0.0, 0.0, 0.0, 0.0, 1.6215957686628392E9, 2021-05-21 13:16:08.662
49.0, 112.68692779541016, 155.9164276123047, -165.86082458496094, 178.20436096191406, 0.03200000151991844, -0.06400000303983688, 1.055999994277954, 0.0, 0.0, 0.0, 0.0, 0.0, 1.6215957686628392E9, 2021-05-21 13:16:08.662
50.0, 174.76177978515625, 218.1072235107422, -98.93531036376953, 207.73086547851562, 0.03200000151991844, -0.06400000303983688, 1.055999994277954, 0.0, 0.0, 0.0, 0.0, 0.0, 1.621595768663581E9, 2021-05-21 13:16:08.663
50.0, 184.25738525390625, 212.47119140625, -86.65348052978516, 215.72303771972656, 0.03200000151991844, -0.06400000303983688, 1.055999994277954, 0.0, 0.0, 0.0, 0.0, 0.0, 1.621595768663581E9, 2021-05-21 13:16:08.663
51.0, 121.7748794555664, 166.20863342285156, -154.41673278808594, 187.0791473388672, 0.03200000151991844, -0.06400000303983688, 1.055999994277954, 0.0, 0.0, 0.0, 0.0, 0.0, 1.62159576866423E9, 2021-05-21 13:16:08.664
51.0, 106.06729888916016, 156.2642364501953, -174.98243713378906, 173.79876708984375, 0.03200000151991844, -0.06400000303983688, 1.055999994277954, 0.0, 0.0, 0.0, 0.0, 0.0, 1.62159576866423E9, 2021-05-21 13:16:08.664
52.0, 175.7939910888672, 212.75169372558594, -101.26152801513672, 209.87010192871094, 0.03200000151991844, -0.06400000303983688, 1.055999994277954, 0.0, 0.0, 0.0, 0.0, 0.0, 1.62159576867638E9, 2021-05-21 13:16:08.676
52.0, 186.74069213867188, 212.8601531982422, -88.05220794677734, 222.54461669921875, 0.03200000151991844, -0.06400000303983688, 1.055999994277954, 0.0, 0.0, 0.0, 0.0, 0.0, 1.62159576867638E9, 2021-05-21 13:16:08.676
53.0, 111.56121826171875, 170.2065887451172, -161.66091918945312, 183.1896514892578, 0.03200000151991844, -0.06400000303983688, 1.055999994277954, 0.0, 0.0, 0.0, 0.0, 0.0, 1.6215957686922069E9, 2021-05-21 13:16:08.692
53.0, 104.92288970947266, 167.52133178710938, -179.64608764648438, 177.57980346679688, 0.03200000151991844, -0.06400000303983688, 1.055999994277954, 0.0, 0.0, 0.0, 0.0, 0.0, 1.6215957686922069E9, 2021-05-21 13:16:08.692
54.0, 168.6021728515625, 205.8253936767578, -109.74362182617188, 208.0375518798828, 0.03200000151991844, -0.06400000303983688, 1.055999994277954, 0.0, 0.0, 0.0, 0.0, 0.0, 1.6215957686928475E9, 2021-05-21 13:16:08.692
54.0, 187.18572998046875, 221.13279724121094, -85.62874603271484, 217.84356689453125, 0.03200000151991844, -0.06400000303983688, 1.055999994277954, 0.0, 0.0, 0.0, 0.0, 0.0, 1.6215957686928475E9, 2021-05-21 13:16:08.692
55.0, 115.18144226074219, 169.56332397460938, -155.5760955810547, 184.60707092285156, 0.03200000151991844, -0.06400000303983688, 1.055999994277954, 0.0, 0.0, 0.0, 0.0, 0.0, 1.621595768706403E9, 2021-05-21 13:16:08.706
55.0, 106.7741470336914, 178.95420837402344, -175.5883026123047, 178.15200805664062, 0.03200000151991844, -0.06400000303983688, 1.055999994277954, 0.0, 0.0, 0.0, 0.0, 0.0, 1.621595768706403E9, 2021-05-21 13:16:08.706
56.0, 171.20887756347656, 201.6666259765625, -111.1311264038086, 207.2596435546875, 0.03200000151991844, -0.06400000303983688, 1.055999994277954, 0.0, 0.0, 0.0, 0.0, 0.0, 1.6215957687221885E9, 2021-05-21 13:16:08.722
56.0, 183.8647003173828, 219.16188049316406, -90.7000503540039, 223.35617065429688, 0.03200000151991844, -0.06400000303983688, 1.055999994277954, 0.0, 0.0, 0.0, 0.0, 0.0, 1.6215957687221885E9, 2021-05-21 13:16:08.722
57.0, 114.92338562011719, 162.24807739257812, -160.44918823242188, 186.16287231445312, 0.03200000151991844, -0.06400000303983688, 1.055999994277954, 0.0, 0.0, 0.0, 0.0, 0.0, 1.6215957687229056E9, 2021-05-21 13:16:08.722
57.0, 107.68293762207031, 167.3642578125, -172.11019897460938, 184.20315551757812, 0.03200000151991844, -0.06400000303983688, 1.055999994277954, 0.0, 0.0, 0.0, 0.0, 0.0, 1.6215957687229056E9, 2021-05-21 13:16:08.722
58.0, 172.73475646972656, 208.89959716796875, -105.47265625, 212.56655883789062, 0.03200000151991844, -0.06400000303983688, 1.055999994277954, 0.0, 0.0, 0.0, 0.0, 0.0, 1.6215957687373946E9, 2021-05-21 13:16:08.737
58.0, 180.45018005371094, 223.16357421875, -93.05992889404297, 223.7451171875, 0.03200000151991844, -0.06400000303983688, 1.055999994277954, 0.0, 0.0, 0.0, 0.0, 0.0, 1.6215957687373946E9, 2021-05-21 13:16:08.737
59.0, 109.92314147949219, 171.0929412841797, -159.8695068359375, 188.17120361328125, 0.03200000151991844, -0.06400000303983688, 1.055999994277954, 0.0, 0.0, 0.0, 0.0, 0.0, 1.6215957687521312E9, 2021-05-21 13:16:08.752
59.0, 104.5676040649414, 169.8662567138672, -170.0308074951172, 180.10797119140625, 0.03200000151991844, -0.06400000303983688, 1.055999994277954, 0.0, 0.0, 0.0, 0.0, 0.0, 1.6215957687521312E9, 2021-05-21 13:16:08.752
60.0, 167.77938842773438, 213.52584838867188, -106.37397766113281, 216.92355346679688, 0.03200000151991844, -0.06400000303983688, 1.055999994277954, 0.0, 0.0, 0.0, 0.0, 0.0, 1.621595768752787E9, 2021-05-21 13:16:08.752
60.0, 185.29708862304688, 215.76231384277344, -79.9777603149414, 225.1101837158203, 0.03200000151991844, -0.06400000303983688, 1.055999994277954, 0.0, 0.0, 0.0, 0.0, 0.0, 1.621595768752787E9, 2021-05-21 13:16:08.752
61.0, 118.73060607910156, 183.1428985595703, -154.88421630859375, 191.39498901367188, 0.03200000151991844, -0.06400000303983688, 1.055999994277954, 0.0, 0.0, 0.0, 0.0, 0.0, 1.6215957687664747E9, 2021-05-21 13:16:08.766
61.0, 105.48387908935547, 160.40057373046875, -176.7813262939453, 176.87295532226562, 0.03200000151991844, -0.06400000303983688, 1.055999994277954, 0.0, 0.0, 0.0, 0.0, 0.0, 1.6215957687664747E9, 2021-05-21 13:16:08.766
62.0, 176.4335174560547, 211.7867889404297, -101.00721740722656, 214.25326538085938, 0.03200000151991844, -0.06400000303983688, 1.055999994277954, 0.0, 0.0, 0.0, 0.0, 0.0, 1.621595768782023E9, 2021-05-21 13:16:08.782
62.0, 185.4317169189453, 215.70620727539062, -85.55769348144531, 225.05783081054688, 0.03200000151991844, -0.06400000303983688, 1.055999994277954, 0.0, 0.0, 0.0, 0.0, 0.0, 1.621595768782023E9, 2021-05-21 13:16:08.782
63.0, 112.41017150878906, 162.60336303710938, -156.10716247558594, 185.83375549316406, 0.03200000151991844, -0.06400000303983688, 1.055999994277954, 0.0, 0.0, 0.0, 0.0, 0.0, 1.621595768782771E9, 2021-05-21 13:16:08.782
63.0, 107.02845764160156, 166.3993682861328, -167.89158630371094, 187.44190979003906, 0.03200000151991844, -0.06400000303983688, 1.055999994277954, 0.0, 0.0, 0.0, 0.0, 0.0, 1.621595768782771E9, 2021-05-21 13:16:08.782
64.0, 171.1116485595703, 198.70462036132812, -109.63516998291016, 217.02825927734375, 0.03200000151991844, -0.06400000303983688, 1.055999994277954, 0.0, 0.0, 0.0, 0.0, 0.0, 1.6215957687964468E9, 2021-05-21 13:16:08.796
64.0, 190.27862548828125, 212.83770751953125, -86.64974212646484, 227.52243041992188, 0.03200000151991844, -0.06400000303983688, 1.055999994277954, 0.0, 0.0, 0.0, 0.0, 0.0, 1.6215957687964468E9, 2021-05-21 13:16:08.796
65.0, 113.37133026123047, 156.8439178466797, -173.2658233642578, 181.6637725830078, 0.03200000151991844, -0.06400000303983688, 1.055999994277954, 0.0, 0.0, 0.0, 0.0, 0.0, 1.621595768812075E9, 2021-05-21 13:16:08.812
65.0, 109.35841369628906, 164.48080444335938, -178.8046112060547, 179.6629180908203, 0.03200000151991844, -0.06400000303983688, 1.055999994277954, 0.0, 0.0, 0.0, 0.0, 0.0, 1.621595768812075E9, 2021-05-21 13:16:08.812
66.0, 175.1245574951172, 207.3924102783203, -109.08540344238281, 212.71241760253906, 0.03200000151991844, -0.06400000303983688, 1.055999994277954, 0.0, 0.0, 0.0, 0.0, 0.0, 1.621595768812756E9, 2021-05-21 13:16:08.812
66.0, 187.70558166503906, 207.72152709960938, -90.82720947265625, 223.69276428222656, 0.03200000151991844, -0.06400000303983688, 1.055999994277954, 0.0, 0.0, 0.0, 0.0, 0.0, 1.621595768812756E9, 2021-05-21 13:16:08.812
67.0, 115.81348419189453, 167.622314453125, -163.209228515625, 184.85765075683594, 0.03200000151991844, -0.06400000303983688, 1.055999994277954, 0.0, 0.0, 0.0, 0.0, 0.0, 1.6215957688264587E9, 2021-05-21 13:16:08.826
67.0, 109.45191192626953, 161.694580078125, -177.70509338378906, 175.9230194091797, 0.03200000151991844, -0.06400000303983688, 1.055999994277954, 0.0, 0.0, 0.0, 0.0, 0.0, 1.6215957688264587E9, 2021-05-21 13:16:08.826
68.0, 171.1490478515625, 203.17005920410156, -114.2240219116211, 213.43048095703125, 0.03200000151991844, -0.06400000303983688, 1.055999994277954, 0.0, 0.0, 0.0, 0.0, 0.0, 1.621595768842045E9, 2021-05-21 13:16:08.842
68.0, 182.08824157714844, 214.2177276611328, -87.10974884033203, 225.13262939453125, 0.03200000151991844, -0.06400000303983688, 1.055999994277954, 0.0, 0.0, 0.0, 0.0, 0.0, 1.621595768842045E9, 2021-05-21 13:16:08.842
69.0, 116.7297592163086, 159.1103057861328, -156.15577697753906, 194.14007568359375, 0.03200000151991844, -0.06400000303983688, 1.055999994277954, 0.0, 0.0, 0.0, 0.0, 0.0, 1.6215957688427608E9, 2021-05-21 13:16:08.842
69.0, 101.70284271240234, 157.43482971191406, -179.34690856933594, 180.16781616210938, 0.03200000151991844, -0.06400000303983688, 1.055999994277954, 0.0, 0.0, 0.0, 0.0, 0.0, 1.6215957688427608E9, 2021-05-21 13:16:08.842
70.0, 177.09173583984375, 213.05088806152344, -104.9864730834961, 212.95176696777344, 0.03200000151991844, -0.06400000303983688, 1.055999994277954, 0.0, 0.0, 0.0, 0.0, 0.0, 1.6215957688565288E9, 2021-05-21 13:16:08.856
70.0, 184.00308227539062, 213.0321807861328, -91.19371795654297, 223.9994354248047, 0.03200000151991844, -0.06400000303983688, 1.055999994277954, 0.0, 0.0, 0.0, 0.0, 0.0, 1.6215957688565288E9, 2021-05-21 13:16:08.856
71.0, 112.13716125488281, 174.6121826171875, -164.7052001953125, 184.43128967285156, 0.03200000151991844, -0.06400000303983688, 1.055999994277954, 0.0, 0.0, 0.0, 0.0, 0.0, 1.621595768872158E9, 2021-05-21 13:16:08.872
71.0, 107.98213195800781, 162.12466430664062, -178.33712768554688, 179.47218322753906, 0.03200000151991844, -0.06400000303983688, 1.055999994277954, 0.0, 0.0, 0.0, 0.0, 0.0, 1.621595768872158E9, 2021-05-21 13:16:08.872
72.0, 174.01754760742188, 207.6093292236328, -110.48786163330078, 209.84765625, 0.03200000151991844, -0.06400000303983688, 1.055999994277954, 0.0, 0.0, 0.0, 0.0, 0.0, 1.6215957688728733E9, 2021-05-21 13:16:08.872
72.0, 194.0409698486328, 219.49847412109375, -87.50991821289062, 224.62400817871094, 0.03200000151991844, -0.06400000303983688, 1.055999994277954, 0.0, 0.0, 0.0, 0.0, 0.0, 1.6215957688728733E9, 2021-05-21 13:16:08.872
73.0, 118.5585708618164, 161.52627563476562, -167.90655517578125, 185.41488647460938, 0.03200000151991844, -0.06400000303983688, 1.055999994277954, 0.0, 0.0, 0.0, 0.0, 0.0, 1.621595768886361E9, 2021-05-21 13:16:08.886
73.0, 112.71684265136719, 163.61314392089844, -184.16015625, 178.051025390625, 0.03200000151991844, -0.06400000303983688, 1.055999994277954, 0.0, 0.0, 0.0, 0.0, 0.0, 1.621595768886361E9, 2021-05-21 13:16:08.886
74.0, 171.22384643554688, 212.50485229492188, -112.22692108154297, 209.69805908203125, 0.03200000151991844, -0.06400000303983688, 1.055999994277954, 0.0, 0.0, 0.0, 0.0, 0.0, 1.6215957689021993E9, 2021-05-21 13:16:08.902
74.0, 187.7130584716797, 218.1109619140625, -87.32666015625, 225.91799926757812, 0.03200000151991844, -0.06400000303983688, 1.055999994277954, 0.0, 0.0, 0.0, 0.0, 0.0, 1.6215957689021993E9, 2021-05-21 13:16:08.902
75.0, 118.3379135131836, 164.21527099609375, -166.96035766601562, 187.28857421875, 0.03200000151991844, -0.06400000303983688, 1.055999994277954, 0.0, 0.0, 0.0, 0.0, 0.0, 1.6215957689029534E9, 2021-05-21 13:16:08.902
