Sample Index, EXG Channel 0, EXG Channel 1, EXG Channel 2, EXG Channel 3, Accel Channel 0, Accel Channel 1, Accel Channel 2, Other, Other, Other, Other, Other, Timestamp, Timestamp (Formatted)
0.0, -14.123732566833496, 150.34959411621094, 9.346010208129883, 61.727046966552734, 0.0, 0.0, 0.0, 0.0, 0.0, 0.0, 0.0, 0.0, 1.621599724954842E9, 2021-05-21 14:22:04.954
1.0, -38.87065124511719, 130.408447265625, -9.44324779510498, 34.03308868408203, 0.0, -0.06400000303983688, 0.0, 0.0, 0.0, 0.0, 0.0, 0.0, 1.6215997249847806E9, 2021-05-21 14:22:04.984
1.0, -82.70227813720703, 96.24445343017578, -53.70496368408203, 10.191226959228516, 0.0, -0.06400000303983688, 0.0, 0.0, 0.0, 0.0, 0.0, 0.0, 1.6215997249847806E9, 2021-05-21 14:22:04.984
2.0, -51.24597930908203, 121.73561096191406, -28.542917251586914, 30.412866592407227, 0.03200000151991844, -0.06400000303983688, 0.0, 0.0, 0.0, 0.0, 0.0, 0.0, 1.6215997249861455E9, 2021-05-21 14:22:04.986
2.0, -4.325194358825684, 155.9108123779297, 22.278583526611328, 64.30757904052734, 0.03200000151991844, -0.06400000303983688, 0.0, 0.0, 0.0, 0.0, 0.0, 0.0, 1.6215997249861455E9, 2021-05-21 14:22:04.986
3.0, -35.72539520263672, 134.05484008789062, -5.22838020324707, 46.55427551269531, 0.03200000151991844, -0.06400000303983688, 0.0, 0.0, 0.0, 0.0, 0.0, 0.0, 1.6215997249981513E9, 2021-05-21 14:22:04.998
3.0, -82.11885070800781, 86.91714477539062, -54.778316497802734, 10.96912670135498, 0.03200000151991844, -0.06400000303983688, 0.0, 0.0, 0.0, 0.0, 0.0, 0.0, 1.6215997249981513E9, 2021-05-21 14:22:04.998
4.0, -43.46324920654297, 125.75226593017578, -21.792396545410156, 37.32794189453125, 0.03200000151991844, -0.06400000303983688, 0.0, 0.0, 0.0, 0.0, 0.0, 0.0, 1.6215997249988568E9, 2021-05-21 14:22:04.998
4.0, -7.679884433746338, 164.93145751953125, 23.86056137084961, 63.05471420288086, 0.03200000151991844, -0.06400000303983688, 0.0, 0.0, 0.0, 0.0, 0.0, 0.0, 1.6215997249988568E9, 2021-05-21 14:22:04.998
5.0, -39.31195831298828, 136.59423828125, -5.052604675292969, 45.379947662353516, 0.03200000151991844, -0.06400000303983688, 0.0, 0.0, 0.0, 0.0, 0.0, 0.0, 1.6215997250132189E9, 2021-05-21 14:22:05.013
5.0, -82.9416275024414, 100.21248626708984, -51.03467559814453, 6.301731586456299, 0.03200000151991844, -0.06400000303983688, 0.0, 0.0, 0.0, 0.0, 0.0, 0.0, 1.6215997250132189E9, 2021-05-21 14:22:05.013
6.0, -39.37553787231445, 124.74623107910156, -17.147441864013672, 29.982778549194336, 0.03200000151991844, -0.06400000303983688, 0.0, 0.0, 0.0, 0.0, 0.0, 0.0, 1.6215997250138936E9, 2021-05-21 14:22:05.013
6.0, -6.670111656188965, 167.39979553222656, 24.055036544799805, 64.27391815185547, 0.03200000151991844, -0.06400000303983688, 0.0, 0.0, 0.0, 0.0, 0.0, 0.0, 1.6215997250138936E9, 2021-05-21 14:22:05.013
7.0, -24.46829605102539, 132.6822967529297, -4.974066734313965, 41.310935974121094, 0.03200000151991844, -0.06400000303983688, 0.0, 0.0, 0.0, 0.0, 0.0, 0.0, 1.6215997250438335E9, 2021-05-21 14:22:05.043
7.0, -85.52216339111328, 93.435791015625, -50.241817474365234, 13.766571998596191, 0.03200000151991844, -0.06400000303983688, 0.0, 0.0, 0.0, 0.0, 0.0, 0.0, 1.6215997250438335E9, 2021-05-21 14:22:05.043
8.0, -52.42030715942383, 117.75636291503906, -27.241432189941406, 28.045509338378906, 0.03200000151991844, -0.06400000303983688, 0.0, 0.0, 0.0, 0.0, 0.0, 0.0, 1.6215997250446048E9, 2021-05-21 14:22:05.044
8.0, -0.024309350177645683, 157.17864990234375, 24.61602210998535, 59.920677185058594, 0.03200000151991844, -0.06400000303983688, 0.0, 0.0, 0.0, 0.0, 0.0, 0.0, 1.6215997250446048E9, 2021-05-21 14:22:05.044
9.0, -34.801639556884766, 129.56321716308594, -5.639769077301025, 39.63172149658203, 0.03200000151991844, -0.06400000303983688, 0.0, 0.0, 0.0, 0.0, 0.0, 0.0, 1.6215997250454233E9, 2021-05-21 14:22:05.045
9.0, -74.49319458007812, 93.69384002685547, -46.6627311706543, 14.454712867736816, 0.03200000151991844, -0.06400000303983688, 0.0, 0.0, 0.0, 0.0, 0.0, 0.0, 1.6215997250454233E9, 2021-05-21 14:22:05.045
10.0, -52.117374420166016, 115.56851959228516, -22.375822067260742, 30.330589294433594, 0.03200000151991844, -0.06400000303983688, 1.055999994277954, 0.0, 0.0, 0.0, 0.0, 0.0, 1.6215997250574815E9, 2021-05-21 14:22:05.057
10.0, 4.605686664581299, 164.10867309570312, 25.32286262512207, 67.86422729492188, 0.03200000151991844, -0.06400000303983688, 1.055999994277954, 0.0, 0.0, 0.0, 0.0, 0.0, 1.6215997250574815E9, 2021-05-21 14:22:05.057
11.0, -43.69137954711914, 130.79739379882812, -5.568710803985596, 40.74620819091797, 0.03200000151991844, -0.06400000303983688, 1.055999994277954, 0.0, 0.0, 0.0, 0.0, 0.0, 1.621599725073138E9, 2021-05-21 14:22:05.073
11.0, -83.46895599365234, 93.88832092285156, -45.90727233886719, 13.882508277893066, 0.03200000151991844, -0.06400000303983688, 1.055999994277954, 0.0, 0.0, 0.0, 0.0, 0.0, 1.621599725073138E9, 2021-05-21 14:22:05.073
12.0, -50.98418426513672, 113.88182067871094, -21.007017135620117, 32.9709587097168, 0.03200000151991844, -0.06400000303983688, 1.055999994277954, 0.0, 0.0, 0.0, 0.0, 0.0, 1.62159972507386E9, 2021-05-21 14:22:05.073
12.0, -6.191404342651367, 156.50546264648438, 17.86924171447754, 59.924415588378906, 0.03200000151991844, -0.06400000303983688, 1.055999994277954, 0.0, 0.0, 0.0, 0.0, 0.0, 1.62159972507386E9, 2021-05-21 14:22:05.073
13.0, -35.40376281738281, 122.58831024169922, -10.393181800842285, 40.43579864501953, 0.03200000151991844, -0.06400000303983688, 1.055999994277954, 0.0, 0.0, 0.0, 0.0, 0.0, 1.6215997251038864E9, 2021-05-21 14:22:05.103
13.0, -79.18302917480469, 86.84608459472656, -52.69145202636719, 11.032705307006836, 0.03200000151991844, -0.06400000303983688, 1.055999994277954, 0.0, 0.0, 0.0, 0.0, 0.0, 1.6215997251038864E9, 2021-05-21 14:22:05.103
14.0, -47.75291442871094, 121.00259399414062, -22.435659408569336, 38.18063735961914, 0.03200000151991844, -0.06400000303983688, 1.055999994277954, 0.0, 0.0, 0.0, 0.0, 0.0, 1.6215997251046314E9, 2021-05-21 14:22:05.104
14.0, -5.824893951416016, 154.82998657226562, 18.142253875732422, 69.05351257324219, 0.03200000151991844, -0.06400000303983688, 1.055999994277954, 0.0, 0.0, 0.0, 0.0, 0.0, 1.6215997251046314E9, 2021-05-21 14:22:05.104
15.0, -33.791866302490234, 129.33883666992188, -9.342269897460938, 45.039615631103516, 0.03200000151991844, -0.06400000303983688, 1.055999994277954, 0.0, 0.0, 0.0, 0.0, 0.0, 1.621599725105364E9, 2021-05-21 14:22:05.105
15.0, -82.33950805664062, 90.3241958618164, -54.51652145385742, 10.27724552154541, 0.03200000151991844, -0.06400000303983688, 1.055999994277954, 0.0, 0.0, 0.0, 0.0, 0.0, 1.621599725105364E9, 2021-05-21 14:22:05.105
16.0, -43.22763442993164, 127.25944519042969, -17.79818344116211, 36.924034118652344, 0.03200000151991844, -0.06400000303983688, 1.055999994277954, 0.0, 0.0, 0.0, 0.0, 0.0, 1.6215997251174417E9, 2021-05-21 14:22:05.117
16.0, -3.9399845600128174, 161.8497772216797, 22.637615203857422, 68.38407135009766, 0.03200000151991844, -0.06400000303983688, 1.055999994277954, 0.0, 0.0, 0.0, 0.0, 0.0, 1.6215997251174417E9, 2021-05-21 14:22:05.117
17.0, -29.087072372436523, 138.76712036132812, -8.676568031311035, 48.805694580078125, 0.03200000151991844, -0.06400000303983688, 1.055999994277954, 0.0, 0.0, 0.0, 0.0, 0.0, 1.6215997251331067E9, 2021-05-21 14:22:05.133
17.0, -78.23310089111328, 96.94381713867188, -56.019962310791016, 8.078184127807617, 0.03200000151991844, -0.06400000303983688, 1.055999994277954, 0.0, 0.0, 0.0, 0.0, 0.0, 1.6215997251331067E9, 2021-05-21 14:22:05.133
18.0, -48.3812141418457, 128.9685821533203, -24.0438175201416, 31.71061134338379, 0.03200000151991844, -0.06400000303983688, 1.055999994277954, 0.0, 0.0, 0.0, 0.0, 0.0, 1.6215997251338232E9, 2021-05-21 14:22:05.133
18.0, 10.638145446777344, 167.31752014160156, 27.327449798583984, 70.6018295288086, 0.03200000151991844, -0.06400000303983688, 1.055999994277954, 0.0, 0.0, 0.0, 0.0, 0.0, 1.6215997251338232E9, 2021-05-21 14:22:05.133
19.0, -37.0081787109375, 140.50991821289062, 0.7965986728668213, 47.67624282836914, 0.03200000151991844, -0.06400000303983688, 1.055999994277954, 0.0, 0.0, 0.0, 0.0, 0.0, 1.621599725163633E9, 2021-05-21 14:22:05.163
19.0, -83.36424255371094, 104.27027893066406, -47.17136001586914, 12.465086936950684, 0.03200000151991844, -0.06400000303983688, 1.055999994277954, 0.0, 0.0, 0.0, 0.0, 0.0, 1.621599725163633E9, 2021-05-21 14:22:05.163
20.0, -52.60356140136719, 134.140869140625, -19.436260223388672, 36.722076416015625, 0.03200000151991844, -0.06400000303983688, 1.055999994277954, 0.0, 0.0, 0.0, 0.0, 0.0, 1.621599725164384E9, 2021-05-21 14:22:05.164
20.0, -10.858799934387207, 167.47833251953125, 19.286664962768555, 62.99861526489258, 0.03200000151991844, -0.06400000303983688, 1.055999994277954, 0.0, 0.0, 0.0, 0.0, 0.0, 1.621599725164384E9, 2021-05-21 14:22:05.164
21.0, -34.7081413269043, 134.61956787109375, -5.602370262145996, 46.52809524536133, 0.03200000151991844, -0.06400000303983688, 1.055999994277954, 0.0, 0.0, 0.0, 0.0, 0.0, 1.6215997251781976E9, 2021-05-21 14:22:05.178
21.0, -79.64303588867188, 98.92970275878906, -47.84828186035156, 14.379915237426758, 0.03200000151991844, -0.06400000303983688, 1.055999994277954, 0.0, 0.0, 0.0, 0.0, 0.0, 1.6215997251781976E9, 2021-05-21 14:22:05.178
22.0, -50.61767578125, 121.29430389404297, -28.064208984375, 30.569942474365234, 0.03200000151991844, -0.06400000303983688, 1.055999994277954, 0.0, 0.0, 0.0, 0.0, 0.0, 1.6215997251789212E9, 2021-05-21 14:22:05.178
22.0, -3.364039897918701, 164.3966522216797, 14.60430908203125, 69.96604919433594, 0.03200000151991844, -0.06400000303983688, 1.055999994277954, 0.0, 0.0, 0.0, 0.0, 0.0, 1.6215997251789212E9, 2021-05-21 14:22:05.178
23.0, -35.691734313964844, 132.46913146972656, -10.370742797851562, 49.36668014526367, 0.03200000151991844, -0.06400000303983688, 1.055999994277954, 0.0, 0.0, 0.0, 0.0, 0.0, 1.6215997251931772E9, 2021-05-21 14:22:05.193
23.0, -72.92991638183594, 94.75971221923828, -46.75249099731445, 19.77659034729004, 0.03200000151991844, -0.06400000303983688, 1.055999994277954, 0.0, 0.0, 0.0, 0.0, 0.0, 1.6215997251931772E9, 2021-05-21 14:22:05.193
24.0, -48.85244369506836, 114.03141784667969, -28.498037338256836, 37.06614685058594, 0.03200000151991844, -0.06400000303983688, 1.055999994277954, 0.0, 0.0, 0.0, 0.0, 0.0, 1.6215997251938865E9, 2021-05-21 14:22:05.193
24.0, 0.37585994601249695, 157.533935546875, 20.464733123779297, 70.15304565429688, 0.03200000151991844, -0.06400000303983688, 1.055999994277954, 0.0, 0.0, 0.0, 0.0, 0.0, 1.6215997251938865E9, 2021-05-21 14:22:05.193
25.0, -36.095645904541016, 119.62631225585938, -15.685140609741211, 40.8995475769043, 0.03200000151991844, -0.06400000303983688, 1.055999994277954, 0.0, 0.0, 0.0, 0.0, 0.0, 1.6215997252402139E9, 2021-05-21 14:22:05.240
25.0, -79.51214599609375, 101.20355987548828, -46.24386215209961, 14.308856964111328, 0.03200000151991844, -0.06400000303983688, 1.055999994277954, 0.0, 0.0, 0.0, 0.0, 0.0, 1.6215997252402139E9, 2021-05-21 14:22:05.240
26.0, -46.7917594909668, 115.83031463623047, -31.325401306152344, 32.668025970458984, 0.03200000151991844, -0.06400000303983688, 1.055999994277954, 0.0, 0.0, 0.0, 0.0, 0.0, 1.621599725240922E9, 2021-05-21 14:22:05.240
26.0, -8.742015838623047, 149.76242065429688, 12.775498390197754, 57.81511306762695, 0.03200000151991844, -0.06400000303983688, 1.055999994277954, 0.0, 0.0, 0.0, 0.0, 0.0, 1.621599725240922E9, 2021-05-21 14:22:05.240
27.0, -30.84856414794922, 125.85698699951172, -7.618175983428955, 39.975791931152344, 0.03200000151991844, -0.06400000303983688, 1.055999994277954, 0.0, 0.0, 0.0, 0.0, 0.0, 1.621599725241665E9, 2021-05-21 14:22:05.241
27.0, -82.86683654785156, 90.3017578125, -57.70665740966797, 2.6291496753692627, 0.03200000151991844, -0.06400000303983688, 1.055999994277954, 0.0, 0.0, 0.0, 0.0, 0.0, 1.621599725241665E9, 2021-05-21 14:22:05.241
28.0, -60.10954284667969, 121.65333557128906, -32.03598403930664, 18.194612503051758, 0.03200000151991844, -0.06400000303983688, 1.055999994277954, 0.0, 0.0, 0.0, 0.0, 0.0, 1.621599725242408E9, 2021-05-21 14:22:05.242
28.0, -7.870619297027588, 160.64927673339844, 16.212467193603516, 51.1693115234375, 0.03200000151991844, -0.06400000303983688, 1.055999994277954, 0.0, 0.0, 0.0, 0.0, 0.0, 1.621599725242408E9, 2021-05-21 14:22:05.242
29.0, -38.474220275878906, 136.22024536132812, -10.000492095947266, 34.874568939208984, 0.03200000151991844, -0.06400000303983688, 1.055999994277954, 0.0, 0.0, 0.0, 0.0, 0.0, 1.6215997252531242E9, 2021-05-21 14:22:05.253
29.0, -88.74969482421875, 101.40925598144531, -54.718475341796875, 3.429488182067871, 0.03200000151991844, -0.06400000303983688, 1.055999994277954, 0.0, 0.0, 0.0, 0.0, 0.0, 1.6215997252531242E9, 2021-05-21 14:22:05.253
30.0, -60.59572982788086, 121.01007080078125, -26.399953842163086, 26.123201370239258, 0.03200000151991844, -0.06400000303983688, 1.055999994277954, 0.0, 0.0, 0.0, 0.0, 0.0, 1.6215997252538216E9, 2021-05-21 14:22:05.253
30.0, -9.172104835510254, 167.3287353515625, 21.149133682250977, 62.123477935791016, 0.03200000151991844, -0.06400000303983688, 1.055999994277954, 0.0, 0.0, 0.0, 0.0, 0.0, 1.6215997252538216E9, 2021-05-21 14:22:05.253
31.0, -35.88621139526367, 132.3083038330078, -5.329357624053955, 45.73523712158203, 0.03200000151991844, -0.06400000303983688, 1.055999994277954, 0.0, 0.0, 0.0, 0.0, 0.0, 1.6215997252836277E9, 2021-05-21 14:22:05.283
31.0, -82.39934539794922, 92.3736572265625, -54.59880065917969, 14.776344299316406, 0.03200000151991844, -0.06400000303983688, 1.055999994277954, 0.0, 0.0, 0.0, 0.0, 0.0, 1.6215997252836277E9, 2021-05-21 14:22:05.283
32.0, -60.8051643371582, 119.35704040527344, -32.65680694580078, 34.822208404541016, 0.03200000151991844, -0.06400000303983688, 1.055999994277954, 0.0, 0.0, 0.0, 0.0, 0.0, 1.6215997252843647E9, 2021-05-21 14:22:05.284
32.0, -5.854813575744629, 164.2769775390625, 19.645694732666016, 70.88980102539062, 0.03200000151991844, -0.06400000303983688, 1.055999994277954, 0.0, 0.0, 0.0, 0.0, 0.0, 1.6215997252843647E9, 2021-05-21 14:22:05.284
33.0, -40.34416961669922, 124.58915710449219, -11.971419334411621, 44.269195556640625, 0.03200000151991844, -0.06400000303983688, 1.055999994277954, 0.0, 0.0, 0.0, 0.0, 0.0, 1.6215997252982032E9, 2021-05-21 14:22:05.298
33.0, -72.31283569335938, 93.09172058105469, -48.98521041870117, 16.657514572143555, 0.03200000151991844, -0.06400000303983688, 1.055999994277954, 0.0, 0.0, 0.0, 0.0, 0.0, 1.6215997252982032E9, 2021-05-21 14:22:05.298
34.0, -58.20967102050781, 120.95397186279297, -24.612281799316406, 35.71604537963867, 0.03200000151991844, -0.06400000303983688, 1.055999994277954, 0.0, 0.0, 0.0, 0.0, 0.0, 1.6215997252989144E9, 2021-05-21 14:22:05.298
34.0, -7.1749982833862305, 170.40293884277344, 26.209218978881836, 73.58253479003906, 0.03200000151991844, -0.06400000303983688, 1.055999994277954, 0.0, 0.0, 0.0, 0.0, 0.0, 1.6215997252989144E9, 2021-05-21 14:22:05.298
35.0, -37.180213928222656, 136.3399200439453, -2.692728042602539, 50.72426223754883, 0.03200000151991844, -0.06400000303983688, 1.055999994277954, 0.0, 0.0, 0.0, 0.0, 0.0, 1.6215997253296907E9, 2021-05-21 14:22:05.329
35.0, -81.7149429321289, 99.92825317382812, -47.612667083740234, 15.25879192352295, 0.03200000151991844, -0.06400000303983688, 1.055999994277954, 0.0, 0.0, 0.0, 0.0, 0.0, 1.6215997253296907E9, 2021-05-21 14:22:05.329
36.0, -58.59488296508789, 116.26788330078125, -30.21839141845703, 25.248064041137695, 0.03200000151991844, -0.06400000303983688, 1.055999994277954, 0.0, 0.0, 0.0, 0.0, 0.0, 1.621599725330348E9, 2021-05-21 14:22:05.330
36.0, -5.159192085266113, 171.40896606445312, 20.711565017700195, 61.454036712646484, 0.03200000151991844, -0.06400000303983688, 1.055999994277954, 0.0, 0.0, 0.0, 0.0, 0.0, 1.621599725330348E9, 2021-05-21 14:22:05.330
37.0, -35.33644485473633, 136.54562377929688, -8.108102798461914, 43.9737434387207, 0.03200000151991844, -0.06400000303983688, 1.055999994277954, 0.0, 0.0, 0.0, 0.0, 0.0, 1.6215997253311193E9, 2021-05-21 14:22:05.331
37.0, -88.6187973022461, 93.73123931884766, -55.821746826171875, 4.057791233062744, 0.03200000151991844, -0.06400000303983688, 1.055999994277954, 0.0, 0.0, 0.0, 0.0, 0.0, 1.6215997253311193E9, 2021-05-21 14:22:05.331
38.0, -58.991310119628906, 125.84202575683594, -28.84210777282715, 22.181346893310547, 0.03200000151991844, -0.06400000303983688, 1.055999994277954, 0.0, 0.0, 0.0, 0.0, 0.0, 1.6215997253318622E9, 2021-05-21 14:22:05.331
38.0, -7.006702423095703, 166.184326171875, 16.98662567138672, 56.43135070800781, 0.03200000151991844, -0.06400000303983688, 1.055999994277954, 0.0, 0.0, 0.0, 0.0, 0.0, 1.6215997253318622E9, 2021-05-21 14:22:05.331
39.0, -45.12376403808594, 133.460205078125, -8.904702186584473, 36.75947570800781, 0.03200000151991844, -0.06400000303983688, 1.055999994277954, 0.0, 0.0, 0.0, 0.0, 0.0, 1.621599725358183E9, 2021-05-21 14:22:05.358
39.0, -97.30284881591797, 97.74041748046875, -60.724754333496094, 7.330204010009766, 0.03200000151991844, -0.06400000303983688, 1.055999994277954, 0.0, 0.0, 0.0, 0.0, 0.0, 1.621599725358183E9, 2021-05-21 14:22:05.358
40.0, -60.36759567260742, 125.49795532226562, -30.087495803833008, 31.048648834228516, 0.03200000151991844, -0.06400000303983688, 1.055999994277954, 0.0, 0.0, 0.0, 0.0, 0.0, 1.62159972535898E9, 2021-05-21 14:22:05.358
40.0, -2.384186267852783, 159.75543212890625, 18.508764266967773, 64.53571319580078, 0.03200000151991844, -0.06400000303983688, 1.055999994277954, 0.0, 0.0, 0.0, 0.0, 0.0, 1.62159972535898E9, 2021-05-21 14:22:05.358
41.0, -41.9373664855957, 127.07618713378906, -12.532404899597168, 37.1671257019043, 0.03200000151991844, -0.06400000303983688, 1.055999994277954, 0.0, 0.0, 0.0, 0.0, 0.0, 1.6215997253732042E9, 2021-05-21 14:22:05.373
41.0, -79.99085235595703, 95.01776885986328, -48.648616790771484, 9.742439270019531, 0.03200000151991844, -0.06400000303983688, 1.055999994277954, 0.0, 0.0, 0.0, 0.0, 0.0, 1.6215997253732042E9, 2021-05-21 14:22:05.373
42.0, -56.40330123901367, 114.78314208984375, -26.695405960083008, 33.614219665527344, 0.03200000151991844, -0.06400000303983688, 1.055999994277954, 0.0, 0.0, 0.0, 0.0, 0.0, 1.621599725373985E9, 2021-05-21 14:22:05.373
42.0, -9.359099388122559, 157.45913696289062, 16.238645553588867, 53.65634536743164, 0.03200000151991844, -0.06400000303983688, 1.055999994277954, 0.0, 0.0, 0.0, 0.0, 0.0, 1.621599725373985E9, 2021-05-21 14:22:05.373
43.0, -40.17213439941406, 131.60147094726562, -7.5994768142700195, 38.47983169555664, 0.03200000151991844, -0.06400000303983688, 1.055999994277954, 0.0, 0.0, 0.0, 0.0, 0.0, 1.6215997253874588E9, 2021-05-21 14:22:05.387
43.0, -81.10160064697266, 93.79108428955078, -47.71364212036133, 10.39692211151123, 0.03200000151991844, -0.06400000303983688, 1.055999994277954, 0.0, 0.0, 0.0, 0.0, 0.0, 1.6215997253874588E9, 2021-05-21 14:22:05.387
44.0, -53.08974838256836, 121.46633911132812, -23.886741638183594, 28.557876586914062, 0.03200000151991844, -0.06400000303983688, 1.055999994277954, 0.0, 0.0, 0.0, 0.0, 0.0, 1.6215997254031963E9, 2021-05-21 14:22:05.403
44.0, -7.1488189697265625, 154.49713134765625, 21.160354614257812, 54.61750030517578, 0.03200000151991844, -0.06400000303983688, 1.055999994277954, 0.0, 0.0, 0.0, 0.0, 0.0, 1.6215997254031963E9, 2021-05-21 14:22:05.403
45.0, -38.410640716552734, 134.84022521972656, -1.686694860458374, 38.023563385009766, 0.03200000151991844, -0.06400000303983688, 1.055999994277954, 0.0, 0.0, 0.0, 0.0, 0.0, 1.6215997254038775E9, 2021-05-21 14:22:05.403
45.0, -97.96855163574219, 87.56414794921875, -63.798954010009766, -6.470026969909668, 0.03200000151991844, -0.06400000303983688, 1.055999994277954, 0.0, 0.0, 0.0, 0.0, 0.0, 1.6215997254038775E9, 2021-05-21 14:22:05.403
46.0, -58.048858642578125, 117.27017211914062, -33.487064361572266, 19.873828887939453, 0.03200000151991844, -0.06400000303983688, 1.055999994277954, 0.0, 0.0, 0.0, 0.0, 0.0, 1.6215997254174325E9, 2021-05-21 14:22:05.417
46.0, -19.928056716918945, 150.6712188720703, 8.710227012634277, 51.04215621948242, 0.03200000151991844, -0.06400000303983688, 1.055999994277954, 0.0, 0.0, 0.0, 0.0, 0.0, 1.6215997254174325E9, 2021-05-21 14:22:05.417
47.0, -42.55071258544922, 135.58445739746094, -11.67222785949707, 31.43385887145996, 0.03200000151991844, -0.06400000303983688, 1.055999994277954, 0.0, 0.0, 0.0, 0.0, 0.0, 1.6215997254332705E9, 2021-05-21 14:22:05.433
47.0, -87.57537078857422, 86.5468978881836, -53.83211898803711, 2.4870333671569824, 0.03200000151991844, -0.06400000303983688, 1.055999994277954, 0.0, 0.0, 0.0, 0.0, 0.0, 1.6215997254332705E9, 2021-05-21 14:22:05.433
48.0, -57.05404281616211, 107.7895278930664, -37.776729583740234, 23.66982650756836, 0.03200000151991844, -0.06400000303983688, 1.055999994277954, 0.0, 0.0, 0.0, 0.0, 0.0, 1.6215997254339788E9, 2021-05-21 14:22:05.433
48.0, -9.34414005279541, 151.50148010253906, 11.80312442779541, 54.27716827392578, 0.03200000151991844, -0.06400000303983688, 1.055999994277954, 0.0, 0.0, 0.0, 0.0, 0.0, 1.6215997254339788E9, 2021-05-21 14:22:05.433
49.0, -35.81515121459961, 130.64779663085938, -5.826764106750488, 41.00426483154297, 0.03200000151991844, -0.06400000303983688, 1.055999994277954, 0.0, 0.0, 0.0, 0.0, 0.0, 1.6215997254474647E9, 2021-05-21 14:22:05.447
49.0, -82.53024291992188, 91.85755157470703, -52.818607330322266, 10.890588760375977, 0.03200000151991844, -0.06400000303983688, 1.055999994277954, 0.0, 0.0, 0.0, 0.0, 0.0, 1.6215997254474647E9, 2021-05-21 14:22:05.447
50.0, -51.53769302368164, 115.44509887695312, -23.149980545043945, 27.649080276489258, 0.03200000151991844, -0.06400000303983688, 1.055999994277954, 0.0, 0.0, 0.0, 0.0, 0.0, 1.6215997254632072E9, 2021-05-21 14:22:05.463
50.0, -9.691950798034668, 150.244873046875, 8.755105972290039, 57.88991165161133, 0.03200000151991844, -0.06400000303983688, 1.055999994277954, 0.0, 0.0, 0.0, 0.0, 0.0, 1.6215997254632072E9, 2021-05-21 14:22:05.463
51.0, -29.88741111755371, 123.39238739013672, -11.156121253967285, 41.87192153930664, 0.03200000151991844, -0.06400000303983688, 1.055999994277954, 0.0, 0.0, 0.0, 0.0, 0.0, 1.6215997254639719E9, 2021-05-21 14:22:05.463
51.0, -77.85163116455078, 88.53278350830078, -56.147117614746094, 13.261685371398926, 0.03200000151991844, -0.06400000303983688, 1.055999994277954, 0.0, 0.0, 0.0, 0.0, 0.0, 1.6215997254639719E9, 2021-05-21 14:22:05.463
52.0, -47.457462310791016, 117.33374786376953, -33.3748664855957, 27.884693145751953, 0.03200000151991844, -0.06400000303983688, 1.055999994277954, 0.0, 0.0, 0.0, 0.0, 0.0, 1.6215997254946268E9, 2021-05-21 14:22:05.494
52.0, -10.451150894165039, 147.30157470703125, 10.853189468383789, 56.790382385253906, 0.03200000151991844, -0.06400000303983688, 1.055999994277954, 0.0, 0.0, 0.0, 0.0, 0.0, 1.6215997254946268E9, 2021-05-21 14:22:05.494
53.0, -37.68510055541992, 126.95651245117188, -11.788165092468262, 45.406124114990234, 0.03200000151991844, -0.06400000303983688, 1.055999994277954, 0.0, 0.0, 0.0, 0.0, 0.0, 1.6215997254953609E9, 2021-05-21 14:22:05.495
53.0, -86.86478424072266, 86.99942016601562, -55.21588134765625, 12.797937393188477, 0.03200000151991844, -0.06400000303983688, 1.055999994277954, 0.0, 0.0, 0.0, 0.0, 0.0, 1.6215997254953609E9, 2021-05-21 14:22:05.495
54.0, -52.880313873291016, 117.44220733642578, -30.4876651763916, 27.293790817260742, 0.03200000151991844, -0.06400000303983688, 1.055999994277954, 0.0, 0.0, 0.0, 0.0, 0.0, 1.6215997254960883E9, 2021-05-21 14:22:05.496
54.0, -10.825139999389648, 159.1981964111328, 15.535544395446777, 52.57551193237305, 0.03200000151991844, -0.06400000303983688, 1.055999994277954, 0.0, 0.0, 0.0, 0.0, 0.0, 1.6215997254960883E9, 2021-05-21 14:22:05.496
55.0, -36.54069137573242, 135.49844360351562, -3.3584301471710205, 39.08943557739258, 0.03200000151991844, -0.06400000303983688, 1.055999994277954, 0.0, 0.0, 0.0, 0.0, 0.0, 1.6215997255075133E9, 2021-05-21 14:22:05.507
55.0, -85.7839584350586, 90.53736877441406, -48.23722839355469, 4.551458358764648, 0.03200000151991844, -0.06400000303983688, 1.055999994277954, 0.0, 0.0, 0.0, 0.0, 0.0, 1.6215997255075133E9, 2021-05-21 14:22:05.507
56.0, -63.26601791381836, 113.34701538085938, -31.47125816345215, 15.771158218383789, 0.03200000151991844, -0.06400000303983688, 1.055999994277954, 0.0, 0.0, 0.0, 0.0, 0.0, 1.6215997255232148E9, 2021-05-21 14:22:05.523
56.0, -13.450550079345703, 153.09092712402344, 15.015698432922363, 62.38527297973633, 0.03200000151991844, -0.06400000303983688, 1.055999994277954, 0.0, 0.0, 0.0, 0.0, 0.0, 1.6215997255232148E9, 2021-05-21 14:22:05.523
57.0, -36.73890686035156, 125.2548599243164, -8.018345832824707, 44.67310333251953, 0.03200000151991844, -0.06400000303983688, 1.055999994277954, 0.0, 0.0, 0.0, 0.0, 0.0, 1.6215997255239196E9, 2021-05-21 14:22:05.523
57.0, -81.9729995727539, 84.75922393798828, -54.288387298583984, 14.881061553955078, 0.03200000151991844, -0.06400000303983688, 1.055999994277954, 0.0, 0.0, 0.0, 0.0, 0.0, 1.6215997255239196E9, 2021-05-21 14:22:05.523
58.0, -53.878868103027344, 111.27136993408203, -27.510704040527344, 34.683834075927734, 0.03200000151991844, -0.06400000303983688, 1.055999994277954, 0.0, 0.0, 0.0, 0.0, 0.0, 1.621599725554082E9, 2021-05-21 14:22:05.554
58.0, -9.901385307312012, 148.72647094726562, 17.461593627929688, 60.399383544921875, 0.03200000151991844, -0.06400000303983688, 1.055999994277954, 0.0, 0.0, 0.0, 0.0, 0.0, 1.621599725554082E9, 2021-05-21 14:22:05.554
59.0, -40.991172790527344, 130.21397399902344, -9.424548149108887, 44.617008209228516, 0.03200000151991844, -0.06400000303983688, 1.055999994277954, 0.0, 0.0, 0.0, 0.0, 0.0, 1.6215997255546455E9, 2021-05-21 14:22:05.554
59.0, -84.1234359741211, 90.57850646972656, -54.78205490112305, 14.563170433044434, 0.03200000151991844, -0.06400000303983688, 1.055999994277954, 0.0, 0.0, 0.0, 0.0, 0.0, 1.6215997255546455E9, 2021-05-21 14:22:05.554
60.0, -59.48497772216797, 102.84537506103516, -34.1565055847168, 31.549795150756836, 0.03200000151991844, -0.06400000303983688, 1.055999994277954, 0.0, 0.0, 0.0, 0.0, 0.0, 1.6215997255553687E9, 2021-05-21 14:22:05.555
60.0, 0.42073875665664673, 151.32196044921875, 20.090742111206055, 68.98245239257812, 0.03200000151991844, -0.06400000303983688, 1.055999994277954, 0.0, 0.0, 0.0, 0.0, 0.0, 1.6215997255553687E9, 2021-05-21 14:22:05.555
61.0, -38.71357345581055, 121.3990249633789, -7.879969120025635, 45.81751251220703, 0.03200000151991844, -0.06400000303983688, 1.055999994277954, 0.0, 0.0, 0.0, 0.0, 0.0, 1.621599725567528E9, 2021-05-21 14:22:05.567
61.0, -88.14757537841797, 84.90882110595703, -53.37211227416992, 7.786471843719482, 0.03200000151991844, -0.06400000303983688, 1.055999994277954, 0.0, 0.0, 0.0, 0.0, 0.0, 1.621599725567528E9, 2021-05-21 14:22:05.567
62.0, -58.909034729003906, 107.004150390625, -29.649927139282227, 35.435550689697266, 0.03200000151991844, -0.06400000303983688, 1.055999994277954, 0.0, 0.0, 0.0, 0.0, 0.0, 1.6215997255831914E9, 2021-05-21 14:22:05.583
62.0, -4.059661388397217, 155.0281982421875, 20.124401092529297, 68.72440338134766, 0.03200000151991844, -0.06400000303983688, 1.055999994277954, 0.0, 0.0, 0.0, 0.0, 0.0, 1.6215997255831914E9, 2021-05-21 14:22:05.583
63.0, -34.206993103027344, 127.27066802978516, -5.254559516906738, 45.34254837036133, 0.03200000151991844, -0.06400000303983688, 1.055999994277954, 0.0, 0.0, 0.0, 0.0, 0.0, 1.6215997255838456E9, 2021-05-21 14:22:05.583
63.0, -86.28510284423828, 92.50829315185547, -50.01742172241211, 11.324417114257812, 0.03200000151991844, -0.06400000303983688, 1.055999994277954, 0.0, 0.0, 0.0, 0.0, 0.0, 1.6215997255838456E9, 2021-05-21 14:22:05.583
64.0, -63.247318267822266, 120.6772232055664, -32.06216049194336, 28.845848083496094, 0.03200000151991844, -0.06400000303983688, 1.055999994277954, 0.0, 0.0, 0.0, 0.0, 0.0, 1.6215997255975964E9, 2021-05-21 14:22:05.597
64.0, -14.785694122314453, 157.82191467285156, 19.417560577392578, 62.987396240234375, 0.03200000151991844, -0.06400000303983688, 1.055999994277954, 0.0, 0.0, 0.0, 0.0, 0.0, 1.6215997255975964E9, 2021-05-21 14:22:05.597
65.0, -37.599082946777344, 133.29190063476562, 2.359876871109009, 41.797122955322266, 0.03200000151991844, -0.06400000303983688, 1.055999994277954, 0.0, 0.0, 0.0, 0.0, 0.0, 1.6215997256131353E9, 2021-05-21 14:22:05.613
65.0, -80.83232879638672, 98.095703125, -42.503963470458984, 9.989273071289062, 0.03200000151991844, -0.06400000303983688, 1.055999994277954, 0.0, 0.0, 0.0, 0.0, 0.0, 1.6215997256131353E9, 2021-05-21 14:22:05.613
66.0, -57.667388916015625, 118.7661361694336, -29.298376083374023, 28.84210777282715, 0.03200000151991844, -0.06400000303983688, 1.055999994277954, 0.0, 0.0, 0.0, 0.0, 0.0, 1.6215997256138916E9, 2021-05-21 14:22:05.613
66.0, -11.39360523223877, 159.7442169189453, 15.935713768005371, 58.55935287475586, 0.03200000151991844, -0.06400000303983688, 1.055999994277954, 0.0, 0.0, 0.0, 0.0, 0.0, 1.6215997256138916E9, 2021-05-21 14:22:05.613
67.0, -33.39917755126953, 133.8267059326172, -2.692728042602539, 44.44123077392578, 0.03200000151991844, -0.06400000303983688, 1.055999994277954, 0.0, 0.0, 0.0, 0.0, 0.0, 1.6215997256276088E9, 2021-05-21 14:22:05.627
67.0, -84.22815704345703, 103.60457611083984, -48.334468841552734, 11.799384117126465, 0.03200000151991844, -0.06400000303983688, 1.055999994277954, 0.0, 0.0, 0.0, 0.0, 0.0, 1.6215997256276088E9, 2021-05-21 14:22:05.627
68.0, -55.40100860595703, 120.83055877685547, -26.882400512695312, 22.992904663085938, 0.03200000151991844, -0.06400000303983688, 1.055999994277954, 0.0, 0.0, 0.0, 0.0, 0.0, 1.6215997256432145E9, 2021-05-21 14:22:05.643
68.0, -1.034082293510437, 172.84133911132812, 23.976499557495117, 66.54029846191406, 0.03200000151991844, -0.06400000303983688, 1.055999994277954, 0.0, 0.0, 0.0, 0.0, 0.0, 1.6215997256432145E9, 2021-05-21 14:22:05.643
69.0, -33.548770904541016, 145.0725860595703, -1.2753058671951294, 42.081356048583984, 0.03200000151991844, -0.06400000303983688, 1.055999994277954, 0.0, 0.0, 0.0, 0.0, 0.0, 1.6215997256439102E9, 2021-05-21 14:22:05.643
69.0, -72.0959243774414, 103.18196868896484, -43.44641876220703, 7.610696315765381, 0.03200000151991844, -0.06400000303983688, 1.055999994277954, 0.0, 0.0, 0.0, 0.0, 0.0, 1.6215997256439102E9, 2021-05-21 14:22:05.643
70.0, -43.60910415649414, 128.47865295410156, -17.865501403808594, 25.745471954345703, 0.03200000151991844, -0.06400000303983688, 1.055999994277954, 0.0, 0.0, 0.0, 0.0, 0.0, 1.6215997256574855E9, 2021-05-21 14:22:05.657
70.0, 1.2285571098327637, 170.0364227294922, 24.851634979248047, 53.499267578125, 0.03200000151991844, -0.06400000303983688, 1.055999994277954, 0.0, 0.0, 0.0, 0.0, 0.0, 1.6215997256574855E9, 2021-05-21 14:22:05.657
71.0, -27.213382720947266, 146.96871948242188, 3.4182684421539307, 35.92921829223633, 0.03200000151991844, -0.06400000303983688, 1.055999994277954, 0.0, 0.0, 0.0, 0.0, 0.0, 1.6215997256895049E9, 2021-05-21 14:22:05.689
71.0, -73.8237533569336, 105.79989624023438, -41.14263916015625, 5.187241077423096, 0.03200000151991844, -0.06400000303983688, 1.055999994277954, 0.0, 0.0, 0.0, 0.0, 0.0, 1.6215997256895049E9, 2021-05-21 14:22:05.689
72.0, -53.650733947753906, 124.8696517944336, -20.79384422302246, 19.754152297973633, 0.03200000151991844, -0.06400000303983688, 1.055999994277954, 0.0, 0.0, 0.0, 0.0, 0.0, 1.6215997256902285E9, 2021-05-21 14:22:05.690
72.0, -6.243762969970703, 174.07925415039062, 19.039831161499023, 50.01742172241211, 0.03200000151991844, -0.06400000303983688, 1.055999994277954, 0.0, 0.0, 0.0, 0.0, 0.0, 1.6215997256902285E9, 2021-05-21 14:22:05.690
73.0, -32.62501907348633, 149.3435516357422, 3.590303897857666, 33.90219497680664, 0.03200000151991844, -0.06400000303983688, 1.055999994277954, 0.0, 0.0, 0.0, 0.0, 0.0, 1.62159972569105E9, 2021-05-21 14:22:05.691
73.0, -76.16119384765625, 112.84213256835938, -43.797969818115234, 5.718307018280029, 0.03200000151991844, -0.06400000303983688, 1.055999994277954, 0.0, 0.0, 0.0, 0.0, 0.0, 1.62159972569105E9, 2021-05-21 14:22:05.691
74.0, -46.32052993774414, 129.87364196777344, -21.093036651611328, 25.281723022460938, 0.03200000151991844, -0.06400000303983688, 1.055999994277954, 0.0, 0.0, 0.0, 0.0, 0.0, 1.6215997256917467E9, 2021-05-21 14:22:05.691
74.0, 14.50146198272705, 179.86488342285156, 32.35387420654297, 66.87689208984375, 0.03200000151991844, -0.06400000303983688, 1.055999994277954, 0.0, 0.0, 0.0, 0.0, 0.0, 1.6215997256917467E9, 2021-05-21 14:22:05.691
75.0, -25.934335708618164, 136.23146057128906, -3.6239631175994873, 38.43121337890625, 0.03200000151991844, -0.06400000303983688, 1.055999994277954, 0.0, 0.0, 0.0, 0.0, 0.0, 1.621599725702541E9, 2021-05-21 14:22:05.702
75.0, -66.21305847167969, 100.81087493896484, -47.57526779174805, 12.603463172912598, 0.03200000151991844, -0.06400000303983688, 1.055999994277954, 0.0, 0.0, 0.0, 0.0, 0.0, 1.621599725702541E9, 2021-05-21 14:22:05.702
76.0, -48.594390869140625, 116.39877319335938, -24.36918830871582, 27.267610549926758, 0.03200000151991844, -0.06400000303983688, 1.055999994277954, 0.0, 0.0, 0.0, 0.0, 0.0, 1.6215997257174573E9, 2021-05-21 14:22:05.717
76.0, 0.9892035126686096, 167.31002807617188, 23.3519344329834, 59.494327545166016, 0.03200000151991844, -0.06400000303983688, 1.055999994277954, 0.0, 0.0, 0.0, 0.0, 0.0, 1.6215997257174573E9, 2021-05-21 14:22:05.717
77.0, -23.29396629333496, 132.9066925048828, -4.46544075012207, 40.5704345703125, 0.03200000151991844, -0.06400000303983688, 1.055999994277954, 0.0, 0.0, 0.0, 0.0, 0.0, 1.6215997257495332E9, 2021-05-21 14:22:05.749
77.0, -72.75040435791016, 98.03960418701172, -48.457881927490234, 7.958507061004639, 0.03200000151991844, -0.06400000303983688, 1.055999994277954, 0.0, 0.0, 0.0, 0.0, 0.0, 1.6215997257495332E9, 2021-05-21 14:22:05.749
78.0, -48.81130599975586, 120.7594985961914, -26.859960556030273, 29.04032325744629, 0.03200000151991844, -0.06400000303983688, 1.055999994277954, 0.0, 0.0, 0.0, 0.0, 0.0, 1.6215997257502944E9, 2021-05-21 14:22:05.750
78.0, 3.9138052463531494, 167.38108825683594, 22.50297737121582, 57.919830322265625, 0.03200000151991844, -0.06400000303983688, 1.055999994277954, 0.0, 0.0, 0.0, 0.0, 0.0, 1.6215997257502944E9, 2021-05-21 14:22:05.750
79.0, -18.877145767211914, 134.84396362304688, 3.160215377807617, 45.72775650024414, 0.03200000151991844, -0.06400000303983688, 1.055999994277954, 0.0, 0.0, 0.0, 0.0, 0.0, 1.6215997257510333E9, 2021-05-21 14:22:05.751
79.0, -74.96442413330078, 88.45050048828125, -46.33736038208008, 10.093990325927734, 0.03200000151991844, -0.06400000303983688, 1.055999994277954, 0.0, 0.0, 0.0, 0.0, 0.0, 1.6215997257510333E9, 2021-05-21 14:22:05.751
80.0, -48.47471237182617, 122.63318634033203, -26.497190475463867, 27.338668823242188, 0.03200000151991844, -0.06400000303983688, 1.055999994277954, 0.0, 0.0, 0.0, 0.0, 0.0, 1.6215997257517867E9, 2021-05-21 14:22:05.751
80.0, -2.37670636177063, 162.14523315429688, 17.528911590576172, 57.28778839111328, 0.03200000151991844, -0.06400000303983688, 1.055999994277954, 0.0, 0.0, 0.0, 0.0, 0.0, 1.6215997257517867E9, 2021-05-21 14:22:05.751
81.0, -28.234375, 131.96798706054688, -4.065271377563477, 36.680938720703125, 0.03200000151991844, -0.06400000303983688, 1.055999994277954, 0.0, 0.0, 0.0, 0.0, 0.0, 1.6215997257626042E9, 2021-05-21 14:22:05.762
81.0, -77.71324920654297, 93.25253295898438, -48.267147064208984, -0.856437087059021, 0.03200000151991844, -0.06400000303983688, 1.055999994277954, 0.0, 0.0, 0.0, 0.0, 0.0, 1.6215997257626042E9, 2021-05-21 14:22:05.762
82.0, -46.81045913696289, 120.9764175415039, -22.790950775146484, 20.479692459106445, 0.03200000151991844, -0.06400000303983688, 1.055999994277954, 0.0, 0.0, 0.0, 0.0, 0.0, 1.6215997257774985E9, 2021-05-21 14:22:05.777
82.0, -0.14024624228477478, 160.6717071533203, 27.114274978637695, 53.95179748535156, 0.03200000151991844, -0.06400000303983688, 1.055999994277954, 0.0, 0.0, 0.0, 0.0, 0.0, 1.6215997257774985E9, 2021-05-21 14:22:05.777
83.0, -27.11614418029785, 134.53355407714844, -2.861023426055908, 33.711456298828125, 0.03200000151991844, -0.06400000303983688, 1.055999994277954, 0.0, 0.0, 0.0, 0.0, 0.0, 1.6215997257939348E9, 2021-05-21 14:22:05.793
83.0, -70.15117645263672, 94.09400939941406, -46.17280578613281, 6.784178733825684, 0.03200000151991844, -0.06400000303983688, 1.055999994277954, 0.0, 0.0, 0.0, 0.0, 0.0, 1.6215997257939348E9, 2021-05-21 14:22:05.793
84.0, -53.082271575927734, 108.04757690429688, -27.8585147857666, 20.38245391845703, 0.03200000151991844, -0.06400000303983688, 1.055999994277954, 0.0, 0.0, 0.0, 0.0, 0.0, 1.6215997257946715E9, 2021-05-21 14:22:05.794
84.0, 6.139045715332031, 150.34210205078125, 20.00098419189453, 57.32892608642578, 0.03200000151991844, -0.06400000303983688, 1.055999994277954, 0.0, 0.0, 0.0, 0.0, 0.0, 1.6215997257946715E9, 2021-05-21 14:22:05.794
85.0, -19.86821937561035, 128.95736694335938, -0.3964293897151947, 42.78071594238281, 0.03200000151991844, -0.06400000303983688, 1.055999994277954, 0.0, 0.0, 0.0, 0.0, 0.0, 1.6215997258075516E9, 2021-05-21 14:22:05.807
85.0, -59.574737548828125, 96.59974670410156, -38.793983459472656, 17.095083236694336, 0.03200000151991844, -0.06400000303983688, 1.055999994277954, 0.0, 0.0, 0.0, 0.0, 0.0, 1.6215997258075516E9, 2021-05-21 14:22:05.807
86.0, -54.140663146972656, 106.85455322265625, -36.87541198730469, 19.982284545898438, 0.03200000151991844, -0.06400000303983688, 1.055999994277954, 0.0, 0.0, 0.0, 0.0, 0.0, 1.6215997258231657E9, 2021-05-21 14:22:05.823
86.0, 1.1088802814483643, 148.47964477539062, 11.474013328552246, 56.96989440917969, 0.03200000151991844, -0.06400000303983688, 1.055999994277954, 0.0, 0.0, 0.0, 0.0, 0.0, 1.6215997258231657E9, 2021-05-21 14:22:05.823
87.0, -25.08911895751953, 127.8802719116211, -3.182654857635498, 38.539669036865234, 0.03200000151991844, -0.06400000303983688, 1.055999994277954, 0.0, 0.0, 0.0, 0.0, 0.0, 1.62159972582389E9, 2021-05-21 14:22:05.823
87.0, -80.50321960449219, 81.82340240478516, -50.92621612548828, 10.310904502868652, 0.03200000151991844, -0.06400000303983688, 1.055999994277954, 0.0, 0.0, 0.0, 0.0, 0.0, 1.62159972582389E9, 2021-05-21 14:22:05.823
88.0, -52.67835998535156, 110.4149398803711, -24.87033462524414, 25.40888023376465, 0.03200000151991844, -0.06400000303983688, 1.055999994277954, 0.0, 0.0, 0.0, 0.0, 0.0, 1.62159972583756E9, 2021-05-21 14:22:05.837
88.0, -2.683378219604492, 153.79403686523438, 21.17531394958496, 61.461517333984375, 0.03200000151991844, -0.06400000303983688, 1.055999994277954, 0.0, 0.0, 0.0, 0.0, 0.0, 1.62159972583756E9, 2021-05-21 14:22:05.837
89.0, -33.42161560058594, 130.25137329101562, -3.1078567504882812, 38.307796478271484, 0.03200000151991844, -0.06400000303983688, 1.055999994277954, 0.0, 0.0, 0.0, 0.0, 0.0, 1.6215997258538833E9, 2021-05-21 14:22:05.853
89.0, -81.228759765625, 89.73703002929688, -44.119598388671875, 7.606956481933594, 0.03200000151991844, -0.06400000303983688, 1.055999994277954, 0.0, 0.0, 0.0, 0.0, 0.0, 1.6215997258538833E9, 2021-05-21 14:22:05.853
90.0, -53.078529357910156, 110.17558288574219, -31.64703369140625, 18.73689842224121, 0.03200000151991844, -0.06400000303983688, 1.055999994277954, 0.0, 0.0, 0.0, 0.0, 0.0, 1.6215997258546033E9, 2021-05-21 14:22:05.854
90.0, 1.8119815587997437, 152.71694946289062, 17.173620223999023, 55.481414794921875, 0.03200000151991844, -0.06400000303983688, 1.055999994277954, 0.0, 0.0, 0.0, 0.0, 0.0, 1.6215997258546033E9, 2021-05-21 14:22:05.854
91.0, -28.795360565185547, 131.66505432128906, -2.688987970352173, 37.918846130371094, 0.03200000151991844, -0.06400000303983688, 1.055999994277954, 0.0, 0.0, 0.0, 0.0, 0.0, 1.6215997258675673E9, 2021-05-21 14:22:05.867
91.0, -79.07083129882812, 87.74365997314453, -52.45583724975586, 6.836536884307861, 0.03200000151991844, -0.06400000303983688, 1.055999994277954, 0.0, 0.0, 0.0, 0.0, 0.0, 1.6215997258675673E9, 2021-05-21 14:22:05.867
92.0, -43.40340805053711, 116.83260345458984, -25.53603744506836, 22.450618743896484, 0.03200000151991844, -0.06400000303983688, 1.055999994277954, 0.0, 0.0, 0.0, 0.0, 0.0, 1.6215997258832395E9, 2021-05-21 14:22:05.883
92.0, 1.0939207077026367, 154.70657348632812, 16.17880630493164, 60.50410079956055, 0.03200000151991844, -0.06400000303983688, 1.055999994277954, 0.0, 0.0, 0.0, 0.0, 0.0, 1.6215997258832395E9, 2021-05-21 14:22:05.883
93.0, -23.10323143005371, 132.54766845703125, -3.448187828063965, 44.317813873291016, 0.03200000151991844, -0.06400000303983688, 1.055999994277954, 0.0, 0.0, 0.0, 0.0, 0.0, 1.6215997258839529E9, 2021-05-21 14:22:05.883
93.0, -64.55254364013672, 87.40333557128906, -46.14662551879883, 17.349395751953125, 0.03200000151991844, -0.06400000303983688, 1.055999994277954, 0.0, 0.0, 0.0, 0.0, 0.0, 1.6215997258839529E9, 2021-05-21 14:22:05.883
94.0, -54.86246109008789, 107.88676452636719, -35.47669219970703, 23.45665168762207, 0.03200000151991844, -0.06400000303983688, 1.055999994277954, 0.0, 0.0, 0.0, 0.0, 0.0, 1.6215997258975315E9, 2021-05-21 14:22:05.897
94.0, 5.2489495277404785, 154.85617065429688, 18.381608963012695, 62.19827651977539, 0.03200000151991844, -0.06400000303983688, 1.055999994277954, 0.0, 0.0, 0.0, 0.0, 0.0, 1.6215997258975315E9, 2021-05-21 14:22:05.897
95.0, -18.607872009277344, 138.9241943359375, 0.4151288866996765, 48.63739776611328, 0.03200000151991844, -0.06400000303983688, 1.055999994277954, 0.0, 0.0, 0.0, 0.0, 0.0, 1.6215997259132423E9, 2021-05-21 14:22:05.913
95.0, -72.35771179199219, 95.63484954833984, -46.01572799682617, 8.209080696105957, 0.03200000151991844, -0.06400000303983688, 1.055999994277954, 0.0, 0.0, 0.0, 0.0, 0.0, 1.6215997259132423E9, 2021-05-21 14:22:05.913
96.0, -51.934120178222656, 121.20829010009766, -15.853435516357422, 31.33662223815918, 0.03200000151991844, -0.06400000303983688, 1.055999994277954, 0.0, 0.0, 0.0, 0.0, 0.0, 1.6215997259138937E9, 2021-05-21 14:22:05.913
96.0, 5.80619478225708, 162.1564483642578, 26.55328941345215, 65.69882202148438, 0.03200000151991844, -0.06400000303983688, 1.055999994277954, 0.0, 0.0, 0.0, 0.0, 0.0, 1.6215997259138937E9, 2021-05-21 14:22:05.913
97.0, -26.095151901245117, 131.10032653808594, 0.23561370372772217, 44.706764221191406, 0.03200000151991844, -0.06400000303983688, 1.055999994277954, 0.0, 0.0, 0.0, 0.0, 0.0, 1.62159972592763E9, 2021-05-21 14:22:05.927
97.0, -74.9681625366211, 92.72146606445312, -51.83127212524414, 6.70564079284668, 0.03200000151991844, -0.06400000303983688, 1.055999994277954, 0.0, 0.0, 0.0, 0.0, 0.0, 1.62159972592763E9, 2021-05-21 14:22:05.927
98.0, -47.50233840942383, 121.58975982666016, -25.22562599182129, 24.458946228027344, 0.03200000151991844, -0.06400000303983688, 1.055999994277954, 0.0, 0.0, 0.0, 0.0, 0.0, 1.621599725943161E9, 2021-05-21 14:22:05.943
98.0, -1.643686056137085, 157.4366912841797, 20.704086303710938, 53.77602005004883, 0.03200000151991844, -0.06400000303983688, 1.055999994277954, 0.0, 0.0, 0.0, 0.0, 0.0, 1.621599725943161E9, 2021-05-21 14:22:05.943
99.0, -21.487594604492188, 132.95530700683594, -5.6472487449646, 39.74391555786133, 0.03200000151991844, -0.06400000303983688, 1.055999994277954, 0.0, 0.0, 0.0, 0.0, 0.0, 1.6215997259438856E9, 2021-05-21 14:22:05.943
99.0, -77.88902282714844, 91.1694107055664, -53.02804183959961, 9.428287506103516, 0.03200000151991844, -0.06400000303983688, 1.055999994277954, 0.0, 0.0, 0.0, 0.0, 0.0, 1.6215997259438856E9, 2021-05-21 14:22:05.943
100.0, -48.29145812988281, 113.22360229492188, -31.998584747314453, 21.781177520751953, 0.03200000151991844, -0.06400000303983688, 1.055999994277954, 0.0, 0.0, 0.0, 0.0, 0.0, 1.6215997259582622E9, 2021-05-21 14:22:05.958
100.0, 4.2690958976745605, 156.66253662109375, 20.49839210510254, 51.67045593261719, 0.03200000151991844, -0.06400000303983688, 1.055999994277954, 0.0, 0.0, 0.0, 0.0, 0.0, 1.6215997259582622E9, 2021-05-21 14:22:05.958
0.0, -24.690818786621094, 135.35446166992188, -11.720846176147461, 35.34953308105469, 0.03200000151991844, -0.06400000303983688, 1.055999994277954, 0.0, 0.0, 0.0, 0.0, 0.0, 1.621599725958901E9, 2021-05-21 14:22:05.958
1.0, -69.19937133789062, 94.79898071289062, -48.521461486816406, 8.661608695983887, 0.03200000151991844, -0.06400000303983688, 1.055999994277954, 0.0, 0.0, 0.0, 0.0, 0.0, 1.6215997259724295E9, 2021-05-21 14:22:05.972
1.0, -52.523155212402344, 113.3414077758789, -32.428672790527344, 19.376420974731445, 0.03200000151991844, -0.06400000303983688, 1.055999994277954, 0.0, 0.0, 0.0, 0.0, 0.0, 1.6215997259724295E9, 2021-05-21 14:22:05.972
2.0, 0.9536744952201843, 161.45147705078125, 13.175667762756348, 58.0058479309082, 0.03200000151991844, -0.06400000303983688, 1.055999994277954, 0.0, 0.0, 0.0, 0.0, 0.0, 1.6215997259881988E9, 2021-05-21 14:22:05.988
2.0, -21.76995849609375, 140.80723571777344, -4.618776321411133, 38.00486373901367, 0.03200000151991844, -0.06400000303983688, 1.055999994277954, 0.0, 0.0, 0.0, 0.0, 0.0, 1.6215997259881988E9, 2021-05-21 14:22:05.988
3.0, -77.7300796508789, 89.7501220703125, -55.74320983886719, 4.861869812011719, 0.03200000151991844, -0.06400000303983688, 1.055999994277954, 0.0, 0.0, 0.0, 0.0, 0.0, 1.6215997259889538E9, 2021-05-21 14:22:05.988
3.0, -46.191505432128906, 118.13970184326172, -32.716644287109375, 28.25494384765625, 0.03200000151991844, -0.06400000303983688, 1.055999994277954, 0.0, 0.0, 0.0, 0.0, 0.0, 1.6215997259889538E9, 2021-05-21 14:22:05.988
4.0, 0.5348057150840759, 161.40660095214844, 17.932819366455078, 60.13385009765625, 0.03200000151991844, -0.06400000303983688, 1.055999994277954, 0.0, 0.0, 0.0, 0.0, 0.0, 1.6215997260024483E9, 2021-05-21 14:22:06.002
4.0, -29.511550903320312, 138.74281311035156, -3.560384750366211, 40.39466094970703, 0.03200000151991844, -0.06400000303983688, 1.055999994277954, 0.0, 0.0, 0.0, 0.0, 0.0, 1.6215997260024483E9, 2021-05-21 14:22:06.002
5.0, -73.60123443603516, 97.73106384277344, -51.17304992675781, 16.036691665649414, 0.03200000151991844, -0.06400000303983688, 1.055999994277954, 0.0, 0.0, 0.0, 0.0, 0.0, 1.6215997260345895E9, 2021-05-21 14:22:06.034
5.0, -45.37620544433594, 114.68029022216797, -30.229610443115234, 31.714351654052734, 0.03200000151991844, -0.06400000303983688, 1.055999994277954, 0.0, 0.0, 0.0, 0.0, 0.0, 1.6215997260345895E9, 2021-05-21 14:22:06.034
6.0, 3.1078567504882812, 154.99267578125, 16.85198974609375, 64.21408081054688, 0.03200000151991844, -0.06400000303983688, 1.055999994277954, 0.0, 0.0, 0.0, 0.0, 0.0, 1.6215997260353537E9, 2021-05-21 14:22:06.035
6.0, -24.365447998046875, 130.13356018066406, -3.6613621711730957, 45.22660827636719, 0.03200000151991844, -0.06400000303983688, 1.055999994277954, 0.0, 0.0, 0.0, 0.0, 0.0, 1.6215997260353537E9, 2021-05-21 14:22:06.035
7.0, -75.30662536621094, 94.15198516845703, -46.73004913330078, 12.345409393310547, 0.03200000151991844, -0.06400000303983688, 1.055999994277954, 0.0, 0.0, 0.0, 0.0, 0.0, 1.6215997260359607E9, 2021-05-21 14:22:06.035
7.0, -52.89714431762695, 112.4550552368164, -33.85731506347656, 20.053342819213867, 0.03200000151991844, -0.06400000303983688, 1.055999994277954, 0.0, 0.0, 0.0, 0.0, 0.0, 1.6215997260359607E9, 2021-05-21 14:22:06.035
8.0, 4.383162975311279, 160.80821228027344, 17.072643280029297, 66.04289245605469, 0.03200000151991844, -0.06400000303983688, 1.055999994277954, 0.0, 0.0, 0.0, 0.0, 0.0, 1.6215997260367985E9, 2021-05-21 14:22:06.036
8.0, -27.82485580444336, 130.72071838378906, -11.941500663757324, 41.355812072753906, 0.03200000151991844, -0.06400000303983688, 1.055999994277954, 0.0, 0.0, 0.0, 0.0, 0.0, 1.6215997260367985E9, 2021-05-21 14:22:06.036
9.0, -73.10008239746094, 94.16320037841797, -52.49323654174805, 5.35927677154541, 0.03200000151991844, -0.06400000303983688, 1.055999994277954, 0.0, 0.0, 0.0, 0.0, 0.0, 1.6215997260474665E9, 2021-05-21 14:22:06.047
9.0, -47.7061653137207, 110.65242004394531, -31.6732120513916, 20.91352081298828, 0.03200000151991844, -0.06400000303983688, 1.055999994277954, 0.0, 0.0, 0.0, 0.0, 0.0, 1.6215997260474665E9, 2021-05-21 14:22:06.047
10.0, 0.4338283836841583, 157.52084350585938, 14.87732219696045, 51.5395622253418, 0.03200000151991844, -0.06400000303983688, 1.055999994277954, 0.0, 0.0, 0.0, 0.0, 0.0, 1.6215997260626175E9, 2021-05-21 14:22:06.062
10.0, -20.374975204467773, 129.55014038085938, -5.7519659996032715, 35.51782989501953, 0.03200000151991844, -0.06400000303983688, 1.055999994277954, 0.0, 0.0, 0.0, 0.0, 0.0, 1.6215997260626175E9, 2021-05-21 14:22:06.062
11.0, -79.79824829101562, 87.30048370361328, -56.69688415527344, -3.051758289337158, 0.03200000151991844, -0.06400000303983688, 1.055999994277954, 0.0, 0.0, 0.0, 0.0, 0.0, 1.6215997260781355E9, 2021-05-21 14:22:06.078
11.0, -49.21334457397461, 115.906982421875, -38.7341423034668, 16.694913864135742, 0.03200000151991844, -0.06400000303983688, 1.055999994277954, 0.0, 0.0, 0.0, 0.0, 0.0, 1.6215997260781355E9, 2021-05-21 14:22:06.078
12.0, 8.209080696105957, 159.58526611328125, 19.170726776123047, 52.97568130493164, 0.03200000151991844, -0.06400000303983688, 1.055999994277954, 0.0, 0.0, 0.0, 0.0, 0.0, 1.6215997260788767E9, 2021-05-21 14:22:06.078
12.0, -24.634721755981445, 143.81411743164062, -7.39752197265625, 39.38114547729492, 0.03200000151991844, -0.06400000303983688, 1.055999994277954, 0.0, 0.0, 0.0, 0.0, 0.0, 1.6215997260788767E9, 2021-05-21 14:22:06.078
13.0, -68.3130111694336, 91.47047424316406, -50.728004455566406, 16.8669490814209, 0.03200000151991844, -0.06400000303983688, 1.055999994277954, 0.0, 0.0, 0.0, 0.0, 0.0, 1.6215997260924723E9, 2021-05-21 14:22:06.092
13.0, -47.837059020996094, 116.752197265625, -32.948516845703125, 32.12200164794922, 0.03200000151991844, -0.06400000303983688, 1.055999994277954, 0.0, 0.0, 0.0, 0.0, 0.0, 1.6215997260924723E9, 2021-05-21 14:22:06.092
14.0, -2.5431320667266846, 154.27835083007812, 14.368695259094238, 65.06304168701172, 0.03200000151991844, -0.06400000303983688, 1.055999994277954, 0.0, 0.0, 0.0, 0.0, 0.0, 1.621599726108156E9, 2021-05-21 14:22:06.108
14.0, -26.3737735748291, 129.49029541015625, -3.6052634716033936, 42.82559585571289, 0.03200000151991844, -0.06400000303983688, 1.055999994277954, 0.0, 0.0, 0.0, 0.0, 0.0, 1.621599726108156E9, 2021-05-21 14:22:06.108
15.0, -80.119873046875, 91.04412078857422, -54.36318588256836, 13.160707473754883, 0.03200000151991844, -0.06400000303983688, 1.055999994277954, 0.0, 0.0, 0.0, 0.0, 0.0, 1.6215997261088748E9, 2021-05-21 14:22:06.108
15.0, -48.43544387817383, 115.3310317993164, -27.510704040527344, 34.73619079589844, 0.03200000151991844, -0.06400000303983688, 1.055999994277954, 0.0, 0.0, 0.0, 0.0, 0.0, 1.6215997261088748E9, 2021-05-21 14:22:06.108
16.0, 9.671380996704102, 161.70953369140625, 22.181346893310547, 68.87025451660156, 0.03200000151991844, -0.06400000303983688, 1.055999994277954, 0.0, 0.0, 0.0, 0.0, 0.0, 1.621599726122471E9, 2021-05-21 14:22:06.122
16.0, -18.149734497070312, 132.82254028320312, -3.2200539112091064, 47.7248649597168, 0.03200000151991844, -0.06400000303983688, 1.055999994277954, 0.0, 0.0, 0.0, 0.0, 0.0, 1.621599726122471E9, 2021-05-21 14:22:06.122
17.0, -75.62451934814453, 90.44947814941406, -58.24894332885742, 11.556290626525879, 0.03200000151991844, -0.06400000303983688, 1.055999994277954, 0.0, 0.0, 0.0, 0.0, 0.0, 1.6215997261381073E9, 2021-05-21 14:22:06.138
17.0, -44.699283599853516, 122.68741607666016, -29.51902961730957, 32.09208297729492, 0.03200000151991844, -0.06400000303983688, 1.055999994277954, 0.0, 0.0, 0.0, 0.0, 0.0, 1.6215997261381073E9, 2021-05-21 14:22:06.138
18.0, 1.574497938156128, 158.21646118164062, 15.120415687561035, 59.32977294921875, 0.03200000151991844, -0.06400000303983688, 1.055999994277954, 0.0, 0.0, 0.0, 0.0, 0.0, 1.621599726138913E9, 2021-05-21 14:22:06.138
18.0, -20.87238121032715, 141.39439392089844, -1.92978835105896, 41.23613739013672, 0.03200000151991844, -0.06400000303983688, 1.055999994277954, 0.0, 0.0, 0.0, 0.0, 0.0, 1.621599726138913E9, 2021-05-21 14:22:06.138
19.0, -68.77301788330078, 98.2022933959961, -50.092220306396484, 6.63458251953125, 0.03200000151991844, -0.06400000303983688, 1.055999994277954, 0.0, 0.0, 0.0, 0.0, 0.0, 1.6215997261525116E9, 2021-05-21 14:22:06.152
19.0, -43.24072265625, 123.76077270507812, -32.383792877197266, 17.66354751586914, 0.03200000151991844, -0.06400000303983688, 1.055999994277954, 0.0, 0.0, 0.0, 0.0, 0.0, 1.6215997261525116E9, 2021-05-21 14:22:06.152
20.0, 10.329604148864746, 169.12576293945312, 20.53205108642578, 50.88134002685547, 0.03200000151991844, -0.06400000303983688, 1.055999994277954, 0.0, 0.0, 0.0, 0.0, 0.0, 1.6215997261681983E9, 2021-05-21 14:22:06.168
20.0, -20.352535247802734, 148.5525665283203, -5.2882184982299805, 30.730758666992188, 0.03200000151991844, -0.06400000303983688, 1.055999994277954, 0.0, 0.0, 0.0, 0.0, 0.0, 1.6215997261681983E9, 2021-05-21 14:22:06.168
21.0, -66.58143615722656, 107.67919921875, -48.30080795288086, 11.810604095458984, 0.03200000151991844, -0.06400000303983688, 1.055999994277954, 0.0, 0.0, 0.0, 0.0, 0.0, 1.6215997261689515E9, 2021-05-21 14:22:06.168
21.0, -49.6845703125, 123.81312561035156, -36.28824996948242, 22.402000427246094, 0.03200000151991844, -0.06400000303983688, 1.055999994277954, 0.0, 0.0, 0.0, 0.0, 0.0, 1.6215997261689515E9, 2021-05-21 14:22:06.168
22.0, -1.0434321165084839, 166.55270385742188, 18.01883888244629, 65.61654663085938, 0.03200000151991844, -0.06400000303983688, 1.055999994277954, 0.0, 0.0, 0.0, 0.0, 0.0, 1.6215997261995056E9, 2021-05-21 14:22:06.199
22.0, -26.859960556030273, 145.94212341308594, -3.4893267154693604, 46.565494537353516, 0.03200000151991844, -0.06400000303983688, 1.055999994277954, 0.0, 0.0, 0.0, 0.0, 0.0, 1.6215997261995056E9, 2021-05-21 14:22:06.199
23.0, -75.25052642822266, 99.39906311035156, -49.72196960449219, 9.641462326049805, 0.03200000151991844, -0.06400000303983688, 1.055999994277954, 0.0, 0.0, 0.0, 0.0, 0.0, 1.6215997262002423E9, 2021-05-21 14:22:06.200
23.0, -46.81980895996094, 124.34419250488281, -30.816776275634766, 31.89386749267578, 0.03200000151991844, -0.06400000303983688, 1.055999994277954, 0.0, 0.0, 0.0, 0.0, 0.0, 1.6215997262002423E9, 2021-05-21 14:22:06.200
24.0, 2.4346749782562256, 168.83404541015625, 14.432273864746094, 63.83635330200195, 0.03200000151991844, -0.06400000303983688, 1.055999994277954, 0.0, 0.0, 0.0, 0.0, 0.0, 1.6215997262010567E9, 2021-05-21 14:22:06.201
24.0, -26.351335525512695, 135.9116973876953, -4.506579399108887, 46.10922622680664, 0.03200000151991844, -0.06400000303983688, 1.055999994277954, 0.0, 0.0, 0.0, 0.0, 0.0, 1.6215997262010567E9, 2021-05-21 14:22:06.201
25.0, -68.30927276611328, 102.95196533203125, -52.538116455078125, 16.021732330322266, 0.03200000151991844, -0.06400000303983688, 1.055999994277954, 0.0, 0.0, 0.0, 0.0, 0.0, 1.6215997262124531E9, 2021-05-21 14:22:06.212
25.0, -43.753089904785156, 122.14887237548828, -37.47379684448242, 29.91546058654785, 0.03200000151991844, -0.06400000303983688, 1.055999994277954, 0.0, 0.0, 0.0, 0.0, 0.0, 1.6215997262124531E9, 2021-05-21 14:22:06.212
26.0, -0.6170834898948669, 165.61773681640625, 10.381961822509766, 67.64730834960938, 0.03200000151991844, -0.06400000303983688, 1.055999994277954, 0.0, 0.0, 0.0, 0.0, 0.0, 1.6215997262281792E9, 2021-05-21 14:22:06.228
26.0, -18.89397430419922, 142.4079132080078, -9.690080642700195, 48.54389953613281, 0.03200000151991844, -0.06400000303983688, 1.055999994277954, 0.0, 0.0, 0.0, 0.0, 0.0, 1.6215997262281792E9, 2021-05-21 14:22:06.228
27.0, -67.07884216308594, 98.55758666992188, -59.546688079833984, 11.444093704223633, 0.03200000151991844, -0.06400000303983688, 1.055999994277954, 0.0, 0.0, 0.0, 0.0, 0.0, 1.6215997262289717E9, 2021-05-21 14:22:06.228
27.0, -49.38911819458008, 124.4638671875, -37.66827392578125, 23.370634078979492, 0.03200000151991844, -0.06400000303983688, 1.055999994277954, 0.0, 0.0, 0.0, 0.0, 0.0, 1.6215997262289717E9, 2021-05-21 14:22:06.228
28.0, 2.206541061401367, 164.88470458984375, 7.419961452484131, 50.814022064208984, 0.03200000151991844, -0.06400000303983688, 1.055999994277954, 0.0, 0.0, 0.0, 0.0, 0.0, 1.6215997262424734E9, 2021-05-21 14:22:06.242
28.0, -23.3220157623291, 137.3665313720703, -9.940653800964355, 31.920045852661133, 0.03200000151991844, -0.06400000303983688, 1.055999994277954, 0.0, 0.0, 0.0, 0.0, 0.0, 1.6215997262424734E9, 2021-05-21 14:22:06.242
29.0, -74.62222290039062, 98.57628631591797, -55.63475036621094, -4.947887420654297, 0.03200000151991844, -0.06400000303983688, 1.055999994277954, 0.0, 0.0, 0.0, 0.0, 0.0, 1.6215997262581732E9, 2021-05-21 14:22:06.258
29.0, -54.063995361328125, 123.91036224365234, -35.12514114379883, 17.738346099853516, 0.03200000151991844, -0.06400000303983688, 1.055999994277954, 0.0, 0.0, 0.0, 0.0, 0.0, 1.6215997262581732E9, 2021-05-21 14:22:06.258
30.0, -8.22778034210205, 165.25869750976562, 7.001092910766602, 46.24760437011719, 0.03200000151991844, -0.06400000303983688, 1.055999994277954, 0.0, 0.0, 0.0, 0.0, 0.0, 1.6215997262588947E9, 2021-05-21 14:22:06.258
30.0, -25.031150817871094, 147.20620727539062, -11.907841682434082, 31.213205337524414, 0.03200000151991844, -0.06400000303983688, 1.055999994277954, 0.0, 0.0, 0.0, 0.0, 0.0, 1.6215997262588947E9, 2021-05-21 14:22:06.258
31.0, -75.94615173339844, 105.6895751953125, -54.23603057861328, -0.4151288866996765, 0.03200000151991844, -0.06400000303983688, 1.055999994277954, 0.0, 0.0, 0.0, 0.0, 0.0, 1.62159972627248E9, 2021-05-21 14:22:06.272
31.0, -55.46271514892578, 125.79527282714844, -31.24312400817871, 21.717599868774414, 0.03200000151991844, -0.06400000303983688, 1.055999994277954, 0.0, 0.0, 0.0, 0.0, 0.0, 1.62159972627248E9, 2021-05-21 14:22:06.272
32.0, -2.505733013153076, 170.4683837890625, 17.730865478515625, 61.71957015991211, 0.03200000151991844, -0.06400000303983688, 1.055999994277954, 0.0, 0.0, 0.0, 0.0, 0.0, 1.6215997262881653E9, 2021-05-21 14:22:06.288
32.0, -28.752351760864258, 150.39259338378906, -3.500546455383301, 51.378746032714844, 0.03200000151991844, -0.06400000303983688, 1.055999994277954, 0.0, 0.0, 0.0, 0.0, 0.0, 1.6215997262881653E9, 2021-05-21 14:22:06.288
33.0, -76.55949401855469, 103.0005874633789, -55.399139404296875, 15.333589553833008, 0.03200000151991844, -0.06400000303983688, 1.055999994277954, 0.0, 0.0, 0.0, 0.0, 0.0, 1.621599726288902E9, 2021-05-21 14:22:06.288
33.0, -50.92247772216797, 125.17819213867188, -30.1061954498291, 35.09148025512695, 0.03200000151991844, -0.06400000303983688, 1.055999994277954, 0.0, 0.0, 0.0, 0.0, 0.0, 1.621599726288902E9, 2021-05-21 14:22:06.288
34.0, 1.8886494636535645, 161.2345733642578, 17.506471633911133, 64.73392486572266, 0.03200000151991844, -0.06400000303983688, 1.055999994277954, 0.0, 0.0, 0.0, 0.0, 0.0, 1.6215997263024485E9, 2021-05-21 14:22:06.302
34.0, -27.521923065185547, 137.269287109375, -8.571850776672363, 45.02839660644531, 0.03200000151991844, -0.06400000303983688, 1.055999994277954, 0.0, 0.0, 0.0, 0.0, 0.0, 1.6215997263024485E9, 2021-05-21 14:22:06.302
35.0, -68.45138549804688, 100.0909423828125, -53.4282112121582, 12.913874626159668, 0.03200000151991844, -0.06400000303983688, 1.055999994277954, 0.0, 0.0, 0.0, 0.0, 0.0, 1.6215997263181746E9, 2021-05-21 14:22:06.318
35.0, -43.91016387939453, 114.43345642089844, -34.8596076965332, 28.045509338378906, 0.03200000151991844, -0.06400000303983688, 1.055999994277954, 0.0, 0.0, 0.0, 0.0, 0.0, 1.6215997263181746E9, 2021-05-21 14:22:06.318
36.0, -3.582824230194092, 159.56283569335938, 13.01859188079834, 66.00923156738281, 0.03200000151991844, -0.06400000303983688, 1.055999994277954, 0.0, 0.0, 0.0, 0.0, 0.0, 1.6215997263188972E9, 2021-05-21 14:22:06.318
36.0, -17.338176727294922, 139.32249450683594, -7.562077522277832, 52.339900970458984, 0.03200000151991844, -0.06400000303983688, 1.055999994277954, 0.0, 0.0, 0.0, 0.0, 0.0, 1.6215997263188972E9, 2021-05-21 14:22:06.318
37.0, -72.93553161621094, 95.1729736328125, -58.267642974853516, 15.329850196838379, 0.03200000151991844, -0.06400000303983688, 1.055999994277954, 0.0, 0.0, 0.0, 0.0, 0.0, 1.621599726332432E9, 2021-05-21 14:22:06.332
37.0, -47.71364212036133, 123.49149322509766, -28.19136619567871, 30.704578399658203, 0.03200000151991844, -0.06400000303983688, 1.055999994277954, 0.0, 0.0, 0.0, 0.0, 0.0, 1.621599726332432E9, 2021-05-21 14:22:06.332
38.0, 1.5333589315414429, 157.5694580078125, 17.199800491333008, 58.3461799621582, 0.03200000151991844, -0.06400000303983688, 1.055999994277954, 0.0, 0.0, 0.0, 0.0, 0.0, 1.6215997263481903E9, 2021-05-21 14:22:06.348
38.0, -22.39078140258789, 145.2951202392578, -1.8587303161621094, 39.452205657958984, 0.03200000151991844, -0.06400000303983688, 1.055999994277954, 0.0, 0.0, 0.0, 0.0, 0.0, 1.6215997263481903E9, 2021-05-21 14:22:06.348
39.0, -79.11384582519531, 100.04606628417969, -53.248695373535156, 1.5445786714553833, 0.03200000151991844, -0.06400000303983688, 1.055999994277954, 0.0, 0.0, 0.0, 0.0, 0.0, 1.621599726348895E9, 2021-05-21 14:22:06.348
39.0, -47.7772216796875, 129.49029541015625, -31.71061134338379, 16.373281478881836, 0.03200000151991844, -0.06400000303983688, 1.055999994277954, 0.0, 0.0, 0.0, 0.0, 0.0, 1.621599726348895E9, 2021-05-21 14:22:06.348
40.0, -2.7675259113311768, 152.1503448486328, 13.990965843200684, 51.001014709472656, 0.03200000151991844, -0.06400000303983688, 1.055999994277954, 0.0, 0.0, 0.0, 0.0, 0.0, 1.621599726362444E9, 2021-05-21 14:22:06.362
40.0, -31.77419090270996, 145.04080200195312, -1.0247325897216797, 36.149871826171875, 0.03200000151991844, -0.06400000303983688, 1.055999994277954, 0.0, 0.0, 0.0, 0.0, 0.0, 1.621599726362444E9, 2021-05-21 14:22:06.362
41.0, -70.5419921875, 107.46976470947266, -44.119598388671875, 11.275798797607422, 0.03200000151991844, -0.06400000303983688, 1.055999994277954, 0.0, 0.0, 0.0, 0.0, 0.0, 1.621599726378605E9, 2021-05-21 14:22:06.378
41.0, -53.293575286865234, 126.08324432373047, -31.97988510131836, 26.624347686767578, 0.03200000151991844, -0.06400000303983688, 1.055999994277954, 0.0, 0.0, 0.0, 0.0, 0.0, 1.621599726378605E9, 2021-05-21 14:22:06.378
42.0, 0.47122740745544434, 168.15338134765625, 15.763678550720215, 64.44969940185547, 0.03200000151991844, -0.06400000303983688, 1.055999994277954, 0.0, 0.0, 0.0, 0.0, 0.0, 1.6215997263935845E9, 2021-05-21 14:22:06.393
42.0, -19.948625564575195, 140.85585021972656, -3.4930665493011475, 47.63510513305664, 0.03200000151991844, -0.06400000303983688, 1.055999994277954, 0.0, 0.0, 0.0, 0.0, 0.0, 1.6215997263935845E9, 2021-05-21 14:22:06.393
43.0, -71.09175872802734, 95.92843627929688, -52.80738830566406, 11.36181640625, 0.03200000151991844, -0.06400000303983688, 1.055999994277954, 0.0, 0.0, 0.0, 0.0, 0.0, 1.6215997264088025E9, 2021-05-21 14:22:06.408
43.0, -38.31527328491211, 117.76197052001953, -32.32021713256836, 30.031396865844727, 0.03200000151991844, -0.06400000303983688, 1.055999994277954, 0.0, 0.0, 0.0, 0.0, 0.0, 1.6215997264088025E9, 2021-05-21 14:22:06.408
44.0, 8.347456932067871, 161.8142547607422, 14.099422454833984, 59.98799514770508, 0.03200000151991844, -0.06400000303983688, 1.055999994277954, 0.0, 0.0, 0.0, 0.0, 0.0, 1.6215997264095914E9, 2021-05-21 14:22:06.409
44.0, -18.374128341674805, 138.5782470703125, -8.246479034423828, 43.596012115478516, 0.03200000151991844, -0.06400000303983688, 1.055999994277954, 0.0, 0.0, 0.0, 0.0, 0.0, 1.6215997264095914E9, 2021-05-21 14:22:06.409
45.0, -67.82682800292969, 96.15282440185547, -59.41579055786133, 8.500792503356934, 0.03200000151991844, -0.06400000303983688, 1.055999994277954, 0.0, 0.0, 0.0, 0.0, 0.0, 1.621599726410358E9, 2021-05-21 14:22:06.410
45.0, -44.474891662597656, 121.67764282226562, -39.57188034057617, 25.292943954467773, 0.03200000151991844, -0.06400000303983688, 1.055999994277954, 0.0, 0.0, 0.0, 0.0, 0.0, 1.621599726410358E9, 2021-05-21 14:22:06.410
46.0, 8.811203956604004, 164.88470458984375, 10.090250015258789, 56.8614387512207, 0.03200000151991844, -0.06400000303983688, 1.055999994277954, 0.0, 0.0, 0.0, 0.0, 0.0, 1.6215997264225483E9, 2021-05-21 14:22:06.422
46.0, -24.245771408081055, 144.734130859375, -7.5695576667785645, 37.72063064575195, 0.03200000151991844, -0.06400000303983688, 1.055999994277954, 0.0, 0.0, 0.0, 0.0, 0.0, 1.6215997264225483E9, 2021-05-21 14:22:06.422
47.0, -66.37948608398438, 100.92868041992188, -54.535221099853516, 3.1938745975494385, 0.03200000151991844, -0.06400000303983688, 1.055999994277954, 0.0, 0.0, 0.0, 0.0, 0.0, 1.621599726455208E9, 2021-05-21 14:22:06.455
47.0, -53.59276580810547, 123.20352172851562, -40.547996520996094, 15.913274765014648, 0.03200000151991844, -0.06400000303983688, 1.055999994277954, 0.0, 0.0, 0.0, 0.0, 0.0, 1.621599726455208E9, 2021-05-21 14:22:06.455
48.0, 5.650989055633545, 171.9942626953125, 11.081323623657227, 56.551025390625, 0.03200000151991844, -0.06400000303983688, 1.055999994277954, 0.0, 0.0, 0.0, 0.0, 0.0, 1.621599726455911E9, 2021-05-21 14:22:06.455
48.0, -11.144902229309082, 145.10812377929688, -1.8101115226745605, 44.47114944458008, 0.03200000151991844, -0.06400000303983688, 1.055999994277954, 0.0, 0.0, 0.0, 0.0, 0.0, 1.621599726455911E9, 2021-05-21 14:22:06.455
49.0, -65.19767761230469, 99.02133178710938, -49.91644287109375, 7.539638519287109, 0.03200000151991844, -0.06400000303983688, 1.055999994277954, 0.0, 0.0, 0.0, 0.0, 0.0, 1.6215997264566514E9, 2021-05-21 14:22:06.456
49.0, -35.42807388305664, 118.6595458984375, -31.411418914794922, 19.80651092529297, 0.03200000151991844, -0.06400000303983688, 1.055999994277954, 0.0, 0.0, 0.0, 0.0, 0.0, 1.6215997264566514E9, 2021-05-21 14:22:06.456
50.0, 1.5333589315414429, 166.46669006347656, 16.167587280273438, 54.89051055908203, 0.03200000151991844, -0.06400000303983688, 1.055999994277954, 0.0, 0.0, 0.0, 0.0, 0.0, 1.621599726457399E9, 2021-05-21 14:22:06.457
50.0, -23.063962936401367, 141.4691925048828, -4.4990997314453125, 40.28994369506836, 0.03200000151991844, -0.06400000303983688, 1.055999994277954, 0.0, 0.0, 0.0, 0.0, 0.0, 1.621599726457399E9, 2021-05-21 14:22:06.457
51.0, -78.23870849609375, 88.98343658447266, -61.10248565673828, 0.30667179822921753, 0.03200000151991844, -0.06400000303983688, 1.055999994277954, 0.0, 0.0, 0.0, 0.0, 0.0, 1.621599726467491E9, 2021-05-21 14:22:06.467
51.0, -48.02031707763672, 117.72083282470703, -37.683231353759766, 20.22911834716797, 0.03200000151991844, -0.06400000303983688, 1.055999994277954, 0.0, 0.0, 0.0, 0.0, 0.0, 1.621599726467491E9, 2021-05-21 14:22:06.467
52.0, 7.390042304992676, 156.15203857421875, 15.094236373901367, 52.48949432373047, 0.03200000151991844, -0.06400000303983688, 1.055999994277954, 0.0, 0.0, 0.0, 0.0, 0.0, 1.6215997264825032E9, 2021-05-21 14:22:06.482
52.0, -22.02427101135254, 136.83546447753906, -5.430334568023682, 41.3221549987793, 0.03200000151991844, -0.06400000303983688, 1.055999994277954, 0.0, 0.0, 0.0, 0.0, 0.0, 1.6215997264825032E9, 2021-05-21 14:22:06.482
53.0, -70.68411254882812, 94.0921401977539, -56.027442932128906, 4.618776321411133, 0.03200000151991844, -0.06400000303983688, 1.055999994277954, 0.0, 0.0, 0.0, 0.0, 0.0, 1.6215997265152013E9, 2021-05-21 14:22:06.515
53.0, -44.20187759399414, 120.83990478515625, -29.33577537536621, 27.15915298461914, 0.03200000151991844, -0.06400000303983688, 1.055999994277954, 0.0, 0.0, 0.0, 0.0, 0.0, 1.6215997265152013E9, 2021-05-21 14:22:06.515
54.0, 10.793351173400879, 155.94261169433594, 7.520938873291016, 56.592166900634766, 0.03200000151991844, -0.06400000303983688, 1.055999994277954, 0.0, 0.0, 0.0, 0.0, 0.0, 1.6215997265158975E9, 2021-05-21 14:22:06.515
54.0, -22.315982818603516, 134.44566345214844, -5.415375232696533, 43.450157165527344, 0.03200000151991844, -0.06400000303983688, 1.055999994277954, 0.0, 0.0, 0.0, 0.0, 0.0, 1.6215997265158975E9, 2021-05-21 14:22:06.515
55.0, -69.4162826538086, 92.83553314208984, -53.293575286865234, 7.629395961761475, 0.03200000151991844, -0.06400000303983688, 1.055999994277954, 0.0, 0.0, 0.0, 0.0, 0.0, 1.621599726516645E9, 2021-05-21 14:22:06.516
55.0, -40.57791519165039, 114.77752685546875, -28.87576675415039, 24.780576705932617, 0.03200000151991844, -0.06400000303983688, 1.055999994277954, 0.0, 0.0, 0.0, 0.0, 0.0, 1.621599726516645E9, 2021-05-21 14:22:06.516
56.0, 10.191226959228516, 160.9727783203125, 19.066009521484375, 58.77252960205078, 0.03200000151991844, -0.06400000303983688, 1.055999994277954, 0.0, 0.0, 0.0, 0.0, 0.0, 1.621599726517383E9, 2021-05-21 14:22:06.517
56.0, -12.356629371643066, 137.46376037597656, 0.9349749684333801, 40.678890228271484, 0.03200000151991844, -0.06400000303983688, 1.055999994277954, 0.0, 0.0, 0.0, 0.0, 0.0, 1.621599726517383E9, 2021-05-21 14:22:06.517
57.0, -67.09380340576172, 91.5003890991211, -48.11007308959961, 4.914228439331055, 0.03200000151991844, -0.06400000303983688, 1.055999994277954, 0.0, 0.0, 0.0, 0.0, 0.0, 1.6215997265274637E9, 2021-05-21 14:22:06.527
57.0, -44.05602264404297, 113.81263732910156, -32.32021713256836, 24.245771408081055, 0.03200000151991844, -0.06400000303983688, 1.055999994277954, 0.0, 0.0, 0.0, 0.0, 0.0, 1.6215997265274637E9, 2021-05-21 14:22:06.527
58.0, 6.892635822296143, 156.61578369140625, 11.657268524169922, 52.13794708251953, 0.03200000151991844, -0.06400000303983688, 1.055999994277954, 0.0, 0.0, 0.0, 0.0, 0.0, 1.6215997265425296E9, 2021-05-21 14:22:06.542
58.0, -15.105456352233887, 136.82423400878906, -1.2603462934494019, 43.023807525634766, 0.03200000151991844, -0.06400000303983688, 1.055999994277954, 0.0, 0.0, 0.0, 0.0, 0.0, 1.6215997265425296E9, 2021-05-21 14:22:06.542
59.0, -69.96604919433594, 91.64250946044922, -49.520015716552734, 4.0914506912231445, 0.03200000151991844, -0.06400000303983688, 1.055999994277954, 0.0, 0.0, 0.0, 0.0, 0.0, 1.62159972655882E9, 2021-05-21 14:22:06.558
59.0, -49.965065002441406, 116.83447265625, -27.495744705200195, 22.555335998535156, 0.03200000151991844, -0.06400000303983688, 1.055999994277954, 0.0, 0.0, 0.0, 0.0, 0.0, 1.62159972655882E9, 2021-05-21 14:22:06.558
60.0, 5.2358598709106445, 158.09304809570312, 19.51479721069336, 52.422176361083984, 0.03200000151991844, -0.06400000303983688, 1.055999994277954, 0.0, 0.0, 0.0, 0.0, 0.0, 1.6215997265595324E9, 2021-05-21 14:22:06.559
60.0, -13.747872352600098, 135.49658203125, 1.8923894166946411, 40.828487396240234, 0.03200000151991844, -0.06400000303983688, 1.055999994277954, 0.0, 0.0, 0.0, 0.0, 0.0, 1.6215997265595324E9, 2021-05-21 14:22:06.559
61.0, -60.2535285949707, 95.69656372070312, -43.43893814086914, 10.389442443847656, 0.03200000151991844, -0.06400000303983688, 1.055999994277954, 0.0, 0.0, 0.0, 0.0, 0.0, 1.6215997265724463E9, 2021-05-21 14:22:06.572
61.0, -43.323001861572266, 106.77788543701172, -27.607940673828125, 19.174467086791992, 0.03200000151991844, -0.06400000303983688, 1.055999994277954, 0.0, 0.0, 0.0, 0.0, 0.0, 1.6215997265724463E9, 2021-05-21 14:22:06.572
62.0, 6.780438423156738, 158.983154296875, 20.79384422302246, 58.02828598022461, 0.03200000151991844, -0.06400000303983688, 1.055999994277954, 0.0, 0.0, 0.0, 0.0, 0.0, 1.6215997265881722E9, 2021-05-21 14:22:06.588
62.0, -16.848249435424805, 131.8838348388672, -2.666548728942871, 39.635459899902344, 0.03200000151991844, -0.06400000303983688, 1.055999994277954, 0.0, 0.0, 0.0, 0.0, 0.0, 1.6215997265881722E9, 2021-05-21 14:22:06.588
63.0, -64.11310577392578, 86.05509948730469, -51.59939956665039, 8.336236953735352, 0.03200000151991844, -0.06400000303983688, 1.055999994277954, 0.0, 0.0, 0.0, 0.0, 0.0, 1.6215997265888894E9, 2021-05-21 14:22:06.588
63.0, -45.91849136352539, 101.34381103515625, -31.05986976623535, 24.903993606567383, 0.03200000151991844, -0.06400000303983688, 1.055999994277954, 0.0, 0.0, 0.0, 0.0, 0.0, 1.6215997265888894E9, 2021-05-21 14:22:06.588
64.0, 7.584517002105713, 156.1744842529297, 15.976852416992188, 63.697975158691406, 0.03200000151991844, -0.06400000303983688, 1.055999994277954, 0.0, 0.0, 0.0, 0.0, 0.0, 1.6215997266024604E9, 2021-05-21 14:22:06.602
64.0, -16.20872688293457, 128.5777587890625, -2.0756444931030273, 44.40757369995117, 0.03200000151991844, -0.06400000303983688, 1.055999994277954, 0.0, 0.0, 0.0, 0.0, 0.0, 1.6215997266024604E9, 2021-05-21 14:22:06.602
65.0, -69.4798583984375, 88.2242431640625, -52.93080520629883, 12.730619430541992, 0.03200000151991844, -0.06400000303983688, 1.055999994277954, 0.0, 0.0, 0.0, 0.0, 0.0, 1.6215997266188192E9, 2021-05-21 14:22:06.618
65.0, -39.841156005859375, 109.35841369628906, -28.830888748168945, 32.6717643737793, 0.03200000151991844, -0.06400000303983688, 1.055999994277954, 0.0, 0.0, 0.0, 0.0, 0.0, 1.6215997266188192E9, 2021-05-21 14:22:06.618
66.0, 6.772958755493164, 152.68141174316406, 18.269411087036133, 63.989688873291016, 0.03200000151991844, -0.06400000303983688, 1.055999994277954, 0.0, 0.0, 0.0, 0.0, 0.0, 1.6215997266195304E9, 2021-05-21 14:22:06.619
66.0, -14.738945960998535, 135.5003204345703, 4.069011211395264, 51.02719497680664, 0.03200000151991844, -0.06400000303983688, 1.055999994277954, 0.0, 0.0, 0.0, 0.0, 0.0, 1.6215997266195304E9, 2021-05-21 14:22:06.619
67.0, -75.74793243408203, 87.92131042480469, -49.609771728515625, 14.005925178527832, 0.03200000151991844, -0.06400000303983688, 1.055999994277954, 0.0, 0.0, 0.0, 0.0, 0.0, 1.6215997266325192E9, 2021-05-21 14:22:06.632
67.0, -42.1262321472168, 105.59607696533203, -27.338668823242188, 28.034290313720703, 0.03200000151991844, -0.06400000303983688, 1.055999994277954, 0.0, 0.0, 0.0, 0.0, 0.0, 1.6215997266325192E9, 2021-05-21 14:22:06.632
68.0, 6.989872932434082, 154.83934020996094, 21.42962646484375, 60.160030364990234, 0.03200000151991844, -0.06400000303983688, 1.055999994277954, 0.0, 0.0, 0.0, 0.0, 0.0, 1.6215997266645873E9, 2021-05-21 14:22:06.664
68.0, -19.137067794799805, 130.90023803710938, 1.2566063404083252, 43.266902923583984, 0.03200000151991844, -0.06400000303983688, 1.055999994277954, 0.0, 0.0, 0.0, 0.0, 0.0, 1.6215997266645873E9, 2021-05-21 14:22:06.664
69.0, -71.73876190185547, 94.4736099243164, -45.90727233886719, 8.201601028442383, 0.03200000151991844, -0.06400000303983688, 1.055999994277954, 0.0, 0.0, 0.0, 0.0, 0.0, 1.6215997266652753E9, 2021-05-21 14:22:06.665
69.0, -42.0963134765625, 115.39461517333984, -29.934158325195312, 21.519384384155273, 0.03200000151991844, -0.06400000303983688, 1.055999994277954, 0.0, 0.0, 0.0, 0.0, 0.0, 1.6215997266652753E9, 2021-05-21 14:22:06.665
70.0, 6.772958755493164, 153.96420288085938, 17.147441864013672, 49.553672790527344, 0.03200000151991844, -0.06400000303983688, 1.055999994277954, 0.0, 0.0, 0.0, 0.0, 0.0, 1.6215997266660225E9, 2021-05-21 14:22:06.666
70.0, -7.401261806488037, 136.3380584716797, 2.9208619594573975, 35.147579193115234, 0.03200000151991844, -0.06400000303983688, 1.055999994277954, 0.0, 0.0, 0.0, 0.0, 0.0, 1.6215997266660225E9, 2021-05-21 14:22:06.666
71.0, -67.0863265991211, 92.59618377685547, -54.83067321777344, 4.495359897613525, 0.03200000151991844, -0.06400000303983688, 1.055999994277954, 0.0, 0.0, 0.0, 0.0, 0.0, 1.6215997266668284E9, 2021-05-21 14:22:06.666
71.0, -42.451602935791016, 105.84291076660156, -30.237091064453125, 23.041522979736328, 0.03200000151991844, -0.06400000303983688, 1.055999994277954, 0.0, 0.0, 0.0, 0.0, 0.0, 1.6215997266668284E9, 2021-05-21 14:22:06.666
72.0, 8.975759506225586, 147.4866943359375, 15.834736824035645, 57.94601058959961, 0.03200000151991844, -0.06400000303983688, 1.055999994277954, 0.0, 0.0, 0.0, 0.0, 0.0, 1.6215997266931565E9, 2021-05-21 14:22:06.693
72.0, -16.35084342956543, 130.90023803710938, 0.07105810195207596, 45.60808181762695, 0.03200000151991844, -0.06400000303983688, 1.055999994277954, 0.0, 0.0, 0.0, 0.0, 0.0, 1.6215997266931565E9, 2021-05-21 14:22:06.693
73.0, -66.43184661865234, 91.79210662841797, -45.264007568359375, 14.832443237304688, 0.03200000151991844, -0.06400000303983688, 1.055999994277954, 0.0, 0.0, 0.0, 0.0, 0.0, 1.6215997266938972E9, 2021-05-21 14:22:06.693
73.0, -46.01947021484375, 102.19650268554688, -28.01559066772461, 31.680692672729492, 0.03200000151991844, -0.06400000303983688, 1.055999994277954, 0.0, 0.0, 0.0, 0.0, 0.0, 1.6215997266938972E9, 2021-05-21 14:22:06.693
74.0, 5.063824653625488, 148.58248901367188, 17.596229553222656, 67.75202941894531, 0.03200000151991844, -0.06400000303983688, 1.055999994277954, 0.0, 0.0, 0.0, 0.0, 0.0, 1.6215997267081802E9, 2021-05-21 14:22:06.708
74.0, -15.442047119140625, 131.67813110351562, 9.749918937683105, 55.92646408081055, 0.03200000151991844, -0.06400000303983688, 1.055999994277954, 0.0, 0.0, 0.0, 0.0, 0.0, 1.6215997267081802E9, 2021-05-21 14:22:06.708
75.0, -66.97786712646484, 81.4400634765625, -45.56694030761719, 14.084463119506836, 0.03200000151991844, -0.06400000303983688, 1.055999994277954, 0.0, 0.0, 0.0, 0.0, 0.0, 1.6215997267088487E9, 2021-05-21 14:22:06.708
75.0, -48.82813262939453, 104.08889770507812, -28.59527587890625, 30.158554077148438, 0.03200000151991844, -0.06400000303983688, 1.055999994277954, 0.0, 0.0, 0.0, 0.0, 0.0, 1.6215997267088487E9, 2021-05-21 14:22:06.708
76.0, 2.827364444732666, 151.63424682617188, 21.21271324157715, 63.00609588623047, 0.03200000151991844, -0.06400000303983688, 1.055999994277954, 0.0, 0.0, 0.0, 0.0, 0.0, 1.6215997267224472E9, 2021-05-21 14:22:06.722
76.0, -13.998445510864258, 131.44252014160156, 4.3345441818237305, 44.25049591064453, 0.03200000151991844, -0.06400000303983688, 1.055999994277954, 0.0, 0.0, 0.0, 0.0, 0.0, 1.6215997267224472E9, 2021-05-21 14:22:06.722
77.0, -69.30408477783203, 87.48748016357422, -46.05312728881836, 6.208233833312988, 0.03200000151991844, -0.06400000303983688, 1.055999994277954, 0.0, 0.0, 0.0, 0.0, 0.0, 1.62159972673871E9, 2021-05-21 14:22:06.738
77.0, -45.316368103027344, 112.79164123535156, -22.570295333862305, 23.400554656982422, 0.03200000151991844, -0.06400000303983688, 1.055999994277954, 0.0, 0.0, 0.0, 0.0, 0.0, 1.62159972673871E9, 2021-05-21 14:22:06.738
78.0, 4.577637672424316, 147.52783203125, 13.422500610351562, 47.82210159301758, 0.03200000151991844, -0.06400000303983688, 1.055999994277954, 0.0, 0.0, 0.0, 0.0, 0.0, 1.6215997267531686E9, 2021-05-21 14:22:06.753
78.0, -19.002431869506836, 133.76873779296875, 6.720600128173828, 39.80001449584961, 0.03200000151991844, -0.06400000303983688, 1.055999994277954, 0.0, 0.0, 0.0, 0.0, 0.0, 1.6215997267531686E9, 2021-05-21 14:22:06.753
79.0, -66.14012908935547, 93.33668518066406, -38.55088806152344, 6.698160648345947, 0.03200000151991844, -0.06400000303983688, 1.055999994277954, 0.0, 0.0, 0.0, 0.0, 0.0, 1.6215997267538557E9, 2021-05-21 14:22:06.753
79.0, -45.00969696044922, 103.68124389648438, -35.5814094543457, 15.262531280517578, 0.03200000151991844, -0.06400000303983688, 1.055999994277954, 0.0, 0.0, 0.0, 0.0, 0.0, 1.6215997267538557E9, 2021-05-21 14:22:06.753
80.0, 4.592597007751465, 161.1822052001953, 22.506717681884766, 57.85251235961914, 0.03200000151991844, -0.06400000303983688, 1.055999994277954, 0.0, 0.0, 0.0, 0.0, 0.0, 1.6215997267683282E9, 2021-05-21 14:22:06.768
80.0, -18.175912857055664, 131.86886596679688, -0.41138899326324463, 39.53074264526367, 0.03200000151991844, -0.06400000303983688, 1.055999994277954, 0.0, 0.0, 0.0, 0.0, 0.0, 1.6215997267683282E9, 2021-05-21 14:22:06.768
81.0, -67.46031188964844, 88.34765625, -51.5395622253418, -0.9087957143783569, 0.03200000151991844, -0.06400000303983688, 1.055999994277954, 0.0, 0.0, 0.0, 0.0, 0.0, 1.6215997267690308E9, 2021-05-21 14:22:06.769
81.0, -52.55681228637695, 110.3307876586914, -33.34868621826172, 25.270503997802734, 0.03200000151991844, -0.06400000303983688, 1.055999994277954, 0.0, 0.0, 0.0, 0.0, 0.0, 1.6215997267690308E9, 2021-05-21 14:22:06.769
82.0, 4.020392417907715, 153.49671936035156, 21.145395278930664, 57.972190856933594, 0.03200000151991844, -0.06400000303983688, 1.055999994277954, 0.0, 0.0, 0.0, 0.0, 0.0, 1.6215997267824988E9, 2021-05-21 14:22:06.782
82.0, -16.276044845581055, 133.93704223632812, 5.146102428436279, 42.82559585571289, 0.03200000151991844, -0.06400000303983688, 1.055999994277954, 0.0, 0.0, 0.0, 0.0, 0.0, 1.6215997267824988E9, 2021-05-21 14:22:06.782
83.0, -68.6982192993164, 92.3979721069336, -47.231197357177734, 9.970573425292969, 0.03200000151991844, -0.06400000303983688, 1.055999994277954, 0.0, 0.0, 0.0, 0.0, 0.0, 1.6215997267982893E9, 2021-05-21 14:22:06.798
83.0, -47.41071319580078, 107.42862701416016, -25.805309295654297, 29.586349487304688, 0.03200000151991844, -0.06400000303983688, 1.055999994277954, 0.0, 0.0, 0.0, 0.0, 0.0, 1.6215997267982893E9, 2021-05-21 14:22:06.798
84.0, -3.855836868286133, 152.04563903808594, 18.766817092895508, 58.80618667602539, 0.03200000151991844, -0.06400000303983688, 1.055999994277954, 0.0, 0.0, 0.0, 0.0, 0.0, 1.621599726799032E9, 2021-05-21 14:22:06.799
84.0, -20.135622024536133, 129.10134887695312, 2.041985273361206, 45.62303924560547, 0.03200000151991844, -0.06400000303983688, 1.055999994277954, 0.0, 0.0, 0.0, 0.0, 0.0, 1.621599726799032E9, 2021-05-21 14:22:06.799
85.0, -68.47383117675781, 91.46673583984375, -45.25278854370117, 12.11353588104248, 0.03200000151991844, -0.06400000303983688, 1.055999994277954, 0.0, 0.0, 0.0, 0.0, 0.0, 1.6215997268124735E9, 2021-05-21 14:22:06.812
85.0, -54.12757110595703, 114.84111022949219, -33.962032318115234, 22.633874893188477, 0.03200000151991844, -0.06400000303983688, 1.055999994277954, 0.0, 0.0, 0.0, 0.0, 0.0, 1.6215997268124735E9, 2021-05-21 14:22:06.812
86.0, -4.8843092918396, 147.69613647460938, 18.157215118408203, 58.839847564697266, 0.03200000151991844, -0.06400000303983688, 1.055999994277954, 0.0, 0.0, 0.0, 0.0, 0.0, 1.6215997268281727E9, 2021-05-21 14:22:06.828
86.0, -21.971912384033203, 136.5100860595703, 5.434074401855469, 42.66477966308594, 0.03200000151991844, -0.06400000303983688, 1.055999994277954, 0.0, 0.0, 0.0, 0.0, 0.0, 1.6215997268281727E9, 2021-05-21 14:22:06.828
87.0, -75.0971908569336, 97.83204650878906, -44.64692687988281, 6.660761833190918, 0.03200000151991844, -0.06400000303983688, 1.055999994277954, 0.0, 0.0, 0.0, 0.0, 0.0, 1.6215997268289154E9, 2021-05-21 14:22:06.828
87.0, -47.99787521362305, 114.23898315429688, -26.272796630859375, 25.135868072509766, 0.03200000151991844, -0.06400000303983688, 1.055999994277954, 0.0, 0.0, 0.0, 0.0, 0.0, 1.6215997268289154E9, 2021-05-21 14:22:06.828
88.0, -1.196768045425415, 149.98495483398438, 18.389087677001953, 54.04529571533203, 0.03200000151991844, -0.06400000303983688, 1.055999994277954, 0.0, 0.0, 0.0, 0.0, 0.0, 1.621599726858843E9, 2021-05-21 14:22:06.858
88.0, -23.912919998168945, 128.60768127441406, -3.077937602996826, 40.94816589355469, 0.03200000151991844, -0.06400000303983688, 1.055999994277954, 0.0, 0.0, 0.0, 0.0, 0.0, 1.621599726858843E9, 2021-05-21 14:22:06.858
89.0, -65.2201156616211, 84.67133331298828, -51.576961517333984, 5.194721221923828, 0.03200000151991844, -0.06400000303983688, 1.055999994277954, 0.0, 0.0, 0.0, 0.0, 0.0, 1.6215997268595493E9, 2021-05-21 14:22:06.859
89.0, -56.625823974609375, 104.1823959350586, -38.00486373901367, 15.539284706115723, 0.03200000151991844, -0.06400000303983688, 1.055999994277954, 0.0, 0.0, 0.0, 0.0, 0.0, 1.6215997268595493E9, 2021-05-21 14:22:06.859
90.0, 5.374236106872559, 154.0576934814453, 19.215606689453125, 60.89678955078125, 0.03200000151991844, -0.06400000303983688, 1.055999994277954, 0.0, 0.0, 0.0, 0.0, 0.0, 1.6215997268603477E9, 2021-05-21 14:22:06.860
90.0, -9.282431602478027, 132.02969360351562, 10.408141136169434, 48.82439422607422, 0.03200000151991844, -0.06400000303983688, 1.055999994277954, 0.0, 0.0, 0.0, 0.0, 0.0, 1.6215997268603477E9, 2021-05-21 14:22:06.860
91.0, -73.59748840332031, 78.01431274414062, -56.494930267333984, 8.657868385314941, 0.03200000151991844, -0.06400000303983688, 1.055999994277954, 0.0, 0.0, 0.0, 0.0, 0.0, 1.6215997268725295E9, 2021-05-21 14:22:06.872
91.0, -54.901729583740234, 102.00202941894531, -33.76007843017578, 26.126941680908203, 0.03200000151991844, -0.06400000303983688, 1.055999994277954, 0.0, 0.0, 0.0, 0.0, 0.0, 1.6215997268725295E9, 2021-05-21 14:22:06.872
92.0, 2.2215006351470947, 150.1195831298828, 21.743778228759766, 65.9867935180664, 0.03200000151991844, -0.06400000303983688, 1.055999994277954, 0.0, 0.0, 0.0, 0.0, 0.0, 1.6215997268887916E9, 2021-05-21 14:22:06.888
92.0, -19.223085403442383, 124.34419250488281, -0.5946440696716309, 48.34568786621094, 0.03200000151991844, -0.06400000303983688, 1.055999994277954, 0.0, 0.0, 0.0, 0.0, 0.0, 1.6215997268887916E9, 2021-05-21 14:22:06.888
93.0, -68.2307357788086, 83.10431671142578, -53.5291862487793, 14.271458625793457, 0.03200000151991844, -0.06400000303983688, 1.055999994277954, 0.0, 0.0, 0.0, 0.0, 0.0, 1.6215997268895218E9, 2021-05-21 14:22:06.889
93.0, -48.25967025756836, 106.05608367919922, -31.183286666870117, 30.25579071044922, 0.03200000151991844, -0.06400000303983688, 1.055999994277954, 0.0, 0.0, 0.0, 0.0, 0.0, 1.6215997268895218E9, 2021-05-21 14:22:06.889
94.0, -5.505132675170898, 144.19558715820312, 15.284971237182617, 60.72101593017578, 0.03200000151991844, -0.06400000303983688, 1.055999994277954, 0.0, 0.0, 0.0, 0.0, 0.0, 1.6215997269026017E9, 2021-05-21 14:22:06.902
94.0, -21.990612030029297, 132.49717712402344, -0.1645555943250656, 44.97229766845703, 0.03200000151991844, -0.06400000303983688, 1.055999994277954, 0.0, 0.0, 0.0, 0.0, 0.0, 1.6215997269026017E9, 2021-05-21 14:22:06.902
95.0, -72.14266967773438, 88.7066879272461, -49.50505447387695, 7.965986728668213, 0.03200000151991844, -0.06400000303983688, 1.055999994277954, 0.0, 0.0, 0.0, 0.0, 0.0, 1.621599726917921E9, 2021-05-21 14:22:06.917
95.0, -55.50011444091797, 115.54046630859375, -31.273042678833008, 21.422147750854492, 0.03200000151991844, -0.06400000303983688, 1.055999994277954, 0.0, 0.0, 0.0, 0.0, 0.0, 1.621599726917921E9, 2021-05-21 14:22:06.917
96.0, -1.2678260803222656, 148.3767852783203, 18.228271484375, 57.42990493774414, 0.03200000151991844, -0.06400000303983688, 1.055999994277954, 0.0, 0.0, 0.0, 0.0, 0.0, 1.621599726933202E9, 2021-05-21 14:22:06.933
96.0, -20.76018524169922, 128.51417541503906, 0.6544824838638306, 43.68577194213867, 0.03200000151991844, -0.06400000303983688, 1.055999994277954, 0.0, 0.0, 0.0, 0.0, 0.0, 1.621599726933202E9, 2021-05-21 14:22:06.933
97.0, -75.70679473876953, 82.19926452636719, -44.990997314453125, 8.530712127685547, 0.03200000151991844, -0.06400000303983688, 1.055999994277954, 0.0, 0.0, 0.0, 0.0, 0.0, 1.6215997269338925E9, 2021-05-21 14:22:06.933
97.0, -53.723663330078125, 99.7319107055664, -36.60988235473633, 25.954906463623047, 0.03200000151991844, -0.06400000303983688, 1.055999994277954, 0.0, 0.0, 0.0, 0.0, 0.0, 1.6215997269338925E9, 2021-05-21 14:22:06.933
98.0, -4.319584369659424, 145.77381896972656, 14.383655548095703, 61.01272964477539, 0.03200000151991844, -0.06400000303983688, 1.055999994277954, 0.0, 0.0, 0.0, 0.0, 0.0, 1.6215997269481645E9, 2021-05-21 14:22:06.948
98.0, -17.319477081298828, 128.5328826904297, 1.847510576248169, 49.80424880981445, 0.03200000151991844, -0.06400000303983688, 1.055999994277954, 0.0, 0.0, 0.0, 0.0, 0.0, 1.6215997269481645E9, 2021-05-21 14:22:06.948
99.0, -72.34088134765625, 84.51799774169922, -46.34857940673828, 9.282431602478027, 0.03200000151991844, -0.06400000303983688, 1.055999994277954, 0.0, 0.0, 0.0, 0.0, 0.0, 1.621599726949008E9, 2021-05-21 14:22:06.949
99.0, -47.26111602783203, 106.2580337524414, -22.933067321777344, 32.907379150390625, 0.03200000151991844, -0.06400000303983688, 1.055999994277954, 0.0, 0.0, 0.0, 0.0, 0.0, 1.621599726949008E9, 2021-05-21 14:22:06.949
100.0, 4.506579399108887, 146.5517120361328, 23.1051025390625, 63.79521179199219, 0.03200000151991844, -0.06400000303983688, 1.055999994277954, 0.0, 0.0, 0.0, 0.0, 0.0, 1.6215997269631445E9, 2021-05-21 14:22:06.963
100.0, -16.395721435546875, 127.28375244140625, 9.338530540466309, 53.439430236816406, 0.03200000151991844, -0.06400000303983688, 1.055999994277954, 0.0, 0.0, 0.0, 0.0, 0.0, 1.6215997269631445E9, 2021-05-21 14:22:06.963
0.0, -68.94879913330078, 85.60443878173828, -44.54781723022461, 21.433366775512695, 0.03200000151991844, -0.06400000303983688, 1.055999994277954, 0.0, 0.0, 0.0, 0.0, 0.0, 1.6215997269638948E9, 2021-05-21 14:22:06.963
1.0, -50.79532241821289, 99.73751831054688, -25.335952758789062, 31.201984405517578, 0.03200000151991844, -0.06400000303983688, 1.055999994277954, 0.0, 0.0, 0.0, 0.0, 0.0, 1.6215997269776227E9, 2021-05-21 14:22:06.977
1.0, 0.01869950070977211, 143.35223388671875, 21.502553939819336, 70.14930725097656, 0.03200000151991844, -0.06400000303983688, 1.055999994277954, 0.0, 0.0, 0.0, 0.0, 0.0, 1.6215997269776227E9, 2021-05-21 14:22:06.977
2.0, -18.718198776245117, 125.9766616821289, 5.271389007568359, 48.671058654785156, 0.03200000151991844, -0.06400000303983688, 1.055999994277954, 0.0, 0.0, 0.0, 0.0, 0.0, 1.6215997269931788E9, 2021-05-21 14:22:06.993
2.0, -71.78363800048828, 82.4367446899414, -41.34272384643555, 7.251666069030762, 0.03200000151991844, -0.06400000303983688, 1.055999994277954, 0.0, 0.0, 0.0, 0.0, 0.0, 1.6215997269931788E9, 2021-05-21 14:22:06.993
3.0, -51.326385498046875, 99.28499603271484, -27.991281509399414, 22.77972984313965, 0.03200000151991844, -0.06400000303983688, 1.055999994277954, 0.0, 0.0, 0.0, 0.0, 0.0, 1.6215997269938848E9, 2021-05-21 14:22:06.993
3.0, -2.479553699493408, 148.95086669921875, 18.16656494140625, 54.97652816772461, 0.03200000151991844, -0.06400000303983688, 1.055999994277954, 0.0, 0.0, 0.0, 0.0, 0.0, 1.6215997269938848E9, 2021-05-21 14:22:06.993
4.0, -17.65606689453125, 124.59663391113281, 0.8508272171020508, 39.26520919799805, 0.03200000151991844, -0.06400000303983688, 1.055999994277954, 0.0, 0.0, 0.0, 0.0, 0.0, 1.6215997270076132E9, 2021-05-21 14:22:07.007
4.0, -79.955322265625, 84.87142181396484, -50.00433349609375, 6.986133098602295, 0.03200000151991844, -0.06400000303983688, 1.055999994277954, 0.0, 0.0, 0.0, 0.0, 0.0, 1.6215997270076132E9, 2021-05-21 14:22:07.007
5.0, -49.602294921875, 109.15084838867188, -34.60716247558594, 24.436506271362305, 0.03200000151991844, -0.06400000303983688, 1.055999994277954, 0.0, 0.0, 0.0, 0.0, 0.0, 1.6215997270231435E9, 2021-05-21 14:22:07.023
5.0, -4.491620063781738, 140.81658935546875, 14.553820610046387, 57.08957290649414, 0.03200000151991844, -0.06400000303983688, 1.055999994277954, 0.0, 0.0, 0.0, 0.0, 0.0, 1.6215997270231435E9, 2021-05-21 14:22:07.023
6.0, -20.823762893676758, 130.7936553955078, 2.735736846923828, 49.860347747802734, 0.03200000151991844, -0.06400000303983688, 1.055999994277954, 0.0, 0.0, 0.0, 0.0, 0.0, 1.6215997270238516E9, 2021-05-21 14:22:07.023
6.0, -77.73756408691406, 83.41659545898438, -50.81214904785156, 13.482338905334473, 0.03200000151991844, -0.06400000303983688, 1.055999994277954, 0.0, 0.0, 0.0, 0.0, 0.0, 1.6215997270238516E9, 2021-05-21 14:22:07.023
7.0, -51.07581329345703, 102.83415985107422, -28.174535751342773, 32.103302001953125, 0.03200000151991844, -0.06400000303983688, 1.055999994277954, 0.0, 0.0, 0.0, 0.0, 0.0, 1.62159972703754E9, 2021-05-21 14:22:07.037
7.0, -1.5034397840499878, 140.30047607421875, 17.089473724365234, 68.6982192993164, 0.03200000151991844, -0.06400000303983688, 1.055999994277954, 0.0, 0.0, 0.0, 0.0, 0.0, 1.62159972703754E9, 2021-05-21 14:22:07.037
8.0, -16.601415634155273, 123.95711517333984, 6.580353736877441, 50.73548126220703, 0.03200000151991844, -0.06400000303983688, 1.055999994277954, 0.0, 0.0, 0.0, 0.0, 0.0, 1.6215997270531833E9, 2021-05-21 14:22:07.053
8.0, -63.13698959350586, 80.41345977783203, -46.013858795166016, 16.960445404052734, 0.03200000151991844, -0.06400000303983688, 1.055999994277954, 0.0, 0.0, 0.0, 0.0, 0.0, 1.6215997270531833E9, 2021-05-21 14:22:07.053
9.0, -48.36064529418945, 100.08907318115234, -24.655290603637695, 36.86793518066406, 0.03200000151991844, -0.06400000303983688, 1.055999994277954, 0.0, 0.0, 0.0, 0.0, 0.0, 1.6215997270538795E9, 2021-05-21 14:22:07.053
9.0, -1.6492959260940552, 139.11119079589844, 18.432096481323242, 64.4609146118164, 0.03200000151991844, -0.06400000303983688, 1.055999994277954, 0.0, 0.0, 0.0, 0.0, 0.0, 1.6215997270538795E9, 2021-05-21 14:22:07.053
10.0, -17.809404373168945, 122.78278350830078, 3.1321661472320557, 51.38996505737305, 0.03200000151991844, -0.06400000303983688, 1.055999994277954, 0.0, 0.0, 0.0, 0.0, 0.0, 1.6215997270676596E9, 2021-05-21 14:22:07.067
10.0, -76.86990356445312, 73.30764770507812, -54.07334518432617, 16.062870025634766, 0.03200000151991844, -0.06400000303983688, 1.055999994277954, 0.0, 0.0, 0.0, 0.0, 0.0, 1.6215997270676596E9, 2021-05-21 14:22:07.067
11.0, -48.24470901489258, 97.508544921875, -32.49412155151367, 23.475351333618164, 0.03200000151991844, -0.06400000303983688, 1.055999994277954, 0.0, 0.0, 0.0, 0.0, 0.0, 1.621599727083306E9, 2021-05-21 14:22:07.083
11.0, 1.847510576248169, 138.52401733398438, 16.457429885864258, 61.68217086791992, 0.03200000151991844, -0.06400000303983688, 1.055999994277954, 0.0, 0.0, 0.0, 0.0, 0.0, 1.621599727083306E9, 2021-05-21 14:22:07.083
12.0, -18.35542869567871, 126.70220184326172, 7.649965286254883, 43.607234954833984, 0.03200000151991844, -0.06400000303983688, 1.055999994277954, 0.0, 0.0, 0.0, 0.0, 0.0, 1.6215997270838907E9, 2021-05-21 14:22:07.083
12.0, -71.97437286376953, 80.17784881591797, -48.029666900634766, 7.023531913757324, 0.03200000151991844, -0.06400000303983688, 1.055999994277954, 0.0, 0.0, 0.0, 0.0, 0.0, 1.6215997270838907E9, 2021-05-21 14:22:07.083
13.0, -58.90716552734375, 100.2611083984375, -30.26888084411621, 22.39078140258789, 0.03200000151991844, -0.06400000303983688, 1.055999994277954, 0.0, 0.0, 0.0, 0.0, 0.0, 1.6215997270975277E9, 2021-05-21 14:22:07.097
13.0, -1.4211620092391968, 150.69366455078125, 20.459123611450195, 59.80099868774414, 0.03200000151991844, -0.06400000303983688, 1.055999994277954, 0.0, 0.0, 0.0, 0.0, 0.0, 1.6215997270975277E9, 2021-05-21 14:22:07.097
14.0, -23.39307403564453, 134.986083984375, 4.788941860198975, 47.620147705078125, 0.03200000151991844, -0.06400000303983688, 1.055999994277954, 0.0, 0.0, 0.0, 0.0, 0.0, 1.6215997271133046E9, 2021-05-21 14:22:07.113
14.0, -72.93927001953125, 88.59635925292969, -40.381568908691406, 22.237445831298828, 0.03200000151991844, -0.06400000303983688, 1.055999994277954, 0.0, 0.0, 0.0, 0.0, 0.0, 1.6215997271133046E9, 2021-05-21 14:22:07.113
15.0, -54.337005615234375, 104.01970672607422, -33.20096206665039, 28.464378356933594, 0.03200000151991844, -0.06400000303983688, 1.055999994277954, 0.0, 0.0, 0.0, 0.0, 0.0, 1.6215997271138756E9, 2021-05-21 14:22:07.113
15.0, 3.264932632446289, 155.09552001953125, 19.797161102294922, 64.7601089477539, 0.03200000151991844, -0.06400000303983688, 1.055999994277954, 0.0, 0.0, 0.0, 0.0, 0.0, 1.6215997271138756E9, 2021-05-21 14:22:07.113
16.0, -21.433366775512695, 134.11468505859375, 10.518468856811523, 57.89365005493164, 0.03200000151991844, -0.06400000303983688, 1.055999994277954, 0.0, 0.0, 0.0, 0.0, 0.0, 1.6215997271274817E9, 2021-05-21 14:22:07.127
16.0, -74.83539581298828, 88.77961730957031, -48.3999137878418, 24.055036544799805, 0.03200000151991844, -0.06400000303983688, 1.055999994277954, 0.0, 0.0, 0.0, 0.0, 0.0, 1.6215997271274817E9, 2021-05-21 14:22:07.127
17.0, -51.00849533081055, 107.509033203125, -28.776660919189453, 33.000877380371094, 0.03200000151991844, -0.06400000303983688, 1.055999994277954, 0.0, 0.0, 0.0, 0.0, 0.0, 1.621599727160222E9, 2021-05-21 14:22:07.160
17.0, 6.402708530426025, 153.12832641601562, 27.6771297454834, 67.50145721435547, 0.03200000151991844, -0.06400000303983688, 1.055999994277954, 0.0, 0.0, 0.0, 0.0, 0.0, 1.621599727160222E9, 2021-05-21 14:22:07.160
18.0, -16.156368255615234, 137.9854736328125, 17.448503494262695, 55.04010772705078, 0.03200000151991844, -0.06400000303983688, 1.055999994277954, 0.0, 0.0, 0.0, 0.0, 0.0, 1.6215997271609328E9, 2021-05-21 14:22:07.160
18.0, -71.24883270263672, 90.81411743164062, -46.13353729248047, 10.419361114501953, 0.03200000151991844, -0.06400000303983688, 1.055999994277954, 0.0, 0.0, 0.0, 0.0, 0.0, 1.6215997271609328E9, 2021-05-21 14:22:07.160
19.0, -43.01633071899414, 115.38152313232422, -20.31326675415039, 26.508411407470703, 0.03200000151991844, -0.06400000303983688, 1.055999994277954, 0.0, 0.0, 0.0, 0.0, 0.0, 1.6215997271739717E9, 2021-05-21 14:22:07.173
19.0, -0.8152981996536255, 151.1873321533203, 17.2540283203125, 48.07267379760742, 0.03200000151991844, -0.06400000303983688, 1.055999994277954, 0.0, 0.0, 0.0, 0.0, 0.0, 1.6215997271739717E9, 2021-05-21 14:22:07.173
20.0, -11.466533660888672, 145.10250854492188, 12.119145393371582, 46.36354064941406, 0.03200000151991844, -0.06400000303983688, 1.055999994277954, 0.0, 0.0, 0.0, 0.0, 0.0, 1.6215997271747031E9, 2021-05-21 14:22:07.174
20.0, -67.03770446777344, 99.95443725585938, -44.5852165222168, 8.298837661743164, 0.03200000151991844, -0.06400000303983688, 1.055999994277954, 0.0, 0.0, 0.0, 0.0, 0.0, 1.6215997271747031E9, 2021-05-21 14:22:07.174
21.0, -49.69953155517578, 118.09668731689453, -29.61813735961914, 19.492359161376953, 0.03200000151991844, -0.06400000303983688, 1.055999994277954, 0.0, 0.0, 0.0, 0.0, 0.0, 1.6215997271754913E9, 2021-05-21 14:22:07.175
21.0, 4.667395114898682, 158.5399627685547, 19.490488052368164, 61.072566986083984, 0.03200000151991844, -0.06400000303983688, 1.055999994277954, 0.0, 0.0, 0.0, 0.0, 0.0, 1.6215997271754913E9, 2021-05-21 14:22:07.175
22.0, -11.070103645324707, 143.7224884033203, 8.311927795410156, 41.2623176574707, 0.03200000151991844, -0.06400000303983688, 1.055999994277954, 0.0, 0.0, 0.0, 0.0, 0.0, 1.6215997271874552E9, 2021-05-21 14:22:07.187
22.0, -71.67518615722656, 92.54195404052734, -49.1030158996582, 5.340577125549316, 0.03200000151991844, -0.06400000303983688, 1.055999994277954, 0.0, 0.0, 0.0, 0.0, 0.0, 1.6215997271874552E9, 2021-05-21 14:22:07.187
23.0, -45.084495544433594, 120.99885559082031, -25.20879554748535, 25.248064041137695, 0.03200000151991844, -0.06400000303983688, 1.055999994277954, 0.0, 0.0, 0.0, 0.0, 0.0, 1.621599727234243E9, 2021-05-21 14:22:07.234
23.0, 5.6435089111328125, 159.4038848876953, 21.48011589050293, 62.64332580566406, 0.03200000151991844, -0.06400000303983688, 1.055999994277954, 0.0, 0.0, 0.0, 0.0, 0.0, 1.621599727234243E9, 2021-05-21 14:22:07.234
24.0, -5.965140342712402, 145.4091796875, 10.533428192138672, 50.507347106933594, 0.03200000151991844, -0.06400000303983688, 1.055999994277954, 0.0, 0.0, 0.0, 0.0, 0.0, 1.6215997272350008E9, 2021-05-21 14:22:07.235
24.0, -67.91658020019531, 96.147216796875, -42.135581970214844, 14.02088451385498, 0.03200000151991844, -0.06400000303983688, 1.055999994277954, 0.0, 0.0, 0.0, 0.0, 0.0, 1.6215997272350008E9, 2021-05-21 14:22:07.235
25.0, -42.455345153808594, 117.65164184570312, -24.96196174621582, 23.045263290405273, 0.03200000151991844, -0.06400000303983688, 1.055999994277954, 0.0, 0.0, 0.0, 0.0, 0.0, 1.6215997272358167E9, 2021-05-21 14:22:07.235
25.0, 13.074689865112305, 170.78440856933594, 27.77436637878418, 64.71148681640625, 0.03200000151991844, -0.06400000303983688, 1.055999994277954, 0.0, 0.0, 0.0, 0.0, 0.0, 1.6215997272358167E9, 2021-05-21 14:22:07.235
26.0, -2.094343900680542, 142.0544891357422, 14.198530197143555, 48.599998474121094, 0.03200000151991844, -0.06400000303983688, 1.055999994277954, 0.0, 0.0, 0.0, 0.0, 0.0, 1.6215997272495306E9, 2021-05-21 14:22:07.249
26.0, -65.79605865478516, 92.99822235107422, -42.771366119384766, 14.144301414489746, 0.03200000151991844, -0.06400000303983688, 1.055999994277954, 0.0, 0.0, 0.0, 0.0, 0.0, 1.6215997272495306E9, 2021-05-21 14:22:07.249
27.0, -49.23952102661133, 110.9646987915039, -30.732627868652344, 18.931373596191406, 0.03200000151991844, -0.06400000303983688, 1.055999994277954, 0.0, 0.0, 0.0, 0.0, 0.0, 1.621599727250291E9, 2021-05-21 14:22:07.250
27.0, -11.15986156463623, 153.8576202392578, 13.704863548278809, 53.31227493286133, 0.03200000151991844, -0.06400000303983688, 1.055999994277954, 0.0, 0.0, 0.0, 0.0, 0.0, 1.621599727250291E9, 2021-05-21 14:22:07.250
28.0, -26.040924072265625, 137.0131072998047, 1.1986379623413086, 42.156150817871094, 0.03200000151991844, -0.06400000303983688, 1.055999994277954, 0.0, 0.0, 0.0, 0.0, 0.0, 1.6215997272509885E9, 2021-05-21 14:22:07.250
28.0, -70.26898193359375, 100.08533477783203, -41.144508361816406, 14.443493843078613, 0.03200000151991844, -0.06400000303983688, 1.055999994277954, 0.0, 0.0, 0.0, 0.0, 0.0, 1.6215997272509885E9, 2021-05-21 14:22:07.250
29.0, -65.08174133300781, 116.80642700195312, -29.87993049621582, 24.331789016723633, 0.03200000151991844, -0.06400000303983688, 1.055999994277954, 0.0, 0.0, 0.0, 0.0, 0.0, 1.6215997272517352E9, 2021-05-21 14:22:07.251
29.0, -6.627102851867676, 152.86280822753906, 15.687010765075684, 55.50759506225586, 0.03200000151991844, -0.06400000303983688, 1.055999994277954, 0.0, 0.0, 0.0, 0.0, 0.0, 1.6215997272517352E9, 2021-05-21 14:22:07.251
30.0, -21.14165496826172, 146.50123596191406, 7.160038471221924, 42.743316650390625, 0.03200000151991844, -0.06400000303983688, 1.055999994277954, 0.0, 0.0, 0.0, 0.0, 0.0, 1.6215997272624474E9, 2021-05-21 14:22:07.262
30.0, -82.33015441894531, 99.8160629272461, -41.1220703125, 1.1219699382781982, 0.03200000151991844, -0.06400000303983688, 1.055999994277954, 0.0, 0.0, 0.0, 0.0, 0.0, 1.6215997272624474E9, 2021-05-21 14:22:07.262
31.0, -58.65285110473633, 111.77626037597656, -27.15354347229004, 15.6253023147583, 0.03200000151991844, -0.06400000303983688, 1.055999994277954, 0.0, 0.0, 0.0, 0.0, 0.0, 1.6215997272775302E9, 2021-05-21 14:22:07.277
31.0, -1.264086127281189, 159.45249938964844, 21.184663772583008, 57.03347396850586, 0.03200000151991844, -0.06400000303983688, 1.055999994277954, 0.0, 0.0, 0.0, 0.0, 0.0, 1.6215997272775302E9, 2021-05-21 14:22:07.277
32.0, -24.399106979370117, 140.25559997558594, 9.493736267089844, 48.813175201416016, 0.03200000151991844, -0.06400000303983688, 1.055999994277954, 0.0, 0.0, 0.0, 0.0, 0.0, 1.621599727293122E9, 2021-05-21 14:22:07.293
32.0, -75.9050064086914, 91.21428680419922, -47.2555046081543, 11.657268524169922, 0.03200000151991844, -0.06400000303983688, 1.055999994277954, 0.0, 0.0, 0.0, 0.0, 0.0, 1.621599727293122E9, 2021-05-21 14:22:07.293
33.0, -54.288387298583984, 109.4799575805664, -25.91563606262207, 24.4552059173584, 0.03200000151991844, -0.06400000303983688, 1.055999994277954, 0.0, 0.0, 0.0, 0.0, 0.0, 1.6215997272938287E9, 2021-05-21 14:22:07.293
33.0, -3.3546903133392334, 156.23992919921875, 24.00828742980957, 65.16775512695312, 0.03200000151991844, -0.06400000303983688, 1.055999994277954, 0.0, 0.0, 0.0, 0.0, 0.0, 1.6215997272938287E9, 2021-05-21 14:22:07.293
34.0, -25.03489112854004, 133.52003479003906, 6.621492862701416, 49.63969039916992, 0.03200000151991844, -0.06400000303983688, 1.055999994277954, 0.0, 0.0, 0.0, 0.0, 0.0, 1.6215997273074975E9, 2021-05-21 14:22:07.307
34.0, -73.03276824951172, 86.34494018554688, -42.244041442871094, 11.86296272277832, 0.03200000151991844, -0.06400000303983688, 1.055999994277954, 0.0, 0.0, 0.0, 0.0, 0.0, 1.6215997273074975E9, 2021-05-21 14:22:07.307
35.0, -60.14507293701172, 105.61290740966797, -27.04134750366211, 22.465579986572266, 0.03200000151991844, -0.06400000303983688, 1.055999994277954, 0.0, 0.0, 0.0, 0.0, 0.0, 1.6215997273238292E9, 2021-05-21 14:22:07.323
35.0, 3.4332282543182373, 151.74456787109375, 20.739614486694336, 59.5317268371582, 0.03200000151991844, -0.06400000303983688, 1.055999994277954, 0.0, 0.0, 0.0, 0.0, 0.0, 1.6215997273238292E9, 2021-05-21 14:22:07.323
36.0, -23.54266929626465, 129.65672302246094, 7.7247633934021, 48.181129455566406, 0.03200000151991844, -0.06400000303983688, 1.055999994277954, 0.0, 0.0, 0.0, 0.0, 0.0, 1.6215997273245733E9, 2021-05-21 14:22:07.324
36.0, -84.92938995361328, 84.96865844726562, -48.6991081237793, 9.50308609008789, 0.03200000151991844, -0.06400000303983688, 1.055999994277954, 0.0, 0.0, 0.0, 0.0, 0.0, 1.6215997273245733E9, 2021-05-21 14:22:07.324
37.0, -64.38611602783203, 108.76937866210938, -33.09624481201172, 27.903392791748047, 0.03200000151991844, -0.06400000303983688, 1.055999994277954, 0.0, 0.0, 0.0, 0.0, 0.0, 1.6215997273374634E9, 2021-05-21 14:22:07.337
37.0, -3.7137205600738525, 156.84579467773438, 22.976076126098633, 68.35789489746094, 0.03200000151991844, -0.06400000303983688, 1.055999994277954, 0.0, 0.0, 0.0, 0.0, 0.0, 1.6215997273374634E9, 2021-05-21 14:22:07.337
38.0, -30.1473331451416, 132.85433959960938, 2.702077627182007, 47.29103469848633, 0.03200000151991844, -0.06400000303983688, 1.055999994277954, 0.0, 0.0, 0.0, 0.0, 0.0, 1.621599727369514E9, 2021-05-21 14:22:07.369
38.0, -78.26114654541016, 84.280517578125, -46.79923629760742, 5.673428058624268, 0.03200000151991844, -0.06400000303983688, 1.055999994277954, 0.0, 0.0, 0.0, 0.0, 0.0, 1.621599727369514E9, 2021-05-21 14:22:07.369
39.0, -57.441123962402344, 99.93199920654297, -29.891149520874023, 22.301023483276367, 0.03200000151991844, -0.06400000303983688, 1.055999994277954, 0.0, 0.0, 0.0, 0.0, 0.0, 1.6215997273702936E9, 2021-05-21 14:22:07.370
39.0, -6.092297077178955, 146.23944091796875, 18.30120086669922, 55.08872604370117, 0.03200000151991844, -0.06400000303983688, 1.055999994277954, 0.0, 0.0, 0.0, 0.0, 0.0, 1.6215997273702936E9, 2021-05-21 14:22:07.370
40.0, -25.37148094177246, 122.38261413574219, -2.7132973670959473, 44.13829803466797, 0.03200000151991844, -0.06400000303983688, 1.055999994277954, 0.0, 0.0, 0.0, 0.0, 0.0, 1.6215997273710783E9, 2021-05-21 14:22:07.371
40.0, -72.3857650756836, 82.63870239257812, -47.356483459472656, 3.7922585010528564, 0.03200000151991844, -0.06400000303983688, 1.055999994277954, 0.0, 0.0, 0.0, 0.0, 0.0, 1.6215997273710783E9, 2021-05-21 14:22:07.371
41.0, -50.761661529541016, 98.3761978149414, -30.639129638671875, 21.18279266357422, 0.03200000151991844, -0.06400000303983688, 1.055999994277954, 0.0, 0.0, 0.0, 0.0, 0.0, 1.6215997273717496E9, 2021-05-21 14:22:07.371
41.0, 1.5034397840499878, 144.92672729492188, 15.473835945129395, 57.781455993652344, 0.03200000151991844, -0.06400000303983688, 1.055999994277954, 0.0, 0.0, 0.0, 0.0, 0.0, 1.6215997273717496E9, 2021-05-21 14:22:07.371
42.0, -19.563417434692383, 129.32012939453125, 9.097306251525879, 51.763954162597656, 0.03200000151991844, -0.06400000303983688, 1.055999994277954, 0.0, 0.0, 0.0, 0.0, 0.0, 1.6215997273981435E9, 2021-05-21 14:22:07.398
42.0, -69.6369400024414, 82.12633514404297, -44.11772918701172, 9.671380996704102, 0.03200000151991844, -0.06400000303983688, 1.055999994277954, 0.0, 0.0, 0.0, 0.0, 0.0, 1.6215997273981435E9, 2021-05-21 14:22:07.398
43.0, -57.164371490478516, 94.10897064208984, -37.273712158203125, 24.84415626525879, 0.03200000151991844, -0.06400000303983688, 1.055999994277954, 0.0, 0.0, 0.0, 0.0, 0.0, 1.621599727398903E9, 2021-05-21 14:22:07.398
43.0, 1.0322123765945435, 145.35682678222656, 19.666263580322266, 64.43099975585938, 0.03200000151991844, -0.06400000303983688, 1.055999994277954, 0.0, 0.0, 0.0, 0.0, 0.0, 1.621599727398903E9, 2021-05-21 14:22:07.398
44.0, -21.541824340820312, 133.81175231933594, 3.6220932006835938, 50.73174285888672, 0.03200000151991844, -0.06400000303983688, 1.055999994277954, 0.0, 0.0, 0.0, 0.0, 0.0, 1.6215997274133651E9, 2021-05-21 14:22:07.413
44.0, -75.80403137207031, 85.33516693115234, -45.639869689941406, 14.540731430053711, 0.03200000151991844, -0.06400000303983688, 1.055999994277954, 0.0, 0.0, 0.0, 0.0, 0.0, 1.6215997274133651E9, 2021-05-21 14:22:07.413
45.0, -53.1290168762207, 95.2608642578125, -27.348018646240234, 24.204631805419922, 0.03200000151991844, -0.06400000303983688, 1.055999994277954, 0.0, 0.0, 0.0, 0.0, 0.0, 1.6215997274139276E9, 2021-05-21 14:22:07.413
45.0, -2.9993996620178223, 147.4773406982422, 23.305187225341797, 62.590965270996094, 0.03200000151991844, -0.06400000303983688, 1.055999994277954, 0.0, 0.0, 0.0, 0.0, 0.0, 1.6215997274139276E9, 2021-05-21 14:22:07.413
46.0, -20.318876266479492, 135.2890167236328, 8.906571388244629, 50.346534729003906, 0.03200000151991844, -0.06400000303983688, 1.055999994277954, 0.0, 0.0, 0.0, 0.0, 0.0, 1.6215997274274776E9, 2021-05-21 14:22:07.427
46.0, -85.79704284667969, 79.56824493408203, -50.04547119140625, 5.7257866859436035, 0.03200000151991844, -0.06400000303983688, 1.055999994277954, 0.0, 0.0, 0.0, 0.0, 0.0, 1.6215997274274776E9, 2021-05-21 14:22:07.427
47.0, -57.90113067626953, 106.43194580078125, -23.002254486083984, 27.346147537231445, 0.03200000151991844, -0.06400000303983688, 1.055999994277954, 0.0, 0.0, 0.0, 0.0, 0.0, 1.6215997274431677E9, 2021-05-21 14:22:07.443
47.0, -9.349749565124512, 153.5023193359375, 25.62018394470215, 59.57660675048828, 0.03200000151991844, -0.06400000303983688, 1.055999994277954, 0.0, 0.0, 0.0, 0.0, 0.0, 1.6215997274431677E9, 2021-05-21 14:22:07.443
48.0, -23.17616081237793, 123.85987854003906, 6.475636959075928, 41.310935974121094, 0.03200000151991844, -0.06400000303983688, 1.055999994277954, 0.0, 0.0, 0.0, 0.0, 0.0, 1.6215997274439888E9, 2021-05-21 14:22:07.443
48.0, -73.9116439819336, 84.40019226074219, -47.6182746887207, 6.559784412384033, 0.03200000151991844, -0.06400000303983688, 1.055999994277954, 0.0, 0.0, 0.0, 0.0, 0.0, 1.6215997274439888E9, 2021-05-21 14:22:07.443
49.0, -47.795921325683594, 101.79821014404297, -30.80742645263672, 18.47510528564453, 0.03200000151991844, -0.06400000303983688, 1.055999994277954, 0.0, 0.0, 0.0, 0.0, 0.0, 1.6215997274574597E9, 2021-05-21 14:22:07.457
49.0, -8.007125854492188, 148.31507873535156, 11.094412803649902, 50.099700927734375, 0.03200000151991844, -0.06400000303983688, 1.055999994277954, 0.0, 0.0, 0.0, 0.0, 0.0, 1.6215997274574597E9, 2021-05-21 14:22:07.457
50.0, -19.07723045349121, 125.7373046875, 2.9115121364593506, 39.407325744628906, 0.03200000151991844, -0.06400000303983688, 1.055999994277954, 0.0, 0.0, 0.0, 0.0, 0.0, 1.62159972747328E9, 2021-05-21 14:22:07.473
50.0, -75.76663208007812, 80.96322631835938, -47.45372009277344, 2.094343900680542, 0.03200000151991844, -0.06400000303983688, 1.055999994277954, 0.0, 0.0, 0.0, 0.0, 0.0, 1.62159972747328E9, 2021-05-21 14:22:07.473
51.0, -56.55850601196289, 104.36377716064453, -35.77027130126953, 19.301624298095703, 0.03200000151991844, -0.06400000303983688, 1.055999994277954, 0.0, 0.0, 0.0, 0.0, 0.0, 1.6215997274739735E9, 2021-05-21 14:22:07.473
51.0, -9.850896835327148, 143.6813507080078, 12.21264362335205, 54.007896423339844, 0.03200000151991844, -0.06400000303983688, 1.055999994277954, 0.0, 0.0, 0.0, 0.0, 0.0, 1.6215997274739735E9, 2021-05-21 14:22:07.473
52.0, -21.683940887451172, 134.6420135498047, 1.2435166835784912, 48.09511184692383, 0.03200000151991844, -0.06400000303983688, 1.055999994277954, 0.0, 0.0, 0.0, 0.0, 0.0, 1.6215997274874957E9, 2021-05-21 14:22:07.487
52.0, -76.38372039794922, 84.11969757080078, -49.94449234008789, 11.055144309997559, 0.03200000151991844, -0.06400000303983688, 1.055999994277954, 0.0, 0.0, 0.0, 0.0, 0.0, 1.6215997274874957E9, 2021-05-21 14:22:07.487
53.0, -61.700870513916016, 101.02778625488281, -36.327518463134766, 18.003877639770508, 0.03200000151991844, -0.06400000303983688, 1.055999994277954, 0.0, 0.0, 0.0, 0.0, 0.0, 1.6215997275032E9, 2021-05-21 14:22:07.503
53.0, -11.844263076782227, 152.05123901367188, 22.063539505004883, 62.37779235839844, 0.03200000151991844, -0.06400000303983688, 1.055999994277954, 0.0, 0.0, 0.0, 0.0, 0.0, 1.6215997275032E9, 2021-05-21 14:22:07.503
54.0, -23.179899215698242, 134.5672149658203, 9.587233543395996, 52.3249397277832, 0.03200000151991844, -0.06400000303983688, 1.055999994277954, 0.0, 0.0, 0.0, 0.0, 0.0, 1.6215997275040417E9, 2021-05-21 14:22:07.504
54.0, -88.85254669189453, 87.54170989990234, -54.746524810791016, 7.666794776916504, 0.03200000151991844, -0.06400000303983688, 1.055999994277954, 0.0, 0.0, 0.0, 0.0, 0.0, 1.6215997275040417E9, 2021-05-21 14:22:07.504
55.0, -66.19248962402344, 98.85116577148438, -43.624061584472656, 22.372081756591797, 0.03200000151991844, -0.06400000303983688, 1.055999994277954, 0.0, 0.0, 0.0, 0.0, 0.0, 1.6215997275175376E9, 2021-05-21 14:22:07.517
55.0, -9.346010208129883, 148.0345916748047, 10.656845092773438, 60.36946487426758, 0.03200000151991844, -0.06400000303983688, 1.055999994277954, 0.0, 0.0, 0.0, 0.0, 0.0, 1.6215997275175376E9, 2021-05-21 14:22:07.517
56.0, -19.436260223388672, 133.35174560546875, 12.190203666687012, 50.814022064208984, 0.03200000151991844, -0.06400000303983688, 1.055999994277954, 0.0, 0.0, 0.0, 0.0, 0.0, 1.6215997275331404E9, 2021-05-21 14:22:07.533
56.0, -74.3753890991211, 82.919189453125, -49.963191986083984, 9.476906776428223, 0.03200000151991844, -0.06400000303983688, 1.055999994277954, 0.0, 0.0, 0.0, 0.0, 0.0, 1.6215997275331404E9, 2021-05-21 14:22:07.533
57.0, -52.769989013671875, 105.99811553955078, -33.81430435180664, 14.200400352478027, 0.03200000151991844, -0.06400000303983688, 1.055999994277954, 0.0, 0.0, 0.0, 0.0, 0.0, 1.621599727533914E9, 2021-05-21 14:22:07.533
57.0, -4.491620063781738, 151.7258758544922, 15.200823783874512, 52.43339920043945, 0.03200000151991844, -0.06400000303983688, 1.055999994277954, 0.0, 0.0, 0.0, 0.0, 0.0, 1.621599727533914E9, 2021-05-21 14:22:07.533
58.0, -17.28207778930664, 141.0334930419922, 4.250396251678467, 44.893760681152344, 0.03200000151991844, -0.06400000303983688, 1.055999994277954, 0.0, 0.0, 0.0, 0.0, 0.0, 1.6215997275474768E9, 2021-05-21 14:22:07.547
58.0, -79.20734405517578, 82.7322006225586, -50.976707458496094, 7.749072551727295, 0.03200000151991844, -0.06400000303983688, 1.055999994277954, 0.0, 0.0, 0.0, 0.0, 0.0, 1.6215997275474768E9, 2021-05-21 14:22:07.547
59.0, -54.636199951171875, 106.67877960205078, -29.674236297607422, 20.76018524169922, 0.03200000151991844, -0.06400000303983688, 1.055999994277954, 0.0, 0.0, 0.0, 0.0, 0.0, 1.6215997275631063E9, 2021-05-21 14:22:07.563
59.0, -7.775251865386963, 150.4505615234375, 14.333166122436523, 58.10682678222656, 0.03200000151991844, -0.06400000303983688, 1.055999994277954, 0.0, 0.0, 0.0, 0.0, 0.0, 1.6215997275631063E9, 2021-05-21 14:22:07.563
60.0, -23.340715408325195, 130.29251098632812, 4.291535377502441, 54.63993835449219, 0.03200000151991844, -0.06400000303983688, 1.055999994277954, 0.0, 0.0, 0.0, 0.0, 0.0, 1.621599727563858E9, 2021-05-21 14:22:07.563
60.0, -81.00249481201172, 80.55183410644531, -50.53165817260742, 10.116429328918457, 0.03200000151991844, -0.06400000303983688, 1.055999994277954, 0.0, 0.0, 0.0, 0.0, 0.0, 1.621599727563858E9, 2021-05-21 14:22:07.563
61.0, -60.07775115966797, 102.07495880126953, -33.8853645324707, 25.64075469970703, 0.03200000151991844, -0.06400000303983688, 1.055999994277954, 0.0, 0.0, 0.0, 0.0, 0.0, 1.6215997275775015E9, 2021-05-21 14:22:07.577
61.0, -8.508272171020508, 149.7698974609375, 20.12253189086914, 70.35873413085938, 0.03200000151991844, -0.06400000303983688, 1.055999994277954, 0.0, 0.0, 0.0, 0.0, 0.0, 1.6215997275775015E9, 2021-05-21 14:22:07.577
62.0, -23.333236694335938, 133.69955444335938, 3.9399845600128174, 50.92995834350586, 0.03200000151991844, -0.06400000303983688, 1.055999994277954, 0.0, 0.0, 0.0, 0.0, 0.0, 1.6215997275931375E9, 2021-05-21 14:22:07.593
62.0, -76.33135986328125, 94.29222869873047, -43.22763442993164, 14.15178108215332, 0.03200000151991844, -0.06400000303983688, 1.055999994277954, 0.0, 0.0, 0.0, 0.0, 0.0, 1.6215997275931375E9, 2021-05-21 14:22:07.593
63.0, -58.03950881958008, 103.66441345214844, -35.48978042602539, 25.03489112854004, 0.03200000151991844, -0.06400000303983688, 1.055999994277954, 0.0, 0.0, 0.0, 0.0, 0.0, 1.6215997275938668E9, 2021-05-21 14:22:07.593
63.0, -4.932928085327148, 153.73419189453125, 17.702816009521484, 62.594703674316406, 0.03200000151991844, -0.06400000303983688, 1.055999994277954, 0.0, 0.0, 0.0, 0.0, 0.0, 1.6215997275938668E9, 2021-05-21 14:22:07.593
64.0, -22.77972984313965, 137.83213806152344, 2.702077627182007, 45.43604278564453, 0.03200000151991844, -0.06400000303983688, 1.055999994277954, 0.0, 0.0, 0.0, 0.0, 0.0, 1.6215997276076283E9, 2021-05-21 14:22:07.607
64.0, -73.61993408203125, 90.41769409179688, -46.55614471435547, 12.341670036315918, 0.03200000151991844, -0.06400000303983688, 1.055999994277954, 0.0, 0.0, 0.0, 0.0, 0.0, 1.6215997276076283E9, 2021-05-21 14:22:07.607
65.0, -53.33097457885742, 103.56343841552734, -29.614397048950195, 23.5277099609375, 0.03200000151991844, -0.06400000303983688, 1.055999994277954, 0.0, 0.0, 0.0, 0.0, 0.0, 1.621599727623198E9, 2021-05-21 14:22:07.623
65.0, -4.809511184692383, 145.68966674804688, 10.084640502929688, 56.09101867675781, 0.03200000151991844, -0.06400000303983688, 1.055999994277954, 0.0, 0.0, 0.0, 0.0, 0.0, 1.621599727623198E9, 2021-05-21 14:22:07.623
66.0, -17.52143096923828, 134.2493133544922, 5.361146450042725, 48.820655822753906, 0.03200000151991844, -0.06400000303983688, 1.055999994277954, 0.0, 0.0, 0.0, 0.0, 0.0, 1.6215997276239307E9, 2021-05-21 14:22:07.623
66.0, -82.54707336425781, 83.60733032226562, -48.029666900634766, 8.646648406982422, 0.03200000151991844, -0.06400000303983688, 1.055999994277954, 0.0, 0.0, 0.0, 0.0, 0.0, 1.6215997276239307E9, 2021-05-21 14:22:07.623
67.0, -62.033721923828125, 105.05565643310547, -29.741554260253906, 24.0849552154541, 0.03200000151991844, -0.06400000303983688, 1.055999994277954, 0.0, 0.0, 0.0, 0.0, 0.0, 1.6215997276376545E9, 2021-05-21 14:22:07.637
67.0, -8.339977264404297, 155.4171600341797, 22.860137939453125, 61.92152404785156, 0.03200000151991844, -0.06400000303983688, 1.055999994277954, 0.0, 0.0, 0.0, 0.0, 0.0, 1.6215997276376545E9, 2021-05-21 14:22:07.637
68.0, -27.129234313964844, 134.78038024902344, 8.338107109069824, 49.40407943725586, 0.03200000151991844, -0.06400000303983688, 1.055999994277954, 0.0, 0.0, 0.0, 0.0, 0.0, 1.6215997276531813E9, 2021-05-21 14:22:07.653
68.0, -78.4930191040039, 97.40008544921875, -45.43791580200195, 12.31549072265625, 0.03200000151991844, -0.06400000303983688, 1.055999994277954, 0.0, 0.0, 0.0, 0.0, 0.0, 1.6215997276531813E9, 2021-05-21 14:22:07.653
69.0, -68.87773895263672, 106.59275817871094, -39.6373291015625, 19.45121955871582, 0.03200000151991844, -0.06400000303983688, 1.055999994277954, 0.0, 0.0, 0.0, 0.0, 0.0, 1.621599727653915E9, 2021-05-21 14:22:07.653
69.0, -14.349996566772461, 157.44418334960938, 12.018168449401855, 58.125526428222656, 0.03200000151991844, -0.06400000303983688, 1.055999994277954, 0.0, 0.0, 0.0, 0.0, 0.0, 1.621599727653915E9, 2021-05-21 14:22:07.653
70.0, -32.17061996459961, 142.2227783203125, 3.524855613708496, 47.758522033691406, 0.03200000151991844, -0.06400000303983688, 1.055999994277954, 0.0, 0.0, 0.0, 0.0, 0.0, 1.6215997276674373E9, 2021-05-21 14:22:07.667
70.0, -85.31085968017578, 94.84947204589844, -50.210025787353516, 12.334190368652344, 0.03200000151991844, -0.06400000303983688, 1.055999994277954, 0.0, 0.0, 0.0, 0.0, 0.0, 1.6215997276674373E9, 2021-05-21 14:22:07.667
71.0, -69.44245910644531, 107.26219940185547, -37.139076232910156, 26.86370086669922, 0.03200000151991844, -0.06400000303983688, 1.055999994277954, 0.0, 0.0, 0.0, 0.0, 0.0, 1.6215997276829293E9, 2021-05-21 14:22:07.682
71.0, -11.324417114257812, 153.27792358398438, 15.107325553894043, 60.309627532958984, 0.03200000151991844, -0.06400000303983688, 1.055999994277954, 0.0, 0.0, 0.0, 0.0, 0.0, 1.6215997276829293E9, 2021-05-21 14:22:07.682
72.0, -24.55244255065918, 140.3116912841797, 0.5740746259689331, 49.658390045166016, 0.03200000151991844, -0.06400000303983688, 1.055999994277954, 0.0, 0.0, 0.0, 0.0, 0.0, 1.6215997276982832E9, 2021-05-21 14:22:07.698
72.0, -83.63538360595703, 91.45738220214844, -52.02388000488281, 9.24503231048584, 0.03200000151991844, -0.06400000303983688, 1.055999994277954, 0.0, 0.0, 0.0, 0.0, 0.0, 1.6215997276982832E9, 2021-05-21 14:22:07.698
73.0, -60.88557052612305, 116.65309143066406, -36.5855712890625, 29.556428909301758, 0.03200000151991844, -0.06400000303983688, 1.055999994277954, 0.0, 0.0, 0.0, 0.0, 0.0, 1.6215997276989477E9, 2021-05-21 14:22:07.698
73.0, -16.960445404052734, 157.62368774414062, 7.14133882522583, 54.66611862182617, 0.03200000151991844, -0.06400000303983688, 1.055999994277954, 0.0, 0.0, 0.0, 0.0, 0.0, 1.6215997276989477E9, 2021-05-21 14:22:07.698
74.0, -26.485971450805664, 141.35887145996094, -7.01044225692749, 44.62822723388672, 0.03200000151991844, -0.06400000303983688, 1.055999994277954, 0.0, 0.0, 0.0, 0.0, 0.0, 1.621599727713201E9, 2021-05-21 14:22:07.713
74.0, -78.30602264404297, 94.90930938720703, -55.5244255065918, 3.100377082824707, 0.03200000151991844, -0.06400000303983688, 1.055999994277954, 0.0, 0.0, 0.0, 0.0, 0.0, 1.621599727713201E9, 2021-05-21 14:22:07.713
75.0, -60.42930221557617, 116.56707000732422, -42.3188362121582, 22.675012588500977, 0.03200000151991844, -0.06400000303983688, 1.055999994277954, 0.0, 0.0, 0.0, 0.0, 0.0, 1.62159972771391E9, 2021-05-21 14:22:07.713
