Sample Index, EXG Channel 0, EXG Channel 1, EXG Channel 2, EXG Channel 3, Accel Channel 0, Accel Channel 1, Accel Channel 2, Other, Other, Other, Other, Other, Timestamp, Timestamp (Formatted)
0.0, 5.284478664398193, -113.04408264160156, 19.19690704345703, -52.2426643371582, 0.0, 0.0, 0.0, 0.0, 0.0, 0.0, 0.0, 0.0, 1.6216010555030344E9, 2021-05-21 14:44:15.503
1.0, 43.10234832763672, -78.78660583496094, 60.93418884277344, -11.455313682556152, 0.0, -0.08000000566244125, 0.0, 0.0, 0.0, 0.0, 0.0, 0.0, 1.6216010555037832E9, 2021-05-21 14:44:15.503
1.0, 106.3926773071289, -7.160038471221924, 143.27931213378906, 70.46719360351562, 0.0, -0.08000000566244125, 0.0, 0.0, 0.0, 0.0, 0.0, 0.0, 1.6216010555037832E9, 2021-05-21 14:44:15.503
2.0, 83.96823120117188, -37.02313995361328, 113.53214263916016, 42.87421417236328, 0.03200000151991844, -0.08000000566244125, 0.0, 0.0, 0.0, 0.0, 0.0, 0.0, 1.6216010555190148E9, 2021-05-21 14:44:15.519
2.0, 15.154074668884277, -114.8167953491211, 21.878414154052734, -46.00450897216797, 0.03200000151991844, -0.08000000566244125, 0.0, 0.0, 0.0, 0.0, 0.0, 0.0, 1.6216010555190148E9, 2021-05-21 14:44:15.519
3.0, 43.27812194824219, -76.04899597167969, 62.10103988647461, -7.419961452484131, 0.03200000151991844, -0.08000000566244125, 0.0, 0.0, 0.0, 0.0, 0.0, 0.0, 1.6216010555204265E9, 2021-05-21 14:44:15.520
3.0, 108.05693054199219, -9.119746208190918, 139.6852569580078, 71.81729888916016, 0.03200000151991844, -0.08000000566244125, 0.0, 0.0, 0.0, 0.0, 0.0, 0.0, 1.6216010555204265E9, 2021-05-21 14:44:15.520
4.0, 78.92311096191406, -38.16381072998047, 103.28482055664062, 32.45111083984375, 0.03200000151991844, -0.08000000566244125, 0.0, 0.0, 0.0, 0.0, 0.0, 0.0, 1.621601055532276E9, 2021-05-21 14:44:15.532
4.0, 9.600322723388672, -110.74404907226562, 28.393320083618164, -52.145423889160156, 0.03200000151991844, -0.08000000566244125, 0.0, 0.0, 0.0, 0.0, 0.0, 0.0, 1.621601055532276E9, 2021-05-21 14:44:15.532
5.0, 45.4173469543457, -79.41490936279297, 63.234230041503906, -9.50682544708252, 0.03200000151991844, -0.08000000566244125, 0.0, 0.0, 0.0, 0.0, 0.0, 0.0, 1.6216010555477011E9, 2021-05-21 14:44:15.547
5.0, 115.45445251464844, -11.588080406188965, 141.28219604492188, 63.892452239990234, 0.03200000151991844, -0.08000000566244125, 0.0, 0.0, 0.0, 0.0, 0.0, 0.0, 1.6216010555477011E9, 2021-05-21 14:44:15.547
6.0, 95.37866973876953, -38.00673294067383, 117.77693176269531, 39.77009582519531, 0.03200000151991844, -0.08000000566244125, 0.0, 0.0, 0.0, 0.0, 0.0, 0.0, 1.6216010555484002E9, 2021-05-21 14:44:15.548
6.0, 15.4495267868042, -113.5714111328125, 27.16663360595703, -50.22685623168945, 0.03200000151991844, -0.08000000566244125, 0.0, 0.0, 0.0, 0.0, 0.0, 0.0, 1.6216010555484002E9, 2021-05-21 14:44:15.548
7.0, 41.823299407958984, -86.10184478759766, 60.32832717895508, -12.921354293823242, 0.03200000151991844, -0.08000000566244125, 0.0, 0.0, 0.0, 0.0, 0.0, 0.0, 1.6216010555622864E9, 2021-05-21 14:44:15.562
7.0, 103.09782409667969, -16.32279396057129, 139.45712280273438, 70.8411865234375, 0.03200000151991844, -0.08000000566244125, 0.0, 0.0, 0.0, 0.0, 0.0, 0.0, 1.6216010555622864E9, 2021-05-21 14:44:15.562
8.0, 72.1090087890625, -42.02712631225586, 111.75942993164062, 44.3963508605957, 0.03200000151991844, -0.08000000566244125, 0.0, 0.0, 0.0, 0.0, 0.0, 0.0, 1.6216010555785396E9, 2021-05-21 14:44:15.578
8.0, 7.6219162940979, -108.189697265625, 26.60938835144043, -42.95648956298828, 0.03200000151991844, -0.08000000566244125, 0.0, 0.0, 0.0, 0.0, 0.0, 0.0, 1.6216010555785396E9, 2021-05-21 14:44:15.578
9.0, 40.70881271362305, -82.40308380126953, 60.46296310424805, -9.529265403747559, 0.03200000151991844, -0.08000000566244125, 0.0, 0.0, 0.0, 0.0, 0.0, 0.0, 1.6216010555791857E9, 2021-05-21 14:44:15.579
9.0, 113.78271484375, -10.911158561706543, 146.49935913085938, 72.43437957763672, 0.03200000151991844, -0.08000000566244125, 0.0, 0.0, 0.0, 0.0, 0.0, 0.0, 1.6216010555791857E9, 2021-05-21 14:44:15.579
10.0, 83.60172271728516, -43.54926681518555, 110.28217315673828, 35.90678024291992, 0.03200000151991844, -0.08000000566244125, 1.055999994277954, 0.0, 0.0, 0.0, 0.0, 0.0, 1.6216010555920987E9, 2021-05-21 14:44:15.592
10.0, 12.880215644836426, -109.29670715332031, 22.203786849975586, -48.9328498840332, 0.03200000151991844, -0.08000000566244125, 1.055999994277954, 0.0, 0.0, 0.0, 0.0, 0.0, 1.6216010555920987E9, 2021-05-21 14:44:15.592
11.0, 39.89725112915039, -74.68767547607422, 56.27801513671875, -10.924247741699219, 0.03200000151991844, -0.08000000566244125, 1.055999994277954, 0.0, 0.0, 0.0, 0.0, 0.0, 1.6216010556074846E9, 2021-05-21 14:44:15.607
11.0, 100.05728149414062, -14.464062690734863, 135.75462341308594, 69.35270690917969, 0.03200000151991844, -0.08000000566244125, 1.055999994277954, 0.0, 0.0, 0.0, 0.0, 0.0, 1.6216010556074846E9, 2021-05-21 14:44:15.607
12.0, 80.29191589355469, -41.41004180908203, 108.29254150390625, 37.02874755859375, 0.03200000151991844, -0.08000000566244125, 1.055999994277954, 0.0, 0.0, 0.0, 0.0, 0.0, 1.6216010556233263E9, 2021-05-21 14:44:15.623
12.0, 8.478353500366211, -102.03755950927734, 20.49091148376465, -50.238075256347656, 0.03200000151991844, -0.08000000566244125, 1.055999994277954, 0.0, 0.0, 0.0, 0.0, 0.0, 1.6216010556233263E9, 2021-05-21 14:44:15.623
13.0, 45.71279525756836, -67.660400390625, 58.593013763427734, -12.648341178894043, 0.03200000151991844, -0.08000000566244125, 1.055999994277954, 0.0, 0.0, 0.0, 0.0, 0.0, 1.6216010556374815E9, 2021-05-21 14:44:15.637
13.0, 102.87716674804688, -15.529934883117676, 136.7195281982422, 72.6475601196289, 0.03200000151991844, -0.08000000566244125, 1.055999994277954, 0.0, 0.0, 0.0, 0.0, 0.0, 1.6216010556374815E9, 2021-05-21 14:44:15.637
14.0, 85.43427276611328, -37.943153381347656, 111.06381225585938, 41.09402084350586, 0.03200000151991844, -0.08000000566244125, 1.055999994277954, 0.0, 0.0, 0.0, 0.0, 0.0, 1.6216010556542485E9, 2021-05-21 14:44:15.654
14.0, 7.838830471038818, -106.02803039550781, 21.97939109802246, -45.810035705566406, 0.03200000151991844, -0.08000000566244125, 1.055999994277954, 0.0, 0.0, 0.0, 0.0, 0.0, 1.6216010556542485E9, 2021-05-21 14:44:15.654
15.0, 39.0445556640625, -80.39102172851562, 52.42591857910156, -13.14948844909668, 0.03200000151991844, -0.08000000566244125, 1.055999994277954, 0.0, 0.0, 0.0, 0.0, 0.0, 1.6216010556549113E9, 2021-05-21 14:44:15.654
15.0, 106.82276153564453, -11.004655838012695, 133.72386169433594, 70.36995697021484, 0.03200000151991844, -0.08000000566244125, 1.055999994277954, 0.0, 0.0, 0.0, 0.0, 0.0, 1.6216010556549113E9, 2021-05-21 14:44:15.654
16.0, 76.16680145263672, -36.933380126953125, 104.76581573486328, 39.699039459228516, 0.03200000151991844, -0.08000000566244125, 1.055999994277954, 0.0, 0.0, 0.0, 0.0, 0.0, 1.621601055655693E9, 2021-05-21 14:44:15.655
16.0, 0.254313200712204, -107.32203674316406, 16.171327590942383, -46.95070266723633, 0.03200000151991844, -0.08000000566244125, 1.055999994277954, 0.0, 0.0, 0.0, 0.0, 0.0, 1.621601055655693E9, 2021-05-21 14:44:15.655
17.0, 38.685523986816406, -74.4670181274414, 58.4060173034668, -7.977206707000732, 0.03200000151991844, -0.08000000566244125, 1.055999994277954, 0.0, 0.0, 0.0, 0.0, 0.0, 1.6216010556563935E9, 2021-05-21 14:44:15.656
17.0, 100.1133804321289, -12.811027526855469, 137.11968994140625, 66.36078643798828, 0.03200000151991844, -0.08000000566244125, 1.055999994277954, 0.0, 0.0, 0.0, 0.0, 0.0, 1.6216010556563935E9, 2021-05-21 14:44:15.656
18.0, 78.7922134399414, -36.989479064941406, 107.51090240478516, 43.11356735229492, 0.03200000151991844, -0.08000000566244125, 1.055999994277954, 0.0, 0.0, 0.0, 0.0, 0.0, 1.6216010556670914E9, 2021-05-21 14:44:15.667
18.0, 9.734959602355957, -107.34073638916016, 16.489219665527344, -44.938636779785156, 0.03200000151991844, -0.08000000566244125, 1.055999994277954, 0.0, 0.0, 0.0, 0.0, 0.0, 1.6216010556670914E9, 2021-05-21 14:44:15.667
19.0, 36.157352447509766, -72.9374008178711, 54.16497039794922, -9.663901329040527, 0.03200000151991844, -0.08000000566244125, 1.055999994277954, 0.0, 0.0, 0.0, 0.0, 0.0, 1.621601055682156E9, 2021-05-21 14:44:15.682
19.0, 105.40160369873047, -7.489149570465088, 137.03741455078125, 68.50748443603516, 0.03200000151991844, -0.08000000566244125, 1.055999994277954, 0.0, 0.0, 0.0, 0.0, 0.0, 1.621601055682156E9, 2021-05-21 14:44:15.682
20.0, 75.49736022949219, -39.480255126953125, 102.97440338134766, 39.64667892456055, 0.03200000151991844, -0.08000000566244125, 1.055999994277954, 0.0, 0.0, 0.0, 0.0, 0.0, 1.6216010556975844E9, 2021-05-21 14:44:15.697
20.0, 4.783331871032715, -111.42096710205078, 13.609496116638184, -54.479122161865234, 0.03200000151991844, -0.08000000566244125, 1.055999994277954, 0.0, 0.0, 0.0, 0.0, 0.0, 1.6216010556975844E9, 2021-05-21 14:44:15.697
21.0, 37.443878173828125, -76.48282623291016, 54.22480773925781, -11.855483055114746, 0.03200000151991844, -0.08000000566244125, 1.055999994277954, 0.0, 0.0, 0.0, 0.0, 0.0, 1.6216010557128575E9, 2021-05-21 14:44:15.712
21.0, 100.28167724609375, -10.525948524475098, 135.68731689453125, 70.11564636230469, 0.03200000151991844, -0.08000000566244125, 1.055999994277954, 0.0, 0.0, 0.0, 0.0, 0.0, 1.6216010557128575E9, 2021-05-21 14:44:15.712
22.0, 77.3448715209961, -36.10686492919922, 100.31907653808594, 35.77214431762695, 0.03200000151991844, -0.08000000566244125, 1.055999994277954, 0.0, 0.0, 0.0, 0.0, 0.0, 1.6216010557135592E9, 2021-05-21 14:44:15.713
22.0, 10.475460052490234, -105.99063110351562, 18.97251319885254, -47.97543716430664, 0.03200000151991844, -0.08000000566244125, 1.055999994277954, 0.0, 0.0, 0.0, 0.0, 0.0, 1.6216010557135592E9, 2021-05-21 14:44:15.713
23.0, 39.72147750854492, -80.56305694580078, 54.26968765258789, -16.91556739807129, 0.03200000151991844, -0.08000000566244125, 1.055999994277954, 0.0, 0.0, 0.0, 0.0, 0.0, 1.6216010557281477E9, 2021-05-21 14:44:15.728
23.0, 104.55264282226562, -12.377199172973633, 132.27651977539062, 73.78074645996094, 0.03200000151991844, -0.08000000566244125, 1.055999994277954, 0.0, 0.0, 0.0, 0.0, 0.0, 1.6216010557281477E9, 2021-05-21 14:44:15.728
24.0, 81.481201171875, -40.572303771972656, 102.29000091552734, 39.126834869384766, 0.03200000151991844, -0.08000000566244125, 1.055999994277954, 0.0, 0.0, 0.0, 0.0, 0.0, 1.6216010557427516E9, 2021-05-21 14:44:15.742
24.0, 12.943793296813965, -104.22914123535156, 15.6253023147583, -46.92826461791992, 0.03200000151991844, -0.08000000566244125, 1.055999994277954, 0.0, 0.0, 0.0, 0.0, 0.0, 1.6216010557427516E9, 2021-05-21 14:44:15.742
25.0, 34.82594680786133, -69.81084442138672, 48.846832275390625, -15.56546401977539, 0.03200000151991844, -0.08000000566244125, 1.055999994277954, 0.0, 0.0, 0.0, 0.0, 0.0, 1.6216010557434573E9, 2021-05-21 14:44:15.743
25.0, 112.6383056640625, -12.074267387390137, 137.01870727539062, 70.35499572753906, 0.03200000151991844, -0.08000000566244125, 1.055999994277954, 0.0, 0.0, 0.0, 0.0, 0.0, 1.6216010557434573E9, 2021-05-21 14:44:15.743
26.0, 80.87159729003906, -40.624664306640625, 109.13401794433594, 43.9625244140625, 0.03200000151991844, -0.08000000566244125, 1.055999994277954, 0.0, 0.0, 0.0, 0.0, 0.0, 1.6216010557578168E9, 2021-05-21 14:44:15.757
26.0, 16.231164932250977, -106.0429916381836, 21.54930305480957, -44.841400146484375, 0.03200000151991844, -0.08000000566244125, 1.055999994277954, 0.0, 0.0, 0.0, 0.0, 0.0, 1.6216010557578168E9, 2021-05-21 14:44:15.757
27.0, 36.93899154663086, -72.18193817138672, 54.38188552856445, -9.641462326049805, 0.03200000151991844, -0.08000000566244125, 1.055999994277954, 0.0, 0.0, 0.0, 0.0, 0.0, 1.6216010557585902E9, 2021-05-21 14:44:15.758
27.0, 101.84121704101562, -8.977629661560059, 136.39414978027344, 74.65214538574219, 0.03200000151991844, -0.08000000566244125, 1.055999994277954, 0.0, 0.0, 0.0, 0.0, 0.0, 1.6216010557585902E9, 2021-05-21 14:44:15.758
28.0, 73.4516372680664, -38.384464263916016, 107.97465515136719, 41.18377685546875, 0.03200000151991844, -0.08000000566244125, 1.055999994277954, 0.0, 0.0, 0.0, 0.0, 0.0, 1.6216010557719982E9, 2021-05-21 14:44:15.771
28.0, 9.798538208007812, -103.70929718017578, 20.288957595825195, -46.05312728881836, 0.03200000151991844, -0.08000000566244125, 1.055999994277954, 0.0, 0.0, 0.0, 0.0, 0.0, 1.6216010557719982E9, 2021-05-21 14:44:15.771
29.0, 37.70941162109375, -74.30994415283203, 57.912349700927734, -10.617575645446777, 0.03200000151991844, -0.08000000566244125, 1.055999994277954, 0.0, 0.0, 0.0, 0.0, 0.0, 1.6216010557882245E9, 2021-05-21 14:44:15.788
29.0, 110.9703140258789, -4.441131114959717, 137.45254516601562, 71.29745483398438, 0.03200000151991844, -0.08000000566244125, 1.055999994277954, 0.0, 0.0, 0.0, 0.0, 0.0, 1.6216010557882245E9, 2021-05-21 14:44:15.788
30.0, 82.28901672363281, -37.05305862426758, 107.14813232421875, 38.04974365234375, 0.03200000151991844, -0.08000000566244125, 1.055999994277954, 0.0, 0.0, 0.0, 0.0, 0.0, 1.6216010558027308E9, 2021-05-21 14:44:15.802
30.0, 7.199307441711426, -106.85081481933594, 15.958152770996094, -46.655250549316406, 0.03200000151991844, -0.08000000566244125, 1.055999994277954, 0.0, 0.0, 0.0, 0.0, 0.0, 1.6216010558027308E9, 2021-05-21 14:44:15.802
31.0, 43.6521110534668, -73.09073638916016, 50.14457702636719, -9.862115859985352, 0.03200000151991844, -0.08000000566244125, 1.055999994277954, 0.0, 0.0, 0.0, 0.0, 0.0, 1.621601055803578E9, 2021-05-21 14:44:15.803
31.0, 106.575927734375, -4.407472133636475, 133.2825469970703, 72.52040100097656, 0.03200000151991844, -0.08000000566244125, 1.055999994277954, 0.0, 0.0, 0.0, 0.0, 0.0, 1.621601055803578E9, 2021-05-21 14:44:15.803
32.0, 84.26368713378906, -35.269126892089844, 100.72672271728516, 41.99159622192383, 0.03200000151991844, -0.08000000566244125, 1.055999994277954, 0.0, 0.0, 0.0, 0.0, 0.0, 1.6216010558177292E9, 2021-05-21 14:44:15.817
32.0, 17.633628845214844, -103.36896514892578, 18.41900634765625, -53.26365661621094, 0.03200000151991844, -0.08000000566244125, 1.055999994277954, 0.0, 0.0, 0.0, 0.0, 0.0, 1.6216010558177292E9, 2021-05-21 14:44:15.817
33.0, 46.91704559326172, -74.41465759277344, 53.65260314941406, -15.198953628540039, 0.03200000151991844, -0.08000000566244125, 1.055999994277954, 0.0, 0.0, 0.0, 0.0, 0.0, 1.6216010558184052E9, 2021-05-21 14:44:15.818
33.0, 108.45336151123047, -9.587233543395996, 134.22874450683594, 67.26957702636719, 0.03200000151991844, -0.08000000566244125, 1.055999994277954, 0.0, 0.0, 0.0, 0.0, 0.0, 1.6216010558184052E9, 2021-05-21 14:44:15.818
34.0, 79.46165466308594, -40.92011642456055, 104.86305236816406, 37.55233383178711, 0.03200000151991844, -0.08000000566244125, 1.055999994277954, 0.0, 0.0, 0.0, 0.0, 0.0, 1.6216010558639712E9, 2021-05-21 14:44:15.863
34.0, 10.157567977905273, -113.2535171508789, 15.299930572509766, -50.383934020996094, 0.03200000151991844, -0.08000000566244125, 1.055999994277954, 0.0, 0.0, 0.0, 0.0, 0.0, 1.6216010558639712E9, 2021-05-21 14:44:15.863
35.0, 48.136253356933594, -71.81916809082031, 52.05192947387695, -7.356383323669434, 0.03200000151991844, -0.08000000566244125, 1.055999994277954, 0.0, 0.0, 0.0, 0.0, 0.0, 1.62160105586469E9, 2021-05-21 14:44:15.864
35.0, 112.81034088134766, -8.943970680236816, 130.2307891845703, 70.99452209472656, 0.03200000151991844, -0.08000000566244125, 1.055999994277954, 0.0, 0.0, 0.0, 0.0, 0.0, 1.62160105586469E9, 2021-05-21 14:44:15.864
36.0, 82.20674133300781, -33.63853073120117, 105.19216918945312, 43.07990646362305, 0.03200000151991844, -0.08000000566244125, 1.055999994277954, 0.0, 0.0, 0.0, 0.0, 0.0, 1.6216010558654244E9, 2021-05-21 14:44:15.865
36.0, 14.099422454833984, -111.7650375366211, 18.407787322998047, -49.44521713256836, 0.03200000151991844, -0.08000000566244125, 1.055999994277954, 0.0, 0.0, 0.0, 0.0, 0.0, 1.6216010558654244E9, 2021-05-21 14:44:15.865
37.0, 37.2082633972168, -81.40827178955078, 54.007896423339844, -10.494159698486328, 0.03200000151991844, -0.08000000566244125, 1.055999994277954, 0.0, 0.0, 0.0, 0.0, 0.0, 1.621601055878428E9, 2021-05-21 14:44:15.878
37.0, 109.79972076416016, -14.924070358276367, 134.86827087402344, 71.98933410644531, 0.03200000151991844, -0.08000000566244125, 1.055999994277954, 0.0, 0.0, 0.0, 0.0, 0.0, 1.621601055878428E9, 2021-05-21 14:44:15.878
38.0, 82.99585723876953, -46.735660552978516, 103.72986602783203, 39.14927291870117, 0.03200000151991844, -0.08000000566244125, 1.055999994277954, 0.0, 0.0, 0.0, 0.0, 0.0, 1.621601055879256E9, 2021-05-21 14:44:15.879
38.0, 13.321523666381836, -117.767578125, 11.070103645324707, -51.20671081542969, 0.03200000151991844, -0.08000000566244125, 1.055999994277954, 0.0, 0.0, 0.0, 0.0, 0.0, 1.621601055879256E9, 2021-05-21 14:44:15.879
39.0, 47.02176284790039, -79.94596862792969, 53.7872428894043, -10.322123527526855, 0.03200000151991844, -0.08000000566244125, 1.055999994277954, 0.0, 0.0, 0.0, 0.0, 0.0, 1.6216010558799767E9, 2021-05-21 14:44:15.879
39.0, 104.23101043701172, -14.520161628723145, 129.15370178222656, 67.26957702636719, 0.03200000151991844, -0.08000000566244125, 1.055999994277954, 0.0, 0.0, 0.0, 0.0, 0.0, 1.6216010558799767E9, 2021-05-21 14:44:15.879
40.0, 83.60172271728516, -35.42620086669922, 106.47869110107422, 40.88832473754883, 0.03200000151991844, -0.08000000566244125, 1.055999994277954, 0.0, 0.0, 0.0, 0.0, 0.0, 1.6216010559083796E9, 2021-05-21 14:44:15.908
40.0, 6.821577548980713, -105.02947998046875, 12.984932899475098, -52.88218688964844, 0.03200000151991844, -0.08000000566244125, 1.055999994277954, 0.0, 0.0, 0.0, 0.0, 0.0, 1.6216010559083796E9, 2021-05-21 14:44:15.908
41.0, 39.34000778198242, -79.40742492675781, 55.283199310302734, -10.352043151855469, 0.03200000151991844, -0.08000000566244125, 1.055999994277954, 0.0, 0.0, 0.0, 0.0, 0.0, 1.6216010559091032E9, 2021-05-21 14:44:15.909
41.0, 109.27239990234375, -16.262954711914062, 133.2937774658203, 71.92201232910156, 0.03200000151991844, -0.08000000566244125, 1.055999994277954, 0.0, 0.0, 0.0, 0.0, 0.0, 1.6216010559091032E9, 2021-05-21 14:44:15.909
42.0, 79.44669342041016, -44.32342529296875, 104.07019805908203, 41.80086135864258, 0.03200000151991844, -0.08000000566244125, 1.055999994277954, 0.0, 0.0, 0.0, 0.0, 0.0, 1.621601055909829E9, 2021-05-21 14:44:15.909
42.0, 12.670781135559082, -112.12406921386719, 20.782623291015625, -48.91789245605469, 0.03200000151991844, -0.08000000566244125, 1.055999994277954, 0.0, 0.0, 0.0, 0.0, 0.0, 1.621601055909829E9, 2021-05-21 14:44:15.909
43.0, 39.47090530395508, -79.81881713867188, 55.44401550292969, -8.343716621398926, 0.03200000151991844, -0.08000000566244125, 1.055999994277954, 0.0, 0.0, 0.0, 0.0, 0.0, 1.6216010559222074E9, 2021-05-21 14:44:15.922
43.0, 100.67436981201172, -16.876298904418945, 134.45314025878906, 70.85240173339844, 0.03200000151991844, -0.08000000566244125, 1.055999994277954, 0.0, 0.0, 0.0, 0.0, 0.0, 1.6216010559222074E9, 2021-05-21 14:44:15.922
44.0, 79.0914077758789, -35.92361068725586, 106.68438720703125, 39.82245635986328, 0.03200000151991844, -0.08000000566244125, 1.055999994277954, 0.0, 0.0, 0.0, 0.0, 0.0, 1.6216010559377503E9, 2021-05-21 14:44:15.937
44.0, 6.092297077178955, -106.2225112915039, 22.566556930541992, -46.05312728881836, 0.03200000151991844, -0.08000000566244125, 1.055999994277954, 0.0, 0.0, 0.0, 0.0, 0.0, 1.6216010559377503E9, 2021-05-21 14:44:15.937
45.0, 44.65440368652344, -80.82484436035156, 54.17245101928711, -15.670181274414062, 0.03200000151991844, -0.08000000566244125, 1.055999994277954, 0.0, 0.0, 0.0, 0.0, 0.0, 1.621601055938433E9, 2021-05-21 14:44:15.938
45.0, 106.31787872314453, -16.827680587768555, 137.32913208007812, 69.52474212646484, 0.03200000151991844, -0.08000000566244125, 1.055999994277954, 0.0, 0.0, 0.0, 0.0, 0.0, 1.621601055938433E9, 2021-05-21 14:44:15.938
46.0, 80.40785217285156, -36.29385757446289, 107.25285339355469, 47.23493576049805, 0.03200000151991844, -0.08000000566244125, 1.055999994277954, 0.0, 0.0, 0.0, 0.0, 0.0, 1.6216010559683695E9, 2021-05-21 14:44:15.968
46.0, 5.804324626922607, -111.38731384277344, 16.777191162109375, -49.54619598388672, 0.03200000151991844, -0.08000000566244125, 1.055999994277954, 0.0, 0.0, 0.0, 0.0, 0.0, 1.6216010559683695E9, 2021-05-21 14:44:15.968
47.0, 37.90388488769531, -78.4013900756836, 52.39973831176758, -16.769710540771484, 0.03200000151991844, -0.08000000566244125, 1.055999994277954, 0.0, 0.0, 0.0, 0.0, 0.0, 1.621601055969076E9, 2021-05-21 14:44:15.969
47.0, 105.56615447998047, -7.848180294036865, 135.42926025390625, 71.91079711914062, 0.03200000151991844, -0.08000000566244125, 1.055999994277954, 0.0, 0.0, 0.0, 0.0, 0.0, 1.621601055969076E9, 2021-05-21 14:44:15.969
48.0, 87.21820831298828, -37.77859878540039, 103.35587310791016, 42.80315399169922, 0.03200000151991844, -0.08000000566244125, 1.055999994277954, 0.0, 0.0, 0.0, 0.0, 0.0, 1.62160105596986E9, 2021-05-21 14:44:15.969
48.0, 8.149242401123047, -102.66960144042969, 18.13851547241211, -46.64777374267578, 0.03200000151991844, -0.08000000566244125, 1.055999994277954, 0.0, 0.0, 0.0, 0.0, 0.0, 1.62160105596986E9, 2021-05-21 14:44:15.969
49.0, 35.93669891357422, -81.70372772216797, 51.43858337402344, -15.935713768005371, 0.03200000151991844, -0.08000000566244125, 1.055999994277954, 0.0, 0.0, 0.0, 0.0, 0.0, 1.6216010559821877E9, 2021-05-21 14:44:15.982
49.0, 105.38664245605469, -16.958576202392578, 134.44192504882812, 71.9257583618164, 0.03200000151991844, -0.08000000566244125, 1.055999994277954, 0.0, 0.0, 0.0, 0.0, 0.0, 1.6216010559821877E9, 2021-05-21 14:44:15.982
50.0, 76.5220947265625, -31.099138259887695, 112.60090637207031, 45.75767517089844, 0.03200000151991844, -0.08000000566244125, 1.055999994277954, 0.0, 0.0, 0.0, 0.0, 0.0, 1.6216010559977837E9, 2021-05-21 14:44:15.997
50.0, 6.092297077178955, -108.66092681884766, 20.902301788330078, -47.84828186035156, 0.03200000151991844, -0.08000000566244125, 1.055999994277954, 0.0, 0.0, 0.0, 0.0, 0.0, 1.6216010559977837E9, 2021-05-21 14:44:15.997
51.0, 44.171958923339844, -79.7440185546875, 56.54728698730469, -8.388595581054688, 0.03200000151991844, -0.08000000566244125, 1.055999994277954, 0.0, 0.0, 0.0, 0.0, 0.0, 1.6216010559985845E9, 2021-05-21 14:44:15.998
51.0, 103.10530090332031, -19.838298797607422, 132.45603942871094, 68.3167495727539, 0.03200000151991844, -0.08000000566244125, 1.055999994277954, 0.0, 0.0, 0.0, 0.0, 0.0, 1.6216010559985845E9, 2021-05-21 14:44:15.998
52.0, 79.14749908447266, -38.82577133178711, 109.21255493164062, 41.879398345947266, 0.03200000151991844, -0.08000000566244125, 1.055999994277954, 0.0, 0.0, 0.0, 0.0, 0.0, 1.6216010560284953E9, 2021-05-21 14:44:16.028
52.0, 12.412728309631348, -109.20320892333984, 21.983131408691406, -45.9409294128418, 0.03200000151991844, -0.08000000566244125, 1.055999994277954, 0.0, 0.0, 0.0, 0.0, 0.0, 1.6216010560284953E9, 2021-05-21 14:44:16.028
53.0, 41.26979446411133, -76.26590728759766, 52.40347671508789, -11.806863784790039, 0.03200000151991844, -0.08000000566244125, 1.055999994277954, 0.0, 0.0, 0.0, 0.0, 0.0, 1.6216010560291395E9, 2021-05-21 14:44:16.029
53.0, 110.04281616210938, -12.388418197631836, 133.82858276367188, 69.50978088378906, 0.03200000151991844, -0.08000000566244125, 1.055999994277954, 0.0, 0.0, 0.0, 0.0, 0.0, 1.6216010560291395E9, 2021-05-21 14:44:16.029
54.0, 92.0389404296875, -34.7305793762207, 103.65132904052734, 41.52784729003906, 0.03200000151991844, -0.08000000566244125, 1.055999994277954, 0.0, 0.0, 0.0, 0.0, 0.0, 1.6216010560300033E9, 2021-05-21 14:44:16.030
54.0, 10.879368782043457, -109.02743530273438, 19.795289993286133, -47.16387939453125, 0.03200000151991844, -0.08000000566244125, 1.055999994277954, 0.0, 0.0, 0.0, 0.0, 0.0, 1.6216010560300033E9, 2021-05-21 14:44:16.030
55.0, 39.268951416015625, -77.71698760986328, 49.43773651123047, -10.995306015014648, 0.03200000151991844, -0.08000000566244125, 1.055999994277954, 0.0, 0.0, 0.0, 0.0, 0.0, 1.6216010560420458E9, 2021-05-21 14:44:16.042
55.0, 105.35671997070312, -18.177783966064453, 127.60164642333984, 69.31156921386719, 0.03200000151991844, -0.08000000566244125, 1.055999994277954, 0.0, 0.0, 0.0, 0.0, 0.0, 1.6216010560420458E9, 2021-05-21 14:44:16.042
56.0, 84.40579986572266, -41.047271728515625, 101.41112518310547, 46.41215896606445, 0.03200000151991844, -0.08000000566244125, 1.055999994277954, 0.0, 0.0, 0.0, 0.0, 0.0, 1.621601056057748E9, 2021-05-21 14:44:16.057
56.0, 7.2180070877075195, -111.28633117675781, 11.238399505615234, -48.47658157348633, 0.03200000151991844, -0.08000000566244125, 1.055999994277954, 0.0, 0.0, 0.0, 0.0, 0.0, 1.621601056057748E9, 2021-05-21 14:44:16.057
57.0, 39.10813522338867, -74.60539245605469, 37.18582534790039, -19.103408813476562, 0.03200000151991844, -0.08000000566244125, 1.055999994277954, 0.0, 0.0, 0.0, 0.0, 0.0, 1.6216010560584693E9, 2021-05-21 14:44:16.058
57.0, 110.5477066040039, -14.781954765319824, 125.60453796386719, 70.52703094482422, 0.03200000151991844, -0.08000000566244125, 1.055999994277954, 0.0, 0.0, 0.0, 0.0, 0.0, 1.6216010560584693E9, 2021-05-21 14:44:16.058
58.0, 82.46105194091797, -41.230525970458984, 96.3809585571289, 36.7258186340332, 0.03200000151991844, -0.08000000566244125, 1.055999994277954, 0.0, 0.0, 0.0, 0.0, 0.0, 1.6216010560882277E9, 2021-05-21 14:44:16.088
58.0, 11.440354347229004, -103.52603912353516, 8.882262229919434, -46.1989860534668, 0.03200000151991844, -0.08000000566244125, 1.055999994277954, 0.0, 0.0, 0.0, 0.0, 0.0, 1.6216010560882277E9, 2021-05-21 14:44:16.088
59.0, 38.34519577026367, -76.1125717163086, 47.36209487915039, -10.355782508850098, 0.03200000151991844, -0.08000000566244125, 1.055999994277954, 0.0, 0.0, 0.0, 0.0, 0.0, 1.6216010560889535E9, 2021-05-21 14:44:16.088
59.0, 105.24452209472656, -6.486856460571289, 128.89564514160156, 68.38407135009766, 0.03200000151991844, -0.08000000566244125, 1.055999994277954, 0.0, 0.0, 0.0, 0.0, 0.0, 1.6216010560889535E9, 2021-05-21 14:44:16.088
60.0, 77.3448715209961, -32.595096588134766, 106.9798355102539, 44.175697326660156, 0.03200000151991844, -0.08000000566244125, 1.055999994277954, 0.0, 0.0, 0.0, 0.0, 0.0, 1.6216010561191149E9, 2021-05-21 14:44:16.119
60.0, 9.259992599487305, -100.81461334228516, 15.531804084777832, -45.5407600402832, 0.03200000151991844, -0.08000000566244125, 1.055999994277954, 0.0, 0.0, 0.0, 0.0, 0.0, 1.6216010561191149E9, 2021-05-21 14:44:16.119
61.0, 38.199337005615234, -72.97480010986328, 53.17763900756836, -9.495606422424316, 0.03200000151991844, -0.08000000566244125, 1.055999994277954, 0.0, 0.0, 0.0, 0.0, 0.0, 1.6216010561198232E9, 2021-05-21 14:44:16.119
61.0, 100.59957122802734, -9.67699146270752, 131.73423767089844, 72.0865707397461, 0.03200000151991844, -0.08000000566244125, 1.055999994277954, 0.0, 0.0, 0.0, 0.0, 0.0, 1.6216010561198232E9, 2021-05-21 14:44:16.119
62.0, 76.32762145996094, -31.289873123168945, 107.5557861328125, 48.16617202758789, 0.03200000151991844, -0.08000000566244125, 1.055999994277954, 0.0, 0.0, 0.0, 0.0, 0.0, 1.6216010561206684E9, 2021-05-21 14:44:16.120
62.0, 12.270611763000488, -92.60552978515625, 21.934513092041016, -32.12200164794922, 0.03200000151991844, -0.08000000566244125, 1.055999994277954, 0.0, 0.0, 0.0, 0.0, 0.0, 1.6216010561206684E9, 2021-05-21 14:44:16.120
63.0, 38.158199310302734, -73.07577514648438, 50.69434356689453, -9.9443941116333, 0.03200000151991844, -0.08000000566244125, 1.055999994277954, 0.0, 0.0, 0.0, 0.0, 0.0, 1.6216010561213992E9, 2021-05-21 14:44:16.121
63.0, 111.95390319824219, -5.753836154937744, 136.57740783691406, 74.7157211303711, 0.03200000151991844, -0.08000000566244125, 1.055999994277954, 0.0, 0.0, 0.0, 0.0, 0.0, 1.6216010561213992E9, 2021-05-21 14:44:16.121
64.0, 84.8508529663086, -38.391944885253906, 103.37457275390625, 40.47693634033203, 0.03200000151991844, -0.08000000566244125, 1.055999994277954, 0.0, 0.0, 0.0, 0.0, 0.0, 1.6216010561648483E9, 2021-05-21 14:44:16.164
64.0, 11.61238956451416, -96.45388793945312, 16.60515594482422, -46.382240295410156, 0.03200000151991844, -0.08000000566244125, 1.055999994277954, 0.0, 0.0, 0.0, 0.0, 0.0, 1.6216010561648483E9, 2021-05-21 14:44:16.164
65.0, 43.18462371826172, -82.33576965332031, 48.86553192138672, -14.155521392822266, 0.03200000151991844, -0.08000000566244125, 1.055999994277954, 0.0, 0.0, 0.0, 0.0, 0.0, 1.621601056165495E9, 2021-05-21 14:44:16.165
65.0, 112.48123168945312, -9.41519832611084, 137.04489135742188, 72.06787109375, 0.03200000151991844, -0.08000000566244125, 1.055999994277954, 0.0, 0.0, 0.0, 0.0, 0.0, 1.621601056165495E9, 2021-05-21 14:44:16.165
66.0, 77.89463806152344, -32.74843215942383, 104.3506851196289, 36.864192962646484, 0.03200000151991844, -0.08000000566244125, 1.055999994277954, 0.0, 0.0, 0.0, 0.0, 0.0, 1.621601056166288E9, 2021-05-21 14:44:16.166
66.0, 14.088203430175781, -95.59745025634766, 14.645448684692383, -49.02260971069336, 0.03200000151991844, -0.08000000566244125, 1.055999994277954, 0.0, 0.0, 0.0, 0.0, 0.0, 1.621601056166288E9, 2021-05-21 14:44:16.166
67.0, 41.43061065673828, -70.95525360107422, 50.82149887084961, -11.560030937194824, 0.03200000151991844, -0.08000000566244125, 1.055999994277954, 0.0, 0.0, 0.0, 0.0, 0.0, 1.6216010561670363E9, 2021-05-21 14:44:16.167
67.0, 104.35443115234375, -14.946510314941406, 127.74002075195312, 66.92176818847656, 0.03200000151991844, -0.08000000566244125, 1.055999994277954, 0.0, 0.0, 0.0, 0.0, 0.0, 1.6216010561670363E9, 2021-05-21 14:44:16.167
68.0, 84.80596923828125, -30.32497787475586, 104.53020477294922, 40.129127502441406, 0.03200000151991844, -0.08000000566244125, 1.055999994277954, 0.0, 0.0, 0.0, 0.0, 0.0, 1.621601056177731E9, 2021-05-21 14:44:16.177
68.0, 9.084217071533203, -99.14661407470703, 11.560030937194824, -52.97568130493164, 0.03200000151991844, -0.08000000566244125, 1.055999994277954, 0.0, 0.0, 0.0, 0.0, 0.0, 1.621601056177731E9, 2021-05-21 14:44:16.177
69.0, 40.95938491821289, -69.23863983154297, 43.38283920288086, -14.742685317993164, 0.03200000151991844, -0.08000000566244125, 1.055999994277954, 0.0, 0.0, 0.0, 0.0, 0.0, 1.621601056178445E9, 2021-05-21 14:44:16.178
69.0, 105.86908721923828, -4.7852020263671875, 132.9010772705078, 69.40880584716797, 0.03200000151991844, -0.08000000566244125, 1.055999994277954, 0.0, 0.0, 0.0, 0.0, 0.0, 1.621601056178445E9, 2021-05-21 14:44:16.178
70.0, 78.05918884277344, -29.494720458984375, 100.58087158203125, 36.26955032348633, 0.03200000151991844, -0.08000000566244125, 1.055999994277954, 0.0, 0.0, 0.0, 0.0, 0.0, 1.6216010562075627E9, 2021-05-21 14:44:16.207
70.0, 14.817483901977539, -97.26544952392578, 20.535791397094727, -45.413604736328125, 0.03200000151991844, -0.08000000566244125, 1.055999994277954, 0.0, 0.0, 0.0, 0.0, 0.0, 1.6216010562075627E9, 2021-05-21 14:44:16.207
71.0, 43.34170150756836, -73.0421142578125, 49.325538635253906, -12.158414840698242, 0.03200000151991844, -0.08000000566244125, 1.055999994277954, 0.0, 0.0, 0.0, 0.0, 0.0, 1.6216010562247832E9, 2021-05-21 14:44:16.224
71.0, 107.29399108886719, -10.028541564941406, 133.98565673828125, 72.32966613769531, 0.03200000151991844, -0.08000000566244125, 1.055999994277954, 0.0, 0.0, 0.0, 0.0, 0.0, 1.6216010562247832E9, 2021-05-21 14:44:16.224
72.0, 80.7406997680664, -35.373844146728516, 98.56132507324219, 41.56898880004883, 0.03200000151991844, -0.08000000566244125, 1.055999994277954, 0.0, 0.0, 0.0, 0.0, 0.0, 1.621601056225649E9, 2021-05-21 14:44:16.225
72.0, 6.89637565612793, -102.4900894165039, 15.284971237182617, -43.78300857543945, 0.03200000151991844, -0.08000000566244125, 1.055999994277954, 0.0, 0.0, 0.0, 0.0, 0.0, 1.621601056225649E9, 2021-05-21 14:44:16.225
73.0, 39.75887680053711, -68.0231704711914, 55.41409683227539, -7.917368412017822, 0.03200000151991844, -0.08000000566244125, 1.055999994277954, 0.0, 0.0, 0.0, 0.0, 0.0, 1.6216010562263603E9, 2021-05-21 14:44:16.226
73.0, 103.5017318725586, -1.2435166835784912, 134.3446807861328, 71.55924224853516, 0.03200000151991844, -0.08000000566244125, 1.055999994277954, 0.0, 0.0, 0.0, 0.0, 0.0, 1.6216010562263603E9, 2021-05-21 14:44:16.226
74.0, 81.21940612792969, -25.27985382080078, 106.74422454833984, 40.71628952026367, 0.03200000151991844, -0.08000000566244125, 1.055999994277954, 0.0, 0.0, 0.0, 0.0, 0.0, 1.6216010562271616E9, 2021-05-21 14:44:16.227
74.0, 8.717706680297852, -104.20296478271484, 15.909534454345703, -44.10089874267578, 0.03200000151991844, -0.08000000566244125, 1.055999994277954, 0.0, 0.0, 0.0, 0.0, 0.0, 1.6216010562271616E9, 2021-05-21 14:44:16.227
75.0, 34.45195770263672, -64.95645141601562, 53.517967224121094, -5.026425361633301, 0.03200000151991844, -0.08000000566244125, 1.055999994277954, 0.0, 0.0, 0.0, 0.0, 0.0, 1.621601056237115E9, 2021-05-21 14:44:16.237
75.0, 103.14643859863281, -6.097907066345215, 132.6505126953125, 75.14955139160156, 0.03200000151991844, -0.08000000566244125, 1.055999994277954, 0.0, 0.0, 0.0, 0.0, 0.0, 1.621601056237115E9, 2021-05-21 14:44:16.237
76.0, 77.31121063232422, -38.11518859863281, 101.75145721435547, 44.029842376708984, 0.03200000151991844, -0.08000000566244125, 1.055999994277954, 0.0, 0.0, 0.0, 0.0, 0.0, 1.6216010562520998E9, 2021-05-21 14:44:16.252
76.0, 13.63941478729248, -99.57296752929688, 15.161554336547852, -45.59312057495117, 0.03200000151991844, -0.08000000566244125, 1.055999994277954, 0.0, 0.0, 0.0, 0.0, 0.0, 1.6216010562520998E9, 2021-05-21 14:44:16.252
77.0, 40.985565185546875, -73.8648910522461, 47.893157958984375, -11.728325843811035, 0.03200000151991844, -0.08000000566244125, 1.055999994277954, 0.0, 0.0, 0.0, 0.0, 0.0, 1.6216010562676618E9, 2021-05-21 14:44:16.267
77.0, 112.29049682617188, -2.1223931312561035, 131.64822387695312, 73.63863372802734, 0.03200000151991844, -0.08000000566244125, 1.055999994277954, 0.0, 0.0, 0.0, 0.0, 0.0, 1.6216010562676618E9, 2021-05-21 14:44:16.267
78.0, 79.99272155761719, -29.292766571044922, 101.83373260498047, 45.57815933227539, 0.03200000151991844, -0.08000000566244125, 1.055999994277954, 0.0, 0.0, 0.0, 0.0, 0.0, 1.6216010562684216E9, 2021-05-21 14:44:16.268
78.0, 6.073597431182861, -101.0016098022461, 16.092788696289062, -47.88941955566406, 0.03200000151991844, -0.08000000566244125, 1.055999994277954, 0.0, 0.0, 0.0, 0.0, 0.0, 1.6216010562684216E9, 2021-05-21 14:44:16.268
79.0, 31.183286666870117, -77.30560302734375, 48.1063346862793, -8.691527366638184, 0.03200000151991844, -0.08000000566244125, 1.055999994277954, 0.0, 0.0, 0.0, 0.0, 0.0, 1.6216010562820473E9, 2021-05-21 14:44:16.282
79.0, 105.82421112060547, -14.460323333740234, 132.3139190673828, 72.4493408203125, 0.03200000151991844, -0.08000000566244125, 1.055999994277954, 0.0, 0.0, 0.0, 0.0, 0.0, 1.6216010562820473E9, 2021-05-21 14:44:16.282
80.0, 80.51256561279297, -35.80767059326172, 100.08346557617188, 40.353519439697266, 0.03200000151991844, -0.08000000566244125, 1.055999994277954, 0.0, 0.0, 0.0, 0.0, 0.0, 1.621601056297689E9, 2021-05-21 14:44:16.297
80.0, 2.7114274501800537, -100.219970703125, 10.39692211151123, -50.41385269165039, 0.03200000151991844, -0.08000000566244125, 1.055999994277954, 0.0, 0.0, 0.0, 0.0, 0.0, 1.621601056297689E9, 2021-05-21 14:44:16.297
81.0, 43.158447265625, -69.34335327148438, 47.98291778564453, -11.788165092468262, 0.03200000151991844, -0.08000000566244125, 1.055999994277954, 0.0, 0.0, 0.0, 0.0, 0.0, 1.621601056298381E9, 2021-05-21 14:44:16.298
81.0, 106.07852172851562, -6.542954921722412, 139.74510192871094, 78.10033416748047, 0.03200000151991844, -0.08000000566244125, 1.055999994277954, 0.0, 0.0, 0.0, 0.0, 0.0, 1.621601056298381E9, 2021-05-21 14:44:16.298
82.0, 72.23616790771484, -27.635990142822266, 103.55783081054688, 46.39719772338867, 0.03200000151991844, -0.08000000566244125, 1.055999994277954, 0.0, 0.0, 0.0, 0.0, 0.0, 1.621601056312096E9, 2021-05-21 14:44:16.312
82.0, -1.6455559730529785, -100.30224609375, 8.2427396774292, -40.90702438354492, 0.03200000151991844, -0.08000000566244125, 1.055999994277954, 0.0, 0.0, 0.0, 0.0, 0.0, 1.621601056312096E9, 2021-05-21 14:44:16.312
83.0, 31.602153778076172, -68.81228637695312, 53.342193603515625, -4.487879753112793, 0.03200000151991844, -0.08000000566244125, 1.055999994277954, 0.0, 0.0, 0.0, 0.0, 0.0, 1.6216010563277645E9, 2021-05-21 14:44:16.327
83.0, 99.42523956298828, -9.370319366455078, 137.37774658203125, 78.69497680664062, 0.03200000151991844, -0.08000000566244125, 1.055999994277954, 0.0, 0.0, 0.0, 0.0, 0.0, 1.6216010563277645E9, 2021-05-21 14:44:16.327
84.0, 77.62162017822266, -34.48748779296875, 108.8871841430664, 48.53642272949219, 0.03200000151991844, -0.08000000566244125, 1.055999994277954, 0.0, 0.0, 0.0, 0.0, 0.0, 1.6216010563285265E9, 2021-05-21 14:44:16.328
84.0, 4.095190525054932, -106.56283569335938, 21.908334732055664, -40.85466766357422, 0.03200000151991844, -0.08000000566244125, 1.055999994277954, 0.0, 0.0, 0.0, 0.0, 0.0, 1.6216010563285265E9, 2021-05-21 14:44:16.328
85.0, 31.2917423248291, -78.81652069091797, 46.73004913330078, -7.745332717895508, 0.03200000151991844, -0.08000000566244125, 1.055999994277954, 0.0, 0.0, 0.0, 0.0, 0.0, 1.6216010563420513E9, 2021-05-21 14:44:16.342
85.0, 97.05414581298828, -4.669265270233154, 133.52565002441406, 81.37648010253906, 0.03200000151991844, -0.08000000566244125, 1.055999994277954, 0.0, 0.0, 0.0, 0.0, 0.0, 1.6216010563420513E9, 2021-05-21 14:44:16.342
86.0, 77.52812957763672, -26.031574249267578, 112.59716796875, 54.194889068603516, 0.03200000151991844, -0.08000000566244125, 1.055999994277954, 0.0, 0.0, 0.0, 0.0, 0.0, 1.6216010563577623E9, 2021-05-21 14:44:16.357
86.0, -1.0322123765945435, -106.05795288085938, 14.967079162597656, -49.36668014526367, 0.03200000151991844, -0.08000000566244125, 1.055999994277954, 0.0, 0.0, 0.0, 0.0, 0.0, 1.6216010563577623E9, 2021-05-21 14:44:16.357
87.0, 33.430965423583984, -69.13765716552734, 47.4368896484375, -5.389195919036865, 0.03200000151991844, -0.08000000566244125, 1.055999994277954, 0.0, 0.0, 0.0, 0.0, 0.0, 1.621601056358524E9, 2021-05-21 14:44:16.358
87.0, 104.99394989013672, -6.269942283630371, 128.4992218017578, 76.99706268310547, 0.03200000151991844, -0.08000000566244125, 1.055999994277954, 0.0, 0.0, 0.0, 0.0, 0.0, 1.621601056358524E9, 2021-05-21 14:44:16.358
88.0, 74.10611724853516, -31.473127365112305, 103.81962585449219, 48.895450592041016, 0.03200000151991844, -0.08000000566244125, 1.055999994277954, 0.0, 0.0, 0.0, 0.0, 0.0, 1.6216010563722005E9, 2021-05-21 14:44:16.372
88.0, 3.6501424312591553, -100.55655670166016, 18.579822540283203, -39.81497573852539, 0.03200000151991844, -0.08000000566244125, 1.055999994277954, 0.0, 0.0, 0.0, 0.0, 0.0, 1.6216010563722005E9, 2021-05-21 14:44:16.372
89.0, 34.448219299316406, -66.66932678222656, 55.37295913696289, 0.590904176235199, 0.03200000151991844, -0.08000000566244125, 1.055999994277954, 0.0, 0.0, 0.0, 0.0, 0.0, 1.6216010563877325E9, 2021-05-21 14:44:16.387
89.0, 99.89273071289062, -5.693997859954834, 136.86163330078125, 79.03156280517578, 0.03200000151991844, -0.08000000566244125, 1.055999994277954, 0.0, 0.0, 0.0, 0.0, 0.0, 1.6216010563877325E9, 2021-05-21 14:44:16.387
90.0, 73.9976577758789, -33.45527648925781, 108.83483123779297, 45.86613464355469, 0.03200000151991844, -0.08000000566244125, 1.055999994277954, 0.0, 0.0, 0.0, 0.0, 0.0, 1.6216010563885486E9, 2021-05-21 14:44:16.388
90.0, 0.5161061882972717, -104.13190460205078, 21.994352340698242, -40.68263244628906, 0.03200000151991844, -0.08000000566244125, 1.055999994277954, 0.0, 0.0, 0.0, 0.0, 0.0, 1.6216010563885486E9, 2021-05-21 14:44:16.388
91.0, 29.98651695251465, -74.19026184082031, 54.767093658447266, -9.57788372039795, 0.03200000151991844, -0.08000000566244125, 1.055999994277954, 0.0, 0.0, 0.0, 0.0, 0.0, 1.6216010564184551E9, 2021-05-21 14:44:16.418
91.0, 96.69511413574219, -12.193943977355957, 140.85958862304688, 76.23037719726562, 0.03200000151991844, -0.08000000566244125, 1.055999994277954, 0.0, 0.0, 0.0, 0.0, 0.0, 1.6216010564184551E9, 2021-05-21 14:44:16.418
92.0, 78.0255355834961, -32.95786666870117, 115.33477783203125, 53.55536651611328, 0.03200000151991844, -0.08000000566244125, 1.055999994277954, 0.0, 0.0, 0.0, 0.0, 0.0, 1.6216010564191492E9, 2021-05-21 14:44:16.419
92.0, 10.165047645568848, -104.91728210449219, 26.568248748779297, -37.1259880065918, 0.03200000151991844, -0.08000000566244125, 1.055999994277954, 0.0, 0.0, 0.0, 0.0, 0.0, 1.6216010564191492E9, 2021-05-21 14:44:16.419
93.0, 39.22407150268555, -84.77043914794922, 58.017066955566406, -4.626256465911865, 0.03200000151991844, -0.08000000566244125, 1.055999994277954, 0.0, 0.0, 0.0, 0.0, 0.0, 1.6216010564198804E9, 2021-05-21 14:44:16.419
93.0, 111.37422180175781, -17.987049102783203, 143.4513397216797, 80.59858703613281, 0.03200000151991844, -0.08000000566244125, 1.055999994277954, 0.0, 0.0, 0.0, 0.0, 0.0, 1.6216010564198804E9, 2021-05-21 14:44:16.419
94.0, 78.4070053100586, -38.418121337890625, 111.99130249023438, 51.70037841796875, 0.03200000151991844, -0.08000000566244125, 1.055999994277954, 0.0, 0.0, 0.0, 0.0, 0.0, 1.6216010564491324E9, 2021-05-21 14:44:16.449
94.0, 7.902408599853516, -106.20381164550781, 25.69685173034668, -37.39899826049805, 0.03200000151991844, -0.08000000566244125, 1.055999994277954, 0.0, 0.0, 0.0, 0.0, 0.0, 1.6216010564491324E9, 2021-05-21 14:44:16.449
95.0, 31.340362548828125, -91.87998962402344, 42.81437301635742, -15.531804084777832, 0.03200000151991844, -0.08000000566244125, 1.055999994277954, 0.0, 0.0, 0.0, 0.0, 0.0, 1.6216010564499366E9, 2021-05-21 14:44:16.449
95.0, 97.66374969482422, -16.075960159301758, 138.42117309570312, 81.69063568115234, 0.03200000151991844, -0.08000000566244125, 1.055999994277954, 0.0, 0.0, 0.0, 0.0, 0.0, 1.6216010564499366E9, 2021-05-21 14:44:16.449
96.0, 73.38805389404297, -36.70524978637695, 114.47834014892578, 50.903778076171875, 0.03200000151991844, -0.08000000566244125, 1.055999994277954, 0.0, 0.0, 0.0, 0.0, 0.0, 1.6216010564506035E9, 2021-05-21 14:44:16.450
96.0, -0.7068411111831665, -108.33929443359375, 16.227426528930664, -46.034427642822266, 0.03200000151991844, -0.08000000566244125, 1.055999994277954, 0.0, 0.0, 0.0, 0.0, 0.0, 1.6216010564506035E9, 2021-05-21 14:44:16.450
97.0, 30.62230110168457, -78.64448547363281, 53.948055267333984, -10.662454605102539, 0.03200000151991844, -0.08000000566244125, 1.055999994277954, 0.0, 0.0, 0.0, 0.0, 0.0, 1.621601056462134E9, 2021-05-21 14:44:16.462
97.0, 99.09613037109375, -13.342093467712402, 133.2451629638672, 71.84722137451172, 0.03200000151991844, -0.08000000566244125, 1.055999994277954, 0.0, 0.0, 0.0, 0.0, 0.0, 1.621601056462134E9, 2021-05-21 14:44:16.462
98.0, 73.58627319335938, -38.276004791259766, 113.02725982666016, 46.29622268676758, 0.03200000151991844, -0.08000000566244125, 1.055999994277954, 0.0, 0.0, 0.0, 0.0, 0.0, 1.6216010564777021E9, 2021-05-21 14:44:16.477
98.0, 4.039092063903809, -110.02598571777344, 13.011112213134766, -40.52555465698242, 0.03200000151991844, -0.08000000566244125, 1.055999994277954, 0.0, 0.0, 0.0, 0.0, 0.0, 1.6216010564777021E9, 2021-05-21 14:44:16.477
99.0, 30.81303596496582, -82.62747955322266, 48.8917121887207, -10.643754959106445, 0.03200000151991844, -0.08000000566244125, 1.055999994277954, 0.0, 0.0, 0.0, 0.0, 0.0, 1.6216010564784691E9, 2021-05-21 14:44:16.478
99.0, 102.79862976074219, -12.620292663574219, 135.99024963378906, 73.93782043457031, 0.03200000151991844, -0.08000000566244125, 1.055999994277954, 0.0, 0.0, 0.0, 0.0, 0.0, 1.6216010564784691E9, 2021-05-21 14:44:16.478
100.0, 76.94844055175781, -35.119529724121094, 105.77932739257812, 53.27487564086914, 0.03200000151991844, -0.08000000566244125, 1.055999994277954, 0.0, 0.0, 0.0, 0.0, 0.0, 1.6216010564932344E9, 2021-05-21 14:44:16.493
100.0, 5.377975940704346, -108.9750747680664, 15.4495267868042, -46.606632232666016, 0.03200000151991844, -0.08000000566244125, 1.055999994277954, 0.0, 0.0, 0.0, 0.0, 0.0, 1.6216010564932344E9, 2021-05-21 14:44:16.493
0.0, 38.06657028198242, -74.75872802734375, 49.682701110839844, -0.35716044902801514, 0.03200000151991844, -0.08000000566244125, 1.055999994277954, 0.0, 0.0, 0.0, 0.0, 0.0, 1.6216010565076897E9, 2021-05-21 14:44:16.507
1.0, 101.35689544677734, -11.326287269592285, 132.1400146484375, 80.90338897705078, 0.03200000151991844, -0.08000000566244125, 1.055999994277954, 0.0, 0.0, 0.0, 0.0, 0.0, 1.6216010565084324E9, 2021-05-21 14:44:16.508
1.0, 77.94512176513672, -33.358036041259766, 106.48804473876953, 51.84062194824219, 0.03200000151991844, -0.08000000566244125, 1.055999994277954, 0.0, 0.0, 0.0, 0.0, 0.0, 1.6216010565084324E9, 2021-05-21 14:44:16.508
2.0, 7.4741902351379395, -109.87265014648438, 17.908510208129883, -39.2969970703125, 0.03200000151991844, -0.08000000566244125, 1.055999994277954, 0.0, 0.0, 0.0, 0.0, 0.0, 1.6216010565227065E9, 2021-05-21 14:44:16.522
2.0, 30.250181198120117, -80.33118438720703, 48.91602325439453, -7.859399795532227, 0.03200000151991844, -0.08000000566244125, 1.055999994277954, 0.0, 0.0, 0.0, 0.0, 0.0, 1.6216010565227065E9, 2021-05-21 14:44:16.522
3.0, 99.73751831054688, -14.146171569824219, 131.68748474121094, 74.0818099975586, 0.03200000151991844, -0.08000000566244125, 1.055999994277954, 0.0, 0.0, 0.0, 0.0, 0.0, 1.621601056523389E9, 2021-05-21 14:44:16.523
3.0, 79.42986297607422, -40.77425765991211, 106.18885040283203, 45.37433624267578, 0.03200000151991844, -0.08000000566244125, 1.055999994277954, 0.0, 0.0, 0.0, 0.0, 0.0, 1.621601056523389E9, 2021-05-21 14:44:16.523
4.0, 8.177290916442871, -103.6531982421875, 19.28105354309082, -41.49980163574219, 0.03200000151991844, -0.08000000566244125, 1.055999994277954, 0.0, 0.0, 0.0, 0.0, 0.0, 1.621601056554036E9, 2021-05-21 14:44:16.554
4.0, 36.095645904541016, -77.28690338134766, 53.40016174316406, -8.042654991149902, 0.03200000151991844, -0.08000000566244125, 1.055999994277954, 0.0, 0.0, 0.0, 0.0, 0.0, 1.621601056554036E9, 2021-05-21 14:44:16.554
5.0, 105.98689270019531, -12.235082626342773, 140.46502685546875, 76.0115966796875, 0.03200000151991844, -0.08000000566244125, 1.055999994277954, 0.0, 0.0, 0.0, 0.0, 0.0, 1.6216010565547822E9, 2021-05-21 14:44:16.554
5.0, 81.89071655273438, -37.752418518066406, 112.82343292236328, 47.506080627441406, 0.03200000151991844, -0.08000000566244125, 1.055999994277954, 0.0, 0.0, 0.0, 0.0, 0.0, 1.6216010565547822E9, 2021-05-21 14:44:16.554
6.0, 9.09356689453125, -106.60771942138672, 21.24076271057129, -40.11977767944336, 0.03200000151991844, -0.08000000566244125, 1.055999994277954, 0.0, 0.0, 0.0, 0.0, 0.0, 1.6216010565555673E9, 2021-05-21 14:44:16.555
6.0, 37.84217834472656, -86.41226196289062, 48.72528839111328, -15.974982261657715, 0.03200000151991844, -0.08000000566244125, 1.055999994277954, 0.0, 0.0, 0.0, 0.0, 0.0, 1.6216010565555673E9, 2021-05-21 14:44:16.555
7.0, 106.02803039550781, -16.565887451171875, 129.5968780517578, 71.53119659423828, 0.03200000151991844, -0.08000000566244125, 1.055999994277954, 0.0, 0.0, 0.0, 0.0, 0.0, 1.6216010565670636E9, 2021-05-21 14:44:16.567
7.0, 76.13127136230469, -45.94654083251953, 101.13624572753906, 42.348758697509766, 0.03200000151991844, -0.08000000566244125, 1.055999994277954, 0.0, 0.0, 0.0, 0.0, 0.0, 1.6216010565670636E9, 2021-05-21 14:44:16.567
8.0, 6.606533050537109, -109.3341064453125, 12.631511688232422, -43.900814056396484, 0.03200000151991844, -0.08000000566244125, 1.055999994277954, 0.0, 0.0, 0.0, 0.0, 0.0, 1.6216010565827131E9, 2021-05-21 14:44:16.582
8.0, 40.63588333129883, -80.34988403320312, 51.51899337768555, -2.892812728881836, 0.03200000151991844, -0.08000000566244125, 1.055999994277954, 0.0, 0.0, 0.0, 0.0, 0.0, 1.6216010565827131E9, 2021-05-21 14:44:16.582
9.0, 105.23143768310547, -18.85844612121582, 133.69207763671875, 77.08494567871094, 0.03200000151991844, -0.08000000566244125, 1.055999994277954, 0.0, 0.0, 0.0, 0.0, 0.0, 1.621601056583492E9, 2021-05-21 14:44:16.583
9.0, 80.36483764648438, -43.410888671875, 107.86432647705078, 43.27625274658203, 0.03200000151991844, -0.08000000566244125, 1.055999994277954, 0.0, 0.0, 0.0, 0.0, 0.0, 1.621601056583492E9, 2021-05-21 14:44:16.583
10.0, 17.18297004699707, -112.16520690917969, 22.14955711364746, -41.91866683959961, 0.03200000151991844, -0.08000000566244125, 1.055999994277954, 0.0, 0.0, 0.0, 0.0, 0.0, 1.6216010566288402E9, 2021-05-21 14:44:16.628
10.0, 38.54153823852539, -86.38981628417969, 52.988773345947266, -7.103940010070801, 0.03200000151991844, -0.08000000566244125, 1.055999994277954, 0.0, 0.0, 0.0, 0.0, 0.0, 1.6216010566288402E9, 2021-05-21 14:44:16.628
11.0, 104.60313415527344, -17.242809295654297, 140.8278045654297, 74.55303192138672, 0.03200000151991844, -0.08000000566244125, 1.055999994277954, 0.0, 0.0, 0.0, 0.0, 0.0, 1.6216010566294973E9, 2021-05-21 14:44:16.629
11.0, 81.53169250488281, -43.478206634521484, 111.93333435058594, 47.49485778808594, 0.03200000151991844, -0.08000000566244125, 1.055999994277954, 0.0, 0.0, 0.0, 0.0, 0.0, 1.6216010566294973E9, 2021-05-21 14:44:16.629
12.0, 11.401084899902344, -111.43592834472656, 24.52439308166504, -40.98743438720703, 0.03200000151991844, -0.08000000566244125, 1.055999994277954, 0.0, 0.0, 0.0, 0.0, 0.0, 1.6216010566302345E9, 2021-05-21 14:44:16.630
12.0, 38.8220329284668, -82.66487884521484, 59.716854095458984, -8.981369972229004, 0.03200000151991844, -0.08000000566244125, 1.055999994277954, 0.0, 0.0, 0.0, 0.0, 0.0, 1.6216010566302345E9, 2021-05-21 14:44:16.630
13.0, 112.06049346923828, -17.676637649536133, 143.31857299804688, 79.48970031738281, 0.03200000151991844, -0.08000000566244125, 1.055999994277954, 0.0, 0.0, 0.0, 0.0, 0.0, 1.621601056643417E9, 2021-05-21 14:44:16.643
13.0, 87.24251556396484, -48.691627502441406, 112.99546813964844, 51.313297271728516, 0.03200000151991844, -0.08000000566244125, 1.055999994277954, 0.0, 0.0, 0.0, 0.0, 0.0, 1.621601056643417E9, 2021-05-21 14:44:16.643
14.0, 9.27308177947998, -119.23735809326172, 29.057151794433594, -39.35683822631836, 0.03200000151991844, -0.08000000566244125, 1.055999994277954, 0.0, 0.0, 0.0, 0.0, 0.0, 1.6216010566441395E9, 2021-05-21 14:44:16.644
14.0, 41.518497467041016, -88.61132049560547, 62.574134826660156, -3.008749485015869, 0.03200000151991844, -0.08000000566244125, 1.055999994277954, 0.0, 0.0, 0.0, 0.0, 0.0, 1.6216010566441395E9, 2021-05-21 14:44:16.644
15.0, 107.06024932861328, -19.468050003051758, 133.54248046875, 77.00640869140625, 0.03200000151991844, -0.08000000566244125, 1.055999994277954, 0.0, 0.0, 0.0, 0.0, 0.0, 1.6216010566449142E9, 2021-05-21 14:44:16.644
15.0, 79.68791961669922, -42.64421081542969, 109.22938537597656, 51.15622329711914, 0.03200000151991844, -0.08000000566244125, 1.055999994277954, 0.0, 0.0, 0.0, 0.0, 0.0, 1.6216010566449142E9, 2021-05-21 14:44:16.644
16.0, 11.917191505432129, -117.64042663574219, 23.828773498535156, -38.997806549072266, 0.03200000151991844, -0.08000000566244125, 1.055999994277954, 0.0, 0.0, 0.0, 0.0, 0.0, 1.6216010566731975E9, 2021-05-21 14:44:16.673
16.0, 38.941707611083984, -87.30235290527344, 54.791404724121094, -3.8876259326934814, 0.03200000151991844, -0.08000000566244125, 1.055999994277954, 0.0, 0.0, 0.0, 0.0, 0.0, 1.6216010566731975E9, 2021-05-21 14:44:16.673
17.0, 107.77082824707031, -17.84867286682129, 135.63682556152344, 80.94452667236328, 0.03200000151991844, -0.08000000566244125, 1.055999994277954, 0.0, 0.0, 0.0, 0.0, 0.0, 1.621601056673901E9, 2021-05-21 14:44:16.673
17.0, 85.93354797363281, -38.668697357177734, 111.67153930664062, 54.23041915893555, 0.03200000151991844, -0.08000000566244125, 1.055999994277954, 0.0, 0.0, 0.0, 0.0, 0.0, 1.621601056673901E9, 2021-05-21 14:44:16.673
18.0, 14.82309341430664, -119.88436126708984, 16.61076545715332, -43.429588317871094, 0.03200000151991844, -0.08000000566244125, 1.055999994277954, 0.0, 0.0, 0.0, 0.0, 0.0, 1.6216010567041943E9, 2021-05-21 14:44:16.704
18.0, 37.92819595336914, -91.1282730102539, 51.61996841430664, -6.105386734008789, 0.03200000151991844, -0.08000000566244125, 1.055999994277954, 0.0, 0.0, 0.0, 0.0, 0.0, 1.6216010567041943E9, 2021-05-21 14:44:16.704
19.0, 107.85684204101562, -26.214828491210938, 130.32241821289062, 75.13645935058594, 0.03200000151991844, -0.08000000566244125, 1.055999994277954, 0.0, 0.0, 0.0, 0.0, 0.0, 1.6216010567048917E9, 2021-05-21 14:44:16.704
19.0, 82.8369140625, -47.76039123535156, 110.84876251220703, 49.32366943359375, 0.03200000151991844, -0.08000000566244125, 1.055999994277954, 0.0, 0.0, 0.0, 0.0, 0.0, 1.6216010567048917E9, 2021-05-21 14:44:16.704
20.0, 16.188156127929688, -113.54149627685547, 18.626571655273438, -44.50667953491211, 0.03200000151991844, -0.08000000566244125, 1.055999994277954, 0.0, 0.0, 0.0, 0.0, 0.0, 1.6216010567056417E9, 2021-05-21 14:44:16.705
20.0, 40.36286926269531, -85.21175384521484, 48.16804122924805, -10.518468856811523, 0.03200000151991844, -0.08000000566244125, 1.055999994277954, 0.0, 0.0, 0.0, 0.0, 0.0, 1.6216010567056417E9, 2021-05-21 14:44:16.705
21.0, 109.29670715332031, -22.344032287597656, 131.75106811523438, 74.68392944335938, 0.03200000151991844, -0.08000000566244125, 1.055999994277954, 0.0, 0.0, 0.0, 0.0, 0.0, 1.6216010567062883E9, 2021-05-21 14:44:16.706
21.0, 82.67235565185547, -42.7003059387207, 106.79096984863281, 49.215213775634766, 0.03200000151991844, -0.08000000566244125, 1.055999994277954, 0.0, 0.0, 0.0, 0.0, 0.0, 1.6216010567062883E9, 2021-05-21 14:44:16.706
22.0, 6.31856107711792, -115.0150146484375, 14.052674293518066, -45.912879943847656, 0.03200000151991844, -0.08000000566244125, 1.055999994277954, 0.0, 0.0, 0.0, 0.0, 0.0, 1.6216010567335052E9, 2021-05-21 14:44:16.733
22.0, 44.1214714050293, -86.2103042602539, 55.05693817138672, -9.815367698669434, 0.03200000151991844, -0.08000000566244125, 1.055999994277954, 0.0, 0.0, 0.0, 0.0, 0.0, 1.6216010567335052E9, 2021-05-21 14:44:16.733
23.0, 104.94346618652344, -19.520408630371094, 135.7901611328125, 75.96297454833984, 0.03200000151991844, -0.08000000566244125, 1.055999994277954, 0.0, 0.0, 0.0, 0.0, 0.0, 1.621601056734261E9, 2021-05-21 14:44:16.734
23.0, 90.21573638916016, -39.63359069824219, 107.38935852050781, 48.007225036621094, 0.03200000151991844, -0.08000000566244125, 1.055999994277954, 0.0, 0.0, 0.0, 0.0, 0.0, 1.621601056734261E9, 2021-05-21 14:44:16.734
24.0, 10.338953018188477, -111.5630874633789, 12.339799880981445, -43.44828796386719, 0.03200000151991844, -0.08000000566244125, 1.055999994277954, 0.0, 0.0, 0.0, 0.0, 0.0, 1.6216010567350168E9, 2021-05-21 14:44:16.735
24.0, 43.39592742919922, -82.1151123046875, 41.56711959838867, -5.619199752807617, 0.03200000151991844, -0.08000000566244125, 1.055999994277954, 0.0, 0.0, 0.0, 0.0, 0.0, 1.6216010567350168E9, 2021-05-21 14:44:16.735
25.0, 109.08353424072266, -19.35211181640625, 127.52497863769531, 70.10629272460938, 0.03200000151991844, -0.08000000566244125, 1.055999994277954, 0.0, 0.0, 0.0, 0.0, 0.0, 1.6216010567470725E9, 2021-05-21 14:44:16.747
25.0, 86.44591522216797, -37.322330474853516, 105.69892120361328, 50.38954162597656, 0.03200000151991844, -0.08000000566244125, 1.055999994277954, 0.0, 0.0, 0.0, 0.0, 0.0, 1.6216010567470725E9, 2021-05-21 14:44:16.747
26.0, 12.706310272216797, -117.19911193847656, 15.77676773071289, -43.79609680175781, 0.03200000151991844, -0.08000000566244125, 1.055999994277954, 0.0, 0.0, 0.0, 0.0, 0.0, 1.6216010567628157E9, 2021-05-21 14:44:16.762
26.0, 38.152587890625, -86.77128601074219, 50.254905700683594, -8.775674819946289, 0.03200000151991844, -0.08000000566244125, 1.055999994277954, 0.0, 0.0, 0.0, 0.0, 0.0, 1.6216010567628157E9, 2021-05-21 14:44:16.762
27.0, 110.1793212890625, -15.268141746520996, 138.07150268554688, 78.13585662841797, 0.03200000151991844, -0.08000000566244125, 1.055999994277954, 0.0, 0.0, 0.0, 0.0, 0.0, 1.6216010567635598E9, 2021-05-21 14:44:16.763
27.0, 79.92353057861328, -43.900814056396484, 105.27257537841797, 46.8328971862793, 0.03200000151991844, -0.08000000566244125, 1.055999994277954, 0.0, 0.0, 0.0, 0.0, 0.0, 1.6216010567635598E9, 2021-05-21 14:44:16.763
28.0, 10.492289543151855, -114.16979217529297, 23.899829864501953, -38.526580810546875, 0.03200000151991844, -0.08000000566244125, 1.055999994277954, 0.0, 0.0, 0.0, 0.0, 0.0, 1.6216010567935488E9, 2021-05-21 14:44:16.793
28.0, 36.032066345214844, -88.50659942626953, 53.11967086791992, -7.702323913574219, 0.03200000151991844, -0.08000000566244125, 1.055999994277954, 0.0, 0.0, 0.0, 0.0, 0.0, 1.6216010567935488E9, 2021-05-21 14:44:16.793
29.0, 106.15892791748047, -15.866525650024414, 137.92938232421875, 81.86080169677734, 0.03200000151991844, -0.08000000566244125, 1.055999994277954, 0.0, 0.0, 0.0, 0.0, 0.0, 1.6216010567942321E9, 2021-05-21 14:44:16.794
29.0, 79.38872528076172, -43.388450622558594, 114.48394775390625, 53.47121810913086, 0.03200000151991844, -0.08000000566244125, 1.055999994277954, 0.0, 0.0, 0.0, 0.0, 0.0, 1.6216010567942321E9, 2021-05-21 14:44:16.794
30.0, 7.519068717956543, -112.39334106445312, 21.113605499267578, -44.79091262817383, 0.03200000151991844, -0.08000000566244125, 1.055999994277954, 0.0, 0.0, 0.0, 0.0, 0.0, 1.6216010567950625E9, 2021-05-21 14:44:16.795
30.0, 37.18769454956055, -81.06420135498047, 54.690425872802734, -7.477930068969727, 0.03200000151991844, -0.08000000566244125, 1.055999994277954, 0.0, 0.0, 0.0, 0.0, 0.0, 1.6216010567950625E9, 2021-05-21 14:44:16.795
31.0, 104.0945053100586, -16.25173568725586, 130.99560546875, 75.74980163574219, 0.03200000151991844, -0.08000000566244125, 1.055999994277954, 0.0, 0.0, 0.0, 0.0, 0.0, 1.6216010568070977E9, 2021-05-21 14:44:16.807
31.0, 79.32514953613281, -43.26129150390625, 104.79013061523438, 47.85763168334961, 0.03200000151991844, -0.08000000566244125, 1.055999994277954, 0.0, 0.0, 0.0, 0.0, 0.0, 1.6216010568070977E9, 2021-05-21 14:44:16.807
32.0, 11.543201446533203, -111.44715118408203, 15.0736665725708, -38.50040054321289, 0.03200000151991844, -0.08000000566244125, 1.055999994277954, 0.0, 0.0, 0.0, 0.0, 0.0, 1.621601056822772E9, 2021-05-21 14:44:16.822
32.0, 37.81973648071289, -86.10184478759766, 43.429588317871094, -6.329780578613281, 0.03200000151991844, -0.08000000566244125, 1.055999994277954, 0.0, 0.0, 0.0, 0.0, 0.0, 1.621601056822772E9, 2021-05-21 14:44:16.822
33.0, 105.10801696777344, -22.508588790893555, 129.16305541992188, 73.02715301513672, 0.03200000151991844, -0.08000000566244125, 1.055999994277954, 0.0, 0.0, 0.0, 0.0, 0.0, 1.6216010568234768E9, 2021-05-21 14:44:16.823
33.0, 79.28026580810547, -41.21182632446289, 101.03900909423828, 54.96343994140625, 0.03200000151991844, -0.08000000566244125, 1.055999994277954, 0.0, 0.0, 0.0, 0.0, 0.0, 1.6216010568234768E9, 2021-05-21 14:44:16.823
34.0, 1.4192920923233032, -111.52942657470703, 10.496028900146484, -42.778846740722656, 0.03200000151991844, -0.08000000566244125, 1.055999994277954, 0.0, 0.0, 0.0, 0.0, 0.0, 1.6216010568534155E9, 2021-05-21 14:44:16.853
34.0, 35.62067794799805, -88.9591293334961, 42.49461364746094, -10.028541564941406, 0.03200000151991844, -0.08000000566244125, 1.055999994277954, 0.0, 0.0, 0.0, 0.0, 0.0, 1.6216010568534155E9, 2021-05-21 14:44:16.853
35.0, 104.94346618652344, -19.449350357055664, 125.6363296508789, 72.69430541992188, 0.03200000151991844, -0.08000000566244125, 1.055999994277954, 0.0, 0.0, 0.0, 0.0, 0.0, 1.621601056854124E9, 2021-05-21 14:44:16.854
35.0, 81.49429321289062, -39.96269989013672, 102.18341827392578, 47.865108489990234, 0.03200000151991844, -0.08000000566244125, 1.055999994277954, 0.0, 0.0, 0.0, 0.0, 0.0, 1.621601056854124E9, 2021-05-21 14:44:16.854
36.0, 14.688457489013672, -112.74115753173828, 12.470696449279785, -49.07683563232422, 0.03200000151991844, -0.08000000566244125, 1.055999994277954, 0.0, 0.0, 0.0, 0.0, 0.0, 1.621601056854866E9, 2021-05-21 14:44:16.854
36.0, 34.06113815307617, -89.41913604736328, 47.5546989440918, -10.585786819458008, 0.03200000151991844, -0.08000000566244125, 1.055999994277954, 0.0, 0.0, 0.0, 0.0, 0.0, 1.621601056854866E9, 2021-05-21 14:44:16.854
37.0, 104.63678741455078, -17.661678314208984, 130.31494140625, 71.31053924560547, 0.03200000151991844, -0.08000000566244125, 1.055999994277954, 0.0, 0.0, 0.0, 0.0, 0.0, 1.6216010568671024E9, 2021-05-21 14:44:16.867
37.0, 89.71085357666016, -40.96125411987305, 112.97303009033203, 51.130043029785156, 0.03200000151991844, -0.08000000566244125, 1.055999994277954, 0.0, 0.0, 0.0, 0.0, 0.0, 1.6216010568671024E9, 2021-05-21 14:44:16.867
38.0, 12.747448921203613, -118.62027740478516, 23.035913467407227, -44.45806121826172, 0.03200000151991844, -0.08000000566244125, 1.055999994277954, 0.0, 0.0, 0.0, 0.0, 0.0, 1.6216010568826964E9, 2021-05-21 14:44:16.882
38.0, 40.03376007080078, -90.83656311035156, 56.15646743774414, -11.543201446533203, 0.03200000151991844, -0.08000000566244125, 1.055999994277954, 0.0, 0.0, 0.0, 0.0, 0.0, 1.6216010568826964E9, 2021-05-21 14:44:16.882
39.0, 105.25387573242188, -28.656984329223633, 140.84275817871094, 74.8896255493164, 0.03200000151991844, -0.08000000566244125, 1.055999994277954, 0.0, 0.0, 0.0, 0.0, 0.0, 1.6216010568834069E9, 2021-05-21 14:44:16.883
39.0, 86.91714477539062, -47.89876937866211, 117.37863159179688, 45.93906021118164, 0.03200000151991844, -0.08000000566244125, 1.055999994277954, 0.0, 0.0, 0.0, 0.0, 0.0, 1.6216010568834069E9, 2021-05-21 14:44:16.883
40.0, 21.644670486450195, -113.54149627685547, 26.667356491088867, -43.69512176513672, 0.03200000151991844, -0.08000000566244125, 1.055999994277954, 0.0, 0.0, 0.0, 0.0, 0.0, 1.621601056897298E9, 2021-05-21 14:44:16.897
40.0, 46.08491897583008, -91.62567901611328, 61.2576904296875, -16.805240631103516, 0.03200000151991844, -0.08000000566244125, 1.055999994277954, 0.0, 0.0, 0.0, 0.0, 0.0, 1.621601056897298E9, 2021-05-21 14:44:16.897
41.0, 112.05300903320312, -27.411596298217773, 139.8516845703125, 66.26915740966797, 0.03200000151991844, -0.08000000566244125, 1.055999994277954, 0.0, 0.0, 0.0, 0.0, 0.0, 1.6216010569127266E9, 2021-05-21 14:44:16.912
41.0, 88.04659271240234, -48.98707962036133, 114.67842102050781, 43.79983901977539, 0.03200000151991844, -0.08000000566244125, 1.055999994277954, 0.0, 0.0, 0.0, 0.0, 0.0, 1.6216010569127266E9, 2021-05-21 14:44:16.912
42.0, 17.57192039489746, -116.33519744873047, 25.163917541503906, -40.17961502075195, 0.03200000151991844, -0.08000000566244125, 1.055999994277954, 0.0, 0.0, 0.0, 0.0, 0.0, 1.621601056913446E9, 2021-05-21 14:44:16.913
42.0, 47.491119384765625, -93.76116180419922, 60.19181823730469, -16.532228469848633, 0.03200000151991844, -0.08000000566244125, 1.055999994277954, 0.0, 0.0, 0.0, 0.0, 0.0, 1.621601056913446E9, 2021-05-21 14:44:16.913
43.0, 110.5832290649414, -26.768333435058594, 138.29588317871094, 70.72711944580078, 0.03200000151991844, -0.08000000566244125, 1.055999994277954, 0.0, 0.0, 0.0, 0.0, 0.0, 1.6216010569271176E9, 2021-05-21 14:44:16.927
43.0, 91.49478149414062, -51.3693962097168, 119.6150894165039, 45.09384536743164, 0.03200000151991844, -0.08000000566244125, 1.055999994277954, 0.0, 0.0, 0.0, 0.0, 0.0, 1.6216010569271176E9, 2021-05-21 14:44:16.927
44.0, 12.078006744384766, -120.62860107421875, 23.82503318786621, -43.104217529296875, 0.03200000151991844, -0.08000000566244125, 1.055999994277954, 0.0, 0.0, 0.0, 0.0, 0.0, 1.6216010569429026E9, 2021-05-21 14:44:16.942
44.0, 46.48508834838867, -95.47403717041016, 55.37856674194336, -15.877745628356934, 0.03200000151991844, -0.08000000566244125, 1.055999994277954, 0.0, 0.0, 0.0, 0.0, 0.0, 1.6216010569429026E9, 2021-05-21 14:44:16.942
45.0, 110.49347686767578, -26.809473037719727, 139.05508422851562, 68.01194763183594, 0.03200000151991844, -0.08000000566244125, 1.055999994277954, 0.0, 0.0, 0.0, 0.0, 0.0, 1.621601056943531E9, 2021-05-21 14:44:16.943
45.0, 85.76151275634766, -46.61598205566406, 108.06253814697266, 39.57374954223633, 0.03200000151991844, -0.08000000566244125, 1.055999994277954, 0.0, 0.0, 0.0, 0.0, 0.0, 1.621601056943531E9, 2021-05-21 14:44:16.943
46.0, 15.256921768188477, -117.57310485839844, 29.677976608276367, -51.28337860107422, 0.03200000151991844, -0.08000000566244125, 1.055999994277954, 0.0, 0.0, 0.0, 0.0, 0.0, 1.621601056957147E9, 2021-05-21 14:44:16.957
46.0, 43.769920349121094, -91.30030822753906, 58.06755828857422, -13.603885650634766, 0.03200000151991844, -0.08000000566244125, 1.055999994277954, 0.0, 0.0, 0.0, 0.0, 0.0, 1.621601056957147E9, 2021-05-21 14:44:16.957
47.0, 107.56139373779297, -23.611858367919922, 139.66094970703125, 70.50646209716797, 0.03200000151991844, -0.08000000566244125, 1.055999994277954, 0.0, 0.0, 0.0, 0.0, 0.0, 1.6216010569728603E9, 2021-05-21 14:44:16.972
47.0, 86.51323699951172, -46.88525390625, 108.3355484008789, 42.389896392822266, 0.03200000151991844, -0.08000000566244125, 1.055999994277954, 0.0, 0.0, 0.0, 0.0, 0.0, 1.6216010569728603E9, 2021-05-21 14:44:16.972
48.0, 13.443070411682129, -119.6150894165039, 20.818153381347656, -47.07225036621094, 0.03200000151991844, -0.08000000566244125, 1.055999994277954, 0.0, 0.0, 0.0, 0.0, 0.0, 1.62160105697361E9, 2021-05-21 14:44:16.973
48.0, 37.082977294921875, -84.92003631591797, 52.401607513427734, -14.684717178344727, 0.03200000151991844, -0.08000000566244125, 1.055999994277954, 0.0, 0.0, 0.0, 0.0, 0.0, 1.62160105697361E9, 2021-05-21 14:44:16.973
49.0, 107.15748596191406, -27.808025360107422, 134.3502960205078, 66.66184997558594, 0.03200000151991844, -0.08000000566244125, 1.055999994277954, 0.0, 0.0, 0.0, 0.0, 0.0, 1.621601056987126E9, 2021-05-21 14:44:16.987
49.0, 82.40682220458984, -46.0512580871582, 104.62183380126953, 43.8634147644043, 0.03200000151991844, -0.08000000566244125, 1.055999994277954, 0.0, 0.0, 0.0, 0.0, 0.0, 1.621601056987126E9, 2021-05-21 14:44:16.987
50.0, 16.812719345092773, -114.92525482177734, 25.0180606842041, -39.86546325683594, 0.03200000151991844, -0.08000000566244125, 1.055999994277954, 0.0, 0.0, 0.0, 0.0, 0.0, 1.621601057002771E9, 2021-05-21 14:44:17.002
50.0, 39.40545654296875, -91.15818786621094, 54.19301986694336, -12.833466529846191, 0.03200000151991844, -0.08000000566244125, 1.055999994277954, 0.0, 0.0, 0.0, 0.0, 0.0, 1.621601057002771E9, 2021-05-21 14:44:17.002
51.0, 107.00040435791016, -27.66217041015625, 136.02203369140625, 70.71963500976562, 0.03200000151991844, -0.08000000566244125, 1.055999994277954, 0.0, 0.0, 0.0, 0.0, 0.0, 1.6216010570034883E9, 2021-05-21 14:44:17.003
51.0, 82.95285034179688, -42.000946044921875, 117.4048080444336, 45.76328659057617, 0.03200000151991844, -0.08000000566244125, 1.055999994277954, 0.0, 0.0, 0.0, 0.0, 0.0, 1.6216010570034883E9, 2021-05-21 14:44:17.003
52.0, 13.069080352783203, -111.85479736328125, 25.623924255371094, -37.85713577270508, 0.03200000151991844, -0.08000000566244125, 1.055999994277954, 0.0, 0.0, 0.0, 0.0, 0.0, 1.6216010570170355E9, 2021-05-21 14:44:17.017
52.0, 36.933380126953125, -88.60758209228516, 51.84810256958008, -14.06389331817627, 0.03200000151991844, -0.08000000566244125, 1.055999994277954, 0.0, 0.0, 0.0, 0.0, 0.0, 1.6216010570170355E9, 2021-05-21 14:44:17.017
53.0, 108.78060150146484, -21.173442840576172, 141.79269409179688, 73.12439727783203, 0.03200000151991844, -0.08000000566244125, 1.055999994277954, 0.0, 0.0, 0.0, 0.0, 0.0, 1.6216010570328674E9, 2021-05-21 14:44:17.032
53.0, 79.68043518066406, -46.122314453125, 112.44196319580078, 42.61054992675781, 0.03200000151991844, -0.08000000566244125, 1.055999994277954, 0.0, 0.0, 0.0, 0.0, 0.0, 1.6216010570328674E9, 2021-05-21 14:44:17.032
54.0, 14.744555473327637, -118.32482147216797, 23.084531784057617, -47.737953186035156, 0.03200000151991844, -0.08000000566244125, 1.055999994277954, 0.0, 0.0, 0.0, 0.0, 0.0, 1.6216010570335977E9, 2021-05-21 14:44:17.033
54.0, 37.30363082885742, -90.4850082397461, 47.74543380737305, -21.83914566040039, 0.03200000151991844, -0.08000000566244125, 1.055999994277954, 0.0, 0.0, 0.0, 0.0, 0.0, 1.6216010570335977E9, 2021-05-21 14:44:17.033
55.0, 106.0841293334961, -23.821292877197266, 131.9792022705078, 66.95355987548828, 0.03200000151991844, -0.08000000566244125, 1.055999994277954, 0.0, 0.0, 0.0, 0.0, 0.0, 1.6216010570470796E9, 2021-05-21 14:44:17.047
55.0, 83.50635528564453, -47.65567398071289, 104.797607421875, 43.97561264038086, 0.03200000151991844, -0.08000000566244125, 1.055999994277954, 0.0, 0.0, 0.0, 0.0, 0.0, 1.6216010570470796E9, 2021-05-21 14:44:17.047
56.0, 6.561654567718506, -118.39962005615234, 17.272727966308594, -50.28108596801758, 0.03200000151991844, -0.08000000566244125, 1.055999994277954, 0.0, 0.0, 0.0, 0.0, 0.0, 1.6216010570628717E9, 2021-05-21 14:44:17.062
56.0, 37.853397369384766, -84.91255950927734, 54.847503662109375, -4.796421527862549, 0.03200000151991844, -0.08000000566244125, 1.055999994277954, 0.0, 0.0, 0.0, 0.0, 0.0, 1.6216010570628717E9, 2021-05-21 14:44:17.062
57.0, 95.51143646240234, -28.986095428466797, 132.24099731445312, 72.00242614746094, 0.03200000151991844, -0.08000000566244125, 1.055999994277954, 0.0, 0.0, 0.0, 0.0, 0.0, 1.6216010570635898E9, 2021-05-21 14:44:17.063
57.0, 77.84040832519531, -46.28313064575195, 107.34073638916016, 44.764732360839844, 0.03200000151991844, -0.08000000566244125, 1.055999994277954, 0.0, 0.0, 0.0, 0.0, 0.0, 1.6216010570635898E9, 2021-05-21 14:44:17.063
58.0, 7.750942707061768, -112.04179382324219, 24.774967193603516, -47.03111267089844, 0.03200000151991844, -0.08000000566244125, 1.055999994277954, 0.0, 0.0, 0.0, 0.0, 0.0, 1.621601057077154E9, 2021-05-21 14:44:17.077
58.0, 37.000701904296875, -88.0727767944336, 52.1024169921875, -8.076313972473145, 0.03200000151991844, -0.08000000566244125, 1.055999994277954, 0.0, 0.0, 0.0, 0.0, 0.0, 1.621601057077154E9, 2021-05-21 14:44:17.077
59.0, 110.9235610961914, -25.93807601928711, 134.2904510498047, 75.33467102050781, 0.03200000151991844, -0.08000000566244125, 1.055999994277954, 0.0, 0.0, 0.0, 0.0, 0.0, 1.6216010570927196E9, 2021-05-21 14:44:17.092
59.0, 90.45134735107422, -49.540584564208984, 117.89099884033203, 47.95486831665039, 0.03200000151991844, -0.08000000566244125, 1.055999994277954, 0.0, 0.0, 0.0, 0.0, 0.0, 1.6216010570927196E9, 2021-05-21 14:44:17.092
60.0, 17.336305618286133, -118.953125, 26.906709671020508, -42.21786117553711, 0.03200000151991844, -0.08000000566244125, 1.055999994277954, 0.0, 0.0, 0.0, 0.0, 0.0, 1.6216010570935256E9, 2021-05-21 14:44:17.093
60.0, 42.206642150878906, -88.1363525390625, 56.01061248779297, -12.889565467834473, 0.03200000151991844, -0.08000000566244125, 1.055999994277954, 0.0, 0.0, 0.0, 0.0, 0.0, 1.6216010570935256E9, 2021-05-21 14:44:17.093
61.0, 108.26449584960938, -20.690996170043945, 136.90090942382812, 69.5079116821289, 0.03200000151991844, -0.08000000566244125, 1.055999994277954, 0.0, 0.0, 0.0, 0.0, 0.0, 1.6216010571072E9, 2021-05-21 14:44:17.107
61.0, 78.55098724365234, -49.37228775024414, 112.33350372314453, 41.87004852294922, 0.03200000151991844, -0.08000000566244125, 1.055999994277954, 0.0, 0.0, 0.0, 0.0, 0.0, 1.6216010571072E9, 2021-05-21 14:44:17.107
62.0, 12.384678840637207, -121.25690460205078, 24.573013305664062, -49.937015533447266, 0.03200000151991844, -0.08000000566244125, 1.055999994277954, 0.0, 0.0, 0.0, 0.0, 0.0, 1.621601057122821E9, 2021-05-21 14:44:17.122
62.0, 39.49147415161133, -85.79517364501953, 57.01664352416992, -14.890411376953125, 0.03200000151991844, -0.08000000566244125, 1.055999994277954, 0.0, 0.0, 0.0, 0.0, 0.0, 1.621601057122821E9, 2021-05-21 14:44:17.122
63.0, 113.56393432617188, -14.737075805664062, 146.28805541992188, 77.0924301147461, 0.03200000151991844, -0.08000000566244125, 1.055999994277954, 0.0, 0.0, 0.0, 0.0, 0.0, 1.6216010571234567E9, 2021-05-21 14:44:17.123
63.0, 82.03657531738281, -49.60790252685547, 111.37982940673828, 42.14680099487305, 0.03200000151991844, -0.08000000566244125, 1.055999994277954, 0.0, 0.0, 0.0, 0.0, 0.0, 1.6216010571234567E9, 2021-05-21 14:44:17.123
64.0, 18.462017059326172, -119.83200073242188, 25.186355590820312, -46.46638870239258, 0.03200000151991844, -0.08000000566244125, 1.055999994277954, 0.0, 0.0, 0.0, 0.0, 0.0, 1.621601057137071E9, 2021-05-21 14:44:17.137
64.0, 38.91178894042969, -89.16482543945312, 55.113037109375, -13.80958080291748, 0.03200000151991844, -0.08000000566244125, 1.055999994277954, 0.0, 0.0, 0.0, 0.0, 0.0, 1.621601057137071E9, 2021-05-21 14:44:17.137
65.0, 101.82438659667969, -25.911897659301758, 138.83070373535156, 67.06201934814453, 0.03200000151991844, -0.08000000566244125, 1.055999994277954, 0.0, 0.0, 0.0, 0.0, 0.0, 1.621601057153258E9, 2021-05-21 14:44:17.153
65.0, 81.2923355102539, -42.46469497680664, 118.56044006347656, 45.36311721801758, 0.03200000151991844, -0.08000000566244125, 1.055999994277954, 0.0, 0.0, 0.0, 0.0, 0.0, 1.621601057153258E9, 2021-05-21 14:44:17.153
66.0, 14.052674293518066, -112.80473327636719, 29.49098014831543, -41.45866012573242, 0.03200000151991844, -0.08000000566244125, 1.055999994277954, 0.0, 0.0, 0.0, 0.0, 0.0, 1.6216010571678014E9, 2021-05-21 14:44:17.167
66.0, 40.572303771972656, -90.25313568115234, 55.48702621459961, -13.959177017211914, 0.03200000151991844, -0.08000000566244125, 1.055999994277954, 0.0, 0.0, 0.0, 0.0, 0.0, 1.6216010571678014E9, 2021-05-21 14:44:17.167
67.0, 110.9235610961914, -25.896936416625977, 143.31483459472656, 65.68572998046875, 0.03200000151991844, -0.08000000566244125, 1.055999994277954, 0.0, 0.0, 0.0, 0.0, 0.0, 1.6216010571685572E9, 2021-05-21 14:44:17.168
67.0, 92.2315444946289, -47.71177291870117, 121.10730743408203, 41.45492172241211, 0.03200000151991844, -0.08000000566244125, 1.055999994277954, 0.0, 0.0, 0.0, 0.0, 0.0, 1.6216010571685572E9, 2021-05-21 14:44:17.168
68.0, 19.98041534423828, -122.6668472290039, 27.744447708129883, -50.972965240478516, 0.03200000151991844, -0.08000000566244125, 1.055999994277954, 0.0, 0.0, 0.0, 0.0, 0.0, 1.621601057182728E9, 2021-05-21 14:44:17.182
68.0, 38.87813186645508, -91.53591918945312, 56.56037521362305, -15.481315612792969, 0.03200000151991844, -0.08000000566244125, 1.055999994277954, 0.0, 0.0, 0.0, 0.0, 0.0, 1.621601057182728E9, 2021-05-21 14:44:17.182
69.0, 114.64850616455078, -25.62766456604004, 137.92938232421875, 65.53239440917969, 0.03200000151991844, -0.08000000566244125, 1.055999994277954, 0.0, 0.0, 0.0, 0.0, 0.0, 1.6216010571834695E9, 2021-05-21 14:44:17.183
69.0, 93.4956283569336, -46.96379470825195, 123.6878433227539, 41.82891082763672, 0.03200000151991844, -0.08000000566244125, 1.055999994277954, 0.0, 0.0, 0.0, 0.0, 0.0, 1.6216010571834695E9, 2021-05-21 14:44:17.183
70.0, 16.853858947753906, -124.33110046386719, 34.999855041503906, -47.506080627441406, 0.03200000151991844, -0.08000000566244125, 1.055999994277954, 0.0, 0.0, 0.0, 0.0, 0.0, 1.6216010571972852E9, 2021-05-21 14:44:17.197
70.0, 43.97935485839844, -93.46945190429688, 57.383155822753906, -17.758914947509766, 0.03200000151991844, -0.08000000566244125, 1.055999994277954, 0.0, 0.0, 0.0, 0.0, 0.0, 1.6216010571972852E9, 2021-05-21 14:44:17.197
71.0, 109.3154067993164, -27.355497360229492, 138.44174194335938, 66.9198989868164, 0.03200000151991844, -0.08000000566244125, 1.055999994277954, 0.0, 0.0, 0.0, 0.0, 0.0, 1.6216010572127552E9, 2021-05-21 14:44:17.212
71.0, 82.9378890991211, -49.24139404296875, 109.53605651855469, 41.79899215698242, 0.03200000151991844, -0.08000000566244125, 1.055999994277954, 0.0, 0.0, 0.0, 0.0, 0.0, 1.6216010572127552E9, 2021-05-21 14:44:17.212
72.0, 13.420631408691406, -118.13783264160156, 18.241361618041992, -52.42778778076172, 0.03200000151991844, -0.08000000566244125, 1.055999994277954, 0.0, 0.0, 0.0, 0.0, 0.0, 1.6216010572134583E9, 2021-05-21 14:44:17.213
72.0, 43.59414291381836, -91.4274673461914, 57.77958297729492, -16.693042755126953, 0.03200000151991844, -0.08000000566244125, 1.055999994277954, 0.0, 0.0, 0.0, 0.0, 0.0, 1.6216010572134583E9, 2021-05-21 14:44:17.213
73.0, 105.17160034179688, -26.618738174438477, 133.98004150390625, 58.20219421386719, 0.03200000151991844, -0.08000000566244125, 1.055999994277954, 0.0, 0.0, 0.0, 0.0, 0.0, 1.621601057227155E9, 2021-05-21 14:44:17.227
73.0, 91.94731140136719, -41.380123138427734, 114.46898651123047, 45.718406677246094, 0.03200000151991844, -0.08000000566244125, 1.055999994277954, 0.0, 0.0, 0.0, 0.0, 0.0, 1.621601057227155E9, 2021-05-21 14:44:17.227
74.0, 8.46152400970459, -111.99317169189453, 21.476375579833984, -46.780540466308594, 0.03200000151991844, -0.08000000566244125, 1.055999994277954, 0.0, 0.0, 0.0, 0.0, 0.0, 1.621601057260299E9, 2021-05-21 14:44:17.260
74.0, 36.421016693115234, -83.39041900634766, 51.56386947631836, -10.985956192016602, 0.03200000151991844, -0.08000000566244125, 1.055999994277954, 0.0, 0.0, 0.0, 0.0, 0.0, 1.621601057260299E9, 2021-05-21 14:44:17.260
75.0, 97.83765411376953, -25.91563606262207, 131.3808135986328, 70.13247680664062, 0.03200000151991844, -0.08000000566244125, 1.055999994277954, 0.0, 0.0, 0.0, 0.0, 0.0, 1.621601057260989E9, 2021-05-21 14:44:17.260
75.0, 81.49429321289062, -45.351898193359375, 112.57286071777344, 43.900814056396484, 0.03200000151991844, -0.08000000566244125, 1.055999994277954, 0.0, 0.0, 0.0, 0.0, 0.0, 1.621601057260989E9, 2021-05-21 14:44:17.260
76.0, 13.390711784362793, -113.2535171508789, 21.04254722595215, -44.016754150390625, 0.03200000151991844, -0.08000000566244125, 1.055999994277954, 0.0, 0.0, 0.0, 0.0, 0.0, 1.6216010572617538E9, 2021-05-21 14:44:17.261
76.0, 34.835296630859375, -91.47234344482422, 44.66749572753906, -13.143877983093262, 0.03200000151991844, -0.08000000566244125, 1.055999994277954, 0.0, 0.0, 0.0, 0.0, 0.0, 1.6216010572617538E9, 2021-05-21 14:44:17.261
77.0, 103.93743133544922, -20.358144760131836, 128.0822296142578, 74.65775299072266, 0.03200000151991844, -0.08000000566244125, 1.055999994277954, 0.0, 0.0, 0.0, 0.0, 0.0, 1.6216010572728493E9, 2021-05-21 14:44:17.272
77.0, 86.47957611083984, -41.82891082763672, 107.18366241455078, 41.98224639892578, 0.03200000151991844, -0.08000000566244125, 1.055999994277954, 0.0, 0.0, 0.0, 0.0, 0.0, 1.6216010572728493E9, 2021-05-21 14:44:17.272
78.0, 18.005748748779297, -114.52882385253906, 24.15040397644043, -49.12919616699219, 0.03200000151991844, -0.08000000566244125, 1.055999994277954, 0.0, 0.0, 0.0, 0.0, 0.0, 1.6216010572735367E9, 2021-05-21 14:44:17.273
78.0, 39.805625915527344, -88.25228881835938, 44.615135192871094, -24.02324676513672, 0.03200000151991844, -0.08000000566244125, 1.055999994277954, 0.0, 0.0, 0.0, 0.0, 0.0, 1.6216010572735367E9, 2021-05-21 14:44:17.273
79.0, 110.04094696044922, -24.307479858398438, 130.33364868164062, 66.2392349243164, 0.03200000151991844, -0.08000000566244125, 1.055999994277954, 0.0, 0.0, 0.0, 0.0, 0.0, 1.621601057287053E9, 2021-05-21 14:44:17.287
79.0, 89.48645782470703, -40.3479118347168, 106.48056030273438, 40.385311126708984, 0.03200000151991844, -0.08000000566244125, 1.055999994277954, 0.0, 0.0, 0.0, 0.0, 0.0, 1.621601057287053E9, 2021-05-21 14:44:17.287
80.0, 11.977029800415039, -112.37838745117188, 20.492782592773438, -41.279144287109375, 0.03200000151991844, -0.08000000566244125, 1.055999994277954, 0.0, 0.0, 0.0, 0.0, 0.0, 1.621601057319127E9, 2021-05-21 14:44:17.319
80.0, 39.465293884277344, -88.06529235839844, 52.95885467529297, -16.651905059814453, 0.03200000151991844, -0.08000000566244125, 1.055999994277954, 0.0, 0.0, 0.0, 0.0, 0.0, 1.621601057319127E9, 2021-05-21 14:44:17.319
81.0, 112.11659240722656, -27.471435546875, 133.9239501953125, 63.46797180175781, 0.03200000151991844, -0.08000000566244125, 1.055999994277954, 0.0, 0.0, 0.0, 0.0, 0.0, 1.62160105731984E9, 2021-05-21 14:44:17.319
81.0, 84.50116729736328, -45.7296257019043, 108.60482788085938, 49.27131271362305, 0.03200000151991844, -0.08000000566244125, 1.055999994277954, 0.0, 0.0, 0.0, 0.0, 0.0, 1.62160105731984E9, 2021-05-21 14:44:17.319
82.0, 18.035667419433594, -109.08727264404297, 26.674837112426758, -39.12870407104492, 0.03200000151991844, -0.08000000566244125, 1.055999994277954, 0.0, 0.0, 0.0, 0.0, 0.0, 1.6216010573206403E9, 2021-05-21 14:44:17.320
82.0, 36.85484313964844, -94.1575927734375, 50.494258880615234, -17.399885177612305, 0.03200000151991844, -0.08000000566244125, 1.055999994277954, 0.0, 0.0, 0.0, 0.0, 0.0, 1.6216010573206403E9, 2021-05-21 14:44:17.320
83.0, 103.91873168945312, -22.56842613220215, 135.88365173339844, 66.74412536621094, 0.03200000151991844, -0.08000000566244125, 1.055999994277954, 0.0, 0.0, 0.0, 0.0, 0.0, 1.6216010573214068E9, 2021-05-21 14:44:17.321
83.0, 82.0515365600586, -36.92964172363281, 112.61399841308594, 48.04088592529297, 0.03200000151991844, -0.08000000566244125, 1.055999994277954, 0.0, 0.0, 0.0, 0.0, 0.0, 1.6216010573214068E9, 2021-05-21 14:44:17.321
84.0, 8.109972953796387, -110.35509490966797, 22.628265380859375, -49.877174377441406, 0.03200000151991844, -0.08000000566244125, 1.055999994277954, 0.0, 0.0, 0.0, 0.0, 0.0, 1.6216010573322408E9, 2021-05-21 14:44:17.332
84.0, 34.53984451293945, -71.7518539428711, 55.04197692871094, -10.641885757446289, 0.03200000151991844, -0.08000000566244125, 1.055999994277954, 0.0, 0.0, 0.0, 0.0, 0.0, 1.6216010573322408E9, 2021-05-21 14:44:17.332
85.0, 103.79157257080078, -3.2331435680389404, 142.5369415283203, 74.88214874267578, 0.03200000151991844, -0.08000000566244125, 1.055999994277954, 0.0, 0.0, 0.0, 0.0, 0.0, 1.621601057347041E9, 2021-05-21 14:44:17.347
85.0, 92.7326889038086, -23.136890411376953, 117.61798095703125, 43.85593795776367, 0.03200000151991844, -0.08000000566244125, 1.055999994277954, 0.0, 0.0, 0.0, 0.0, 0.0, 1.621601057347041E9, 2021-05-21 14:44:17.347
86.0, 12.167764663696289, -90.05492401123047, 30.3174991607666, -45.09384536743164, 0.03200000151991844, -0.08000000566244125, 1.055999994277954, 0.0, 0.0, 0.0, 0.0, 0.0, 1.6216010573791566E9, 2021-05-21 14:44:17.379
86.0, 36.9259033203125, -60.31523513793945, 59.87018966674805, -19.28853416442871, 0.03200000151991844, -0.08000000566244125, 1.055999994277954, 0.0, 0.0, 0.0, 0.0, 0.0, 1.6216010573791566E9, 2021-05-21 14:44:17.379
87.0, 107.33699798583984, 7.9379377365112305, 141.86375427246094, 67.90349578857422, 0.03200000151991844, -0.08000000566244125, 1.055999994277954, 0.0, 0.0, 0.0, 0.0, 0.0, 1.6216010573797882E9, 2021-05-21 14:44:17.379
87.0, 95.03273010253906, -3.8053481578826904, 126.12999725341797, 40.460105895996094, 0.03200000151991844, -0.08000000566244125, 1.055999994277954, 0.0, 0.0, 0.0, 0.0, 0.0, 1.6216010573797882E9, 2021-05-21 14:44:17.379
88.0, 14.329426765441895, -75.32719421386719, 31.824678421020508, -51.788265228271484, 0.03200000151991844, -0.08000000566244125, 1.055999994277954, 0.0, 0.0, 0.0, 0.0, 0.0, 1.6216010573805325E9, 2021-05-21 14:44:17.380
88.0, 32.026634216308594, -54.929779052734375, 60.004825592041016, -19.396991729736328, 0.03200000151991844, -0.08000000566244125, 1.055999994277954, 0.0, 0.0, 0.0, 0.0, 0.0, 1.6216010573805325E9, 2021-05-21 14:44:17.380
89.0, 99.06807708740234, 13.113959312438965, 139.08126831054688, 64.57872009277344, 0.03200000151991844, -0.08000000566244125, 1.055999994277954, 0.0, 0.0, 0.0, 0.0, 0.0, 1.6216010573812845E9, 2021-05-21 14:44:17.381
89.0, 79.73279571533203, -3.711850643157959, 122.37513732910156, 45.965240478515625, 0.03200000151991844, -0.08000000566244125, 1.055999994277954, 0.0, 0.0, 0.0, 0.0, 0.0, 1.6216010573812845E9, 2021-05-21 14:44:17.381
90.0, 3.005009651184082, -80.74256896972656, 28.922515869140625, -46.99745178222656, 0.03200000151991844, -0.08000000566244125, 1.055999994277954, 0.0, 0.0, 0.0, 0.0, 0.0, 1.62160105739212E9, 2021-05-21 14:44:17.392
90.0, 33.71332931518555, -53.78163146972656, 58.25081253051758, -18.63779067993164, 0.03200000151991844, -0.08000000566244125, 1.055999994277954, 0.0, 0.0, 0.0, 0.0, 0.0, 1.62160105739212E9, 2021-05-21 14:44:17.392
91.0, 104.67044830322266, 13.86941909790039, 146.8490447998047, 69.62384796142578, 0.03200000151991844, -0.08000000566244125, 1.055999994277954, 0.0, 0.0, 0.0, 0.0, 0.0, 1.621601057407222E9, 2021-05-21 14:44:17.407
91.0, 81.2474594116211, -13.098999977111816, 121.45137786865234, 39.82058334350586, 0.03200000151991844, -0.08000000566244125, 1.055999994277954, 0.0, 0.0, 0.0, 0.0, 0.0, 1.621601057407222E9, 2021-05-21 14:44:17.407
92.0, 12.6090726852417, -92.2315444946289, 31.125316619873047, -53.88261032104492, 0.03200000151991844, -0.08000000566244125, 1.055999994277954, 0.0, 0.0, 0.0, 0.0, 0.0, 1.6216010574229388E9, 2021-05-21 14:44:17.422
92.0, 44.26732635498047, -63.621307373046875, 64.56376647949219, -22.183216094970703, 0.03200000151991844, -0.08000000566244125, 1.055999994277954, 0.0, 0.0, 0.0, 0.0, 0.0, 1.6216010574229388E9, 2021-05-21 14:44:17.422
93.0, 105.65778350830078, -2.9376914501190186, 144.99778747558594, 63.80830383300781, 0.03200000151991844, -0.08000000566244125, 1.055999994277954, 0.0, 0.0, 0.0, 0.0, 0.0, 1.6216010574235303E9, 2021-05-21 14:44:17.423
93.0, 86.5468978881836, -20.133750915527344, 120.49396514892578, 43.39592742919922, 0.03200000151991844, -0.08000000566244125, 1.055999994277954, 0.0, 0.0, 0.0, 0.0, 0.0, 1.6216010574235303E9, 2021-05-21 14:44:17.423
94.0, 15.593512535095215, -99.64776611328125, 25.672542572021484, -54.86246109008789, 0.03200000151991844, -0.08000000566244125, 1.055999994277954, 0.0, 0.0, 0.0, 0.0, 0.0, 1.6216010574371576E9, 2021-05-21 14:44:17.437
94.0, 37.662662506103516, -78.31163787841797, 56.03679275512695, -24.999361038208008, 0.03200000151991844, -0.08000000566244125, 1.055999994277954, 0.0, 0.0, 0.0, 0.0, 0.0, 1.6216010574371576E9, 2021-05-21 14:44:17.437
95.0, 101.31201934814453, -10.387572288513184, 138.65492248535156, 62.491859436035156, 0.03200000151991844, -0.08000000566244125, 1.055999994277954, 0.0, 0.0, 0.0, 0.0, 0.0, 1.6216010574527304E9, 2021-05-21 14:44:17.452
95.0, 88.41310119628906, -32.647457122802734, 114.96639251708984, 35.54587936401367, 0.03200000151991844, -0.08000000566244125, 1.055999994277954, 0.0, 0.0, 0.0, 0.0, 0.0, 1.6216010574527304E9, 2021-05-21 14:44:17.452
96.0, 12.15654468536377, -109.75297546386719, 26.62995719909668, -48.7103271484375, 0.03200000151991844, -0.08000000566244125, 1.055999994277954, 0.0, 0.0, 0.0, 0.0, 0.0, 1.621601057453494E9, 2021-05-21 14:44:17.453
96.0, 42.45347595214844, -80.05068969726562, 59.67571258544922, -17.82623291015625, 0.03200000151991844, -0.08000000566244125, 1.055999994277954, 0.0, 0.0, 0.0, 0.0, 0.0, 1.621601057453494E9, 2021-05-21 14:44:17.453
97.0, 102.4863510131836, -14.179830551147461, 138.72598266601562, 64.88165283203125, 0.03200000151991844, -0.08000000566244125, 1.055999994277954, 0.0, 0.0, 0.0, 0.0, 0.0, 1.6216010574833996E9, 2021-05-21 14:44:17.483
97.0, 84.18701934814453, -35.02229309082031, 116.78772735595703, 40.516204833984375, 0.03200000151991844, -0.08000000566244125, 1.055999994277954, 0.0, 0.0, 0.0, 0.0, 0.0, 1.6216010574833996E9, 2021-05-21 14:44:17.483
98.0, 13.342093467712402, -103.1707534790039, 29.95098876953125, -47.6070556640625, 0.03200000151991844, -0.08000000566244125, 1.055999994277954, 0.0, 0.0, 0.0, 0.0, 0.0, 1.6216010574840977E9, 2021-05-21 14:44:17.484
98.0, 25.014320373535156, -83.36424255371094, 54.19676208496094, -22.67314338684082, 0.03200000151991844, -0.08000000566244125, 1.055999994277954, 0.0, 0.0, 0.0, 0.0, 0.0, 1.6216010574840977E9, 2021-05-21 14:44:17.484
99.0, 99.14661407470703, -14.729596138000488, 136.8784637451172, 64.99385070800781, 0.03200000151991844, -0.08000000566244125, 1.055999994277954, 0.0, 0.0, 0.0, 0.0, 0.0, 1.6216010574848847E9, 2021-05-21 14:44:17.484
99.0, 81.41949462890625, -43.60536193847656, 110.83380889892578, 41.70923614501953, 0.03200000151991844, -0.08000000566244125, 1.055999994277954, 0.0, 0.0, 0.0, 0.0, 0.0, 1.6216010574848847E9, 2021-05-21 14:44:17.484
100.0, 1.8792997598648071, -112.00439453125, 25.324731826782227, -45.46783447265625, 0.03200000151991844, -0.08000000566244125, 1.055999994277954, 0.0, 0.0, 0.0, 0.0, 0.0, 1.621601057497922E9, 2021-05-21 14:44:17.497
100.0, 24.47577476501465, -85.2080078125, 51.3282585144043, -16.693042755126953, 0.03200000151991844, -0.08000000566244125, 1.055999994277954, 0.0, 0.0, 0.0, 0.0, 0.0, 1.621601057497922E9, 2021-05-21 14:44:17.497
0.0, 96.18087768554688, -22.32720184326172, 136.94952392578125, 60.35637664794922, 0.03200000151991844, -0.08000000566244125, 1.055999994277954, 0.0, 0.0, 0.0, 0.0, 0.0, 1.6216010574986084E9, 2021-05-21 14:44:17.498
1.0, 84.10099792480469, -39.41854476928711, 118.31360626220703, 42.51331329345703, 0.03200000151991844, -0.08000000566244125, 1.055999994277954, 0.0, 0.0, 0.0, 0.0, 0.0, 1.6216010575121157E9, 2021-05-21 14:44:17.512
1.0, 3.438838005065918, -117.16358947753906, 24.045686721801758, -50.651336669921875, 0.03200000151991844, -0.08000000566244125, 1.055999994277954, 0.0, 0.0, 0.0, 0.0, 0.0, 1.6216010575121157E9, 2021-05-21 14:44:17.512
2.0, 30.612951278686523, -88.35887908935547, 51.264678955078125, -16.96979522705078, 0.03200000151991844, -0.08000000566244125, 1.055999994277954, 0.0, 0.0, 0.0, 0.0, 0.0, 1.621601057527819E9, 2021-05-21 14:44:17.527
2.0, 103.19319152832031, -22.465579986572266, 142.5706024169922, 69.5677490234375, 0.03200000151991844, -0.08000000566244125, 1.055999994277954, 0.0, 0.0, 0.0, 0.0, 0.0, 1.621601057527819E9, 2021-05-21 14:44:17.527
3.0, 77.69081115722656, -41.72980499267578, 110.83006286621094, 47.6369743347168, 0.03200000151991844, -0.08000000566244125, 1.055999994277954, 0.0, 0.0, 0.0, 0.0, 0.0, 1.6216010575285213E9, 2021-05-21 14:44:17.528
3.0, 8.59242057800293, -116.63626098632812, 21.064987182617188, -45.89418411254883, 0.03200000151991844, -0.08000000566244125, 1.055999994277954, 0.0, 0.0, 0.0, 0.0, 0.0, 1.6216010575285213E9, 2021-05-21 14:44:17.528
4.0, 33.574951171875, -93.73685455322266, 51.28711700439453, -17.654197692871094, 0.03200000151991844, -0.08000000566244125, 1.055999994277954, 0.0, 0.0, 0.0, 0.0, 0.0, 1.6216010575421417E9, 2021-05-21 14:44:17.542
4.0, 99.36727142333984, -30.80555534362793, 137.33099365234375, 67.30510711669922, 0.03200000151991844, -0.08000000566244125, 1.055999994277954, 0.0, 0.0, 0.0, 0.0, 0.0, 1.6216010575421417E9, 2021-05-21 14:44:17.542
5.0, 86.38233947753906, -48.40178680419922, 114.48768615722656, 43.152835845947266, 0.03200000151991844, -0.08000000566244125, 1.055999994277954, 0.0, 0.0, 0.0, 0.0, 0.0, 1.6216010575577152E9, 2021-05-21 14:44:17.557
5.0, 8.626079559326172, -119.1419906616211, 21.24076271057129, -48.59064865112305, 0.03200000151991844, -0.08000000566244125, 1.055999994277954, 0.0, 0.0, 0.0, 0.0, 0.0, 1.6216010575577152E9, 2021-05-21 14:44:17.557
6.0, 30.287580490112305, -94.76532745361328, 56.844608306884766, -11.838653564453125, 0.03200000151991844, -0.08000000566244125, 1.055999994277954, 0.0, 0.0, 0.0, 0.0, 0.0, 1.6216010575584972E9, 2021-05-21 14:44:17.558
6.0, 97.2317886352539, -30.427825927734375, 135.38250732421875, 65.08361053466797, 0.03200000151991844, -0.08000000566244125, 1.055999994277954, 0.0, 0.0, 0.0, 0.0, 0.0, 1.6216010575584972E9, 2021-05-21 14:44:17.558
7.0, 78.89505767822266, -48.80943298339844, 113.23856353759766, 42.12810134887695, 0.03200000151991844, -0.08000000566244125, 1.055999994277954, 0.0, 0.0, 0.0, 0.0, 0.0, 1.6216010575722575E9, 2021-05-21 14:44:17.572
7.0, 8.83177375793457, -119.81143188476562, 27.33679962158203, -50.6475944519043, 0.03200000151991844, -0.08000000566244125, 1.055999994277954, 0.0, 0.0, 0.0, 0.0, 0.0, 1.6216010575722575E9, 2021-05-21 14:44:17.572
8.0, 30.814905166625977, -97.32715606689453, 49.90335464477539, -19.785940170288086, 0.03200000151991844, -0.08000000566244125, 1.055999994277954, 0.0, 0.0, 0.0, 0.0, 0.0, 1.6216010575878205E9, 2021-05-21 14:44:17.587
8.0, 98.23033905029297, -33.322509765625, 130.7113800048828, 62.69755172729492, 0.03200000151991844, -0.08000000566244125, 1.055999994277954, 0.0, 0.0, 0.0, 0.0, 0.0, 1.6216010575878205E9, 2021-05-21 14:44:17.587
9.0, 81.32225799560547, -51.801353454589844, 110.92729949951172, 45.35563659667969, 0.03200000151991844, -0.08000000566244125, 1.055999994277954, 0.0, 0.0, 0.0, 0.0, 0.0, 1.62160105758844E9, 2021-05-21 14:44:17.588
9.0, 10.062200546264648, -121.3709716796875, 23.94470977783203, -47.5958366394043, 0.03200000151991844, -0.08000000566244125, 1.055999994277954, 0.0, 0.0, 0.0, 0.0, 0.0, 1.62160105758844E9, 2021-05-21 14:44:17.588
10.0, 38.276004791259766, -96.53429412841797, 53.48991775512695, -17.871112823486328, 0.03200000151991844, -0.08000000566244125, 1.055999994277954, 0.0, 0.0, 0.0, 0.0, 0.0, 1.621601057602255E9, 2021-05-21 14:44:17.602
10.0, 103.46246337890625, -31.44881820678711, 136.852294921875, 71.29558563232422, 0.03200000151991844, -0.08000000566244125, 1.055999994277954, 0.0, 0.0, 0.0, 0.0, 0.0, 1.621601057602255E9, 2021-05-21 14:44:17.602
11.0, 81.7523422241211, -48.55512237548828, 109.70809173583984, 46.537445068359375, 0.03200000151991844, -0.08000000566244125, 1.055999994277954, 0.0, 0.0, 0.0, 0.0, 0.0, 1.6216010576177304E9, 2021-05-21 14:44:17.617
11.0, 9.946264266967773, -122.45928192138672, 22.3776912689209, -38.661216735839844, 0.03200000151991844, -0.08000000566244125, 1.055999994277954, 0.0, 0.0, 0.0, 0.0, 0.0, 1.6216010576177304E9, 2021-05-21 14:44:17.617
12.0, 32.93916702270508, -91.19746398925781, 56.88574981689453, -9.329180717468262, 0.03200000151991844, -0.08000000566244125, 1.055999994277954, 0.0, 0.0, 0.0, 0.0, 0.0, 1.6216010576184285E9, 2021-05-21 14:44:17.618
12.0, 97.19438934326172, -28.307302474975586, 141.1269989013672, 74.45954132080078, 0.03200000151991844, -0.08000000566244125, 1.055999994277954, 0.0, 0.0, 0.0, 0.0, 0.0, 1.6216010576184285E9, 2021-05-21 14:44:17.618
13.0, 78.25927734375, -50.230594635009766, 113.70230865478516, 44.46928024291992, 0.03200000151991844, -0.08000000566244125, 1.055999994277954, 0.0, 0.0, 0.0, 0.0, 0.0, 1.621601057632067E9, 2021-05-21 14:44:17.632
13.0, 7.702323913574219, -121.61780548095703, 30.945802688598633, -42.150543212890625, 0.03200000151991844, -0.08000000566244125, 1.055999994277954, 0.0, 0.0, 0.0, 0.0, 0.0, 1.621601057632067E9, 2021-05-21 14:44:17.632
14.0, 25.91563606262207, -98.52392578125, 54.58197021484375, -15.709449768066406, 0.03200000151991844, -0.08000000566244125, 1.055999994277954, 0.0, 0.0, 0.0, 0.0, 0.0, 1.6216010576477284E9, 2021-05-21 14:44:17.647
14.0, 98.0732650756836, -24.492605209350586, 141.8114013671875, 74.38848114013672, 0.03200000151991844, -0.08000000566244125, 1.055999994277954, 0.0, 0.0, 0.0, 0.0, 0.0, 1.6216010576477284E9, 2021-05-21 14:44:17.647
15.0, 74.0631103515625, -46.475738525390625, 108.45149230957031, 48.14186096191406, 0.03200000151991844, -0.08000000566244125, 1.055999994277954, 0.0, 0.0, 0.0, 0.0, 0.0, 1.6216010576483908E9, 2021-05-21 14:44:17.648
15.0, 4.007302761077881, -107.81383514404297, 23.877391815185547, -38.758453369140625, 0.03200000151991844, -0.08000000566244125, 1.055999994277954, 0.0, 0.0, 0.0, 0.0, 0.0, 1.6216010576483908E9, 2021-05-21 14:44:17.648
16.0, 30.295059204101562, -89.41352844238281, 47.689334869384766, -12.777368545532227, 0.03200000151991844, -0.08000000566244125, 1.055999994277954, 0.0, 0.0, 0.0, 0.0, 0.0, 1.6216010576621E9, 2021-05-21 14:44:17.662
16.0, 97.39634704589844, -29.219839096069336, 129.90354919433594, 70.7345962524414, 0.03200000151991844, -0.08000000566244125, 1.055999994277954, 0.0, 0.0, 0.0, 0.0, 0.0, 1.6216010576621E9, 2021-05-21 14:44:17.662
17.0, 77.72447204589844, -47.50794982910156, 113.36946105957031, 50.03425216674805, 0.03200000151991844, -0.08000000566244125, 1.055999994277954, 0.0, 0.0, 0.0, 0.0, 0.0, 1.6216010576940482E9, 2021-05-21 14:44:17.694
17.0, -0.2599230408668518, -121.25877380371094, 20.474082946777344, -41.563377380371094, 0.03200000151991844, -0.08000000566244125, 1.055999994277954, 0.0, 0.0, 0.0, 0.0, 0.0, 1.6216010576940482E9, 2021-05-21 14:44:17.694
18.0, 29.610658645629883, -97.13642120361328, 45.23221969604492, -8.192251205444336, 0.03200000151991844, -0.08000000566244125, 1.055999994277954, 0.0, 0.0, 0.0, 0.0, 0.0, 1.621601057694824E9, 2021-05-21 14:44:17.694
18.0, 99.90956115722656, -29.466670989990234, 129.2490692138672, 72.16697692871094, 0.03200000151991844, -0.08000000566244125, 1.055999994277954, 0.0, 0.0, 0.0, 0.0, 0.0, 1.621601057694824E9, 2021-05-21 14:44:17.694
19.0, 84.10099792480469, -46.07182693481445, 107.25472259521484, 48.61309051513672, 0.03200000151991844, -0.08000000566244125, 1.055999994277954, 0.0, 0.0, 0.0, 0.0, 0.0, 1.621601057695616E9, 2021-05-21 14:44:17.695
19.0, 3.09102725982666, -115.02436065673828, 15.458876609802246, -46.4738655090332, 0.03200000151991844, -0.08000000566244125, 1.055999994277954, 0.0, 0.0, 0.0, 0.0, 0.0, 1.621601057695616E9, 2021-05-21 14:44:17.695
20.0, 30.055706024169922, -91.04412078857422, 44.03919219970703, -19.329673767089844, 0.03200000151991844, -0.08000000566244125, 1.055999994277954, 0.0, 0.0, 0.0, 0.0, 0.0, 1.6216010576962888E9, 2021-05-21 14:44:17.696
20.0, 96.4277114868164, -19.488618850708008, 128.25425720214844, 67.6417007446289, 0.03200000151991844, -0.08000000566244125, 1.055999994277954, 0.0, 0.0, 0.0, 0.0, 0.0, 1.6216010576962888E9, 2021-05-21 14:44:17.696
21.0, 75.5889892578125, -35.6225471496582, 110.04094696044922, 49.62286376953125, 0.03200000151991844, -0.08000000566244125, 1.055999994277954, 0.0, 0.0, 0.0, 0.0, 0.0, 1.6216010577071447E9, 2021-05-21 14:44:17.707
21.0, 5.046995162963867, -110.65989685058594, 16.663124084472656, -44.731075286865234, 0.03200000151991844, -0.08000000566244125, 1.055999994277954, 0.0, 0.0, 0.0, 0.0, 0.0, 1.6216010577071447E9, 2021-05-21 14:44:17.707
22.0, 24.14292335510254, -82.48723602294922, 48.56447219848633, -10.23797607421875, 0.03200000151991844, -0.08000000566244125, 1.055999994277954, 0.0, 0.0, 0.0, 0.0, 0.0, 1.6216010577220445E9, 2021-05-21 14:44:17.722
22.0, 97.07097625732422, -19.750411987304688, 131.8408203125, 67.17420959472656, 0.03200000151991844, -0.08000000566244125, 1.055999994277954, 0.0, 0.0, 0.0, 0.0, 0.0, 1.6216010577220445E9, 2021-05-21 14:44:17.722
23.0, 77.20088195800781, -35.88059997558594, 111.47706604003906, 52.547462463378906, 0.03200000151991844, -0.08000000566244125, 1.055999994277954, 0.0, 0.0, 0.0, 0.0, 0.0, 1.6216010577382245E9, 2021-05-21 14:44:17.738
23.0, 3.8539669513702393, -109.41077423095703, 15.896444320678711, -39.79440689086914, 0.03200000151991844, -0.08000000566244125, 1.055999994277954, 0.0, 0.0, 0.0, 0.0, 0.0, 1.6216010577382245E9, 2021-05-21 14:44:17.738
24.0, 27.243301391601562, -77.45333099365234, 50.079132080078125, -13.49916934967041, 0.03200000151991844, -0.08000000566244125, 1.055999994277954, 0.0, 0.0, 0.0, 0.0, 0.0, 1.6216010577527537E9, 2021-05-21 14:44:17.752
24.0, 88.72725677490234, -21.156614303588867, 129.15931701660156, 73.18797302246094, 0.03200000151991844, -0.08000000566244125, 1.055999994277954, 0.0, 0.0, 0.0, 0.0, 0.0, 1.6216010577527537E9, 2021-05-21 14:44:17.752
25.0, 76.2883529663086, -43.34543991088867, 108.00270080566406, 47.094688415527344, 0.03200000151991844, -0.08000000566244125, 1.055999994277954, 0.0, 0.0, 0.0, 0.0, 0.0, 1.6216010577534523E9, 2021-05-21 14:44:17.753
25.0, -0.2561831474304199, -114.39605712890625, 16.075960159301758, -44.042930603027344, 0.03200000151991844, -0.08000000566244125, 1.055999994277954, 0.0, 0.0, 0.0, 0.0, 0.0, 1.6216010577534523E9, 2021-05-21 14:44:17.753
26.0, 29.11699104309082, -85.93167877197266, 46.402809143066406, -18.174043655395508, 0.03200000151991844, -0.08000000566244125, 1.055999994277954, 0.0, 0.0, 0.0, 0.0, 0.0, 1.6216010577677824E9, 2021-05-21 14:44:17.767
26.0, 97.68431854248047, -24.44024658203125, 125.3745346069336, 69.94548034667969, 0.03200000151991844, -0.08000000566244125, 1.055999994277954, 0.0, 0.0, 0.0, 0.0, 0.0, 1.6216010577677824E9, 2021-05-21 14:44:17.767
27.0, 79.72905731201172, -32.06216049194336, 109.6744384765625, 50.9580078125, 0.03200000151991844, -0.08000000566244125, 1.055999994277954, 0.0, 0.0, 0.0, 0.0, 0.0, 1.6216010577685652E9, 2021-05-21 14:44:17.768
27.0, 6.030588626861572, -101.26527404785156, 21.128564834594727, -47.78657150268555, 0.03200000151991844, -0.08000000566244125, 1.055999994277954, 0.0, 0.0, 0.0, 0.0, 0.0, 1.6216010577685652E9, 2021-05-21 14:44:17.768
28.0, 26.809473037719727, -81.39892578125, 47.76787185668945, -15.638391494750977, 0.03200000151991844, -0.08000000566244125, 1.055999994277954, 0.0, 0.0, 0.0, 0.0, 0.0, 1.6216010577820668E9, 2021-05-21 14:44:17.782
28.0, 92.6317138671875, -16.096529006958008, 127.51001739501953, 65.52117919921875, 0.03200000151991844, -0.08000000566244125, 1.055999994277954, 0.0, 0.0, 0.0, 0.0, 0.0, 1.6216010577820668E9, 2021-05-21 14:44:17.782
29.0, 72.3016128540039, -32.51095199584961, 110.81136322021484, 51.53769302368164, 0.03200000151991844, -0.08000000566244125, 1.055999994277954, 0.0, 0.0, 0.0, 0.0, 0.0, 1.621601057797736E9, 2021-05-21 14:44:17.797
29.0, 3.0536282062530518, -101.72901916503906, 23.039653778076172, -41.42500305175781, 0.03200000151991844, -0.08000000566244125, 1.055999994277954, 0.0, 0.0, 0.0, 0.0, 0.0, 1.621601057797736E9, 2021-05-21 14:44:17.797
30.0, 23.279006958007812, -80.19841766357422, 49.40968704223633, -20.769535064697266, 0.03200000151991844, -0.08000000566244125, 1.055999994277954, 0.0, 0.0, 0.0, 0.0, 0.0, 1.6216010577984319E9, 2021-05-21 14:44:17.798
30.0, 89.89036560058594, -10.606356620788574, 135.2291717529297, 65.5136947631836, 0.03200000151991844, -0.08000000566244125, 1.055999994277954, 0.0, 0.0, 0.0, 0.0, 0.0, 1.6216010577984319E9, 2021-05-21 14:44:17.798
31.0, 77.2569808959961, -29.07398223876953, 116.04348754882812, 45.47905349731445, 0.03200000151991844, -0.08000000566244125, 1.055999994277954, 0.0, 0.0, 0.0, 0.0, 0.0, 1.6216010578120275E9, 2021-05-21 14:44:17.812
31.0, 9.871465682983398, -94.96727752685547, 31.387109756469727, -45.89418411254883, 0.03200000151991844, -0.08000000566244125, 1.055999994277954, 0.0, 0.0, 0.0, 0.0, 0.0, 1.6216010578120275E9, 2021-05-21 14:44:17.812
32.0, 25.964256286621094, -78.12277221679688, 49.9257926940918, -24.767486572265625, 0.03200000151991844, -0.08000000566244125, 1.055999994277954, 0.0, 0.0, 0.0, 0.0, 0.0, 1.621601057827772E9, 2021-05-21 14:44:17.827
32.0, 96.22201538085938, -14.858622550964355, 135.20298767089844, 62.327301025390625, 0.03200000151991844, -0.08000000566244125, 1.055999994277954, 0.0, 0.0, 0.0, 0.0, 0.0, 1.621601057827772E9, 2021-05-21 14:44:17.827
33.0, 78.47618865966797, -26.972158432006836, 111.02079772949219, 44.12894821166992, 0.03200000151991844, -0.08000000566244125, 1.055999994277954, 0.0, 0.0, 0.0, 0.0, 0.0, 1.6216010578285E9, 2021-05-21 14:44:17.828
33.0, 1.2696959972381592, -106.59088897705078, 15.911404609680176, -45.73710632324219, 0.03200000151991844, -0.08000000566244125, 1.055999994277954, 0.0, 0.0, 0.0, 0.0, 0.0, 1.6216010578285E9, 2021-05-21 14:44:17.828
34.0, 29.05341339111328, -78.69871520996094, 45.292057037353516, -23.638036727905273, 0.03200000151991844, -0.08000000566244125, 1.055999994277954, 0.0, 0.0, 0.0, 0.0, 0.0, 1.6216010578420944E9, 2021-05-21 14:44:17.842
34.0, 95.982666015625, -14.959599494934082, 127.67083740234375, 59.058631896972656, 0.03200000151991844, -0.08000000566244125, 1.055999994277954, 0.0, 0.0, 0.0, 0.0, 0.0, 1.6216010578420944E9, 2021-05-21 14:44:17.842
35.0, 74.17156219482422, -27.144193649291992, 109.55850219726562, 41.41752243041992, 0.03200000151991844, -0.08000000566244125, 1.055999994277954, 0.0, 0.0, 0.0, 0.0, 0.0, 1.6216010578579316E9, 2021-05-21 14:44:17.857
35.0, 4.20925760269165, -100.31533813476562, 19.957975387573242, -46.8441162109375, 0.03200000151991844, -0.08000000566244125, 1.055999994277954, 0.0, 0.0, 0.0, 0.0, 0.0, 1.6216010578579316E9, 2021-05-21 14:44:17.857
36.0, 29.9248104095459, -83.35862731933594, 46.47760772705078, -23.64925765991211, 0.03200000151991844, -0.08000000566244125, 1.055999994277954, 0.0, 0.0, 0.0, 0.0, 0.0, 1.6216010578584836E9, 2021-05-21 14:44:17.858
36.0, 96.3454360961914, -17.551349639892578, 129.20045471191406, 61.721439361572266, 0.03200000151991844, -0.08000000566244125, 1.055999994277954, 0.0, 0.0, 0.0, 0.0, 0.0, 1.6216010578584836E9, 2021-05-21 14:44:17.858
37.0, 72.6008071899414, -30.7344970703125, 110.31769561767578, 39.16984176635742, 0.03200000151991844, -0.08000000566244125, 1.055999994277954, 0.0, 0.0, 0.0, 0.0, 0.0, 1.6216010578721387E9, 2021-05-21 14:44:17.872
37.0, 3.872666358947754, -109.59402465820312, 19.535367965698242, -51.77704620361328, 0.03200000151991844, -0.08000000566244125, 1.055999994277954, 0.0, 0.0, 0.0, 0.0, 0.0, 1.6216010578721387E9, 2021-05-21 14:44:17.872
38.0, 22.11589813232422, -83.46334838867188, 38.54528045654297, -26.58881950378418, 0.03200000151991844, -0.08000000566244125, 1.055999994277954, 0.0, 0.0, 0.0, 0.0, 0.0, 1.6216010579048548E9, 2021-05-21 14:44:17.904
38.0, 94.82703399658203, -8.437213897705078, 131.81089782714844, 65.53614044189453, 0.03200000151991844, -0.08000000566244125, 1.055999994277954, 0.0, 0.0, 0.0, 0.0, 0.0, 1.6216010579048548E9, 2021-05-21 14:44:17.904
39.0, 73.59561920166016, -30.476444244384766, 108.11116027832031, 37.06053924560547, 0.03200000151991844, -0.08000000566244125, 1.055999994277954, 0.0, 0.0, 0.0, 0.0, 0.0, 1.6216010579055858E9, 2021-05-21 14:44:17.905
39.0, 2.0962138175964355, -97.35333251953125, 17.815013885498047, -54.746524810791016, 0.03200000151991844, -0.08000000566244125, 1.055999994277954, 0.0, 0.0, 0.0, 0.0, 0.0, 1.6216010579055858E9, 2021-05-21 14:44:17.905
40.0, 23.899829864501953, -75.16451263427734, 40.63588333129883, -24.08682632446289, 0.03200000151991844, -0.08000000566244125, 1.055999994277954, 0.0, 0.0, 0.0, 0.0, 0.0, 1.6216010579063685E9, 2021-05-21 14:44:17.906
40.0, 94.9392318725586, -7.5171990394592285, 132.06521606445312, 61.36988830566406, 0.03200000151991844, -0.08000000566244125, 1.055999994277954, 0.0, 0.0, 0.0, 0.0, 0.0, 1.6216010579063685E9, 2021-05-21 14:44:17.906
41.0, 79.26531219482422, -29.507810592651367, 115.17208862304688, 37.85713577270508, 0.03200000151991844, -0.08000000566244125, 1.055999994277954, 0.0, 0.0, 0.0, 0.0, 0.0, 1.6216010579070845E9, 2021-05-21 14:44:17.907
41.0, 2.5562217235565186, -101.34381103515625, 17.0371150970459, -52.551204681396484, 0.03200000151991844, -0.08000000566244125, 1.055999994277954, 0.0, 0.0, 0.0, 0.0, 0.0, 1.6216010579070845E9, 2021-05-21 14:44:17.907
42.0, 27.72574806213379, -77.69268035888672, 42.707786560058594, -25.807180404663086, 0.03200000151991844, -0.08000000566244125, 1.055999994277954, 0.0, 0.0, 0.0, 0.0, 0.0, 1.6216010579328442E9, 2021-05-21 14:44:17.932
42.0, 96.13225555419922, -17.944040298461914, 127.83538818359375, 65.08361053466797, 0.03200000151991844, -0.08000000566244125, 1.055999994277954, 0.0, 0.0, 0.0, 0.0, 0.0, 1.6216010579328442E9, 2021-05-21 14:44:17.932
43.0, 71.50127410888672, -26.456052780151367, 109.39020538330078, 40.190834045410156, 0.03200000151991844, -0.08000000566244125, 1.055999994277954, 0.0, 0.0, 0.0, 0.0, 0.0, 1.6216010579335647E9, 2021-05-21 14:44:17.933
43.0, 1.2547364234924316, -92.7831802368164, 23.14811134338379, -49.069358825683594, 0.03200000151991844, -0.08000000566244125, 1.055999994277954, 0.0, 0.0, 0.0, 0.0, 0.0, 1.6216010579335647E9, 2021-05-21 14:44:17.933
44.0, 23.914791107177734, -71.93697357177734, 44.27106475830078, -20.922870635986328, 0.03200000151991844, -0.08000000566244125, 1.055999994277954, 0.0, 0.0, 0.0, 0.0, 0.0, 1.621601057963411E9, 2021-05-21 14:44:17.963
44.0, 96.11730194091797, -9.304871559143066, 129.6791534423828, 66.31029510498047, 0.03200000151991844, -0.08000000566244125, 1.055999994277954, 0.0, 0.0, 0.0, 0.0, 0.0, 1.621601057963411E9, 2021-05-21 14:44:17.963
45.0, 69.79588317871094, -30.48018455505371, 104.49467468261719, 40.66954040527344, 0.03200000151991844, -0.08000000566244125, 1.055999994277954, 0.0, 0.0, 0.0, 0.0, 0.0, 1.621601057978918E9, 2021-05-21 14:44:17.978
45.0, -1.9802770614624023, -90.62151336669922, 19.6774845123291, -45.51271438598633, 0.03200000151991844, -0.08000000566244125, 1.055999994277954, 0.0, 0.0, 0.0, 0.0, 0.0, 1.621601057978918E9, 2021-05-21 14:44:17.978
46.0, 17.773874282836914, -76.6866455078125, 42.79006576538086, -21.97378158569336, 0.03200000151991844, -0.08000000566244125, 1.055999994277954, 0.0, 0.0, 0.0, 0.0, 0.0, 1.6216010579796252E9, 2021-05-21 14:44:17.979
46.0, 92.38488006591797, -11.298237800598145, 125.86446380615234, 60.86874008178711, 0.03200000151991844, -0.08000000566244125, 1.055999994277954, 0.0, 0.0, 0.0, 0.0, 0.0, 1.6216010579796252E9, 2021-05-21 14:44:17.979
47.0, 72.67560577392578, -26.235397338867188, 108.67962646484375, 41.776554107666016, 0.03200000151991844, -0.08000000566244125, 1.055999994277954, 0.0, 0.0, 0.0, 0.0, 0.0, 1.6216010579804208E9, 2021-05-21 14:44:17.980
47.0, 0.26740285754203796, -101.35877227783203, 23.07705307006836, -44.45806121826172, 0.03200000151991844, -0.08000000566244125, 1.055999994277954, 0.0, 0.0, 0.0, 0.0, 0.0, 1.6216010579804208E9, 2021-05-21 14:44:17.980
48.0, 23.391204833984375, -75.34776306152344, 50.6887321472168, -24.068126678466797, 0.03200000151991844, -0.08000000566244125, 1.055999994277954, 0.0, 0.0, 0.0, 0.0, 0.0, 1.6216010579928365E9, 2021-05-21 14:44:17.992
48.0, 88.29716491699219, -9.663901329040527, 130.59544372558594, 60.386295318603516, 0.03200000151991844, -0.08000000566244125, 1.055999994277954, 0.0, 0.0, 0.0, 0.0, 0.0, 1.6216010579928365E9, 2021-05-21 14:44:17.992
49.0, 70.66728210449219, -34.69131088256836, 106.33844757080078, 39.154884338378906, 0.03200000151991844, -0.08000000566244125, 1.055999994277954, 0.0, 0.0, 0.0, 0.0, 0.0, 1.6216010579934368E9, 2021-05-21 14:44:17.993
49.0, 6.868326187133789, -97.925537109375, 21.035066604614258, -52.367950439453125, 0.03200000151991844, -0.08000000566244125, 1.055999994277954, 0.0, 0.0, 0.0, 0.0, 0.0, 1.6216010579934368E9, 2021-05-21 14:44:17.993
50.0, 25.751081466674805, -77.85350036621094, 43.070556640625, -21.71946907043457, 0.03200000151991844, -0.08000000566244125, 1.055999994277954, 0.0, 0.0, 0.0, 0.0, 0.0, 1.6216010580242124E9, 2021-05-21 14:44:18.024
50.0, 92.55317687988281, -15.019437789916992, 135.40869140625, 67.15550994873047, 0.03200000151991844, -0.08000000566244125, 1.055999994277954, 0.0, 0.0, 0.0, 0.0, 0.0, 1.6216010580242124E9, 2021-05-21 14:44:18.024
51.0, 72.0959243774414, -25.461238861083984, 112.57286071777344, 44.536598205566406, 0.03200000151991844, -0.08000000566244125, 1.055999994277954, 0.0, 0.0, 0.0, 0.0, 0.0, 1.6216010580250237E9, 2021-05-21 14:44:18.025
51.0, 11.045794486999512, -102.48448181152344, 23.234128952026367, -49.19277572631836, 0.03200000151991844, -0.08000000566244125, 1.055999994277954, 0.0, 0.0, 0.0, 0.0, 0.0, 1.6216010580250237E9, 2021-05-21 14:44:18.025
52.0, 22.628265380859375, -73.10382080078125, 46.36914825439453, -22.833959579467773, 0.03200000151991844, -0.08000000566244125, 1.055999994277954, 0.0, 0.0, 0.0, 0.0, 0.0, 1.6216010580256612E9, 2021-05-21 14:44:18.025
52.0, 91.19184875488281, -15.505624771118164, 128.9910125732422, 58.370487213134766, 0.03200000151991844, -0.08000000566244125, 1.055999994277954, 0.0, 0.0, 0.0, 0.0, 0.0, 1.6216010580256612E9, 2021-05-21 14:44:18.025
53.0, 80.9071273803711, -29.201139450073242, 110.40745544433594, 40.04124069213867, 0.03200000151991844, -0.08000000566244125, 1.055999994277954, 0.0, 0.0, 0.0, 0.0, 0.0, 1.6216010580263429E9, 2021-05-21 14:44:18.026
53.0, 4.291535377502441, -98.80067443847656, 22.84143829345703, -48.72528839111328, 0.03200000151991844, -0.08000000566244125, 1.055999994277954, 0.0, 0.0, 0.0, 0.0, 0.0, 1.6216010580263429E9, 2021-05-21 14:44:18.026
54.0, 25.444408416748047, -80.10491943359375, 48.164302825927734, -24.44585609436035, 0.03200000151991844, -0.08000000566244125, 1.055999994277954, 0.0, 0.0, 0.0, 0.0, 0.0, 1.6216010580371244E9, 2021-05-21 14:44:18.037
54.0, 94.37450408935547, -11.765725135803223, 135.9173126220703, 62.14030838012695, 0.03200000151991844, -0.08000000566244125, 1.055999994277954, 0.0, 0.0, 0.0, 0.0, 0.0, 1.6216010580371244E9, 2021-05-21 14:44:18.037
55.0, 81.81966400146484, -31.71061134338379, 113.56767272949219, 35.97596740722656, 0.03200000151991844, -0.08000000566244125, 1.055999994277954, 0.0, 0.0, 0.0, 0.0, 0.0, 1.621601058052029E9, 2021-05-21 14:44:18.052
55.0, 2.601100444793701, -97.49545288085938, 21.04254722595215, -54.01724624633789, 0.03200000151991844, -0.08000000566244125, 1.055999994277954, 0.0, 0.0, 0.0, 0.0, 0.0, 1.621601058052029E9, 2021-05-21 14:44:18.052
56.0, 21.57735252380371, -74.76808166503906, 46.440208435058594, -29.33016586303711, 0.03200000151991844, -0.08000000566244125, 1.055999994277954, 0.0, 0.0, 0.0, 0.0, 0.0, 1.6216010580684216E9, 2021-05-21 14:44:18.068
56.0, 93.80978393554688, -16.429380416870117, 131.8445587158203, 59.84027099609375, 0.03200000151991844, -0.08000000566244125, 1.055999994277954, 0.0, 0.0, 0.0, 0.0, 0.0, 1.6216010580684216E9, 2021-05-21 14:44:18.068
57.0, 79.09327697753906, -29.051542282104492, 113.90052032470703, 32.7708740234375, 0.03200000151991844, -0.08000000566244125, 1.055999994277954, 0.0, 0.0, 0.0, 0.0, 0.0, 1.6216010580691164E9, 2021-05-21 14:44:18.069
57.0, 8.869173049926758, -102.12171173095703, 20.81441307067871, -57.1026611328125, 0.03200000151991844, -0.08000000566244125, 1.055999994277954, 0.0, 0.0, 0.0, 0.0, 0.0, 1.6216010580691164E9, 2021-05-21 14:44:18.069
58.0, 23.346324920654297, -75.88630676269531, 44.65253448486328, -29.221708297729492, 0.03200000151991844, -0.08000000566244125, 1.055999994277954, 0.0, 0.0, 0.0, 0.0, 0.0, 1.6216010580821629E9, 2021-05-21 14:44:18.082
58.0, 95.78070831298828, -11.627348899841309, 135.34510803222656, 56.11158752441406, 0.03200000151991844, -0.08000000566244125, 1.055999994277954, 0.0, 0.0, 0.0, 0.0, 0.0, 1.6216010580821629E9, 2021-05-21 14:44:18.082
59.0, 77.26820373535156, -26.052143096923828, 114.18101501464844, 40.467586517333984, 0.03200000151991844, -0.08000000566244125, 1.055999994277954, 0.0, 0.0, 0.0, 0.0, 0.0, 1.621601058097829E9, 2021-05-21 14:44:18.097
59.0, -3.5098960399627686, -93.82660675048828, 22.95737648010254, -50.65507507324219, 0.03200000151991844, -0.08000000566244125, 1.055999994277954, 0.0, 0.0, 0.0, 0.0, 0.0, 1.621601058097829E9, 2021-05-21 14:44:18.097
60.0, 25.212535858154297, -72.22494506835938, 47.966087341308594, -23.926010131835938, 0.03200000151991844, -0.08000000566244125, 1.055999994277954, 0.0, 0.0, 0.0, 0.0, 0.0, 1.6216010580985825E9, 2021-05-21 14:44:18.098
60.0, 93.56295013427734, -13.504778861999512, 135.04591369628906, 60.62938690185547, 0.03200000151991844, -0.08000000566244125, 1.055999994277954, 0.0, 0.0, 0.0, 0.0, 0.0, 1.6216010580985825E9, 2021-05-21 14:44:18.098
61.0, 75.49922943115234, -23.191120147705078, 120.6772232055664, 42.191680908203125, 0.03200000151991844, -0.08000000566244125, 1.055999994277954, 0.0, 0.0, 0.0, 0.0, 0.0, 1.621601058112253E9, 2021-05-21 14:44:18.112
61.0, 3.255582809448242, -96.86714935302734, 26.274667739868164, -50.77101135253906, 0.03200000151991844, -0.08000000566244125, 1.055999994277954, 0.0, 0.0, 0.0, 0.0, 0.0, 1.621601058112253E9, 2021-05-21 14:44:18.112
62.0, 27.953882217407227, -78.85952758789062, 49.48074722290039, -27.026386260986328, 0.03200000151991844, -0.08000000566244125, 1.055999994277954, 0.0, 0.0, 0.0, 0.0, 0.0, 1.6216010581283967E9, 2021-05-21 14:44:18.128
62.0, 88.64498138427734, -13.20932674407959, 136.3735809326172, 55.55060577392578, 0.03200000151991844, -0.08000000566244125, 1.055999994277954, 0.0, 0.0, 0.0, 0.0, 0.0, 1.6216010581283967E9, 2021-05-21 14:44:18.128
63.0, 71.81916809082031, -23.6623477935791, 120.32192993164062, 42.17298126220703, 0.03200000151991844, -0.08000000566244125, 1.055999994277954, 0.0, 0.0, 0.0, 0.0, 0.0, 1.6216010581291242E9, 2021-05-21 14:44:18.129
63.0, 1.8306810855865479, -90.53923797607422, 31.91443634033203, -48.57194900512695, 0.03200000151991844, -0.08000000566244125, 1.055999994277954, 0.0, 0.0, 0.0, 0.0, 0.0, 1.6216010581291242E9, 2021-05-21 14:44:18.129
64.0, 16.74540138244629, -76.94096374511719, 52.06501770019531, -32.00045394897461, 0.03200000151991844, -0.08000000566244125, 1.055999994277954, 0.0, 0.0, 0.0, 0.0, 0.0, 1.6216010581422744E9, 2021-05-21 14:44:18.142
64.0, 90.20077514648438, -5.965140342712402, 140.22193908691406, 57.49535369873047, 0.03200000151991844, -0.08000000566244125, 1.055999994277954, 0.0, 0.0, 0.0, 0.0, 0.0, 1.6216010581422744E9, 2021-05-21 14:44:18.142
65.0, 74.22018432617188, -22.140207290649414, 121.14470672607422, 40.849056243896484, 0.03200000151991844, -0.08000000566244125, 1.055999994277954, 0.0, 0.0, 0.0, 0.0, 0.0, 1.6216010581741738E9, 2021-05-21 14:44:18.174
65.0, 6.576613903045654, -97.69740295410156, 32.307125091552734, -52.25575256347656, 0.03200000151991844, -0.08000000566244125, 1.055999994277954, 0.0, 0.0, 0.0, 0.0, 0.0, 1.6216010581741738E9, 2021-05-21 14:44:18.174
66.0, 22.35525131225586, -75.08971405029297, 54.7427864074707, -22.486148834228516, 0.03200000151991844, -0.08000000566244125, 1.055999994277954, 0.0, 0.0, 0.0, 0.0, 0.0, 1.6216010581749115E9, 2021-05-21 14:44:18.174
66.0, 92.28764343261719, -9.188934326171875, 139.047607421875, 59.91506576538086, 0.03200000151991844, -0.08000000566244125, 1.055999994277954, 0.0, 0.0, 0.0, 0.0, 0.0, 1.6216010581749115E9, 2021-05-21 14:44:18.174
67.0, 69.5864486694336, -24.507564544677734, 121.34292602539062, 41.02109146118164, 0.03200000151991844, -0.08000000566244125, 1.055999994277954, 0.0, 0.0, 0.0, 0.0, 0.0, 1.6216010581756551E9, 2021-05-21 14:44:18.175
67.0, 3.304201602935791, -97.95545959472656, 32.76339340209961, -54.76896667480469, 0.03200000151991844, -0.08000000566244125, 1.055999994277954, 0.0, 0.0, 0.0, 0.0, 0.0, 1.6216010581756551E9, 2021-05-21 14:44:18.175
68.0, 26.89923095703125, -76.59689331054688, 59.58595657348633, -28.458768844604492, 0.03200000151991844, -0.08000000566244125, 1.055999994277954, 0.0, 0.0, 0.0, 0.0, 0.0, 1.6216010581764202E9, 2021-05-21 14:44:18.176
68.0, 96.0425033569336, -4.577637672424316, 144.32461547851562, 60.27409744262695, 0.03200000151991844, -0.08000000566244125, 1.055999994277954, 0.0, 0.0, 0.0, 0.0, 0.0, 1.6216010581764202E9, 2021-05-21 14:44:18.176
69.0, 71.90892791748047, -24.20089340209961, 125.42689514160156, 38.24982833862305, 0.03200000151991844, -0.08000000566244125, 1.055999994277954, 0.0, 0.0, 0.0, 0.0, 0.0, 1.621601058202801E9, 2021-05-21 14:44:18.202
69.0, -1.9914966821670532, -101.02965545654297, 31.705001831054688, -52.38665008544922, 0.03200000151991844, -0.08000000566244125, 1.055999994277954, 0.0, 0.0, 0.0, 0.0, 0.0, 1.621601058202801E9, 2021-05-21 14:44:18.202
70.0, 23.264047622680664, -77.79365539550781, 57.88804244995117, -24.92082405090332, 0.03200000151991844, -0.08000000566244125, 1.040000081062317, 0.0, 0.0, 0.0, 0.0, 0.0, 1.621601058203534E9, 2021-05-21 14:44:18.203
70.0, 96.3865737915039, -10.258545875549316, 142.42848205566406, 55.659061431884766, 0.03200000151991844, -0.08000000566244125, 1.040000081062317, 0.0, 0.0, 0.0, 0.0, 0.0, 1.621601058203534E9, 2021-05-21 14:44:18.203
71.0, 73.86115264892578, -29.489110946655273, 124.42459869384766, 38.50040054321289, 0.03200000151991844, -0.08000000566244125, 1.040000081062317, 0.0, 0.0, 0.0, 0.0, 0.0, 1.6216010582177467E9, 2021-05-21 14:44:18.217
71.0, 1.778322458267212, -103.67002868652344, 29.984647750854492, -57.40559387207031, 0.03200000151991844, -0.08000000566244125, 1.040000081062317, 0.0, 0.0, 0.0, 0.0, 0.0, 1.6216010582177467E9, 2021-05-21 14:44:18.217
72.0, 17.69159698486328, -77.58048248291016, 56.321022033691406, -25.27237319946289, 0.03200000151991844, -0.08000000566244125, 1.040000081062317, 0.0, 0.0, 0.0, 0.0, 0.0, 1.6216010582184613E9, 2021-05-21 14:44:18.218
72.0, 87.91944122314453, -16.623855590820312, 138.51654052734375, 59.49245834350586, 0.03200000151991844, -0.08000000566244125, 1.040000081062317, 0.0, 0.0, 0.0, 0.0, 0.0, 1.6216010582184613E9, 2021-05-21 14:44:18.218
73.0, 75.7348403930664, -27.518184661865234, 116.03226470947266, 36.32378005981445, 0.03200000151991844, -0.08000000566244125, 1.040000081062317, 0.0, 0.0, 0.0, 0.0, 0.0, 1.6216010582321732E9, 2021-05-21 14:44:18.232
73.0, 4.2129974365234375, -104.79573822021484, 23.264047622680664, -58.759437561035156, 0.03200000151991844, -0.08000000566244125, 1.040000081062317, 0.0, 0.0, 0.0, 0.0, 0.0, 1.6216010582321732E9, 2021-05-21 14:44:18.232
74.0, 26.555160522460938, -82.20674133300781, 50.311004638671875, -34.850257873535156, 0.03200000151991844, -0.08000000566244125, 1.040000081062317, 0.0, 0.0, 0.0, 0.0, 0.0, 1.621601058247792E9, 2021-05-21 14:44:18.247
74.0, 97.80773162841797, -11.79190444946289, 145.7532501220703, 62.0094108581543, 0.03200000151991844, -0.08000000566244125, 1.040000081062317, 0.0, 0.0, 0.0, 0.0, 0.0, 1.621601058247792E9, 2021-05-21 14:44:18.247
75.0, 71.8341293334961, -26.882400512695312, 122.42001342773438, 33.76942825317383, 0.03200000151991844, -0.08000000566244125, 1.040000081062317, 0.0, 0.0, 0.0, 0.0, 0.0, 1.6216010582485538E9, 2021-05-21 14:44:18.248
