Sample Index, EXG Channel 0, EXG Channel 1, EXG Channel 2, EXG Channel 3, Accel Channel 0, Accel Channel 1, Accel Channel 2, Other, Other, Other, Other, Other, Timestamp, Timestamp (Formatted)
0.0, -233.0312957763672, -488.0345153808594, 287.343994140625, 50.598976135253906, 0.0, 0.0, 0.0, 0.0, 0.0, 0.0, 0.0, 0.0, 1.6216049106259928E9, 2021-05-21 15:48:30.625
1.0, -196.85523986816406, -446.1064758300781, 333.29241943359375, 94.83077239990234, 0.0, 0.0, 0.0, 0.0, 0.0, 0.0, 0.0, 0.0, 1.621604910639516E9, 2021-05-21 15:48:30.639
1.0, -203.41128540039062, -463.17913818359375, 311.4364318847656, 78.40887451171875, 0.0, 0.0, 0.0, 0.0, 0.0, 0.0, 0.0, 0.0, 1.621604910639516E9, 2021-05-21 15:48:30.639
2.0, -240.58963012695312, -505.39886474609375, 267.0625305175781, 40.475067138671875, 0.03200000151991844, 0.0, 0.0, 0.0, 0.0, 0.0, 0.0, 0.0, 1.6216049106560867E9, 2021-05-21 15:48:30.656
2.0, -223.2439727783203, -491.4714660644531, 285.5114440917969, 51.19736099243164, 0.03200000151991844, 0.0, 0.0, 0.0, 0.0, 0.0, 0.0, 0.0, 1.6216049106560867E9, 2021-05-21 15:48:30.656
3.0, -187.01930236816406, -449.1844177246094, 327.2449951171875, 89.1760482788086, 0.03200000151991844, 0.0, 0.0, 0.0, 0.0, 0.0, 0.0, 0.0, 1.6216049106569183E9, 2021-05-21 15:48:30.656
3.0, -197.10208129882812, -461.2231750488281, 316.7994384765625, 76.88299560546875, 0.03200000151991844, 0.0, 0.0, 0.0, 0.0, 0.0, 0.0, 0.0, 1.6216049106569183E9, 2021-05-21 15:48:30.656
4.0, -232.88917541503906, -505.5559387207031, 265.05419921875, 32.50907897949219, 0.03200000151991844, 0.0, 0.0, 0.0, 0.0, 0.0, 0.0, 0.0, 1.6216049106691277E9, 2021-05-21 15:48:30.669
4.0, -224.84091186523438, -483.7410888671875, 277.4594421386719, 48.08950424194336, 0.03200000151991844, 0.0, 0.0, 0.0, 0.0, 0.0, 0.0, 0.0, 1.6216049106691277E9, 2021-05-21 15:48:30.669
5.0, -194.06153869628906, -433.839599609375, 328.542724609375, 88.1550521850586, 0.03200000151991844, 0.0, 0.0, 0.0, 0.0, 0.0, 0.0, 0.0, 1.6216049107005918E9, 2021-05-21 15:48:30.700
5.0, -203.3664093017578, -454.5923156738281, 319.8848571777344, 76.31452941894531, 0.03200000151991844, 0.0, 0.0, 0.0, 0.0, 0.0, 0.0, 0.0, 1.6216049107005918E9, 2021-05-21 15:48:30.700
6.0, -230.529296875, -497.41790771484375, 276.4122619628906, 37.273712158203125, 0.03200000151991844, 0.0, 0.0, 0.0, 0.0, 0.0, 0.0, 0.0, 1.6216049107012098E9, 2021-05-21 15:48:30.701
6.0, -222.95974731445312, -487.2865295410156, 289.78240966796875, 46.70574188232422, 0.03200000151991844, 0.0, 0.0, 0.0, 0.0, 0.0, 0.0, 0.0, 1.6216049107012098E9, 2021-05-21 15:48:30.701
7.0, -192.6441192626953, -437.572021484375, 334.4629821777344, 88.68238067626953, 0.03200000151991844, 0.0, 0.0, 0.0, 0.0, 0.0, 0.0, 0.0, 1.62160491070194E9, 2021-05-21 15:48:30.701
7.0, -200.37823486328125, -453.0701904296875, 328.9279479980469, 80.54061889648438, 0.03200000151991844, 0.0, 0.0, 0.0, 0.0, 0.0, 0.0, 0.0, 1.62160491070194E9, 2021-05-21 15:48:30.701
8.0, -236.05686950683594, -494.0856628417969, 280.8103942871094, 37.82721710205078, 0.03200000151991844, 0.0, 0.0, 0.0, 0.0, 0.0, 0.0, 0.0, 1.6216049107148144E9, 2021-05-21 15:48:30.714
8.0, -227.59347534179688, -477.7796936035156, 294.9284973144531, 55.74134063720703, 0.03200000151991844, 0.0, 0.0, 0.0, 0.0, 0.0, 0.0, 0.0, 1.6216049107148144E9, 2021-05-21 15:48:30.714
9.0, -189.1510467529297, -432.6017150878906, 343.8538818359375, 102.39659118652344, 0.03200000151991844, 0.0, 0.0, 0.0, 0.0, 0.0, 0.0, 0.0, 1.621604910715562E9, 2021-05-21 15:48:30.715
9.0, -203.02981567382812, -453.93035888671875, 321.5154724121094, 82.74715423583984, 0.03200000151991844, 0.0, 0.0, 0.0, 0.0, 0.0, 0.0, 0.0, 1.621604910715562E9, 2021-05-21 15:48:30.715
10.0, -239.02261352539062, -499.4112854003906, 276.9582824707031, 36.69776916503906, 0.03200000151991844, 0.0, 1.055999994277954, 0.0, 0.0, 0.0, 0.0, 0.0, 1.6216049107291365E9, 2021-05-21 15:48:30.729
10.0, -223.9582977294922, -477.80963134765625, 291.2933349609375, 52.73072052001953, 0.03200000151991844, 0.0, 1.055999994277954, 0.0, 0.0, 0.0, 0.0, 0.0, 1.6216049107291365E9, 2021-05-21 15:48:30.729
11.0, -198.1866455078125, -440.9154968261719, 328.5913391113281, 97.31781005859375, 0.03200000151991844, 0.0, 1.055999994277954, 0.0, 0.0, 0.0, 0.0, 0.0, 1.6216049107448032E9, 2021-05-21 15:48:30.744
11.0, -207.9365692138672, -454.84661865234375, 316.77325439453125, 83.75318908691406, 0.03200000151991844, 0.0, 1.055999994277954, 0.0, 0.0, 0.0, 0.0, 0.0, 1.6216049107448032E9, 2021-05-21 15:48:30.744
12.0, -244.12757873535156, -506.96588134765625, 269.11572265625, 40.96873474121094, 0.03200000151991844, 0.0, 1.055999994277954, 0.0, 0.0, 0.0, 0.0, 0.0, 1.621604910745515E9, 2021-05-21 15:48:30.745
12.0, -222.62689208984375, -484.3880920410156, 285.4254150390625, 57.4729118347168, 0.03200000151991844, 0.0, 1.055999994277954, 0.0, 0.0, 0.0, 0.0, 0.0, 1.621604910745515E9, 2021-05-21 15:48:30.745
13.0, -192.06443786621094, -439.09417724609375, 328.1014099121094, 92.93838500976562, 0.03200000151991844, 0.0, 1.055999994277954, 0.0, 0.0, 0.0, 0.0, 0.0, 1.621604910759145E9, 2021-05-21 15:48:30.759
13.0, -207.9029083251953, -453.4441833496094, 319.20794677734375, 82.48536682128906, 0.03200000151991844, 0.0, 1.055999994277954, 0.0, 0.0, 0.0, 0.0, 0.0, 1.621604910759145E9, 2021-05-21 15:48:30.759
14.0, -235.1031951904297, -499.041015625, 273.5362854003906, 32.744693756103516, 0.03200000151991844, 0.0, 1.055999994277954, 0.0, 0.0, 0.0, 0.0, 0.0, 1.6216049107748213E9, 2021-05-21 15:48:30.774
14.0, -216.8412628173828, -476.1678161621094, 286.2108154296875, 52.61104202270508, 0.03200000151991844, 0.0, 1.055999994277954, 0.0, 0.0, 0.0, 0.0, 0.0, 1.6216049107748213E9, 2021-05-21 15:48:30.774
15.0, -187.11280822753906, -432.6578063964844, 337.2529602050781, 94.10149383544922, 0.03200000151991844, 0.0, 1.055999994277954, 0.0, 0.0, 0.0, 0.0, 0.0, 1.62160491077554E9, 2021-05-21 15:48:30.775
15.0, -199.56292724609375, -442.07861328125, 321.34716796875, 78.001220703125, 0.03200000151991844, 0.0, 1.055999994277954, 0.0, 0.0, 0.0, 0.0, 0.0, 1.62160491077554E9, 2021-05-21 15:48:30.775
16.0, -236.66647338867188, -490.90301513671875, 269.9235534667969, 31.278654098510742, 0.03200000151991844, 0.0, 1.055999994277954, 0.0, 0.0, 0.0, 0.0, 0.0, 1.6216049107891796E9, 2021-05-21 15:48:30.789
16.0, -221.57598876953125, -471.7173156738281, 296.55535888671875, 54.12196350097656, 0.03200000151991844, 0.0, 1.055999994277954, 0.0, 0.0, 0.0, 0.0, 0.0, 1.6216049107891796E9, 2021-05-21 15:48:30.789
17.0, -188.32827758789062, -431.7078857421875, 341.29205322265625, 94.10897064208984, 0.03200000151991844, 0.0, 1.055999994277954, 0.0, 0.0, 0.0, 0.0, 0.0, 1.6216049108048718E9, 2021-05-21 15:48:30.804
17.0, -199.34226989746094, -447.47528076171875, 322.35321044921875, 81.88323974609375, 0.03200000151991844, 0.0, 1.055999994277954, 0.0, 0.0, 0.0, 0.0, 0.0, 1.6216049108048718E9, 2021-05-21 15:48:30.804
18.0, -241.1319122314453, -491.4452819824219, 272.7022705078125, 39.58123016357422, 0.03200000151991844, 0.0, 1.055999994277954, 0.0, 0.0, 0.0, 0.0, 0.0, 1.621604910805605E9, 2021-05-21 15:48:30.805
18.0, -220.09872436523438, -465.5614318847656, 295.1042785644531, 56.85582733154297, 0.03200000151991844, 0.0, 1.055999994277954, 0.0, 0.0, 0.0, 0.0, 0.0, 1.621604910805605E9, 2021-05-21 15:48:30.805
19.0, -188.3544464111328, -438.2676696777344, 336.9126281738281, 97.82643127441406, 0.03200000151991844, 0.0, 1.055999994277954, 0.0, 0.0, 0.0, 0.0, 0.0, 1.6216049108192372E9, 2021-05-21 15:48:30.819
19.0, -199.9743194580078, -453.37310791015625, 316.3020324707031, 78.80530548095703, 0.03200000151991844, 0.0, 1.055999994277954, 0.0, 0.0, 0.0, 0.0, 0.0, 1.6216049108192372E9, 2021-05-21 15:48:30.819
20.0, -239.41529846191406, -493.0085754394531, 266.3594055175781, 34.509925842285156, 0.03200000151991844, 0.0, 1.055999994277954, 0.0, 0.0, 0.0, 0.0, 0.0, 1.6216049108345497E9, 2021-05-21 15:48:30.834
20.0, -228.2068328857422, -478.93157958984375, 285.8929138183594, 52.77933883666992, 0.03200000151991844, 0.0, 1.055999994277954, 0.0, 0.0, 0.0, 0.0, 0.0, 1.6216049108345497E9, 2021-05-21 15:48:30.834
21.0, -182.7259063720703, -433.5441589355469, 335.25958251953125, 100.13394927978516, 0.03200000151991844, 0.0, 1.055999994277954, 0.0, 0.0, 0.0, 0.0, 0.0, 1.6216049108498747E9, 2021-05-21 15:48:30.849
21.0, -197.77151489257812, -448.9862060546875, 312.9847412109375, 85.70915985107422, 0.03200000151991844, 0.0, 1.055999994277954, 0.0, 0.0, 0.0, 0.0, 0.0, 1.6216049108498747E9, 2021-05-21 15:48:30.849
22.0, -237.76226806640625, -490.8544006347656, 271.1390075683594, 32.56517791748047, 0.03200000151991844, 0.0, 1.055999994277954, 0.0, 0.0, 0.0, 0.0, 0.0, 1.621604910850464E9, 2021-05-21 15:48:30.850
22.0, -214.27195739746094, -461.6345520019531, 299.43133544921875, 52.880313873291016, 0.03200000151991844, 0.0, 1.055999994277954, 0.0, 0.0, 0.0, 0.0, 0.0, 1.621604910850464E9, 2021-05-21 15:48:30.850
23.0, -181.09530639648438, -430.2605285644531, 340.9479675292969, 92.30259704589844, 0.03200000151991844, 0.0, 1.055999994277954, 0.0, 0.0, 0.0, 0.0, 0.0, 1.621604910864806E9, 2021-05-21 15:48:30.864
23.0, -197.5022430419922, -448.8141784667969, 321.7174072265625, 76.22476959228516, 0.03200000151991844, 0.0, 1.055999994277954, 0.0, 0.0, 0.0, 0.0, 0.0, 1.621604910864806E9, 2021-05-21 15:48:30.864
24.0, -232.1898193359375, -483.7897033691406, 279.4902038574219, 30.055706024169922, 0.03200000151991844, 0.0, 1.055999994277954, 0.0, 0.0, 0.0, 0.0, 0.0, 1.6216049108655255E9, 2021-05-21 15:48:30.865
24.0, -215.693115234375, -464.39459228515625, 303.54522705078125, 54.791404724121094, 0.03200000151991844, 0.0, 1.055999994277954, 0.0, 0.0, 0.0, 0.0, 0.0, 1.6216049108655255E9, 2021-05-21 15:48:30.865
25.0, -186.77247619628906, -427.923095703125, 349.12713623046875, 93.15155792236328, 0.03200000151991844, 0.0, 1.055999994277954, 0.0, 0.0, 0.0, 0.0, 0.0, 1.621604910879138E9, 2021-05-21 15:48:30.879
25.0, -194.42056274414062, -442.26934814453125, 334.9903259277344, 81.01557922363281, 0.03200000151991844, 0.0, 1.055999994277954, 0.0, 0.0, 0.0, 0.0, 0.0, 1.621604910879138E9, 2021-05-21 15:48:30.879
26.0, -228.2442169189453, -489.309814453125, 285.2272033691406, 37.64022445678711, 0.03200000151991844, 0.0, 1.055999994277954, 0.0, 0.0, 0.0, 0.0, 0.0, 1.6216049108945856E9, 2021-05-21 15:48:30.894
26.0, -217.20030212402344, -475.4646911621094, 299.8876037597656, 52.1136360168457, 0.03200000151991844, 0.0, 1.055999994277954, 0.0, 0.0, 0.0, 0.0, 0.0, 1.6216049108945856E9, 2021-05-21 15:48:30.894
27.0, -188.51527404785156, -430.6644287109375, 337.96728515625, 96.30055236816406, 0.03200000151991844, 0.0, 1.055999994277954, 0.0, 0.0, 0.0, 0.0, 0.0, 1.621604910909812E9, 2021-05-21 15:48:30.909
27.0, -204.97830200195312, -450.6990966796875, 320.92828369140625, 81.0716781616211, 0.03200000151991844, 0.0, 1.055999994277954, 0.0, 0.0, 0.0, 0.0, 0.0, 1.621604910909812E9, 2021-05-21 15:48:30.909
28.0, -239.93141174316406, -493.57330322265625, 271.322265625, 35.98344802856445, 0.03200000151991844, 0.0, 1.055999994277954, 0.0, 0.0, 0.0, 0.0, 0.0, 1.6216049109105172E9, 2021-05-21 15:48:30.910
28.0, -223.3786163330078, -474.8102111816406, 294.05712890625, 53.05982971191406, 0.03200000151991844, 0.0, 1.055999994277954, 0.0, 0.0, 0.0, 0.0, 0.0, 1.6216049109105172E9, 2021-05-21 15:48:30.910
29.0, -186.6640167236328, -436.30047607421875, 340.069091796875, 95.18980407714844, 0.03200000151991844, 0.0, 1.055999994277954, 0.0, 0.0, 0.0, 0.0, 0.0, 1.6216049109248135E9, 2021-05-21 15:48:30.924
29.0, -203.744140625, -446.35333251953125, 319.1817626953125, 77.47016143798828, 0.03200000151991844, 0.0, 1.055999994277954, 0.0, 0.0, 0.0, 0.0, 0.0, 1.6216049109248135E9, 2021-05-21 15:48:30.924
30.0, -237.64633178710938, -485.15478515625, 273.7681579589844, 35.141971588134766, 0.03200000151991844, 0.0, 1.055999994277954, 0.0, 0.0, 0.0, 0.0, 0.0, 1.6216049109255195E9, 2021-05-21 15:48:30.925
30.0, -223.12429809570312, -469.9259033203125, 292.54620361328125, 51.18988037109375, 0.03200000151991844, 0.0, 1.055999994277954, 0.0, 0.0, 0.0, 0.0, 0.0, 1.6216049109255195E9, 2021-05-21 15:48:30.925
31.0, -192.1691436767578, -427.3695983886719, 332.4808349609375, 92.99822235107422, 0.03200000151991844, 0.0, 1.055999994277954, 0.0, 0.0, 0.0, 0.0, 0.0, 1.6216049109392257E9, 2021-05-21 15:48:30.939
31.0, -198.49331665039062, -436.7193298339844, 326.1080627441406, 84.74052429199219, 0.03200000151991844, 0.0, 1.055999994277954, 0.0, 0.0, 0.0, 0.0, 0.0, 1.6216049109392257E9, 2021-05-21 15:48:30.939
32.0, -234.04481506347656, -477.5552978515625, 279.9090576171875, 39.70838928222656, 0.03200000151991844, 0.0, 1.055999994277954, 0.0, 0.0, 0.0, 0.0, 0.0, 1.6216049109552443E9, 2021-05-21 15:48:30.955
32.0, -221.16085815429688, -462.9173278808594, 304.5924072265625, 53.123409271240234, 0.03200000151991844, 0.0, 1.055999994277954, 0.0, 0.0, 0.0, 0.0, 0.0, 1.6216049109552443E9, 2021-05-21 15:48:30.955
33.0, -184.95114135742188, -412.2005615234375, 351.59173583984375, 103.436279296875, 0.03200000151991844, 0.0, 1.055999994277954, 0.0, 0.0, 0.0, 0.0, 0.0, 1.6216049109699342E9, 2021-05-21 15:48:30.969
33.0, -198.42225646972656, -434.7409362792969, 331.0260314941406, 85.73907470703125, 0.03200000151991844, 0.0, 1.055999994277954, 0.0, 0.0, 0.0, 0.0, 0.0, 1.6216049109699342E9, 2021-05-21 15:48:30.969
34.0, -228.70423889160156, -478.22100830078125, 286.4576416015625, 40.41522979736328, 0.03200000151991844, 0.0, 1.055999994277954, 0.0, 0.0, 0.0, 0.0, 0.0, 1.6216049109706328E9, 2021-05-21 15:48:30.970
34.0, -217.6378631591797, -467.4650573730469, 302.7561340332031, 58.478946685791016, 0.03200000151991844, 0.0, 1.055999994277954, 0.0, 0.0, 0.0, 0.0, 0.0, 1.6216049109706328E9, 2021-05-21 15:48:30.970
35.0, -188.8107147216797, -425.2341003417969, 344.1044616699219, 96.18087768554688, 0.03200000151991844, 0.0, 1.055999994277954, 0.0, 0.0, 0.0, 0.0, 0.0, 1.6216049109848735E9, 2021-05-21 15:48:30.984
35.0, -204.0395965576172, -438.0806579589844, 322.5663757324219, 86.82364654541016, 0.03200000151991844, 0.0, 1.055999994277954, 0.0, 0.0, 0.0, 0.0, 0.0, 1.6216049109848735E9, 2021-05-21 15:48:30.984
36.0, -236.5206298828125, -482.95947265625, 284.4605407714844, 40.96125411987305, 0.03200000151991844, 0.0, 1.055999994277954, 0.0, 0.0, 0.0, 0.0, 0.0, 1.6216049109855673E9, 2021-05-21 15:48:30.985
36.0, -218.59153747558594, -464.0617370605469, 298.0588073730469, 53.654476165771484, 0.03200000151991844, 0.0, 1.055999994277954, 0.0, 0.0, 0.0, 0.0, 0.0, 1.6216049109855673E9, 2021-05-21 15:48:30.985
37.0, -189.6147918701172, -424.1495361328125, 337.09588623046875, 96.24071502685547, 0.03200000151991844, 0.0, 1.055999994277954, 0.0, 0.0, 0.0, 0.0, 0.0, 1.6216049109991424E9, 2021-05-21 15:48:30.999
37.0, -204.507080078125, -441.1473693847656, 320.10552978515625, 79.15311431884766, 0.03200000151991844, 0.0, 1.055999994277954, 0.0, 0.0, 0.0, 0.0, 0.0, 1.6216049109991424E9, 2021-05-21 15:48:30.999
38.0, -237.6650390625, -479.7506408691406, 272.5713806152344, 37.62526321411133, 0.03200000151991844, 0.0, 1.055999994277954, 0.0, 0.0, 0.0, 0.0, 0.0, 1.6216049110153108E9, 2021-05-21 15:48:31.015
38.0, -226.80810546875, -457.1242370605469, 291.1885986328125, 57.334537506103516, 0.03200000151991844, 0.0, 1.055999994277954, 0.0, 0.0, 0.0, 0.0, 0.0, 1.6216049110153108E9, 2021-05-21 15:48:31.015
39.0, -193.8109588623047, -411.4488220214844, 342.0063781738281, 102.21707916259766, 0.03200000151991844, 0.0, 1.055999994277954, 0.0, 0.0, 0.0, 0.0, 0.0, 1.6216049110298047E9, 2021-05-21 15:48:31.029
39.0, -202.6371307373047, -435.387939453125, 329.2458190917969, 88.18497467041016, 0.03200000151991844, 0.0, 1.055999994277954, 0.0, 0.0, 0.0, 0.0, 0.0, 1.6216049110298047E9, 2021-05-21 15:48:31.029
40.0, -238.40553283691406, -484.1936340332031, 279.3780212402344, 40.953773498535156, 0.03200000151991844, 0.0, 1.055999994277954, 0.0, 0.0, 0.0, 0.0, 0.0, 1.6216049110305452E9, 2021-05-21 15:48:31.030
40.0, -225.4916534423828, -456.58941650390625, 302.7710876464844, 55.87971496582031, 0.03200000151991844, 0.0, 1.055999994277954, 0.0, 0.0, 0.0, 0.0, 0.0, 1.6216049110305452E9, 2021-05-21 15:48:31.030
41.0, -190.96490478515625, -413.9770202636719, 357.2801208496094, 101.46161651611328, 0.03200000151991844, 0.0, 1.055999994277954, 0.0, 0.0, 0.0, 0.0, 0.0, 1.621604911044922E9, 2021-05-21 15:48:31.044
41.0, -199.90325927734375, -425.4397888183594, 346.0604248046875, 90.51866912841797, 0.03200000151991844, 0.0, 1.055999994277954, 0.0, 0.0, 0.0, 0.0, 0.0, 1.621604911044922E9, 2021-05-21 15:48:31.044
42.0, -230.8733673095703, -470.5691833496094, 302.7748107910156, 42.532012939453125, 0.03200000151991844, 0.0, 1.055999994277954, 0.0, 0.0, 0.0, 0.0, 0.0, 1.6216049110456135E9, 2021-05-21 15:48:31.045
42.0, -221.86769104003906, -447.51641845703125, 311.8440856933594, 61.56062316894531, 0.03200000151991844, 0.0, 1.055999994277954, 0.0, 0.0, 0.0, 0.0, 0.0, 1.6216049110456135E9, 2021-05-21 15:48:31.045
43.0, -192.98818969726562, -412.58203125, 351.113037109375, 99.77117919921875, 0.03200000151991844, 0.0, 1.055999994277954, 0.0, 0.0, 0.0, 0.0, 0.0, 1.6216049110591211E9, 2021-05-21 15:48:31.059
43.0, -201.9976043701172, -429.3966064453125, 333.8646240234375, 89.04888916015625, 0.03200000151991844, 0.0, 1.055999994277954, 0.0, 0.0, 0.0, 0.0, 0.0, 1.6216049110591211E9, 2021-05-21 15:48:31.059
44.0, -235.18173217773438, -472.5999450683594, 287.60205078125, 47.158267974853516, 0.03200000151991844, 0.0, 1.055999994277954, 0.0, 0.0, 0.0, 0.0, 0.0, 1.6216049110752647E9, 2021-05-21 15:48:31.075
44.0, -224.07049560546875, -456.51837158203125, 304.6223449707031, 63.729766845703125, 0.03200000151991844, 0.0, 1.055999994277954, 0.0, 0.0, 0.0, 0.0, 0.0, 1.6216049110752647E9, 2021-05-21 15:48:31.075
45.0, -191.89239501953125, -413.5282287597656, 352.39581298828125, 108.72824096679688, 0.03200000151991844, 0.0, 1.055999994277954, 0.0, 0.0, 0.0, 0.0, 0.0, 1.6216049110898902E9, 2021-05-21 15:48:31.089
45.0, -207.45785522460938, -430.90753173828125, 331.7216491699219, 97.6543960571289, 0.03200000151991844, 0.0, 1.055999994277954, 0.0, 0.0, 0.0, 0.0, 0.0, 1.6216049110898902E9, 2021-05-21 15:48:31.089
46.0, -243.9293670654297, -475.26275634765625, 287.5272521972656, 46.46638870239258, 0.03200000151991844, 0.0, 1.055999994277954, 0.0, 0.0, 0.0, 0.0, 0.0, 1.6216049110906315E9, 2021-05-21 15:48:31.090
46.0, -228.98846435546875, -450.07452392578125, 307.7040100097656, 63.83822250366211, 0.03200000151991844, 0.0, 1.055999994277954, 0.0, 0.0, 0.0, 0.0, 0.0, 1.6216049110906315E9, 2021-05-21 15:48:31.090
47.0, -189.7494354248047, -408.931884765625, 351.4122314453125, 106.44316101074219, 0.03200000151991844, 0.0, 1.055999994277954, 0.0, 0.0, 0.0, 0.0, 0.0, 1.621604911104958E9, 2021-05-21 15:48:31.104
47.0, -205.18026733398438, -428.2409973144531, 330.1434020996094, 88.28594970703125, 0.03200000151991844, 0.0, 1.055999994277954, 0.0, 0.0, 0.0, 0.0, 0.0, 1.621604911104958E9, 2021-05-21 15:48:31.104
48.0, -235.93345642089844, -476.2164306640625, 287.78155517578125, 47.13956832885742, 0.03200000151991844, 0.0, 1.055999994277954, 0.0, 0.0, 0.0, 0.0, 0.0, 1.6216049111056273E9, 2021-05-21 15:48:31.105
48.0, -219.085205078125, -457.8198547363281, 308.65020751953125, 65.32295989990234, 0.03200000151991844, 0.0, 1.055999994277954, 0.0, 0.0, 0.0, 0.0, 0.0, 1.6216049111056273E9, 2021-05-21 15:48:31.105
49.0, -183.20460510253906, -421.3932189941406, 348.3941345214844, 102.35545349121094, 0.03200000151991844, 0.0, 1.055999994277954, 0.0, 0.0, 0.0, 0.0, 0.0, 1.621604911135501E9, 2021-05-21 15:48:31.135
49.0, -193.00314331054688, -430.14459228515625, 334.130126953125, 84.64702606201172, 0.03200000151991844, 0.0, 1.055999994277954, 0.0, 0.0, 0.0, 0.0, 0.0, 1.621604911135501E9, 2021-05-21 15:48:31.135
50.0, -232.13746643066406, -462.3189392089844, 292.7743225097656, 45.82686233520508, 0.03200000151991844, 0.0, 1.055999994277954, 0.0, 0.0, 0.0, 0.0, 0.0, 1.6216049111362193E9, 2021-05-21 15:48:31.136
50.0, -211.56053161621094, -450.800048828125, 308.6277770996094, 59.608394622802734, 0.03200000151991844, 0.0, 1.055999994277954, 0.0, 0.0, 0.0, 0.0, 0.0, 1.6216049111362193E9, 2021-05-21 15:48:31.136
51.0, -178.82518005371094, -411.0037841796875, 352.9979248046875, 101.66731262207031, 0.03200000151991844, 0.0, 1.055999994277954, 0.0, 0.0, 0.0, 0.0, 0.0, 1.6216049111371176E9, 2021-05-21 15:48:31.137
51.0, -192.15419006347656, -423.8017272949219, 338.9695739746094, 84.23189544677734, 0.03200000151991844, 0.0, 1.055999994277954, 0.0, 0.0, 0.0, 0.0, 0.0, 1.6216049111371176E9, 2021-05-21 15:48:31.137
52.0, -230.47694396972656, -473.4862976074219, 288.9932861328125, 40.44514846801758, 0.03200000151991844, 0.0, 1.055999994277954, 0.0, 0.0, 0.0, 0.0, 0.0, 1.6216049111491385E9, 2021-05-21 15:48:31.149
52.0, -208.34422302246094, -454.5100402832031, 305.841552734375, 61.93461227416992, 0.03200000151991844, 0.0, 1.055999994277954, 0.0, 0.0, 0.0, 0.0, 0.0, 1.6216049111491385E9, 2021-05-21 15:48:31.149
53.0, -184.06478881835938, -413.48333740234375, 348.7381896972656, 99.31117248535156, 0.03200000151991844, 0.0, 1.055999994277954, 0.0, 0.0, 0.0, 0.0, 0.0, 1.6216049111649237E9, 2021-05-21 15:48:31.164
53.0, -188.58631896972656, -428.51025390625, 331.91986083984375, 88.31212615966797, 0.03200000151991844, 0.0, 1.055999994277954, 0.0, 0.0, 0.0, 0.0, 0.0, 1.6216049111649237E9, 2021-05-21 15:48:31.164
54.0, -240.04734802246094, -477.08782958984375, 277.3135681152344, 44.577735900878906, 0.03200000151991844, 0.0, 1.055999994277954, 0.0, 0.0, 0.0, 0.0, 0.0, 1.6216049111655607E9, 2021-05-21 15:48:31.165
54.0, -226.79689025878906, -460.7519226074219, 296.1177978515625, 63.770904541015625, 0.03200000151991844, 0.0, 1.055999994277954, 0.0, 0.0, 0.0, 0.0, 0.0, 1.6216049111655607E9, 2021-05-21 15:48:31.165
55.0, -191.69418334960938, -422.2795715332031, 337.09588623046875, 103.08847045898438, 0.03200000151991844, 0.0, 1.055999994277954, 0.0, 0.0, 0.0, 0.0, 0.0, 1.621604911179201E9, 2021-05-21 15:48:31.179
55.0, -204.32008361816406, -435.2159118652344, 327.6563720703125, 90.806640625, 0.03200000151991844, 0.0, 1.055999994277954, 0.0, 0.0, 0.0, 0.0, 0.0, 1.621604911179201E9, 2021-05-21 15:48:31.179
56.0, -230.4993896484375, -475.0533142089844, 283.9481506347656, 51.208580017089844, 0.03200000151991844, 0.0, 1.055999994277954, 0.0, 0.0, 0.0, 0.0, 0.0, 1.6216049111948733E9, 2021-05-21 15:48:31.194
56.0, -220.71206665039062, -458.2948303222656, 301.81365966796875, 65.06491088867188, 0.03200000151991844, 0.0, 1.055999994277954, 0.0, 0.0, 0.0, 0.0, 0.0, 1.6216049111948733E9, 2021-05-21 15:48:31.194
57.0, -194.6300048828125, -417.3429260253906, 340.7946472167969, 103.28294372558594, 0.03200000151991844, 0.0, 1.055999994277954, 0.0, 0.0, 0.0, 0.0, 0.0, 1.621604911195546E9, 2021-05-21 15:48:31.195
57.0, -199.30113220214844, -425.4659729003906, 329.8965759277344, 86.62169647216797, 0.03200000151991844, 0.0, 1.055999994277954, 0.0, 0.0, 0.0, 0.0, 0.0, 1.621604911195546E9, 2021-05-21 15:48:31.195
58.0, -227.93006896972656, -471.0890197753906, 282.41107177734375, 39.00902557373047, 0.03200000151991844, 0.0, 1.055999994277954, 0.0, 0.0, 0.0, 0.0, 0.0, 1.6216049112091863E9, 2021-05-21 15:48:31.209
58.0, -212.12152099609375, -453.83685302734375, 308.3584899902344, 64.6273422241211, 0.03200000151991844, 0.0, 1.055999994277954, 0.0, 0.0, 0.0, 0.0, 0.0, 1.6216049112091863E9, 2021-05-21 15:48:31.209
59.0, -178.67184448242188, -415.77215576171875, 352.5753173828125, 100.03297424316406, 0.03200000151991844, 0.0, 1.055999994277954, 0.0, 0.0, 0.0, 0.0, 0.0, 1.6216049112248957E9, 2021-05-21 15:48:31.224
59.0, -193.59779357910156, -430.0997009277344, 335.1436462402344, 85.87744903564453, 0.03200000151991844, 0.0, 1.055999994277954, 0.0, 0.0, 0.0, 0.0, 0.0, 1.6216049112248957E9, 2021-05-21 15:48:31.224
60.0, -224.42578125, -469.36865234375, 296.8583068847656, 46.103614807128906, 0.03200000151991844, 0.0, 1.055999994277954, 0.0, 0.0, 0.0, 0.0, 0.0, 1.6216049112256577E9, 2021-05-21 15:48:31.225
60.0, -216.23915100097656, -453.1225280761719, 312.0385437011719, 63.41561508178711, 0.03200000151991844, 0.0, 1.055999994277954, 0.0, 0.0, 0.0, 0.0, 0.0, 1.6216049112256577E9, 2021-05-21 15:48:31.225
61.0, -183.04379272460938, -419.9757995605469, 349.9200134277344, 102.43025207519531, 0.03200000151991844, 0.0, 1.055999994277954, 0.0, 0.0, 0.0, 0.0, 0.0, 1.621604911239333E9, 2021-05-21 15:48:31.239
61.0, -196.3989715576172, -430.70556640625, 333.3447570800781, 82.54146575927734, 0.03200000151991844, 0.0, 1.055999994277954, 0.0, 0.0, 0.0, 0.0, 0.0, 1.621604911239333E9, 2021-05-21 15:48:31.239
62.0, -239.12359619140625, -468.53839111328125, 283.8210144042969, 38.474220275878906, 0.03200000151991844, 0.0, 1.055999994277954, 0.0, 0.0, 0.0, 0.0, 0.0, 1.6216049112555292E9, 2021-05-21 15:48:31.255
62.0, -215.4051513671875, -450.33258056640625, 306.1818542480469, 57.02412414550781, 0.03200000151991844, 0.0, 1.055999994277954, 0.0, 0.0, 0.0, 0.0, 0.0, 1.6216049112555292E9, 2021-05-21 15:48:31.255
63.0, -184.1582794189453, -412.828857421875, 347.10760498046875, 104.99208068847656, 0.03200000151991844, 0.0, 1.055999994277954, 0.0, 0.0, 0.0, 0.0, 0.0, 1.621604911256271E9, 2021-05-21 15:48:31.256
63.0, -202.27435302734375, -427.5902404785156, 326.3698425292969, 86.2065658569336, 0.03200000151991844, 0.0, 1.055999994277954, 0.0, 0.0, 0.0, 0.0, 0.0, 1.621604911256271E9, 2021-05-21 15:48:31.256
64.0, -232.0626678466797, -469.1143493652344, 280.2793273925781, 42.46469497680664, 0.03200000151991844, 0.0, 1.055999994277954, 0.0, 0.0, 0.0, 0.0, 0.0, 1.621604911269137E9, 2021-05-21 15:48:31.269
64.0, -212.7311248779297, -454.8241882324219, 300.8899230957031, 57.319576263427734, 0.03200000151991844, 0.0, 1.055999994277954, 0.0, 0.0, 0.0, 0.0, 0.0, 1.621604911269137E9, 2021-05-21 15:48:31.269
65.0, -181.85076904296875, -417.0250244140625, 346.89068603515625, 104.71907043457031, 0.03200000151991844, 0.0, 1.055999994277954, 0.0, 0.0, 0.0, 0.0, 0.0, 1.6216049112848592E9, 2021-05-21 15:48:31.284
65.0, -202.5997314453125, -434.7371826171875, 326.7999267578125, 86.53941345214844, 0.03200000151991844, 0.0, 1.055999994277954, 0.0, 0.0, 0.0, 0.0, 0.0, 1.6216049112848592E9, 2021-05-21 15:48:31.284
66.0, -231.5914306640625, -472.5662841796875, 287.7890319824219, 47.962345123291016, 0.03200000151991844, 0.0, 1.055999994277954, 0.0, 0.0, 0.0, 0.0, 0.0, 1.62160491128554E9, 2021-05-21 15:48:31.285
66.0, -212.75729370117188, -451.4844665527344, 313.29888916015625, 73.67790222167969, 0.03200000151991844, 0.0, 1.055999994277954, 0.0, 0.0, 0.0, 0.0, 0.0, 1.62160491128554E9, 2021-05-21 15:48:31.285
67.0, -181.3047332763672, -411.2281799316406, 357.0332946777344, 106.73861694335938, 0.03200000151991844, 0.0, 1.055999994277954, 0.0, 0.0, 0.0, 0.0, 0.0, 1.62160491131556E9, 2021-05-21 15:48:31.315
67.0, -186.0618896484375, -425.81378173828125, 344.2540588378906, 92.15300750732422, 0.03200000151991844, 0.0, 1.055999994277954, 0.0, 0.0, 0.0, 0.0, 0.0, 1.62160491131556E9, 2021-05-21 15:48:31.315
68.0, -223.1205596923828, -470.060546875, 295.13421630859375, 44.59269714355469, 0.03200000151991844, 0.0, 1.055999994277954, 0.0, 0.0, 0.0, 0.0, 0.0, 1.6216049113162513E9, 2021-05-21 15:48:31.316
68.0, -209.14080810546875, -453.4067687988281, 310.2022705078125, 59.99360656738281, 0.03200000151991844, 0.0, 1.055999994277954, 0.0, 0.0, 0.0, 0.0, 0.0, 1.6216049113162513E9, 2021-05-21 15:48:31.316
69.0, -177.0823974609375, -411.3366394042969, 356.5695495605469, 108.36547088623047, 0.03200000151991844, 0.0, 1.055999994277954, 0.0, 0.0, 0.0, 0.0, 0.0, 1.6216049113169935E9, 2021-05-21 15:48:31.316
69.0, -192.5019989013672, -426.3111877441406, 339.6651916503906, 95.48899841308594, 0.03200000151991844, 0.0, 1.055999994277954, 0.0, 0.0, 0.0, 0.0, 0.0, 1.6216049113169935E9, 2021-05-21 15:48:31.316
70.0, -229.33253479003906, -469.7015075683594, 292.24700927734375, 45.950279235839844, 0.03200000151991844, 0.0, 1.055999994277954, 0.0, 0.0, 0.0, 0.0, 0.0, 1.621604911329127E9, 2021-05-21 15:48:31.329
70.0, -215.3565216064453, -452.5727844238281, 311.3167419433594, 63.87936019897461, 0.03200000151991844, 0.0, 1.055999994277954, 0.0, 0.0, 0.0, 0.0, 0.0, 1.621604911329127E9, 2021-05-21 15:48:31.329
71.0, -182.6697998046875, -408.3409729003906, 353.4429931640625, 110.79266357421875, 0.03200000151991844, 0.0, 1.055999994277954, 0.0, 0.0, 0.0, 0.0, 0.0, 1.6216049113449163E9, 2021-05-21 15:48:31.344
71.0, -198.89723205566406, -425.1481018066406, 329.2869567871094, 90.56354522705078, 0.03200000151991844, 0.0, 1.055999994277954, 0.0, 0.0, 0.0, 0.0, 0.0, 1.6216049113449163E9, 2021-05-21 15:48:31.344
72.0, -231.03045654296875, -469.89971923828125, 284.06036376953125, 46.95257568359375, 0.01600000075995922, 0.0, 1.055999994277954, 0.0, 0.0, 0.0, 0.0, 0.0, 1.621604911345596E9, 2021-05-21 15:48:31.345
72.0, -215.7716522216797, -452.842041015625, 309.6263122558594, 70.32695007324219, 0.01600000075995922, 0.0, 1.055999994277954, 0.0, 0.0, 0.0, 0.0, 0.0, 1.621604911345596E9, 2021-05-21 15:48:31.345
73.0, -185.74026489257812, -413.4870910644531, 352.78851318359375, 106.09535217285156, 0.01600000075995922, 0.0, 1.055999994277954, 0.0, 0.0, 0.0, 0.0, 0.0, 1.621604911375255E9, 2021-05-21 15:48:31.375
73.0, -199.17771911621094, -433.6413879394531, 329.2832336425781, 87.27617645263672, 0.01600000075995922, 0.0, 1.055999994277954, 0.0, 0.0, 0.0, 0.0, 0.0, 1.621604911375255E9, 2021-05-21 15:48:31.375
74.0, -240.29043579101562, -474.10711669921875, 278.2784729003906, 44.581478118896484, 0.01600000075995922, 0.0, 1.055999994277954, 0.0, 0.0, 0.0, 0.0, 0.0, 1.621604911375966E9, 2021-05-21 15:48:31.375
74.0, -219.51904296875, -454.18841552734375, 303.3171081542969, 66.6207046508789, 0.01600000075995922, 0.0, 1.055999994277954, 0.0, 0.0, 0.0, 0.0, 0.0, 1.621604911375966E9, 2021-05-21 15:48:31.375
75.0, -185.36253356933594, -403.8717956542969, 347.05523681640625, 108.5524673461914, 0.01600000075995922, 0.0, 1.055999994277954, 0.0, 0.0, 0.0, 0.0, 0.0, 1.6216049113898687E9, 2021-05-21 15:48:31.389
75.0, -198.23526000976562, -425.2752380371094, 330.9998474121094, 90.35784912109375, 0.01600000075995922, 0.0, 1.055999994277954, 0.0, 0.0, 0.0, 0.0, 0.0, 1.6216049113898687E9, 2021-05-21 15:48:31.389
76.0, -229.3923797607422, -464.61151123046875, 285.653564453125, 49.91083526611328, 0.01600000075995922, 0.0, 1.055999994277954, 0.0, 0.0, 0.0, 0.0, 0.0, 1.6216049113905969E9, 2021-05-21 15:48:31.390
76.0, -212.6151885986328, -448.2831115722656, 309.7572021484375, 65.06864929199219, 0.01600000075995922, 0.0, 1.055999994277954, 0.0, 0.0, 0.0, 0.0, 0.0, 1.6216049113905969E9, 2021-05-21 15:48:31.390
77.0, -182.66232299804688, -410.6410217285156, 351.5169372558594, 106.63763427734375, 0.01600000075995922, 0.0, 1.055999994277954, 0.0, 0.0, 0.0, 0.0, 0.0, 1.6216049114049358E9, 2021-05-21 15:48:31.404
77.0, -201.12246704101562, -417.0063171386719, 332.92962646484375, 93.24505615234375, 0.01600000075995922, 0.0, 1.055999994277954, 0.0, 0.0, 0.0, 0.0, 0.0, 1.6216049114049358E9, 2021-05-21 15:48:31.404
78.0, -234.519775390625, -462.4498596191406, 287.4898376464844, 49.10675811767578, 0.01600000075995922, 0.0, 1.055999994277954, 0.0, 0.0, 0.0, 0.0, 0.0, 1.6216049114056375E9, 2021-05-21 15:48:31.405
78.0, -219.6873321533203, -448.4102783203125, 305.8826904296875, 64.17855072021484, 0.01600000075995922, 0.0, 1.055999994277954, 0.0, 0.0, 0.0, 0.0, 0.0, 1.6216049114056375E9, 2021-05-21 15:48:31.405
79.0, -183.90023803710938, -404.0924377441406, 346.3409118652344, 108.29815673828125, 0.01600000075995922, 0.0, 1.055999994277954, 0.0, 0.0, 0.0, 0.0, 0.0, 1.6216049114191475E9, 2021-05-21 15:48:31.419
79.0, -199.09170532226562, -417.05120849609375, 326.59051513671875, 88.52156066894531, 0.01600000075995922, 0.0, 1.055999994277954, 0.0, 0.0, 0.0, 0.0, 0.0, 1.6216049114191475E9, 2021-05-21 15:48:31.419
80.0, -229.03334045410156, -464.2749328613281, 283.9182434082031, 48.36625671386719, 0.01600000075995922, 0.0, 1.055999994277954, 0.0, 0.0, 0.0, 0.0, 0.0, 1.621604911434887E9, 2021-05-21 15:48:31.434
80.0, -214.4701690673828, -452.759765625, 303.7808532714844, 70.47654724121094, 0.01600000075995922, 0.0, 1.055999994277954, 0.0, 0.0, 0.0, 0.0, 0.0, 1.621604911434887E9, 2021-05-21 15:48:31.434
81.0, -186.17408752441406, -413.7376403808594, 346.4306640625, 108.08123779296875, 0.01600000075995922, 0.0, 1.055999994277954, 0.0, 0.0, 0.0, 0.0, 0.0, 1.6216049114355628E9, 2021-05-21 15:48:31.435
81.0, -196.361572265625, -429.8080139160156, 335.74951171875, 94.53532409667969, 0.01600000075995922, 0.0, 1.055999994277954, 0.0, 0.0, 0.0, 0.0, 0.0, 1.6216049114355628E9, 2021-05-21 15:48:31.435
82.0, -230.85841369628906, -473.08612060546875, 288.2079162597656, 51.7321662902832, 0.03200000151991844, 0.0, 1.055999994277954, 0.0, 0.0, 0.0, 0.0, 0.0, 1.6216049114491649E9, 2021-05-21 15:48:31.449
82.0, -214.99002075195312, -454.2482604980469, 303.63873291015625, 63.41187286376953, 0.03200000151991844, 0.0, 1.055999994277954, 0.0, 0.0, 0.0, 0.0, 0.0, 1.6216049114491649E9, 2021-05-21 15:48:31.449
83.0, -182.41549682617188, -412.25665283203125, 341.4341735839844, 105.302490234375, 0.03200000151991844, 0.0, 1.055999994277954, 0.0, 0.0, 0.0, 0.0, 0.0, 1.6216049114648745E9, 2021-05-21 15:48:31.464
83.0, -194.07275390625, -430.06231689453125, 322.33074951171875, 82.78455352783203, 0.03200000151991844, 0.0, 1.055999994277954, 0.0, 0.0, 0.0, 0.0, 0.0, 1.6216049114648745E9, 2021-05-21 15:48:31.464
84.0, -232.17111206054688, -466.5637512207031, 279.6622314453125, 44.97416687011719, 0.03200000151991844, 0.0, 1.055999994277954, 0.0, 0.0, 0.0, 0.0, 0.0, 1.6216049114655645E9, 2021-05-21 15:48:31.465
84.0, -215.3266143798828, -453.2646484375, 305.46380615234375, 65.82785034179688, 0.03200000151991844, 0.0, 1.055999994277954, 0.0, 0.0, 0.0, 0.0, 0.0, 1.6216049114655645E9, 2021-05-21 15:48:31.465
85.0, -185.8000946044922, -414.9119873046875, 348.71575927734375, 104.14312744140625, 0.03200000151991844, 0.0, 1.055999994277954, 0.0, 0.0, 0.0, 0.0, 0.0, 1.6216049114959342E9, 2021-05-21 15:48:31.495
85.0, -201.46653747558594, -421.2548522949219, 330.8913879394531, 85.70541381835938, 0.03200000151991844, 0.0, 1.055999994277954, 0.0, 0.0, 0.0, 0.0, 0.0, 1.6216049114959342E9, 2021-05-21 15:48:31.495
86.0, -236.27378845214844, -463.59051513671875, 288.7950744628906, 42.184200286865234, 0.03200000151991844, 0.0, 1.055999994277954, 0.0, 0.0, 0.0, 0.0, 0.0, 1.6216049114966905E9, 2021-05-21 15:48:31.496
86.0, -217.08062744140625, -443.3240051269531, 308.6651611328125, 66.6169662475586, 0.03200000151991844, 0.0, 1.055999994277954, 0.0, 0.0, 0.0, 0.0, 0.0, 1.6216049114966905E9, 2021-05-21 15:48:31.496
87.0, -185.78140258789062, -397.3606262207031, 356.3376770019531, 106.09161376953125, 0.03200000151991844, 0.0, 1.055999994277954, 0.0, 0.0, 0.0, 0.0, 0.0, 1.621604911509805E9, 2021-05-21 15:48:31.509
87.0, -195.50514221191406, -416.1798095703125, 337.2641906738281, 95.50395202636719, 0.03200000151991844, 0.0, 1.055999994277954, 0.0, 0.0, 0.0, 0.0, 0.0, 1.621604911509805E9, 2021-05-21 15:48:31.509
88.0, -227.7318572998047, -458.83709716796875, 292.54620361328125, 49.24139404296875, 0.03200000151991844, 0.0, 1.055999994277954, 0.0, 0.0, 0.0, 0.0, 0.0, 1.621604911510536E9, 2021-05-21 15:48:31.510
88.0, -218.47186279296875, -444.3300476074219, 314.0169677734375, 68.06804656982422, 0.03200000151991844, 0.0, 1.055999994277954, 0.0, 0.0, 0.0, 0.0, 0.0, 1.621604911510536E9, 2021-05-21 15:48:31.510
89.0, -181.63011169433594, -400.9958190917969, 351.2701110839844, 113.9715805053711, 0.03200000151991844, 0.0, 1.055999994277954, 0.0, 0.0, 0.0, 0.0, 0.0, 1.621604911524799E9, 2021-05-21 15:48:31.524
89.0, -196.2942657470703, -416.8791809082031, 337.0584716796875, 94.39694213867188, 0.03200000151991844, 0.0, 1.055999994277954, 0.0, 0.0, 0.0, 0.0, 0.0, 1.621604911524799E9, 2021-05-21 15:48:31.524
90.0, -232.5151824951172, -463.0893859863281, 292.7369384765625, 52.233314514160156, 0.03200000151991844, 0.0, 1.055999994277954, 0.0, 0.0, 0.0, 0.0, 0.0, 1.6216049115255637E9, 2021-05-21 15:48:31.525
90.0, -214.3878936767578, -452.1913146972656, 306.14447021484375, 66.60575103759766, 0.03200000151991844, 0.0, 1.055999994277954, 0.0, 0.0, 0.0, 0.0, 0.0, 1.6216049115255637E9, 2021-05-21 15:48:31.525
91.0, -188.3058319091797, -410.7569580078125, 343.78656005859375, 105.8410415649414, 0.03200000151991844, 0.0, 1.055999994277954, 0.0, 0.0, 0.0, 0.0, 0.0, 1.6216049115393183E9, 2021-05-21 15:48:31.539
91.0, -195.41163635253906, -428.2596740722656, 328.7259826660156, 87.82594299316406, 0.03200000151991844, 0.0, 1.055999994277954, 0.0, 0.0, 0.0, 0.0, 0.0, 1.6216049115393183E9, 2021-05-21 15:48:31.539
92.0, -230.64149475097656, -470.28118896484375, 279.0788269042969, 38.91178894042969, 0.03200000151991844, 0.0, 1.055999994277954, 0.0, 0.0, 0.0, 0.0, 0.0, 1.6216049115547948E9, 2021-05-21 15:48:31.554
92.0, -213.3781280517578, -455.7741394042969, 296.4543762207031, 61.31378936767578, 0.03200000151991844, 0.0, 1.055999994277954, 0.0, 0.0, 0.0, 0.0, 0.0, 1.6216049115547948E9, 2021-05-21 15:48:31.554
93.0, -182.3332061767578, -414.57537841796875, 339.6950988769531, 102.03755950927734, 0.03200000151991844, 0.0, 1.055999994277954, 0.0, 0.0, 0.0, 0.0, 0.0, 1.6216049115555248E9, 2021-05-21 15:48:31.555
93.0, -195.87913513183594, -434.7596435546875, 325.17681884765625, 86.17290496826172, 0.03200000151991844, 0.0, 1.055999994277954, 0.0, 0.0, 0.0, 0.0, 0.0, 1.6216049115555248E9, 2021-05-21 15:48:31.555
94.0, -228.61073303222656, -473.5311584472656, 278.20367431640625, 40.299293518066406, 0.03200000151991844, 0.0, 1.055999994277954, 0.0, 0.0, 0.0, 0.0, 0.0, 1.621604911569108E9, 2021-05-21 15:48:31.569
94.0, -210.05709838867188, -452.0865783691406, 302.1988830566406, 63.539031982421875, 0.03200000151991844, 0.0, 1.055999994277954, 0.0, 0.0, 0.0, 0.0, 0.0, 1.621604911569108E9, 2021-05-21 15:48:31.569
95.0, -179.81625366210938, -412.0771484375, 347.7134704589844, 101.45413970947266, 0.03200000151991844, 0.0, 1.055999994277954, 0.0, 0.0, 0.0, 0.0, 0.0, 1.6216049115845833E9, 2021-05-21 15:48:31.584
95.0, -194.15878295898438, -428.9515686035156, 330.8240661621094, 87.4556884765625, 0.03200000151991844, 0.0, 1.055999994277954, 0.0, 0.0, 0.0, 0.0, 0.0, 1.6216049115845833E9, 2021-05-21 15:48:31.584
96.0, -227.28680419921875, -463.9944152832031, 293.107177734375, 50.453121185302734, 0.03200000151991844, 0.0, 1.055999994277954, 0.0, 0.0, 0.0, 0.0, 0.0, 1.6216049115997868E9, 2021-05-21 15:48:31.599
96.0, -208.80422973632812, -448.61968994140625, 311.8702697753906, 68.31114196777344, 0.03200000151991844, 0.0, 1.055999994277954, 0.0, 0.0, 0.0, 0.0, 0.0, 1.6216049115997868E9, 2021-05-21 15:48:31.599
97.0, -182.86053466796875, -411.42266845703125, 355.6046447753906, 112.50927734375, 0.03200000151991844, 0.0, 1.055999994277954, 0.0, 0.0, 0.0, 0.0, 0.0, 1.6216049116005335E9, 2021-05-21 15:48:31.600
97.0, -197.558349609375, -426.4720153808594, 338.9471435546875, 95.13744354248047, 0.03200000151991844, 0.0, 1.055999994277954, 0.0, 0.0, 0.0, 0.0, 0.0, 1.6216049116005335E9, 2021-05-21 15:48:31.600
98.0, -232.18234252929688, -467.9774169921875, 290.1003112792969, 50.79719161987305, 0.03200000151991844, 0.0, 1.055999994277954, 0.0, 0.0, 0.0, 0.0, 0.0, 1.6216049116148713E9, 2021-05-21 15:48:31.614
98.0, -218.01559448242188, -450.48590087890625, 311.3952941894531, 65.3902816772461, 0.03200000151991844, 0.0, 1.055999994277954, 0.0, 0.0, 0.0, 0.0, 0.0, 1.6216049116148713E9, 2021-05-21 15:48:31.614
99.0, -179.4983673095703, -411.5909423828125, 356.89117431640625, 112.57659912109375, 0.03200000151991844, 0.0, 1.055999994277954, 0.0, 0.0, 0.0, 0.0, 0.0, 1.6216049116155756E9, 2021-05-21 15:48:31.615
99.0, -191.3762969970703, -428.603759765625, 332.3611755371094, 94.2211685180664, 0.03200000151991844, 0.0, 1.055999994277954, 0.0, 0.0, 0.0, 0.0, 0.0, 1.6216049116155756E9, 2021-05-21 15:48:31.615
100.0, -230.75369262695312, -464.3871154785156, 287.0074157714844, 47.56217956542969, 0.03200000151991844, 0.0, 1.055999994277954, 0.0, 0.0, 0.0, 0.0, 0.0, 1.621604911629918E9, 2021-05-21 15:48:31.629
100.0, -207.2970428466797, -445.16778564453125, 305.4488525390625, 69.18254089355469, 0.03200000151991844, 0.0, 1.055999994277954, 0.0, 0.0, 0.0, 0.0, 0.0, 1.621604911629918E9, 2021-05-21 15:48:31.629
0.0, -178.3876190185547, -412.0378723144531, 344.7682800292969, 109.08540344238281, 0.03200000151991844, 0.0, 1.055999994277954, 0.0, 0.0, 0.0, 0.0, 0.0, 1.6216049116305833E9, 2021-05-21 15:48:31.630
1.0, -194.95162963867188, -428.2204284667969, 326.5923767089844, 94.71670532226562, 0.03200000151991844, 0.0, 1.055999994277954, 0.0, 0.0, 0.0, 0.0, 0.0, 1.6216049116441126E9, 2021-05-21 15:48:31.644
1.0, -229.88604736328125, -471.6144714355469, 282.5887145996094, 46.988101959228516, 0.03200000151991844, 0.0, 1.055999994277954, 0.0, 0.0, 0.0, 0.0, 0.0, 1.6216049116441126E9, 2021-05-21 15:48:31.644
2.0, -214.5561981201172, -450.9066467285156, 304.2203063964844, 67.57625579833984, 0.01600000075995922, 0.0, 1.055999994277954, 0.0, 0.0, 0.0, 0.0, 0.0, 1.6216049116595366E9, 2021-05-21 15:48:31.659
2.0, -177.11605834960938, -412.4903869628906, 348.9420166015625, 106.8564224243164, 0.01600000075995922, 0.0, 1.055999994277954, 0.0, 0.0, 0.0, 0.0, 0.0, 1.6216049116595366E9, 2021-05-21 15:48:31.659
3.0, -194.14007568359375, -424.9068603515625, 335.6279602050781, 92.08381652832031, 0.01600000075995922, 0.0, 1.055999994277954, 0.0, 0.0, 0.0, 0.0, 0.0, 1.6216049116749077E9, 2021-05-21 15:48:31.674
3.0, -224.5043182373047, -470.2120056152344, 295.36419677734375, 49.800506591796875, 0.01600000075995922, 0.0, 1.055999994277954, 0.0, 0.0, 0.0, 0.0, 0.0, 1.6216049116749077E9, 2021-05-21 15:48:31.674
4.0, -217.0993194580078, -454.3136901855469, 306.86065673828125, 63.926109313964844, 0.01600000075995922, 0.0, 1.055999994277954, 0.0, 0.0, 0.0, 0.0, 0.0, 1.6216049116756032E9, 2021-05-21 15:48:31.675
4.0, -185.8936004638672, -408.78790283203125, 345.1198425292969, 103.29229736328125, 0.01600000075995922, 0.0, 1.055999994277954, 0.0, 0.0, 0.0, 0.0, 0.0, 1.6216049116756032E9, 2021-05-21 15:48:31.675
5.0, -195.55001831054688, -424.0728759765625, 330.31732177734375, 91.63128662109375, 0.01600000075995922, 0.0, 1.055999994277954, 0.0, 0.0, 0.0, 0.0, 0.0, 1.621604911689864E9, 2021-05-21 15:48:31.689
5.0, -227.96372985839844, -464.90509033203125, 290.9660949707031, 53.63390350341797, 0.01600000075995922, 0.0, 1.055999994277954, 0.0, 0.0, 0.0, 0.0, 0.0, 1.621604911689864E9, 2021-05-21 15:48:31.689
6.0, -211.04815673828125, -450.1848449707031, 311.76739501953125, 73.54513549804688, 0.01600000075995922, 0.0, 1.055999994277954, 0.0, 0.0, 0.0, 0.0, 0.0, 1.621604911690626E9, 2021-05-21 15:48:31.690
6.0, -181.525390625, -408.1595764160156, 354.5892639160156, 115.6077880859375, 0.01600000075995922, 0.0, 1.055999994277954, 0.0, 0.0, 0.0, 0.0, 0.0, 1.621604911690626E9, 2021-05-21 15:48:31.690
7.0, -193.3135528564453, -423.9195251464844, 342.00823974609375, 102.54431915283203, 0.01600000075995922, 0.0, 1.055999994277954, 0.0, 0.0, 0.0, 0.0, 0.0, 1.6216049117041404E9, 2021-05-21 15:48:31.704
7.0, -228.31153869628906, -463.2109069824219, 300.79827880859375, 53.95927810668945, 0.01600000075995922, 0.0, 1.055999994277954, 0.0, 0.0, 0.0, 0.0, 0.0, 1.6216049117041404E9, 2021-05-21 15:48:31.704
8.0, -208.62844848632812, -450.1063232421875, 316.5657043457031, 73.36935424804688, 0.01600000075995922, 0.0, 1.055999994277954, 0.0, 0.0, 0.0, 0.0, 0.0, 1.6216049117195911E9, 2021-05-21 15:48:31.719
8.0, -179.3338165283203, -411.5105285644531, 357.9514465332031, 114.59053802490234, 0.01600000075995922, 0.0, 1.055999994277954, 0.0, 0.0, 0.0, 0.0, 0.0, 1.6216049117195911E9, 2021-05-21 15:48:31.719
9.0, -196.90760803222656, -429.5331115722656, 334.6593322753906, 96.85967254638672, 0.01600000075995922, 0.0, 1.055999994277954, 0.0, 0.0, 0.0, 0.0, 0.0, 1.6216049117348647E9, 2021-05-21 15:48:31.734
9.0, -228.4199981689453, -464.1608581542969, 289.9899597167969, 46.45703887939453, 0.01600000075995922, 0.0, 1.055999994277954, 0.0, 0.0, 0.0, 0.0, 0.0, 1.6216049117348647E9, 2021-05-21 15:48:31.734
10.0, -212.1327362060547, -444.26458740234375, 307.44781494140625, 69.56961822509766, 0.01600000075995922, 0.0, 1.055999994277954, 0.0, 0.0, 0.0, 0.0, 0.0, 1.6216049117355704E9, 2021-05-21 15:48:31.735
10.0, -184.98480224609375, -398.9183044433594, 352.6931457519531, 115.7125015258789, 0.01600000075995922, 0.0, 1.055999994277954, 0.0, 0.0, 0.0, 0.0, 0.0, 1.6216049117355704E9, 2021-05-21 15:48:31.735
11.0, -198.11184692382812, -409.60693359375, 334.8912048339844, 95.55070495605469, 0.01600000075995922, 0.0, 1.055999994277954, 0.0, 0.0, 0.0, 0.0, 0.0, 1.6216049117498777E9, 2021-05-21 15:48:31.749
11.0, -233.25942993164062, -452.1221008300781, 290.8052673339844, 52.87844467163086, 0.01600000075995922, 0.0, 1.055999994277954, 0.0, 0.0, 0.0, 0.0, 0.0, 1.6216049117498777E9, 2021-05-21 15:48:31.749
12.0, -221.47500610351562, -436.0555114746094, 313.360595703125, 71.29371643066406, 0.01600000075995922, 0.0, 1.055999994277954, 0.0, 0.0, 0.0, 0.0, 0.0, 1.6216049117505417E9, 2021-05-21 15:48:31.750
12.0, -185.24659729003906, -394.25091552734375, 352.65948486328125, 117.28326416015625, 0.01600000075995922, 0.0, 1.055999994277954, 0.0, 0.0, 0.0, 0.0, 0.0, 1.6216049117505417E9, 2021-05-21 15:48:31.750
13.0, -198.29136657714844, -409.7490539550781, 331.32708740234375, 90.81973266601562, 0.01600000075995922, 0.0, 1.055999994277954, 0.0, 0.0, 0.0, 0.0, 0.0, 1.6216049117641485E9, 2021-05-21 15:48:31.764
13.0, -233.0500030517578, -450.16241455078125, 292.1329345703125, 48.53642272949219, 0.01600000075995922, 0.0, 1.055999994277954, 0.0, 0.0, 0.0, 0.0, 0.0, 1.6216049117641485E9, 2021-05-21 15:48:31.764
14.0, -207.6448516845703, -438.77813720703125, 310.6304931640625, 71.7462387084961, 0.01600000075995922, 0.0, 1.055999994277954, 0.0, 0.0, 0.0, 0.0, 0.0, 1.6216049117802627E9, 2021-05-21 15:48:31.780
14.0, -189.84666442871094, -393.49169921875, 342.2401123046875, 104.21231079101562, 0.01600000075995922, 0.0, 1.055999994277954, 0.0, 0.0, 0.0, 0.0, 0.0, 1.6216049117802627E9, 2021-05-21 15:48:31.780
15.0, -205.7487335205078, -402.9685974121094, 326.23333740234375, 90.75241088867188, 0.01600000075995922, 0.0, 1.055999994277954, 0.0, 0.0, 0.0, 0.0, 0.0, 1.6216049117948809E9, 2021-05-21 15:48:31.794
15.0, -232.08135986328125, -445.3753356933594, 285.5021057128906, 53.286094665527344, 0.01600000075995922, 0.0, 1.055999994277954, 0.0, 0.0, 0.0, 0.0, 0.0, 1.6216049117948809E9, 2021-05-21 15:48:31.794
16.0, -220.00521850585938, -428.340087890625, 311.9319763183594, 73.171142578125, 0.01600000075995922, 0.0, 1.055999994277954, 0.0, 0.0, 0.0, 0.0, 0.0, 1.6216049117955449E9, 2021-05-21 15:48:31.795
16.0, -181.30848693847656, -389.4226989746094, 356.3058776855469, 113.4610824584961, 0.01600000075995922, 0.0, 1.055999994277954, 0.0, 0.0, 0.0, 0.0, 0.0, 1.6216049117955449E9, 2021-05-21 15:48:31.795
17.0, -188.83689880371094, -406.0465393066406, 342.03814697265625, 98.80815887451172, 0.01600000075995922, 0.0, 1.055999994277954, 0.0, 0.0, 0.0, 0.0, 0.0, 1.6216049118098645E9, 2021-05-21 15:48:31.809
17.0, -228.2778778076172, -455.4955139160156, 295.06500244140625, 50.16701889038086, 0.01600000075995922, 0.0, 1.055999994277954, 0.0, 0.0, 0.0, 0.0, 0.0, 1.6216049118098645E9, 2021-05-21 15:48:31.809
18.0, -214.23081970214844, -434.712890625, 314.54241943359375, 69.4798583984375, 0.01600000075995922, 0.0, 1.055999994277954, 0.0, 0.0, 0.0, 0.0, 0.0, 1.6216049118105867E9, 2021-05-21 15:48:31.810
18.0, -185.14935302734375, -393.7983703613281, 355.3447265625, 111.50511932373047, 0.01600000075995922, 0.0, 1.055999994277954, 0.0, 0.0, 0.0, 0.0, 0.0, 1.6216049118105867E9, 2021-05-21 15:48:31.810
19.0, -200.0491180419922, -408.0735778808594, 332.9427185058594, 92.41292572021484, 0.01600000075995922, 0.0, 1.055999994277954, 0.0, 0.0, 0.0, 0.0, 0.0, 1.6216049118242912E9, 2021-05-21 15:48:31.824
19.0, -239.23953247070312, -447.5856018066406, 282.78692626953125, 49.568634033203125, 0.01600000075995922, 0.0, 1.055999994277954, 0.0, 0.0, 0.0, 0.0, 0.0, 1.6216049118242912E9, 2021-05-21 15:48:31.824
20.0, -221.53485107421875, -431.0103759765625, 303.3414306640625, 63.72041702270508, 0.01600000075995922, 0.0, 1.055999994277954, 0.0, 0.0, 0.0, 0.0, 0.0, 1.6216049118402667E9, 2021-05-21 15:48:31.840
20.0, -189.73072814941406, -393.9779052734375, 345.1609802246094, 102.80610656738281, 0.01600000075995922, 0.0, 1.055999994277954, 0.0, 0.0, 0.0, 0.0, 0.0, 1.6216049118402667E9, 2021-05-21 15:48:31.840
21.0, -198.84112548828125, -407.5537414550781, 332.63604736328125, 90.1540298461914, 0.01600000075995922, 0.0, 1.055999994277954, 0.0, 0.0, 0.0, 0.0, 0.0, 1.621604911854868E9, 2021-05-21 15:48:31.854
21.0, -239.03382873535156, -445.0611877441406, 281.3470764160156, 42.1075325012207, 0.01600000075995922, 0.0, 1.055999994277954, 0.0, 0.0, 0.0, 0.0, 0.0, 1.621604911854868E9, 2021-05-21 15:48:31.854
22.0, -221.36654663085938, -420.38531494140625, 302.03619384765625, 64.17294311523438, 0.03200000151991844, 0.0, 1.055999994277954, 0.0, 0.0, 0.0, 0.0, 0.0, 1.6216049118556006E9, 2021-05-21 15:48:31.855
22.0, -184.9324493408203, -384.78521728515625, 347.9845886230469, 109.40703582763672, 0.03200000151991844, 0.0, 1.055999994277954, 0.0, 0.0, 0.0, 0.0, 0.0, 1.6216049118556006E9, 2021-05-21 15:48:31.855
23.0, -199.0056915283203, -406.9291687011719, 330.67633056640625, 91.0403823852539, 0.03200000151991844, 0.0, 1.055999994277954, 0.0, 0.0, 0.0, 0.0, 0.0, 1.621604911869872E9, 2021-05-21 15:48:31.869
23.0, -226.74452209472656, -447.8773193359375, 286.0256652832031, 50.35401153564453, 0.03200000151991844, 0.0, 1.055999994277954, 0.0, 0.0, 0.0, 0.0, 0.0, 1.621604911869872E9, 2021-05-21 15:48:31.869
24.0, -213.2023468017578, -428.80010986328125, 303.6106872558594, 71.76119995117188, 0.03200000151991844, 0.0, 1.055999994277954, 0.0, 0.0, 0.0, 0.0, 0.0, 1.621604911870559E9, 2021-05-21 15:48:31.870
24.0, -190.0523681640625, -394.8904113769531, 344.24468994140625, 110.47290802001953, 0.03200000151991844, 0.0, 1.055999994277954, 0.0, 0.0, 0.0, 0.0, 0.0, 1.621604911870559E9, 2021-05-21 15:48:31.870
25.0, -204.77635192871094, -404.6590576171875, 333.28680419921875, 94.82142639160156, 0.03200000151991844, 0.0, 1.055999994277954, 0.0, 0.0, 0.0, 0.0, 0.0, 1.6216049118842075E9, 2021-05-21 15:48:31.884
25.0, -232.29827880859375, -444.8816833496094, 294.62744140625, 57.639339447021484, 0.03200000151991844, 0.0, 1.055999994277954, 0.0, 0.0, 0.0, 0.0, 0.0, 1.6216049118842075E9, 2021-05-21 15:48:31.884
26.0, -219.73968505859375, -426.67584228515625, 319.3968200683594, 73.73212432861328, 0.03200000151991844, 0.0, 1.055999994277954, 0.0, 0.0, 0.0, 0.0, 0.0, 1.621604911900303E9, 2021-05-21 15:48:31.900
26.0, -184.98480224609375, -385.4434509277344, 356.4405212402344, 110.37566375732422, 0.03200000151991844, 0.0, 1.055999994277954, 0.0, 0.0, 0.0, 0.0, 0.0, 1.621604911900303E9, 2021-05-21 15:48:31.900
27.0, -192.36737060546875, -402.23931884765625, 340.0635070800781, 96.25006866455078, 0.03200000151991844, 0.0, 1.055999994277954, 0.0, 0.0, 0.0, 0.0, 0.0, 1.6216049119148707E9, 2021-05-21 15:48:31.914
27.0, -222.45860290527344, -442.4619445800781, 293.11279296875, 50.73174285888672, 0.03200000151991844, 0.0, 1.055999994277954, 0.0, 0.0, 0.0, 0.0, 0.0, 1.6216049119148707E9, 2021-05-21 15:48:31.914
28.0, -214.94888305664062, -432.12860107421875, 314.17218017578125, 65.21637725830078, 0.03200000151991844, 0.0, 1.055999994277954, 0.0, 0.0, 0.0, 0.0, 0.0, 1.6216049119155543E9, 2021-05-21 15:48:31.915
28.0, -182.22100830078125, -393.5216369628906, 354.05072021484375, 105.86908721923828, 0.03200000151991844, 0.0, 1.055999994277954, 0.0, 0.0, 0.0, 0.0, 0.0, 1.6216049119155543E9, 2021-05-21 15:48:31.915
29.0, -199.31236267089844, -408.4550476074219, 332.63604736328125, 89.75759887695312, 0.03200000151991844, 0.0, 1.055999994277954, 0.0, 0.0, 0.0, 0.0, 0.0, 1.621604911929922E9, 2021-05-21 15:48:31.929
29.0, -236.75624084472656, -449.71734619140625, 284.4287414550781, 46.58793258666992, 0.03200000151991844, 0.0, 1.055999994277954, 0.0, 0.0, 0.0, 0.0, 0.0, 1.621604911929922E9, 2021-05-21 15:48:31.929
30.0, -221.49745178222656, -424.0242614746094, 301.1460876464844, 67.7295913696289, 0.03200000151991844, 0.0, 1.055999994277954, 0.0, 0.0, 0.0, 0.0, 0.0, 1.621604911930538E9, 2021-05-21 15:48:31.930
30.0, -186.99313354492188, -385.8959655761719, 341.2415466308594, 107.72782135009766, 0.03200000151991844, 0.0, 1.055999994277954, 0.0, 0.0, 0.0, 0.0, 0.0, 1.621604911930538E9, 2021-05-21 15:48:31.930
31.0, -204.95213317871094, -409.24041748046875, 319.0115966796875, 88.7478256225586, 0.03200000151991844, 0.0, 1.055999994277954, 0.0, 0.0, 0.0, 0.0, 0.0, 1.621604911944162E9, 2021-05-21 15:48:31.944
31.0, -242.72511291503906, -443.9167785644531, 278.34765625, 47.35087203979492, 0.03200000151991844, 0.0, 1.055999994277954, 0.0, 0.0, 0.0, 0.0, 0.0, 1.621604911944162E9, 2021-05-21 15:48:31.944
32.0, -219.3395233154297, -427.3003845214844, 298.77874755859375, 72.63259887695312, 0.03200000151991844, 0.0, 1.055999994277954, 0.0, 0.0, 0.0, 0.0, 0.0, 1.6216049119598498E9, 2021-05-21 15:48:31.959
32.0, -189.82423400878906, -385.6341857910156, 350.90545654296875, 110.98526763916016, 0.03200000151991844, 0.0, 1.055999994277954, 0.0, 0.0, 0.0, 0.0, 0.0, 1.6216049119598498E9, 2021-05-21 15:48:31.959
33.0, -198.54568481445312, -403.4510498046875, 332.92401123046875, 94.55589294433594, 0.03200000151991844, 0.0, 1.055999994277954, 0.0, 0.0, 0.0, 0.0, 0.0, 1.6216049119605496E9, 2021-05-21 15:48:31.960
33.0, -235.95216369628906, -441.0931396484375, 286.50439453125, 52.287540435791016, 0.03200000151991844, 0.0, 1.055999994277954, 0.0, 0.0, 0.0, 0.0, 0.0, 1.6216049119605496E9, 2021-05-21 15:48:31.960
34.0, -223.51699829101562, -419.7906799316406, 310.813720703125, 68.57854461669922, 0.03200000151991844, 0.0, 1.055999994277954, 0.0, 0.0, 0.0, 0.0, 0.0, 1.6216049119742205E9, 2021-05-21 15:48:31.974
34.0, -179.4385223388672, -381.13507080078125, 359.6455993652344, 115.31233215332031, 0.03200000151991844, 0.0, 1.055999994277954, 0.0, 0.0, 0.0, 0.0, 0.0, 1.6216049119742205E9, 2021-05-21 15:48:31.974
35.0, -195.42286682128906, -402.3814392089844, 337.4081726074219, 100.1133804321289, 0.03200000151991844, 0.0, 1.055999994277954, 0.0, 0.0, 0.0, 0.0, 0.0, 1.6216049119899638E9, 2021-05-21 15:48:31.989
35.0, -226.84176635742188, -444.6011657714844, 293.008056640625, 50.72426223754883, 0.03200000151991844, 0.0, 1.055999994277954, 0.0, 0.0, 0.0, 0.0, 0.0, 1.6216049119899638E9, 2021-05-21 15:48:31.989
36.0, -214.95635986328125, -428.4709777832031, 305.1066589355469, 66.2822494506836, 0.03200000151991844, 0.0, 1.055999994277954, 0.0, 0.0, 0.0, 0.0, 0.0, 1.6216049119906452E9, 2021-05-21 15:48:31.990
36.0, -177.72940063476562, -390.1706848144531, 351.6758728027344, 107.43236541748047, 0.03200000151991844, 0.0, 1.055999994277954, 0.0, 0.0, 0.0, 0.0, 0.0, 1.6216049119906452E9, 2021-05-21 15:48:31.990
37.0, -190.34408569335938, -405.38458251953125, 330.59405517578125, 89.8323974609375, 0.03200000151991844, 0.0, 1.055999994277954, 0.0, 0.0, 0.0, 0.0, 0.0, 1.621604912020589E9, 2021-05-21 15:48:32.020
37.0, -223.10934448242188, -449.4219055175781, 287.3720397949219, 52.80738830566406, 0.03200000151991844, 0.0, 1.055999994277954, 0.0, 0.0, 0.0, 0.0, 0.0, 1.621604912020589E9, 2021-05-21 15:48:32.020
38.0, -215.17701721191406, -438.09375, 300.4130859375, 61.30818176269531, 0.03200000151991844, 0.0, 1.055999994277954, 0.0, 0.0, 0.0, 0.0, 0.0, 1.6216049120212953E9, 2021-05-21 15:48:32.021
38.0, -180.58294677734375, -391.82745361328125, 342.56549072265625, 101.44852447509766, 0.03200000151991844, 0.0, 1.055999994277954, 0.0, 0.0, 0.0, 0.0, 0.0, 1.6216049120212953E9, 2021-05-21 15:48:32.021
39.0, -194.59634399414062, -408.0997619628906, 322.34759521484375, 90.90200805664062, 0.03200000151991844, 0.0, 1.055999994277954, 0.0, 0.0, 0.0, 0.0, 0.0, 1.621604912022058E9, 2021-05-21 15:48:32.022
39.0, -230.8658905029297, -449.4181823730469, 275.5128173828125, 43.506256103515625, 0.03200000151991844, 0.0, 1.055999994277954, 0.0, 0.0, 0.0, 0.0, 0.0, 1.621604912022058E9, 2021-05-21 15:48:32.022
40.0, -209.5634307861328, -430.42694091796875, 297.2192077636719, 71.17777252197266, 0.03200000151991844, 0.0, 1.055999994277954, 0.0, 0.0, 0.0, 0.0, 0.0, 1.6216049120342429E9, 2021-05-21 15:48:32.034
40.0, -184.44252014160156, -393.9779052734375, 337.7933654785156, 109.68378448486328, 0.03200000151991844, 0.0, 1.055999994277954, 0.0, 0.0, 0.0, 0.0, 0.0, 1.6216049120342429E9, 2021-05-21 15:48:32.034
41.0, -193.24624633789062, -413.4253845214844, 317.1865234375, 91.02168273925781, 0.03200000151991844, 0.0, 1.055999994277954, 0.0, 0.0, 0.0, 0.0, 0.0, 1.6216049120498426E9, 2021-05-21 15:48:32.049
41.0, -229.03334045410156, -451.46014404296875, 281.4854431152344, 52.852264404296875, 0.03200000151991844, 0.0, 1.055999994277954, 0.0, 0.0, 0.0, 0.0, 0.0, 1.6216049120498426E9, 2021-05-21 15:48:32.049
42.0, -210.91726684570312, -433.0299377441406, 305.88079833984375, 74.04254150390625, 0.03200000151991844, 0.0, 1.055999994277954, 0.0, 0.0, 0.0, 0.0, 0.0, 1.6216049120505326E9, 2021-05-21 15:48:32.050
42.0, -180.72879028320312, -394.0564270019531, 344.37933349609375, 110.22232818603516, 0.03200000151991844, 0.0, 1.055999994277954, 0.0, 0.0, 0.0, 0.0, 0.0, 1.6216049120505326E9, 2021-05-21 15:48:32.050
43.0, -196.87020874023438, -407.83795166015625, 329.47210693359375, 92.68219757080078, 0.03200000151991844, 0.0, 1.055999994277954, 0.0, 0.0, 0.0, 0.0, 0.0, 1.6216049120805244E9, 2021-05-21 15:48:32.080
43.0, -223.46463012695312, -446.54217529296875, 288.56134033203125, 49.82668685913086, 0.03200000151991844, 0.0, 1.055999994277954, 0.0, 0.0, 0.0, 0.0, 0.0, 1.6216049120805244E9, 2021-05-21 15:48:32.080
44.0, -205.1914825439453, -426.23828125, 313.887939453125, 76.01346588134766, 0.03200000151991844, 0.0, 1.055999994277954, 0.0, 0.0, 0.0, 0.0, 0.0, 1.621604912081246E9, 2021-05-21 15:48:32.081
44.0, -174.34104919433594, -386.72247314453125, 356.5601806640625, 110.82071685791016, 0.03200000151991844, 0.0, 1.055999994277954, 0.0, 0.0, 0.0, 0.0, 0.0, 1.621604912081246E9, 2021-05-21 15:48:32.081
45.0, -184.5771484375, -406.4504699707031, 339.7156677246094, 92.91781616210938, 0.03200000151991844, 0.0, 1.055999994277954, 0.0, 0.0, 0.0, 0.0, 0.0, 1.6216049120819993E9, 2021-05-21 15:48:32.081
45.0, -220.30067443847656, -452.3016357421875, 292.1366882324219, 48.0876350402832, 0.03200000151991844, 0.0, 1.055999994277954, 0.0, 0.0, 0.0, 0.0, 0.0, 1.6216049120819993E9, 2021-05-21 15:48:32.081
46.0, -205.0082244873047, -432.87286376953125, 312.66497802734375, 66.09899139404297, 0.03200000151991844, 0.0, 1.055999994277954, 0.0, 0.0, 0.0, 0.0, 0.0, 1.621604912094136E9, 2021-05-21 15:48:32.094
46.0, -178.53721618652344, -396.1619873046875, 349.9293518066406, 109.1639404296875, 0.03200000151991844, 0.0, 1.055999994277954, 0.0, 0.0, 0.0, 0.0, 0.0, 1.621604912094136E9, 2021-05-21 15:48:32.094
47.0, -199.09544372558594, -413.1935119628906, 330.2873840332031, 89.57808685302734, 0.03200000151991844, 0.0, 1.055999994277954, 0.0, 0.0, 0.0, 0.0, 0.0, 1.621604912109855E9, 2021-05-21 15:48:32.109
47.0, -232.42916870117188, -455.1327209472656, 284.1220703125, 50.039859771728516, 0.03200000151991844, 0.0, 1.055999994277954, 0.0, 0.0, 0.0, 0.0, 0.0, 1.621604912109855E9, 2021-05-21 15:48:32.109
48.0, -208.64340209960938, -430.8046875, 307.45904541015625, 69.51725769042969, 0.03200000151991844, 0.0, 1.055999994277954, 0.0, 0.0, 0.0, 0.0, 0.0, 1.6216049121105509E9, 2021-05-21 15:48:32.110
48.0, -181.43190002441406, -396.307861328125, 350.7221984863281, 105.59607696533203, 0.03200000151991844, 0.0, 1.055999994277954, 0.0, 0.0, 0.0, 0.0, 0.0, 1.6216049121105509E9, 2021-05-21 15:48:32.110
49.0, -198.89349365234375, -416.63421630859375, 328.7428283691406, 90.74867248535156, 0.03200000151991844, 0.0, 1.055999994277954, 0.0, 0.0, 0.0, 0.0, 0.0, 1.6216049121242094E9, 2021-05-21 15:48:32.124
49.0, -232.67974853515625, -455.79095458984375, 280.5018615722656, 46.041908264160156, 0.03200000151991844, 0.0, 1.055999994277954, 0.0, 0.0, 0.0, 0.0, 0.0, 1.6216049121242094E9, 2021-05-21 15:48:32.124
50.0, -216.31021118164062, -431.720947265625, 307.4627990722656, 61.468994140625, 0.03200000151991844, 0.0, 1.055999994277954, 0.0, 0.0, 0.0, 0.0, 0.0, 1.6216049121398823E9, 2021-05-21 15:48:32.139
50.0, -182.7670440673828, -390.38385009765625, 342.3934631347656, 97.8656997680664, 0.03200000151991844, 0.0, 1.055999994277954, 0.0, 0.0, 0.0, 0.0, 0.0, 1.6216049121398823E9, 2021-05-21 15:48:32.139
51.0, -188.1001434326172, -408.76171875, 327.8489685058594, 87.50617980957031, 0.03200000151991844, 0.0, 1.055999994277954, 0.0, 0.0, 0.0, 0.0, 0.0, 1.6216049121405745E9, 2021-05-21 15:48:32.140
51.0, -227.90390014648438, -453.1917419433594, 282.2221984863281, 37.537376403808594, 0.03200000151991844, 0.0, 1.055999994277954, 0.0, 0.0, 0.0, 0.0, 0.0, 1.6216049121405745E9, 2021-05-21 15:48:32.140
52.0, -208.0786895751953, -430.4681091308594, 306.2174072265625, 58.83610534667969, 0.03200000151991844, 0.0, 1.055999994277954, 0.0, 0.0, 0.0, 0.0, 0.0, 1.6216049121542153E9, 2021-05-21 15:48:32.154
52.0, -181.51043701171875, -394.5314025878906, 349.0355224609375, 102.76123046875, 0.03200000151991844, 0.0, 1.055999994277954, 0.0, 0.0, 0.0, 0.0, 0.0, 1.6216049121542153E9, 2021-05-21 15:48:32.154
53.0, -199.00942993164062, -405.4593811035156, 332.5575256347656, 84.40579986572266, 0.03200000151991844, 0.0, 1.055999994277954, 0.0, 0.0, 0.0, 0.0, 0.0, 1.621604912169888E9, 2021-05-21 15:48:32.169
53.0, -231.11273193359375, -445.2967834472656, 297.6305847167969, 50.193199157714844, 0.03200000151991844, 0.0, 1.055999994277954, 0.0, 0.0, 0.0, 0.0, 0.0, 1.621604912169888E9, 2021-05-21 15:48:32.169
54.0, -214.2158660888672, -423.422119140625, 313.25213623046875, 66.61883544921875, 0.03200000151991844, 0.0, 1.055999994277954, 0.0, 0.0, 0.0, 0.0, 0.0, 1.6216049121705751E9, 2021-05-21 15:48:32.170
54.0, -181.45059204101562, -388.84674072265625, 356.0328674316406, 104.45540618896484, 0.03200000151991844, 0.0, 1.055999994277954, 0.0, 0.0, 0.0, 0.0, 0.0, 1.6216049121705751E9, 2021-05-21 15:48:32.170
55.0, -194.39439392089844, -407.9800720214844, 337.5315856933594, 88.68798828125, 0.03200000151991844, 0.0, 1.055999994277954, 0.0, 0.0, 0.0, 0.0, 0.0, 1.621604912184182E9, 2021-05-21 15:48:32.184
55.0, -227.5673065185547, -451.250732421875, 294.391845703125, 55.432796478271484, 0.03200000151991844, 0.0, 1.055999994277954, 0.0, 0.0, 0.0, 0.0, 0.0, 1.621604912184182E9, 2021-05-21 15:48:32.184
56.0, -215.79783630371094, -436.474365234375, 306.04534912109375, 69.49108123779297, 0.03200000151991844, 0.0, 1.055999994277954, 0.0, 0.0, 0.0, 0.0, 0.0, 1.6216049121999137E9, 2021-05-21 15:48:32.199
56.0, -183.23826599121094, -400.6461181640625, 350.3033447265625, 112.60090637207031, 0.03200000151991844, 0.0, 1.055999994277954, 0.0, 0.0, 0.0, 0.0, 0.0, 1.6216049121999137E9, 2021-05-21 15:48:32.199
57.0, -194.90675354003906, -417.4233093261719, 327.8751525878906, 90.09044647216797, 0.03200000151991844, 0.0, 1.055999994277954, 0.0, 0.0, 0.0, 0.0, 0.0, 1.6216049122005944E9, 2021-05-21 15:48:32.200
57.0, -232.16363525390625, -450.81689453125, 288.3406677246094, 50.16327667236328, 0.03200000151991844, 0.0, 1.055999994277954, 0.0, 0.0, 0.0, 0.0, 0.0, 1.6216049122005944E9, 2021-05-21 15:48:32.200
58.0, -219.79579162597656, -438.8791198730469, 304.5980224609375, 64.07196807861328, 0.03200000151991844, 0.0, 1.055999994277954, 0.0, 0.0, 0.0, 0.0, 0.0, 1.6216049122141683E9, 2021-05-21 15:48:32.214
58.0, -189.81301879882812, -393.5552673339844, 351.683349609375, 107.89237213134766, 0.03200000151991844, 0.0, 1.055999994277954, 0.0, 0.0, 0.0, 0.0, 0.0, 1.6216049122141683E9, 2021-05-21 15:48:32.214
59.0, -206.12644958496094, -412.6474609375, 330.4107971191406, 85.68484497070312, 0.03200000151991844, 0.0, 1.055999994277954, 0.0, 0.0, 0.0, 0.0, 0.0, 1.621604912229904E9, 2021-05-21 15:48:32.229
59.0, -236.81980895996094, -448.3971862792969, 285.96209716796875, 40.892066955566406, 0.03200000151991844, 0.0, 1.055999994277954, 0.0, 0.0, 0.0, 0.0, 0.0, 1.621604912229904E9, 2021-05-21 15:48:32.229
60.0, -216.99835205078125, -429.4957275390625, 308.43890380859375, 65.4407730102539, 0.03200000151991844, 0.0, 1.055999994277954, 0.0, 0.0, 0.0, 0.0, 0.0, 1.6216049122305825E9, 2021-05-21 15:48:32.230
60.0, -184.30039978027344, -391.3487548828125, 354.2377014160156, 103.02676391601562, 0.03200000151991844, 0.0, 1.055999994277954, 0.0, 0.0, 0.0, 0.0, 0.0, 1.6216049122305825E9, 2021-05-21 15:48:32.230
61.0, -202.67453002929688, -405.6351623535156, 337.31842041015625, 87.4426040649414, 0.03200000151991844, 0.0, 1.055999994277954, 0.0, 0.0, 0.0, 0.0, 0.0, 1.6216049122441936E9, 2021-05-21 15:48:32.244
61.0, -228.9772491455078, -453.1767578125, 292.2039794921875, 45.024654388427734, 0.03200000151991844, 0.0, 1.055999994277954, 0.0, 0.0, 0.0, 0.0, 0.0, 1.6216049122441936E9, 2021-05-21 15:48:32.244
62.0, -212.36834716796875, -425.0115661621094, 314.9425964355469, 65.5193099975586, 0.01600000075995922, 0.0, 1.055999994277954, 0.0, 0.0, 0.0, 0.0, 0.0, 1.6216049122599256E9, 2021-05-21 15:48:32.259
62.0, -182.85305786132812, -384.9572448730469, 359.33892822265625, 107.6604995727539, 0.01600000075995922, 0.0, 1.055999994277954, 0.0, 0.0, 0.0, 0.0, 0.0, 1.6216049122599256E9, 2021-05-21 15:48:32.259
63.0, -201.30572509765625, -399.62139892578125, 342.80859375, 90.21012878417969, 0.01600000075995922, 0.0, 1.055999994277954, 0.0, 0.0, 0.0, 0.0, 0.0, 1.6216049122605464E9, 2021-05-21 15:48:32.260
63.0, -228.64065551757812, -447.9895324707031, 297.6006774902344, 51.326385498046875, 0.01600000075995922, 0.0, 1.055999994277954, 0.0, 0.0, 0.0, 0.0, 0.0, 1.6216049122605464E9, 2021-05-21 15:48:32.260
64.0, -219.3806610107422, -423.5941467285156, 318.3533630371094, 69.81271362304688, 0.01600000075995922, 0.0, 1.055999994277954, 0.0, 0.0, 0.0, 0.0, 0.0, 1.621604912274328E9, 2021-05-21 15:48:32.274
64.0, -180.02943420410156, -386.8421630859375, 357.2333679199219, 112.5784683227539, 0.01600000075995922, 0.0, 1.055999994277954, 0.0, 0.0, 0.0, 0.0, 0.0, 1.621604912274328E9, 2021-05-21 15:48:32.274
65.0, -196.51864624023438, -411.1141052246094, 342.210205078125, 90.55046081542969, 0.01600000075995922, 0.0, 1.055999994277954, 0.0, 0.0, 0.0, 0.0, 0.0, 1.6216049122898717E9, 2021-05-21 15:48:32.289
65.0, -231.984130859375, -458.59588623046875, 285.4534606933594, 45.18547058105469, 0.01600000075995922, 0.0, 1.055999994277954, 0.0, 0.0, 0.0, 0.0, 0.0, 1.6216049122898717E9, 2021-05-21 15:48:32.289
66.0, -211.62037658691406, -437.14007568359375, 309.3738708496094, 64.34123992919922, 0.01600000075995922, 0.0, 1.055999994277954, 0.0, 0.0, 0.0, 0.0, 0.0, 1.6216049122905843E9, 2021-05-21 15:48:32.290
66.0, -180.8484649658203, -395.9039306640625, 349.5216979980469, 102.11796569824219, 0.01600000075995922, 0.0, 1.055999994277954, 0.0, 0.0, 0.0, 0.0, 0.0, 1.6216049122905843E9, 2021-05-21 15:48:32.290
67.0, -202.94754028320312, -408.24188232421875, 323.83233642578125, 84.6563720703125, 0.01600000075995922, 0.0, 1.055999994277954, 0.0, 0.0, 0.0, 0.0, 0.0, 1.6216049123042374E9, 2021-05-21 15:48:32.304
67.0, -233.66334533691406, -445.4127197265625, 285.5731506347656, 44.96107864379883, 0.01600000075995922, 0.0, 1.055999994277954, 0.0, 0.0, 0.0, 0.0, 0.0, 1.6216049123042374E9, 2021-05-21 15:48:32.304
68.0, -219.19366455078125, -421.720458984375, 309.6618347167969, 66.36078643798828, 0.01600000075995922, 0.0, 1.055999994277954, 0.0, 0.0, 0.0, 0.0, 0.0, 1.6216049123198748E9, 2021-05-21 15:48:32.319
68.0, -188.55267333984375, -394.0601806640625, 347.2740173339844, 96.54925537109375, 0.01600000075995922, 0.0, 1.055999994277954, 0.0, 0.0, 0.0, 0.0, 0.0, 1.6216049123198748E9, 2021-05-21 15:48:32.319
69.0, -205.5542449951172, -406.7646179199219, 324.62518310546875, 85.62874603271484, 0.01600000075995922, 0.0, 1.055999994277954, 0.0, 0.0, 0.0, 0.0, 0.0, 1.6216049123205378E9, 2021-05-21 15:48:32.320
69.0, -232.05892944335938, -446.54217529296875, 290.44622802734375, 44.11212158203125, 0.01600000075995922, 0.0, 1.055999994277954, 0.0, 0.0, 0.0, 0.0, 0.0, 1.6216049123205378E9, 2021-05-21 15:48:32.320
70.0, -218.239990234375, -423.0855407714844, 313.5401306152344, 65.81849670410156, 0.01600000075995922, 0.0, 1.055999994277954, 0.0, 0.0, 0.0, 0.0, 0.0, 1.6216049123341632E9, 2021-05-21 15:48:32.334
70.0, -176.9627227783203, -393.8133239746094, 357.786865234375, 105.390380859375, 0.01600000075995922, 0.0, 1.055999994277954, 0.0, 0.0, 0.0, 0.0, 0.0, 1.6216049123341632E9, 2021-05-21 15:48:32.334
71.0, -194.18121337890625, -408.69439697265625, 336.28619384765625, 86.06257629394531, 0.01600000075995922, 0.0, 1.055999994277954, 0.0, 0.0, 0.0, 0.0, 0.0, 1.6216049123499503E9, 2021-05-21 15:48:32.349
71.0, -227.99365234375, -449.4630432128906, 288.8455505371094, 41.692405700683594, 0.01600000075995922, 0.0, 1.055999994277954, 0.0, 0.0, 0.0, 0.0, 0.0, 1.6216049123499503E9, 2021-05-21 15:48:32.349
72.0, -207.394287109375, -430.886962890625, 314.8677978515625, 69.25920867919922, 0.03200000151991844, 0.0, 1.055999994277954, 0.0, 0.0, 0.0, 0.0, 0.0, 1.621604912350624E9, 2021-05-21 15:48:32.350
72.0, -173.45094299316406, -385.6341857910156, 354.3760986328125, 111.33308410644531, 0.03200000151991844, 0.0, 1.055999994277954, 0.0, 0.0, 0.0, 0.0, 0.0, 1.621604912350624E9, 2021-05-21 15:48:32.350
73.0, -191.16685485839844, -414.0424499511719, 334.73040771484375, 89.50328826904297, 0.03200000151991844, 0.0, 1.055999994277954, 0.0, 0.0, 0.0, 0.0, 0.0, 1.621604912364189E9, 2021-05-21 15:48:32.364
73.0, -224.3584747314453, -451.9538269042969, 285.42730712890625, 45.7988166809082, 0.03200000151991844, 0.0, 1.055999994277954, 0.0, 0.0, 0.0, 0.0, 0.0, 1.621604912364189E9, 2021-05-21 15:48:32.364
74.0, -208.50503540039062, -430.1277770996094, 307.84051513671875, 66.25606536865234, 0.03200000151991844, 0.0, 1.055999994277954, 0.0, 0.0, 0.0, 0.0, 0.0, 1.6216049123798852E9, 2021-05-21 15:48:32.379
74.0, -183.5299835205078, -392.4220886230469, 346.6868591308594, 107.55952453613281, 0.03200000151991844, 0.0, 1.055999994277954, 0.0, 0.0, 0.0, 0.0, 0.0, 1.6216049123798852E9, 2021-05-21 15:48:32.379
75.0, -197.35638427734375, -413.5375671386719, 328.1631164550781, 91.2573013305664, 0.03200000151991844, 0.0, 1.055999994277954, 0.0, 0.0, 0.0, 0.0, 0.0, 1.6216049123805516E9, 2021-05-21 15:48:32.380
75.0, -224.42578125, -456.1499938964844, 284.9747619628906, 45.9409294128418, 0.03200000151991844, 0.0, 1.055999994277954, 0.0, 0.0, 0.0, 0.0, 0.0, 1.6216049123805516E9, 2021-05-21 15:48:32.380
76.0, -201.39547729492188, -426.14849853515625, 309.9385986328125, 68.71318054199219, 0.03200000151991844, 0.0, 1.055999994277954, 0.0, 0.0, 0.0, 0.0, 0.0, 1.621604912394163E9, 2021-05-21 15:48:32.394
76.0, -184.06478881835938, -385.42474365234375, 349.89569091796875, 101.28771209716797, 0.03200000151991844, 0.0, 1.055999994277954, 0.0, 0.0, 0.0, 0.0, 0.0, 1.621604912394163E9, 2021-05-21 15:48:32.394
77.0, -202.21826171875, -405.3247375488281, 327.43011474609375, 87.95870971679688, 0.03200000151991844, 0.0, 1.055999994277954, 0.0, 0.0, 0.0, 0.0, 0.0, 1.621604912409864E9, 2021-05-21 15:48:32.409
77.0, -232.70217895507812, -442.2450256347656, 289.8777770996094, 45.10693359375, 0.03200000151991844, 0.0, 1.055999994277954, 0.0, 0.0, 0.0, 0.0, 0.0, 1.621604912409864E9, 2021-05-21 15:48:32.409
78.0, -210.59564208984375, -413.13739013671875, 317.9120788574219, 67.40422058105469, 0.03200000151991844, 0.0, 1.055999994277954, 0.0, 0.0, 0.0, 0.0, 0.0, 1.621604912410602E9, 2021-05-21 15:48:32.410
78.0, -175.83326721191406, -380.08416748046875, 360.8311462402344, 101.74024200439453, 0.03200000151991844, 0.0, 1.055999994277954, 0.0, 0.0, 0.0, 0.0, 0.0, 1.621604912410602E9, 2021-05-21 15:48:32.410
79.0, -196.88890075683594, -403.1593322753906, 338.982666015625, 82.72284698486328, 0.03200000151991844, 0.0, 1.055999994277954, 0.0, 0.0, 0.0, 0.0, 0.0, 1.6216049124241564E9, 2021-05-21 15:48:32.424
79.0, -228.10958862304688, -444.1785583496094, 296.22064208984375, 44.05228042602539, 0.03200000151991844, 0.0, 1.055999994277954, 0.0, 0.0, 0.0, 0.0, 0.0, 1.6216049124241564E9, 2021-05-21 15:48:32.424
80.0, -212.3571319580078, -425.3930358886719, 316.8910827636719, 65.62028503417969, 0.03200000151991844, 0.0, 1.055999994277954, 0.0, 0.0, 0.0, 0.0, 0.0, 1.6216049124399767E9, 2021-05-21 15:48:32.439
80.0, -178.34274291992188, -389.05242919921875, 352.8464660644531, 105.97380828857422, 0.03200000151991844, 0.0, 1.055999994277954, 0.0, 0.0, 0.0, 0.0, 0.0, 1.6216049124399767E9, 2021-05-21 15:48:32.439
81.0, -191.7053985595703, -404.8011474609375, 337.7372741699219, 89.16295623779297, 0.03200000151991844, 0.0, 1.055999994277954, 0.0, 0.0, 0.0, 0.0, 0.0, 1.6216049124406116E9, 2021-05-21 15:48:32.440
81.0, -221.5049285888672, -446.3664245605469, 296.916259765625, 51.28898620605469, 0.03200000151991844, 0.0, 1.055999994277954, 0.0, 0.0, 0.0, 0.0, 0.0, 1.6216049124406116E9, 2021-05-21 15:48:32.440
82.0, -206.4106903076172, -428.4560241699219, 313.6074523925781, 68.76554107666016, 0.03200000151991844, 0.0, 1.055999994277954, 0.0, 0.0, 0.0, 0.0, 0.0, 1.6216049124541311E9, 2021-05-21 15:48:32.454
82.0, -179.54698181152344, -388.6859436035156, 350.4230041503906, 110.46168518066406, 0.03200000151991844, 0.0, 1.055999994277954, 0.0, 0.0, 0.0, 0.0, 0.0, 1.6216049124541311E9, 2021-05-21 15:48:32.454
83.0, -194.61505126953125, -404.2887878417969, 332.72955322265625, 91.37323760986328, 0.03200000151991844, 0.0, 1.055999994277954, 0.0, 0.0, 0.0, 0.0, 0.0, 1.6216049124699676E9, 2021-05-21 15:48:32.469
83.0, -234.4412384033203, -446.6394348144531, 278.9086608886719, 45.42482376098633, 0.03200000151991844, 0.0, 1.055999994277954, 0.0, 0.0, 0.0, 0.0, 0.0, 1.6216049124699676E9, 2021-05-21 15:48:32.469
84.0, -209.765380859375, -430.4568786621094, 303.3675842285156, 61.985103607177734, 0.03200000151991844, 0.0, 1.055999994277954, 0.0, 0.0, 0.0, 0.0, 0.0, 1.621604912470556E9, 2021-05-21 15:48:32.470
84.0, -172.67678833007812, -391.98077392578125, 349.71990966796875, 109.1003646850586, 0.03200000151991844, 0.0, 1.055999994277954, 0.0, 0.0, 0.0, 0.0, 0.0, 1.621604912470556E9, 2021-05-21 15:48:32.470
85.0, -196.30548095703125, -414.9101257324219, 322.9571838378906, 81.69063568115234, 0.03200000151991844, 0.0, 1.055999994277954, 0.0, 0.0, 0.0, 0.0, 0.0, 1.6216049124842155E9, 2021-05-21 15:48:32.484
85.0, -233.27064514160156, -449.0553894042969, 278.13824462890625, 35.585147857666016, 0.03200000151991844, 0.0, 1.055999994277954, 0.0, 0.0, 0.0, 0.0, 0.0, 1.6216049124842155E9, 2021-05-21 15:48:32.484
86.0, -214.48513793945312, -421.567138671875, 308.5174255371094, 63.417484283447266, 0.03200000151991844, 0.0, 1.055999994277954, 0.0, 0.0, 0.0, 0.0, 0.0, 1.6216049124998813E9, 2021-05-21 15:48:32.499
86.0, -181.0205078125, -386.9992370605469, 353.9347839355469, 102.16284942626953, 0.03200000151991844, 0.0, 1.055999994277954, 0.0, 0.0, 0.0, 0.0, 0.0, 1.6216049124998813E9, 2021-05-21 15:48:32.499
87.0, -193.13031005859375, -406.0690002441406, 335.5195007324219, 90.7000503540039, 0.03200000151991844, 0.0, 1.055999994277954, 0.0, 0.0, 0.0, 0.0, 0.0, 1.621604912500559E9, 2021-05-21 15:48:32.500
87.0, -219.85562133789062, -445.9512939453125, 292.3909912109375, 42.85551452636719, 0.03200000151991844, 0.0, 1.055999994277954, 0.0, 0.0, 0.0, 0.0, 0.0, 1.621604912500559E9, 2021-05-21 15:48:32.500
88.0, -208.43397521972656, -428.3737487792969, 314.14971923828125, 65.51182556152344, 0.03200000151991844, 0.0, 1.055999994277954, 0.0, 0.0, 0.0, 0.0, 0.0, 1.62160491251414E9, 2021-05-21 15:48:32.514
88.0, -171.37530517578125, -392.42584228515625, 357.2408447265625, 110.4130630493164, 0.03200000151991844, 0.0, 1.055999994277954, 0.0, 0.0, 0.0, 0.0, 0.0, 1.62160491251414E9, 2021-05-21 15:48:32.514
89.0, -183.67584228515625, -407.4190979003906, 338.3094787597656, 88.76278686523438, 0.03200000151991844, 0.0, 1.055999994277954, 0.0, 0.0, 0.0, 0.0, 0.0, 1.6216049125298567E9, 2021-05-21 15:48:32.529
89.0, -215.76417541503906, -452.0548095703125, 294.9490661621094, 42.85551452636719, 0.03200000151991844, 0.0, 1.055999994277954, 0.0, 0.0, 0.0, 0.0, 0.0, 1.6216049125298567E9, 2021-05-21 15:48:32.529
90.0, -200.269775390625, -430.8458251953125, 313.3531188964844, 68.13723754882812, 0.03200000151991844, 0.0, 1.055999994277954, 0.0, 0.0, 0.0, 0.0, 0.0, 1.621604912530511E9, 2021-05-21 15:48:32.530
90.0, -169.7559356689453, -395.6197204589844, 354.1591796875, 109.32101440429688, 0.03200000151991844, 0.0, 1.055999994277954, 0.0, 0.0, 0.0, 0.0, 0.0, 1.621604912530511E9, 2021-05-21 15:48:32.530
91.0, -187.49053955078125, -409.7752380371094, 331.858154296875, 90.50557708740234, 0.03200000151991844, 0.0, 1.055999994277954, 0.0, 0.0, 0.0, 0.0, 0.0, 1.6216049125441756E9, 2021-05-21 15:48:32.544
91.0, -225.07278442382812, -451.9575500488281, 279.2041015625, 49.11610794067383, 0.03200000151991844, 0.0, 1.055999994277954, 0.0, 0.0, 0.0, 0.0, 0.0, 1.6216049125441756E9, 2021-05-21 15:48:32.544
92.0, -210.5283203125, -434.1219787597656, 307.4739990234375, 68.2307357788086, 0.03200000151991844, 0.0, 1.055999994277954, 0.0, 0.0, 0.0, 0.0, 0.0, 1.621604912559947E9, 2021-05-21 15:48:32.559
92.0, -181.83953857421875, -395.3167724609375, 349.73486328125, 112.1147232055664, 0.03200000151991844, 0.0, 1.055999994277954, 0.0, 0.0, 0.0, 0.0, 0.0, 1.621604912559947E9, 2021-05-21 15:48:32.559
93.0, -193.309814453125, -411.5628967285156, 322.186767578125, 88.20928192138672, 0.03200000151991844, 0.0, 1.055999994277954, 0.0, 0.0, 0.0, 0.0, 0.0, 1.6216049125605905E9, 2021-05-21 15:48:32.560
93.0, -226.62110900878906, -451.41900634765625, 278.94232177734375, 46.655250549316406, 0.03200000151991844, 0.0, 1.055999994277954, 0.0, 0.0, 0.0, 0.0, 0.0, 1.6216049125605905E9, 2021-05-21 15:48:32.560
94.0, -209.48487854003906, -430.0941162109375, 305.5442199707031, 68.02503967285156, 0.03200000151991844, 0.0, 1.055999994277954, 0.0, 0.0, 0.0, 0.0, 0.0, 1.6216049125741732E9, 2021-05-21 15:48:32.574
94.0, -173.31631469726562, -394.96148681640625, 349.50299072265625, 106.03364562988281, 0.03200000151991844, 0.0, 1.055999994277954, 0.0, 0.0, 0.0, 0.0, 0.0, 1.6216049125741732E9, 2021-05-21 15:48:32.574
95.0, -189.05007934570312, -415.4299621582031, 330.13031005859375, 84.80970764160156, 0.03200000151991844, 0.0, 1.055999994277954, 0.0, 0.0, 0.0, 0.0, 0.0, 1.62160491258988E9, 2021-05-21 15:48:32.589
95.0, -219.75091552734375, -455.3085021972656, 290.636962890625, 34.12284851074219, 0.03200000151991844, 0.0, 1.055999994277954, 0.0, 0.0, 0.0, 0.0, 0.0, 1.62160491258988E9, 2021-05-21 15:48:32.589
96.0, -203.79275512695312, -428.4261169433594, 315.3390197753906, 58.95952224731445, 0.03200000151991844, 0.0, 1.055999994277954, 0.0, 0.0, 0.0, 0.0, 0.0, 1.621604912590531E9, 2021-05-21 15:48:32.590
96.0, -165.21194458007812, -385.49578857421875, 359.9672546386719, 101.657958984375, 0.03200000151991844, 0.0, 1.055999994277954, 0.0, 0.0, 0.0, 0.0, 0.0, 1.621604912590531E9, 2021-05-21 15:48:32.590
97.0, -181.6450653076172, -402.68438720703125, 340.1457824707031, 86.04387664794922, 0.03200000151991844, 0.0, 1.055999994277954, 0.0, 0.0, 0.0, 0.0, 0.0, 1.62160491260426E9, 2021-05-21 15:48:32.604
97.0, -215.11343383789062, -439.94873046875, 302.8963623046875, 49.6135139465332, 0.03200000151991844, 0.0, 1.055999994277954, 0.0, 0.0, 0.0, 0.0, 0.0, 1.62160491260426E9, 2021-05-21 15:48:32.604
98.0, -200.0154571533203, -419.9515075683594, 325.1113586425781, 71.42460632324219, 0.03200000151991844, 0.0, 1.055999994277954, 0.0, 0.0, 0.0, 0.0, 0.0, 1.6216049126198652E9, 2021-05-21 15:48:32.619
98.0, -172.30279541015625, -379.4296875, 363.79315185546875, 107.28276824951172, 0.03200000151991844, 0.0, 1.055999994277954, 0.0, 0.0, 0.0, 0.0, 0.0, 1.6216049126198652E9, 2021-05-21 15:48:32.619
99.0, -197.66680908203125, -407.3966369628906, 335.4335021972656, 84.5105209350586, 0.03200000151991844, 0.0, 1.055999994277954, 0.0, 0.0, 0.0, 0.0, 0.0, 1.621604912620564E9, 2021-05-21 15:48:32.620
99.0, -233.44268798828125, -451.7107238769531, 288.56134033203125, 45.611820220947266, 0.03200000151991844, 0.0, 1.055999994277954, 0.0, 0.0, 0.0, 0.0, 0.0, 1.621604912620564E9, 2021-05-21 15:48:32.620
100.0, -210.30392456054688, -431.0851745605469, 310.20037841796875, 63.34268569946289, 0.03200000151991844, 0.0, 1.055999994277954, 0.0, 0.0, 0.0, 0.0, 0.0, 1.62160491263491E9, 2021-05-21 15:48:32.634
100.0, -179.22909545898438, -388.338134765625, 353.6094055175781, 111.03762817382812, 0.03200000151991844, 0.0, 1.055999994277954, 0.0, 0.0, 0.0, 0.0, 0.0, 1.62160491263491E9, 2021-05-21 15:48:32.634
0.0, -195.75384521484375, -413.6871643066406, 331.6038513183594, 93.70132446289062, 0.03200000151991844, 0.0, 1.055999994277954, 0.0, 0.0, 0.0, 0.0, 0.0, 1.621604912635589E9, 2021-05-21 15:48:32.635
1.0, -224.03871154785156, -446.8675537109375, 291.4410400390625, 52.38665008544922, 0.03200000151991844, 0.0, 1.055999994277954, 0.0, 0.0, 0.0, 0.0, 0.0, 1.6216049126655283E9, 2021-05-21 15:48:32.665
1.0, -207.25778198242188, -433.1683044433594, 315.0921936035156, 69.39571380615234, 0.03200000151991844, 0.0, 1.055999994277954, 0.0, 0.0, 0.0, 0.0, 0.0, 1.6216049126655283E9, 2021-05-21 15:48:32.665
2.0, -165.8421173095703, -395.8927307128906, 360.6665954589844, 114.0538558959961, 0.03200000151991844, 0.0, 1.055999994277954, 0.0, 0.0, 0.0, 0.0, 0.0, 1.6216049126662323E9, 2021-05-21 15:48:32.666
2.0, -191.80824279785156, -414.45758056640625, 331.99652099609375, 88.16252899169922, 0.03200000151991844, 0.0, 1.055999994277954, 0.0, 0.0, 0.0, 0.0, 0.0, 1.6216049126662323E9, 2021-05-21 15:48:32.666
3.0, -228.55276489257812, -445.91015625, 286.0481262207031, 43.65772247314453, 0.03200000151991844, 0.0, 1.055999994277954, 0.0, 0.0, 0.0, 0.0, 0.0, 1.621604912666982E9, 2021-05-21 15:48:32.666
3.0, -204.77073669433594, -424.97418212890625, 318.1476745605469, 67.16299438476562, 0.03200000151991844, 0.0, 1.055999994277954, 0.0, 0.0, 0.0, 0.0, 0.0, 1.621604912666982E9, 2021-05-21 15:48:32.666
4.0, -169.6082000732422, -385.5631103515625, 371.1831970214844, 110.10826110839844, 0.03200000151991844, 0.0, 1.055999994277954, 0.0, 0.0, 0.0, 0.0, 0.0, 1.6216049126793146E9, 2021-05-21 15:48:32.679
4.0, -186.59109497070312, -397.07080078125, 349.5740661621094, 88.35700988769531, 0.03200000151991844, 0.0, 1.055999994277954, 0.0, 0.0, 0.0, 0.0, 0.0, 1.6216049126793146E9, 2021-05-21 15:48:32.679
5.0, -220.24270629882812, -440.98095703125, 300.1961669921875, 44.581478118896484, 0.03200000151991844, 0.0, 1.055999994277954, 0.0, 0.0, 0.0, 0.0, 0.0, 1.6216049126949096E9, 2021-05-21 15:48:32.694
5.0, -207.53079223632812, -425.13873291015625, 317.796142578125, 65.77922821044922, 0.03200000151991844, 0.0, 1.055999994277954, 0.0, 0.0, 0.0, 0.0, 0.0, 1.6216049126949096E9, 2021-05-21 15:48:32.694
6.0, -177.38719177246094, -380.64141845703125, 361.55670166015625, 112.15399169921875, 0.03200000151991844, 0.0, 1.055999994277954, 0.0, 0.0, 0.0, 0.0, 0.0, 1.621604912695573E9, 2021-05-21 15:48:32.695
6.0, -191.76710510253906, -401.6035461425781, 343.8520202636719, 92.41854095458984, 0.03200000151991844, 0.0, 1.055999994277954, 0.0, 0.0, 0.0, 0.0, 0.0, 1.621604912695573E9, 2021-05-21 15:48:32.695
7.0, -220.42596435546875, -450.31201171875, 290.6407165527344, 48.33259582519531, 0.03200000151991844, 0.0, 1.055999994277954, 0.0, 0.0, 0.0, 0.0, 0.0, 1.6216049127254813E9, 2021-05-21 15:48:32.725
7.0, -200.39132690429688, -431.3282775878906, 315.8289489746094, 74.39595794677734, 0.03200000151991844, 0.0, 1.055999994277954, 0.0, 0.0, 0.0, 0.0, 0.0, 1.6216049127254813E9, 2021-05-21 15:48:32.725
8.0, -173.8642120361328, -387.0141906738281, 361.56793212890625, 111.32746887207031, 0.03200000151991844, 0.0, 1.055999994277954, 0.0, 0.0, 0.0, 0.0, 0.0, 1.6216049127262444E9, 2021-05-21 15:48:32.726
8.0, -187.14833068847656, -415.8263854980469, 332.2770080566406, 93.48815155029297, 0.03200000151991844, 0.0, 1.055999994277954, 0.0, 0.0, 0.0, 0.0, 0.0, 1.6216049127262444E9, 2021-05-21 15:48:32.726
9.0, -216.4242706298828, -453.97711181640625, 289.44769287109375, 51.10386276245117, 0.03200000151991844, 0.0, 1.055999994277954, 0.0, 0.0, 0.0, 0.0, 0.0, 1.6216049127269623E9, 2021-05-21 15:48:32.726
9.0, -201.56190490722656, -436.92315673828125, 308.3902893066406, 72.578369140625, 0.03200000151991844, 0.0, 1.055999994277954, 0.0, 0.0, 0.0, 0.0, 0.0, 1.6216049127269623E9, 2021-05-21 15:48:32.726
10.0, -171.5679168701172, -396.2517395019531, 350.26220703125, 113.9715805053711, 0.03200000151991844, 0.0, 1.055999994277954, 0.0, 0.0, 0.0, 0.0, 0.0, 1.6216049127391696E9, 2021-05-21 15:48:32.739
10.0, -185.8655548095703, -412.7334899902344, 331.9105224609375, 94.85694885253906, 0.03200000151991844, 0.0, 1.055999994277954, 0.0, 0.0, 0.0, 0.0, 0.0, 1.6216049127391696E9, 2021-05-21 15:48:32.739
11.0, -220.28758239746094, -458.4761962890625, 285.1842041015625, 51.53021240234375, 0.03200000151991844, 0.0, 1.055999994277954, 0.0, 0.0, 0.0, 0.0, 0.0, 1.621604912754854E9, 2021-05-21 15:48:32.754
11.0, -202.45201110839844, -432.9888000488281, 306.26226806640625, 71.59103393554688, 0.03200000151991844, 0.0, 1.055999994277954, 0.0, 0.0, 0.0, 0.0, 0.0, 1.621604912754854E9, 2021-05-21 15:48:32.754
12.0, -170.4683837890625, -393.2112121582031, 355.0455322265625, 111.25641632080078, 0.03200000151991844, 0.0, 1.055999994277954, 0.0, 0.0, 0.0, 0.0, 0.0, 1.6216049127555487E9, 2021-05-21 15:48:32.755
12.0, -182.31263732910156, -416.133056640625, 332.4228820800781, 88.8394546508789, 0.03200000151991844, 0.0, 1.055999994277954, 0.0, 0.0, 0.0, 0.0, 0.0, 1.6216049127555487E9, 2021-05-21 15:48:32.755
13.0, -214.44586181640625, -453.8050842285156, 294.88177490234375, 46.88525390625, 0.03200000151991844, 0.0, 1.055999994277954, 0.0, 0.0, 0.0, 0.0, 0.0, 1.6216049127855492E9, 2021-05-21 15:48:32.785
13.0, -192.19346618652344, -434.4959716796875, 315.7242126464844, 63.778385162353516, 0.03200000151991844, 0.0, 1.055999994277954, 0.0, 0.0, 0.0, 0.0, 0.0, 1.6216049127855492E9, 2021-05-21 15:48:32.785
14.0, -164.42469787597656, -392.1079406738281, 357.4914245605469, 104.4797134399414, 0.03200000151991844, 0.0, 1.055999994277954, 0.0, 0.0, 0.0, 0.0, 0.0, 1.6216049127862575E9, 2021-05-21 15:48:32.786
14.0, -185.3045654296875, -415.7291564941406, 333.56353759765625, 80.59671020507812, 0.03200000151991844, 0.0, 1.055999994277954, 0.0, 0.0, 0.0, 0.0, 0.0, 1.6216049127862575E9, 2021-05-21 15:48:32.786
15.0, -213.66796875, -453.2627868652344, 292.49945068359375, 42.50957107543945, 0.03200000151991844, 0.0, 1.055999994277954, 0.0, 0.0, 0.0, 0.0, 0.0, 1.621604912787018E9, 2021-05-21 15:48:32.787
15.0, -202.57168579101562, -434.00604248046875, 306.8644104003906, 63.61756896972656, 0.03200000151991844, 0.0, 1.055999994277954, 0.0, 0.0, 0.0, 0.0, 0.0, 1.621604912787018E9, 2021-05-21 15:48:32.787
16.0, -177.5031280517578, -391.0345764160156, 348.04443359375, 105.89714050292969, 0.03200000151991844, 0.0, 1.055999994277954, 0.0, 0.0, 0.0, 0.0, 0.0, 1.6216049127991602E9, 2021-05-21 15:48:32.799
16.0, -190.58529663085938, -414.89141845703125, 327.4226379394531, 88.22985076904297, 0.03200000151991844, 0.0, 1.055999994277954, 0.0, 0.0, 0.0, 0.0, 0.0, 1.6216049127991602E9, 2021-05-21 15:48:32.799
17.0, -220.42222595214844, -455.8769836425781, 279.21533203125, 45.774505615234375, 0.03200000151991844, 0.0, 1.055999994277954, 0.0, 0.0, 0.0, 0.0, 0.0, 1.6216049128145978E9, 2021-05-21 15:48:32.814
17.0, -207.6018524169922, -434.2266845703125, 300.04656982421875, 67.27145385742188, 0.03200000151991844, 0.0, 1.055999994277954, 0.0, 0.0, 0.0, 0.0, 0.0, 1.6216049128145978E9, 2021-05-21 15:48:32.814
18.0, -170.26641845703125, -397.46722412109375, 347.1618347167969, 112.3035888671875, 0.03200000151991844, 0.0, 1.055999994277954, 0.0, 0.0, 0.0, 0.0, 0.0, 1.621604912830504E9, 2021-05-21 15:48:32.830
18.0, -187.79159545898438, -419.9814147949219, 322.1493835449219, 87.91195678710938, 0.03200000151991844, 0.0, 1.055999994277954, 0.0, 0.0, 0.0, 0.0, 0.0, 1.621604912830504E9, 2021-05-21 15:48:32.830
19.0, -220.0557098388672, -456.06396484375, 279.967041015625, 48.66170883178711, 0.03200000151991844, 0.0, 1.055999994277954, 0.0, 0.0, 0.0, 0.0, 0.0, 1.621604912831244E9, 2021-05-21 15:48:32.831
19.0, -200.6082305908203, -444.8779296875, 303.1544189453125, 66.45989227294922, 0.03200000151991844, 0.0, 1.055999994277954, 0.0, 0.0, 0.0, 0.0, 0.0, 1.621604912831244E9, 2021-05-21 15:48:32.831
20.0, -163.80014038085938, -399.46807861328125, 349.0467224121094, 108.1709976196289, 0.03200000151991844, 0.0, 1.055999994277954, 0.0, 0.0, 0.0, 0.0, 0.0, 1.6216049128449929E9, 2021-05-21 15:48:32.844
20.0, -184.94927978515625, -416.8174743652344, 331.1251220703125, 88.30464935302734, 0.03200000151991844, 0.0, 1.055999994277954, 0.0, 0.0, 0.0, 0.0, 0.0, 1.6216049128449929E9, 2021-05-21 15:48:32.844
21.0, -216.6823272705078, -461.756103515625, 287.3982238769531, 47.37144088745117, 0.03200000151991844, 0.0, 1.055999994277954, 0.0, 0.0, 0.0, 0.0, 0.0, 1.6216049128456013E9, 2021-05-21 15:48:32.845
21.0, -199.81163024902344, -438.351806640625, 310.0433044433594, 67.74641418457031, 0.03200000151991844, 0.0, 1.055999994277954, 0.0, 0.0, 0.0, 0.0, 0.0, 1.6216049128456013E9, 2021-05-21 15:48:32.845
22.0, -166.2235870361328, -396.2218322753906, 354.85479736328125, 103.2941665649414, 0.03200000151991844, 0.0, 1.055999994277954, 0.0, 0.0, 0.0, 0.0, 0.0, 1.621604912859118E9, 2021-05-21 15:48:32.859
22.0, -180.9475860595703, -411.8134765625, 339.1247863769531, 88.89555358886719, 0.03200000151991844, 0.0, 1.055999994277954, 0.0, 0.0, 0.0, 0.0, 0.0, 1.621604912859118E9, 2021-05-21 15:48:32.859
23.0, -218.78041076660156, -449.3957214355469, 291.7439880371094, 42.34501647949219, 0.03200000151991844, 0.0, 1.055999994277954, 0.0, 0.0, 0.0, 0.0, 0.0, 1.6216049128749318E9, 2021-05-21 15:48:32.874
23.0, -199.61341857910156, -425.72589111328125, 319.5239562988281, 68.68513488769531, 0.03200000151991844, 0.0, 1.055999994277954, 0.0, 0.0, 0.0, 0.0, 0.0, 1.6216049128749318E9, 2021-05-21 15:48:32.874
24.0, -168.69566345214844, -389.9051513671875, 358.9237976074219, 107.5501708984375, 0.03200000151991844, 0.0, 1.055999994277954, 0.0, 0.0, 0.0, 0.0, 0.0, 1.6216049128755648E9, 2021-05-21 15:48:32.875
24.0, -186.01513671875, -409.6966857910156, 340.4075622558594, 95.26460266113281, 0.03200000151991844, 0.0, 1.055999994277954, 0.0, 0.0, 0.0, 0.0, 0.0, 1.6216049128755648E9, 2021-05-21 15:48:32.875
25.0, -221.9742889404297, -452.4325256347656, 290.30413818359375, 54.787662506103516, 0.03200000151991844, 0.0, 1.055999994277954, 0.0, 0.0, 0.0, 0.0, 0.0, 1.6216049129055822E9, 2021-05-21 15:48:32.905
25.0, -203.96665954589844, -428.7514953613281, 313.7046813964844, 72.58584594726562, 0.03200000151991844, 0.0, 1.055999994277954, 0.0, 0.0, 0.0, 0.0, 0.0, 1.6216049129055822E9, 2021-05-21 15:48:32.905
26.0, -170.3487091064453, -390.84759521484375, 353.302734375, 115.89762878417969, 0.03200000151991844, 0.0, 1.055999994277954, 0.0, 0.0, 0.0, 0.0, 0.0, 1.6216049129062672E9, 2021-05-21 15:48:32.906
26.0, -192.634765625, -417.6626892089844, 331.7347412109375, 93.18148040771484, 0.03200000151991844, 0.0, 1.055999994277954, 0.0, 0.0, 0.0, 0.0, 0.0, 1.6216049129062672E9, 2021-05-21 15:48:32.906
27.0, -219.7303466796875, -457.6534423828125, 285.5843811035156, 52.85787582397461, 0.03200000151991844, 0.0, 1.055999994277954, 0.0, 0.0, 0.0, 0.0, 0.0, 1.6216049129069865E9, 2021-05-21 15:48:32.906
27.0, -201.8798065185547, -434.185546875, 307.84051513671875, 72.88877868652344, 0.03200000151991844, 0.0, 1.055999994277954, 0.0, 0.0, 0.0, 0.0, 0.0, 1.6216049129069865E9, 2021-05-21 15:48:32.906
28.0, -170.4945526123047, -386.4681701660156, 353.9759216308594, 117.87977600097656, 0.03200000151991844, 0.0, 1.055999994277954, 0.0, 0.0, 0.0, 0.0, 0.0, 1.621604912919175E9, 2021-05-21 15:48:32.919
28.0, -185.11383056640625, -410.205322265625, 336.69384765625, 95.12622833251953, 0.03200000151991844, 0.0, 1.055999994277954, 0.0, 0.0, 0.0, 0.0, 0.0, 1.621604912919175E9, 2021-05-21 15:48:32.919
29.0, -218.78041076660156, -454.87841796875, 295.0425720214844, 55.53938293457031, 0.03200000151991844, 0.0, 1.055999994277954, 0.0, 0.0, 0.0, 0.0, 0.0, 1.6216049129348743E9, 2021-05-21 15:48:32.934
29.0, -203.56649780273438, -432.7195129394531, 313.91412353515625, 68.96562194824219, 0.03200000151991844, 0.0, 1.055999994277954, 0.0, 0.0, 0.0, 0.0, 0.0, 1.6216049129348743E9, 2021-05-21 15:48:32.934
30.0, -172.13262939453125, -395.35418701171875, 360.8423767089844, 110.58697509765625, 0.03200000151991844, 0.0, 1.055999994277954, 0.0, 0.0, 0.0, 0.0, 0.0, 1.621604912935542E9, 2021-05-21 15:48:32.935
30.0, -187.88134765625, -414.2855529785156, 333.8552551269531, 86.09436798095703, 0.03200000151991844, 0.0, 1.055999994277954, 0.0, 0.0, 0.0, 0.0, 0.0, 1.621604912935542E9, 2021-05-21 15:48:32.935
31.0, -216.31207275390625, -450.48028564453125, 294.885498046875, 43.32113265991211, 0.03200000151991844, 0.0, 1.055999994277954, 0.0, 0.0, 0.0, 0.0, 0.0, 1.6216049129491713E9, 2021-05-21 15:48:32.949
31.0, -199.69569396972656, -422.3786926269531, 319.146240234375, 70.92533111572266, 0.03200000151991844, 0.0, 1.055999994277954, 0.0, 0.0, 0.0, 0.0, 0.0, 1.6216049129491713E9, 2021-05-21 15:48:32.949
32.0, -170.76382446289062, -384.6842346191406, 357.4390563964844, 107.11260223388672, 0.03200000151991844, 0.0, 1.055999994277954, 0.0, 0.0, 0.0, 0.0, 0.0, 1.6216049129648705E9, 2021-05-21 15:48:32.964
32.0, -187.23060607910156, -408.9038391113281, 338.03271484375, 90.29801177978516, 0.03200000151991844, 0.0, 1.055999994277954, 0.0, 0.0, 0.0, 0.0, 0.0, 1.6216049129648705E9, 2021-05-21 15:48:32.964
33.0, -224.19578552246094, -448.5243225097656, 287.7385559082031, 47.65941619873047, 0.03200000151991844, 0.0, 1.055999994277954, 0.0, 0.0, 0.0, 0.0, 0.0, 1.6216049129655907E9, 2021-05-21 15:48:32.965
33.0, -200.92237854003906, -426.38787841796875, 312.4967041015625, 74.58295440673828, 0.03200000151991844, 0.0, 1.055999994277954, 0.0, 0.0, 0.0, 0.0, 0.0, 1.6216049129655907E9, 2021-05-21 15:48:32.965
34.0, -172.2822265625, -388.72332763671875, 355.62896728515625, 120.24713134765625, 0.03200000151991844, 0.0, 1.055999994277954, 0.0, 0.0, 0.0, 0.0, 0.0, 1.6216049129791725E9, 2021-05-21 15:48:32.979
34.0, -186.83792114257812, -411.66387939453125, 334.7117004394531, 94.37076568603516, 0.03200000151991844, 0.0, 1.055999994277954, 0.0, 0.0, 0.0, 0.0, 0.0, 1.6216049129791725E9, 2021-05-21 15:48:32.979
35.0, -223.56747436523438, -446.89373779296875, 283.4451599121094, 52.083717346191406, 0.03200000151991844, 0.0, 1.055999994277954, 0.0, 0.0, 0.0, 0.0, 0.0, 1.621604912995113E9, 2021-05-21 15:48:32.995
35.0, -209.53536987304688, -426.6197509765625, 306.3520202636719, 72.75414276123047, 0.03200000151991844, 0.0, 1.055999994277954, 0.0, 0.0, 0.0, 0.0, 0.0, 1.621604912995113E9, 2021-05-21 15:48:32.995
36.0, -176.24278259277344, -384.06341552734375, 349.8096618652344, 116.03226470947266, 0.03200000151991844, 0.0, 1.055999994277954, 0.0, 0.0, 0.0, 0.0, 0.0, 1.6216049129955337E9, 2021-05-21 15:48:32.995
36.0, -193.1807861328125, -406.3158264160156, 328.1556396484375, 96.42022705078125, 0.03200000151991844, 0.0, 1.055999994277954, 0.0, 0.0, 0.0, 0.0, 0.0, 1.6216049129955337E9, 2021-05-21 15:48:32.995
37.0, -215.956787109375, -444.2047424316406, 291.19049072265625, 52.846656799316406, 0.03200000151991844, 0.0, 1.055999994277954, 0.0, 0.0, 0.0, 0.0, 0.0, 1.6216049130091355E9, 2021-05-21 15:48:33.009
37.0, -200.4436798095703, -420.7406005859375, 313.8692321777344, 76.14623260498047, 0.03200000151991844, 0.0, 1.055999994277954, 0.0, 0.0, 0.0, 0.0, 0.0, 1.6216049130091355E9, 2021-05-21 15:48:33.009
38.0, -172.26353454589844, -385.6379089355469, 358.9013671875, 109.96988677978516, 0.03200000151991844, 0.0, 1.055999994277954, 0.0, 0.0, 0.0, 0.0, 0.0, 1.6216049130248723E9, 2021-05-21 15:48:33.024
38.0, -193.84649658203125, -401.30810546875, 332.3667907714844, 89.81930541992188, 0.03200000151991844, 0.0, 1.055999994277954, 0.0, 0.0, 0.0, 0.0, 0.0, 1.6216049130248723E9, 2021-05-21 15:48:33.024
39.0, -219.48350524902344, -438.0451354980469, 297.63433837890625, 52.783077239990234, 0.03200000151991844, 0.0, 1.055999994277954, 0.0, 0.0, 0.0, 0.0, 0.0, 1.6216049130255837E9, 2021-05-21 15:48:33.025
39.0, -191.84190368652344, -419.2783203125, 327.8041076660156, 74.38848114013672, 0.03200000151991844, 0.0, 1.055999994277954, 0.0, 0.0, 0.0, 0.0, 0.0, 1.6216049130255837E9, 2021-05-21 15:48:33.025
40.0, -164.5331573486328, -375.3083190917969, 370.0387878417969, 110.00728607177734, 0.03200000151991844, 0.0, 1.055999994277954, 0.0, 0.0, 0.0, 0.0, 0.0, 1.6216049130391705E9, 2021-05-21 15:48:33.039
40.0, -182.34629821777344, -396.6070556640625, 345.7481384277344, 94.68865966796875, 0.03200000151991844, 0.0, 1.055999994277954, 0.0, 0.0, 0.0, 0.0, 0.0, 1.6216049130391705E9, 2021-05-21 15:48:33.039
41.0, -217.0226593017578, -440.86126708984375, 300.3569641113281, 52.57738494873047, 0.03200000151991844, 0.0, 1.055999994277954, 0.0, 0.0, 0.0, 0.0, 0.0, 1.6216049130548573E9, 2021-05-21 15:48:33.054
41.0, -201.3636932373047, -425.8642883300781, 322.80010986328125, 71.9201431274414, 0.03200000151991844, 0.0, 1.055999994277954, 0.0, 0.0, 0.0, 0.0, 0.0, 1.6216049130548573E9, 2021-05-21 15:48:33.054
42.0, -171.72872924804688, -382.3355712890625, 357.4278564453125, 117.7451400756836, 0.03200000151991844, 0.0, 1.055999994277954, 0.0, 0.0, 0.0, 0.0, 0.0, 1.6216049130555837E9, 2021-05-21 15:48:33.055
42.0, -189.68772888183594, -406.6561584472656, 334.8201599121094, 95.806884765625, 0.03200000151991844, 0.0, 1.055999994277954, 0.0, 0.0, 0.0, 0.0, 0.0, 1.6216049130555837E9, 2021-05-21 15:48:33.055
43.0, -223.8031005859375, -446.96478271484375, 288.77825927734375, 49.970672607421875, 0.03200000151991844, 0.0, 1.055999994277954, 0.0, 0.0, 0.0, 0.0, 0.0, 1.621604913069138E9, 2021-05-21 15:48:33.069
43.0, -211.7643585205078, -429.5592956542969, 307.4927062988281, 69.68742370605469, 0.03200000151991844, 0.0, 1.055999994277954, 0.0, 0.0, 0.0, 0.0, 0.0, 1.621604913069138E9, 2021-05-21 15:48:33.069
44.0, -174.67576599121094, -389.6171569824219, 352.9736328125, 114.10247802734375, 0.03200000151991844, 0.0, 1.055999994277954, 0.0, 0.0, 0.0, 0.0, 0.0, 1.6216049130848718E9, 2021-05-21 15:48:33.084
44.0, -192.552490234375, -412.8643798828125, 327.433837890625, 90.75054168701172, 0.03200000151991844, 0.0, 1.055999994277954, 0.0, 0.0, 0.0, 0.0, 0.0, 1.6216049130848718E9, 2021-05-21 15:48:33.084
45.0, -224.01626586914062, -448.9693908691406, 283.97247314453125, 52.409088134765625, 0.03200000151991844, 0.0, 1.055999994277954, 0.0, 0.0, 0.0, 0.0, 0.0, 1.6216049130855408E9, 2021-05-21 15:48:33.085
45.0, -201.0420684814453, -425.30328369140625, 311.4420471191406, 69.8856430053711, 0.03200000151991844, 0.0, 1.055999994277954, 0.0, 0.0, 0.0, 0.0, 0.0, 1.6216049130855408E9, 2021-05-21 15:48:33.085
46.0, -172.34580993652344, -383.6894226074219, 349.58154296875, 111.07689666748047, 0.03200000151991844, 0.0, 1.055999994277954, 0.0, 0.0, 0.0, 0.0, 0.0, 1.6216049130991535E9, 2021-05-21 15:48:33.099
46.0, -186.90150451660156, -405.111572265625, 330.3509826660156, 88.1139144897461, 0.03200000151991844, 0.0, 1.055999994277954, 0.0, 0.0, 0.0, 0.0, 0.0, 1.6216049130991535E9, 2021-05-21 15:48:33.099
47.0, -215.41824340820312, -441.6167297363281, 287.5552978515625, 50.47930145263672, 0.03200000151991844, 0.0, 1.055999994277954, 0.0, 0.0, 0.0, 0.0, 0.0, 1.62160491311554E9, 2021-05-21 15:48:33.115
47.0, -200.9074249267578, -423.17901611328125, 313.55133056640625, 73.04585266113281, 0.03200000151991844, 0.0, 1.055999994277954, 0.0, 0.0, 0.0, 0.0, 0.0, 1.62160491311554E9, 2021-05-21 15:48:33.115
48.0, -174.9674835205078, -375.67108154296875, 358.830322265625, 115.82283020019531, 0.03200000151991844, 0.0, 1.055999994277954, 0.0, 0.0, 0.0, 0.0, 0.0, 1.6216049131162512E9, 2021-05-21 15:48:33.116
48.0, -184.97918701171875, -396.7379455566406, 332.7445068359375, 94.1351547241211, 0.03200000151991844, 0.0, 1.055999994277954, 0.0, 0.0, 0.0, 0.0, 0.0, 1.6216049131162512E9, 2021-05-21 15:48:33.116
49.0, -217.54623413085938, -441.7775573730469, 289.4102783203125, 53.321624755859375, 0.03200000151991844, 0.0, 1.055999994277954, 0.0, 0.0, 0.0, 0.0, 0.0, 1.6216049131291633E9, 2021-05-21 15:48:33.129
49.0, -192.2570343017578, -416.69403076171875, 315.8326721191406, 78.6183090209961, 0.03200000151991844, 0.0, 1.055999994277954, 0.0, 0.0, 0.0, 0.0, 0.0, 1.6216049131291633E9, 2021-05-21 15:48:33.129
50.0, -163.18679809570312, -380.20758056640625, 358.8602294921875, 115.23566436767578, 0.03200000151991844, 0.0, 1.055999994277954, 0.0, 0.0, 0.0, 0.0, 0.0, 1.6216049131449025E9, 2021-05-21 15:48:33.144
50.0, -185.39805603027344, -404.1205139160156, 334.79022216796875, 96.52120971679688, 0.03200000151991844, 0.0, 1.055999994277954, 0.0, 0.0, 0.0, 0.0, 0.0, 1.6216049131449025E9, 2021-05-21 15:48:33.144
51.0, -214.8572540283203, -439.3690490722656, 290.9698181152344, 53.213165283203125, 0.03200000151991844, 0.0, 1.055999994277954, 0.0, 0.0, 0.0, 0.0, 0.0, 1.621604913145542E9, 2021-05-21 15:48:33.145
51.0, -200.91490173339844, -423.938232421875, 309.990966796875, 72.9374008178711, 0.03200000151991844, 0.0, 1.055999994277954, 0.0, 0.0, 0.0, 0.0, 0.0, 1.621604913145542E9, 2021-05-21 15:48:33.145
52.0, -169.57080078125, -386.7673645019531, 354.406005859375, 115.68819427490234, 0.03200000151991844, 0.0, 1.055999994277954, 0.0, 0.0, 0.0, 0.0, 0.0, 1.6216049131591594E9, 2021-05-21 15:48:33.159
52.0, -188.5358428955078, -407.8641357421875, 331.1401062011719, 97.83391571044922, 0.03200000151991844, 0.0, 1.055999994277954, 0.0, 0.0, 0.0, 0.0, 0.0, 1.6216049131591594E9, 2021-05-21 15:48:33.159
53.0, -220.76255798339844, -442.8995361328125, 286.0256652832031, 54.57448959350586, 0.03200000151991844, 0.0, 1.055999994277954, 0.0, 0.0, 0.0, 0.0, 0.0, 1.6216049131749225E9, 2021-05-21 15:48:33.174
53.0, -204.1162567138672, -427.0386047363281, 306.74847412109375, 79.35881042480469, 0.03200000151991844, 0.0, 1.055999994277954, 0.0, 0.0, 0.0, 0.0, 0.0, 1.6216049131749225E9, 2021-05-21 15:48:33.174
54.0, -167.25205993652344, -391.92095947265625, 353.4373779296875, 122.29660034179688, 0.03200000151991844, 0.0, 1.055999994277954, 0.0, 0.0, 0.0, 0.0, 0.0, 1.6216049131755264E9, 2021-05-21 15:48:33.175
54.0, -179.1898193359375, -406.3981018066406, 334.0048522949219, 98.52953338623047, 0.03200000151991844, 0.0, 1.055999994277954, 0.0, 0.0, 0.0, 0.0, 0.0, 1.6216049131755264E9, 2021-05-21 15:48:33.175
55.0, -214.54310607910156, -451.3255310058594, 287.39447021484375, 48.459754943847656, 0.03200000151991844, 0.0, 1.055999994277954, 0.0, 0.0, 0.0, 0.0, 0.0, 1.6216049131891363E9, 2021-05-21 15:48:33.189
55.0, -200.7316436767578, -423.1678161621094, 304.84112548828125, 71.26566314697266, 0.03200000151991844, 0.0, 1.055999994277954, 0.0, 0.0, 0.0, 0.0, 0.0, 1.6216049131891363E9, 2021-05-21 15:48:33.189
56.0, -170.7189483642578, -379.9944152832031, 354.7949523925781, 119.8731460571289, 0.03200000151991844, 0.0, 1.055999994277954, 0.0, 0.0, 0.0, 0.0, 0.0, 1.621604913204966E9, 2021-05-21 15:48:33.204
56.0, -181.6095428466797, -406.2784118652344, 336.2301025390625, 91.80519104003906, 0.03200000151991844, 0.0, 1.055999994277954, 0.0, 0.0, 0.0, 0.0, 0.0, 1.621604913204966E9, 2021-05-21 15:48:33.204
57.0, -207.59811401367188, -438.91278076171875, 304.48583984375, 54.01350402832031, 0.03200000151991844, 0.0, 1.055999994277954, 0.0, 0.0, 0.0, 0.0, 0.0, 1.6216049132055576E9, 2021-05-21 15:48:33.205
57.0, -190.96302795410156, -412.5838928222656, 332.9315185546875, 80.9894027709961, 0.03200000151991844, 0.0, 1.055999994277954, 0.0, 0.0, 0.0, 0.0, 0.0, 1.6216049132055576E9, 2021-05-21 15:48:33.205
58.0, -172.31588745117188, -377.57843017578125, 364.19708251953125, 112.00813293457031, 0.03200000151991844, 0.0, 1.055999994277954, 0.0, 0.0, 0.0, 0.0, 0.0, 1.621604913219135E9, 2021-05-21 15:48:33.219
58.0, -184.73609924316406, -396.3714294433594, 343.7024230957031, 99.5804443359375, 0.03200000151991844, 0.0, 1.055999994277954, 0.0, 0.0, 0.0, 0.0, 0.0, 1.621604913219135E9, 2021-05-21 15:48:33.219
59.0, -214.42343139648438, -442.2525329589844, 303.5807800292969, 53.306663513183594, 0.03200000151991844, 0.0, 1.055999994277954, 0.0, 0.0, 0.0, 0.0, 0.0, 1.621604913234918E9, 2021-05-21 15:48:33.234
59.0, -195.005859375, -419.5999450683594, 324.2624206542969, 78.40513610839844, 0.03200000151991844, 0.0, 1.055999994277954, 0.0, 0.0, 0.0, 0.0, 0.0, 1.621604913234918E9, 2021-05-21 15:48:33.234
60.0, -160.7184600830078, -381.5726318359375, 361.9045104980469, 117.71521759033203, 0.03200000151991844, 0.0, 1.055999994277954, 0.0, 0.0, 0.0, 0.0, 0.0, 1.6216049132355287E9, 2021-05-21 15:48:33.235
60.0, -189.5792694091797, -407.94268798828125, 330.21258544921875, 91.8500747680664, 0.03200000151991844, 0.0, 1.055999994277954, 0.0, 0.0, 0.0, 0.0, 0.0, 1.6216049132355287E9, 2021-05-21 15:48:33.235
61.0, -225.34393310546875, -444.89288330078125, 285.8985290527344, 51.23849868774414, 0.03200000151991844, 0.0, 1.055999994277954, 0.0, 0.0, 0.0, 0.0, 0.0, 1.6216049132491827E9, 2021-05-21 15:48:33.249
61.0, -201.4609375, -422.1318664550781, 316.5282897949219, 80.29378509521484, 0.03200000151991844, 0.0, 1.055999994277954, 0.0, 0.0, 0.0, 0.0, 0.0, 1.6216049132491827E9, 2021-05-21 15:48:33.249
62.0, -167.7457275390625, -390.6119689941406, 355.8533630371094, 117.77506256103516, 0.03200000151991844, 0.0, 1.055999994277954, 0.0, 0.0, 0.0, 0.0, 0.0, 1.621604913280586E9, 2021-05-21 15:48:33.280
62.0, -181.6506805419922, -406.8917541503906, 330.3098449707031, 97.57585906982422, 0.03200000151991844, 0.0, 1.055999994277954, 0.0, 0.0, 0.0, 0.0, 0.0, 1.621604913280586E9, 2021-05-21 15:48:33.280
63.0, -213.7128448486328, -447.1031799316406, 289.2382507324219, 54.267818450927734, 0.03200000151991844, 0.0, 1.055999994277954, 0.0, 0.0, 0.0, 0.0, 0.0, 1.6216049132812784E9, 2021-05-21 15:48:33.281
63.0, -198.8579559326172, -422.89105224609375, 312.59765625, 79.01847839355469, 0.03200000151991844, 0.0, 1.055999994277954, 0.0, 0.0, 0.0, 0.0, 0.0, 1.6216049132812784E9, 2021-05-21 15:48:33.281
64.0, -165.5541534423828, -389.8901672363281, 357.5213317871094, 116.1182861328125, 0.03200000151991844, 0.0, 1.055999994277954, 0.0, 0.0, 0.0, 0.0, 0.0, 1.621604913282071E9, 2021-05-21 15:48:33.282
64.0, -185.88424682617188, -400.69476318359375, 331.506591796875, 92.89724731445312, 0.03200000151991844, 0.0, 1.055999994277954, 0.0, 0.0, 0.0, 0.0, 0.0, 1.621604913282071E9, 2021-05-21 15:48:33.282
65.0, -216.4205322265625, -436.29486083984375, 293.5802917480469, 56.365901947021484, 0.03200000151991844, 0.0, 1.055999994277954, 0.0, 0.0, 0.0, 0.0, 0.0, 1.6216049132948587E9, 2021-05-21 15:48:33.294
65.0, -201.86109924316406, -416.0993957519531, 314.17218017578125, 78.06480407714844, 0.03200000151991844, 0.0, 1.055999994277954, 0.0, 0.0, 0.0, 0.0, 0.0, 1.6216049132948587E9, 2021-05-21 15:48:33.294
66.0, -167.9252471923828, -378.27032470703125, 364.63836669921875, 122.11708068847656, 0.03200000151991844, 0.0, 1.055999994277954, 0.0, 0.0, 0.0, 0.0, 0.0, 1.6216049132955585E9, 2021-05-21 15:48:33.295
66.0, -191.4903564453125, -401.52874755859375, 342.13165283203125, 100.41444396972656, 0.03200000151991844, 0.0, 1.055999994277954, 0.0, 0.0, 0.0, 0.0, 0.0, 1.6216049132955585E9, 2021-05-21 15:48:33.295
67.0, -214.3860321044922, -441.72894287109375, 300.55517578125, 54.88490295410156, 0.03200000151991844, 0.0, 1.055999994277954, 0.0, 0.0, 0.0, 0.0, 0.0, 1.6216049133092234E9, 2021-05-21 15:48:33.309
67.0, -196.82345581054688, -417.24755859375, 319.9316101074219, 77.38787841796875, 0.03200000151991844, 0.0, 1.055999994277954, 0.0, 0.0, 0.0, 0.0, 0.0, 1.6216049133092234E9, 2021-05-21 15:48:33.309
68.0, -166.93043518066406, -381.46044921875, 364.0960998535156, 118.17897033691406, 0.03200000151991844, 0.0, 1.055999994277954, 0.0, 0.0, 0.0, 0.0, 0.0, 1.62160491332487E9, 2021-05-21 15:48:33.324
68.0, -192.64224243164062, -403.9970703125, 334.80145263671875, 99.38597106933594, 0.03200000151991844, 0.0, 1.055999994277954, 0.0, 0.0, 0.0, 0.0, 0.0, 1.62160491332487E9, 2021-05-21 15:48:33.324
69.0, -221.94436645507812, -443.91302490234375, 289.8478698730469, 59.54855728149414, 0.03200000151991844, 0.0, 1.055999994277954, 0.0, 0.0, 0.0, 0.0, 0.0, 1.6216049133256276E9, 2021-05-21 15:48:33.325
69.0, -200.12203979492188, -422.03460693359375, 312.28350830078125, 79.75897979736328, 0.03200000151991844, 0.0, 1.055999994277954, 0.0, 0.0, 0.0, 0.0, 0.0, 1.6216049133256276E9, 2021-05-21 15:48:33.325
70.0, -170.17666625976562, -386.61029052734375, 349.1514587402344, 117.80123901367188, 0.03200000151991844, 0.0, 1.055999994277954, 0.0, 0.0, 0.0, 0.0, 0.0, 1.621604913339148E9, 2021-05-21 15:48:33.339
70.0, -188.07208251953125, -413.01025390625, 325.21234130859375, 94.65873718261719, 0.03200000151991844, 0.0, 1.055999994277954, 0.0, 0.0, 0.0, 0.0, 0.0, 1.621604913339148E9, 2021-05-21 15:48:33.339
71.0, -220.98695373535156, -452.48114013671875, 284.275390625, 55.86101531982422, 0.03200000151991844, 0.0, 1.055999994277954, 0.0, 0.0, 0.0, 0.0, 0.0, 1.621604913354872E9, 2021-05-21 15:48:33.354
71.0, -200.57456970214844, -425.7633056640625, 306.8868408203125, 74.66522979736328, 0.03200000151991844, 0.0, 1.055999994277954, 0.0, 0.0, 0.0, 0.0, 0.0, 1.621604913354872E9, 2021-05-21 15:48:33.354
72.0, -165.26243591308594, -385.7875061035156, 357.0950012207031, 119.34581756591797, 0.03200000151991844, 0.0, 1.055999994277954, 0.0, 0.0, 0.0, 0.0, 0.0, 1.6216049133555417E9, 2021-05-21 15:48:33.355
72.0, -184.48178100585938, -411.97802734375, 331.1288757324219, 96.05371856689453, 0.03200000151991844, 0.0, 1.055999994277954, 0.0, 0.0, 0.0, 0.0, 0.0, 1.6216049133555417E9, 2021-05-21 15:48:33.355
73.0, -208.86219787597656, -447.75390625, 289.6047668457031, 54.024723052978516, 0.03200000151991844, 0.0, 1.055999994277954, 0.0, 0.0, 0.0, 0.0, 0.0, 1.6216049133691697E9, 2021-05-21 15:48:33.369
73.0, -191.48287963867188, -423.6764221191406, 313.1361999511719, 76.4566421508789, 0.03200000151991844, 0.0, 1.055999994277954, 0.0, 0.0, 0.0, 0.0, 0.0, 1.6216049133691697E9, 2021-05-21 15:48:33.369
74.0, -159.0242919921875, -389.0599365234375, 355.8458557128906, 111.49950408935547, 0.03200000151991844, 0.0, 1.055999994277954, 0.0, 0.0, 0.0, 0.0, 0.0, 1.621604913384925E9, 2021-05-21 15:48:33.384
74.0, -179.56381225585938, -403.7539978027344, 335.0819396972656, 93.57042694091797, 0.03200000151991844, 0.0, 1.055999994277954, 0.0, 0.0, 0.0, 0.0, 0.0, 1.621604913384925E9, 2021-05-21 15:48:33.384
75.0, -219.25537109375, -439.78045654296875, 291.2241516113281, 50.58027648925781, 0.03200000151991844, 0.0, 1.055999994277954, 0.0, 0.0, 0.0, 0.0, 0.0, 1.621604913385572E9, 2021-05-21 15:48:33.385
75.0, -195.75010681152344, -419.34564208984375, 319.5763244628906, 76.14623260498047, 0.03200000151991844, 0.0, 1.055999994277954, 0.0, 0.0, 0.0, 0.0, 0.0, 1.621604913385572E9, 2021-05-21 15:48:33.385
76.0, -163.44485473632812, -383.1172180175781, 360.86480712890625, 114.33061218261719, 0.03200000151991844, 0.0, 1.055999994277954, 0.0, 0.0, 0.0, 0.0, 0.0, 1.621604913399288E9, 2021-05-21 15:48:33.399
76.0, -178.53907775878906, -405.0891418457031, 339.3304748535156, 98.2901840209961, 0.03200000151991844, 0.0, 1.055999994277954, 0.0, 0.0, 0.0, 0.0, 0.0, 1.621604913399288E9, 2021-05-21 15:48:33.399
77.0, -212.64697265625, -445.969970703125, 297.85498046875, 58.265769958496094, 0.03200000151991844, 0.0, 1.055999994277954, 0.0, 0.0, 0.0, 0.0, 0.0, 1.6216049134320347E9, 2021-05-21 15:48:33.432
77.0, -197.50411987304688, -426.0550231933594, 316.1430969238281, 70.51020050048828, 0.03200000151991844, 0.0, 1.055999994277954, 0.0, 0.0, 0.0, 0.0, 0.0, 1.6216049134320347E9, 2021-05-21 15:48:33.432
78.0, -167.47645568847656, -387.02166748046875, 354.3985290527344, 114.58118438720703, 0.03200000151991844, 0.0, 1.055999994277954, 0.0, 0.0, 0.0, 0.0, 0.0, 1.6216049134326425E9, 2021-05-21 15:48:33.432
78.0, -184.14144897460938, -409.337646484375, 333.02874755859375, 90.33915710449219, 0.03200000151991844, 0.0, 1.055999994277954, 0.0, 0.0, 0.0, 0.0, 0.0, 1.6216049134326425E9, 2021-05-21 15:48:33.432
79.0, -218.47000122070312, -449.5303649902344, 284.77655029296875, 46.78801727294922, 0.03200000151991844, 0.0, 1.055999994277954, 0.0, 0.0, 0.0, 0.0, 0.0, 1.6216049134334064E9, 2021-05-21 15:48:33.433
79.0, -199.7144012451172, -425.135009765625, 310.3238220214844, 74.23140716552734, 0.03200000151991844, 0.0, 1.055999994277954, 0.0, 0.0, 0.0, 0.0, 0.0, 1.6216049134334064E9, 2021-05-21 15:48:33.433
80.0, -168.47500610351562, -381.26971435546875, 346.4699401855469, 119.03540802001953, 0.03200000151991844, 0.0, 1.055999994277954, 0.0, 0.0, 0.0, 0.0, 0.0, 1.6216049134341164E9, 2021-05-21 15:48:33.434
80.0, -188.58071899414062, -405.4743347167969, 323.98565673828125, 92.27642059326172, 0.03200000151991844, 0.0, 1.055999994277954, 0.0, 0.0, 0.0, 0.0, 0.0, 1.6216049134341164E9, 2021-05-21 15:48:33.434
81.0, -216.27093505859375, -445.06866455078125, 285.4497375488281, 53.220645904541016, 0.03200000151991844, 0.0, 1.055999994277954, 0.0, 0.0, 0.0, 0.0, 0.0, 1.6216049134441493E9, 2021-05-21 15:48:33.444
81.0, -196.4457244873047, -418.0591125488281, 315.0921936035156, 79.7440185546875, 0.03200000151991844, 0.0, 1.055999994277954, 0.0, 0.0, 0.0, 0.0, 0.0, 1.6216049134441493E9, 2021-05-21 15:48:33.444
82.0, -168.1010284423828, -385.84735107421875, 354.9183654785156, 118.63897705078125, 0.03200000151991844, 0.0, 1.055999994277954, 0.0, 0.0, 0.0, 0.0, 0.0, 1.62160491345913E9, 2021-05-21 15:48:33.459
82.0, -187.06979370117188, -405.1826171875, 334.44989013671875, 93.09919738769531, 0.03200000151991844, 0.0, 1.055999994277954, 0.0, 0.0, 0.0, 0.0, 0.0, 1.62160491345913E9, 2021-05-21 15:48:33.459
83.0, -216.25222778320312, -436.82965087890625, 292.5069274902344, 53.52731704711914, 0.03200000151991844, 0.0, 1.055999994277954, 0.0, 0.0, 0.0, 0.0, 0.0, 1.621604913490523E9, 2021-05-21 15:48:33.490
83.0, -200.02481079101562, -410.8410949707031, 319.96527099609375, 74.67271423339844, 0.03200000151991844, 0.0, 1.055999994277954, 0.0, 0.0, 0.0, 0.0, 0.0, 1.621604913490523E9, 2021-05-21 15:48:33.490
84.0, -164.79869079589844, -370.59228515625, 364.4551086425781, 119.25605773925781, 0.03200000151991844, 0.0, 1.055999994277954, 0.0, 0.0, 0.0, 0.0, 0.0, 1.621604913491243E9, 2021-05-21 15:48:33.491
84.0, -178.6811981201172, -390.77655029296875, 341.9521484375, 97.1457748413086, 0.03200000151991844, 0.0, 1.055999994277954, 0.0, 0.0, 0.0, 0.0, 0.0, 1.621604913491243E9, 2021-05-21 15:48:33.491
85.0, -213.7091064453125, -441.2763977050781, 305.70501708984375, 56.20882797241211, 0.03200000151991844, 0.0, 1.055999994277954, 0.0, 0.0, 0.0, 0.0, 0.0, 1.6216049134920075E9, 2021-05-21 15:48:33.492
85.0, -194.16064453125, -420.5835266113281, 323.6416015625, 77.35796356201172, 0.03200000151991844, 0.0, 1.055999994277954, 0.0, 0.0, 0.0, 0.0, 0.0, 1.6216049134920075E9, 2021-05-21 15:48:33.492
86.0, -169.5670623779297, -371.0859680175781, 360.0794372558594, 115.79291534423828, 0.03200000151991844, 0.0, 1.055999994277954, 0.0, 0.0, 0.0, 0.0, 0.0, 1.6216049135049047E9, 2021-05-21 15:48:33.504
86.0, -180.9700164794922, -396.1246032714844, 336.6302795410156, 98.4135971069336, 0.03200000151991844, 0.0, 1.055999994277954, 0.0, 0.0, 0.0, 0.0, 0.0, 1.6216049135049047E9, 2021-05-21 15:48:33.504
87.0, -209.28854370117188, -436.9830017089844, 292.5331115722656, 54.8437614440918, 0.03200000151991844, 0.0, 1.055999994277954, 0.0, 0.0, 0.0, 0.0, 0.0, 1.6216049135056024E9, 2021-05-21 15:48:33.505
87.0, -191.5277557373047, -426.9413757324219, 315.6494140625, 74.9906005859375, 0.03200000151991844, 0.0, 1.055999994277954, 0.0, 0.0, 0.0, 0.0, 0.0, 1.6216049135056024E9, 2021-05-21 15:48:33.505
88.0, -167.0201873779297, -383.9474792480469, 351.6048278808594, 115.02249145507812, 0.03200000151991844, 0.0, 1.055999994277954, 0.0, 0.0, 0.0, 0.0, 0.0, 1.6216049135192237E9, 2021-05-21 15:48:33.519
88.0, -184.95301818847656, -403.9447326660156, 325.0440673828125, 87.26495361328125, 0.03200000151991844, 0.0, 1.055999994277954, 0.0, 0.0, 0.0, 0.0, 0.0, 1.6216049135192237E9, 2021-05-21 15:48:33.519
89.0, -213.81382751464844, -441.11932373046875, 286.95318603515625, 51.784523010253906, 0.03200000151991844, 0.0, 1.055999994277954, 0.0, 0.0, 0.0, 0.0, 0.0, 1.6216049135355291E9, 2021-05-21 15:48:33.535
89.0, -192.66094970703125, -423.2164306640625, 307.4104309082031, 75.06539916992188, 0.03200000151991844, 0.0, 1.055999994277954, 0.0, 0.0, 0.0, 0.0, 0.0, 1.6216049135355291E9, 2021-05-21 15:48:33.535
90.0, -158.87095642089844, -379.70269775390625, 349.6002502441406, 119.77590942382812, 0.03200000151991844, 0.0, 1.055999994277954, 0.0, 0.0, 0.0, 0.0, 0.0, 1.6216049135362382E9, 2021-05-21 15:48:33.536
90.0, -181.4001007080078, -399.1202392578125, 323.5929870605469, 96.992431640625, 0.03200000151991844, 0.0, 1.055999994277954, 0.0, 0.0, 0.0, 0.0, 0.0, 1.6216049135362382E9, 2021-05-21 15:48:33.536
91.0, -211.97378540039062, -443.3931884765625, 282.9365234375, 49.43212890625, 0.03200000151991844, 0.0, 1.055999994277954, 0.0, 0.0, 0.0, 0.0, 0.0, 1.6216049135655153E9, 2021-05-21 15:48:33.565
91.0, -199.68821716308594, -420.7518310546875, 307.33563232421875, 70.70841979980469, 0.03200000151991844, 0.0, 1.055999994277954, 0.0, 0.0, 0.0, 0.0, 0.0, 1.6216049135655153E9, 2021-05-21 15:48:33.565
92.0, -165.83837890625, -372.2939453125, 350.14251708984375, 112.51676177978516, 0.03200000151991844, 0.0, 1.055999994277954, 0.0, 0.0, 0.0, 0.0, 0.0, 1.6216049135662267E9, 2021-05-21 15:48:33.566
92.0, -183.89462280273438, -396.3265380859375, 327.949951171875, 90.04743957519531, 0.03200000151991844, 0.0, 1.055999994277954, 0.0, 0.0, 0.0, 0.0, 0.0, 1.6216049135662267E9, 2021-05-21 15:48:33.566
93.0, -206.55841064453125, -434.4062194824219, 291.50836181640625, 48.95341873168945, 0.03200000151991844, 0.0, 1.055999994277954, 0.0, 0.0, 0.0, 0.0, 0.0, 1.6216049135669787E9, 2021-05-21 15:48:33.566
93.0, -190.5890350341797, -408.843994140625, 312.2236633300781, 73.2777328491211, 0.03200000151991844, 0.0, 1.055999994277954, 0.0, 0.0, 0.0, 0.0, 0.0, 1.6216049135669787E9, 2021-05-21 15:48:33.566
94.0, -162.4163818359375, -373.07183837890625, 355.8421325683594, 110.53461456298828, 0.03200000151991844, 0.0, 1.055999994277954, 0.0, 0.0, 0.0, 0.0, 0.0, 1.6216049135792596E9, 2021-05-21 15:48:33.579
94.0, -182.01345825195312, -391.2477722167969, 333.8814392089844, 97.55715942382812, 0.03200000151991844, 0.0, 1.055999994277954, 0.0, 0.0, 0.0, 0.0, 0.0, 1.6216049135792596E9, 2021-05-21 15:48:33.579
95.0, -213.409912109375, -434.12945556640625, 286.8634033203125, 51.590049743652344, 0.03200000151991844, 0.0, 1.055999994277954, 0.0, 0.0, 0.0, 0.0, 0.0, 1.621604913595539E9, 2021-05-21 15:48:33.595
95.0, -199.74057006835938, -417.6776428222656, 313.4054870605469, 74.08928680419922, 0.03200000151991844, 0.0, 1.055999994277954, 0.0, 0.0, 0.0, 0.0, 0.0, 1.621604913595539E9, 2021-05-21 15:48:33.595
96.0, -171.1864471435547, -374.62017822265625, 352.5809326171875, 115.11225128173828, 0.03200000151991844, 0.0, 1.055999994277954, 0.0, 0.0, 0.0, 0.0, 0.0, 1.6216049135962987E9, 2021-05-21 15:48:33.596
96.0, -188.32640075683594, -399.2361755371094, 325.9378967285156, 95.2421646118164, 0.03200000151991844, 0.0, 1.055999994277954, 0.0, 0.0, 0.0, 0.0, 0.0, 1.6216049135962987E9, 2021-05-21 15:48:33.596
97.0, -219.15440368652344, -442.8845520019531, 282.39422607421875, 52.44648742675781, 0.03200000151991844, 0.0, 1.055999994277954, 0.0, 0.0, 0.0, 0.0, 0.0, 1.6216049136091623E9, 2021-05-21 15:48:33.609
97.0, -199.91635131835938, -417.2886962890625, 308.9176025390625, 76.14623260498047, 0.03200000151991844, 0.0, 1.055999994277954, 0.0, 0.0, 0.0, 0.0, 0.0, 1.6216049136091623E9, 2021-05-21 15:48:33.609
98.0, -168.31793212890625, -377.5971374511719, 347.4797058105469, 114.56248474121094, 0.03200000151991844, 0.0, 1.055999994277954, 0.0, 0.0, 0.0, 0.0, 0.0, 1.6216049136248624E9, 2021-05-21 15:48:33.624
98.0, -198.0538787841797, -396.9024963378906, 316.84619140625, 86.27761840820312, 0.03200000151991844, 0.0, 1.055999994277954, 0.0, 0.0, 0.0, 0.0, 0.0, 1.6216049136248624E9, 2021-05-21 15:48:33.624
99.0, -227.7262420654297, -435.9320983886719, 282.2072448730469, 50.95426559448242, 0.03200000151991844, 0.0, 1.055999994277954, 0.0, 0.0, 0.0, 0.0, 0.0, 1.6216049136255553E9, 2021-05-21 15:48:33.625
