Sample Index, EXG Channel 0, EXG Channel 1, EXG Channel 2, EXG Channel 3, Accel Channel 0, Accel Channel 1, Accel Channel 2, Other, Other, Other, Other, Other, Timestamp, Timestamp (Formatted)
0.0, -76.55575561523438, -339.1098327636719, 146.15155029296875, 0.7105810046195984, 0.0, 0.0, 0.0, 0.0, 0.0, 0.0, 0.0, 0.0, 1.621602115214122E9, 2021-05-21 15:01:55.214
1.0, -36.59492111206055, -280.9468994140625, 205.03627014160156, 62.744300842285156, 0.0, 0.03200000151991844, 0.0, 0.0, 0.0, 0.0, 0.0, 0.0, 1.6216021152148857E9, 2021-05-21 15:01:55.214
1.0, -12.319230079650879, -254.86483764648438, 234.4057159423828, 87.88017272949219, 0.0, 0.03200000151991844, 0.0, 0.0, 0.0, 0.0, 0.0, 0.0, 1.6216021152148857E9, 2021-05-21 15:01:55.214
2.0, -59.389610290527344, -308.09857177734375, 173.03395080566406, 31.564756393432617, 0.03200000151991844, 0.03200000151991844, 0.0, 0.0, 0.0, 0.0, 0.0, 0.0, 1.6216021152296696E9, 2021-05-21 15:01:55.229
2.0, -73.46285247802734, -337.3109130859375, 147.21368408203125, 0.36651018261909485, 0.03200000151991844, 0.03200000151991844, 0.0, 0.0, 0.0, 0.0, 0.0, 0.0, 1.6216021152296696E9, 2021-05-21 15:01:55.229
3.0, -20.891080856323242, -280.8346862792969, 209.49423217773438, 58.738868713378906, 0.03200000151991844, 0.03200000151991844, 0.0, 0.0, 0.0, 0.0, 0.0, 0.0, 1.621602115230862E9, 2021-05-21 15:01:55.230
3.0, -17.252159118652344, -244.6923065185547, 240.3745880126953, 94.14823913574219, 0.03200000151991844, 0.03200000151991844, 0.0, 0.0, 0.0, 0.0, 0.0, 0.0, 1.621602115230862E9, 2021-05-21 15:01:55.230
4.0, -55.22710418701172, -313.5176696777344, 172.9254913330078, 29.174959182739258, 0.03200000151991844, 0.03200000151991844, 0.0, 0.0, 0.0, 0.0, 0.0, 0.0, 1.6216021152431977E9, 2021-05-21 15:01:55.243
4.0, -65.73622131347656, -334.4274597167969, 151.6005859375, 10.871889114379883, 0.03200000151991844, 0.03200000151991844, 0.0, 0.0, 0.0, 0.0, 0.0, 0.0, 1.6216021152431977E9, 2021-05-21 15:01:55.243
5.0, -27.970712661743164, -284.1295471191406, 211.39784240722656, 66.95542907714844, 0.03200000151991844, 0.03200000151991844, 0.0, 0.0, 0.0, 0.0, 0.0, 0.0, 1.6216021152590926E9, 2021-05-21 15:01:55.259
5.0, -17.517690658569336, -263.171142578125, 230.41897583007812, 100.0498046875, 0.03200000151991844, 0.03200000151991844, 0.0, 0.0, 0.0, 0.0, 0.0, 0.0, 1.6216021152590926E9, 2021-05-21 15:01:55.259
6.0, -58.90342330932617, -317.2388916015625, 165.68878173828125, 33.74885559082031, 0.03200000151991844, 0.03200000151991844, 0.0, 0.0, 0.0, 0.0, 0.0, 0.0, 1.621602115259766E9, 2021-05-21 15:01:55.259
6.0, -64.24400329589844, -338.69842529296875, 146.45822143554688, 10.221146583557129, 0.03200000151991844, 0.03200000151991844, 0.0, 0.0, 0.0, 0.0, 0.0, 0.0, 1.621602115259766E9, 2021-05-21 15:01:55.259
7.0, -36.28076934814453, -292.15911865234375, 192.11866760253906, 63.90367126464844, 0.03200000151991844, 0.03200000151991844, 0.0, 0.0, 0.0, 0.0, 0.0, 0.0, 1.6216021152732563E9, 2021-05-21 15:01:55.273
7.0, -13.717952728271484, -260.1642761230469, 223.32064819335938, 94.94857788085938, 0.03200000151991844, 0.03200000151991844, 0.0, 0.0, 0.0, 0.0, 0.0, 0.0, 1.6216021152732563E9, 2021-05-21 15:01:55.273
8.0, -53.70122528076172, -316.0608215332031, 163.27655029296875, 31.916305541992188, 0.03200000151991844, 0.03200000151991844, 0.0, 0.0, 0.0, 0.0, 0.0, 0.0, 1.6216021152895367E9, 2021-05-21 15:01:55.289
8.0, -62.972434997558594, -341.0358581542969, 144.00485229492188, 7.311504364013672, 0.03200000151991844, 0.03200000151991844, 0.0, 0.0, 0.0, 0.0, 0.0, 0.0, 1.6216021152895367E9, 2021-05-21 15:01:55.289
9.0, -28.150226593017578, -283.3179931640625, 200.4249725341797, 65.33979034423828, 0.03200000151991844, 0.03200000151991844, 0.0, 0.0, 0.0, 0.0, 0.0, 0.0, 1.6216021153039927E9, 2021-05-21 15:01:55.303
9.0, -4.7459330558776855, -257.8829345703125, 230.14596557617188, 91.0815200805664, 0.03200000151991844, 0.03200000151991844, 0.0, 0.0, 0.0, 0.0, 0.0, 0.0, 1.6216021153039927E9, 2021-05-21 15:01:55.303
10.0, -51.62931823730469, -315.12957763671875, 171.3098602294922, 29.290897369384766, 0.03200000151991844, 0.03200000151991844, 1.055999994277954, 0.0, 0.0, 0.0, 0.0, 0.0, 1.621602115304598E9, 2021-05-21 15:01:55.304
10.0, -68.28683471679688, -339.24444580078125, 148.71337890625, 11.98263931274414, 0.03200000151991844, 0.03200000151991844, 1.055999994277954, 0.0, 0.0, 0.0, 0.0, 0.0, 1.621602115304598E9, 2021-05-21 15:01:55.304
11.0, -30.697099685668945, -275.6138000488281, 200.10708618164062, 60.36946487426758, 0.03200000151991844, 0.03200000151991844, 1.055999994277954, 0.0, 0.0, 0.0, 0.0, 0.0, 1.621602115318874E9, 2021-05-21 15:01:55.318
11.0, -8.167941093444824, -248.0918731689453, 236.24574279785156, 92.00154113769531, 0.03200000151991844, 0.03200000151991844, 1.055999994277954, 0.0, 0.0, 0.0, 0.0, 0.0, 1.621602115318874E9, 2021-05-21 15:01:55.318
12.0, -52.87096405029297, -307.9901123046875, 175.27789306640625, 29.863101959228516, 0.03200000151991844, 0.03200000151991844, 1.055999994277954, 0.0, 0.0, 0.0, 0.0, 0.0, 1.6216021153196115E9, 2021-05-21 15:01:55.319
12.0, -65.76239776611328, -332.187255859375, 152.64027404785156, 5.164802074432373, 0.03200000151991844, 0.03200000151991844, 1.055999994277954, 0.0, 0.0, 0.0, 0.0, 0.0, 1.6216021153196115E9, 2021-05-21 15:01:55.319
13.0, -36.89411163330078, -279.21533203125, 207.53826904296875, 63.37260437011719, 0.03200000151991844, 0.03200000151991844, 1.055999994277954, 0.0, 0.0, 0.0, 0.0, 0.0, 1.6216021153332267E9, 2021-05-21 15:01:55.333
13.0, -7.031012058258057, -253.31651306152344, 238.0371551513672, 94.30157470703125, 0.03200000151991844, 0.03200000151991844, 1.055999994277954, 0.0, 0.0, 0.0, 0.0, 0.0, 1.6216021153332267E9, 2021-05-21 15:01:55.333
14.0, -48.76081466674805, -308.3192138671875, 177.7948455810547, 35.74596405029297, 0.03200000151991844, 0.03200000151991844, 1.055999994277954, 0.0, 0.0, 0.0, 0.0, 0.0, 1.6216021153494582E9, 2021-05-21 15:01:55.349
14.0, -65.36222839355469, -327.3029479980469, 150.7104949951172, 13.583316802978516, 0.03200000151991844, 0.03200000151991844, 1.055999994277954, 0.0, 0.0, 0.0, 0.0, 0.0, 1.6216021153494582E9, 2021-05-21 15:01:55.349
15.0, -20.633028030395508, -283.8453063964844, 206.22930908203125, 64.62921142578125, 0.03200000151991844, 0.03200000151991844, 1.055999994277954, 0.0, 0.0, 0.0, 0.0, 0.0, 1.6216021153640816E9, 2021-05-21 15:01:55.364
15.0, -16.193767547607422, -256.3907165527344, 226.70526123046875, 93.6246566772461, 0.03200000151991844, 0.03200000151991844, 1.055999994277954, 0.0, 0.0, 0.0, 0.0, 0.0, 1.6216021153640816E9, 2021-05-21 15:01:55.364
16.0, -62.68072509765625, -313.6224060058594, 162.99606323242188, 34.160247802734375, 0.03200000151991844, 0.03200000151991844, 1.055999994277954, 0.0, 0.0, 0.0, 0.0, 0.0, 1.6216021153646767E9, 2021-05-21 15:01:55.364
16.0, -70.61305236816406, -338.69842529296875, 139.46087646484375, 10.770912170410156, 0.03200000151991844, 0.03200000151991844, 1.055999994277954, 0.0, 0.0, 0.0, 0.0, 0.0, 1.6216021153646767E9, 2021-05-21 15:01:55.364
17.0, -34.485618591308594, -292.4545593261719, 195.24896240234375, 61.4278564453125, 0.03200000151991844, 0.03200000151991844, 1.055999994277954, 0.0, 0.0, 0.0, 0.0, 0.0, 1.621602115378938E9, 2021-05-21 15:01:55.378
17.0, -17.457853317260742, -262.5802307128906, 223.93399047851562, 93.38156127929688, 0.03200000151991844, 0.03200000151991844, 1.055999994277954, 0.0, 0.0, 0.0, 0.0, 0.0, 1.621602115378938E9, 2021-05-21 15:01:55.378
18.0, -54.146270751953125, -319.135009765625, 172.9180145263672, 37.07362747192383, 0.03200000151991844, 0.03200000151991844, 1.055999994277954, 0.0, 0.0, 0.0, 0.0, 0.0, 1.621602115379636E9, 2021-05-21 15:01:55.379
18.0, -68.86651611328125, -343.1040344238281, 144.78648376464844, 11.844263076782227, 0.03200000151991844, 0.03200000151991844, 1.055999994277954, 0.0, 0.0, 0.0, 0.0, 0.0, 1.621602115379636E9, 2021-05-21 15:01:55.379
19.0, -31.396459579467773, -290.7342224121094, 197.0441131591797, 62.590965270996094, 0.03200000151991844, 0.03200000151991844, 1.055999994277954, 0.0, 0.0, 0.0, 0.0, 0.0, 1.6216021154102635E9, 2021-05-21 15:01:55.410
19.0, -25.708072662353516, -261.0244445800781, 227.7262420654297, 96.75495147705078, 0.03200000151991844, 0.03200000151991844, 1.055999994277954, 0.0, 0.0, 0.0, 0.0, 0.0, 1.6216021154102635E9, 2021-05-21 15:01:55.410
20.0, -53.97797775268555, -316.0907287597656, 165.44943237304688, 36.093772888183594, 0.03200000151991844, 0.03200000151991844, 1.055999994277954, 0.0, 0.0, 0.0, 0.0, 0.0, 1.6216021154109745E9, 2021-05-21 15:01:55.410
20.0, -65.3023910522461, -341.1966857910156, 144.8949432373047, 2.9507811069488525, 0.03200000151991844, 0.03200000151991844, 1.055999994277954, 0.0, 0.0, 0.0, 0.0, 0.0, 1.6216021154109745E9, 2021-05-21 15:01:55.410
21.0, -32.914859771728516, -290.072265625, 195.7837677001953, 55.43653869628906, 0.03200000151991844, 0.03200000151991844, 1.055999994277954, 0.0, 0.0, 0.0, 0.0, 0.0, 1.6216021154117088E9, 2021-05-21 15:01:55.411
21.0, -10.363263130187988, -261.0917663574219, 233.17153930664062, 92.2221908569336, 0.03200000151991844, 0.03200000151991844, 1.055999994277954, 0.0, 0.0, 0.0, 0.0, 0.0, 1.6216021154117088E9, 2021-05-21 15:01:55.411
22.0, -51.65549850463867, -315.7915344238281, 168.220703125, 23.299575805664062, 0.03200000151991844, 0.03200000151991844, 1.055999994277954, 0.0, 0.0, 0.0, 0.0, 0.0, 1.6216021154233043E9, 2021-05-21 15:01:55.423
22.0, -60.45922088623047, -336.7013244628906, 149.02378845214844, 8.770065307617188, 0.03200000151991844, 0.03200000151991844, 1.055999994277954, 0.0, 0.0, 0.0, 0.0, 0.0, 1.6216021154233043E9, 2021-05-21 15:01:55.423
23.0, -33.199092864990234, -285.6517028808594, 203.29722595214844, 64.08318328857422, 0.03200000151991844, 0.03200000151991844, 1.055999994277954, 0.0, 0.0, 0.0, 0.0, 0.0, 1.6216021154389355E9, 2021-05-21 15:01:55.438
23.0, -13.889988899230957, -260.28021240234375, 233.75497436523438, 95.40110778808594, 0.03200000151991844, 0.03200000151991844, 1.055999994277954, 0.0, 0.0, 0.0, 0.0, 0.0, 1.6216021154389355E9, 2021-05-21 15:01:55.438
24.0, -54.138790130615234, -310.58184814453125, 170.82740783691406, 34.21634292602539, 0.03200000151991844, 0.03200000151991844, 1.055999994277954, 0.0, 0.0, 0.0, 0.0, 0.0, 1.6216021154396448E9, 2021-05-21 15:01:55.439
24.0, -63.967247009277344, -339.9550476074219, 153.7659912109375, 13.515998840332031, 0.03200000151991844, 0.03200000151991844, 1.055999994277954, 0.0, 0.0, 0.0, 0.0, 0.0, 1.6216021154396448E9, 2021-05-21 15:01:55.439
25.0, -27.23021125793457, -293.886962890625, 203.93673706054688, 63.19308853149414, 0.03200000151991844, 0.03200000151991844, 1.055999994277954, 0.0, 0.0, 0.0, 0.0, 0.0, 1.6216021154695797E9, 2021-05-21 15:01:55.469
25.0, -15.090496063232422, -262.5652770996094, 229.5625457763672, 96.35104370117188, 0.03200000151991844, 0.03200000151991844, 1.055999994277954, 0.0, 0.0, 0.0, 0.0, 0.0, 1.6216021154695797E9, 2021-05-21 15:01:55.469
26.0, -52.100547790527344, -312.88189697265625, 174.73561096191406, 36.07881546020508, 0.03200000151991844, 0.03200000151991844, 1.055999994277954, 0.0, 0.0, 0.0, 0.0, 0.0, 1.621602115470269E9, 2021-05-21 15:01:55.470
26.0, -67.47527313232422, -335.2876281738281, 150.07470703125, 12.558584213256836, 0.03200000151991844, 0.03200000151991844, 1.055999994277954, 0.0, 0.0, 0.0, 0.0, 0.0, 1.621602115470269E9, 2021-05-21 15:01:55.470
27.0, -28.670072555541992, -292.23016357421875, 202.212646484375, 65.84841918945312, 0.03200000151991844, 0.03200000151991844, 1.055999994277954, 0.0, 0.0, 0.0, 0.0, 0.0, 1.6216021154710264E9, 2021-05-21 15:01:55.471
27.0, -15.019437789916992, -263.4329528808594, 231.41378784179688, 97.8656997680664, 0.03200000151991844, 0.03200000151991844, 1.055999994277954, 0.0, 0.0, 0.0, 0.0, 0.0, 1.6216021154710264E9, 2021-05-21 15:01:55.471
28.0, -57.968448638916016, -311.35601806640625, 175.427490234375, 39.175453186035156, 0.03200000151991844, 0.03200000151991844, 1.055999994277954, 0.0, 0.0, 0.0, 0.0, 0.0, 1.6216021154832158E9, 2021-05-21 15:01:55.483
28.0, -68.94505310058594, -335.9608154296875, 149.19583129882812, 4.704793930053711, 0.03200000151991844, 0.03200000151991844, 1.055999994277954, 0.0, 0.0, 0.0, 0.0, 0.0, 1.6216021154832158E9, 2021-05-21 15:01:55.483
29.0, -32.60818862915039, -277.7829284667969, 210.72840881347656, 68.90765380859375, 0.03200000151991844, 0.03200000151991844, 1.055999994277954, 0.0, 0.0, 0.0, 0.0, 0.0, 1.6216021154989657E9, 2021-05-21 15:01:55.498
29.0, -12.984932899475098, -253.79522705078125, 238.85992431640625, 98.86051177978516, 0.03200000151991844, 0.03200000151991844, 1.055999994277954, 0.0, 0.0, 0.0, 0.0, 0.0, 1.6216021154989657E9, 2021-05-21 15:01:55.498
30.0, -52.59421157836914, -310.68658447265625, 178.4231414794922, 33.56186294555664, 0.03200000151991844, 0.03200000151991844, 1.055999994277954, 0.0, 0.0, 0.0, 0.0, 0.0, 1.621602115499598E9, 2021-05-21 15:01:55.499
30.0, -82.24787902832031, -336.96685791015625, 143.47752380371094, 7.9809465408325195, 0.03200000151991844, 0.03200000151991844, 1.055999994277954, 0.0, 0.0, 0.0, 0.0, 0.0, 1.621602115499598E9, 2021-05-21 15:01:55.499
31.0, -37.80664825439453, -283.4937744140625, 201.43849182128906, 64.43099975585938, 0.03200000151991844, 0.03200000151991844, 1.055999994277954, 0.0, 0.0, 0.0, 0.0, 0.0, 1.6216021155296705E9, 2021-05-21 15:01:55.529
31.0, -11.062623977661133, -259.93988037109375, 235.7071990966797, 99.67581176757812, 0.03200000151991844, 0.03200000151991844, 1.055999994277954, 0.0, 0.0, 0.0, 0.0, 0.0, 1.6216021155296705E9, 2021-05-21 15:01:55.529
32.0, -57.08583450317383, -313.38677978515625, 178.5166473388672, 39.010894775390625, 0.03200000151991844, 0.03200000151991844, 1.055999994277954, 0.0, 0.0, 0.0, 0.0, 0.0, 1.6216021155304737E9, 2021-05-21 15:01:55.530
32.0, -70.31011962890625, -336.5255432128906, 148.5114288330078, 7.954767227172852, 0.03200000151991844, 0.03200000151991844, 1.055999994277954, 0.0, 0.0, 0.0, 0.0, 0.0, 1.6216021155304737E9, 2021-05-21 15:01:55.530
33.0, -32.873722076416016, -289.5898132324219, 201.3636932373047, 67.1274642944336, 0.03200000151991844, 0.03200000151991844, 1.055999994277954, 0.0, 0.0, 0.0, 0.0, 0.0, 1.6216021155310535E9, 2021-05-21 15:01:55.531
33.0, -16.8370304107666, -261.5405578613281, 238.05958557128906, 100.00492858886719, 0.03200000151991844, 0.03200000151991844, 1.055999994277954, 0.0, 0.0, 0.0, 0.0, 0.0, 1.6216021155310535E9, 2021-05-21 15:01:55.531
34.0, -52.60917282104492, -322.7103576660156, 177.4171142578125, 37.72063064575195, 0.03200000151991844, 0.03200000151991844, 1.055999994277954, 0.0, 0.0, 0.0, 0.0, 0.0, 1.6216021155431988E9, 2021-05-21 15:01:55.543
34.0, -68.1110610961914, -344.6186828613281, 150.51976013183594, 12.509964942932129, 0.03200000151991844, 0.03200000151991844, 1.055999994277954, 0.0, 0.0, 0.0, 0.0, 0.0, 1.6216021155431988E9, 2021-05-21 15:01:55.543
35.0, -36.00027847290039, -290.53973388671875, 197.79208374023438, 61.92900466918945, 0.03200000151991844, 0.03200000151991844, 1.055999994277954, 0.0, 0.0, 0.0, 0.0, 0.0, 1.6216021155590537E9, 2021-05-21 15:01:55.559
35.0, -8.747626304626465, -256.0167236328125, 237.34153747558594, 98.61368560791016, 0.03200000151991844, 0.03200000151991844, 1.055999994277954, 0.0, 0.0, 0.0, 0.0, 0.0, 1.6216021155590537E9, 2021-05-21 15:01:55.559
36.0, -64.00090789794922, -317.7400207519531, 174.13722229003906, 35.674903869628906, 0.03200000151991844, 0.03200000151991844, 1.055999994277954, 0.0, 0.0, 0.0, 0.0, 0.0, 1.6216021155598192E9, 2021-05-21 15:01:55.559
36.0, -68.49626922607422, -337.8307800292969, 153.044189453125, 14.110642433166504, 0.03200000151991844, 0.03200000151991844, 1.055999994277954, 0.0, 0.0, 0.0, 0.0, 0.0, 1.6216021155598192E9, 2021-05-21 15:01:55.559
37.0, -38.21055603027344, -280.0567932128906, 203.21495056152344, 73.72090911865234, 0.03200000151991844, 0.03200000151991844, 1.055999994277954, 0.0, 0.0, 0.0, 0.0, 0.0, 1.6216021155896487E9, 2021-05-21 15:01:55.589
37.0, -10.804571151733398, -255.86338806152344, 240.55784606933594, 101.05209350585938, 0.03200000151991844, 0.03200000151991844, 1.055999994277954, 0.0, 0.0, 0.0, 0.0, 0.0, 1.6216021155896487E9, 2021-05-21 15:01:55.589
38.0, -57.863731384277344, -315.6793518066406, 176.03335571289062, 34.44447708129883, 0.03200000151991844, 0.03200000151991844, 1.055999994277954, 0.0, 0.0, 0.0, 0.0, 0.0, 1.621602115590592E9, 2021-05-21 15:01:55.590
38.0, -73.77326965332031, -337.8569641113281, 145.3773956298828, 9.630242347717285, 0.03200000151991844, 0.03200000151991844, 1.055999994277954, 0.0, 0.0, 0.0, 0.0, 0.0, 1.621602115590592E9, 2021-05-21 15:01:55.590
39.0, -41.43435287475586, -291.9197692871094, 199.0000762939453, 67.0863265991211, 0.03200000151991844, 0.03200000151991844, 1.055999994277954, 0.0, 0.0, 0.0, 0.0, 0.0, 1.6216021155910687E9, 2021-05-21 15:01:55.591
39.0, -14.144301414489746, -259.2255554199219, 237.2218475341797, 101.18299102783203, 0.03200000151991844, 0.03200000151991844, 1.055999994277954, 0.0, 0.0, 0.0, 0.0, 0.0, 1.6216021155910687E9, 2021-05-21 15:01:55.591
40.0, -58.21528244018555, -321.3639831542969, 174.8253631591797, 36.55004119873047, 0.03200000151991844, 0.03200000151991844, 1.055999994277954, 0.0, 0.0, 0.0, 0.0, 0.0, 1.6216021156033244E9, 2021-05-21 15:01:55.603
40.0, -81.1184310913086, -347.03466796875, 142.25831604003906, 13.684293746948242, 0.03200000151991844, 0.03200000151991844, 1.055999994277954, 0.0, 0.0, 0.0, 0.0, 0.0, 1.6216021156033244E9, 2021-05-21 15:01:55.603
41.0, -40.1777458190918, -292.020751953125, 197.15257263183594, 66.10272979736328, 0.03200000151991844, 0.03200000151991844, 1.055999994277954, 0.0, 0.0, 0.0, 0.0, 0.0, 1.6216021156189466E9, 2021-05-21 15:01:55.618
41.0, -14.507071495056152, -262.4979553222656, 229.07261657714844, 102.7799301147461, 0.03200000151991844, 0.03200000151991844, 1.055999994277954, 0.0, 0.0, 0.0, 0.0, 0.0, 1.6216021156189466E9, 2021-05-21 15:01:55.618
42.0, -61.05386734008789, -318.7423095703125, 168.807861328125, 39.7551383972168, 0.03200000151991844, 0.03200000151991844, 1.055999994277954, 0.0, 0.0, 0.0, 0.0, 0.0, 1.6216021156196644E9, 2021-05-21 15:01:55.619
42.0, -71.76119995117188, -345.08990478515625, 147.47174072265625, 15.505624771118164, 0.03200000151991844, 0.03200000151991844, 1.055999994277954, 0.0, 0.0, 0.0, 0.0, 0.0, 1.6216021156196644E9, 2021-05-21 15:01:55.619
43.0, -25.509857177734375, -289.0587463378906, 201.2440185546875, 66.43558502197266, 0.03200000151991844, 0.03200000151991844, 1.055999994277954, 0.0, 0.0, 0.0, 0.0, 0.0, 1.6216021156486735E9, 2021-05-21 15:01:55.648
43.0, -9.82845687866211, -254.81246948242188, 235.9540252685547, 104.50776672363281, 0.03200000151991844, 0.03200000151991844, 1.055999994277954, 0.0, 0.0, 0.0, 0.0, 0.0, 1.6216021156486735E9, 2021-05-21 15:01:55.648
44.0, -58.0656852722168, -324.7822570800781, 174.72438049316406, 36.31068801879883, 0.03200000151991844, 0.03200000151991844, 1.055999994277954, 0.0, 0.0, 0.0, 0.0, 0.0, 1.6216021156657407E9, 2021-05-21 15:01:55.665
44.0, -61.94396209716797, -346.3876647949219, 153.53038024902344, 17.16240119934082, 0.03200000151991844, 0.03200000151991844, 1.055999994277954, 0.0, 0.0, 0.0, 0.0, 0.0, 1.6216021156657407E9, 2021-05-21 15:01:55.665
45.0, -35.51409149169922, -295.28192138671875, 202.223876953125, 69.99596405029297, 0.03200000151991844, 0.03200000151991844, 1.055999994277954, 0.0, 0.0, 0.0, 0.0, 0.0, 1.621602115666508E9, 2021-05-21 15:01:55.666
45.0, -16.90060806274414, -262.29974365234375, 239.15538024902344, 102.20398712158203, 0.03200000151991844, 0.03200000151991844, 1.055999994277954, 0.0, 0.0, 0.0, 0.0, 0.0, 1.621602115666508E9, 2021-05-21 15:01:55.666
46.0, -54.957828521728516, -316.3712158203125, 182.51834106445312, 44.46366882324219, 0.03200000151991844, 0.03200000151991844, 1.055999994277954, 0.0, 0.0, 0.0, 0.0, 0.0, 1.621602115667164E9, 2021-05-21 15:01:55.667
46.0, -78.35464477539062, -338.7881774902344, 154.91787719726562, 17.207279205322266, 0.03200000151991844, 0.03200000151991844, 1.055999994277954, 0.0, 0.0, 0.0, 0.0, 0.0, 1.621602115667164E9, 2021-05-21 15:01:55.667
47.0, -43.88398742675781, -292.5368347167969, 199.40025329589844, 65.119140625, 0.03200000151991844, 0.03200000151991844, 1.055999994277954, 0.0, 0.0, 0.0, 0.0, 0.0, 1.6216021156789124E9, 2021-05-21 15:01:55.678
47.0, -14.454712867736816, -255.01068115234375, 240.98045349121094, 104.30207061767578, 0.03200000151991844, 0.03200000151991844, 1.055999994277954, 0.0, 0.0, 0.0, 0.0, 0.0, 1.6216021156789124E9, 2021-05-21 15:01:55.678
48.0, -50.90003967285156, -320.8030090332031, 180.44268798828125, 44.459930419921875, 0.03200000151991844, 0.03200000151991844, 1.055999994277954, 0.0, 0.0, 0.0, 0.0, 0.0, 1.6216021156796496E9, 2021-05-21 15:01:55.679
48.0, -70.77760314941406, -351.57489013671875, 152.04188537597656, 9.050558090209961, 0.03200000151991844, 0.03200000151991844, 1.055999994277954, 0.0, 0.0, 0.0, 0.0, 0.0, 1.6216021156796496E9, 2021-05-21 15:01:55.679
49.0, -27.140453338623047, -296.5385437011719, 204.7183837890625, 67.7894287109375, 0.03200000151991844, 0.03200000151991844, 1.055999994277954, 0.0, 0.0, 0.0, 0.0, 0.0, 1.6216021156932652E9, 2021-05-21 15:01:55.693
49.0, -12.715660095214844, -267.06439208984375, 234.49546813964844, 98.74832153320312, 0.03200000151991844, 0.03200000151991844, 1.055999994277954, 0.0, 0.0, 0.0, 0.0, 0.0, 1.6216021156932652E9, 2021-05-21 15:01:55.693
50.0, -52.11176681518555, -321.4051208496094, 181.29165649414062, 42.05891418457031, 0.03200000151991844, 0.03200000151991844, 1.055999994277954, 0.0, 0.0, 0.0, 0.0, 0.0, 1.621602115708913E9, 2021-05-21 15:01:55.708
50.0, -59.03432083129883, -350.2734069824219, 149.2706298828125, 15.842216491699219, 0.03200000151991844, 0.03200000151991844, 1.055999994277954, 0.0, 0.0, 0.0, 0.0, 0.0, 1.621602115708913E9, 2021-05-21 15:01:55.708
51.0, -27.342409133911133, -299.7024841308594, 205.4775848388672, 72.87569427490234, 0.03200000151991844, 0.03200000151991844, 1.055999994277954, 0.0, 0.0, 0.0, 0.0, 0.0, 1.6216021157095883E9, 2021-05-21 15:01:55.709
51.0, 1.7727125883102417, -268.4518737792969, 241.29086303710938, 102.79489135742188, 0.03200000151991844, 0.03200000151991844, 1.055999994277954, 0.0, 0.0, 0.0, 0.0, 0.0, 1.6216021157095883E9, 2021-05-21 15:01:55.709
52.0, -52.253883361816406, -331.67864990234375, 175.15821838378906, 38.453651428222656, 0.03200000151991844, 0.03200000151991844, 1.055999994277954, 0.0, 0.0, 0.0, 0.0, 0.0, 1.6216021157233863E9, 2021-05-21 15:01:55.723
52.0, -72.01177215576172, -355.0006408691406, 149.8615264892578, 9.589103698730469, 0.03200000151991844, 0.03200000151991844, 1.055999994277954, 0.0, 0.0, 0.0, 0.0, 0.0, 1.6216021157233863E9, 2021-05-21 15:01:55.723
53.0, -26.833782196044922, -301.22088623046875, 206.5060577392578, 67.59869384765625, 0.03200000151991844, 0.03200000151991844, 1.055999994277954, 0.0, 0.0, 0.0, 0.0, 0.0, 1.6216021157389784E9, 2021-05-21 15:01:55.738
53.0, -8.332496643066406, -271.94122314453125, 237.37518310546875, 95.10191345214844, 0.03200000151991844, 0.03200000151991844, 1.055999994277954, 0.0, 0.0, 0.0, 0.0, 0.0, 1.6216021157389784E9, 2021-05-21 15:01:55.738
54.0, -43.84284591674805, -323.43963623046875, 173.1648406982422, 38.491050720214844, 0.03200000151991844, 0.03200000151991844, 1.055999994277954, 0.0, 0.0, 0.0, 0.0, 0.0, 1.6216021157396212E9, 2021-05-21 15:01:55.739
54.0, -68.68326568603516, -345.6920471191406, 144.41249084472656, 13.572096824645996, 0.03200000151991844, 0.03200000151991844, 1.055999994277954, 0.0, 0.0, 0.0, 0.0, 0.0, 1.6216021157396212E9, 2021-05-21 15:01:55.739
55.0, -37.959983825683594, -298.442138671875, 199.79293823242188, 67.44535827636719, 0.03200000151991844, 0.03200000151991844, 1.055999994277954, 0.0, 0.0, 0.0, 0.0, 0.0, 1.6216021157532258E9, 2021-05-21 15:01:55.753
55.0, -7.333943843841553, -265.6694030761719, 234.3870086669922, 96.00323486328125, 0.03200000151991844, 0.03200000151991844, 1.055999994277954, 0.0, 0.0, 0.0, 0.0, 0.0, 1.6216021157532258E9, 2021-05-21 15:01:55.753
56.0, -52.93080520629883, -319.06768798828125, 176.06326293945312, 40.42831802368164, 0.03200000151991844, 0.03200000151991844, 1.055999994277954, 0.0, 0.0, 0.0, 0.0, 0.0, 1.621602115768965E9, 2021-05-21 15:01:55.768
56.0, -65.74369812011719, -342.29620361328125, 151.2228546142578, 13.684293746948242, 0.03200000151991844, 0.03200000151991844, 1.055999994277954, 0.0, 0.0, 0.0, 0.0, 0.0, 1.621602115768965E9, 2021-05-21 15:01:55.768
57.0, -29.130081176757812, -292.0730895996094, 203.03916931152344, 63.798954010009766, 0.03200000151991844, 0.03200000151991844, 1.055999994277954, 0.0, 0.0, 0.0, 0.0, 0.0, 1.621602115769704E9, 2021-05-21 15:01:55.769
57.0, 3.968033790588379, -265.0672912597656, 235.277099609375, 100.27420043945312, 0.03200000151991844, 0.03200000151991844, 1.055999994277954, 0.0, 0.0, 0.0, 0.0, 0.0, 1.621602115769704E9, 2021-05-21 15:01:55.769
58.0, -50.01742172241211, -318.57403564453125, 173.5089111328125, 38.81642150878906, 0.03200000151991844, 0.03200000151991844, 1.055999994277954, 0.0, 0.0, 0.0, 0.0, 0.0, 1.6216021157832572E9, 2021-05-21 15:01:55.783
58.0, -62.00380325317383, -347.4610290527344, 153.84078979492188, 12.76801872253418, 0.03200000151991844, 0.03200000151991844, 1.055999994277954, 0.0, 0.0, 0.0, 0.0, 0.0, 1.6216021157832572E9, 2021-05-21 15:01:55.783
59.0, -32.200538635253906, -308.6072082519531, 193.42388916015625, 62.42641067504883, 0.03200000151991844, 0.03200000151991844, 1.055999994277954, 0.0, 0.0, 0.0, 0.0, 0.0, 1.6216021157989645E9, 2021-05-21 15:01:55.798
59.0, -0.4749673008918762, -264.24822998046875, 233.72879028320312, 105.3679428100586, 0.03200000151991844, 0.03200000151991844, 1.055999994277954, 0.0, 0.0, 0.0, 0.0, 0.0, 1.6216021157989645E9, 2021-05-21 15:01:55.798
60.0, -50.862640380859375, -320.7506408691406, 168.0823211669922, 33.92089080810547, 0.03200000151991844, 0.03200000151991844, 1.055999994277954, 0.0, 0.0, 0.0, 0.0, 0.0, 1.621602115799616E9, 2021-05-21 15:01:55.799
60.0, -69.48360443115234, -352.3789978027344, 134.78973388671875, 7.2441864013671875, 0.03200000151991844, 0.03200000151991844, 1.055999994277954, 0.0, 0.0, 0.0, 0.0, 0.0, 1.621602115799616E9, 2021-05-21 15:01:55.799
61.0, -26.63182830810547, -298.4346618652344, 201.64044189453125, 64.68157196044922, 0.03200000151991844, 0.03200000151991844, 1.055999994277954, 0.0, 0.0, 0.0, 0.0, 0.0, 1.6216021158132195E9, 2021-05-21 15:01:55.813
61.0, -12.442646980285645, -267.7525329589844, 234.28977966308594, 98.19481658935547, 0.03200000151991844, 0.03200000151991844, 1.055999994277954, 0.0, 0.0, 0.0, 0.0, 0.0, 1.6216021158132195E9, 2021-05-21 15:01:55.813
62.0, -51.21792984008789, -320.8142395019531, 172.24856567382812, 41.307193756103516, 0.03200000151991844, 0.03200000151991844, 1.055999994277954, 0.0, 0.0, 0.0, 0.0, 0.0, 1.62160211582901E9, 2021-05-21 15:01:55.829
62.0, -69.22554779052734, -340.9012451171875, 146.2974090576172, 7.861269474029541, 0.03200000151991844, 0.03200000151991844, 1.055999994277954, 0.0, 0.0, 0.0, 0.0, 0.0, 1.62160211582901E9, 2021-05-21 15:01:55.829
63.0, -28.441938400268555, -293.3820495605469, 197.95291137695312, 61.90282440185547, 0.03200000151991844, 0.03200000151991844, 1.055999994277954, 0.0, 0.0, 0.0, 0.0, 0.0, 1.6216021158297503E9, 2021-05-21 15:01:55.829
63.0, -11.35059642791748, -263.96026611328125, 238.13812255859375, 101.41860961914062, 0.03200000151991844, 0.03200000151991844, 1.055999994277954, 0.0, 0.0, 0.0, 0.0, 0.0, 1.6216021158297503E9, 2021-05-21 15:01:55.829
64.0, -41.367034912109375, -314.9014587402344, 180.07618713378906, 34.50057601928711, 0.03200000151991844, 0.03200000151991844, 1.055999994277954, 0.0, 0.0, 0.0, 0.0, 0.0, 1.6216021158432188E9, 2021-05-21 15:01:55.843
64.0, -72.48674011230469, -345.2843933105469, 149.38282775878906, 9.559184074401855, 0.03200000151991844, 0.03200000151991844, 1.055999994277954, 0.0, 0.0, 0.0, 0.0, 0.0, 1.6216021158432188E9, 2021-05-21 15:01:55.843
65.0, -24.02885627746582, -299.298583984375, 208.36105346679688, 60.302146911621094, 0.03200000151991844, 0.03200000151991844, 1.055999994277954, 0.0, 0.0, 0.0, 0.0, 0.0, 1.6216021158590152E9, 2021-05-21 15:01:55.859
65.0, -12.57728385925293, -266.39495849609375, 237.33778381347656, 98.63238525390625, 0.03200000151991844, 0.03200000151991844, 1.055999994277954, 0.0, 0.0, 0.0, 0.0, 0.0, 1.6216021158590152E9, 2021-05-21 15:01:55.859
66.0, -46.47199630737305, -323.8398132324219, 175.69676208496094, 36.0040168762207, 0.03200000151991844, 0.03200000151991844, 1.055999994277954, 0.0, 0.0, 0.0, 0.0, 0.0, 1.621602115859789E9, 2021-05-21 15:01:55.859
66.0, -69.93987274169922, -352.9324951171875, 150.42625427246094, 9.940653800964355, 0.03200000151991844, 0.03200000151991844, 1.055999994277954, 0.0, 0.0, 0.0, 0.0, 0.0, 1.621602115859789E9, 2021-05-21 15:01:55.859
67.0, -27.409727096557617, -300.0690002441406, 206.61825561523438, 66.38322448730469, 0.03200000151991844, 0.03200000151991844, 1.055999994277954, 0.0, 0.0, 0.0, 0.0, 0.0, 1.621602115873194E9, 2021-05-21 15:01:55.873
67.0, -3.1115968227386475, -264.2145690917969, 241.58631896972656, 105.48014068603516, 0.03200000151991844, 0.03200000151991844, 1.055999994277954, 0.0, 0.0, 0.0, 0.0, 0.0, 1.621602115873194E9, 2021-05-21 15:01:55.873
68.0, -51.13191223144531, -320.5711364746094, 182.52955627441406, 41.23239517211914, 0.03200000151991844, 0.03200000151991844, 1.055999994277954, 0.0, 0.0, 0.0, 0.0, 0.0, 1.6216021158890376E9, 2021-05-21 15:01:55.889
68.0, -72.57649993896484, -344.4354248046875, 146.44700622558594, 18.662099838256836, 0.03200000151991844, 0.03200000151991844, 1.055999994277954, 0.0, 0.0, 0.0, 0.0, 0.0, 1.6216021158890376E9, 2021-05-21 15:01:55.889
69.0, -32.110782623291016, -298.41595458984375, 198.38299560546875, 65.93443298339844, 0.03200000151991844, 0.03200000151991844, 1.055999994277954, 0.0, 0.0, 0.0, 0.0, 0.0, 1.621602115889743E9, 2021-05-21 15:01:55.889
69.0, -15.733758926391602, -263.78076171875, 234.40945434570312, 97.8656997680664, 0.03200000151991844, 0.03200000151991844, 1.055999994277954, 0.0, 0.0, 0.0, 0.0, 0.0, 1.621602115889743E9, 2021-05-21 15:01:55.889
70.0, -48.09511184692383, -314.1833801269531, 176.11563110351562, 46.10174560546875, 0.03200000151991844, 0.03200000151991844, 1.055999994277954, 0.0, 0.0, 0.0, 0.0, 0.0, 1.6216021159033003E9, 2021-05-21 15:01:55.903
70.0, -72.71113586425781, -341.7127990722656, 151.8885498046875, 13.949827194213867, 0.03200000151991844, 0.03200000151991844, 1.055999994277954, 0.0, 0.0, 0.0, 0.0, 0.0, 1.6216021159033003E9, 2021-05-21 15:01:55.903
71.0, -27.39850616455078, -296.3103942871094, 202.92697143554688, 67.25836181640625, 0.03200000151991844, 0.03200000151991844, 1.055999994277954, 0.0, 0.0, 0.0, 0.0, 0.0, 1.6216021159189382E9, 2021-05-21 15:01:55.918
71.0, -2.606710195541382, -267.05316162109375, 236.57110595703125, 101.657958984375, 0.03200000151991844, 0.03200000151991844, 1.055999994277954, 0.0, 0.0, 0.0, 0.0, 0.0, 1.6216021159189382E9, 2021-05-21 15:01:55.918
72.0, -44.05976104736328, -317.9045715332031, 181.17572021484375, 43.20332336425781, 0.03200000151991844, 0.03200000151991844, 1.055999994277954, 0.0, 0.0, 0.0, 0.0, 0.0, 1.62160211591964E9, 2021-05-21 15:01:55.919
72.0, -55.63475036621094, -344.6149597167969, 147.3894500732422, 8.138022422790527, 0.03200000151991844, 0.03200000151991844, 1.055999994277954, 0.0, 0.0, 0.0, 0.0, 0.0, 1.62160211591964E9, 2021-05-21 15:01:55.919
73.0, -29.818222045898438, -289.0811767578125, 199.94253540039062, 68.32049560546875, 0.03200000151991844, 0.03200000151991844, 1.055999994277954, 0.0, 0.0, 0.0, 0.0, 0.0, 1.6216021159333034E9, 2021-05-21 15:01:55.933
73.0, -12.68574047088623, -266.5520324707031, 234.9031219482422, 103.524169921875, 0.03200000151991844, 0.03200000151991844, 1.055999994277954, 0.0, 0.0, 0.0, 0.0, 0.0, 1.6216021159333034E9, 2021-05-21 15:01:55.933
74.0, -47.810882568359375, -319.1799011230469, 175.74911499023438, 42.836814880371094, 0.03200000151991844, 0.03200000151991844, 1.055999994277954, 0.0, 0.0, 0.0, 0.0, 0.0, 1.621602115948979E9, 2021-05-21 15:01:55.948
74.0, -80.02638244628906, -352.1396179199219, 140.84837341308594, 13.18688678741455, 0.03200000151991844, 0.03200000151991844, 1.055999994277954, 0.0, 0.0, 0.0, 0.0, 0.0, 1.621602115948979E9, 2021-05-21 15:01:55.948
75.0, -34.8895263671875, -302.339111328125, 196.00067138671875, 67.47527313232422, 0.03200000151991844, 0.03200000151991844, 1.055999994277954, 0.0, 0.0, 0.0, 0.0, 0.0, 1.6216021159496472E9, 2021-05-21 15:01:55.949
75.0, -11.406694412231445, -267.1017761230469, 232.46844482421875, 99.78053283691406, 0.03200000151991844, 0.03200000151991844, 1.055999994277954, 0.0, 0.0, 0.0, 0.0, 0.0, 1.6216021159496472E9, 2021-05-21 15:01:55.949
76.0, -61.311920166015625, -318.8844299316406, 178.18753051757812, 49.991241455078125, 0.03200000151991844, 0.03200000151991844, 1.055999994277954, 0.0, 0.0, 0.0, 0.0, 0.0, 1.6216021159632704E9, 2021-05-21 15:01:55.963
76.0, -65.69134521484375, -347.6816711425781, 151.8212432861328, 17.97395896911621, 0.03200000151991844, 0.03200000151991844, 1.055999994277954, 0.0, 0.0, 0.0, 0.0, 0.0, 1.6216021159632704E9, 2021-05-21 15:01:55.963
77.0, -37.83656692504883, -302.9150695800781, 201.3300323486328, 70.5644302368164, 0.03200000151991844, 0.03200000151991844, 1.055999994277954, 0.0, 0.0, 0.0, 0.0, 0.0, 1.6216021159789863E9, 2021-05-21 15:01:55.978
77.0, -8.317537307739258, -265.13458251953125, 242.81300354003906, 107.72407531738281, 0.03200000151991844, 0.03200000151991844, 1.055999994277954, 0.0, 0.0, 0.0, 0.0, 0.0, 1.6216021159789863E9, 2021-05-21 15:01:55.978
78.0, -50.473690032958984, -317.6988830566406, 180.86904907226562, 44.71798324584961, 0.03200000151991844, 0.03200000151991844, 1.055999994277954, 0.0, 0.0, 0.0, 0.0, 0.0, 1.6216021159796827E9, 2021-05-21 15:01:55.979
78.0, -67.94276428222656, -353.08209228515625, 149.10606384277344, 15.554244041442871, 0.03200000151991844, 0.03200000151991844, 1.055999994277954, 0.0, 0.0, 0.0, 0.0, 0.0, 1.6216021159796827E9, 2021-05-21 15:01:55.979
79.0, -23.73340606689453, -298.5730285644531, 207.90103149414062, 73.5301742553711, 0.03200000151991844, 0.03200000151991844, 1.055999994277954, 0.0, 0.0, 0.0, 0.0, 0.0, 1.6216021159932835E9, 2021-05-21 15:01:55.993
79.0, -6.37278938293457, -272.326416015625, 238.83749389648438, 99.3504409790039, 0.03200000151991844, 0.03200000151991844, 1.055999994277954, 0.0, 0.0, 0.0, 0.0, 0.0, 1.6216021159932835E9, 2021-05-21 15:01:55.993
80.0, -54.61750030517578, -317.033203125, 183.02696228027344, 44.35147476196289, 0.03200000151991844, 0.03200000151991844, 1.055999994277954, 0.0, 0.0, 0.0, 0.0, 0.0, 1.6216021160089457E9, 2021-05-21 15:01:56.008
80.0, -62.23193359375, -352.8614196777344, 156.91871643066406, 12.37532901763916, 0.03200000151991844, 0.03200000151991844, 1.055999994277954, 0.0, 0.0, 0.0, 0.0, 0.0, 1.6216021160089457E9, 2021-05-21 15:01:56.008
81.0, -42.48526382446289, -305.2188415527344, 203.8357696533203, 63.92237091064453, 0.03200000151991844, 0.03200000151991844, 1.055999994277954, 0.0, 0.0, 0.0, 0.0, 0.0, 1.6216021160096526E9, 2021-05-21 15:01:56.009
81.0, -17.169879913330078, -267.69268798828125, 239.4470977783203, 104.47036743164062, 0.03200000151991844, 0.03200000151991844, 1.055999994277954, 0.0, 0.0, 0.0, 0.0, 0.0, 1.6216021160096526E9, 2021-05-21 15:01:56.009
82.0, -53.136497497558594, -318.70867919921875, 184.0703887939453, 47.653804779052734, 0.03200000151991844, 0.03200000151991844, 1.055999994277954, 0.0, 0.0, 0.0, 0.0, 0.0, 1.6216021160232594E9, 2021-05-21 15:01:56.023
82.0, -81.26054382324219, -346.05108642578125, 142.88287353515625, 15.838476181030273, 0.03200000151991844, 0.03200000151991844, 1.055999994277954, 0.0, 0.0, 0.0, 0.0, 0.0, 1.6216021160232594E9, 2021-05-21 15:01:56.023
83.0, -38.90243911743164, -297.926025390625, 197.3507843017578, 69.36392211914062, 0.03200000151991844, 0.03200000151991844, 1.055999994277954, 0.0, 0.0, 0.0, 0.0, 0.0, 1.6216021160390148E9, 2021-05-21 15:01:56.039
83.0, -11.881662368774414, -264.1023864746094, 237.31161499023438, 109.47808837890625, 0.03200000151991844, 0.03200000151991844, 1.055999994277954, 0.0, 0.0, 0.0, 0.0, 0.0, 1.6216021160390148E9, 2021-05-21 15:01:56.039
84.0, -59.14277648925781, -319.1275329589844, 175.55838012695312, 45.761417388916016, 0.03200000151991844, 0.03200000151991844, 1.055999994277954, 0.0, 0.0, 0.0, 0.0, 0.0, 1.6216021160396848E9, 2021-05-21 15:01:56.039
84.0, -73.13374328613281, -347.44232177734375, 151.07325744628906, 16.36954116821289, 0.03200000151991844, 0.03200000151991844, 1.055999994277954, 0.0, 0.0, 0.0, 0.0, 0.0, 1.6216021160396848E9, 2021-05-21 15:01:56.039
85.0, -38.737884521484375, -299.24249267578125, 201.2888946533203, 66.0279312133789, 0.03200000151991844, 0.03200000151991844, 1.055999994277954, 0.0, 0.0, 0.0, 0.0, 0.0, 1.6216021160532887E9, 2021-05-21 15:01:56.053
85.0, -12.038738250732422, -267.6440734863281, 240.195068359375, 103.35961151123047, 0.03200000151991844, 0.03200000151991844, 1.055999994277954, 0.0, 0.0, 0.0, 0.0, 0.0, 1.6216021160532887E9, 2021-05-21 15:01:56.053
86.0, -50.08100128173828, -318.3085021972656, 186.87158203125, 40.36848068237305, 0.03200000151991844, 0.03200000151991844, 1.055999994277954, 0.0, 0.0, 0.0, 0.0, 0.0, 1.621602116068976E9, 2021-05-21 15:01:56.068
86.0, -60.56768035888672, -343.99786376953125, 160.26593017578125, 16.4966983795166, 0.03200000151991844, 0.03200000151991844, 1.055999994277954, 0.0, 0.0, 0.0, 0.0, 0.0, 1.621602116068976E9, 2021-05-21 15:01:56.068
87.0, -30.547502517700195, -301.2283630371094, 206.7117462158203, 62.30299377441406, 0.03200000151991844, 0.03200000151991844, 1.055999994277954, 0.0, 0.0, 0.0, 0.0, 0.0, 1.6216021160697386E9, 2021-05-21 15:01:56.069
87.0, -4.125109672546387, -263.00286865234375, 236.02508544921875, 100.6145248413086, 0.03200000151991844, 0.03200000151991844, 1.055999994277954, 0.0, 0.0, 0.0, 0.0, 0.0, 1.6216021160697386E9, 2021-05-21 15:01:56.069
88.0, -60.72849655151367, -313.9776916503906, 183.7824249267578, 38.872520446777344, 0.03200000151991844, 0.03200000151991844, 1.055999994277954, 0.0, 0.0, 0.0, 0.0, 0.0, 1.6216021160833135E9, 2021-05-21 15:01:56.083
88.0, -66.40192413330078, -336.6714172363281, 154.25592041015625, 12.154674530029297, 0.03200000151991844, 0.03200000151991844, 1.055999994277954, 0.0, 0.0, 0.0, 0.0, 0.0, 1.6216021160833135E9, 2021-05-21 15:01:56.083
89.0, -39.882293701171875, -300.143798828125, 205.8179168701172, 67.20226287841797, 0.03200000151991844, 0.03200000151991844, 1.055999994277954, 0.0, 0.0, 0.0, 0.0, 0.0, 1.621602116099076E9, 2021-05-21 15:01:56.099
89.0, -10.666194915771484, -266.0209655761719, 240.17637634277344, 106.87138366699219, 0.03200000151991844, 0.03200000151991844, 1.055999994277954, 0.0, 0.0, 0.0, 0.0, 0.0, 1.621602116099076E9, 2021-05-21 15:01:56.099
90.0, -40.985565185546875, -317.71759033203125, 181.93490600585938, 45.78385543823242, 0.03200000151991844, 0.03200000151991844, 1.055999994277954, 0.0, 0.0, 0.0, 0.0, 0.0, 1.6216021160997553E9, 2021-05-21 15:01:56.099
90.0, -80.48638916015625, -348.1903076171875, 141.75343322753906, 15.49814510345459, 0.03200000151991844, 0.03200000151991844, 1.055999994277954, 0.0, 0.0, 0.0, 0.0, 0.0, 1.6216021160997553E9, 2021-05-21 15:01:56.099
91.0, -40.76116943359375, -303.4237060546875, 195.17416381835938, 61.62232971191406, 0.03200000151991844, 0.03200000151991844, 1.055999994277954, 0.0, 0.0, 0.0, 0.0, 0.0, 1.6216021161132376E9, 2021-05-21 15:01:56.113
91.0, -10.78961181640625, -268.5154724121094, 231.44744873046875, 97.58521270751953, 0.03200000151991844, 0.03200000151991844, 1.055999994277954, 0.0, 0.0, 0.0, 0.0, 0.0, 1.6216021161132376E9, 2021-05-21 15:01:56.113
92.0, -50.45499038696289, -316.70782470703125, 178.2660675048828, 42.22346878051758, 0.03200000151991844, 0.03200000151991844, 1.055999994277954, 0.0, 0.0, 0.0, 0.0, 0.0, 1.6216021161289575E9, 2021-05-21 15:01:56.128
92.0, -66.30094909667969, -348.04071044921875, 148.69842529296875, 8.859823226928711, 0.03200000151991844, 0.03200000151991844, 1.055999994277954, 0.0, 0.0, 0.0, 0.0, 0.0, 1.6216021161289575E9, 2021-05-21 15:01:56.128
93.0, -23.83812141418457, -300.93292236328125, 203.5290985107422, 61.446556091308594, 0.03200000151991844, 0.03200000151991844, 1.055999994277954, 0.0, 0.0, 0.0, 0.0, 0.0, 1.6216021161297023E9, 2021-05-21 15:01:56.129
93.0, -12.610942840576172, -272.8911437988281, 237.0984344482422, 101.71031951904297, 0.03200000151991844, 0.03200000151991844, 1.055999994277954, 0.0, 0.0, 0.0, 0.0, 0.0, 1.6216021161297023E9, 2021-05-21 15:01:56.129
94.0, -48.58877944946289, -315.6494140625, 187.8439483642578, 43.218284606933594, 0.03200000151991844, 0.03200000151991844, 1.055999994277954, 0.0, 0.0, 0.0, 0.0, 0.0, 1.6216021161432931E9, 2021-05-21 15:01:56.143
94.0, -63.33146667480469, -347.105712890625, 153.549072265625, 10.823270797729492, 0.03200000151991844, 0.03200000151991844, 1.055999994277954, 0.0, 0.0, 0.0, 0.0, 0.0, 1.6216021161432931E9, 2021-05-21 15:01:56.143
95.0, -38.872520446777344, -299.0031433105469, 202.6726531982422, 63.52968215942383, 0.03200000151991844, 0.03200000151991844, 1.055999994277954, 0.0, 0.0, 0.0, 0.0, 0.0, 1.6216021161589682E9, 2021-05-21 15:01:56.158
95.0, -8.545671463012695, -266.2154235839844, 242.00518798828125, 104.67231750488281, 0.03200000151991844, 0.03200000151991844, 1.055999994277954, 0.0, 0.0, 0.0, 0.0, 0.0, 1.6216021161589682E9, 2021-05-21 15:01:56.158
96.0, -45.67165756225586, -319.9503173828125, 187.47744750976562, 43.97000503540039, 0.03200000151991844, 0.03200000151991844, 1.055999994277954, 0.0, 0.0, 0.0, 0.0, 0.0, 1.621602116159716E9, 2021-05-21 15:01:56.159
96.0, -66.01297760009766, -345.91644287109375, 156.40635681152344, 16.01051139831543, 0.03200000151991844, 0.03200000151991844, 1.055999994277954, 0.0, 0.0, 0.0, 0.0, 0.0, 1.621602116159716E9, 2021-05-21 15:01:56.159
97.0, -31.867687225341797, -295.46893310546875, 211.06874084472656, 69.18814849853516, 0.03200000151991844, 0.03200000151991844, 1.055999994277954, 0.0, 0.0, 0.0, 0.0, 0.0, 1.6216021161732795E9, 2021-05-21 15:01:56.173
97.0, -13.302824020385742, -266.68292236328125, 240.09036254882812, 102.98936462402344, 0.03200000151991844, 0.03200000151991844, 1.055999994277954, 0.0, 0.0, 0.0, 0.0, 0.0, 1.6216021161732795E9, 2021-05-21 15:01:56.173
98.0, -50.466209411621094, -314.0113525390625, 191.93914794921875, 47.48925018310547, 0.03200000151991844, 0.03200000151991844, 1.055999994277954, 0.0, 0.0, 0.0, 0.0, 0.0, 1.6216021162043564E9, 2021-05-21 15:01:56.204
98.0, -74.12481689453125, -347.8200378417969, 153.21621704101562, 16.507919311523438, 0.03200000151991844, 0.03200000151991844, 1.055999994277954, 0.0, 0.0, 0.0, 0.0, 0.0, 1.6216021162043564E9, 2021-05-21 15:01:56.204
99.0, -38.7154426574707, -306.5801696777344, 200.75782775878906, 61.62981033325195, 0.03200000151991844, 0.03200000151991844, 1.055999994277954, 0.0, 0.0, 0.0, 0.0, 0.0, 1.6216021162050598E9, 2021-05-21 15:01:56.205
99.0, -6.720600128173828, -267.4832458496094, 243.35154724121094, 99.28312683105469, 0.03200000151991844, 0.03200000151991844, 1.055999994277954, 0.0, 0.0, 0.0, 0.0, 0.0, 1.6216021162050598E9, 2021-05-21 15:01:56.205
100.0, -46.5804557800293, -319.6436462402344, 189.4633331298828, 42.85177230834961, 0.03200000151991844, 0.03200000151991844, 1.055999994277954, 0.0, 0.0, 0.0, 0.0, 0.0, 1.6216021162204304E9, 2021-05-21 15:01:56.220
100.0, -76.2453384399414, -350.30706787109375, 148.90785217285156, 6.922554969787598, 0.03200000151991844, 0.03200000151991844, 1.055999994277954, 0.0, 0.0, 0.0, 0.0, 0.0, 1.6216021162204304E9, 2021-05-21 15:01:56.220
0.0, -38.63129806518555, -303.1824645996094, 198.32688903808594, 55.57117462158203, 0.03200000151991844, 0.03200000151991844, 1.055999994277954, 0.0, 0.0, 0.0, 0.0, 0.0, 1.6216021162210753E9, 2021-05-21 15:01:56.221
1.0, -9.000069618225098, -262.0361022949219, 240.4905242919922, 105.42030334472656, 0.03200000151991844, 0.03200000151991844, 1.055999994277954, 0.0, 0.0, 0.0, 0.0, 0.0, 1.6216021162218242E9, 2021-05-21 15:01:56.221
1.0, -47.04981231689453, -315.68121337890625, 188.13192749023438, 46.5804557800293, 0.03200000151991844, 0.03200000151991844, 1.055999994277954, 0.0, 0.0, 0.0, 0.0, 0.0, 1.6216021162218242E9, 2021-05-21 15:01:56.221
2.0, -70.40922546386719, -349.0373840332031, 151.8062744140625, 12.992412567138672, 0.01600000075995922, 0.03200000151991844, 1.055999994277954, 0.0, 0.0, 0.0, 0.0, 0.0, 1.621602116222571E9, 2021-05-21 15:01:56.222
2.0, -17.77761459350586, -299.26678466796875, 202.03688049316406, 67.75202941894531, 0.01600000075995922, 0.03200000151991844, 1.055999994277954, 0.0, 0.0, 0.0, 0.0, 0.0, 1.621602116222571E9, 2021-05-21 15:01:56.222
3.0, -15.514974594116211, -268.4574890136719, 239.08432006835938, 102.45829772949219, 0.01600000075995922, 0.03200000151991844, 1.055999994277954, 0.0, 0.0, 0.0, 0.0, 0.0, 1.6216021162333057E9, 2021-05-21 15:01:56.233
3.0, -46.70199966430664, -318.0672607421875, 185.36439514160156, 49.433998107910156, 0.01600000075995922, 0.03200000151991844, 1.055999994277954, 0.0, 0.0, 0.0, 0.0, 0.0, 1.6216021162333057E9, 2021-05-21 15:01:56.233
4.0, -76.62867736816406, -347.1861267089844, 146.5442352294922, 11.268318176269531, 0.01600000075995922, 0.03200000151991844, 1.055999994277954, 0.0, 0.0, 0.0, 0.0, 0.0, 1.6216021162482598E9, 2021-05-21 15:01:56.248
4.0, -40.243194580078125, -305.2843017578125, 200.41001892089844, 68.32423400878906, 0.01600000075995922, 0.03200000151991844, 1.055999994277954, 0.0, 0.0, 0.0, 0.0, 0.0, 1.6216021162482598E9, 2021-05-21 15:01:56.248
5.0, -7.500369548797607, -265.8582763671875, 242.88406372070312, 107.60066223144531, 0.01600000075995922, 0.03200000151991844, 1.055999994277954, 0.0, 0.0, 0.0, 0.0, 0.0, 1.62160211626397E9, 2021-05-21 15:01:56.263
5.0, -48.729026794433594, -317.50628662109375, 182.0770263671875, 48.87675094604492, 0.01600000075995922, 0.03200000151991844, 1.055999994277954, 0.0, 0.0, 0.0, 0.0, 0.0, 1.62160211626397E9, 2021-05-21 15:01:56.263
6.0, -76.33696746826172, -349.2056884765625, 144.92860412597656, 14.372435569763184, 0.01600000075995922, 0.03200000151991844, 1.055999994277954, 0.0, 0.0, 0.0, 0.0, 0.0, 1.621602116264582E9, 2021-05-21 15:01:56.264
6.0, -40.45636749267578, -297.6623840332031, 195.3087921142578, 62.77796173095703, 0.01600000075995922, 0.03200000151991844, 1.055999994277954, 0.0, 0.0, 0.0, 0.0, 0.0, 1.621602116264582E9, 2021-05-21 15:01:56.264
7.0, -13.532828330993652, -270.6191711425781, 238.11569213867188, 105.44647979736328, 0.01600000075995922, 0.03200000151991844, 1.055999994277954, 0.0, 0.0, 0.0, 0.0, 0.0, 1.6216021162947805E9, 2021-05-21 15:01:56.294
7.0, -45.03400421142578, -321.8894348144531, 180.61846923828125, 45.20417022705078, 0.01600000075995922, 0.03200000151991844, 1.055999994277954, 0.0, 0.0, 0.0, 0.0, 0.0, 1.6216021162947805E9, 2021-05-21 15:01:56.294
8.0, -70.27832794189453, -355.5635070800781, 143.032470703125, 11.526371955871582, 0.01600000075995922, 0.03200000151991844, 1.055999994277954, 0.0, 0.0, 0.0, 0.0, 0.0, 1.62160211629551E9, 2021-05-21 15:01:56.295
8.0, -49.04691696166992, -301.51446533203125, 187.87387084960938, 59.157737731933594, 0.01600000075995922, 0.03200000151991844, 1.055999994277954, 0.0, 0.0, 0.0, 0.0, 0.0, 1.62160211629551E9, 2021-05-21 15:01:56.295
9.0, -15.376598358154297, -262.3539733886719, 240.85704040527344, 99.85533142089844, 0.01600000075995922, 0.03200000151991844, 1.055999994277954, 0.0, 0.0, 0.0, 0.0, 0.0, 1.6216021162962253E9, 2021-05-21 15:01:56.296
9.0, -46.006378173828125, -318.9573669433594, 187.5896453857422, 50.230594635009766, 0.01600000075995922, 0.03200000151991844, 1.055999994277954, 0.0, 0.0, 0.0, 0.0, 0.0, 1.6216021162962253E9, 2021-05-21 15:01:56.296
10.0, -73.7227783203125, -349.93121337890625, 147.00050354003906, 12.824116706848145, 0.01600000075995922, 0.03200000151991844, 1.055999994277954, 0.0, 0.0, 0.0, 0.0, 0.0, 1.6216021163082292E9, 2021-05-21 15:01:56.308
10.0, -32.942909240722656, -300.1830749511719, 206.90621948242188, 57.022254943847656, 0.01600000075995922, 0.03200000151991844, 1.055999994277954, 0.0, 0.0, 0.0, 0.0, 0.0, 1.6216021163082292E9, 2021-05-21 15:01:56.308
11.0, -14.019015312194824, -271.8570556640625, 238.7477264404297, 96.45575714111328, 0.01600000075995922, 0.03200000151991844, 1.055999994277954, 0.0, 0.0, 0.0, 0.0, 0.0, 1.621602116323953E9, 2021-05-21 15:01:56.323
11.0, -44.2149658203125, -308.61279296875, 195.70896911621094, 57.29526901245117, 0.01600000075995922, 0.03200000151991844, 1.055999994277954, 0.0, 0.0, 0.0, 0.0, 0.0, 1.621602116323953E9, 2021-05-21 15:01:56.323
12.0, -69.91555786132812, -357.6914978027344, 155.00389099121094, 9.88829517364502, 0.03200000151991844, 0.03200000151991844, 1.055999994277954, 0.0, 0.0, 0.0, 0.0, 0.0, 1.6216021163246925E9, 2021-05-21 15:01:56.324
12.0, -38.1226692199707, -309.0952453613281, 195.89596557617188, 58.46211624145508, 0.03200000151991844, 0.03200000151991844, 1.055999994277954, 0.0, 0.0, 0.0, 0.0, 0.0, 1.6216021163246925E9, 2021-05-21 15:01:56.324
13.0, -11.879792213439941, -266.9091796875, 242.76065063476562, 101.56820678710938, 0.03200000151991844, 0.03200000151991844, 1.055999994277954, 0.0, 0.0, 0.0, 0.0, 0.0, 1.6216021163546312E9, 2021-05-21 15:01:56.354
13.0, -57.24103927612305, -316.8443298339844, 192.44776916503906, 46.73752975463867, 0.03200000151991844, 0.03200000151991844, 1.055999994277954, 0.0, 0.0, 0.0, 0.0, 0.0, 1.6216021163546312E9, 2021-05-21 15:01:56.354
14.0, -76.05647277832031, -348.32305908203125, 153.8931427001953, 7.8425703048706055, 0.03200000151991844, 0.03200000151991844, 1.055999994277954, 0.0, 0.0, 0.0, 0.0, 0.0, 1.621602116355393E9, 2021-05-21 15:01:56.355
14.0, -47.887550354003906, -295.91583251953125, 203.89559936523438, 62.33665084838867, 0.03200000151991844, 0.03200000151991844, 1.055999994277954, 0.0, 0.0, 0.0, 0.0, 0.0, 1.621602116355393E9, 2021-05-21 15:01:56.355
15.0, -16.13205909729004, -267.3130798339844, 240.10157775878906, 104.79199981689453, 0.03200000151991844, 0.03200000151991844, 1.055999994277954, 0.0, 0.0, 0.0, 0.0, 0.0, 1.6216021163559926E9, 2021-05-21 15:01:56.355
15.0, -52.465187072753906, -319.0134582519531, 184.04795837402344, 43.86902618408203, 0.03200000151991844, 0.03200000151991844, 1.055999994277954, 0.0, 0.0, 0.0, 0.0, 0.0, 1.6216021163559926E9, 2021-05-21 15:01:56.355
16.0, -71.34420013427734, -348.61102294921875, 143.5934600830078, 3.620223045349121, 0.03200000151991844, 0.03200000151991844, 1.055999994277954, 0.0, 0.0, 0.0, 0.0, 0.0, 1.6216021163682764E9, 2021-05-21 15:01:56.368
16.0, -40.680763244628906, -306.7652893066406, 192.634765625, 56.1695556640625, 0.03200000151991844, 0.03200000151991844, 1.055999994277954, 0.0, 0.0, 0.0, 0.0, 0.0, 1.6216021163682764E9, 2021-05-21 15:01:56.368
17.0, -8.70087718963623, -267.3654479980469, 236.23452758789062, 93.53489685058594, 0.03200000151991844, 0.03200000151991844, 1.055999994277954, 0.0, 0.0, 0.0, 0.0, 0.0, 1.621602116383919E9, 2021-05-21 15:01:56.383
17.0, -44.446842193603516, -319.63055419921875, 188.9584503173828, 49.74066925048828, 0.03200000151991844, 0.03200000151991844, 1.055999994277954, 0.0, 0.0, 0.0, 0.0, 0.0, 1.621602116383919E9, 2021-05-21 15:01:56.383
18.0, -72.11087799072266, -356.89117431640625, 147.53530883789062, 5.938961029052734, 0.03200000151991844, 0.03200000151991844, 1.055999994277954, 0.0, 0.0, 0.0, 0.0, 0.0, 1.6216021163846557E9, 2021-05-21 15:01:56.384
18.0, -36.428497314453125, -303.0328674316406, 198.3717803955078, 58.05820846557617, 0.03200000151991844, 0.03200000151991844, 1.055999994277954, 0.0, 0.0, 0.0, 0.0, 0.0, 1.6216021163846557E9, 2021-05-21 15:01:56.384
19.0, -11.891012191772461, -266.4416809082031, 237.7454376220703, 103.31847381591797, 0.03200000151991844, 0.03200000151991844, 1.055999994277954, 0.0, 0.0, 0.0, 0.0, 0.0, 1.6216021163983753E9, 2021-05-21 15:01:56.398
19.0, -40.93881607055664, -317.1846618652344, 193.1471405029297, 46.16158676147461, 0.03200000151991844, 0.03200000151991844, 1.055999994277954, 0.0, 0.0, 0.0, 0.0, 0.0, 1.6216021163983753E9, 2021-05-21 15:01:56.398
20.0, -75.28231811523438, -351.2140197753906, 151.8025360107422, 13.878768920898438, 0.03200000151991844, 0.03200000151991844, 1.055999994277954, 0.0, 0.0, 0.0, 0.0, 0.0, 1.6216021164139187E9, 2021-05-21 15:01:56.413
20.0, -43.50812530517578, -303.3171081542969, 200.3950653076172, 55.74320983886719, 0.03200000151991844, 0.03200000151991844, 1.055999994277954, 0.0, 0.0, 0.0, 0.0, 0.0, 1.6216021164139187E9, 2021-05-21 15:01:56.413
21.0, -14.303247451782227, -268.08349609375, 240.25491333007812, 97.20748138427734, 0.03200000151991844, 0.03200000151991844, 1.055999994277954, 0.0, 0.0, 0.0, 0.0, 0.0, 1.6216021164146464E9, 2021-05-21 15:01:56.414
21.0, -59.99360656738281, -320.0718688964844, 186.9987335205078, 41.501670837402344, 0.03200000151991844, 0.03200000151991844, 1.055999994277954, 0.0, 0.0, 0.0, 0.0, 0.0, 1.6216021164146464E9, 2021-05-21 15:01:56.414
22.0, -74.86344909667969, -351.2289733886719, 152.04188537597656, 3.564124584197998, 0.03200000151991844, 0.03200000151991844, 1.055999994277954, 0.0, 0.0, 0.0, 0.0, 0.0, 1.6216021164282444E9, 2021-05-21 15:01:56.428
22.0, -42.954620361328125, -305.07110595703125, 197.1338653564453, 54.87181091308594, 0.03200000151991844, 0.03200000151991844, 1.055999994277954, 0.0, 0.0, 0.0, 0.0, 0.0, 1.6216021164282444E9, 2021-05-21 15:01:56.428
23.0, -12.53427505493164, -269.3251647949219, 237.30413818359375, 98.59498596191406, 0.03200000151991844, 0.03200000151991844, 1.055999994277954, 0.0, 0.0, 0.0, 0.0, 0.0, 1.6216021164439197E9, 2021-05-21 15:01:56.443
23.0, -51.99021911621094, -318.6731262207031, 181.76287841796875, 39.635459899902344, 0.03200000151991844, 0.03200000151991844, 1.055999994277954, 0.0, 0.0, 0.0, 0.0, 0.0, 1.6216021164439197E9, 2021-05-21 15:01:56.443
24.0, -68.8646469116211, -351.37109375, 151.67538452148438, 9.099176406860352, 0.03200000151991844, 0.03200000151991844, 1.055999994277954, 0.0, 0.0, 0.0, 0.0, 0.0, 1.621602116444625E9, 2021-05-21 15:01:56.444
24.0, -38.320884704589844, -305.830322265625, 198.9552001953125, 58.19658279418945, 0.03200000151991844, 0.03200000151991844, 1.055999994277954, 0.0, 0.0, 0.0, 0.0, 0.0, 1.621602116444625E9, 2021-05-21 15:01:56.444
25.0, -12.08548641204834, -266.5650939941406, 238.5906524658203, 101.53828430175781, 0.03200000151991844, 0.03200000151991844, 1.055999994277954, 0.0, 0.0, 0.0, 0.0, 0.0, 1.6216021164582367E9, 2021-05-21 15:01:56.458
25.0, -44.74977111816406, -313.7701416015625, 191.21360778808594, 49.718231201171875, 0.03200000151991844, 0.03200000151991844, 1.055999994277954, 0.0, 0.0, 0.0, 0.0, 0.0, 1.6216021164582367E9, 2021-05-21 15:01:56.458
26.0, -72.09966278076172, -351.1055603027344, 149.7717742919922, 12.715660095214844, 0.03200000151991844, 0.03200000151991844, 1.055999994277954, 0.0, 0.0, 0.0, 0.0, 0.0, 1.6216021164739263E9, 2021-05-21 15:01:56.473
26.0, -41.802730560302734, -304.20721435546875, 201.76760864257812, 65.89329528808594, 0.03200000151991844, 0.03200000151991844, 1.055999994277954, 0.0, 0.0, 0.0, 0.0, 0.0, 1.6216021164739263E9, 2021-05-21 15:01:56.473
27.0, -15.41773796081543, -265.5553283691406, 244.267822265625, 110.7496566772461, 0.03200000151991844, 0.03200000151991844, 1.055999994277954, 0.0, 0.0, 0.0, 0.0, 0.0, 1.6216021164746192E9, 2021-05-21 15:01:56.474
27.0, -50.557838439941406, -325.5433349609375, 192.39915466308594, 45.70905685424805, 0.03200000151991844, 0.03200000151991844, 1.055999994277954, 0.0, 0.0, 0.0, 0.0, 0.0, 1.6216021164746192E9, 2021-05-21 15:01:56.474
28.0, -71.54615783691406, -353.9964904785156, 152.09799194335938, 14.72398567199707, 0.03200000151991844, 0.03200000151991844, 1.055999994277954, 0.0, 0.0, 0.0, 0.0, 0.0, 1.6216021164882247E9, 2021-05-21 15:01:56.488
28.0, -36.5145149230957, -307.9134521484375, 199.50869750976562, 54.34822463989258, 0.03200000151991844, 0.03200000151991844, 1.055999994277954, 0.0, 0.0, 0.0, 0.0, 0.0, 1.6216021164882247E9, 2021-05-21 15:01:56.488
29.0, -8.65225887298584, -272.1787109375, 240.6251678466797, 97.62635040283203, 0.03200000151991844, 0.03200000151991844, 1.055999994277954, 0.0, 0.0, 0.0, 0.0, 0.0, 1.621602116503935E9, 2021-05-21 15:01:56.503
29.0, -44.69367599487305, -322.9216613769531, 187.2904510498047, 43.28560256958008, 0.03200000151991844, 0.03200000151991844, 1.055999994277954, 0.0, 0.0, 0.0, 0.0, 0.0, 1.621602116503935E9, 2021-05-21 15:01:56.503
30.0, -63.868141174316406, -361.4014892578125, 154.33819580078125, 10.636275291442871, 0.03200000151991844, 0.03200000151991844, 1.055999994277954, 0.0, 0.0, 0.0, 0.0, 0.0, 1.621602116504629E9, 2021-05-21 15:01:56.504
30.0, -37.430789947509766, -315.3221740722656, 195.8211669921875, 58.58179473876953, 0.03200000151991844, 0.03200000151991844, 1.055999994277954, 0.0, 0.0, 0.0, 0.0, 0.0, 1.621602116504629E9, 2021-05-21 15:01:56.504
31.0, -5.892212390899658, -277.8820495605469, 236.54867553710938, 94.93362426757812, 0.03200000151991844, 0.03200000151991844, 1.055999994277954, 0.0, 0.0, 0.0, 0.0, 0.0, 1.6216021165182586E9, 2021-05-21 15:01:56.518
31.0, -49.8023796081543, -324.49615478515625, 184.4107208251953, 41.23239517211914, 0.03200000151991844, 0.03200000151991844, 1.055999994277954, 0.0, 0.0, 0.0, 0.0, 0.0, 1.6216021165182586E9, 2021-05-21 15:01:56.518
32.0, -71.31802368164062, -350.3014831542969, 152.1615753173828, 11.429134368896484, 0.03200000151991844, 0.03200000151991844, 1.055999994277954, 0.0, 0.0, 0.0, 0.0, 0.0, 1.6216021165340097E9, 2021-05-21 15:01:56.534
32.0, -33.275760650634766, -311.27935791015625, 205.00636291503906, 62.85649871826172, 0.03200000151991844, 0.03200000151991844, 1.055999994277954, 0.0, 0.0, 0.0, 0.0, 0.0, 1.6216021165340097E9, 2021-05-21 15:01:56.534
33.0, 0.387079656124115, -273.2408447265625, 250.7677764892578, 105.19964599609375, 0.03200000151991844, 0.03200000151991844, 1.055999994277954, 0.0, 0.0, 0.0, 0.0, 0.0, 1.6216021165346267E9, 2021-05-21 15:01:56.534
33.0, -44.016754150390625, -326.5718078613281, 198.8355255126953, 47.00680160522461, 0.03200000151991844, 0.03200000151991844, 1.055999994277954, 0.0, 0.0, 0.0, 0.0, 0.0, 1.6216021165346267E9, 2021-05-21 15:01:56.534
34.0, -67.02835845947266, -360.43658447265625, 156.23431396484375, 10.176267623901367, 0.03200000151991844, 0.03200000151991844, 1.055999994277954, 0.0, 0.0, 0.0, 0.0, 0.0, 1.6216021165482264E9, 2021-05-21 15:01:56.548
34.0, -33.99382019042969, -310.3032531738281, 201.89476013183594, 62.49372863769531, 0.03200000151991844, 0.03200000151991844, 1.055999994277954, 0.0, 0.0, 0.0, 0.0, 0.0, 1.6216021165482264E9, 2021-05-21 15:01:56.548
35.0, -9.48625659942627, -272.919189453125, 244.5296173095703, 104.36564636230469, 0.03200000151991844, 0.03200000151991844, 1.055999994277954, 0.0, 0.0, 0.0, 0.0, 0.0, 1.6216021165639002E9, 2021-05-21 15:01:56.563
35.0, -45.531410217285156, -324.2530517578125, 194.78895568847656, 51.573219299316406, 0.03200000151991844, 0.03200000151991844, 1.055999994277954, 0.0, 0.0, 0.0, 0.0, 0.0, 1.6216021165639002E9, 2021-05-21 15:01:56.563
36.0, -65.4949951171875, -355.3802490234375, 158.51565551757812, 10.755951881408691, 0.03200000151991844, 0.03200000151991844, 1.055999994277954, 0.0, 0.0, 0.0, 0.0, 0.0, 1.621602116564715E9, 2021-05-21 15:01:56.564
36.0, -34.2855339050293, -314.9668884277344, 196.55418395996094, 55.60483169555664, 0.03200000151991844, 0.03200000151991844, 1.055999994277954, 0.0, 0.0, 0.0, 0.0, 0.0, 1.621602116564715E9, 2021-05-21 15:01:56.564
37.0, -14.57625961303711, -272.3769226074219, 236.42526245117188, 99.25694274902344, 0.03200000151991844, 0.03200000151991844, 1.055999994277954, 0.0, 0.0, 0.0, 0.0, 0.0, 1.62160211657827E9, 2021-05-21 15:01:56.578
37.0, -45.774505615234375, -321.86700439453125, 187.00247192382812, 45.78011703491211, 0.03200000151991844, 0.03200000151991844, 1.055999994277954, 0.0, 0.0, 0.0, 0.0, 0.0, 1.62160211657827E9, 2021-05-21 15:01:56.578
38.0, -69.96417999267578, -357.06695556640625, 148.6759796142578, 7.042231559753418, 0.03200000151991844, 0.03200000151991844, 1.055999994277954, 0.0, 0.0, 0.0, 0.0, 0.0, 1.6216021165939667E9, 2021-05-21 15:01:56.593
38.0, -41.428741455078125, -312.67059326171875, 202.13037109375, 56.81282043457031, 0.03200000151991844, 0.03200000151991844, 1.055999994277954, 0.0, 0.0, 0.0, 0.0, 0.0, 1.6216021165939667E9, 2021-05-21 15:01:56.593
39.0, -7.620046138763428, -269.29522705078125, 242.46519470214844, 97.00552368164062, 0.03200000151991844, 0.03200000151991844, 1.055999994277954, 0.0, 0.0, 0.0, 0.0, 0.0, 1.621602116594814E9, 2021-05-21 15:01:56.594
39.0, -43.83723831176758, -318.0074462890625, 193.11721801757812, 44.13829803466797, 0.03200000151991844, 0.03200000151991844, 1.055999994277954, 0.0, 0.0, 0.0, 0.0, 0.0, 1.621602116594814E9, 2021-05-21 15:01:56.594
40.0, -72.95236206054688, -353.3121032714844, 156.4811553955078, 6.00253963470459, 0.03200000151991844, 0.03200000151991844, 1.055999994277954, 0.0, 0.0, 0.0, 0.0, 0.0, 1.621602116608252E9, 2021-05-21 15:01:56.608
40.0, -40.48628616333008, -306.7989501953125, 204.02276611328125, 56.816558837890625, 0.03200000151991844, 0.03200000151991844, 1.055999994277954, 0.0, 0.0, 0.0, 0.0, 0.0, 1.621602116608252E9, 2021-05-21 15:01:56.608
41.0, -10.275375366210938, -265.0616760253906, 253.093994140625, 103.6064453125, 0.03200000151991844, 0.03200000151991844, 1.055999994277954, 0.0, 0.0, 0.0, 0.0, 0.0, 1.6216021166239235E9, 2021-05-21 15:01:56.623
41.0, -47.9361686706543, -318.18695068359375, 194.17935180664062, 50.14457702636719, 0.03200000151991844, 0.03200000151991844, 1.055999994277954, 0.0, 0.0, 0.0, 0.0, 0.0, 1.6216021166239235E9, 2021-05-21 15:01:56.623
42.0, -74.67645263671875, -352.6202087402344, 156.57090759277344, 11.49271297454834, 0.03200000151991844, 0.03200000151991844, 1.055999994277954, 0.0, 0.0, 0.0, 0.0, 0.0, 1.621602116624637E9, 2021-05-21 15:01:56.624
42.0, -40.26563262939453, -309.1363830566406, 205.1447296142578, 61.7681884765625, 0.03200000151991844, 0.03200000151991844, 1.055999994277954, 0.0, 0.0, 0.0, 0.0, 0.0, 1.621602116624637E9, 2021-05-21 15:01:56.624
43.0, -1.8979992866516113, -276.4908142089844, 249.11846923828125, 107.0172348022461, 0.03200000151991844, 0.03200000151991844, 1.055999994277954, 0.0, 0.0, 0.0, 0.0, 0.0, 1.6216021166383271E9, 2021-05-21 15:01:56.638
43.0, -56.3098030090332, -324.6495056152344, 188.655517578125, 49.321800231933594, 0.03200000151991844, 0.03200000151991844, 1.055999994277954, 0.0, 0.0, 0.0, 0.0, 0.0, 1.6216021166383271E9, 2021-05-21 15:01:56.638
44.0, -75.3122329711914, -359.55023193359375, 152.1952362060547, 14.04332447052002, 0.03200000151991844, 0.03200000151991844, 1.055999994277954, 0.0, 0.0, 0.0, 0.0, 0.0, 1.6216021166539516E9, 2021-05-21 15:01:56.653
44.0, -41.23426818847656, -314.3759765625, 202.7549285888672, 60.54523849487305, 0.03200000151991844, 0.03200000151991844, 1.055999994277954, 0.0, 0.0, 0.0, 0.0, 0.0, 1.6216021166539516E9, 2021-05-21 15:01:56.653
45.0, -21.667110443115234, -277.25, 237.58462524414062, 106.37397766113281, 0.03200000151991844, 0.03200000151991844, 1.055999994277954, 0.0, 0.0, 0.0, 0.0, 0.0, 1.6216021166546533E9, 2021-05-21 15:01:56.654
45.0, -50.51669692993164, -318.55718994140625, 192.5898895263672, 50.96735763549805, 0.03200000151991844, 0.03200000151991844, 1.055999994277954, 0.0, 0.0, 0.0, 0.0, 0.0, 1.6216021166546533E9, 2021-05-21 15:01:56.654
46.0, -71.44892120361328, -359.3482971191406, 148.78443908691406, 5.220900535583496, 0.03200000151991844, 0.03200000151991844, 1.055999994277954, 0.0, 0.0, 0.0, 0.0, 0.0, 1.621602116668248E9, 2021-05-21 15:01:56.668
46.0, -44.5253791809082, -309.9928283691406, 196.71499633789062, 55.432796478271484, 0.03200000151991844, 0.03200000151991844, 1.055999994277954, 0.0, 0.0, 0.0, 0.0, 0.0, 1.621602116668248E9, 2021-05-21 15:01:56.668
47.0, -13.68242359161377, -273.3717346191406, 235.20230102539062, 95.90973663330078, 0.03200000151991844, 0.03200000151991844, 1.055999994277954, 0.0, 0.0, 0.0, 0.0, 0.0, 1.6216021166839576E9, 2021-05-21 15:01:56.683
47.0, -47.82770919799805, -313.9945068359375, 188.1842803955078, 43.839107513427734, 0.03200000151991844, 0.03200000151991844, 1.055999994277954, 0.0, 0.0, 0.0, 0.0, 0.0, 1.6216021166839576E9, 2021-05-21 15:01:56.683
48.0, -67.0021743774414, -352.19012451171875, 146.5105743408203, 10.33708381652832, 0.03200000151991844, 0.03200000151991844, 1.055999994277954, 0.0, 0.0, 0.0, 0.0, 0.0, 1.6216021166846683E9, 2021-05-21 15:01:56.684
48.0, -32.071510314941406, -315.6363220214844, 194.6767578125, 54.86433410644531, 0.03200000151991844, 0.03200000151991844, 1.055999994277954, 0.0, 0.0, 0.0, 0.0, 0.0, 1.6216021166846683E9, 2021-05-21 15:01:56.684
49.0, -27.01142692565918, -270.4471130371094, 234.80213928222656, 96.7175521850586, 0.03200000151991844, 0.03200000151991844, 1.055999994277954, 0.0, 0.0, 0.0, 0.0, 0.0, 1.6216021166983583E9, 2021-05-21 15:01:56.698
49.0, -51.47411346435547, -311.73187255859375, 186.1535186767578, 49.7257080078125, 0.03200000151991844, 0.03200000151991844, 1.055999994277954, 0.0, 0.0, 0.0, 0.0, 0.0, 1.6216021166983583E9, 2021-05-21 15:01:56.698
50.0, -73.84619140625, -345.4844665527344, 152.9918212890625, 15.576683044433594, 0.03200000151991844, 0.03200000151991844, 1.055999994277954, 0.0, 0.0, 0.0, 0.0, 0.0, 1.621602116713936E9, 2021-05-21 15:01:56.713
50.0, -44.55903625488281, -306.851318359375, 199.3217010498047, 68.39154815673828, 0.03200000151991844, 0.03200000151991844, 1.055999994277954, 0.0, 0.0, 0.0, 0.0, 0.0, 1.621602116713936E9, 2021-05-21 15:01:56.713
51.0, -13.775921821594238, -265.64508056640625, 239.28628540039062, 104.30207061767578, 0.03200000151991844, 0.03200000151991844, 1.055999994277954, 0.0, 0.0, 0.0, 0.0, 0.0, 1.6216021167146764E9, 2021-05-21 15:01:56.714
51.0, -56.16394805908203, -316.2833251953125, 186.75564575195312, 51.08329391479492, 0.03200000151991844, 0.03200000151991844, 1.055999994277954, 0.0, 0.0, 0.0, 0.0, 0.0, 1.6216021167146764E9, 2021-05-21 15:01:56.714
52.0, -77.08868408203125, -349.34405517578125, 151.3051300048828, 11.346856117248535, 0.03200000151991844, 0.03200000151991844, 1.055999994277954, 0.0, 0.0, 0.0, 0.0, 0.0, 1.6216021167283213E9, 2021-05-21 15:01:56.728
52.0, -45.830604553222656, -308.6651611328125, 201.34500122070312, 58.506996154785156, 0.03200000151991844, 0.03200000151991844, 1.055999994277954, 0.0, 0.0, 0.0, 0.0, 0.0, 1.6216021167283213E9, 2021-05-21 15:01:56.728
53.0, -13.263555526733398, -264.59417724609375, 246.1490020751953, 102.97066497802734, 0.03200000151991844, 0.03200000151991844, 1.055999994277954, 0.0, 0.0, 0.0, 0.0, 0.0, 1.6216021167439585E9, 2021-05-21 15:01:56.743
53.0, -56.16020584106445, -310.39300537109375, 188.26657104492188, 50.44002914428711, 0.03200000151991844, 0.03200000151991844, 1.055999994277954, 0.0, 0.0, 0.0, 0.0, 0.0, 1.6216021167439585E9, 2021-05-21 15:01:56.743
54.0, -79.18677520751953, -349.3926696777344, 152.0194549560547, 8.306317329406738, 0.03200000151991844, 0.03200000151991844, 1.055999994277954, 0.0, 0.0, 0.0, 0.0, 0.0, 1.621602116744672E9, 2021-05-21 15:01:56.744
54.0, -33.33559799194336, -306.3127746582031, 194.95350646972656, 51.109474182128906, 0.03200000151991844, 0.03200000151991844, 1.055999994277954, 0.0, 0.0, 0.0, 0.0, 0.0, 1.621602116744672E9, 2021-05-21 15:01:56.744
55.0, -15.40651798248291, -265.8470458984375, 239.71263122558594, 91.27225494384766, 0.03200000151991844, 0.03200000151991844, 1.055999994277954, 0.0, 0.0, 0.0, 0.0, 0.0, 1.621602116774618E9, 2021-05-21 15:01:56.774
55.0, -50.5765380859375, -308.6464538574219, 189.73634338378906, 47.36209487915039, 0.03200000151991844, 0.03200000151991844, 1.055999994277954, 0.0, 0.0, 0.0, 0.0, 0.0, 1.621602116774618E9, 2021-05-21 15:01:56.774
56.0, -66.20183563232422, -344.5682067871094, 156.6457061767578, 8.246479034423828, 0.03200000151991844, 0.03200000151991844, 1.055999994277954, 0.0, 0.0, 0.0, 0.0, 0.0, 1.6216021167754683E9, 2021-05-21 15:01:56.775
56.0, -44.876930236816406, -301.3424377441406, 193.40518188476562, 59.26619338989258, 0.03200000151991844, 0.03200000151991844, 1.055999994277954, 0.0, 0.0, 0.0, 0.0, 0.0, 1.6216021167754683E9, 2021-05-21 15:01:56.775
57.0, -14.449103355407715, -261.55364990234375, 237.28543090820312, 95.92469024658203, 0.03200000151991844, 0.03200000151991844, 1.055999994277954, 0.0, 0.0, 0.0, 0.0, 0.0, 1.6216021167761042E9, 2021-05-21 15:01:56.776
57.0, -45.187339782714844, -303.3283386230469, 191.07896423339844, 55.88532638549805, 0.03200000151991844, 0.03200000151991844, 1.055999994277954, 0.0, 0.0, 0.0, 0.0, 0.0, 1.6216021167761042E9, 2021-05-21 15:01:56.776
58.0, -80.6116714477539, -346.7523193359375, 153.23118591308594, 6.455067157745361, 0.03200000151991844, 0.03200000151991844, 1.055999994277954, 0.0, 0.0, 0.0, 0.0, 0.0, 1.62160211678828E9, 2021-05-21 15:01:56.788
58.0, -41.372642517089844, -305.68072509765625, 199.60968017578125, 60.6948356628418, 0.03200000151991844, 0.03200000151991844, 1.055999994277954, 0.0, 0.0, 0.0, 0.0, 0.0, 1.62160211678828E9, 2021-05-21 15:01:56.788
59.0, -13.271035194396973, -259.3246765136719, 247.25225830078125, 106.45625305175781, 0.03200000151991844, 0.03200000151991844, 1.055999994277954, 0.0, 0.0, 0.0, 0.0, 0.0, 1.6216021168037188E9, 2021-05-21 15:01:56.803
59.0, -45.81190490722656, -312.87628173828125, 193.89137268066406, 46.29622268676758, 0.03200000151991844, 0.03200000151991844, 1.055999994277954, 0.0, 0.0, 0.0, 0.0, 0.0, 1.6216021168037188E9, 2021-05-21 15:01:56.803
60.0, -75.20003509521484, -348.6484375, 151.0395965576172, 5.744486331939697, 0.03200000151991844, 0.03200000151991844, 1.055999994277954, 0.0, 0.0, 0.0, 0.0, 0.0, 1.6216021168193493E9, 2021-05-21 15:01:56.819
60.0, -40.17213439941406, -306.7652893066406, 199.6620330810547, 52.960723876953125, 0.03200000151991844, 0.03200000151991844, 1.055999994277954, 0.0, 0.0, 0.0, 0.0, 0.0, 1.6216021168193493E9, 2021-05-21 15:01:56.819
61.0, 0.0953674465417862, -266.9278869628906, 241.6536407470703, 95.79753875732422, 0.03200000151991844, 0.03200000151991844, 1.055999994277954, 0.0, 0.0, 0.0, 0.0, 0.0, 1.6216021168347387E9, 2021-05-21 15:01:56.834
61.0, -53.736751556396484, -314.4320983886719, 194.4561004638672, 47.16013717651367, 0.03200000151991844, 0.03200000151991844, 1.055999994277954, 0.0, 0.0, 0.0, 0.0, 0.0, 1.6216021168347387E9, 2021-05-21 15:01:56.834
62.0, -72.92991638183594, -348.7120056152344, 156.02488708496094, 4.843170642852783, 0.03200000151991844, 0.03200000151991844, 1.055999994277954, 0.0, 0.0, 0.0, 0.0, 0.0, 1.6216021168354568E9, 2021-05-21 15:01:56.835
62.0, -34.696922302246094, -305.13470458984375, 199.9724578857422, 51.251590728759766, 0.03200000151991844, 0.03200000151991844, 1.055999994277954, 0.0, 0.0, 0.0, 0.0, 0.0, 1.6216021168354568E9, 2021-05-21 15:01:56.835
63.0, -12.414597511291504, -261.1946105957031, 243.83026123046875, 98.53888702392578, 0.03200000151991844, 0.03200000151991844, 1.055999994277954, 0.0, 0.0, 0.0, 0.0, 0.0, 1.6216021168361087E9, 2021-05-21 15:01:56.836
63.0, -44.487979888916016, -311.0025939941406, 196.10165405273438, 44.261714935302734, 0.03200000151991844, 0.03200000151991844, 1.055999994277954, 0.0, 0.0, 0.0, 0.0, 0.0, 1.6216021168361087E9, 2021-05-21 15:01:56.836
64.0, -65.25190734863281, -349.66943359375, 153.18630981445312, 7.453620433807373, 0.03200000151991844, 0.03200000151991844, 1.055999994277954, 0.0, 0.0, 0.0, 0.0, 0.0, 1.6216021168482685E9, 2021-05-21 15:01:56.848
64.0, -39.139923095703125, -297.2958679199219, 205.15220642089844, 53.102840423583984, 0.03200000151991844, 0.03200000151991844, 1.055999994277954, 0.0, 0.0, 0.0, 0.0, 0.0, 1.6216021168482685E9, 2021-05-21 15:01:56.848
65.0, -8.607379913330078, -260.0950927734375, 243.72927856445312, 103.03424072265625, 0.03200000151991844, 0.03200000151991844, 1.055999994277954, 0.0, 0.0, 0.0, 0.0, 0.0, 1.6216021168646076E9, 2021-05-21 15:01:56.864
65.0, -46.38410949707031, -298.9601135253906, 193.78665161132812, 52.68770980834961, 0.03200000151991844, 0.03200000151991844, 1.055999994277954, 0.0, 0.0, 0.0, 0.0, 0.0, 1.6216021168646076E9, 2021-05-21 15:01:56.864
66.0, -68.5243148803711, -340.3458557128906, 156.3053741455078, 14.869842529296875, 0.03200000151991844, 0.03200000151991844, 1.055999994277954, 0.0, 0.0, 0.0, 0.0, 0.0, 1.6216021168654065E9, 2021-05-21 15:01:56.865
66.0, -38.623817443847656, -304.65972900390625, 193.67071533203125, 57.18307113647461, 0.03200000151991844, 0.03200000151991844, 1.055999994277954, 0.0, 0.0, 0.0, 0.0, 0.0, 1.6216021168654065E9, 2021-05-21 15:01:56.865
67.0, -13.401931762695312, -259.5565490722656, 240.07913208007812, 101.2353515625, 0.03200000151991844, 0.03200000151991844, 1.055999994277954, 0.0, 0.0, 0.0, 0.0, 0.0, 1.6216021168783262E9, 2021-05-21 15:01:56.878
67.0, -52.457706451416016, -308.77362060546875, 189.3735809326172, 52.246402740478516, 0.03200000151991844, 0.03200000151991844, 1.055999994277954, 0.0, 0.0, 0.0, 0.0, 0.0, 1.6216021168783262E9, 2021-05-21 15:01:56.878
68.0, -73.63301849365234, -350.8624572753906, 150.1158447265625, 16.982885360717773, 0.03200000151991844, 0.03200000151991844, 1.055999994277954, 0.0, 0.0, 0.0, 0.0, 0.0, 1.6216021168938985E9, 2021-05-21 15:01:56.893
68.0, -46.75809860229492, -307.0794372558594, 195.24896240234375, 53.708702087402344, 0.03200000151991844, 0.03200000151991844, 1.055999994277954, 0.0, 0.0, 0.0, 0.0, 0.0, 1.6216021168938985E9, 2021-05-21 15:01:56.893
69.0, -13.10647964477539, -270.372314453125, 240.39703369140625, 104.48906707763672, 0.03200000151991844, 0.03200000151991844, 1.055999994277954, 0.0, 0.0, 0.0, 0.0, 0.0, 1.6216021168946753E9, 2021-05-21 15:01:56.894
69.0, -47.08721160888672, -312.4686279296875, 189.74008178710938, 53.52170944213867, 0.03200000151991844, 0.03200000151991844, 1.055999994277954, 0.0, 0.0, 0.0, 0.0, 0.0, 1.6216021168946753E9, 2021-05-21 15:01:56.894
70.0, -75.44686889648438, -348.9364013671875, 147.46424865722656, 10.165047645568848, 0.03200000151991844, 0.03200000151991844, 1.055999994277954, 0.0, 0.0, 0.0, 0.0, 0.0, 1.6216021169082584E9, 2021-05-21 15:01:56.908
70.0, -39.15862274169922, -308.1266174316406, 192.53753662109375, 52.42591857910156, 0.03200000151991844, 0.03200000151991844, 1.055999994277954, 0.0, 0.0, 0.0, 0.0, 0.0, 1.6216021169082584E9, 2021-05-21 15:01:56.908
71.0, -18.79486656188965, -258.9207458496094, 241.7284393310547, 101.10445404052734, 0.03200000151991844, 0.03200000151991844, 1.055999994277954, 0.0, 0.0, 0.0, 0.0, 0.0, 1.621602116941058E9, 2021-05-21 15:01:56.941
71.0, -52.67087936401367, -305.3366394042969, 191.25848388671875, 50.17449951171875, 0.03200000151991844, 0.03200000151991844, 1.055999994277954, 0.0, 0.0, 0.0, 0.0, 0.0, 1.621602116941058E9, 2021-05-21 15:01:56.941
72.0, -70.91036987304688, -343.4125671386719, 154.1885986328125, 7.65931510925293, 0.03200000151991844, 0.03200000151991844, 1.055999994277954, 0.0, 0.0, 0.0, 0.0, 0.0, 1.621602116941755E9, 2021-05-21 15:01:56.941
72.0, -41.252967834472656, -298.17474365234375, 193.8764190673828, 52.635353088378906, 0.03200000151991844, 0.03200000151991844, 1.055999994277954, 0.0, 0.0, 0.0, 0.0, 0.0, 1.621602116941755E9, 2021-05-21 15:01:56.941
73.0, -15.529934883117676, -251.04078674316406, 244.15188598632812, 100.07971954345703, 0.03200000151991844, 0.03200000151991844, 1.055999994277954, 0.0, 0.0, 0.0, 0.0, 0.0, 1.62160211694241E9, 2021-05-21 15:01:56.942
73.0, -49.77619934082031, -300.01104736328125, 195.63417053222656, 54.80449295043945, 0.03200000151991844, 0.03200000151991844, 1.055999994277954, 0.0, 0.0, 0.0, 0.0, 0.0, 1.62160211694241E9, 2021-05-21 15:01:56.942
74.0, -81.04176330566406, -345.3049621582031, 154.83934020996094, 10.935467720031738, 0.03200000151991844, 0.03200000151991844, 1.055999994277954, 0.0, 0.0, 0.0, 0.0, 0.0, 1.6216021169432497E9, 2021-05-21 15:01:56.943
74.0, -48.14560317993164, -296.97796630859375, 193.15835571289062, 52.59047317504883, 0.03200000151991844, 0.03200000151991844, 1.055999994277954, 0.0, 0.0, 0.0, 0.0, 0.0, 1.6216021169432497E9, 2021-05-21 15:01:56.943
75.0, -14.25088882446289, -252.30487060546875, 242.6634063720703, 102.13666534423828, 0.03200000151991844, 0.03200000151991844, 1.055999994277954, 0.0, 0.0, 0.0, 0.0, 0.0, 1.6216021169532309E9, 2021-05-21 15:01:56.953
75.0, -45.149940490722656, -302.1166076660156, 194.05966186523438, 53.03178024291992, 0.03200000151991844, 0.03200000151991844, 1.055999994277954, 0.0, 0.0, 0.0, 0.0, 0.0, 1.6216021169532309E9, 2021-05-21 15:01:56.953
76.0, -80.4658203125, -343.9473876953125, 154.9777069091797, 3.807218074798584, 0.03200000151991844, 0.03200000151991844, 1.055999994277954, 0.0, 0.0, 0.0, 0.0, 0.0, 1.621602116968269E9, 2021-05-21 15:01:56.968
76.0, -50.9879264831543, -301.5069885253906, 196.52052307128906, 52.79242706298828, 0.03200000151991844, 0.03200000151991844, 1.055999994277954, 0.0, 0.0, 0.0, 0.0, 0.0, 1.621602116968269E9, 2021-05-21 15:01:56.968
77.0, -20.713436126708984, -258.8384704589844, 238.5906524658203, 95.1729736328125, 0.03200000151991844, 0.03200000151991844, 1.055999994277954, 0.0, 0.0, 0.0, 0.0, 0.0, 1.621602117000409E9, 2021-05-21 15:01:57.000
77.0, -48.93471908569336, -299.5585021972656, 197.53404235839844, 42.81437301635742, 0.03200000151991844, 0.03200000151991844, 1.055999994277954, 0.0, 0.0, 0.0, 0.0, 0.0, 1.621602117000409E9, 2021-05-21 15:01:57.000
78.0, -76.96900939941406, -348.0986633300781, 144.1394805908203, -0.7255405783653259, 0.03200000151991844, 0.03200000151991844, 1.055999994277954, 0.0, 0.0, 0.0, 0.0, 0.0, 1.621602117001076E9, 2021-05-21 15:01:57.001
78.0, -43.36600875854492, -305.9612121582031, 188.54331970214844, 43.521217346191406, 0.03200000151991844, 0.03200000151991844, 1.055999994277954, 0.0, 0.0, 0.0, 0.0, 0.0, 1.621602117001076E9, 2021-05-21 15:01:57.001
79.0, -10.084640502929688, -259.7659606933594, 243.14959716796875, 94.7316665649414, 0.03200000151991844, 0.03200000151991844, 1.055999994277954, 0.0, 0.0, 0.0, 0.0, 0.0, 1.6216021170018551E9, 2021-05-21 15:01:57.001
79.0, -49.091796875, -303.5377502441406, 192.27200317382812, 42.313228607177734, 0.03200000151991844, 0.03200000151991844, 1.055999994277954, 0.0, 0.0, 0.0, 0.0, 0.0, 1.6216021170018551E9, 2021-05-21 15:01:57.001
80.0, -70.71963500976562, -340.6151428222656, 147.88311767578125, -5.190980911254883, 0.03200000151991844, 0.03200000151991844, 1.055999994277954, 0.0, 0.0, 0.0, 0.0, 0.0, 1.6216021170026517E9, 2021-05-21 15:01:57.002
80.0, -39.917823791503906, -298.14483642578125, 195.66033935546875, 43.880245208740234, 0.03200000151991844, 0.03200000151991844, 1.055999994277954, 0.0, 0.0, 0.0, 0.0, 0.0, 1.6216021170026517E9, 2021-05-21 15:01:57.002
81.0, -8.218430519104004, -255.73809814453125, 246.7735595703125, 92.5849609375, 0.03200000151991844, 0.03200000151991844, 1.055999994277954, 0.0, 0.0, 0.0, 0.0, 0.0, 1.6216021170132616E9, 2021-05-21 15:01:57.013
81.0, -45.07888412475586, -301.91839599609375, 198.54754638671875, 49.39659881591797, 0.03200000151991844, 0.03200000151991844, 1.055999994277954, 0.0, 0.0, 0.0, 0.0, 0.0, 1.6216021170132616E9, 2021-05-21 15:01:57.013
82.0, -65.32295989990234, -337.2529602050781, 151.6005859375, -0.2879723012447357, 0.03200000151991844, 0.03200000151991844, 1.055999994277954, 0.0, 0.0, 0.0, 0.0, 0.0, 1.6216021170283911E9, 2021-05-21 15:01:57.028
82.0, -48.08950424194336, -291.2334899902344, 200.59701538085938, 47.48925018310547, 0.03200000151991844, 0.03200000151991844, 1.055999994277954, 0.0, 0.0, 0.0, 0.0, 0.0, 1.6216021170283911E9, 2021-05-21 15:01:57.028
83.0, -14.422924041748047, -246.87454223632812, 241.1898956298828, 94.02108764648438, 0.03200000151991844, 0.03200000151991844, 1.055999994277954, 0.0, 0.0, 0.0, 0.0, 0.0, 1.6216021170446062E9, 2021-05-21 15:01:57.044
83.0, -49.46952819824219, -294.5470275878906, 199.00381469726562, 49.43773651123047, 0.03200000151991844, 0.03200000151991844, 1.055999994277954, 0.0, 0.0, 0.0, 0.0, 0.0, 1.6216021170446062E9, 2021-05-21 15:01:57.044
84.0, -80.54061889648438, -334.5003967285156, 150.86383056640625, 6.731820106506348, 0.03200000151991844, 0.03200000151991844, 1.055999994277954, 0.0, 0.0, 0.0, 0.0, 0.0, 1.6216021170453944E9, 2021-05-21 15:01:57.045
84.0, -46.24199295043945, -288.4659729003906, 192.99754333496094, 50.28669357299805, 0.03200000151991844, 0.03200000151991844, 1.055999994277954, 0.0, 0.0, 0.0, 0.0, 0.0, 1.6216021170453944E9, 2021-05-21 15:01:57.045
85.0, -15.238222122192383, -246.48558044433594, 243.5011444091797, 96.41088104248047, 0.03200000151991844, 0.03200000151991844, 1.055999994277954, 0.0, 0.0, 0.0, 0.0, 0.0, 1.621602117058268E9, 2021-05-21 15:01:57.058
85.0, -47.6182746887207, -288.47344970703125, 194.00730895996094, 52.97194290161133, 0.03200000151991844, 0.03200000151991844, 1.055999994277954, 0.0, 0.0, 0.0, 0.0, 0.0, 1.621602117058268E9, 2021-05-21 15:01:57.058
86.0, -75.17759704589844, -333.95062255859375, 146.54049682617188, 3.392089366912842, 0.03200000151991844, 0.03200000151991844, 1.055999994277954, 0.0, 0.0, 0.0, 0.0, 0.0, 1.6216021170739489E9, 2021-05-21 15:01:57.073
86.0, -45.019046783447266, -297.5726318359375, 190.3085479736328, 45.96337127685547, 0.03200000151991844, 0.03200000151991844, 1.055999994277954, 0.0, 0.0, 0.0, 0.0, 0.0, 1.6216021170739489E9, 2021-05-21 15:01:57.073
87.0, -13.843239784240723, -250.64810180664062, 235.6136932373047, 96.23136901855469, 0.03200000151991844, 0.03200000151991844, 1.055999994277954, 0.0, 0.0, 0.0, 0.0, 0.0, 1.6216021170746956E9, 2021-05-21 15:01:57.074
87.0, -49.873435974121094, -298.4028625488281, 191.13880920410156, 45.39864730834961, 0.03200000151991844, 0.03200000151991844, 1.055999994277954, 0.0, 0.0, 0.0, 0.0, 0.0, 1.6216021170746956E9, 2021-05-21 15:01:57.074
88.0, -74.73628997802734, -337.9560546875, 141.5514678955078, -2.935821533203125, 0.03200000151991844, 0.03200000151991844, 1.055999994277954, 0.0, 0.0, 0.0, 0.0, 0.0, 1.6216021170882742E9, 2021-05-21 15:01:57.088
88.0, -47.18070602416992, -292.5985412597656, 185.3905792236328, 40.61905288696289, 0.03200000151991844, 0.03200000151991844, 1.055999994277954, 0.0, 0.0, 0.0, 0.0, 0.0, 1.6216021170882742E9, 2021-05-21 15:01:57.088
89.0, -13.10647964477539, -240.64385986328125, 239.71636962890625, 96.46324157714844, 0.03200000151991844, 0.03200000151991844, 1.055999994277954, 0.0, 0.0, 0.0, 0.0, 0.0, 1.6216021171046782E9, 2021-05-21 15:01:57.104
89.0, -50.15766906738281, -289.9656677246094, 197.1712646484375, 51.05711364746094, 0.03200000151991844, 0.03200000151991844, 1.055999994277954, 0.0, 0.0, 0.0, 0.0, 0.0, 1.6216021171046782E9, 2021-05-21 15:01:57.104
90.0, -67.92967224121094, -328.63623046875, 156.8027801513672, 8.512012481689453, 0.03200000151991844, 0.03200000151991844, 1.055999994277954, 0.0, 0.0, 0.0, 0.0, 0.0, 1.6216021171054125E9, 2021-05-21 15:01:57.105
90.0, -48.57194900512695, -289.3149108886719, 194.68797302246094, 49.01886749267578, 0.03200000151991844, 0.03200000151991844, 1.055999994277954, 0.0, 0.0, 0.0, 0.0, 0.0, 1.6216021171054125E9, 2021-05-21 15:01:57.105
91.0, -14.116251945495605, -241.80697631835938, 240.34092712402344, 95.25151062011719, 0.03200000151991844, 0.03200000151991844, 1.055999994277954, 0.0, 0.0, 0.0, 0.0, 0.0, 1.6216021171183298E9, 2021-05-21 15:01:57.118
91.0, -52.1846923828125, -281.9136657714844, 193.77169799804688, 50.720523834228516, 0.03200000151991844, 0.03200000151991844, 1.055999994277954, 0.0, 0.0, 0.0, 0.0, 0.0, 1.6216021171183298E9, 2021-05-21 15:01:57.118
92.0, -76.02281951904297, -319.2827453613281, 158.43711853027344, 8.332496643066406, 0.03200000151991844, 0.03200000151991844, 1.055999994277954, 0.0, 0.0, 0.0, 0.0, 0.0, 1.6216021171340654E9, 2021-05-21 15:01:57.134
92.0, -44.45431900024414, -288.3612365722656, 199.83033752441406, 50.69060516357422, 0.03200000151991844, 0.03200000151991844, 1.055999994277954, 0.0, 0.0, 0.0, 0.0, 0.0, 1.6216021171340654E9, 2021-05-21 15:01:57.134
93.0, -18.559253692626953, -242.73446655273438, 248.45277404785156, 98.65856170654297, 0.03200000151991844, 0.03200000151991844, 1.055999994277954, 0.0, 0.0, 0.0, 0.0, 0.0, 1.6216021171347792E9, 2021-05-21 15:01:57.134
93.0, -53.54975891113281, -285.0476989746094, 195.84359741210938, 49.00016784667969, 0.03200000151991844, 0.03200000151991844, 1.055999994277954, 0.0, 0.0, 0.0, 0.0, 0.0, 1.6216021171347792E9, 2021-05-21 15:01:57.134
94.0, -82.04779815673828, -325.4984436035156, 151.96334838867188, 7.360123157501221, 0.03200000151991844, 0.03200000151991844, 1.055999994277954, 0.0, 0.0, 0.0, 0.0, 0.0, 1.6216021171482968E9, 2021-05-21 15:01:57.148
94.0, -51.354434967041016, -291.5326843261719, 194.56082153320312, 50.346534729003906, 0.03200000151991844, 0.03200000151991844, 1.055999994277954, 0.0, 0.0, 0.0, 0.0, 0.0, 1.6216021171482968E9, 2021-05-21 15:01:57.148
95.0, -28.67942237854004, -241.61997985839844, 236.52996826171875, 99.43646240234375, 0.03200000151991844, 0.03200000151991844, 1.055999994277954, 0.0, 0.0, 0.0, 0.0, 0.0, 1.6216021171647947E9, 2021-05-21 15:01:57.164
95.0, -55.41596603393555, -285.45159912109375, 198.5176239013672, 51.382484436035156, 0.03200000151991844, 0.03200000151991844, 1.055999994277954, 0.0, 0.0, 0.0, 0.0, 0.0, 1.6216021171647947E9, 2021-05-21 15:01:57.164
96.0, -86.21778106689453, -328.63995361328125, 148.88916015625, 2.8759829998016357, 0.03200000151991844, 0.03200000151991844, 1.055999994277954, 0.0, 0.0, 0.0, 0.0, 0.0, 1.6216021171654177E9, 2021-05-21 15:01:57.165
96.0, -54.23415756225586, -288.2228698730469, 192.728271484375, 46.2625617980957, 0.03200000151991844, 0.03200000151991844, 1.055999994277954, 0.0, 0.0, 0.0, 0.0, 0.0, 1.6216021171654177E9, 2021-05-21 15:01:57.165
97.0, -19.546586990356445, -240.9281005859375, 240.71865844726562, 96.71007537841797, 0.03200000151991844, 0.03200000151991844, 1.055999994277954, 0.0, 0.0, 0.0, 0.0, 0.0, 1.621602117178309E9, 2021-05-21 15:01:57.178
97.0, -50.9580078125, -287.0485534667969, 198.93649291992188, 55.50759506225586, 0.03200000151991844, 0.03200000151991844, 1.055999994277954, 0.0, 0.0, 0.0, 0.0, 0.0, 1.621602117178309E9, 2021-05-21 15:01:57.178
98.0, -70.38304901123047, -332.955810546875, 150.2392578125, -0.003739899955689907, 0.03200000151991844, 0.03200000151991844, 1.055999994277954, 0.0, 0.0, 0.0, 0.0, 0.0, 1.6216021171939592E9, 2021-05-21 15:01:57.193
98.0, -43.57170486450195, -289.5467834472656, 200.3875732421875, 48.04649353027344, 0.03200000151991844, 0.03200000151991844, 1.055999994277954, 0.0, 0.0, 0.0, 0.0, 0.0, 1.6216021171939592E9, 2021-05-21 15:01:57.193
99.0, -22.018661499023438, -246.44070434570312, 237.5360107421875, 90.66265106201172, 0.03200000151991844, 0.03200000151991844, 1.055999994277954, 0.0, 0.0, 0.0, 0.0, 0.0, 1.6216021171947644E9, 2021-05-21 15:01:57.194
99.0, -47.823970794677734, -287.3140869140625, 195.11805725097656, 44.19065856933594, 0.03200000151991844, 0.03200000151991844, 1.055999994277954, 0.0, 0.0, 0.0, 0.0, 0.0, 1.6216021171947644E9, 2021-05-21 15:01:57.194
100.0, -69.87442016601562, -326.2165222167969, 152.30368041992188, 4.1213698387146, 0.03200000151991844, 0.03200000151991844, 1.055999994277954, 0.0, 0.0, 0.0, 0.0, 0.0, 1.621602117209123E9, 2021-05-21 15:01:57.209
100.0, -44.529117584228516, -287.04107666015625, 191.9915008544922, 42.077613830566406, 0.03200000151991844, 0.03200000151991844, 1.055999994277954, 0.0, 0.0, 0.0, 0.0, 0.0, 1.621602117209123E9, 2021-05-21 15:01:57.209
0.0, -17.13435173034668, -232.38990783691406, 246.1845245361328, 99.54678344726562, 0.03200000151991844, 0.03200000151991844, 1.055999994277954, 0.0, 0.0, 0.0, 0.0, 0.0, 1.6216021172097464E9, 2021-05-21 15:01:57.209
1.0, -51.167442321777344, -288.10693359375, 194.7160186767578, 46.933876037597656, 0.03200000151991844, 0.03200000151991844, 1.055999994277954, 0.0, 0.0, 0.0, 0.0, 0.0, 1.621602117223252E9, 2021-05-21 15:01:57.223
1.0, -83.24830627441406, -328.28466796875, 150.07656860351562, 3.4014389514923096, 0.03200000151991844, 0.03200000151991844, 1.055999994277954, 0.0, 0.0, 0.0, 0.0, 0.0, 1.621602117223252E9, 2021-05-21 15:01:57.223
2.0, -52.308109283447266, -279.9801330566406, 196.4962158203125, 52.558685302734375, 0.03200000151991844, 0.03200000151991844, 1.055999994277954, 0.0, 0.0, 0.0, 0.0, 0.0, 1.6216021172389765E9, 2021-05-21 15:01:57.238
2.0, -24.05316734313965, -240.9318389892578, 240.9187469482422, 96.26689147949219, 0.03200000151991844, 0.03200000151991844, 1.055999994277954, 0.0, 0.0, 0.0, 0.0, 0.0, 1.6216021172389765E9, 2021-05-21 15:01:57.238
3.0, -50.09408950805664, -282.5008239746094, 194.86935424804688, 53.459999084472656, 0.03200000151991844, 0.03200000151991844, 1.055999994277954, 0.0, 0.0, 0.0, 0.0, 0.0, 1.621602117239745E9, 2021-05-21 15:01:57.239
3.0, -85.09955596923828, -323.9314270019531, 147.43246459960938, 4.1307196617126465, 0.03200000151991844, 0.03200000151991844, 1.055999994277954, 0.0, 0.0, 0.0, 0.0, 0.0, 1.621602117239745E9, 2021-05-21 15:01:57.239
4.0, -51.399314880371094, -279.6809387207031, 193.321044921875, 45.69222640991211, 0.03200000151991844, 0.03200000151991844, 1.055999994277954, 0.0, 0.0, 0.0, 0.0, 0.0, 1.6216021172532785E9, 2021-05-21 15:01:57.253
4.0, -21.476375579833984, -241.4778594970703, 239.58734130859375, 98.35749816894531, 0.03200000151991844, 0.03200000151991844, 1.055999994277954, 0.0, 0.0, 0.0, 0.0, 0.0, 1.6216021172532785E9, 2021-05-21 15:01:57.253
5.0, -47.93990707397461, -283.3049011230469, 194.65618896484375, 48.60560989379883, 0.03200000151991844, 0.03200000151991844, 1.055999994277954, 0.0, 0.0, 0.0, 0.0, 0.0, 1.621602117269039E9, 2021-05-21 15:01:57.269
5.0, -75.12149810791016, -325.0197448730469, 149.89706420898438, 3.7529895305633545, 0.03200000151991844, 0.03200000151991844, 1.055999994277954, 0.0, 0.0, 0.0, 0.0, 0.0, 1.621602117269039E9, 2021-05-21 15:01:57.269
6.0, -36.21158218383789, -297.45294189453125, 195.36676025390625, 44.18878936767578, 0.03200000151991844, 0.03200000151991844, 1.055999994277954, 0.0, 0.0, 0.0, 0.0, 0.0, 1.6216021172697406E9, 2021-05-21 15:01:57.269
6.0, -21.214582443237305, -246.54916381835938, 239.0936737060547, 95.51517486572266, 0.03200000151991844, 0.03200000151991844, 1.055999994277954, 0.0, 0.0, 0.0, 0.0, 0.0, 1.6216021172697406E9, 2021-05-21 15:01:57.269
7.0, -54.04716491699219, -285.3917541503906, 191.16685485839844, 43.519344329833984, 0.03200000151991844, 0.03200000151991844, 1.055999994277954, 0.0, 0.0, 0.0, 0.0, 0.0, 1.6216021172832572E9, 2021-05-21 15:01:57.283
7.0, -80.70143127441406, -325.18804931640625, 147.37637329101562, -2.047595262527466, 0.03200000151991844, 0.03200000151991844, 1.055999994277954, 0.0, 0.0, 0.0, 0.0, 0.0, 1.6216021172832572E9, 2021-05-21 15:01:57.283
8.0, -38.78837203979492, -279.94647216796875, 194.18869018554688, 45.067665100097656, 0.03200000151991844, 0.03200000151991844, 1.055999994277954, 0.0, 0.0, 0.0, 0.0, 0.0, 1.621602117298931E9, 2021-05-21 15:01:57.298
8.0, -18.90706443786621, -239.09555053710938, 237.51544189453125, 91.57331848144531, 0.03200000151991844, 0.03200000151991844, 1.055999994277954, 0.0, 0.0, 0.0, 0.0, 0.0, 1.621602117298931E9, 2021-05-21 15:01:57.298
9.0, -50.699954986572266, -285.2945251464844, 194.8843231201172, 44.057891845703125, 0.03200000151991844, 0.03200000151991844, 1.055999994277954, 0.0, 0.0, 0.0, 0.0, 0.0, 1.6216021172996168E9, 2021-05-21 15:01:57.299
9.0, -78.2779769897461, -325.1207275390625, 152.39157104492188, 1.1163601875305176, 0.03200000151991844, 0.03200000151991844, 1.055999994277954, 0.0, 0.0, 0.0, 0.0, 0.0, 1.6216021172996168E9, 2021-05-21 15:01:57.299
10.0, -55.18783187866211, -282.4222717285156, 198.5307159423828, 45.12376403808594, 0.03200000151991844, 0.03200000151991844, 1.055999994277954, 0.0, 0.0, 0.0, 0.0, 0.0, 1.6216021173132613E9, 2021-05-21 15:01:57.313
10.0, -25.63514518737793, -238.65797424316406, 244.80076599121094, 95.806884765625, 0.03200000151991844, 0.03200000151991844, 1.055999994277954, 0.0, 0.0, 0.0, 0.0, 0.0, 1.6216021173132613E9, 2021-05-21 15:01:57.313
11.0, -55.23271179199219, -282.8523864746094, 203.97975158691406, 52.68210220336914, 0.03200000151991844, 0.03200000151991844, 1.055999994277954, 0.0, 0.0, 0.0, 0.0, 0.0, 1.621602117328894E9, 2021-05-21 15:01:57.328
11.0, -83.31188201904297, -327.11407470703125, 155.35731506347656, 3.9699037075042725, 0.03200000151991844, 0.03200000151991844, 1.055999994277954, 0.0, 0.0, 0.0, 0.0, 0.0, 1.621602117328894E9, 2021-05-21 15:01:57.328
12.0, -49.60790252685547, -282.4035949707031, 190.95367431640625, 46.60102462768555, 0.03200000151991844, 0.03200000151991844, 1.055999994277954, 0.0, 0.0, 0.0, 0.0, 0.0, 1.6216021173296587E9, 2021-05-21 15:01:57.329
12.0, -5.697737693786621, -247.08770751953125, 237.90438842773438, 97.32528686523438, 0.03200000151991844, 0.03200000151991844, 1.055999994277954, 0.0, 0.0, 0.0, 0.0, 0.0, 1.6216021173296587E9, 2021-05-21 15:01:57.329
13.0, -48.99081802368164, -280.4962463378906, 193.7286834716797, 49.17033386230469, 0.03200000151991844, 0.03200000151991844, 1.055999994277954, 0.0, 0.0, 0.0, 0.0, 0.0, 1.6216021173433273E9, 2021-05-21 15:01:57.343
13.0, -77.21210479736328, -332.4546813964844, 150.14015197753906, 3.8614466190338135, 0.03200000151991844, 0.03200000151991844, 1.055999994277954, 0.0, 0.0, 0.0, 0.0, 0.0, 1.6216021173433273E9, 2021-05-21 15:01:57.343
14.0, -45.815643310546875, -285.7695007324219, 192.24020385742188, 48.45601272583008, 0.03200000151991844, 0.03200000151991844, 1.055999994277954, 0.0, 0.0, 0.0, 0.0, 0.0, 1.6216021173586469E9, 2021-05-21 15:01:57.358
14.0, -14.078853607177734, -240.17263793945312, 241.19923400878906, 93.86962127685547, 0.03200000151991844, 0.03200000151991844, 1.055999994277954, 0.0, 0.0, 0.0, 0.0, 0.0, 1.6216021173586469E9, 2021-05-21 15:01:57.358
15.0, -45.39677429199219, -287.2691955566406, 199.3871612548828, 46.006378173828125, 0.03200000151991844, 0.03200000151991844, 1.055999994277954, 0.0, 0.0, 0.0, 0.0, 0.0, 1.621602117374006E9, 2021-05-21 15:01:57.374
15.0, -77.64967346191406, -336.4077453613281, 150.7460174560547, -1.4791303873062134, 0.03200000151991844, 0.03200000151991844, 1.055999994277954, 0.0, 0.0, 0.0, 0.0, 0.0, 1.621602117374006E9, 2021-05-21 15:01:57.374
16.0, -42.36745834350586, -291.8879699707031, 194.15878295898438, 42.72648620605469, 0.03200000151991844, 0.03200000151991844, 1.055999994277954, 0.0, 0.0, 0.0, 0.0, 0.0, 1.6216021173746228E9, 2021-05-21 15:01:57.374
16.0, -14.546340942382812, -246.86705017089844, 234.5160369873047, 85.77647399902344, 0.03200000151991844, 0.03200000151991844, 1.055999994277954, 0.0, 0.0, 0.0, 0.0, 0.0, 1.6216021173746228E9, 2021-05-21 15:01:57.374
17.0, -35.781494140625, -285.137451171875, 199.44699096679688, 41.00239181518555, 0.03200000151991844, 0.03200000151991844, 1.055999994277954, 0.0, 0.0, 0.0, 0.0, 0.0, 1.621602117388896E9, 2021-05-21 15:01:57.388
17.0, -74.17530822753906, -326.841064453125, 153.1245880126953, 2.212150812149048, 0.03200000151991844, 0.03200000151991844, 1.055999994277954, 0.0, 0.0, 0.0, 0.0, 0.0, 1.621602117388896E9, 2021-05-21 15:01:57.388
18.0, -42.89478302001953, -291.7757873535156, 193.63145446777344, 43.48942565917969, 0.03200000151991844, 0.03200000151991844, 1.055999994277954, 0.0, 0.0, 0.0, 0.0, 0.0, 1.6216021173895962E9, 2021-05-21 15:01:57.389
18.0, -11.958330154418945, -232.76390075683594, 242.324951171875, 97.2093505859375, 0.03200000151991844, 0.03200000151991844, 1.055999994277954, 0.0, 0.0, 0.0, 0.0, 0.0, 1.6216021173895962E9, 2021-05-21 15:01:57.389
19.0, -52.783077239990234, -279.1349182128906, 199.98553466796875, 50.28482437133789, 0.03200000151991844, 0.03200000151991844, 1.055999994277954, 0.0, 0.0, 0.0, 0.0, 0.0, 1.621602117403339E9, 2021-05-21 15:01:57.403
19.0, -83.08748626708984, -325.8612365722656, 152.93011474609375, 0.869526743888855, 0.03200000151991844, 0.03200000151991844, 1.055999994277954, 0.0, 0.0, 0.0, 0.0, 0.0, 1.621602117403339E9, 2021-05-21 15:01:57.403
20.0, -46.4215087890625, -282.35870361328125, 195.90904235839844, 48.61309051513672, 0.03200000151991844, 0.03200000151991844, 1.055999994277954, 0.0, 0.0, 0.0, 0.0, 0.0, 1.6216021174189067E9, 2021-05-21 15:01:57.418
20.0, -3.4500577449798584, -242.92893981933594, 253.03228759765625, 95.85924530029297, 0.03200000151991844, 0.03200000151991844, 1.055999994277954, 0.0, 0.0, 0.0, 0.0, 0.0, 1.6216021174189067E9, 2021-05-21 15:01:57.418
21.0, -50.00807189941406, -286.30804443359375, 199.55918884277344, 50.62141418457031, 0.03200000151991844, 0.03200000151991844, 1.055999994277954, 0.0, 0.0, 0.0, 0.0, 0.0, 1.6216021174195974E9, 2021-05-21 15:01:57.419
21.0, -73.34130859375, -321.17138671875, 154.2652587890625, 3.135906219482422, 0.03200000151991844, 0.03200000151991844, 1.055999994277954, 0.0, 0.0, 0.0, 0.0, 0.0, 1.6216021174195974E9, 2021-05-21 15:01:57.419
22.0, -43.61284255981445, -280.1147766113281, 192.05694580078125, 46.122314453125, 0.03200000151991844, 0.03200000151991844, 1.055999994277954, 0.0, 0.0, 0.0, 0.0, 0.0, 1.6216021174333415E9, 2021-05-21 15:01:57.433
22.0, -18.11046600341797, -244.88865661621094, 239.1946563720703, 93.85092163085938, 0.03200000151991844, 0.03200000151991844, 1.055999994277954, 0.0, 0.0, 0.0, 0.0, 0.0, 1.6216021174333415E9, 2021-05-21 15:01:57.433
23.0, -55.73386001586914, -278.0540771484375, 191.2379150390625, 50.595237731933594, 0.03200000151991844, 0.03200000151991844, 1.055999994277954, 0.0, 0.0, 0.0, 0.0, 0.0, 1.6216021174495819E9, 2021-05-21 15:01:57.449
23.0, -75.08036041259766, -323.9052429199219, 146.30300903320312, 5.74635648727417, 0.03200000151991844, 0.03200000151991844, 1.055999994277954, 0.0, 0.0, 0.0, 0.0, 0.0, 1.6216021174495819E9, 2021-05-21 15:01:57.449
24.0, -49.36106872558594, -278.11016845703125, 188.0552520751953, 44.35334396362305, 0.03200000151991844, 0.03200000151991844, 1.055999994277954, 0.0, 0.0, 0.0, 0.0, 0.0, 1.6216021174503815E9, 2021-05-21 15:01:57.450
24.0, -18.099245071411133, -238.9721221923828, 238.32699584960938, 91.59575653076172, 0.03200000151991844, 0.03200000151991844, 1.055999994277954, 0.0, 0.0, 0.0, 0.0, 0.0, 1.6216021174503815E9, 2021-05-21 15:01:57.450
25.0, -49.85847473144531, -283.0169372558594, 193.93064880371094, 44.92928695678711, 0.03200000151991844, 0.03200000151991844, 1.055999994277954, 0.0, 0.0, 0.0, 0.0, 0.0, 1.6216021174632232E9, 2021-05-21 15:01:57.463
25.0, -80.70516967773438, -323.6285095214844, 152.3130340576172, 0.8358676433563232, 0.03200000151991844, 0.03200000151991844, 1.055999994277954, 0.0, 0.0, 0.0, 0.0, 0.0, 1.6216021174632232E9, 2021-05-21 15:01:57.463
26.0, -44.480499267578125, -285.0738830566406, 193.29112243652344, 45.01530456542969, 0.03200000151991844, 0.03200000151991844, 1.055999994277954, 0.0, 0.0, 0.0, 0.0, 0.0, 1.6216021174789274E9, 2021-05-21 15:01:57.478
26.0, -14.546340942382812, -236.46640014648438, 239.8566131591797, 93.73123931884766, 0.03200000151991844, 0.03200000151991844, 1.055999994277954, 0.0, 0.0, 0.0, 0.0, 0.0, 1.6216021174789274E9, 2021-05-21 15:01:57.478
27.0, -50.84580993652344, -278.0466003417969, 202.65208435058594, 54.7614860534668, 0.03200000151991844, 0.03200000151991844, 1.055999994277954, 0.0, 0.0, 0.0, 0.0, 0.0, 1.6216021174801307E9, 2021-05-21 15:01:57.480
27.0, -81.18387603759766, -329.7469787597656, 157.7882537841797, 5.970750331878662, 0.03200000151991844, 0.03200000151991844, 1.055999994277954, 0.0, 0.0, 0.0, 0.0, 0.0, 1.6216021174801307E9, 2021-05-21 15:01:57.480
28.0, -48.10820388793945, -279.82305908203125, 199.05430603027344, 51.489070892333984, 0.03200000151991844, 0.03200000151991844, 1.055999994277954, 0.0, 0.0, 0.0, 0.0, 0.0, 1.6216021174932206E9, 2021-05-21 15:01:57.493
28.0, -17.598098754882812, -238.93472290039062, 239.21334838867188, 99.59166717529297, 0.03200000151991844, 0.03200000151991844, 1.055999994277954, 0.0, 0.0, 0.0, 0.0, 0.0, 1.6216021174932206E9, 2021-05-21 15:01:57.493
29.0, -52.027618408203125, -277.5828552246094, 199.0879669189453, 52.233314514160156, 0.03200000151991844, 0.03200000151991844, 1.055999994277954, 0.0, 0.0, 0.0, 0.0, 0.0, 1.621602117508996E9, 2021-05-21 15:01:57.508
29.0, -80.62289428710938, -316.5563659667969, 155.7537384033203, 3.7829089164733887, 0.03200000151991844, 0.03200000151991844, 1.055999994277954, 0.0, 0.0, 0.0, 0.0, 0.0, 1.621602117508996E9, 2021-05-21 15:01:57.508
30.0, -42.15428161621094, -289.4495544433594, 197.24794006347656, 46.27939224243164, 0.03200000151991844, 0.03200000151991844, 1.055999994277954, 0.0, 0.0, 0.0, 0.0, 0.0, 1.6216021175097177E9, 2021-05-21 15:01:57.509
30.0, -21.607271194458008, -241.2609405517578, 237.21998596191406, 93.05805969238281, 0.03200000151991844, 0.03200000151991844, 1.055999994277954, 0.0, 0.0, 0.0, 0.0, 0.0, 1.6216021175097177E9, 2021-05-21 15:01:57.509
31.0, -47.84267044067383, -281.5359191894531, 197.75282287597656, 48.43357467651367, 0.03200000151991844, 0.03200000151991844, 1.055999994277954, 0.0, 0.0, 0.0, 0.0, 0.0, 1.6216021175232582E9, 2021-05-21 15:01:57.523
31.0, -79.53832244873047, -327.1028747558594, 146.36285400390625, -0.9031858444213867, 0.03200000151991844, 0.03200000151991844, 1.055999994277954, 0.0, 0.0, 0.0, 0.0, 0.0, 1.6216021175232582E9, 2021-05-21 15:01:57.523
32.0, -46.395328521728516, -283.5105895996094, 191.33889770507812, 39.25212097167969, 0.03200000151991844, 0.03200000151991844, 1.055999994277954, 0.0, 0.0, 0.0, 0.0, 0.0, 1.6216021175391517E9, 2021-05-21 15:01:57.539
32.0, -17.272727966308594, -239.5705108642578, 243.50302124023438, 88.33082580566406, 0.03200000151991844, 0.03200000151991844, 1.055999994277954, 0.0, 0.0, 0.0, 0.0, 0.0, 1.6216021175391517E9, 2021-05-21 15:01:57.539
33.0, -53.459999084472656, -285.1598815917969, 195.55001831054688, 43.3809700012207, 0.03200000151991844, 0.03200000151991844, 1.055999994277954, 0.0, 0.0, 0.0, 0.0, 0.0, 1.6216021175397255E9, 2021-05-21 15:01:57.539
33.0, -82.7770767211914, -322.24847412109375, 152.82540893554688, 4.216737270355225, 0.03200000151991844, 0.03200000151991844, 1.055999994277954, 0.0, 0.0, 0.0, 0.0, 0.0, 1.6216021175397255E9, 2021-05-21 15:01:57.539
34.0, -51.447933197021484, -284.3932189941406, 190.06732177734375, 44.92928695678711, 0.03200000151991844, 0.03200000151991844, 1.055999994277954, 0.0, 0.0, 0.0, 0.0, 0.0, 1.621602117553239E9, 2021-05-21 15:01:57.553
34.0, -18.09550666809082, -240.2736053466797, 242.9644775390625, 95.6236343383789, 0.03200000151991844, 0.03200000151991844, 1.055999994277954, 0.0, 0.0, 0.0, 0.0, 0.0, 1.621602117553239E9, 2021-05-21 15:01:57.553
35.0, -51.747127532958984, -278.9853210449219, 198.90097045898438, 51.79948425292969, 0.03200000151991844, 0.03200000151991844, 1.055999994277954, 0.0, 0.0, 0.0, 0.0, 0.0, 1.621602117568995E9, 2021-05-21 15:01:57.568
35.0, -85.94477081298828, -325.068359375, 146.90513610839844, -0.01682955026626587, 0.03200000151991844, 0.03200000151991844, 1.055999994277954, 0.0, 0.0, 0.0, 0.0, 0.0, 1.621602117568995E9, 2021-05-21 15:01:57.568
36.0, -55.05693817138672, -279.3144226074219, 195.91653442382812, 52.13607406616211, 0.03200000151991844, 0.03200000151991844, 1.055999994277954, 0.0, 0.0, 0.0, 0.0, 0.0, 1.6216021175697122E9, 2021-05-21 15:01:57.569
36.0, -14.407964706420898, -234.5665283203125, 243.90318298339844, 98.10692596435547, 0.03200000151991844, 0.03200000151991844, 1.055999994277954, 0.0, 0.0, 0.0, 0.0, 0.0, 1.6216021175697122E9, 2021-05-21 15:01:57.569
37.0, -54.93352127075195, -273.99627685546875, 201.1187286376953, 51.66858673095703, 0.03200000151991844, 0.03200000151991844, 1.055999994277954, 0.0, 0.0, 0.0, 0.0, 0.0, 1.6216021175832047E9, 2021-05-21 15:01:57.583
37.0, -82.29088592529297, -320.255126953125, 148.86485290527344, 1.3070950508117676, 0.03200000151991844, 0.03200000151991844, 1.055999994277954, 0.0, 0.0, 0.0, 0.0, 0.0, 1.6216021175832047E9, 2021-05-21 15:01:57.583
38.0, -41.10710906982422, -284.3819885253906, 197.61070251464844, 46.84037780761719, 0.03200000151991844, 0.03200000151991844, 1.055999994277954, 0.0, 0.0, 0.0, 0.0, 0.0, 1.6216021175990422E9, 2021-05-21 15:01:57.599
38.0, -24.161623001098633, -238.79635620117188, 239.0562744140625, 93.3759536743164, 0.03200000151991844, 0.03200000151991844, 1.055999994277954, 0.0, 0.0, 0.0, 0.0, 0.0, 1.6216021175990422E9, 2021-05-21 15:01:57.599
39.0, -56.63143539428711, -276.9956970214844, 196.8627166748047, 51.447933197021484, 0.03200000151991844, 0.03200000151991844, 1.055999994277954, 0.0, 0.0, 0.0, 0.0, 0.0, 1.6216021175997024E9, 2021-05-21 15:01:57.599
39.0, -84.68816375732422, -322.5738525390625, 149.21266174316406, -3.9699037075042725, 0.03200000151991844, 0.03200000151991844, 1.055999994277954, 0.0, 0.0, 0.0, 0.0, 0.0, 1.6216021175997024E9, 2021-05-21 15:01:57.599
40.0, -54.24911880493164, -286.4651184082031, 188.29835510253906, 35.56084060668945, 0.03200000151991844, 0.03200000151991844, 1.055999994277954, 0.0, 0.0, 0.0, 0.0, 0.0, 1.621602117613248E9, 2021-05-21 15:01:57.613
40.0, -23.264047622680664, -238.42236328125, 230.59288024902344, 84.65450286865234, 0.03200000151991844, 0.03200000151991844, 1.055999994277954, 0.0, 0.0, 0.0, 0.0, 0.0, 1.621602117613248E9, 2021-05-21 15:01:57.613
41.0, -49.08431625366211, -271.77105712890625, 195.82676696777344, 47.11338806152344, 0.03200000151991844, 0.03200000151991844, 1.055999994277954, 0.0, 0.0, 0.0, 0.0, 0.0, 1.6216021176461623E9, 2021-05-21 15:01:57.646
41.0, -86.5506362915039, -320.2663269042969, 148.04580688476562, 0.024309350177645683, 0.03200000151991844, 0.03200000151991844, 1.055999994277954, 0.0, 0.0, 0.0, 0.0, 0.0, 1.6216021176461623E9, 2021-05-21 15:01:57.646
42.0, -46.85159683227539, -283.9182434082031, 192.5618438720703, 40.97247314453125, 0.03200000151991844, 0.03200000151991844, 1.055999994277954, 0.0, 0.0, 0.0, 0.0, 0.0, 1.6216021176467457E9, 2021-05-21 15:01:57.646
42.0, -11.689057350158691, -238.87115478515625, 242.04820251464844, 89.37052154541016, 0.03200000151991844, 0.03200000151991844, 1.055999994277954, 0.0, 0.0, 0.0, 0.0, 0.0, 1.6216021176467457E9, 2021-05-21 15:01:57.646
43.0, -45.250919342041016, -282.4073181152344, 200.72230529785156, 52.5250244140625, 0.03200000151991844, 0.03200000151991844, 1.055999994277954, 0.0, 0.0, 0.0, 0.0, 0.0, 1.6216021176475024E9, 2021-05-21 15:01:57.647
43.0, -69.71734619140625, -330.9736633300781, 154.6990966796875, 0.4917968511581421, 0.03200000151991844, 0.03200000151991844, 1.055999994277954, 0.0, 0.0, 0.0, 0.0, 0.0, 1.6216021176475024E9, 2021-05-21 15:01:57.647
44.0, -44.07284927368164, -296.5179748535156, 196.0736083984375, 39.19976043701172, 0.03200000151991844, 0.03200000151991844, 1.055999994277954, 0.0, 0.0, 0.0, 0.0, 0.0, 1.6216021176482513E9, 2021-05-21 15:01:57.648
44.0, -17.560699462890625, -240.96923828125, 242.1865692138672, 95.11500549316406, 0.03200000151991844, 0.03200000151991844, 1.055999994277954, 0.0, 0.0, 0.0, 0.0, 0.0, 1.6216021176482513E9, 2021-05-21 15:01:57.648
45.0, -43.0593376159668, -280.1783447265625, 203.59454345703125, 54.06586456298828, 0.03200000151991844, 0.03200000151991844, 1.055999994277954, 0.0, 0.0, 0.0, 0.0, 0.0, 1.6216021176583197E9, 2021-05-21 15:01:57.658
45.0, -84.35157012939453, -328.9989929199219, 150.82081604003906, -1.890519380569458, 0.03200000151991844, 0.03200000151991844, 1.055999994277954, 0.0, 0.0, 0.0, 0.0, 0.0, 1.6216021176583197E9, 2021-05-21 15:01:57.658
46.0, -49.073097229003906, -290.79217529296875, 193.60153198242188, 37.55046463012695, 0.03200000151991844, 0.03200000151991844, 1.055999994277954, 0.0, 0.0, 0.0, 0.0, 0.0, 1.6216021176733377E9, 2021-05-21 15:01:57.673
46.0, -14.991389274597168, -240.66256713867188, 242.6914520263672, 89.7632064819336, 0.03200000151991844, 0.03200000151991844, 1.055999994277954, 0.0, 0.0, 0.0, 0.0, 0.0, 1.6216021176733377E9, 2021-05-21 15:01:57.673
47.0, -50.643856048583984, -284.56524658203125, 196.42141723632812, 45.09010314941406, 0.03200000151991844, 0.03200000151991844, 1.055999994277954, 0.0, 0.0, 0.0, 0.0, 0.0, 1.6216021176889448E9, 2021-05-21 15:01:57.688
47.0, -80.57801818847656, -322.0764465332031, 146.48252868652344, -3.5585148334503174, 0.03200000151991844, 0.03200000151991844, 1.055999994277954, 0.0, 0.0, 0.0, 0.0, 0.0, 1.6216021176889448E9, 2021-05-21 15:01:57.688
48.0, -46.331748962402344, -287.27294921875, 187.57655334472656, 41.380123138427734, 0.03200000151991844, 0.03200000151991844, 1.055999994277954, 0.0, 0.0, 0.0, 0.0, 0.0, 1.6216021176896653E9, 2021-05-21 15:01:57.689
48.0, -19.47926902770996, -243.85643005371094, 239.6172637939453, 93.64522552490234, 0.03200000151991844, 0.03200000151991844, 1.055999994277954, 0.0, 0.0, 0.0, 0.0, 0.0, 1.6216021176896653E9, 2021-05-21 15:01:57.689
49.0, -48.029666900634766, -281.39007568359375, 197.1731414794922, 51.638668060302734, 0.03200000151991844, 0.03200000151991844, 1.055999994277954, 0.0, 0.0, 0.0, 0.0, 0.0, 1.6216021177033832E9, 2021-05-21 15:01:57.703
49.0, -79.74775695800781, -320.4720153808594, 147.07717895507812, 1.6549056768417358, 0.03200000151991844, 0.03200000151991844, 1.055999994277954, 0.0, 0.0, 0.0, 0.0, 0.0, 1.6216021177033832E9, 2021-05-21 15:01:57.703
50.0, -52.09493637084961, -284.7372741699219, 191.38751220703125, 42.86860275268555, 0.03200000151991844, 0.03200000151991844, 1.055999994277954, 0.0, 0.0, 0.0, 0.0, 0.0, 1.6216021177189527E9, 2021-05-21 15:01:57.718
50.0, -15.126025199890137, -230.89768981933594, 245.0737762451172, 97.30284881591797, 0.03200000151991844, 0.03200000151991844, 1.055999994277954, 0.0, 0.0, 0.0, 0.0, 0.0, 1.6216021177189527E9, 2021-05-21 15:01:57.718
51.0, -54.024723052978516, -275.2940368652344, 199.1627655029297, 57.02786636352539, 0.03200000151991844, 0.03200000151991844, 1.055999994277954, 0.0, 0.0, 0.0, 0.0, 0.0, 1.621602117719648E9, 2021-05-21 15:01:57.719
51.0, -79.05961608886719, -318.11962890625, 151.27334594726562, 3.3378608226776123, 0.03200000151991844, 0.03200000151991844, 1.055999994277954, 0.0, 0.0, 0.0, 0.0, 0.0, 1.621602117719648E9, 2021-05-21 15:01:57.719
52.0, -49.01325988769531, -283.6340026855469, 187.47930908203125, 46.14475631713867, 0.03200000151991844, 0.03200000151991844, 1.055999994277954, 0.0, 0.0, 0.0, 0.0, 0.0, 1.6216021177333696E9, 2021-05-21 15:01:57.733
52.0, -29.749034881591797, -237.8277130126953, 230.27125549316406, 97.1457748413086, 0.03200000151991844, 0.03200000151991844, 1.055999994277954, 0.0, 0.0, 0.0, 0.0, 0.0, 1.6216021177333696E9, 2021-05-21 15:01:57.733
53.0, -45.90166091918945, -274.43011474609375, 200.80831909179688, 61.74387741088867, 0.03200000151991844, 0.03200000151991844, 1.055999994277954, 0.0, 0.0, 0.0, 0.0, 0.0, 1.621602117765293E9, 2021-05-21 15:01:57.765
53.0, -83.34928131103516, -323.87908935546875, 156.86074829101562, 8.345586776733398, 0.03200000151991844, 0.03200000151991844, 1.055999994277954, 0.0, 0.0, 0.0, 0.0, 0.0, 1.621602117765293E9, 2021-05-21 15:01:57.765
54.0, -39.64480972290039, -290.642578125, 197.01980590820312, 44.42066192626953, 0.03200000151991844, 0.03200000151991844, 1.055999994277954, 0.0, 0.0, 0.0, 0.0, 0.0, 1.6216021177660213E9, 2021-05-21 15:01:57.766
54.0, -19.340892791748047, -240.8495635986328, 245.12986755371094, 89.59490966796875, 0.03200000151991844, 0.03200000151991844, 1.055999994277954, 0.0, 0.0, 0.0, 0.0, 0.0, 1.6216021177660213E9, 2021-05-21 15:01:57.766
55.0, -42.07574462890625, -280.5411071777344, 204.09942626953125, 50.23246765136719, 0.03200000151991844, 0.03200000151991844, 1.055999994277954, 0.0, 0.0, 0.0, 0.0, 0.0, 1.621602117766749E9, 2021-05-21 15:01:57.766
55.0, -75.71240234375, -323.6883544921875, 152.24945068359375, -3.244363307952881, 0.03200000151991844, 0.03200000151991844, 1.055999994277954, 0.0, 0.0, 0.0, 0.0, 0.0, 1.621602117766749E9, 2021-05-21 15:01:57.766
56.0, -51.058982849121094, -291.44293212890625, 188.41802978515625, 40.721900939941406, 0.03200000151991844, 0.03200000151991844, 1.055999994277954, 0.0, 0.0, 0.0, 0.0, 0.0, 1.6216021177674935E9, 2021-05-21 15:01:57.767
56.0, -20.66107749938965, -240.7897186279297, 240.6606903076172, 90.95623779296875, 0.03200000151991844, 0.03200000151991844, 1.055999994277954, 0.0, 0.0, 0.0, 0.0, 0.0, 1.6216021177674935E9, 2021-05-21 15:01:57.767
57.0, -49.08431625366211, -285.23095703125, 195.79310607910156, 46.42898941040039, 0.03200000151991844, 0.03200000151991844, 1.055999994277954, 0.0, 0.0, 0.0, 0.0, 0.0, 1.6216021177782674E9, 2021-05-21 15:01:57.778
57.0, -77.67584991455078, -326.2987976074219, 145.05389404296875, 0.8246479630470276, 0.03200000151991844, 0.03200000151991844, 1.055999994277954, 0.0, 0.0, 0.0, 0.0, 0.0, 1.6216021177782674E9, 2021-05-21 15:01:57.778
58.0, -59.49619674682617, -287.5609130859375, 188.75088500976562, 39.45033645629883, 0.03200000151991844, 0.03200000151991844, 1.055999994277954, 0.0, 0.0, 0.0, 0.0, 0.0, 1.6216021177932527E9, 2021-05-21 15:01:57.793
58.0, -22.067279815673828, -237.5808868408203, 239.02261352539062, 100.25736999511719, 0.03200000151991844, 0.03200000151991844, 1.055999994277954, 0.0, 0.0, 0.0, 0.0, 0.0, 1.6216021177932527E9, 2021-05-21 15:01:57.793
59.0, -45.51271438598633, -275.40997314453125, 201.795654296875, 59.182044982910156, 0.03200000151991844, 0.03200000151991844, 1.055999994277954, 0.0, 0.0, 0.0, 0.0, 0.0, 1.6216021178096561E9, 2021-05-21 15:01:57.809
59.0, -81.53169250488281, -327.4020690917969, 146.7667694091797, 6.782308578491211, 0.03200000151991844, 0.03200000151991844, 1.055999994277954, 0.0, 0.0, 0.0, 0.0, 0.0, 1.6216021178096561E9, 2021-05-21 15:01:57.809
60.0, -47.210628509521484, -286.0724182128906, 192.41598510742188, 46.41776657104492, 0.03200000151991844, 0.03200000151991844, 1.055999994277954, 0.0, 0.0, 0.0, 0.0, 0.0, 1.621602117810362E9, 2021-05-21 15:01:57.810
60.0, -14.920331001281738, -238.06707763671875, 240.7541961669922, 96.88397979736328, 0.03200000151991844, 0.03200000151991844, 1.055999994277954, 0.0, 0.0, 0.0, 0.0, 0.0, 1.621602117810362E9, 2021-05-21 15:01:57.810
61.0, -44.79465103149414, -278.1288757324219, 202.14720153808594, 55.49824523925781, 0.03200000151991844, 0.03200000151991844, 1.055999994277954, 0.0, 0.0, 0.0, 0.0, 0.0, 1.6216021178232417E9, 2021-05-21 15:01:57.823
61.0, -87.56788635253906, -326.29132080078125, 146.4713134765625, 8.397945404052734, 0.03200000151991844, 0.03200000151991844, 1.055999994277954, 0.0, 0.0, 0.0, 0.0, 0.0, 1.6216021178232417E9, 2021-05-21 15:01:57.823
62.0, -49.99311447143555, -284.1912536621094, 192.53565979003906, 49.9257926940918, 0.03200000151991844, 0.03200000151991844, 1.055999994277954, 0.0, 0.0, 0.0, 0.0, 0.0, 1.6216021178389575E9, 2021-05-21 15:01:57.838
62.0, -17.164270401000977, -238.9833526611328, 245.00271606445312, 99.32613372802734, 0.03200000151991844, 0.03200000151991844, 1.055999994277954, 0.0, 0.0, 0.0, 0.0, 0.0, 1.6216021178389575E9, 2021-05-21 15:01:57.838
63.0, -44.06911087036133, -279.45654296875, 208.20584106445312, 55.55060577392578, 0.03200000151991844, 0.03200000151991844, 1.055999994277954, 0.0, 0.0, 0.0, 0.0, 0.0, 1.6216021178398135E9, 2021-05-21 15:01:57.839
63.0, -73.11691284179688, -332.8697814941406, 156.19505310058594, 3.8277876377105713, 0.03200000151991844, 0.03200000151991844, 1.055999994277954, 0.0, 0.0, 0.0, 0.0, 0.0, 1.6216021178398135E9, 2021-05-21 15:01:57.839
64.0, -48.27275848388672, -290.3583679199219, 193.70999145507812, 48.33259582519531, 0.03200000151991844, 0.03200000151991844, 1.055999994277954, 0.0, 0.0, 0.0, 0.0, 0.0, 1.6216021178532515E9, 2021-05-21 15:01:57.853
64.0, -16.405071258544922, -245.03076171875, 239.36294555664062, 89.703369140625, 0.03200000151991844, 0.03200000151991844, 1.055999994277954, 0.0, 0.0, 0.0, 0.0, 0.0, 1.6216021178532515E9, 2021-05-21 15:01:57.853
65.0, -39.54383087158203, -276.4908142089844, 205.62904357910156, 49.55928421020508, 0.03200000151991844, 0.03200000151991844, 1.055999994277954, 0.0, 0.0, 0.0, 0.0, 0.0, 1.6216021178853009E9, 2021-05-21 15:01:57.885
65.0, -68.04934692382812, -335.2521057128906, 150.8058624267578, -7.5564680099487305, 0.03200000151991844, 0.03200000151991844, 1.055999994277954, 0.0, 0.0, 0.0, 0.0, 0.0, 1.6216021178853009E9, 2021-05-21 15:01:57.885
66.0, -43.59414291381836, -296.5890197753906, 189.0351104736328, 39.132442474365234, 0.03200000151991844, 0.03200000151991844, 1.055999994277954, 0.0, 0.0, 0.0, 0.0, 0.0, 1.621602117885995E9, 2021-05-21 15:01:57.885
66.0, -8.925271034240723, -247.3233184814453, 237.86325073242188, 95.84428405761719, 0.03200000151991844, 0.03200000151991844, 1.055999994277954, 0.0, 0.0, 0.0, 0.0, 0.0, 1.621602117885995E9, 2021-05-21 15:01:57.885
67.0, -47.52103805541992, -284.9317626953125, 199.56666564941406, 42.26274108886719, 0.03200000151991844, 0.03200000151991844, 1.055999994277954, 0.0, 0.0, 0.0, 0.0, 0.0, 1.6216021178867471E9, 2021-05-21 15:01:57.886
67.0, -72.2604751586914, -336.9013977050781, 150.02047729492188, -6.946864128112793, 0.03200000151991844, 0.03200000151991844, 1.055999994277954, 0.0, 0.0, 0.0, 0.0, 0.0, 1.6216021178867471E9, 2021-05-21 15:01:57.886
68.0, -48.22414016723633, -292.9351501464844, 180.53057861328125, 39.274559020996094, 0.03200000151991844, 0.03200000151991844, 1.055999994277954, 0.0, 0.0, 0.0, 0.0, 0.0, 1.6216021178874824E9, 2021-05-21 15:01:57.887
68.0, -16.651905059814453, -248.9015655517578, 238.70846557617188, 92.77008819580078, 0.03200000151991844, 0.03200000151991844, 1.055999994277954, 0.0, 0.0, 0.0, 0.0, 0.0, 1.6216021178874824E9, 2021-05-21 15:01:57.887
69.0, -50.42320251464844, -290.9717102050781, 200.3969268798828, 52.988773345947266, 0.03200000151991844, 0.03200000151991844, 1.055999994277954, 0.0, 0.0, 0.0, 0.0, 0.0, 1.6216021178982365E9, 2021-05-21 15:01:57.898
69.0, -78.5771713256836, -332.95208740234375, 150.44308471679688, 7.582647323608398, 0.03200000151991844, 0.03200000151991844, 1.055999994277954, 0.0, 0.0, 0.0, 0.0, 0.0, 1.6216021178982365E9, 2021-05-21 15:01:57.898
70.0, -55.326210021972656, -296.2225036621094, 189.42405700683594, 35.93482971191406, 0.03200000151991844, 0.03200000151991844, 1.055999994277954, 0.0, 0.0, 0.0, 0.0, 0.0, 1.6216021179132593E9, 2021-05-21 15:01:57.913
70.0, -17.384925842285156, -249.21197509765625, 236.6290740966797, 88.53278350830078, 0.03200000151991844, 0.03200000151991844, 1.055999994277954, 0.0, 0.0, 0.0, 0.0, 0.0, 1.6216021179132593E9, 2021-05-21 15:01:57.913
71.0, -44.66001510620117, -284.0940246582031, 202.31924438476562, 53.03364944458008, 0.03200000151991844, 0.03200000151991844, 1.055999994277954, 0.0, 0.0, 0.0, 0.0, 0.0, 1.6216021179443984E9, 2021-05-21 15:01:57.944
71.0, -79.05587768554688, -334.54901123046875, 145.67845153808594, -3.738029956817627, 0.03200000151991844, 0.03200000151991844, 1.055999994277954, 0.0, 0.0, 0.0, 0.0, 0.0, 1.6216021179443984E9, 2021-05-21 15:01:57.944
72.0, -44.93302917480469, -298.9002990722656, 193.3247833251953, 36.38361740112305, 0.03200000151991844, 0.03200000151991844, 1.055999994277954, 0.0, 0.0, 0.0, 0.0, 0.0, 1.621602117945057E9, 2021-05-21 15:01:57.945
72.0, -8.846733093261719, -251.5232391357422, 244.87930297851562, 91.19184875488281, 0.03200000151991844, 0.03200000151991844, 1.055999994277954, 0.0, 0.0, 0.0, 0.0, 0.0, 1.621602117945057E9, 2021-05-21 15:01:57.945
73.0, -29.32268524169922, -294.0683288574219, 205.38221740722656, 48.42235565185547, 0.03200000151991844, 0.03200000151991844, 1.055999994277954, 0.0, 0.0, 0.0, 0.0, 0.0, 1.621602117959581E9, 2021-05-21 15:01:57.959
73.0, -70.2708511352539, -336.44140625, 154.28770446777344, -4.085840702056885, 0.03200000151991844, 0.03200000151991844, 1.055999994277954, 0.0, 0.0, 0.0, 0.0, 0.0, 1.621602117959581E9, 2021-05-21 15:01:57.959
74.0, -44.45058059692383, -306.0995788574219, 190.6956329345703, 29.61813735961914, 0.03200000151991844, 0.03200000151991844, 1.055999994277954, 0.0, 0.0, 0.0, 0.0, 0.0, 1.6216021179603505E9, 2021-05-21 15:01:57.960
74.0, -13.839499473571777, -256.7142028808594, 242.43714904785156, 84.01498413085938, 0.03200000151991844, 0.03200000151991844, 1.055999994277954, 0.0, 0.0, 0.0, 0.0, 0.0, 1.6216021179603505E9, 2021-05-21 15:01:57.960
75.0, -35.407501220703125, -292.7070007324219, 207.22972106933594, 52.85787582397461, 0.03200000151991844, 0.03200000151991844, 1.055999994277954, 0.0, 0.0, 0.0, 0.0, 0.0, 1.6216021179609876E9, 2021-05-21 15:01:57.960
75.0, -80.68273162841797, -332.3387145996094, 146.01878356933594, -3.5585148334503174, 0.03200000151991844, 0.03200000151991844, 1.055999994277954, 0.0, 0.0, 0.0, 0.0, 0.0, 1.6216021179609876E9, 2021-05-21 15:01:57.960
76.0, -52.34550857543945, -300.7851867675781, 180.22390747070312, 35.4523811340332, 0.03200000151991844, 0.03200000151991844, 1.055999994277954, 0.0, 0.0, 0.0, 0.0, 0.0, 1.6216021179734137E9, 2021-05-21 15:01:57.973
