Sample Index, EXG Channel 0, EXG Channel 1, EXG Channel 2, EXG Channel 3, Accel Channel 0, Accel Channel 1, Accel Channel 2, Other, Other, Other, Other, Other, Timestamp, Timestamp (Formatted)
0.0, -195.5668487548828, -385.198486328125, 242.6222686767578, 60.808902740478516, 0.0, 0.0, 0.0, 0.0, 0.0, 0.0, 0.0, 0.0, 1.62160447071994E9, 2021-05-21 15:41:10.719
1.0, -159.6151885986328, -343.8314514160156, 293.36895751953125, 103.50733947753906, 0.0, 0.03200000151991844, 0.0, 0.0, 0.0, 0.0, 0.0, 0.0, 1.6216044707333996E9, 2021-05-21 15:41:10.733
1.0, -145.91220092773438, -318.5609436035156, 311.8627624511719, 129.727783203125, 0.0, 0.03200000151991844, 0.0, 0.0, 0.0, 0.0, 0.0, 0.0, 1.6216044707333996E9, 2021-05-21 15:41:10.733
2.0, -187.04360961914062, -372.58380126953125, 260.1736145019531, 79.65052032470703, 0.01600000075995922, 0.03200000151991844, 0.0, 0.0, 0.0, 0.0, 0.0, 0.0, 1.6216044707506492E9, 2021-05-21 15:41:10.750
2.0, -197.47793579101562, -384.693603515625, 242.4427490234375, 62.237545013427734, 0.01600000075995922, 0.03200000151991844, 0.0, 0.0, 0.0, 0.0, 0.0, 0.0, 1.6216044707506492E9, 2021-05-21 15:41:10.750
3.0, -162.8015899658203, -344.5233154296875, 286.64837646484375, 106.37210083007812, 0.01600000075995922, 0.03200000151991844, 0.0, 0.0, 0.0, 0.0, 0.0, 0.0, 1.621604470751422E9, 2021-05-21 15:41:10.751
3.0, -141.62252807617188, -325.0459289550781, 316.25341796875, 134.01370239257812, 0.01600000075995922, 0.03200000151991844, 0.0, 0.0, 0.0, 0.0, 0.0, 0.0, 1.621604470751422E9, 2021-05-21 15:41:10.751
4.0, -190.439453125, -372.83062744140625, 251.5980224609375, 79.21295166015625, 0.01600000075995922, 0.03200000151991844, 0.0, 0.0, 0.0, 0.0, 0.0, 0.0, 1.6216044707632263E9, 2021-05-21 15:41:10.763
4.0, -202.83348083496094, -383.156494140625, 237.3153533935547, 67.82495880126953, 0.01600000075995922, 0.03200000151991844, 0.0, 0.0, 0.0, 0.0, 0.0, 0.0, 1.6216044707632263E9, 2021-05-21 15:41:10.763
5.0, -161.88905334472656, -343.8351745605469, 289.0680847167969, 112.3447265625, 0.01600000075995922, 0.03200000151991844, 0.0, 0.0, 0.0, 0.0, 0.0, 0.0, 1.6216044707790155E9, 2021-05-21 15:41:10.779
5.0, -146.33480834960938, -324.8851013183594, 315.2099914550781, 135.10202026367188, 0.01600000075995922, 0.03200000151991844, 0.0, 0.0, 0.0, 0.0, 0.0, 0.0, 1.6216044707790155E9, 2021-05-21 15:41:10.779
6.0, -185.6486358642578, -364.05682373046875, 263.0720520019531, 81.49803161621094, 0.01600000075995922, 0.03200000151991844, 0.0, 0.0, 0.0, 0.0, 0.0, 0.0, 1.62160447077969E9, 2021-05-21 15:41:10.779
6.0, -201.8461456298828, -382.9320983886719, 249.3466033935547, 64.40294647216797, 0.01600000075995922, 0.03200000151991844, 0.0, 0.0, 0.0, 0.0, 0.0, 0.0, 1.62160447077969E9, 2021-05-21 15:41:10.779
7.0, -163.54208374023438, -342.57110595703125, 296.13275146484375, 114.42411041259766, 0.01600000075995922, 0.03200000151991844, 0.0, 0.0, 0.0, 0.0, 0.0, 0.0, 1.6216044707932549E9, 2021-05-21 15:41:10.793
7.0, -146.29367065429688, -318.6133117675781, 324.0959777832031, 133.1871795654297, 0.01600000075995922, 0.03200000151991844, 0.0, 0.0, 0.0, 0.0, 0.0, 0.0, 1.6216044707932549E9, 2021-05-21 15:41:10.793
8.0, -183.6066436767578, -368.8700866699219, 271.43072509765625, 85.11077117919922, 0.01600000075995922, 0.03200000151991844, 0.0, 0.0, 0.0, 0.0, 0.0, 0.0, 1.6216044708416948E9, 2021-05-21 15:41:10.841
8.0, -192.0401153564453, -384.3233337402344, 248.78562927246094, 68.80107116699219, 0.01600000075995922, 0.03200000151991844, 0.0, 0.0, 0.0, 0.0, 0.0, 0.0, 1.6216044708416948E9, 2021-05-21 15:41:10.841
9.0, -161.06253051757812, -342.97125244140625, 296.77227783203125, 115.04119110107422, 0.01600000075995922, 0.03200000151991844, 0.0, 0.0, 0.0, 0.0, 0.0, 0.0, 1.6216044708423514E9, 2021-05-21 15:41:10.842
9.0, -144.42745971679688, -324.84771728515625, 317.43896484375, 134.01370239257812, 0.01600000075995922, 0.03200000151991844, 0.0, 0.0, 0.0, 0.0, 0.0, 0.0, 1.6216044708423514E9, 2021-05-21 15:41:10.842
10.0, -187.85891723632812, -373.34674072265625, 259.8295593261719, 85.125732421875, 0.01600000075995922, 0.03200000151991844, 1.055999994277954, 0.0, 0.0, 0.0, 0.0, 0.0, 1.621604470843187E9, 2021-05-21 15:41:10.843
10.0, -197.1338653564453, -388.5830993652344, 242.93641662597656, 65.48377990722656, 0.01600000075995922, 0.03200000151991844, 1.055999994277954, 0.0, 0.0, 0.0, 0.0, 0.0, 1.621604470843187E9, 2021-05-21 15:41:10.843
11.0, -164.9894256591797, -348.9551086425781, 289.561767578125, 105.65030670166016, 0.01600000075995922, 0.03200000151991844, 1.055999994277954, 0.0, 0.0, 0.0, 0.0, 0.0, 1.6216044708438473E9, 2021-05-21 15:41:10.843
11.0, -149.88397216796875, -327.5815734863281, 309.1625671386719, 129.5931396484375, 0.01600000075995922, 0.03200000151991844, 1.055999994277954, 0.0, 0.0, 0.0, 0.0, 0.0, 1.6216044708438473E9, 2021-05-21 15:41:10.843
12.0, -187.0361328125, -375.78887939453125, 257.76885986328125, 84.54978942871094, 0.03200000151991844, 0.03200000151991844, 1.055999994277954, 0.0, 0.0, 0.0, 0.0, 0.0, 1.6216044708539765E9, 2021-05-21 15:41:10.853
12.0, -203.0541229248047, -388.4746398925781, 238.44480895996094, 64.34310913085938, 0.03200000151991844, 0.03200000151991844, 1.055999994277954, 0.0, 0.0, 0.0, 0.0, 0.0, 1.6216044708539765E9, 2021-05-21 15:41:10.853
13.0, -172.79086303710938, -347.4815979003906, 280.82159423828125, 101.93658447265625, 0.03200000151991844, 0.03200000151991844, 1.055999994277954, 0.0, 0.0, 0.0, 0.0, 0.0, 1.6216044708546927E9, 2021-05-21 15:41:10.854
13.0, -147.92051696777344, -316.1898498535156, 314.9369812011719, 134.8888397216797, 0.03200000151991844, 0.03200000151991844, 1.055999994277954, 0.0, 0.0, 0.0, 0.0, 0.0, 1.6216044708546927E9, 2021-05-21 15:41:10.854
14.0, -182.60435485839844, -365.2648010253906, 264.42962646484375, 82.1973876953125, 0.03200000151991844, 0.03200000151991844, 1.055999994277954, 0.0, 0.0, 0.0, 0.0, 0.0, 1.6216044708693774E9, 2021-05-21 15:41:10.869
14.0, -206.7940216064453, -380.7405090332031, 240.1688995361328, 58.647239685058594, 0.03200000151991844, 0.03200000151991844, 1.055999994277954, 0.0, 0.0, 0.0, 0.0, 0.0, 1.6216044708693774E9, 2021-05-21 15:41:10.869
15.0, -176.28018188476562, -340.83203125, 291.4765930175781, 113.83320617675781, 0.03200000151991844, 0.03200000151991844, 1.055999994277954, 0.0, 0.0, 0.0, 0.0, 0.0, 1.621604470883901E9, 2021-05-21 15:41:10.883
15.0, -154.06143188476562, -322.3157958984375, 315.666259765625, 139.3094024658203, 0.03200000151991844, 0.03200000151991844, 1.055999994277954, 0.0, 0.0, 0.0, 0.0, 0.0, 1.621604470883901E9, 2021-05-21 15:41:10.883
16.0, -186.76686096191406, -375.43359375, 261.7406311035156, 83.98506164550781, 0.03200000151991844, 0.03200000151991844, 1.055999994277954, 0.0, 0.0, 0.0, 0.0, 0.0, 1.621604470884628E9, 2021-05-21 15:41:10.884
16.0, -201.72647094726562, -385.0039978027344, 248.97262573242188, 66.05224609375, 0.03200000151991844, 0.03200000151991844, 1.055999994277954, 0.0, 0.0, 0.0, 0.0, 0.0, 1.621604470884628E9, 2021-05-21 15:41:10.884
17.0, -168.89013671875, -342.0886535644531, 292.9949951171875, 109.64825439453125, 0.03200000151991844, 0.03200000151991844, 1.055999994277954, 0.0, 0.0, 0.0, 0.0, 0.0, 1.6216044708989809E9, 2021-05-21 15:41:10.898
17.0, -151.7239990234375, -321.24993896484375, 318.77410888671875, 134.06607055664062, 0.03200000151991844, 0.03200000151991844, 1.055999994277954, 0.0, 0.0, 0.0, 0.0, 0.0, 1.6216044708989809E9, 2021-05-21 15:41:10.898
18.0, -187.35777282714844, -378.64617919921875, 268.66693115234375, 81.70372772216797, 0.03200000151991844, 0.03200000151991844, 1.055999994277954, 0.0, 0.0, 0.0, 0.0, 0.0, 1.6216044708997035E9, 2021-05-21 15:41:10.899
18.0, -197.90428161621094, -391.6348571777344, 246.70997619628906, 67.99324798583984, 0.03200000151991844, 0.03200000151991844, 1.055999994277954, 0.0, 0.0, 0.0, 0.0, 0.0, 1.6216044708997035E9, 2021-05-21 15:41:10.899
19.0, -174.1035614013672, -348.5586853027344, 287.62823486328125, 104.72654724121094, 0.03200000151991844, 0.03200000151991844, 1.055999994277954, 0.0, 0.0, 0.0, 0.0, 0.0, 1.621604470913336E9, 2021-05-21 15:41:10.913
19.0, -154.734619140625, -326.5830383300781, 308.470703125, 130.93951416015625, 0.03200000151991844, 0.03200000151991844, 1.055999994277954, 0.0, 0.0, 0.0, 0.0, 0.0, 1.621604470913336E9, 2021-05-21 15:41:10.913
20.0, -188.9995880126953, -373.7768249511719, 255.68948364257812, 81.393310546875, 0.03200000151991844, 0.03200000151991844, 1.055999994277954, 0.0, 0.0, 0.0, 0.0, 0.0, 1.6216044709289768E9, 2021-05-21 15:41:10.928
20.0, -201.6292266845703, -387.67803955078125, 247.39437866210938, 66.50476837158203, 0.03200000151991844, 0.03200000151991844, 1.055999994277954, 0.0, 0.0, 0.0, 0.0, 0.0, 1.6216044709289768E9, 2021-05-21 15:41:10.928
21.0, -164.49575805664062, -343.73046875, 293.7242736816406, 105.64656066894531, 0.03200000151991844, 0.03200000151991844, 1.055999994277954, 0.0, 0.0, 0.0, 0.0, 0.0, 1.6216044709296367E9, 2021-05-21 15:41:10.929
21.0, -153.43687438964844, -317.6109924316406, 312.79400634765625, 132.33074951171875, 0.03200000151991844, 0.03200000151991844, 1.055999994277954, 0.0, 0.0, 0.0, 0.0, 0.0, 1.6216044709296367E9, 2021-05-21 15:41:10.929
22.0, -187.83273315429688, -372.2397155761719, 262.589599609375, 83.12114715576172, 0.01600000075995922, 0.03200000151991844, 1.055999994277954, 0.0, 0.0, 0.0, 0.0, 0.0, 1.6216044709432693E9, 2021-05-21 15:41:10.943
22.0, -200.06594848632812, -386.9113464355469, 249.77296447753906, 70.2297134399414, 0.01600000075995922, 0.03200000151991844, 1.055999994277954, 0.0, 0.0, 0.0, 0.0, 0.0, 1.6216044709432693E9, 2021-05-21 15:41:10.943
23.0, -171.28367614746094, -345.02447509765625, 295.46331787109375, 112.4083023071289, 0.01600000075995922, 0.03200000151991844, 1.055999994277954, 0.0, 0.0, 0.0, 0.0, 0.0, 1.6216044709589236E9, 2021-05-21 15:41:10.958
23.0, -153.98663330078125, -322.0390319824219, 322.4841003417969, 135.21421813964844, 0.01600000075995922, 0.03200000151991844, 1.055999994277954, 0.0, 0.0, 0.0, 0.0, 0.0, 1.6216044709589236E9, 2021-05-21 15:41:10.958
24.0, -178.5241241455078, -363.28265380859375, 270.3536376953125, 93.29741668701172, 0.01600000075995922, 0.03200000151991844, 1.055999994277954, 0.0, 0.0, 0.0, 0.0, 0.0, 1.621604470959652E9, 2021-05-21 15:41:10.959
24.0, -192.7207794189453, -383.96429443359375, 257.2490234375, 73.3824462890625, 0.01600000075995922, 0.03200000151991844, 1.055999994277954, 0.0, 0.0, 0.0, 0.0, 0.0, 1.621604470959652E9, 2021-05-21 15:41:10.959
25.0, -157.18051147460938, -347.87054443359375, 298.26824951171875, 112.73741149902344, 0.01600000075995922, 0.03200000151991844, 1.055999994277954, 0.0, 0.0, 0.0, 0.0, 0.0, 1.6216044709732203E9, 2021-05-21 15:41:10.973
25.0, -138.9746856689453, -325.9547119140625, 325.502197265625, 138.9615936279297, 0.01600000075995922, 0.03200000151991844, 1.055999994277954, 0.0, 0.0, 0.0, 0.0, 0.0, 1.6216044709732203E9, 2021-05-21 15:41:10.973
26.0, -182.48468017578125, -382.1579284667969, 268.9175109863281, 83.71952819824219, 0.01600000075995922, 0.03200000151991844, 1.055999994277954, 0.0, 0.0, 0.0, 0.0, 0.0, 1.6216044709889636E9, 2021-05-21 15:41:10.988
26.0, -206.1619873046875, -401.0220031738281, 247.72723388671875, 70.59996032714844, 0.01600000075995922, 0.03200000151991844, 1.055999994277954, 0.0, 0.0, 0.0, 0.0, 0.0, 1.6216044709889636E9, 2021-05-21 15:41:10.988
27.0, -174.7019500732422, -358.4656677246094, 287.5496826171875, 109.41264343261719, 0.01600000075995922, 0.03200000151991844, 1.055999994277954, 0.0, 0.0, 0.0, 0.0, 0.0, 1.6216044709896407E9, 2021-05-21 15:41:10.989
27.0, -154.82437133789062, -331.6281433105469, 310.6772155761719, 132.7832794189453, 0.01600000075995922, 0.03200000151991844, 1.055999994277954, 0.0, 0.0, 0.0, 0.0, 0.0, 1.6216044709896407E9, 2021-05-21 15:41:10.989
28.0, -189.22772216796875, -379.23333740234375, 261.36663818359375, 83.51383972167969, 0.01600000075995922, 0.03200000151991844, 1.055999994277954, 0.0, 0.0, 0.0, 0.0, 0.0, 1.62160447100325E9, 2021-05-21 15:41:11.003
28.0, -196.1988983154297, -393.13079833984375, 249.49246215820312, 72.5147933959961, 0.01600000075995922, 0.03200000151991844, 1.055999994277954, 0.0, 0.0, 0.0, 0.0, 0.0, 1.62160447100325E9, 2021-05-21 15:41:11.003
29.0, -168.92005920410156, -353.0951843261719, 281.921142578125, 104.51337432861328, 0.01600000075995922, 0.03200000151991844, 1.055999994277954, 0.0, 0.0, 0.0, 0.0, 0.0, 1.6216044710189247E9, 2021-05-21 15:41:11.018
29.0, -150.6356964111328, -329.46649169921875, 313.02587890625, 132.65237426757812, 0.01600000075995922, 0.03200000151991844, 1.055999994277954, 0.0, 0.0, 0.0, 0.0, 0.0, 1.6216044710189247E9, 2021-05-21 15:41:11.018
30.0, -187.69061279296875, -379.4614562988281, 261.65087890625, 84.0411605834961, 0.01600000075995922, 0.03200000151991844, 1.055999994277954, 0.0, 0.0, 0.0, 0.0, 0.0, 1.6216044710196435E9, 2021-05-21 15:41:11.019
30.0, -198.09127807617188, -394.1705017089844, 248.927734375, 69.89311981201172, 0.01600000075995922, 0.03200000151991844, 1.055999994277954, 0.0, 0.0, 0.0, 0.0, 0.0, 1.6216044710196435E9, 2021-05-21 15:41:11.019
31.0, -165.8009796142578, -350.85870361328125, 294.21044921875, 107.94660186767578, 0.01600000075995922, 0.03200000151991844, 1.055999994277954, 0.0, 0.0, 0.0, 0.0, 0.0, 1.6216044710333116E9, 2021-05-21 15:41:11.033
31.0, -147.1089630126953, -326.62042236328125, 319.1481018066406, 137.89572143554688, 0.01600000075995922, 0.03200000151991844, 1.055999994277954, 0.0, 0.0, 0.0, 0.0, 0.0, 1.6216044710333116E9, 2021-05-21 15:41:11.033
32.0, -183.66275024414062, -378.68731689453125, 270.83233642578125, 89.6809310913086, 0.01600000075995922, 0.03200000151991844, 1.055999994277954, 0.0, 0.0, 0.0, 0.0, 0.0, 1.6216044710490112E9, 2021-05-21 15:41:11.049
32.0, -193.88763427734375, -392.40899658203125, 251.79998779296875, 71.62095642089844, 0.01600000075995922, 0.03200000151991844, 1.055999994277954, 0.0, 0.0, 0.0, 0.0, 0.0, 1.6216044710490112E9, 2021-05-21 15:41:11.049
33.0, -162.7604522705078, -351.9395446777344, 296.6339111328125, 113.38815307617188, 0.01600000075995922, 0.03200000151991844, 1.055999994277954, 0.0, 0.0, 0.0, 0.0, 0.0, 1.621604471049723E9, 2021-05-21 15:41:11.049
33.0, -143.35411071777344, -331.9684753417969, 320.84600830078125, 137.47311401367188, 0.01600000075995922, 0.03200000151991844, 1.055999994277954, 0.0, 0.0, 0.0, 0.0, 0.0, 1.621604471049723E9, 2021-05-21 15:41:11.049
34.0, -180.4239959716797, -383.3285217285156, 272.95660400390625, 90.79167938232422, 0.01600000075995922, 0.03200000151991844, 1.055999994277954, 0.0, 0.0, 0.0, 0.0, 0.0, 1.6216044710633163E9, 2021-05-21 15:41:11.063
34.0, -190.95181274414062, -400.89483642578125, 256.75909423828125, 75.68622589111328, 0.01600000075995922, 0.03200000151991844, 1.055999994277954, 0.0, 0.0, 0.0, 0.0, 0.0, 1.6216044710633163E9, 2021-05-21 15:41:11.063
35.0, -162.9661407470703, -358.17022705078125, 301.0806579589844, 119.42061614990234, 0.01600000075995922, 0.03200000151991844, 1.055999994277954, 0.0, 0.0, 0.0, 0.0, 0.0, 1.6216044710790093E9, 2021-05-21 15:41:11.079
35.0, -144.47607421875, -331.28033447265625, 322.8543395996094, 139.24581909179688, 0.01600000075995922, 0.03200000151991844, 1.055999994277954, 0.0, 0.0, 0.0, 0.0, 0.0, 1.6216044710790093E9, 2021-05-21 15:41:11.079
36.0, -182.60809326171875, -384.4991149902344, 270.8959045410156, 93.20391845703125, 0.01600000075995922, 0.03200000151991844, 1.055999994277954, 0.0, 0.0, 0.0, 0.0, 0.0, 1.6216044710796812E9, 2021-05-21 15:41:11.079
36.0, -196.11660766601562, -401.8036193847656, 250.7565460205078, 70.58126068115234, 0.01600000075995922, 0.03200000151991844, 1.055999994277954, 0.0, 0.0, 0.0, 0.0, 0.0, 1.6216044710796812E9, 2021-05-21 15:41:11.079
37.0, -172.26727294921875, -364.02691650390625, 287.31781005859375, 110.17184448242188, 0.01600000075995922, 0.03200000151991844, 1.055999994277954, 0.0, 0.0, 0.0, 0.0, 0.0, 1.6216044711086473E9, 2021-05-21 15:41:11.108
37.0, -152.63653564453125, -335.7383117675781, 311.2008056640625, 136.8560333251953, 0.01600000075995922, 0.03200000151991844, 1.055999994277954, 0.0, 0.0, 0.0, 0.0, 0.0, 1.6216044711086473E9, 2021-05-21 15:41:11.108
38.0, -186.00392150878906, -384.4579772949219, 261.1272888183594, 86.95828247070312, 0.01600000075995922, 0.03200000151991844, 1.055999994277954, 0.0, 0.0, 0.0, 0.0, 0.0, 1.6216044711246517E9, 2021-05-21 15:41:11.124
38.0, -196.614013671875, -400.6629638671875, 247.94041442871094, 72.43999481201172, 0.01600000075995922, 0.03200000151991844, 1.055999994277954, 0.0, 0.0, 0.0, 0.0, 0.0, 1.6216044711246517E9, 2021-05-21 15:41:11.124
39.0, -159.68251037597656, -365.7322998046875, 292.99871826171875, 112.09789276123047, 0.01600000075995922, 0.03200000151991844, 1.055999994277954, 0.0, 0.0, 0.0, 0.0, 0.0, 1.6216044711253505E9, 2021-05-21 15:41:11.125
39.0, -147.6512451171875, -340.1102294921875, 312.02734375, 134.46249389648438, 0.01600000075995922, 0.03200000151991844, 1.055999994277954, 0.0, 0.0, 0.0, 0.0, 0.0, 1.6216044711253505E9, 2021-05-21 15:41:11.125
40.0, -179.47032165527344, -381.7502746582031, 273.8167724609375, 86.66657257080078, 0.01600000075995922, 0.03200000151991844, 1.055999994277954, 0.0, 0.0, 0.0, 0.0, 0.0, 1.6216044711260712E9, 2021-05-21 15:41:11.126
40.0, -188.16184997558594, -398.1497497558594, 259.021728515625, 76.90169525146484, 0.01600000075995922, 0.03200000151991844, 1.055999994277954, 0.0, 0.0, 0.0, 0.0, 0.0, 1.6216044711260712E9, 2021-05-21 15:41:11.126
41.0, -158.3323974609375, -365.6687316894531, 301.7276611328125, 117.14301300048828, 0.01600000075995922, 0.03200000151991844, 1.055999994277954, 0.0, 0.0, 0.0, 0.0, 0.0, 1.6216044711389265E9, 2021-05-21 15:41:11.138
41.0, -150.9647979736328, -346.3558654785156, 320.02325439453125, 139.2196502685547, 0.01600000075995922, 0.03200000151991844, 1.055999994277954, 0.0, 0.0, 0.0, 0.0, 0.0, 1.6216044711389265E9, 2021-05-21 15:41:11.138
42.0, -182.12939453125, -391.5862121582031, 268.08349609375, 91.81267547607422, 0.03200000151991844, 0.03200000151991844, 1.055999994277954, 0.0, 0.0, 0.0, 0.0, 0.0, 1.6216044711396468E9, 2021-05-21 15:41:11.139
42.0, -198.05014038085938, -411.0075378417969, 245.78248596191406, 71.1534652709961, 0.03200000151991844, 0.03200000151991844, 1.055999994277954, 0.0, 0.0, 0.0, 0.0, 0.0, 1.6216044711396468E9, 2021-05-21 15:41:11.139
43.0, -159.8956756591797, -369.247802734375, 291.78326416015625, 114.9925765991211, 0.03200000151991844, 0.03200000151991844, 1.055999994277954, 0.0, 0.0, 0.0, 0.0, 0.0, 1.6216044711532264E9, 2021-05-21 15:41:11.153
43.0, -144.55087280273438, -345.3348693847656, 313.9421691894531, 140.4051971435547, 0.03200000151991844, 0.03200000151991844, 1.055999994277954, 0.0, 0.0, 0.0, 0.0, 0.0, 1.6216044711532264E9, 2021-05-21 15:41:11.153
44.0, -181.83767700195312, -395.77490234375, 263.1243896484375, 90.49623107910156, 0.03200000151991844, 0.03200000151991844, 1.055999994277954, 0.0, 0.0, 0.0, 0.0, 0.0, 1.6216044711687906E9, 2021-05-21 15:41:11.168
44.0, -199.38902282714844, -417.9039001464844, 244.05465698242188, 67.82495880126953, 0.03200000151991844, 0.03200000151991844, 1.055999994277954, 0.0, 0.0, 0.0, 0.0, 0.0, 1.6216044711687906E9, 2021-05-21 15:41:11.168
45.0, -165.43821716308594, -373.9787902832031, 286.0126037597656, 113.4891357421875, 0.03200000151991844, 0.03200000151991844, 1.055999994277954, 0.0, 0.0, 0.0, 0.0, 0.0, 1.6216044711840525E9, 2021-05-21 15:41:11.184
45.0, -141.7646484375, -350.7913818359375, 316.2421875, 138.2884063720703, 0.03200000151991844, 0.03200000151991844, 1.055999994277954, 0.0, 0.0, 0.0, 0.0, 0.0, 1.6216044711840525E9, 2021-05-21 15:41:11.184
46.0, -181.93865966796875, -402.6189270019531, 262.2866516113281, 88.28221130371094, 0.03200000151991844, 0.03200000151991844, 1.055999994277954, 0.0, 0.0, 0.0, 0.0, 0.0, 1.6216044711846588E9, 2021-05-21 15:41:11.184
46.0, -190.20382690429688, -413.1467590332031, 247.2784423828125, 70.52142333984375, 0.03200000151991844, 0.03200000151991844, 1.055999994277954, 0.0, 0.0, 0.0, 0.0, 0.0, 1.6216044711846588E9, 2021-05-21 15:41:11.184
47.0, -158.45582580566406, -369.7601623535156, 291.5887756347656, 114.00524139404297, 0.03200000151991844, 0.03200000151991844, 1.055999994277954, 0.0, 0.0, 0.0, 0.0, 0.0, 1.6216044711990516E9, 2021-05-21 15:41:11.199
47.0, -142.37799072265625, -348.47265625, 314.0393981933594, 140.60340881347656, 0.03200000151991844, 0.03200000151991844, 1.055999994277954, 0.0, 0.0, 0.0, 0.0, 0.0, 1.6216044711990516E9, 2021-05-21 15:41:11.199
48.0, -177.94070434570312, -398.97625732421875, 264.50067138671875, 90.92631530761719, 0.03200000151991844, 0.03200000151991844, 1.055999994277954, 0.0, 0.0, 0.0, 0.0, 0.0, 1.621604471199905E9, 2021-05-21 15:41:11.199
48.0, -188.73779296875, -414.27618408203125, 245.24020385742188, 71.78550720214844, 0.03200000151991844, 0.03200000151991844, 1.055999994277954, 0.0, 0.0, 0.0, 0.0, 0.0, 1.621604471199905E9, 2021-05-21 15:41:11.199
49.0, -156.94863891601562, -372.3594055175781, 296.5179748535156, 114.09873962402344, 0.03200000151991844, 0.03200000151991844, 1.055999994277954, 0.0, 0.0, 0.0, 0.0, 0.0, 1.6216044712133532E9, 2021-05-21 15:41:11.213
49.0, -141.90676879882812, -349.9611511230469, 322.53271484375, 143.70004272460938, 0.03200000151991844, 0.03200000151991844, 1.055999994277954, 0.0, 0.0, 0.0, 0.0, 0.0, 1.6216044712133532E9, 2021-05-21 15:41:11.213
50.0, -177.5854034423828, -398.1609802246094, 269.1344299316406, 96.9288558959961, 0.03200000151991844, 0.03200000151991844, 1.055999994277954, 0.0, 0.0, 0.0, 0.0, 0.0, 1.621604471244635E9, 2021-05-21 15:41:11.244
50.0, -191.94288635253906, -417.2381896972656, 253.53529357910156, 76.74835968017578, 0.03200000151991844, 0.03200000151991844, 1.055999994277954, 0.0, 0.0, 0.0, 0.0, 0.0, 1.621604471244635E9, 2021-05-21 15:41:11.244
51.0, -156.96360778808594, -376.3274230957031, 290.406982421875, 118.75117492675781, 0.03200000151991844, 0.03200000151991844, 1.055999994277954, 0.0, 0.0, 0.0, 0.0, 0.0, 1.6216044712453172E9, 2021-05-21 15:41:11.245
51.0, -139.24021911621094, -354.0525817871094, 318.18695068359375, 140.5884552001953, 0.03200000151991844, 0.03200000151991844, 1.055999994277954, 0.0, 0.0, 0.0, 0.0, 0.0, 1.6216044712453172E9, 2021-05-21 15:41:11.245
52.0, -182.89981079101562, -402.9031677246094, 263.3749694824219, 90.71688079833984, 0.03200000151991844, 0.03200000151991844, 1.055999994277954, 0.0, 0.0, 0.0, 0.0, 0.0, 1.6216044712460356E9, 2021-05-21 15:41:11.246
52.0, -197.56768798828125, -415.73101806640625, 240.62890625, 68.53179931640625, 0.03200000151991844, 0.03200000151991844, 1.055999994277954, 0.0, 0.0, 0.0, 0.0, 0.0, 1.6216044712460356E9, 2021-05-21 15:41:11.246
53.0, -162.6183319091797, -374.7604064941406, 287.88629150390625, 117.52448272705078, 0.03200000151991844, 0.03200000151991844, 1.055999994277954, 0.0, 0.0, 0.0, 0.0, 0.0, 1.6216044712589433E9, 2021-05-21 15:41:11.258
53.0, -143.98240661621094, -350.7315673828125, 309.80584716796875, 131.94554138183594, 0.03200000151991844, 0.03200000151991844, 1.055999994277954, 0.0, 0.0, 0.0, 0.0, 0.0, 1.6216044712589433E9, 2021-05-21 15:41:11.258
54.0, -182.17800903320312, -397.2521667480469, 260.62615966796875, 87.88204193115234, 0.03200000151991844, 0.03200000151991844, 1.055999994277954, 0.0, 0.0, 0.0, 0.0, 0.0, 1.621604471259668E9, 2021-05-21 15:41:11.259
54.0, -197.45175170898438, -413.1467590332031, 242.1099090576172, 72.17072296142578, 0.03200000151991844, 0.03200000151991844, 1.055999994277954, 0.0, 0.0, 0.0, 0.0, 0.0, 1.621604471259668E9, 2021-05-21 15:41:11.259
55.0, -164.13299560546875, -372.7259216308594, 295.96820068359375, 113.85938262939453, 0.03200000151991844, 0.03200000151991844, 1.055999994277954, 0.0, 0.0, 0.0, 0.0, 0.0, 1.6216044712733366E9, 2021-05-21 15:41:11.273
55.0, -143.70565795898438, -344.564453125, 322.9627990722656, 143.2437744140625, 0.03200000151991844, 0.03200000151991844, 1.055999994277954, 0.0, 0.0, 0.0, 0.0, 0.0, 1.6216044712733366E9, 2021-05-21 15:41:11.273
56.0, -178.1015167236328, -389.600341796875, 267.65716552734375, 91.33396911621094, 0.03200000151991844, 0.03200000151991844, 1.055999994277954, 0.0, 0.0, 0.0, 0.0, 0.0, 1.62160447128947E9, 2021-05-21 15:41:11.289
56.0, -195.33123779296875, -410.2632751464844, 250.43865966796875, 73.6405029296875, 0.03200000151991844, 0.03200000151991844, 1.055999994277954, 0.0, 0.0, 0.0, 0.0, 0.0, 1.62160447128947E9, 2021-05-21 15:41:11.289
57.0, -158.14166259765625, -363.97454833984375, 298.43280029296875, 119.42809295654297, 0.03200000151991844, 0.03200000151991844, 1.055999994277954, 0.0, 0.0, 0.0, 0.0, 0.0, 1.6216044713039877E9, 2021-05-21 15:41:11.303
57.0, -146.91075134277344, -339.15655517578125, 324.7317810058594, 144.29843139648438, 0.03200000151991844, 0.03200000151991844, 1.055999994277954, 0.0, 0.0, 0.0, 0.0, 0.0, 1.6216044713039877E9, 2021-05-21 15:41:11.303
58.0, -183.83103942871094, -388.1529846191406, 276.2813720703125, 93.02439880371094, 0.03200000151991844, 0.03200000151991844, 1.055999994277954, 0.0, 0.0, 0.0, 0.0, 0.0, 1.6216044713047054E9, 2021-05-21 15:41:11.304
58.0, -188.9883575439453, -401.8036193847656, 259.96044921875, 80.44337463378906, 0.03200000151991844, 0.03200000151991844, 1.055999994277954, 0.0, 0.0, 0.0, 0.0, 0.0, 1.6216044713047054E9, 2021-05-21 15:41:11.304
59.0, -158.41094970703125, -363.6828308105469, 303.107666015625, 121.64585876464844, 0.03200000151991844, 0.03200000151991844, 1.055999994277954, 0.0, 0.0, 0.0, 0.0, 0.0, 1.6216044713189335E9, 2021-05-21 15:41:11.318
59.0, -148.1523895263672, -338.27020263671875, 319.5594787597656, 145.42039489746094, 0.03200000151991844, 0.03200000151991844, 1.055999994277954, 0.0, 0.0, 0.0, 0.0, 0.0, 1.6216044713189335E9, 2021-05-21 15:41:11.318
60.0, -181.58335876464844, -389.2263488769531, 271.4456787109375, 95.53387451171875, 0.03200000151991844, 0.03200000151991844, 1.055999994277954, 0.0, 0.0, 0.0, 0.0, 0.0, 1.6216044713196223E9, 2021-05-21 15:41:11.319
60.0, -194.13072204589844, -409.4891357421875, 252.3235626220703, 76.01533508300781, 0.03200000151991844, 0.03200000151991844, 1.055999994277954, 0.0, 0.0, 0.0, 0.0, 0.0, 1.6216044713196223E9, 2021-05-21 15:41:11.319
61.0, -159.25242614746094, -374.50982666015625, 288.46221923828125, 112.5279769897461, 0.03200000151991844, 0.03200000151991844, 1.055999994277954, 0.0, 0.0, 0.0, 0.0, 0.0, 1.62160447135034E9, 2021-05-21 15:41:11.350
61.0, -143.09231567382812, -350.20050048828125, 309.3383483886719, 137.39083862304688, 0.03200000151991844, 0.03200000151991844, 1.055999994277954, 0.0, 0.0, 0.0, 0.0, 0.0, 1.62160447135034E9, 2021-05-21 15:41:11.350
62.0, -179.829345703125, -395.6552429199219, 260.383056640625, 90.1446762084961, 0.03200000151991844, 0.03200000151991844, 1.055999994277954, 0.0, 0.0, 0.0, 0.0, 0.0, 1.621604471350983E9, 2021-05-21 15:41:11.350
62.0, -196.6215057373047, -408.48309326171875, 240.85704040527344, 76.04525756835938, 0.03200000151991844, 0.03200000151991844, 1.055999994277954, 0.0, 0.0, 0.0, 0.0, 0.0, 1.621604471350983E9, 2021-05-21 15:41:11.350
63.0, -162.71182250976562, -365.4779968261719, 290.23492431640625, 123.54572296142578, 0.03200000151991844, 0.03200000151991844, 1.055999994277954, 0.0, 0.0, 0.0, 0.0, 0.0, 1.6216044713517327E9, 2021-05-21 15:41:11.351
63.0, -142.46026611328125, -347.87054443359375, 313.08197021484375, 143.625244140625, 0.03200000151991844, 0.03200000151991844, 1.055999994277954, 0.0, 0.0, 0.0, 0.0, 0.0, 1.6216044713517327E9, 2021-05-21 15:41:11.351
64.0, -183.50567626953125, -391.8966369628906, 264.8746643066406, 90.8477783203125, 0.03200000151991844, 0.03200000151991844, 1.055999994277954, 0.0, 0.0, 0.0, 0.0, 0.0, 1.621604471363319E9, 2021-05-21 15:41:11.363
64.0, -190.4805908203125, -407.7837219238281, 250.13198852539062, 72.2567367553711, 0.03200000151991844, 0.03200000151991844, 1.055999994277954, 0.0, 0.0, 0.0, 0.0, 0.0, 1.621604471363319E9, 2021-05-21 15:41:11.363
65.0, -157.4011688232422, -368.6531677246094, 296.86578369140625, 119.1887435913086, 0.03200000151991844, 0.03200000151991844, 1.055999994277954, 0.0, 0.0, 0.0, 0.0, 0.0, 1.6216044713789625E9, 2021-05-21 15:41:11.378
65.0, -140.60528564453125, -338.9321594238281, 322.7271728515625, 145.71585083007812, 0.03200000151991844, 0.03200000151991844, 1.055999994277954, 0.0, 0.0, 0.0, 0.0, 0.0, 1.6216044713789625E9, 2021-05-21 15:41:11.378
66.0, -178.96543884277344, -390.3333435058594, 275.653076171875, 92.40357971191406, 0.03200000151991844, 0.03200000151991844, 1.055999994277954, 0.0, 0.0, 0.0, 0.0, 0.0, 1.6216044713796508E9, 2021-05-21 15:41:11.379
66.0, -188.4834747314453, -404.5561828613281, 259.6014099121094, 76.84185791015625, 0.03200000151991844, 0.03200000151991844, 1.055999994277954, 0.0, 0.0, 0.0, 0.0, 0.0, 1.6216044713796508E9, 2021-05-21 15:41:11.379
67.0, -159.84332275390625, -361.22198486328125, 302.2923583984375, 120.17233276367188, 0.03200000151991844, 0.03200000151991844, 1.055999994277954, 0.0, 0.0, 0.0, 0.0, 0.0, 1.6216044714096024E9, 2021-05-21 15:41:11.409
67.0, -144.97348022460938, -335.5438232421875, 323.09368896484375, 143.09791564941406, 0.03200000151991844, 0.03200000151991844, 1.055999994277954, 0.0, 0.0, 0.0, 0.0, 0.0, 1.6216044714096024E9, 2021-05-21 15:41:11.409
68.0, -180.19960021972656, -389.62652587890625, 271.3821105957031, 92.83740997314453, 0.03200000151991844, 0.03200000151991844, 1.055999994277954, 0.0, 0.0, 0.0, 0.0, 0.0, 1.6216044714103374E9, 2021-05-21 15:41:11.410
68.0, -186.72946166992188, -401.6390686035156, 257.8436584472656, 81.54290771484375, 0.03200000151991844, 0.03200000151991844, 1.055999994277954, 0.0, 0.0, 0.0, 0.0, 0.0, 1.6216044714103374E9, 2021-05-21 15:41:11.410
69.0, -155.6172332763672, -367.5685729980469, 299.95867919921875, 120.10501861572266, 0.03200000151991844, 0.03200000151991844, 1.055999994277954, 0.0, 0.0, 0.0, 0.0, 0.0, 1.6216044714110568E9, 2021-05-21 15:41:11.411
69.0, -149.0574493408203, -344.12689208984375, 316.9565124511719, 145.9290313720703, 0.03200000151991844, 0.03200000151991844, 1.055999994277954, 0.0, 0.0, 0.0, 0.0, 0.0, 1.6216044714110568E9, 2021-05-21 15:41:11.411
70.0, -187.15206909179688, -391.8143615722656, 263.69659423828125, 95.21598052978516, 0.03200000151991844, 0.03200000151991844, 1.055999994277954, 0.0, 0.0, 0.0, 0.0, 0.0, 1.621604471423333E9, 2021-05-21 15:41:11.423
70.0, -196.21759033203125, -412.653076171875, 248.70335388183594, 79.10823059082031, 0.03200000151991844, 0.03200000151991844, 1.055999994277954, 0.0, 0.0, 0.0, 0.0, 0.0, 1.621604471423333E9, 2021-05-21 15:41:11.423
71.0, -166.01416015625, -369.4759216308594, 294.22540283203125, 114.48394775390625, 0.03200000151991844, 0.03200000151991844, 1.055999994277954, 0.0, 0.0, 0.0, 0.0, 0.0, 1.6216044714389129E9, 2021-05-21 15:41:11.438
71.0, -146.9668426513672, -347.18988037109375, 309.4318542480469, 141.8899383544922, 0.03200000151991844, 0.03200000151991844, 1.055999994277954, 0.0, 0.0, 0.0, 0.0, 0.0, 1.6216044714389129E9, 2021-05-21 15:41:11.438
72.0, -184.7884521484375, -392.55487060546875, 262.7990417480469, 97.13829040527344, 0.03200000151991844, 0.03200000151991844, 1.055999994277954, 0.0, 0.0, 0.0, 0.0, 0.0, 1.6216044714396305E9, 2021-05-21 15:41:11.439
72.0, -193.92129516601562, -415.3533020019531, 242.2744598388672, 72.7017822265625, 0.03200000151991844, 0.03200000151991844, 1.055999994277954, 0.0, 0.0, 0.0, 0.0, 0.0, 1.6216044714396305E9, 2021-05-21 15:41:11.439
73.0, -161.2233428955078, -365.9417419433594, 291.7234191894531, 118.4071044921875, 0.03200000151991844, 0.03200000151991844, 1.055999994277954, 0.0, 0.0, 0.0, 0.0, 0.0, 1.621604471468652E9, 2021-05-21 15:41:11.468
73.0, -147.6923828125, -346.3259582519531, 318.5908508300781, 143.60281372070312, 0.03200000151991844, 0.03200000151991844, 1.055999994277954, 0.0, 0.0, 0.0, 0.0, 0.0, 1.621604471468652E9, 2021-05-21 15:41:11.468
74.0, -183.92828369140625, -390.85321044921875, 265.2823181152344, 91.1058349609375, 0.03200000151991844, 0.03200000151991844, 1.055999994277954, 0.0, 0.0, 0.0, 0.0, 0.0, 1.621604471484701E9, 2021-05-21 15:41:11.484
74.0, -196.14279174804688, -406.8711853027344, 249.0062713623047, 73.96961212158203, 0.03200000151991844, 0.03200000151991844, 1.055999994277954, 0.0, 0.0, 0.0, 0.0, 0.0, 1.621604471484701E9, 2021-05-21 15:41:11.484
75.0, -162.0723114013672, -364.5542297363281, 297.57635498046875, 115.62835693359375, 0.03200000151991844, 0.03200000151991844, 1.055999994277954, 0.0, 0.0, 0.0, 0.0, 0.0, 1.6216044714854786E9, 2021-05-21 15:41:11.485
75.0, -138.3351593017578, -340.5889587402344, 325.9771728515625, 143.68882751464844, 0.03200000151991844, 0.03200000151991844, 1.055999994277954, 0.0, 0.0, 0.0, 0.0, 0.0, 1.6216044714854786E9, 2021-05-21 15:41:11.485
76.0, -179.21974182128906, -391.960205078125, 275.3089904785156, 94.20246887207031, 0.03200000151991844, 0.03200000151991844, 1.055999994277954, 0.0, 0.0, 0.0, 0.0, 0.0, 1.6216044714860945E9, 2021-05-21 15:41:11.486
76.0, -188.89112854003906, -407.72015380859375, 252.05804443359375, 68.8272476196289, 0.03200000151991844, 0.03200000151991844, 1.055999994277954, 0.0, 0.0, 0.0, 0.0, 0.0, 1.6216044714860945E9, 2021-05-21 15:41:11.486
77.0, -160.3369903564453, -364.7935791015625, 301.13299560546875, 115.92755126953125, 0.03200000151991844, 0.03200000151991844, 1.055999994277954, 0.0, 0.0, 0.0, 0.0, 0.0, 1.6216044714993684E9, 2021-05-21 15:41:11.499
77.0, -140.60902404785156, -342.3205261230469, 326.90838623046875, 144.8668975830078, 0.03200000151991844, 0.03200000151991844, 1.055999994277954, 0.0, 0.0, 0.0, 0.0, 0.0, 1.6216044714993684E9, 2021-05-21 15:41:11.499
78.0, -181.70303344726562, -394.6080627441406, 271.9954528808594, 94.87191009521484, 0.03200000151991844, 0.03200000151991844, 1.055999994277954, 0.0, 0.0, 0.0, 0.0, 0.0, 1.6216044715146673E9, 2021-05-21 15:41:11.514
78.0, -194.6393585205078, -409.8257141113281, 251.69900512695312, 78.2779769897461, 0.03200000151991844, 0.03200000151991844, 1.055999994277954, 0.0, 0.0, 0.0, 0.0, 0.0, 1.6216044715146673E9, 2021-05-21 15:41:11.514
79.0, -163.5645294189453, -371.7423095703125, 291.46160888671875, 118.0480728149414, 0.03200000151991844, 0.03200000151991844, 1.055999994277954, 0.0, 0.0, 0.0, 0.0, 0.0, 1.6216044715154147E9, 2021-05-21 15:41:11.515
79.0, -142.52011108398438, -347.7022399902344, 318.4225769042969, 149.3622589111328, 0.03200000151991844, 0.03200000151991844, 1.055999994277954, 0.0, 0.0, 0.0, 0.0, 0.0, 1.6216044715154147E9, 2021-05-21 15:41:11.515
80.0, -179.45535278320312, -400.7489929199219, 265.8919372558594, 100.9417724609375, 0.03200000151991844, 0.03200000151991844, 1.055999994277954, 0.0, 0.0, 0.0, 0.0, 0.0, 1.6216044715288782E9, 2021-05-21 15:41:11.528
80.0, -200.0958709716797, -418.49481201171875, 242.93267822265625, 74.95694732666016, 0.03200000151991844, 0.03200000151991844, 1.055999994277954, 0.0, 0.0, 0.0, 0.0, 0.0, 1.6216044715288782E9, 2021-05-21 15:41:11.528
81.0, -161.45147705078125, -366.8542785644531, 292.01885986328125, 119.64875030517578, 0.03200000151991844, 0.03200000151991844, 1.055999994277954, 0.0, 0.0, 0.0, 0.0, 0.0, 1.6216044715296612E9, 2021-05-21 15:41:11.529
81.0, -143.27557373046875, -344.60186767578125, 311.2718811035156, 139.44778442382812, 0.03200000151991844, 0.03200000151991844, 1.055999994277954, 0.0, 0.0, 0.0, 0.0, 0.0, 1.6216044715296612E9, 2021-05-21 15:41:11.529
82.0, -179.8779754638672, -403.7895202636719, 262.3726806640625, 85.7465591430664, 0.03200000151991844, 0.03200000151991844, 1.055999994277954, 0.0, 0.0, 0.0, 0.0, 0.0, 1.6216044715432067E9, 2021-05-21 15:41:11.543
82.0, -186.98751831054688, -413.1467590332031, 252.34600830078125, 74.33238220214844, 0.03200000151991844, 0.03200000151991844, 1.055999994277954, 0.0, 0.0, 0.0, 0.0, 0.0, 1.6216044715432067E9, 2021-05-21 15:41:11.543
83.0, -162.0199432373047, -373.9563293457031, 291.1923522949219, 114.45028686523438, 0.03200000151991844, 0.03200000151991844, 1.055999994277954, 0.0, 0.0, 0.0, 0.0, 0.0, 1.6216044715589619E9, 2021-05-21 15:41:11.558
83.0, -138.80638122558594, -350.54083251953125, 320.2214660644531, 138.7110137939453, 0.03200000151991844, 0.03200000151991844, 1.055999994277954, 0.0, 0.0, 0.0, 0.0, 0.0, 1.6216044715589619E9, 2021-05-21 15:41:11.558
84.0, -181.22433471679688, -398.75933837890625, 264.1566162109375, 88.60758209228516, 0.03200000151991844, 0.03200000151991844, 1.055999994277954, 0.0, 0.0, 0.0, 0.0, 0.0, 1.6216044715596662E9, 2021-05-21 15:41:11.559
84.0, -193.26681518554688, -412.312744140625, 248.69960021972656, 75.17759704589844, 0.03200000151991844, 0.03200000151991844, 1.055999994277954, 0.0, 0.0, 0.0, 0.0, 0.0, 1.6216044715596662E9, 2021-05-21 15:41:11.559
85.0, -156.63075256347656, -369.98455810546875, 289.6103820800781, 117.21407318115234, 0.03200000151991844, 0.03200000151991844, 1.055999994277954, 0.0, 0.0, 0.0, 0.0, 0.0, 1.6216044715894675E9, 2021-05-21 15:41:11.589
85.0, -141.2036590576172, -344.5158386230469, 319.4285888671875, 140.42015075683594, 0.03200000151991844, 0.03200000151991844, 1.055999994277954, 0.0, 0.0, 0.0, 0.0, 0.0, 1.6216044715894675E9, 2021-05-21 15:41:11.589
86.0, -175.53221130371094, -399.447509765625, 266.580078125, 94.33710479736328, 0.03200000151991844, 0.03200000151991844, 1.055999994277954, 0.0, 0.0, 0.0, 0.0, 0.0, 1.6216044715900807E9, 2021-05-21 15:41:11.590
86.0, -185.0091094970703, -410.468994140625, 253.53155517578125, 80.83980560302734, 0.03200000151991844, 0.03200000151991844, 1.055999994277954, 0.0, 0.0, 0.0, 0.0, 0.0, 1.6216044715900807E9, 2021-05-21 15:41:11.590
87.0, -150.18690490722656, -365.2199401855469, 300.89739990234375, 123.70654296875, 0.03200000151991844, 0.03200000151991844, 1.055999994277954, 0.0, 0.0, 0.0, 0.0, 0.0, 1.6216044716039133E9, 2021-05-21 15:41:11.603
87.0, -139.2626495361328, -349.927490234375, 321.3583984375, 148.69281005859375, 0.03200000151991844, 0.03200000151991844, 1.055999994277954, 0.0, 0.0, 0.0, 0.0, 0.0, 1.6216044716039133E9, 2021-05-21 15:41:11.603
88.0, -177.2974395751953, -399.4661865234375, 267.7356872558594, 96.5511245727539, 0.03200000151991844, 0.03200000151991844, 1.055999994277954, 0.0, 0.0, 0.0, 0.0, 0.0, 1.6216044716047375E9, 2021-05-21 15:41:11.604
88.0, -188.655517578125, -411.8302917480469, 256.80023193359375, 78.13585662841797, 0.03200000151991844, 0.03200000151991844, 1.055999994277954, 0.0, 0.0, 0.0, 0.0, 0.0, 1.6216044716047375E9, 2021-05-21 15:41:11.604
89.0, -154.61868286132812, -370.84100341796875, 298.8292236328125, 118.25376892089844, 0.03200000151991844, 0.03200000151991844, 1.055999994277954, 0.0, 0.0, 0.0, 0.0, 0.0, 1.6216044716189861E9, 2021-05-21 15:41:11.618
89.0, -137.1309051513672, -353.7646179199219, 322.121337890625, 144.4255828857422, 0.03200000151991844, 0.03200000151991844, 1.055999994277954, 0.0, 0.0, 0.0, 0.0, 0.0, 1.6216044716189861E9, 2021-05-21 15:41:11.618
90.0, -177.7948455810547, -402.34967041015625, 265.6114196777344, 91.064697265625, 0.03200000151991844, 0.03200000151991844, 1.055999994277954, 0.0, 0.0, 0.0, 0.0, 0.0, 1.621604471619664E9, 2021-05-21 15:41:11.619
90.0, -186.83792114257812, -421.9766540527344, 247.40185546875, 72.45494842529297, 0.03200000151991844, 0.03200000151991844, 1.055999994277954, 0.0, 0.0, 0.0, 0.0, 0.0, 1.621604471619664E9, 2021-05-21 15:41:11.619
91.0, -156.18943786621094, -381.6530456542969, 294.1805419921875, 115.04867553710938, 0.03200000151991844, 0.03200000151991844, 1.055999994277954, 0.0, 0.0, 0.0, 0.0, 0.0, 1.621604471649367E9, 2021-05-21 15:41:11.649
91.0, -145.65414428710938, -353.7945251464844, 319.574462890625, 144.0441131591797, 0.03200000151991844, 0.03200000151991844, 1.055999994277954, 0.0, 0.0, 0.0, 0.0, 0.0, 1.621604471649367E9, 2021-05-21 15:41:11.649
92.0, -181.8339385986328, -396.197509765625, 267.78057861328125, 95.54135131835938, 0.03200000151991844, 0.03200000151991844, 1.055999994277954, 0.0, 0.0, 0.0, 0.0, 0.0, 1.6216044716500645E9, 2021-05-21 15:41:11.650
92.0, -194.2803192138672, -412.159423828125, 246.36590576171875, 75.44313049316406, 0.03200000151991844, 0.03200000151991844, 1.055999994277954, 0.0, 0.0, 0.0, 0.0, 0.0, 1.6216044716500645E9, 2021-05-21 15:41:11.650
93.0, -162.34158325195312, -372.288330078125, 294.86492919921875, 121.31674194335938, 0.03200000151991844, 0.03200000151991844, 1.055999994277954, 0.0, 0.0, 0.0, 0.0, 0.0, 1.6216044716639202E9, 2021-05-21 15:41:11.663
93.0, -143.9300537109375, -347.17864990234375, 324.481201171875, 148.202880859375, 0.03200000151991844, 0.03200000151991844, 1.055999994277954, 0.0, 0.0, 0.0, 0.0, 0.0, 1.6216044716639202E9, 2021-05-21 15:41:11.663
94.0, -176.16424560546875, -397.25592041015625, 270.4994812011719, 96.7269058227539, 0.03200000151991844, 0.03200000151991844, 1.055999994277954, 0.0, 0.0, 0.0, 0.0, 0.0, 1.6216044716646268E9, 2021-05-21 15:41:11.664
94.0, -188.40493774414062, -408.2998352050781, 250.43492126464844, 79.89361572265625, 0.03200000151991844, 0.03200000151991844, 1.055999994277954, 0.0, 0.0, 0.0, 0.0, 0.0, 1.6216044716646268E9, 2021-05-21 15:41:11.664
95.0, -157.4834442138672, -369.1617736816406, 302.5578918457031, 120.63233947753906, 0.03200000151991844, 0.03200000151991844, 1.055999994277954, 0.0, 0.0, 0.0, 0.0, 0.0, 1.6216044716790009E9, 2021-05-21 15:41:11.679
95.0, -137.93499755859375, -347.35443115234375, 324.1782531738281, 140.60340881347656, 0.03200000151991844, 0.03200000151991844, 1.055999994277954, 0.0, 0.0, 0.0, 0.0, 0.0, 1.6216044716790009E9, 2021-05-21 15:41:11.679
96.0, -167.40914916992188, -397.1811218261719, 278.1700134277344, 99.74126434326172, 0.03200000151991844, 0.03200000151991844, 1.055999994277954, 0.0, 0.0, 0.0, 0.0, 0.0, 1.6216044716796482E9, 2021-05-21 15:41:11.679
96.0, -178.7634735107422, -418.0647277832031, 260.7757568359375, 80.81736755371094, 0.03200000151991844, 0.03200000151991844, 1.055999994277954, 0.0, 0.0, 0.0, 0.0, 0.0, 1.6216044716796482E9, 2021-05-21 15:41:11.679
97.0, -151.33131408691406, -379.4988708496094, 302.8832702636719, 119.97038269042969, 0.03200000151991844, 0.03200000151991844, 1.055999994277954, 0.0, 0.0, 0.0, 0.0, 0.0, 1.6216044716932344E9, 2021-05-21 15:41:11.693
97.0, -138.77272033691406, -355.2792663574219, 320.7413024902344, 138.64370727539062, 0.03200000151991844, 0.03200000151991844, 1.055999994277954, 0.0, 0.0, 0.0, 0.0, 0.0, 1.6216044716932344E9, 2021-05-21 15:41:11.693
98.0, -180.06495666503906, -398.82666015625, 269.8861389160156, 94.51287841796875, 0.03200000151991844, 0.03200000151991844, 1.055999994277954, 0.0, 0.0, 0.0, 0.0, 0.0, 1.6216044717088811E9, 2021-05-21 15:41:11.708
98.0, -187.19320678710938, -414.2088928222656, 250.24044799804688, 78.45001220703125, 0.03200000151991844, 0.03200000151991844, 1.055999994277954, 0.0, 0.0, 0.0, 0.0, 0.0, 1.6216044717088811E9, 2021-05-21 15:41:11.708
99.0, -157.49465942382812, -378.8331604003906, 297.3070983886719, 124.16281127929688, 0.03200000151991844, 0.03200000151991844, 1.055999994277954, 0.0, 0.0, 0.0, 0.0, 0.0, 1.6216044717096307E9, 2021-05-21 15:41:11.709
99.0, -136.28195190429688, -350.2229309082031, 323.0151672363281, 148.4983367919922, 0.03200000151991844, 0.03200000151991844, 1.055999994277954, 0.0, 0.0, 0.0, 0.0, 0.0, 1.6216044717096307E9, 2021-05-21 15:41:11.709
100.0, -182.3799591064453, -402.0018310546875, 268.10595703125, 94.20246887207031, 0.03200000151991844, 0.03200000151991844, 1.055999994277954, 0.0, 0.0, 0.0, 0.0, 0.0, 1.62160447172389E9, 2021-05-21 15:41:11.723
100.0, -195.6865234375, -414.9493713378906, 246.8932342529297, 76.44542694091797, 0.03200000151991844, 0.03200000151991844, 1.055999994277954, 0.0, 0.0, 0.0, 0.0, 0.0, 1.62160447172389E9, 2021-05-21 15:41:11.723
0.0, -167.98695373535156, -371.7890625, 291.8374938964844, 122.90058898925781, 0.03200000151991844, 0.03200000151991844, 1.055999994277954, 0.0, 0.0, 0.0, 0.0, 0.0, 1.6216044717246296E9, 2021-05-21 15:41:11.724
1.0, -151.40797424316406, -346.75042724609375, 316.28521728515625, 147.43060302734375, 0.03200000151991844, 0.03200000151991844, 1.055999994277954, 0.0, 0.0, 0.0, 0.0, 0.0, 1.6216044717382517E9, 2021-05-21 15:41:11.738
1.0, -183.92640686035156, -392.44451904296875, 267.1130065917969, 92.2633285522461, 0.03200000151991844, 0.03200000151991844, 1.055999994277954, 0.0, 0.0, 0.0, 0.0, 0.0, 1.6216044717382517E9, 2021-05-21 15:41:11.738
2.0, -194.5926055908203, -410.0519714355469, 250.5789031982422, 76.61933135986328, 0.03200000151991844, 0.03200000151991844, 1.055999994277954, 0.0, 0.0, 0.0, 0.0, 0.0, 1.62160447175393E9, 2021-05-21 15:41:11.753
2.0, -165.60838317871094, -363.28826904296875, 294.11883544921875, 119.62444305419922, 0.03200000151991844, 0.03200000151991844, 1.055999994277954, 0.0, 0.0, 0.0, 0.0, 0.0, 1.62160447175393E9, 2021-05-21 15:41:11.753
3.0, -140.60714721679688, -342.8572082519531, 322.6280822753906, 145.3250274658203, 0.03200000151991844, 0.03200000151991844, 1.055999994277954, 0.0, 0.0, 0.0, 0.0, 0.0, 1.6216044717546124E9, 2021-05-21 15:41:11.754
3.0, -175.35455322265625, -393.7535095214844, 273.7513122558594, 99.19336700439453, 0.03200000151991844, 0.03200000151991844, 1.055999994277954, 0.0, 0.0, 0.0, 0.0, 0.0, 1.6216044717546124E9, 2021-05-21 15:41:11.754
4.0, -195.08627319335938, -411.6825866699219, 252.29925537109375, 80.08621978759766, 0.03200000151991844, 0.03200000151991844, 1.055999994277954, 0.0, 0.0, 0.0, 0.0, 0.0, 1.6216044717682495E9, 2021-05-21 15:41:11.768
4.0, -159.00372314453125, -369.5077209472656, 300.7608947753906, 122.93798828125, 0.03200000151991844, 0.03200000151991844, 1.055999994277954, 0.0, 0.0, 0.0, 0.0, 0.0, 1.6216044717682495E9, 2021-05-21 15:41:11.768
5.0, -146.78172302246094, -347.6255798339844, 325.5264892578125, 144.6555938720703, 0.03200000151991844, 0.03200000151991844, 1.055999994277954, 0.0, 0.0, 0.0, 0.0, 0.0, 1.621604471784048E9, 2021-05-21 15:41:11.784
5.0, -184.10218811035156, -399.8981628417969, 267.32244873046875, 97.75724792480469, 0.03200000151991844, 0.03200000151991844, 1.055999994277954, 0.0, 0.0, 0.0, 0.0, 0.0, 1.621604471784048E9, 2021-05-21 15:41:11.784
6.0, -194.14755249023438, -418.492919921875, 252.5423583984375, 78.20504760742188, 0.03200000151991844, 0.03200000151991844, 1.055999994277954, 0.0, 0.0, 0.0, 0.0, 0.0, 1.6216044717846663E9, 2021-05-21 15:41:11.784
6.0, -160.87367248535156, -371.5534362792969, 296.30291748046875, 124.13475799560547, 0.03200000151991844, 0.03200000151991844, 1.055999994277954, 0.0, 0.0, 0.0, 0.0, 0.0, 1.6216044717846663E9, 2021-05-21 15:41:11.784
7.0, -149.93072509765625, -346.57464599609375, 321.91375732421875, 148.3057403564453, 0.03200000151991844, 0.03200000151991844, 1.055999994277954, 0.0, 0.0, 0.0, 0.0, 0.0, 1.621604471798211E9, 2021-05-21 15:41:11.798
7.0, -188.88925170898438, -396.3826599121094, 265.9162292480469, 95.19915008544922, 0.03200000151991844, 0.03200000151991844, 1.055999994277954, 0.0, 0.0, 0.0, 0.0, 0.0, 1.621604471798211E9, 2021-05-21 15:41:11.798
8.0, -198.9944610595703, -416.297607421875, 248.39854431152344, 77.79740142822266, 0.03200000151991844, 0.03200000151991844, 1.055999994277954, 0.0, 0.0, 0.0, 0.0, 0.0, 1.6216044718139694E9, 2021-05-21 15:41:11.813
8.0, -163.37939453125, -368.06787109375, 299.28363037109375, 117.96766662597656, 0.03200000151991844, 0.03200000151991844, 1.055999994277954, 0.0, 0.0, 0.0, 0.0, 0.0, 1.6216044718139694E9, 2021-05-21 15:41:11.813
9.0, -149.2201385498047, -347.1206970214844, 319.6099853515625, 144.50599670410156, 0.03200000151991844, 0.03200000151991844, 1.055999994277954, 0.0, 0.0, 0.0, 0.0, 0.0, 1.6216044718147972E9, 2021-05-21 15:41:11.814
9.0, -187.43817138671875, -399.688720703125, 266.29022216796875, 91.75096893310547, 0.03200000151991844, 0.03200000151991844, 1.055999994277954, 0.0, 0.0, 0.0, 0.0, 0.0, 1.6216044718147972E9, 2021-05-21 15:41:11.814
10.0, -202.74185180664062, -410.885986328125, 247.84129333496094, 71.93697357177734, 0.03200000151991844, 0.03200000151991844, 1.055999994277954, 0.0, 0.0, 0.0, 0.0, 0.0, 1.621604471828236E9, 2021-05-21 15:41:11.828
10.0, -166.95474243164062, -370.9962158203125, 291.8374938964844, 117.5562744140625, 0.03200000151991844, 0.03200000151991844, 1.055999994277954, 0.0, 0.0, 0.0, 0.0, 0.0, 1.621604471828236E9, 2021-05-21 15:41:11.828
11.0, -145.02023315429688, -342.2326354980469, 321.248046875, 138.39500427246094, 0.03200000151991844, 0.03200000151991844, 1.055999994277954, 0.0, 0.0, 0.0, 0.0, 0.0, 1.621604471843932E9, 2021-05-21 15:41:11.843
11.0, -183.41404724121094, -392.915771484375, 270.131103515625, 88.60196685791016, 0.03200000151991844, 0.03200000151991844, 1.055999994277954, 0.0, 0.0, 0.0, 0.0, 0.0, 1.621604471843932E9, 2021-05-21 15:41:11.843
12.0, -186.9145965576172, -407.4078674316406, 254.00465393066406, 74.11734008789062, 0.03200000151991844, 0.03200000151991844, 1.055999994277954, 0.0, 0.0, 0.0, 0.0, 0.0, 1.621604471844694E9, 2021-05-21 15:41:11.844
12.0, -158.52874755859375, -369.6049499511719, 298.7899475097656, 115.46941375732422, 0.03200000151991844, 0.03200000151991844, 1.055999994277954, 0.0, 0.0, 0.0, 0.0, 0.0, 1.621604471844694E9, 2021-05-21 15:41:11.844
13.0, -145.5363311767578, -344.50274658203125, 320.7132568359375, 139.56558227539062, 0.03200000151991844, 0.03200000151991844, 1.055999994277954, 0.0, 0.0, 0.0, 0.0, 0.0, 1.621604471858271E9, 2021-05-21 15:41:11.858
13.0, -172.35516357421875, -393.0466613769531, 270.142333984375, 94.35767364501953, 0.03200000151991844, 0.03200000151991844, 1.055999994277954, 0.0, 0.0, 0.0, 0.0, 0.0, 1.621604471858271E9, 2021-05-21 15:41:11.858
14.0, -186.64532470703125, -413.5487976074219, 254.53945922851562, 70.12312316894531, 0.03200000151991844, 0.03200000151991844, 1.055999994277954, 0.0, 0.0, 0.0, 0.0, 0.0, 1.621604471873749E9, 2021-05-21 15:41:11.873
14.0, -159.06729125976562, -373.2027587890625, 296.4525146484375, 111.67715454101562, 0.03200000151991844, 0.03200000151991844, 1.055999994277954, 0.0, 0.0, 0.0, 0.0, 0.0, 1.621604471873749E9, 2021-05-21 15:41:11.873
15.0, -142.88475036621094, -356.107666015625, 316.0234069824219, 129.19483947753906, 0.03200000151991844, 0.03200000151991844, 1.055999994277954, 0.0, 0.0, 0.0, 0.0, 0.0, 1.6216044718888967E9, 2021-05-21 15:41:11.888
15.0, -183.17843627929688, -402.7068176269531, 269.46539306640625, 79.1325454711914, 0.03200000151991844, 0.03200000151991844, 1.055999994277954, 0.0, 0.0, 0.0, 0.0, 0.0, 1.6216044718888967E9, 2021-05-21 15:41:11.888
16.0, -194.78334045410156, -421.4212646484375, 251.2595672607422, 60.08897399902344, 0.03200000151991844, 0.03200000151991844, 1.055999994277954, 0.0, 0.0, 0.0, 0.0, 0.0, 1.6216044718895943E9, 2021-05-21 15:41:11.889
16.0, -163.72720336914062, -377.29046630859375, 294.7134704589844, 102.43585968017578, 0.03200000151991844, 0.03200000151991844, 1.055999994277954, 0.0, 0.0, 0.0, 0.0, 0.0, 1.6216044718895943E9, 2021-05-21 15:41:11.889
17.0, -146.39651489257812, -350.4267578125, 321.0199279785156, 123.38677978515625, 0.03200000151991844, 0.03200000151991844, 1.055999994277954, 0.0, 0.0, 0.0, 0.0, 0.0, 1.621604471904678E9, 2021-05-21 15:41:11.904
17.0, -177.5872802734375, -395.38409423828125, 269.9328918457031, 74.6745834350586, 0.03200000151991844, 0.03200000151991844, 1.055999994277954, 0.0, 0.0, 0.0, 0.0, 0.0, 1.621604471904678E9, 2021-05-21 15:41:11.904
18.0, -188.17120361328125, -412.2846984863281, 251.33062744140625, 56.02370071411133, 0.03200000151991844, 0.03200000151991844, 1.055999994277954, 0.0, 0.0, 0.0, 0.0, 0.0, 1.621604471905299E9, 2021-05-21 15:41:11.905
18.0, -154.78884887695312, -365.8688049316406, 307.4216613769531, 97.81334686279297, 0.03200000151991844, 0.03200000151991844, 1.055999994277954, 0.0, 0.0, 0.0, 0.0, 0.0, 1.621604471905299E9, 2021-05-21 15:41:11.905
19.0, -141.54212951660156, -343.3246765136719, 323.4246826171875, 117.96766662597656, 0.03200000151991844, 0.03200000151991844, 1.055999994277954, 0.0, 0.0, 0.0, 0.0, 0.0, 1.6216044719182932E9, 2021-05-21 15:41:11.918
19.0, -180.48570251464844, -391.43475341796875, 273.5157165527344, 72.20250701904297, 0.03200000151991844, 0.03200000151991844, 1.055999994277954, 0.0, 0.0, 0.0, 0.0, 0.0, 1.6216044719182932E9, 2021-05-21 15:41:11.918
20.0, -186.57052612304688, -405.6613464355469, 258.41400146484375, 59.55790710449219, 0.03200000151991844, 0.03200000151991844, 1.055999994277954, 0.0, 0.0, 0.0, 0.0, 0.0, 1.621604471933699E9, 2021-05-21 15:41:11.933
20.0, -151.7744903564453, -369.0963439941406, 300.7608947753906, 100.79778289794922, 0.03200000151991844, 0.03200000151991844, 1.055999994277954, 0.0, 0.0, 0.0, 0.0, 0.0, 1.621604471933699E9, 2021-05-21 15:41:11.933
21.0, -132.85433959960938, -342.3261413574219, 329.9320983886719, 128.05416870117188, 0.03200000151991844, 0.03200000151991844, 1.055999994277954, 0.0, 0.0, 0.0, 0.0, 0.0, 1.6216044719490337E9, 2021-05-21 15:41:11.949
21.0, -169.47543334960938, -389.3291931152344, 275.86810302734375, 79.76084899902344, 0.03200000151991844, 0.03200000151991844, 1.055999994277954, 0.0, 0.0, 0.0, 0.0, 0.0, 1.6216044719490337E9, 2021-05-21 15:41:11.949
22.0, -184.17324829101562, -413.34307861328125, 254.89100646972656, 59.08293914794922, 0.03200000151991844, 0.03200000151991844, 1.055999994277954, 0.0, 0.0, 0.0, 0.0, 0.0, 1.6216044719497523E9, 2021-05-21 15:41:11.949
22.0, -153.1694793701172, -366.9757995605469, 296.7853698730469, 98.81937408447266, 0.03200000151991844, 0.03200000151991844, 1.055999994277954, 0.0, 0.0, 0.0, 0.0, 0.0, 1.6216044719497523E9, 2021-05-21 15:41:11.949
23.0, -136.1230010986328, -351.3729553222656, 320.1073913574219, 124.99119567871094, 0.03200000151991844, 0.03200000151991844, 1.055999994277954, 0.0, 0.0, 0.0, 0.0, 0.0, 1.6216044719640143E9, 2021-05-21 15:41:11.964
23.0, -173.52200317382812, -398.6976318359375, 267.1279602050781, 71.27875518798828, 0.03200000151991844, 0.03200000151991844, 1.055999994277954, 0.0, 0.0, 0.0, 0.0, 0.0, 1.6216044719640143E9, 2021-05-21 15:41:11.964
24.0, -187.4232177734375, -418.2236633300781, 254.22157287597656, 61.842987060546875, 0.03200000151991844, 0.03200000151991844, 1.055999994277954, 0.0, 0.0, 0.0, 0.0, 0.0, 1.6216044719647176E9, 2021-05-21 15:41:11.964
24.0, -156.16139221191406, -375.1175842285156, 292.99310302734375, 99.8328857421875, 0.03200000151991844, 0.03200000151991844, 1.055999994277954, 0.0, 0.0, 0.0, 0.0, 0.0, 1.6216044719647176E9, 2021-05-21 15:41:11.964
25.0, -135.90609741210938, -353.6094055175781, 318.8844299316406, 124.64338684082031, 0.03200000151991844, 0.03200000151991844, 1.055999994277954, 0.0, 0.0, 0.0, 0.0, 0.0, 1.6216044719782257E9, 2021-05-21 15:41:11.978
25.0, -175.3769989013672, -394.1536560058594, 268.7772521972656, 75.89005279541016, 0.03200000151991844, 0.03200000151991844, 1.055999994277954, 0.0, 0.0, 0.0, 0.0, 0.0, 1.6216044719782257E9, 2021-05-21 15:41:11.978
26.0, -186.5780029296875, -410.9906921386719, 247.3251953125, 55.38043975830078, 0.03200000151991844, 0.03200000151991844, 1.055999994277954, 0.0, 0.0, 0.0, 0.0, 0.0, 1.621604471994384E9, 2021-05-21 15:41:11.994
26.0, -154.38119506835938, -371.7105407714844, 292.58544921875, 96.99430847167969, 0.03200000151991844, 0.03200000151991844, 1.055999994277954, 0.0, 0.0, 0.0, 0.0, 0.0, 1.621604471994384E9, 2021-05-21 15:41:11.994
27.0, -135.1543731689453, -342.4084167480469, 318.90313720703125, 124.31427764892578, 0.03200000151991844, 0.03200000151991844, 1.055999994277954, 0.0, 0.0, 0.0, 0.0, 0.0, 1.6216044720089326E9, 2021-05-21 15:41:12.008
27.0, -170.3804931640625, -388.0763244628906, 279.09564208984375, 77.98439025878906, 0.03200000151991844, 0.03200000151991844, 1.055999994277954, 0.0, 0.0, 0.0, 0.0, 0.0, 1.6216044720089326E9, 2021-05-21 15:41:12.008
28.0, -183.05874633789062, -403.10699462890625, 258.49627685546875, 57.934791564941406, 0.03200000151991844, 0.03200000151991844, 1.055999994277954, 0.0, 0.0, 0.0, 0.0, 0.0, 1.6216044720096753E9, 2021-05-21 15:41:12.009
28.0, -152.0138397216797, -359.488525390625, 308.99615478515625, 106.8564224243164, 0.03200000151991844, 0.03200000151991844, 1.055999994277954, 0.0, 0.0, 0.0, 0.0, 0.0, 1.6216044720096753E9, 2021-05-21 15:41:12.009
29.0, -130.25511169433594, -337.84197998046875, 330.1976318359375, 134.7598114013672, 0.03200000151991844, 0.03200000151991844, 1.055999994277954, 0.0, 0.0, 0.0, 0.0, 0.0, 1.6216044720239303E9, 2021-05-21 15:41:12.023
29.0, -168.2936248779297, -385.357421875, 280.8346862792969, 79.56636810302734, 0.03200000151991844, 0.03200000151991844, 1.055999994277954, 0.0, 0.0, 0.0, 0.0, 0.0, 1.6216044720239303E9, 2021-05-21 15:41:12.023
30.0, -175.5490264892578, -411.6863098144531, 266.11444091796875, 64.63668823242188, 0.03200000151991844, 0.03200000151991844, 1.055999994277954, 0.0, 0.0, 0.0, 0.0, 0.0, 1.6216044720247047E9, 2021-05-21 15:41:12.024
30.0, -144.78836059570312, -365.70050048828125, 309.8376159667969, 101.96089172363281, 0.03200000151991844, 0.03200000151991844, 1.055999994277954, 0.0, 0.0, 0.0, 0.0, 0.0, 1.6216044720247047E9, 2021-05-21 15:41:12.024
31.0, -130.7749481201172, -351.4589538574219, 329.83111572265625, 130.38787841796875, 0.03200000151991844, 0.03200000151991844, 1.055999994277954, 0.0, 0.0, 0.0, 0.0, 0.0, 1.6216044720553167E9, 2021-05-21 15:41:12.055
31.0, -166.4049835205078, -400.7321472167969, 276.6871337890625, 81.90754699707031, 0.03200000151991844, 0.03200000151991844, 1.055999994277954, 0.0, 0.0, 0.0, 0.0, 0.0, 1.6216044720553167E9, 2021-05-21 15:41:12.055
32.0, -178.67184448242188, -420.95379638671875, 254.0570068359375, 59.5915641784668, 0.03200000151991844, 0.03200000151991844, 1.055999994277954, 0.0, 0.0, 0.0, 0.0, 0.0, 1.6216044720560355E9, 2021-05-21 15:41:12.056
32.0, -150.25982666015625, -377.11468505859375, 294.7957458496094, 108.96946716308594, 0.03200000151991844, 0.03200000151991844, 1.055999994277954, 0.0, 0.0, 0.0, 0.0, 0.0, 1.6216044720560355E9, 2021-05-21 15:41:12.056
33.0, -137.50303649902344, -354.09185791015625, 317.1865234375, 127.81108093261719, 0.03200000151991844, 0.03200000151991844, 1.055999994277954, 0.0, 0.0, 0.0, 0.0, 0.0, 1.62160447205676E9, 2021-05-21 15:41:12.056
33.0, -177.57232666015625, -393.4281311035156, 257.7557678222656, 78.90441131591797, 0.03200000151991844, 0.03200000151991844, 1.055999994277954, 0.0, 0.0, 0.0, 0.0, 0.0, 1.62160447205676E9, 2021-05-21 15:41:12.056
34.0, -193.95681762695312, -409.90985107421875, 247.16812133789062, 60.91175079345703, 0.03200000151991844, 0.03200000151991844, 1.055999994277954, 0.0, 0.0, 0.0, 0.0, 0.0, 1.621604472068328E9, 2021-05-21 15:41:12.068
34.0, -153.73045349121094, -368.58770751953125, 293.0379943847656, 103.24742126464844, 0.03200000151991844, 0.03200000151991844, 1.055999994277954, 0.0, 0.0, 0.0, 0.0, 0.0, 1.621604472068328E9, 2021-05-21 15:41:12.068
35.0, -135.7340545654297, -342.30743408203125, 321.1321105957031, 130.47015380859375, 0.03200000151991844, 0.03200000151991844, 1.055999994277954, 0.0, 0.0, 0.0, 0.0, 0.0, 1.6216044720839753E9, 2021-05-21 15:41:12.083
35.0, -173.90721130371094, -397.306396484375, 269.637451171875, 78.56407928466797, 0.03200000151991844, 0.03200000151991844, 1.055999994277954, 0.0, 0.0, 0.0, 0.0, 0.0, 1.6216044720839753E9, 2021-05-21 15:41:12.083
36.0, -196.00254821777344, -414.0387268066406, 250.74346923828125, 54.329524993896484, 0.03200000151991844, 0.03200000151991844, 1.055999994277954, 0.0, 0.0, 0.0, 0.0, 0.0, 1.6216044720847716E9, 2021-05-21 15:41:12.084
36.0, -154.2615203857422, -362.8058166503906, 299.3210144042969, 104.70597839355469, 0.03200000151991844, 0.03200000151991844, 1.055999994277954, 0.0, 0.0, 0.0, 0.0, 0.0, 1.6216044720847716E9, 2021-05-21 15:41:12.084
37.0, -139.5113525390625, -339.8914489746094, 325.765869140625, 126.86488342285156, 0.03200000151991844, 0.03200000151991844, 1.055999994277954, 0.0, 0.0, 0.0, 0.0, 0.0, 1.6216044721153069E9, 2021-05-21 15:41:12.115
37.0, -178.19688415527344, -391.5357360839844, 275.2622375488281, 79.07644653320312, 0.03200000151991844, 0.03200000151991844, 1.055999994277954, 0.0, 0.0, 0.0, 0.0, 0.0, 1.6216044721153069E9, 2021-05-21 15:41:12.115
38.0, -191.8363037109375, -405.616455078125, 258.15594482421875, 58.94456481933594, 0.03200000151991844, 0.03200000151991844, 1.055999994277954, 0.0, 0.0, 0.0, 0.0, 0.0, 1.6216044721160407E9, 2021-05-21 15:41:12.116
38.0, -151.6922149658203, -364.066162109375, 312.0740966796875, 104.18987274169922, 0.03200000151991844, 0.03200000151991844, 1.055999994277954, 0.0, 0.0, 0.0, 0.0, 0.0, 1.6216044721160407E9, 2021-05-21 15:41:12.116
39.0, -130.03819274902344, -336.2113952636719, 337.9803771972656, 125.13331604003906, 0.03200000151991844, 0.03200000151991844, 1.055999994277954, 0.0, 0.0, 0.0, 0.0, 0.0, 1.621604472116754E9, 2021-05-21 15:41:12.116
39.0, -173.70526123046875, -389.2955322265625, 282.17730712890625, 75.73297119140625, 0.03200000151991844, 0.03200000151991844, 1.055999994277954, 0.0, 0.0, 0.0, 0.0, 0.0, 1.621604472116754E9, 2021-05-21 15:41:12.116
40.0, -185.49342346191406, -409.3301696777344, 262.1539001464844, 56.77915954589844, 0.03200000151991844, 0.03200000151991844, 1.055999994277954, 0.0, 0.0, 0.0, 0.0, 0.0, 1.6216044721446297E9, 2021-05-21 15:41:12.144
40.0, -151.66229248046875, -365.8987121582031, 303.30401611328125, 103.59149169921875, 0.03200000151991844, 0.03200000151991844, 1.055999994277954, 0.0, 0.0, 0.0, 0.0, 0.0, 1.6216044721446297E9, 2021-05-21 15:41:12.144
41.0, -134.27549743652344, -349.3608703613281, 326.3044128417969, 124.51622772216797, 0.03200000151991844, 0.03200000151991844, 1.055999994277954, 0.0, 0.0, 0.0, 0.0, 0.0, 1.6216044721453094E9, 2021-05-21 15:41:12.145
41.0, -174.57666015625, -399.0828552246094, 267.17657470703125, 66.7459945678711, 0.03200000151991844, 0.03200000151991844, 1.055999994277954, 0.0, 0.0, 0.0, 0.0, 0.0, 1.6216044721453094E9, 2021-05-21 15:41:12.145
42.0, -189.2071533203125, -412.9990234375, 251.82803344726562, 53.0467414855957, 0.03200000151991844, 0.03200000151991844, 1.055999994277954, 0.0, 0.0, 0.0, 0.0, 0.0, 1.6216044721460693E9, 2021-05-21 15:41:12.146
42.0, -160.27902221679688, -367.0393981933594, 299.7398986816406, 99.87776947021484, 0.03200000151991844, 0.03200000151991844, 1.055999994277954, 0.0, 0.0, 0.0, 0.0, 0.0, 1.6216044721460693E9, 2021-05-21 15:41:12.146
43.0, -142.50328063964844, -350.509033203125, 318.0653991699219, 126.05706787109375, 0.03200000151991844, 0.03200000151991844, 1.055999994277954, 0.0, 0.0, 0.0, 0.0, 0.0, 1.6216044721746335E9, 2021-05-21 15:41:12.174
43.0, -178.01736450195312, -397.1007080078125, 271.5148620605469, 71.57046508789062, 0.03200000151991844, 0.03200000151991844, 1.055999994277954, 0.0, 0.0, 0.0, 0.0, 0.0, 1.6216044721746335E9, 2021-05-21 15:41:12.174
44.0, -193.24998474121094, -413.6722106933594, 252.4862518310547, 53.21129608154297, 0.03200000151991844, 0.03200000151991844, 1.055999994277954, 0.0, 0.0, 0.0, 0.0, 0.0, 1.6216044721753244E9, 2021-05-21 15:41:12.175
44.0, -158.07247924804688, -369.40301513671875, 294.1337890625, 93.80790710449219, 0.03200000151991844, 0.03200000151991844, 1.055999994277954, 0.0, 0.0, 0.0, 0.0, 0.0, 1.6216044721753244E9, 2021-05-21 15:41:12.175
45.0, -135.58445739746094, -344.3606262207031, 323.7762145996094, 123.28580474853516, 0.03200000151991844, 0.03200000151991844, 1.055999994277954, 0.0, 0.0, 0.0, 0.0, 0.0, 1.621604472176035E9, 2021-05-21 15:41:12.176
45.0, -171.57725524902344, -394.36309814453125, 271.05487060546875, 71.30867004394531, 0.03200000151991844, 0.03200000151991844, 1.055999994277954, 0.0, 0.0, 0.0, 0.0, 0.0, 1.621604472176035E9, 2021-05-21 15:41:12.176
46.0, -185.01846313476562, -409.29278564453125, 246.8203125, 53.87699890136719, 0.03200000151991844, 0.03200000151991844, 1.055999994277954, 0.0, 0.0, 0.0, 0.0, 0.0, 1.6216044721883564E9, 2021-05-21 15:41:12.188
46.0, -154.657958984375, -359.25665283203125, 301.1573181152344, 98.946533203125, 0.03200000151991844, 0.03200000151991844, 1.055999994277954, 0.0, 0.0, 0.0, 0.0, 0.0, 1.6216044721883564E9, 2021-05-21 15:41:12.188
47.0, -137.41326904296875, -341.91473388671875, 331.24853515625, 121.92447662353516, 0.03200000151991844, 0.03200000151991844, 1.055999994277954, 0.0, 0.0, 0.0, 0.0, 0.0, 1.6216044722040057E9, 2021-05-21 15:41:12.204
47.0, -179.54324340820312, -393.2972412109375, 278.79644775390625, 77.12421417236328, 0.03200000151991844, 0.03200000151991844, 1.055999994277954, 0.0, 0.0, 0.0, 0.0, 0.0, 1.6216044722040057E9, 2021-05-21 15:41:12.204
48.0, -180.8596954345703, -404.58050537109375, 265.0411071777344, 57.83755111694336, 0.03200000151991844, 0.03200000151991844, 1.055999994277954, 0.0, 0.0, 0.0, 0.0, 0.0, 1.6216044722047527E9, 2021-05-21 15:41:12.204
48.0, -151.23594665527344, -358.76300048828125, 314.8603210449219, 103.08660125732422, 0.03200000151991844, 0.03200000151991844, 1.055999994277954, 0.0, 0.0, 0.0, 0.0, 0.0, 1.6216044722047527E9, 2021-05-21 15:41:12.204
49.0, -133.2395477294922, -341.1181335449219, 337.8719177246094, 127.94945526123047, 0.03200000151991844, 0.03200000151991844, 1.055999994277954, 0.0, 0.0, 0.0, 0.0, 0.0, 1.6216044722347305E9, 2021-05-21 15:41:12.234
49.0, -170.44407653808594, -393.1326599121094, 283.6171875, 72.33714294433594, 0.03200000151991844, 0.03200000151991844, 1.055999994277954, 0.0, 0.0, 0.0, 0.0, 0.0, 1.6216044722347305E9, 2021-05-21 15:41:12.234
50.0, -182.3668670654297, -405.7062072753906, 253.49603271484375, 59.29985427856445, 0.03200000151991844, 0.03200000151991844, 1.055999994277954, 0.0, 0.0, 0.0, 0.0, 0.0, 1.6216044722354531E9, 2021-05-21 15:41:12.235
50.0, -155.1104736328125, -372.7763977050781, 304.1305236816406, 100.21810150146484, 0.03200000151991844, 0.03200000151991844, 1.055999994277954, 0.0, 0.0, 0.0, 0.0, 0.0, 1.6216044722354531E9, 2021-05-21 15:41:12.235
51.0, -141.5570831298828, -346.7354736328125, 321.5509948730469, 124.47135162353516, 0.03200000151991844, 0.03200000151991844, 1.055999994277954, 0.0, 0.0, 0.0, 0.0, 0.0, 1.6216044722361007E9, 2021-05-21 15:41:12.236
51.0, -177.12353515625, -393.5664978027344, 266.1481018066406, 73.2721176147461, 0.03200000151991844, 0.03200000151991844, 1.055999994277954, 0.0, 0.0, 0.0, 0.0, 0.0, 1.6216044722361007E9, 2021-05-21 15:41:12.236
52.0, -188.27964782714844, -412.5016174316406, 253.170654296875, 57.912349700927734, 0.03200000151991844, 0.03200000151991844, 1.055999994277954, 0.0, 0.0, 0.0, 0.0, 0.0, 1.6216044722482388E9, 2021-05-21 15:41:12.248
52.0, -156.27732849121094, -371.3028869628906, 296.6095886230469, 103.66629028320312, 0.03200000151991844, 0.03200000151991844, 1.055999994277954, 0.0, 0.0, 0.0, 0.0, 0.0, 1.6216044722482388E9, 2021-05-21 15:41:12.248
53.0, -140.9923553466797, -349.675048828125, 310.2602233886719, 116.14633178710938, 0.03200000151991844, 0.03200000151991844, 1.055999994277954, 0.0, 0.0, 0.0, 0.0, 0.0, 1.6216044722640486E9, 2021-05-21 15:41:12.264
53.0, -176.5700225830078, -393.2411193847656, 267.00830078125, 75.42256164550781, 0.03200000151991844, 0.03200000151991844, 1.055999994277954, 0.0, 0.0, 0.0, 0.0, 0.0, 1.6216044722640486E9, 2021-05-21 15:41:12.264
54.0, -185.20545959472656, -405.7398681640625, 260.9683532714844, 64.00090789794922, 0.03200000151991844, 0.03200000151991844, 1.055999994277954, 0.0, 0.0, 0.0, 0.0, 0.0, 1.6216044722647653E9, 2021-05-21 15:41:12.264
54.0, -147.4923095703125, -364.6159362792969, 303.887451171875, 102.36853790283203, 0.03200000151991844, 0.03200000151991844, 1.055999994277954, 0.0, 0.0, 0.0, 0.0, 0.0, 1.6216044722647653E9, 2021-05-21 15:41:12.264
55.0, -132.67481994628906, -343.8819274902344, 331.3831787109375, 122.73603820800781, 0.03200000151991844, 0.03200000151991844, 1.055999994277954, 0.0, 0.0, 0.0, 0.0, 0.0, 1.621604472295071E9, 2021-05-21 15:41:12.295
55.0, -169.7372283935547, -391.8611145019531, 278.5982360839844, 78.73611450195312, 0.03200000151991844, 0.03200000151991844, 1.055999994277954, 0.0, 0.0, 0.0, 0.0, 0.0, 1.621604472295071E9, 2021-05-21 15:41:12.295
56.0, -185.7701873779297, -407.43780517578125, 256.1588439941406, 56.674442291259766, 0.03200000151991844, 0.03200000151991844, 1.055999994277954, 0.0, 0.0, 0.0, 0.0, 0.0, 1.62160447230983E9, 2021-05-21 15:41:12.309
56.0, -152.32424926757812, -364.9300842285156, 309.32525634765625, 103.15766143798828, 0.03200000151991844, 0.03200000151991844, 1.055999994277954, 0.0, 0.0, 0.0, 0.0, 0.0, 1.62160447230983E9, 2021-05-21 15:41:12.309
57.0, -124.45825958251953, -337.9654235839844, 336.51806640625, 130.8628387451172, 0.03200000151991844, 0.03200000151991844, 1.055999994277954, 0.0, 0.0, 0.0, 0.0, 0.0, 1.6216044723104317E9, 2021-05-21 15:41:12.310
57.0, -164.80430603027344, -391.6666259765625, 287.0317077636719, 76.67543029785156, 0.03200000151991844, 0.03200000151991844, 1.055999994277954, 0.0, 0.0, 0.0, 0.0, 0.0, 1.6216044723104317E9, 2021-05-21 15:41:12.310
58.0, -180.00698852539062, -408.82904052734375, 266.9447021484375, 61.487693786621094, 0.03200000151991844, 0.03200000151991844, 1.055999994277954, 0.0, 0.0, 0.0, 0.0, 0.0, 1.6216044723110957E9, 2021-05-21 15:41:12.311
58.0, -151.770751953125, -367.57794189453125, 302.8178405761719, 103.98043823242188, 0.03200000151991844, 0.03200000151991844, 1.055999994277954, 0.0, 0.0, 0.0, 0.0, 0.0, 1.6216044723110957E9, 2021-05-21 15:41:12.311
59.0, -136.4595947265625, -349.2711181640625, 323.62664794921875, 128.12522888183594, 0.03200000151991844, 0.03200000151991844, 1.055999994277954, 0.0, 0.0, 0.0, 0.0, 0.0, 1.6216044723239036E9, 2021-05-21 15:41:12.323
59.0, -175.00674438476562, -396.31158447265625, 274.4731140136719, 80.68086242675781, 0.03200000151991844, 0.03200000151991844, 1.055999994277954, 0.0, 0.0, 0.0, 0.0, 0.0, 1.6216044723239036E9, 2021-05-21 15:41:12.323
60.0, -188.5302276611328, -414.2855529785156, 259.5359802246094, 69.97352600097656, 0.03200000151991844, 0.03200000151991844, 1.055999994277954, 0.0, 0.0, 0.0, 0.0, 0.0, 1.6216044723246694E9, 2021-05-21 15:41:12.324
60.0, -158.0762176513672, -370.6670837402344, 294.7583312988281, 107.14065551757812, 0.03200000151991844, 0.03200000151991844, 1.055999994277954, 0.0, 0.0, 0.0, 0.0, 0.0, 1.6216044723246694E9, 2021-05-21 15:41:12.324
61.0, -143.8384246826172, -348.54559326171875, 319.56884765625, 133.7911834716797, 0.03200000151991844, 0.03200000151991844, 1.055999994277954, 0.0, 0.0, 0.0, 0.0, 0.0, 1.62160447235448E9, 2021-05-21 15:41:12.354
61.0, -176.2409210205078, -397.2690124511719, 266.5333251953125, 89.99320983886719, 0.03200000151991844, 0.03200000151991844, 1.055999994277954, 0.0, 0.0, 0.0, 0.0, 0.0, 1.62160447235448E9, 2021-05-21 15:41:12.354
62.0, -191.114501953125, -414.0574035644531, 254.2327880859375, 75.00369262695312, 0.03200000151991844, 0.03200000151991844, 1.055999994277954, 0.0, 0.0, 0.0, 0.0, 0.0, 1.621604472355193E9, 2021-05-21 15:41:12.355
62.0, -159.2729949951172, -372.0957336425781, 300.5028381347656, 115.7499008178711, 0.03200000151991844, 0.03200000151991844, 1.055999994277954, 0.0, 0.0, 0.0, 0.0, 0.0, 1.621604472355193E9, 2021-05-21 15:41:12.355
63.0, -147.47360229492188, -347.30767822265625, 316.1281433105469, 142.5687255859375, 0.03200000151991844, 0.03200000151991844, 1.055999994277954, 0.0, 0.0, 0.0, 0.0, 0.0, 1.6216044723689656E9, 2021-05-21 15:41:12.368
63.0, -185.37001037597656, -387.2311096191406, 270.4078674316406, 93.27310180664062, 0.03200000151991844, 0.03200000151991844, 1.055999994277954, 0.0, 0.0, 0.0, 0.0, 0.0, 1.6216044723689656E9, 2021-05-21 15:41:12.368
64.0, -194.330810546875, -407.4901428222656, 262.1800842285156, 75.76663208007812, 0.03200000151991844, 0.03200000151991844, 1.055999994277954, 0.0, 0.0, 0.0, 0.0, 0.0, 1.6216044723696704E9, 2021-05-21 15:41:12.369
64.0, -155.0768280029297, -368.66998291015625, 304.81494140625, 122.42188262939453, 0.03200000151991844, 0.03200000151991844, 1.055999994277954, 0.0, 0.0, 0.0, 0.0, 0.0, 1.6216044723696704E9, 2021-05-21 15:41:12.369
65.0, -138.4866180419922, -349.312255859375, 327.3440856933594, 141.9778289794922, 0.03200000151991844, 0.03200000151991844, 1.055999994277954, 0.0, 0.0, 0.0, 0.0, 0.0, 1.6216044723844392E9, 2021-05-21 15:41:12.384
65.0, -177.4152374267578, -399.3072509765625, 273.9944152832031, 91.317138671875, 0.03200000151991844, 0.03200000151991844, 1.055999994277954, 0.0, 0.0, 0.0, 0.0, 0.0, 1.6216044723844392E9, 2021-05-21 15:41:12.384
66.0, -189.86163330078125, -406.1849365234375, 261.6789245605469, 77.408447265625, 0.03200000151991844, 0.03200000151991844, 1.055999994277954, 0.0, 0.0, 0.0, 0.0, 0.0, 1.6216044723996737E9, 2021-05-21 15:41:12.399
66.0, -161.6478271484375, -367.1366271972656, 308.89141845703125, 129.21728515625, 0.03200000151991844, 0.03200000151991844, 1.055999994277954, 0.0, 0.0, 0.0, 0.0, 0.0, 1.6216044723996737E9, 2021-05-21 15:41:12.399
67.0, -141.33642578125, -345.2432556152344, 327.1571044921875, 152.84971618652344, 0.03200000151991844, 0.03200000151991844, 1.055999994277954, 0.0, 0.0, 0.0, 0.0, 0.0, 1.6216044724004536E9, 2021-05-21 15:41:12.400
67.0, -178.2305450439453, -394.90911865234375, 274.12530517578125, 97.95545959472656, 0.03200000151991844, 0.03200000151991844, 1.055999994277954, 0.0, 0.0, 0.0, 0.0, 0.0, 1.6216044724004536E9, 2021-05-21 15:41:12.400
68.0, -187.0006103515625, -417.1877136230469, 251.20347595214844, 85.378173828125, 0.03200000151991844, 0.03200000151991844, 1.055999994277954, 0.0, 0.0, 0.0, 0.0, 0.0, 1.6216044724138815E9, 2021-05-21 15:41:12.413
68.0, -158.60728454589844, -372.5707092285156, 300.7347106933594, 124.381591796875, 0.03200000151991844, 0.03200000151991844, 1.055999994277954, 0.0, 0.0, 0.0, 0.0, 0.0, 1.6216044724138815E9, 2021-05-21 15:41:12.413
69.0, -142.38734436035156, -351.3018798828125, 319.2060852050781, 150.8787841796875, 0.03200000151991844, 0.03200000151991844, 1.055999994277954, 0.0, 0.0, 0.0, 0.0, 0.0, 1.621604472414617E9, 2021-05-21 15:41:12.414
69.0, -184.60333251953125, -399.8233642578125, 266.7203063964844, 97.29349517822266, 0.03200000151991844, 0.03200000151991844, 1.055999994277954, 0.0, 0.0, 0.0, 0.0, 0.0, 1.621604472414617E9, 2021-05-21 15:41:12.414
70.0, -196.021240234375, -414.3304138183594, 247.63934326171875, 79.6748275756836, 0.03200000151991844, 0.03200000151991844, 1.055999994277954, 0.0, 0.0, 0.0, 0.0, 0.0, 1.621604472428276E9, 2021-05-21 15:41:12.428
70.0, -161.65904235839844, -371.366455078125, 290.7604064941406, 129.28834533691406, 0.03200000151991844, 0.03200000151991844, 1.055999994277954, 0.0, 0.0, 0.0, 0.0, 0.0, 1.621604472428276E9, 2021-05-21 15:41:12.428
71.0, -138.10890197753906, -348.7550354003906, 318.9367980957031, 145.4933319091797, 0.03200000151991844, 0.03200000151991844, 1.055999994277954, 0.0, 0.0, 0.0, 0.0, 0.0, 1.6216044724438844E9, 2021-05-21 15:41:12.443
71.0, -178.11834716796875, -390.9747619628906, 264.192138671875, 98.55758666992188, 0.03200000151991844, 0.03200000151991844, 1.055999994277954, 0.0, 0.0, 0.0, 0.0, 0.0, 1.6216044724438844E9, 2021-05-21 15:41:12.443
72.0, -187.61395263671875, -406.5514221191406, 249.38587951660156, 82.50967407226562, 0.03200000151991844, 0.03200000151991844, 1.055999994277954, 0.0, 0.0, 0.0, 0.0, 0.0, 1.621604472444646E9, 2021-05-21 15:41:12.444
72.0, -156.68124389648438, -367.0693054199219, 298.0831298828125, 126.45349884033203, 0.03200000151991844, 0.03200000151991844, 1.055999994277954, 0.0, 0.0, 0.0, 0.0, 0.0, 1.621604472444646E9, 2021-05-21 15:41:12.444
73.0, -141.78521728515625, -341.93719482421875, 318.6114196777344, 151.49586486816406, 0.03200000151991844, 0.03200000151991844, 1.055999994277954, 0.0, 0.0, 0.0, 0.0, 0.0, 1.621604472458264E9, 2021-05-21 15:41:12.458
73.0, -178.98226928710938, -390.6082458496094, 273.1866149902344, 102.83976745605469, 0.03200000151991844, 0.03200000151991844, 1.055999994277954, 0.0, 0.0, 0.0, 0.0, 0.0, 1.621604472458264E9, 2021-05-21 15:41:12.458
74.0, -186.77621459960938, -402.6656799316406, 260.119384765625, 88.55709075927734, 0.03200000151991844, 0.03200000151991844, 1.055999994277954, 0.0, 0.0, 0.0, 0.0, 0.0, 1.6216044725060763E9, 2021-05-21 15:41:12.506
74.0, -154.76266479492188, -367.21142578125, 303.9622497558594, 124.95005798339844, 0.03200000151991844, 0.03200000151991844, 1.055999994277954, 0.0, 0.0, 0.0, 0.0, 0.0, 1.6216044725060763E9, 2021-05-21 15:41:12.506
75.0, -134.78411865234375, -341.76141357421875, 329.7039794921875, 153.25735473632812, 0.03200000151991844, 0.03200000151991844, 1.055999994277954, 0.0, 0.0, 0.0, 0.0, 0.0, 1.6216044725067897E9, 2021-05-21 15:41:12.506
75.0, -174.67015075683594, -397.1605529785156, 271.668212890625, 98.60993957519531, 0.03200000151991844, 0.03200000151991844, 1.055999994277954, 0.0, 0.0, 0.0, 0.0, 0.0, 1.6216044725067897E9, 2021-05-21 15:41:12.506
76.0, -182.06019592285156, -412.0079345703125, 256.1326599121094, 82.21796417236328, 0.03200000151991844, 0.03200000151991844, 1.055999994277954, 0.0, 0.0, 0.0, 0.0, 0.0, 1.6216044725075357E9, 2021-05-21 15:41:12.507
76.0, -155.87716674804688, -368.0155029296875, 304.02581787109375, 125.7616195678711, 0.03200000151991844, 0.03200000151991844, 1.055999994277954, 0.0, 0.0, 0.0, 0.0, 0.0, 1.6216044725075357E9, 2021-05-21 15:41:12.507
77.0, -142.08067321777344, -342.5056457519531, 318.6226501464844, 151.18545532226562, 0.03200000151991844, 0.03200000151991844, 1.055999994277954, 0.0, 0.0, 0.0, 0.0, 0.0, 1.621604472508207E9, 2021-05-21 15:41:12.508
77.0, -184.4088592529297, -393.749755859375, 266.3687744140625, 100.21061706542969, 0.03200000151991844, 0.03200000151991844, 1.055999994277954, 0.0, 0.0, 0.0, 0.0, 0.0, 1.621604472508207E9, 2021-05-21 15:41:12.508
78.0, -193.30233764648438, -404.25140380859375, 255.18272399902344, 85.18743896484375, 0.03200000151991844, 0.03200000151991844, 1.055999994277954, 0.0, 0.0, 0.0, 0.0, 0.0, 1.6216044725191474E9, 2021-05-21 15:41:12.519
78.0, -164.25453186035156, -361.4519958496094, 295.2557373046875, 126.94342041015625, 0.03200000151991844, 0.03200000151991844, 1.055999994277954, 0.0, 0.0, 0.0, 0.0, 0.0, 1.6216044725191474E9, 2021-05-21 15:41:12.519
79.0, -139.24581909179688, -342.3822326660156, 321.775390625, 151.8212432861328, 0.03200000151991844, 0.03200000151991844, 1.055999994277954, 0.0, 0.0, 0.0, 0.0, 0.0, 1.6216044725196817E9, 2021-05-21 15:41:12.519
79.0, -174.3709716796875, -388.1847839355469, 268.86328125, 102.99684143066406, 0.03200000151991844, 0.03200000151991844, 1.055999994277954, 0.0, 0.0, 0.0, 0.0, 0.0, 1.6216044725196817E9, 2021-05-21 15:41:12.519
80.0, -188.46290588378906, -411.4544372558594, 249.29986572265625, 84.41702270507812, 0.03200000151991844, 0.03200000151991844, 1.055999994277954, 0.0, 0.0, 0.0, 0.0, 0.0, 1.6216044725340135E9, 2021-05-21 15:41:12.534
80.0, -159.89007568359375, -366.7850646972656, 291.6766662597656, 123.56629180908203, 0.03200000151991844, 0.03200000151991844, 1.055999994277954, 0.0, 0.0, 0.0, 0.0, 0.0, 1.6216044725340135E9, 2021-05-21 15:41:12.534
81.0, -141.13821411132812, -338.61614990234375, 325.49658203125, 150.58706665039062, 0.03200000151991844, 0.03200000151991844, 1.055999994277954, 0.0, 0.0, 0.0, 0.0, 0.0, 1.6216044725346265E9, 2021-05-21 15:41:12.534
81.0, -182.123779296875, -385.36865234375, 268.24993896484375, 98.27709197998047, 0.03200000151991844, 0.03200000151991844, 1.055999994277954, 0.0, 0.0, 0.0, 0.0, 0.0, 1.6216044725346265E9, 2021-05-21 15:41:12.534
82.0, -189.39788818359375, -401.88031005859375, 255.4220733642578, 86.3355941772461, 0.03200000151991844, 0.03200000151991844, 1.055999994277954, 0.0, 0.0, 0.0, 0.0, 0.0, 1.6216044725482292E9, 2021-05-21 15:41:12.548
82.0, -154.7813720703125, -362.10272216796875, 300.390625, 127.55302429199219, 0.03200000151991844, 0.03200000151991844, 1.055999994277954, 0.0, 0.0, 0.0, 0.0, 0.0, 1.6216044725482292E9, 2021-05-21 15:41:12.548
83.0, -138.76712036132812, -340.4225158691406, 322.538330078125, 152.81605529785156, 0.03200000151991844, 0.03200000151991844, 1.055999994277954, 0.0, 0.0, 0.0, 0.0, 0.0, 1.621604472564021E9, 2021-05-21 15:41:12.564
83.0, -176.77198791503906, -395.00262451171875, 267.1017761230469, 102.29374694824219, 0.03200000151991844, 0.03200000151991844, 1.055999994277954, 0.0, 0.0, 0.0, 0.0, 0.0, 1.621604472564021E9, 2021-05-21 15:41:12.564
84.0, -191.1406707763672, -409.3937683105469, 249.04180908203125, 82.09828186035156, 0.03200000151991844, 0.03200000151991844, 1.055999994277954, 0.0, 0.0, 0.0, 0.0, 0.0, 1.621604472564835E9, 2021-05-21 15:41:12.564
84.0, -166.70042419433594, -366.2764587402344, 282.8467712402344, 127.00326538085938, 0.03200000151991844, 0.03200000151991844, 1.055999994277954, 0.0, 0.0, 0.0, 0.0, 0.0, 1.621604472564835E9, 2021-05-21 15:41:12.564
85.0, -142.7351531982422, -344.48779296875, 317.37725830078125, 155.77056884765625, 0.03200000151991844, 0.03200000151991844, 1.055999994277954, 0.0, 0.0, 0.0, 0.0, 0.0, 1.6216044725783155E9, 2021-05-21 15:41:12.578
85.0, -177.4077606201172, -388.315673828125, 264.7306823730469, 99.93386840820312, 0.03200000151991844, 0.03200000151991844, 1.055999994277954, 0.0, 0.0, 0.0, 0.0, 0.0, 1.6216044725783155E9, 2021-05-21 15:41:12.578
86.0, -197.57704162597656, -406.9478759765625, 244.26596069335938, 83.92709350585938, 0.03200000151991844, 0.03200000151991844, 1.055999994277954, 0.0, 0.0, 0.0, 0.0, 0.0, 1.6216044725939574E9, 2021-05-21 15:41:12.593
86.0, -162.26864624023438, -364.0437316894531, 288.3107604980469, 120.45469665527344, 0.03200000151991844, 0.03200000151991844, 1.055999994277954, 0.0, 0.0, 0.0, 0.0, 0.0, 1.6216044725939574E9, 2021-05-21 15:41:12.593
87.0, -143.98428344726562, -344.6000061035156, 316.12066650390625, 155.755615234375, 0.03200000151991844, 0.03200000151991844, 1.055999994277954, 0.0, 0.0, 0.0, 0.0, 0.0, 1.621604472594726E9, 2021-05-21 15:41:12.594
87.0, -180.16781616210938, -391.4908447265625, 262.9766845703125, 100.7491683959961, 0.03200000151991844, 0.03200000151991844, 1.055999994277954, 0.0, 0.0, 0.0, 0.0, 0.0, 1.621604472594726E9, 2021-05-21 15:41:12.594
88.0, -194.86187744140625, -403.6268310546875, 246.24810791015625, 77.9469985961914, 0.03200000151991844, 0.03200000151991844, 1.055999994277954, 0.0, 0.0, 0.0, 0.0, 0.0, 1.6216044726082962E9, 2021-05-21 15:41:12.608
88.0, -158.70826721191406, -359.0023498535156, 291.29144287109375, 127.20521545410156, 0.03200000151991844, 0.03200000151991844, 1.055999994277954, 0.0, 0.0, 0.0, 0.0, 0.0, 1.6216044726082962E9, 2021-05-21 15:41:12.608
89.0, -144.12265014648438, -341.2116394042969, 322.84124755859375, 148.91159057617188, 0.03200000151991844, 0.03200000151991844, 1.055999994277954, 0.0, 0.0, 0.0, 0.0, 0.0, 1.621604472623994E9, 2021-05-21 15:41:12.623
89.0, -175.8070831298828, -388.61114501953125, 272.9173278808594, 103.55409240722656, 0.03200000151991844, 0.03200000151991844, 1.055999994277954, 0.0, 0.0, 0.0, 0.0, 0.0, 1.621604472623994E9, 2021-05-21 15:41:12.623
90.0, -192.35614013671875, -405.111572265625, 257.0377197265625, 86.14111328125, 0.03200000151991844, 0.03200000151991844, 1.055999994277954, 0.0, 0.0, 0.0, 0.0, 0.0, 1.6216044726246376E9, 2021-05-21 15:41:12.624
90.0, -161.25140380859375, -356.51531982421875, 301.6360168457031, 129.8493194580078, 0.03200000151991844, 0.03200000151991844, 1.055999994277954, 0.0, 0.0, 0.0, 0.0, 0.0, 1.6216044726246376E9, 2021-05-21 15:41:12.624
91.0, -137.72743225097656, -333.1072692871094, 325.0664978027344, 151.95213317871094, 0.03200000151991844, 0.03200000151991844, 1.055999994277954, 0.0, 0.0, 0.0, 0.0, 0.0, 1.6216044726383076E9, 2021-05-21 15:41:12.638
91.0, -177.93508911132812, -395.0587158203125, 274.4693908691406, 99.627197265625, 0.03200000151991844, 0.03200000151991844, 1.055999994277954, 0.0, 0.0, 0.0, 0.0, 0.0, 1.6216044726383076E9, 2021-05-21 15:41:12.638
92.0, -189.14356994628906, -413.3505859375, 255.7998046875, 83.74384307861328, 0.01600000075995922, 0.03200000151991844, 1.055999994277954, 0.0, 0.0, 0.0, 0.0, 0.0, 1.621604472654068E9, 2021-05-21 15:41:12.654
92.0, -158.1285858154297, -367.47320556640625, 294.7171936035156, 122.7921371459961, 0.01600000075995922, 0.03200000151991844, 1.055999994277954, 0.0, 0.0, 0.0, 0.0, 0.0, 1.621604472654068E9, 2021-05-21 15:41:12.654
93.0, -145.55130004882812, -342.4645080566406, 313.63360595703125, 150.40756225585938, 0.01600000075995922, 0.03200000151991844, 1.055999994277954, 0.0, 0.0, 0.0, 0.0, 0.0, 1.6216044726547227E9, 2021-05-21 15:41:12.654
93.0, -178.6905517578125, -392.0069580078125, 259.50604248046875, 99.02880859375, 0.01600000075995922, 0.03200000151991844, 1.055999994277954, 0.0, 0.0, 0.0, 0.0, 0.0, 1.6216044726547227E9, 2021-05-21 15:41:12.654
94.0, -193.11534118652344, -412.00421142578125, 245.21214294433594, 81.16704559326172, 0.01600000075995922, 0.03200000151991844, 1.055999994277954, 0.0, 0.0, 0.0, 0.0, 0.0, 1.6216044726682343E9, 2021-05-21 15:41:12.668
94.0, -160.05462646484375, -365.6107482910156, 288.4902648925781, 125.38762664794922, 0.01600000075995922, 0.03200000151991844, 1.055999994277954, 0.0, 0.0, 0.0, 0.0, 0.0, 1.6216044726682343E9, 2021-05-21 15:41:12.668
95.0, -145.5475616455078, -343.92681884765625, 307.4964294433594, 145.4185333251953, 0.01600000075995922, 0.03200000151991844, 1.055999994277954, 0.0, 0.0, 0.0, 0.0, 0.0, 1.6216044726838777E9, 2021-05-21 15:41:12.683
95.0, -182.99891662597656, -392.9269714355469, 261.2151794433594, 95.20289611816406, 0.01600000075995922, 0.03200000151991844, 1.055999994277954, 0.0, 0.0, 0.0, 0.0, 0.0, 1.6216044726838777E9, 2021-05-21 15:41:12.683
96.0, -195.1722869873047, -402.8526611328125, 246.5061492919922, 83.90839385986328, 0.01600000075995922, 0.03200000151991844, 1.055999994277954, 0.0, 0.0, 0.0, 0.0, 0.0, 1.621604472684625E9, 2021-05-21 15:41:12.684
96.0, -161.80490112304688, -364.42144775390625, 294.5675964355469, 120.46965789794922, 0.01600000075995922, 0.03200000151991844, 1.055999994277954, 0.0, 0.0, 0.0, 0.0, 0.0, 1.621604472684625E9, 2021-05-21 15:41:12.684
97.0, -146.92010498046875, -344.8468322753906, 316.39739990234375, 144.50599670410156, 0.01600000075995922, 0.03200000151991844, 1.055999994277954, 0.0, 0.0, 0.0, 0.0, 0.0, 1.6216044726981936E9, 2021-05-21 15:41:12.698
97.0, -180.70262145996094, -389.3778076171875, 264.75311279296875, 95.98453521728516, 0.01600000075995922, 0.03200000151991844, 1.055999994277954, 0.0, 0.0, 0.0, 0.0, 0.0, 1.6216044726981936E9, 2021-05-21 15:41:12.698
98.0, -192.5057373046875, -407.60235595703125, 253.78025817871094, 80.52378845214844, 0.01600000075995922, 0.03200000151991844, 1.055999994277954, 0.0, 0.0, 0.0, 0.0, 0.0, 1.6216044727138724E9, 2021-05-21 15:41:12.713
98.0, -156.27359008789062, -364.8777160644531, 298.3411560058594, 122.4742431640625, 0.01600000075995922, 0.03200000151991844, 1.055999994277954, 0.0, 0.0, 0.0, 0.0, 0.0, 1.6216044727138724E9, 2021-05-21 15:41:12.713
99.0, -143.35597229003906, -338.16363525390625, 324.4007873535156, 152.9918212890625, 0.01600000075995922, 0.03200000151991844, 1.055999994277954, 0.0, 0.0, 0.0, 0.0, 0.0, 1.621604472714609E9, 2021-05-21 15:41:12.714
99.0, -176.04644775390625, -386.0081787109375, 274.544189453125, 105.96258544921875, 0.01600000075995922, 0.03200000151991844, 1.055999994277954, 0.0, 0.0, 0.0, 0.0, 0.0, 1.621604472714609E9, 2021-05-21 15:41:12.714
100.0, -191.3164520263672, -409.4349060058594, 250.74346923828125, 82.77520751953125, 0.01600000075995922, 0.03200000151991844, 1.055999994277954, 0.0, 0.0, 0.0, 0.0, 0.0, 1.6216044727290056E9, 2021-05-21 15:41:12.729
100.0, -157.47409057617188, -357.457763671875, 299.7099609375, 127.11920166015625, 0.01600000075995922, 0.03200000151991844, 1.055999994277954, 0.0, 0.0, 0.0, 0.0, 0.0, 1.6216044727290056E9, 2021-05-21 15:41:12.729
0.0, -146.2562713623047, -338.5320129394531, 322.35321044921875, 149.96063232421875, 0.01600000075995922, 0.03200000151991844, 1.055999994277954, 0.0, 0.0, 0.0, 0.0, 0.0, 1.621604472729688E9, 2021-05-21 15:41:12.729
1.0, -181.3103485107422, -393.64691162109375, 266.6212158203125, 99.71881866455078, 0.01600000075995922, 0.03200000151991844, 1.055999994277954, 0.0, 0.0, 0.0, 0.0, 0.0, 1.62160447274329E9, 2021-05-21 15:41:12.743
1.0, -194.10455322265625, -409.91546630859375, 250.711669921875, 86.80868530273438, 0.01600000075995922, 0.03200000151991844, 1.055999994277954, 0.0, 0.0, 0.0, 0.0, 0.0, 1.62160447274329E9, 2021-05-21 15:41:12.743
2.0, -163.6318359375, -365.8033447265625, 287.1195983886719, 121.82537078857422, 0.01600000075995922, 0.03200000151991844, 1.055999994277954, 0.0, 0.0, 0.0, 0.0, 0.0, 1.6216044727593899E9, 2021-05-21 15:41:12.759
2.0, -145.26145935058594, -345.77618408203125, 310.14990234375, 145.50267028808594, 0.01600000075995922, 0.03200000151991844, 1.055999994277954, 0.0, 0.0, 0.0, 0.0, 0.0, 1.6216044727593899E9, 2021-05-21 15:41:12.759
3.0, -187.94493103027344, -394.3200988769531, 258.0643310546875, 92.72146606445312, 0.01600000075995922, 0.03200000151991844, 1.055999994277954, 0.0, 0.0, 0.0, 0.0, 0.0, 1.6216044727739277E9, 2021-05-21 15:41:12.773
3.0, -188.33013916015625, -401.6839599609375, 248.9801025390625, 78.7230224609375, 0.01600000075995922, 0.03200000151991844, 1.055999994277954, 0.0, 0.0, 0.0, 0.0, 0.0, 1.6216044727739277E9, 2021-05-21 15:41:12.773
4.0, -157.73776245117188, -367.7967224121094, 291.581298828125, 121.17462921142578, 0.01600000075995922, 0.03200000151991844, 1.055999994277954, 0.0, 0.0, 0.0, 0.0, 0.0, 1.6216044727746437E9, 2021-05-21 15:41:12.774
4.0, -142.01522827148438, -342.6047668457031, 315.4381103515625, 142.7014923095703, 0.01600000075995922, 0.03200000151991844, 1.055999994277954, 0.0, 0.0, 0.0, 0.0, 0.0, 1.6216044727746437E9, 2021-05-21 15:41:12.774
5.0, -184.9193572998047, -388.1941223144531, 262.22308349609375, 88.64498138427734, 0.01600000075995922, 0.03200000151991844, 1.055999994277954, 0.0, 0.0, 0.0, 0.0, 0.0, 1.6216044727890851E9, 2021-05-21 15:41:12.789
5.0, -197.7135467529297, -405.5585021972656, 248.76318359375, 76.54266357421875, 0.01600000075995922, 0.03200000151991844, 1.055999994277954, 0.0, 0.0, 0.0, 0.0, 0.0, 1.6216044727890851E9, 2021-05-21 15:41:12.789
6.0, -158.95697021484375, -355.7392883300781, 299.36029052734375, 121.64959716796875, 0.01600000075995922, 0.03200000151991844, 1.055999994277954, 0.0, 0.0, 0.0, 0.0, 0.0, 1.6216044727897353E9, 2021-05-21 15:41:12.789
6.0, -140.87081909179688, -334.56024169921875, 324.6382751464844, 147.6568603515625, 0.01600000075995922, 0.03200000151991844, 1.055999994277954, 0.0, 0.0, 0.0, 0.0, 0.0, 1.6216044727897353E9, 2021-05-21 15:41:12.789
7.0, -176.8636016845703, -386.4214172363281, 277.1228332519531, 99.34857177734375, 0.01600000075995922, 0.03200000151991844, 1.055999994277954, 0.0, 0.0, 0.0, 0.0, 0.0, 1.6216044728032353E9, 2021-05-21 15:41:12.803
7.0, -186.9575958251953, -398.0525207519531, 264.8335266113281, 85.17809295654297, 0.01600000075995922, 0.03200000151991844, 1.055999994277954, 0.0, 0.0, 0.0, 0.0, 0.0, 1.6216044728032353E9, 2021-05-21 15:41:12.803
8.0, -151.002197265625, -349.38519287109375, 307.9620666503906, 127.33050537109375, 0.01600000075995922, 0.03200000151991844, 1.055999994277954, 0.0, 0.0, 0.0, 0.0, 0.0, 1.621604472819329E9, 2021-05-21 15:41:12.819
8.0, -134.99168395996094, -330.1808166503906, 333.7000427246094, 151.85302734375, 0.01600000075995922, 0.03200000151991844, 1.055999994277954, 0.0, 0.0, 0.0, 0.0, 0.0, 1.621604472819329E9, 2021-05-21 15:41:12.819
9.0, -172.83200073242188, -388.8860168457031, 280.9225769042969, 98.26399993896484, 0.01600000075995922, 0.03200000151991844, 1.055999994277954, 0.0, 0.0, 0.0, 0.0, 0.0, 1.6216044728340428E9, 2021-05-21 15:41:12.834
9.0, -192.16354370117188, -409.6910705566406, 254.81434631347656, 81.37834930419922, 0.01600000075995922, 0.03200000151991844, 1.055999994277954, 0.0, 0.0, 0.0, 0.0, 0.0, 1.6216044728340428E9, 2021-05-21 15:41:12.834
10.0, -167.5400390625, -370.3323669433594, 296.0542297363281, 120.5949478149414, 0.01600000075995922, 0.03200000151991844, 1.055999994277954, 0.0, 0.0, 0.0, 0.0, 0.0, 1.62160447283475E9, 2021-05-21 15:41:12.834
10.0, -151.77261352539062, -344.8113098144531, 314.8621826171875, 147.1482391357422, 0.01600000075995922, 0.03200000151991844, 1.055999994277954, 0.0, 0.0, 0.0, 0.0, 0.0, 1.62160447283475E9, 2021-05-21 15:41:12.834
11.0, -191.93540954589844, -391.6535339355469, 259.9679260253906, 94.73353576660156, 0.01600000075995922, 0.03200000151991844, 1.055999994277954, 0.0, 0.0, 0.0, 0.0, 0.0, 1.6216044728489132E9, 2021-05-21 15:41:12.848
11.0, -200.5184783935547, -411.16461181640625, 241.6349334716797, 73.48716735839844, 0.01600000075995922, 0.03200000151991844, 1.055999994277954, 0.0, 0.0, 0.0, 0.0, 0.0, 1.6216044728489132E9, 2021-05-21 15:41:12.848
12.0, -166.18618774414062, -363.06201171875, 290.2910461425781, 122.41253662109375, 0.03200000151991844, 0.03200000151991844, 1.055999994277954, 0.0, 0.0, 0.0, 0.0, 0.0, 1.621604472849637E9, 2021-05-21 15:41:12.849
12.0, -149.61843872070312, -336.5760498046875, 308.0705261230469, 145.7083740234375, 0.03200000151991844, 0.03200000151991844, 1.055999994277954, 0.0, 0.0, 0.0, 0.0, 0.0, 1.621604472849637E9, 2021-05-21 15:41:12.849
13.0, -183.77120971679688, -388.9421081542969, 260.1997985839844, 93.66392517089844, 0.03200000151991844, 0.03200000151991844, 1.055999994277954, 0.0, 0.0, 0.0, 0.0, 0.0, 1.6216044728800387E9, 2021-05-21 15:41:12.880
13.0, -195.0095977783203, -399.86260986328125, 246.92689514160156, 79.96092987060547, 0.03200000151991844, 0.03200000151991844, 1.055999994277954, 0.0, 0.0, 0.0, 0.0, 0.0, 1.6216044728800387E9, 2021-05-21 15:41:12.880
14.0, -160.6212158203125, -358.8770446777344, 292.7331848144531, 121.7991943359375, 0.03200000151991844, 0.03200000151991844, 1.055999994277954, 0.0, 0.0, 0.0, 0.0, 0.0, 1.6216044728806968E9, 2021-05-21 15:41:12.880
14.0, -142.89035034179688, -336.3067626953125, 319.1817626953125, 146.18333435058594, 0.03200000151991844, 0.03200000151991844, 1.055999994277954, 0.0, 0.0, 0.0, 0.0, 0.0, 1.6216044728806968E9, 2021-05-21 15:41:12.880
15.0, -178.25485229492188, -381.1593933105469, 278.15130615234375, 95.8255844116211, 0.03200000151991844, 0.03200000151991844, 1.055999994277954, 0.0, 0.0, 0.0, 0.0, 0.0, 1.6216044728939517E9, 2021-05-21 15:41:12.893
15.0, -191.23977661132812, -400.93597412109375, 258.5766906738281, 83.02017211914062, 0.03200000151991844, 0.03200000151991844, 1.055999994277954, 0.0, 0.0, 0.0, 0.0, 0.0, 1.6216044728939517E9, 2021-05-21 15:41:12.893
16.0, -158.45956420898438, -358.390869140625, 303.13385009765625, 126.68724060058594, 0.03200000151991844, 0.03200000151991844, 1.055999994277954, 0.0, 0.0, 0.0, 0.0, 0.0, 1.621604472894695E9, 2021-05-21 15:41:12.894
16.0, -139.7600555419922, -333.6776123046875, 334.38446044921875, 151.16114807128906, 0.03200000151991844, 0.03200000151991844, 1.055999994277954, 0.0, 0.0, 0.0, 0.0, 0.0, 1.621604472894695E9, 2021-05-21 15:41:12.894
17.0, -179.46658325195312, -385.0750732421875, 281.49853515625, 96.10234069824219, 0.03200000151991844, 0.03200000151991844, 1.055999994277954, 0.0, 0.0, 0.0, 0.0, 0.0, 1.621604472909052E9, 2021-05-21 15:41:12.909
17.0, -191.44174194335938, -399.11090087890625, 258.8160400390625, 84.14962005615234, 0.03200000151991844, 0.03200000151991844, 1.055999994277954, 0.0, 0.0, 0.0, 0.0, 0.0, 1.621604472909052E9, 2021-05-21 15:41:12.909
18.0, -163.44859313964844, -351.2027893066406, 303.21240234375, 129.20045471191406, 0.03200000151991844, 0.03200000151991844, 1.055999994277954, 0.0, 0.0, 0.0, 0.0, 0.0, 1.62160447290968E9, 2021-05-21 15:41:12.909
18.0, -143.1222381591797, -337.7877502441406, 321.2611389160156, 155.5443115234375, 0.03200000151991844, 0.03200000151991844, 1.055999994277954, 0.0, 0.0, 0.0, 0.0, 0.0, 1.62160447290968E9, 2021-05-21 15:41:12.909
19.0, -184.85951232910156, -391.6236267089844, 266.9615478515625, 93.52180480957031, 0.03200000151991844, 0.03200000151991844, 1.055999994277954, 0.0, 0.0, 0.0, 0.0, 0.0, 1.621604472939742E9, 2021-05-21 15:41:12.939
19.0, -198.46900939941406, -405.96612548828125, 248.3031768798828, 80.74256896972656, 0.03200000151991844, 0.03200000151991844, 1.055999994277954, 0.0, 0.0, 0.0, 0.0, 0.0, 1.621604472939742E9, 2021-05-21 15:41:12.939
20.0, -162.50613403320312, -365.35455322265625, 288.36871337890625, 123.8523941040039, 0.03200000151991844, 0.03200000151991844, 1.055999994277954, 0.0, 0.0, 0.0, 0.0, 0.0, 1.621604472940457E9, 2021-05-21 15:41:12.940
20.0, -155.12730407714844, -340.772216796875, 306.2753601074219, 143.2587432861328, 0.03200000151991844, 0.03200000151991844, 1.055999994277954, 0.0, 0.0, 0.0, 0.0, 0.0, 1.621604472940457E9, 2021-05-21 15:41:12.940
21.0, -186.17970275878906, -383.00689697265625, 254.72084045410156, 91.1656723022461, 0.03200000151991844, 0.03200000151991844, 1.055999994277954, 0.0, 0.0, 0.0, 0.0, 0.0, 1.6216044729412224E9, 2021-05-21 15:41:12.941
21.0, -193.0723419189453, -399.952392578125, 239.3535919189453, 77.03633117675781, 0.03200000151991844, 0.03200000151991844, 1.055999994277954, 0.0, 0.0, 0.0, 0.0, 0.0, 1.6216044729412224E9, 2021-05-21 15:41:12.941
22.0, -159.87698364257812, -355.2568359375, 286.4800720214844, 116.61569213867188, 0.03200000151991844, 0.03200000151991844, 1.055999994277954, 0.0, 0.0, 0.0, 0.0, 0.0, 1.6216044729532094E9, 2021-05-21 15:41:12.953
22.0, -140.58657836914062, -332.12554931640625, 313.28021240234375, 142.03204345703125, 0.03200000151991844, 0.03200000151991844, 1.055999994277954, 0.0, 0.0, 0.0, 0.0, 0.0, 1.6216044729532094E9, 2021-05-21 15:41:12.953
23.0, -182.74647521972656, -382.4010314941406, 261.0412902832031, 86.66657257080078, 0.03200000151991844, 0.03200000151991844, 1.055999994277954, 0.0, 0.0, 0.0, 0.0, 0.0, 1.621604472969095E9, 2021-05-21 15:41:12.969
23.0, -194.90863037109375, -396.6014404296875, 252.61154174804688, 78.89879608154297, 0.03200000151991844, 0.03200000151991844, 1.055999994277954, 0.0, 0.0, 0.0, 0.0, 0.0, 1.621604472969095E9, 2021-05-21 15:41:12.969
24.0, -154.00160217285156, -351.7488098144531, 298.4028625488281, 124.50313568115234, 0.03200000151991844, 0.03200000151991844, 1.055999994277954, 0.0, 0.0, 0.0, 0.0, 0.0, 1.6216044729698524E9, 2021-05-21 15:41:12.969
24.0, -140.53048706054688, -328.83819580078125, 331.1120300292969, 152.6945037841797, 0.03200000151991844, 0.03200000151991844, 1.055999994277954, 0.0, 0.0, 0.0, 0.0, 0.0, 1.6216044729698524E9, 2021-05-21 15:41:12.969
25.0, -178.66998291015625, -384.36822509765625, 275.9223327636719, 101.5102310180664, 0.03200000151991844, 0.03200000151991844, 1.055999994277954, 0.0, 0.0, 0.0, 0.0, 0.0, 1.6216044729994557E9, 2021-05-21 15:41:12.999
25.0, -188.89486694335938, -391.2533874511719, 260.7645263671875, 88.23358917236328, 0.03200000151991844, 0.03200000151991844, 1.055999994277954, 0.0, 0.0, 0.0, 0.0, 0.0, 1.6216044729994557E9, 2021-05-21 15:41:12.999
26.0, -161.24205017089844, -359.0116882324219, 304.3119201660156, 129.90354919433594, 0.03200000151991844, 0.03200000151991844, 1.055999994277954, 0.0, 0.0, 0.0, 0.0, 0.0, 1.6216044730001445E9, 2021-05-21 15:41:13.000
26.0, -145.14178466796875, -337.9186706542969, 329.2009582519531, 153.36769104003906, 0.03200000151991844, 0.03200000151991844, 1.055999994277954, 0.0, 0.0, 0.0, 0.0, 0.0, 1.6216044730001445E9, 2021-05-21 15:41:13.000
27.0, -183.7412872314453, -385.97637939453125, 271.7411193847656, 100.25736999511719, 0.03200000151991844, 0.03200000151991844, 1.055999994277954, 0.0, 0.0, 0.0, 0.0, 0.0, 1.6216044730300057E9, 2021-05-21 15:41:13.030
27.0, -193.59217834472656, -405.2368469238281, 248.340576171875, 77.29438018798828, 0.03200000151991844, 0.03200000151991844, 1.055999994277954, 0.0, 0.0, 0.0, 0.0, 0.0, 1.6216044730300057E9, 2021-05-21 15:41:13.030
28.0, -160.39683532714844, -362.4860534667969, 288.7688903808594, 120.90909576416016, 0.03200000151991844, 0.03200000151991844, 1.055999994277954, 0.0, 0.0, 0.0, 0.0, 0.0, 1.6216044730308611E9, 2021-05-21 15:41:13.030
28.0, -148.36557006835938, -340.5328369140625, 311.3653564453125, 140.11721801757812, 0.03200000151991844, 0.03200000151991844, 1.055999994277954, 0.0, 0.0, 0.0, 0.0, 0.0, 1.6216044730308611E9, 2021-05-21 15:41:13.030
29.0, -178.63632202148438, -390.8756408691406, 258.4757080078125, 86.15046691894531, 0.03200000151991844, 0.03200000151991844, 1.055999994277954, 0.0, 0.0, 0.0, 0.0, 0.0, 1.6216044730448036E9, 2021-05-21 15:41:13.044
29.0, -193.50990295410156, -411.23193359375, 241.79574584960938, 73.90229034423828, 0.03200000151991844, 0.03200000151991844, 1.055999994277954, 0.0, 0.0, 0.0, 0.0, 0.0, 1.6216044730448036E9, 2021-05-21 15:41:13.044
30.0, -154.91787719726562, -366.4092102050781, 289.4383239746094, 116.43617248535156, 0.03200000151991844, 0.03200000151991844, 1.055999994277954, 0.0, 0.0, 0.0, 0.0, 0.0, 1.6216044730455267E9, 2021-05-21 15:41:13.045
30.0, -141.2447967529297, -344.68414306640625, 309.36077880859375, 137.3422088623047, 0.03200000151991844, 0.03200000151991844, 1.055999994277954, 0.0, 0.0, 0.0, 0.0, 0.0, 1.6216044730455267E9, 2021-05-21 15:41:13.045
31.0, -184.582763671875, -391.3543395996094, 256.53094482421875, 89.46401977539062, 0.03200000151991844, 0.03200000151991844, 1.055999994277954, 0.0, 0.0, 0.0, 0.0, 0.0, 1.621604473046247E9, 2021-05-21 15:41:13.046
31.0, -190.67506408691406, -401.6652526855469, 247.7459259033203, 72.36893463134766, 0.03200000151991844, 0.03200000151991844, 1.055999994277954, 0.0, 0.0, 0.0, 0.0, 0.0, 1.621604473046247E9, 2021-05-21 15:41:13.046
32.0, -153.8520050048828, -360.0065002441406, 293.42132568359375, 114.80558013916016, 0.01600000075995922, 0.03200000151991844, 1.055999994277954, 0.0, 0.0, 0.0, 0.0, 0.0, 1.621604473058983E9, 2021-05-21 15:41:13.058
32.0, -142.7893829345703, -341.5164489746094, 320.3336486816406, 140.85398864746094, 0.01600000075995922, 0.03200000151991844, 1.055999994277954, 0.0, 0.0, 0.0, 0.0, 0.0, 1.621604473058983E9, 2021-05-21 15:41:13.058
33.0, -179.29827880859375, -386.9786682128906, 274.044921875, 92.05950927734375, 0.01600000075995922, 0.03200000151991844, 1.055999994277954, 0.0, 0.0, 0.0, 0.0, 0.0, 1.6216044730596745E9, 2021-05-21 15:41:13.059
33.0, -187.66444396972656, -397.9814453125, 255.65582275390625, 76.57257843017578, 0.01600000075995922, 0.03200000151991844, 1.055999994277954, 0.0, 0.0, 0.0, 0.0, 0.0, 1.6216044730596745E9, 2021-05-21 15:41:13.059
34.0, -159.6151885986328, -358.7611083984375, 299.94744873046875, 121.19332885742188, 0.01600000075995922, 0.03200000151991844, 1.055999994277954, 0.0, 0.0, 0.0, 0.0, 0.0, 1.6216044730733392E9, 2021-05-21 15:41:13.073
34.0, -143.5037078857422, -340.6974182128906, 322.5962829589844, 142.5668487548828, 0.01600000075995922, 0.03200000151991844, 1.055999994277954, 0.0, 0.0, 0.0, 0.0, 0.0, 1.6216044730733392E9, 2021-05-21 15:41:13.073
35.0, -179.77699279785156, -389.1702575683594, 268.5622253417969, 93.9219741821289, 0.01600000075995922, 0.03200000151991844, 1.055999994277954, 0.0, 0.0, 0.0, 0.0, 0.0, 1.62160447308892E9, 2021-05-21 15:41:13.088
35.0, -189.47828674316406, -407.7799987792969, 251.70648193359375, 75.91436004638672, 0.01600000075995922, 0.03200000151991844, 1.055999994277954, 0.0, 0.0, 0.0, 0.0, 0.0, 1.62160447308892E9, 2021-05-21 15:41:13.088
36.0, -161.59359741210938, -365.59765625, 293.63824462890625, 120.98763275146484, 0.01600000075995922, 0.03200000151991844, 1.055999994277954, 0.0, 0.0, 0.0, 0.0, 0.0, 1.6216044730897372E9, 2021-05-21 15:41:13.089
36.0, -142.20596313476562, -351.7899475097656, 314.8696594238281, 142.92962646484375, 0.01600000075995922, 0.03200000151991844, 1.055999994277954, 0.0, 0.0, 0.0, 0.0, 0.0, 1.6216044730897372E9, 2021-05-21 15:41:13.089
37.0, -185.2147979736328, -396.69866943359375, 262.9075012207031, 92.1904067993164, 0.01600000075995922, 0.03200000151991844, 1.055999994277954, 0.0, 0.0, 0.0, 0.0, 0.0, 1.6216044731194034E9, 2021-05-21 15:41:13.119
37.0, -193.7006378173828, -413.5693664550781, 244.3201904296875, 77.1747055053711, 0.01600000075995922, 0.03200000151991844, 1.055999994277954, 0.0, 0.0, 0.0, 0.0, 0.0, 1.6216044731194034E9, 2021-05-21 15:41:13.119
38.0, -160.22479248046875, -361.1359558105469, 286.94757080078125, 123.24653625488281, 0.01600000075995922, 0.03200000151991844, 1.055999994277954, 0.0, 0.0, 0.0, 0.0, 0.0, 1.6216044731200728E9, 2021-05-21 15:41:13.120
38.0, -144.5957489013672, -344.740234375, 308.76239013671875, 144.0216827392578, 0.01600000075995922, 0.03200000151991844, 1.055999994277954, 0.0, 0.0, 0.0, 0.0, 0.0, 1.6216044731200728E9, 2021-05-21 15:41:13.120
39.0, -177.12913513183594, -394.92596435546875, 263.8349914550781, 93.98555755615234, 0.01600000075995922, 0.03200000151991844, 1.055999994277954, 0.0, 0.0, 0.0, 0.0, 0.0, 1.621604473133955E9, 2021-05-21 15:41:13.133
39.0, -190.47683715820312, -412.1070556640625, 247.12510681152344, 75.66004943847656, 0.01600000075995922, 0.03200000151991844, 1.055999994277954, 0.0, 0.0, 0.0, 0.0, 0.0, 1.621604473133955E9, 2021-05-21 15:41:13.133
40.0, -162.57345581054688, -368.062255859375, 288.0209045410156, 120.77445983886719, 0.01600000075995922, 0.03200000151991844, 1.055999994277954, 0.0, 0.0, 0.0, 0.0, 0.0, 1.621604473134707E9, 2021-05-21 15:41:13.134
40.0, -144.20306396484375, -340.1925048828125, 314.7088317871094, 143.43450927734375, 0.01600000075995922, 0.03200000151991844, 1.055999994277954, 0.0, 0.0, 0.0, 0.0, 0.0, 1.621604473134707E9, 2021-05-21 15:41:13.134
41.0, -180.5661163330078, -393.51226806640625, 267.1223449707031, 93.28619384765625, 0.01600000075995922, 0.03200000151991844, 1.055999994277954, 0.0, 0.0, 0.0, 0.0, 0.0, 1.6216044731489563E9, 2021-05-21 15:41:13.148
41.0, -195.088134765625, -402.40576171875, 254.42913818359375, 81.34843444824219, 0.01600000075995922, 0.03200000151991844, 1.055999994277954, 0.0, 0.0, 0.0, 0.0, 0.0, 1.6216044731489563E9, 2021-05-21 15:41:13.148
42.0, -158.86346435546875, -357.34368896484375, 306.6830139160156, 126.23097229003906, 0.01600000075995922, 0.03200000151991844, 1.055999994277954, 0.0, 0.0, 0.0, 0.0, 0.0, 1.6216044731496346E9, 2021-05-21 15:41:13.149
42.0, -145.7887725830078, -334.41436767578125, 330.3191833496094, 153.58834838867188, 0.01600000075995922, 0.03200000151991844, 1.055999994277954, 0.0, 0.0, 0.0, 0.0, 0.0, 1.6216044731496346E9, 2021-05-21 15:41:13.149
43.0, -185.83189392089844, -385.7145690917969, 271.4569091796875, 100.60891723632812, 0.01600000075995922, 0.03200000151991844, 1.055999994277954, 0.0, 0.0, 0.0, 0.0, 0.0, 1.6216044731794496E9, 2021-05-21 15:41:13.179
43.0, -196.4120635986328, -397.9627685546875, 263.105712890625, 87.48187255859375, 0.01600000075995922, 0.03200000151991844, 1.055999994277954, 0.0, 0.0, 0.0, 0.0, 0.0, 1.6216044731794496E9, 2021-05-21 15:41:13.179
44.0, -157.67417907714844, -361.34912109375, 305.96868896484375, 134.49989318847656, 0.01600000075995922, 0.03200000151991844, 1.055999994277954, 0.0, 0.0, 0.0, 0.0, 0.0, 1.6216044731800709E9, 2021-05-21 15:41:13.180
44.0, -145.4559326171875, -343.56964111328125, 326.4708251953125, 153.06475830078125, 0.01600000075995922, 0.03200000151991844, 1.055999994277954, 0.0, 0.0, 0.0, 0.0, 0.0, 1.6216044731800709E9, 2021-05-21 15:41:13.180
45.0, -183.12420654296875, -391.5076904296875, 268.76416015625, 97.61699676513672, 0.01600000075995922, 0.03200000151991844, 1.055999994277954, 0.0, 0.0, 0.0, 0.0, 0.0, 1.621604473193992E9, 2021-05-21 15:41:13.193
45.0, -193.6595001220703, -409.5938415527344, 253.7260284423828, 84.33661651611328, 0.01600000075995922, 0.03200000151991844, 1.055999994277954, 0.0, 0.0, 0.0, 0.0, 0.0, 1.621604473193992E9, 2021-05-21 15:41:13.193
46.0, -159.7386016845703, -367.0113525390625, 300.6019287109375, 128.190673828125, 0.01600000075995922, 0.03200000151991844, 1.055999994277954, 0.0, 0.0, 0.0, 0.0, 0.0, 1.621604473194724E9, 2021-05-21 15:41:13.194
46.0, -143.24191284179688, -344.9384460449219, 325.0571594238281, 151.80067443847656, 0.01600000075995922, 0.03200000151991844, 1.055999994277954, 0.0, 0.0, 0.0, 0.0, 0.0, 1.621604473194724E9, 2021-05-21 15:41:13.194
47.0, -181.96856689453125, -395.0269470214844, 270.99688720703125, 101.73836517333984, 0.01600000075995922, 0.03200000151991844, 1.055999994277954, 0.0, 0.0, 0.0, 0.0, 0.0, 1.621604473226138E9, 2021-05-21 15:41:13.226
47.0, -190.43569946289062, -413.5880432128906, 255.05369567871094, 76.4566421508789, 0.01600000075995922, 0.03200000151991844, 1.055999994277954, 0.0, 0.0, 0.0, 0.0, 0.0, 1.621604473226138E9, 2021-05-21 15:41:13.226
48.0, -156.8962860107422, -374.26300048828125, 298.33929443359375, 118.17897033691406, 0.01600000075995922, 0.03200000151991844, 1.055999994277954, 0.0, 0.0, 0.0, 0.0, 0.0, 1.6216044732266593E9, 2021-05-21 15:41:13.226
48.0, -145.93089294433594, -348.6260070800781, 317.8840026855469, 145.03518676757812, 0.01600000075995922, 0.03200000151991844, 1.055999994277954, 0.0, 0.0, 0.0, 0.0, 0.0, 1.6216044732266593E9, 2021-05-21 15:41:13.226
49.0, -185.52896118164062, -394.39862060546875, 267.2682189941406, 92.53073120117188, 0.01600000075995922, 0.03200000151991844, 1.055999994277954, 0.0, 0.0, 0.0, 0.0, 0.0, 1.6216044732274606E9, 2021-05-21 15:41:13.227
49.0, -191.6212615966797, -409.777099609375, 251.96080017089844, 78.6220474243164, 0.01600000075995922, 0.03200000151991844, 1.055999994277954, 0.0, 0.0, 0.0, 0.0, 0.0, 1.6216044732274606E9, 2021-05-21 15:41:13.227
50.0, -157.2029571533203, -365.3470764160156, 295.8260803222656, 125.09778594970703, 0.01600000075995922, 0.03200000151991844, 1.055999994277954, 0.0, 0.0, 0.0, 0.0, 0.0, 1.6216044732281773E9, 2021-05-21 15:41:13.228
50.0, -152.09051513671875, -344.16802978515625, 321.8969421386719, 148.89102172851562, 0.01600000075995922, 0.03200000151991844, 1.055999994277954, 0.0, 0.0, 0.0, 0.0, 0.0, 1.6216044732281773E9, 2021-05-21 15:41:13.228
51.0, -187.74671936035156, -381.2154846191406, 272.6611328125, 99.81231689453125, 0.01600000075995922, 0.03200000151991844, 1.055999994277954, 0.0, 0.0, 0.0, 0.0, 0.0, 1.6216044732382903E9, 2021-05-21 15:41:13.238
51.0, -196.70751953125, -399.2530212402344, 254.2645721435547, 87.48561096191406, 0.01600000075995922, 0.03200000151991844, 1.055999994277954, 0.0, 0.0, 0.0, 0.0, 0.0, 1.6216044732382903E9, 2021-05-21 15:41:13.238
52.0, -162.0760498046875, -360.7245788574219, 299.7043762207031, 131.6725311279297, 0.03200000151991844, 0.03200000151991844, 1.055999994277954, 0.0, 0.0, 0.0, 0.0, 0.0, 1.6216044732532375E9, 2021-05-21 15:41:13.253
52.0, -147.7709197998047, -337.3651428222656, 322.3905944824219, 153.35272216796875, 0.03200000151991844, 0.03200000151991844, 1.055999994277954, 0.0, 0.0, 0.0, 0.0, 0.0, 1.6216044732532375E9, 2021-05-21 15:41:13.253
53.0, -183.59169006347656, -393.4112854003906, 274.2842712402344, 103.4138412475586, 0.03200000151991844, 0.03200000151991844, 1.055999994277954, 0.0, 0.0, 0.0, 0.0, 0.0, 1.6216044732846105E9, 2021-05-21 15:41:13.284
53.0, -190.95928955078125, -404.9825439453125, 255.805419921875, 88.27472686767578, 0.03200000151991844, 0.03200000151991844, 1.055999994277954, 0.0, 0.0, 0.0, 0.0, 0.0, 1.6216044732846105E9, 2021-05-21 15:41:13.284
54.0, -161.42530822753906, -362.123291015625, 297.7446594238281, 128.42630004882812, 0.03200000151991844, 0.03200000151991844, 1.055999994277954, 0.0, 0.0, 0.0, 0.0, 0.0, 1.6216044732853515E9, 2021-05-21 15:41:13.285
54.0, -145.44845581054688, -340.66375732421875, 324.26055908203125, 145.2707977294922, 0.03200000151991844, 0.03200000151991844, 1.055999994277954, 0.0, 0.0, 0.0, 0.0, 0.0, 1.6216044732853515E9, 2021-05-21 15:41:13.285
55.0, -186.58734130859375, -390.0678405761719, 266.3556823730469, 94.73353576660156, 0.03200000151991844, 0.03200000151991844, 1.055999994277954, 0.0, 0.0, 0.0, 0.0, 0.0, 1.6216044732860804E9, 2021-05-21 15:41:13.286
55.0, -194.68423461914062, -404.4066162109375, 253.4754638671875, 79.72905731201172, 0.03200000151991844, 0.03200000151991844, 1.055999994277954, 0.0, 0.0, 0.0, 0.0, 0.0, 1.6216044732860804E9, 2021-05-21 15:41:13.286
56.0, -157.5806884765625, -370.4371032714844, 295.3660888671875, 116.03600311279297, 0.03200000151991844, 0.03200000151991844, 1.055999994277954, 0.0, 0.0, 0.0, 0.0, 0.0, 1.6216044732990315E9, 2021-05-21 15:41:13.299
56.0, -144.36013793945312, -348.4801330566406, 315.0603942871094, 139.6871337890625, 0.03200000151991844, 0.03200000151991844, 1.055999994277954, 0.0, 0.0, 0.0, 0.0, 0.0, 1.6216044732990315E9, 2021-05-21 15:41:13.299
57.0, -187.45126342773438, -395.21392822265625, 260.90289306640625, 89.80809020996094, 0.03200000151991844, 0.03200000151991844, 1.055999994277954, 0.0, 0.0, 0.0, 0.0, 0.0, 1.6216044732996545E9, 2021-05-21 15:41:13.299
57.0, -200.02854919433594, -411.05615234375, 249.12222290039062, 75.25239562988281, 0.03200000151991844, 0.03200000151991844, 1.055999994277954, 0.0, 0.0, 0.0, 0.0, 0.0, 1.6216044732996545E9, 2021-05-21 15:41:13.299
58.0, -158.90835571289062, -365.8108215332031, 298.881591796875, 118.25750732421875, 0.03200000151991844, 0.03200000151991844, 1.055999994277954, 0.0, 0.0, 0.0, 0.0, 0.0, 1.621604473313265E9, 2021-05-21 15:41:13.313
58.0, -140.4444580078125, -342.4701232910156, 326.56805419921875, 141.65806579589844, 0.03200000151991844, 0.03200000151991844, 1.055999994277954, 0.0, 0.0, 0.0, 0.0, 0.0, 1.621604473313265E9, 2021-05-21 15:41:13.313
59.0, -183.9993438720703, -391.5076904296875, 271.0417785644531, 91.21803283691406, 0.03200000151991844, 0.03200000151991844, 1.055999994277954, 0.0, 0.0, 0.0, 0.0, 0.0, 1.6216044733289492E9, 2021-05-21 15:41:13.328
59.0, -196.13905334472656, -401.5380859375, 253.19122314453125, 78.89505767822266, 0.03200000151991844, 0.03200000151991844, 1.055999994277954, 0.0, 0.0, 0.0, 0.0, 0.0, 1.6216044733289492E9, 2021-05-21 15:41:13.328
60.0, -156.20440673828125, -355.0735778808594, 306.7989501953125, 124.24882507324219, 0.03200000151991844, 0.03200000151991844, 1.055999994277954, 0.0, 0.0, 0.0, 0.0, 0.0, 1.6216044733296905E9, 2021-05-21 15:41:13.329
60.0, -148.47402954101562, -339.9643859863281, 326.2838439941406, 146.0449676513672, 0.03200000151991844, 0.03200000151991844, 1.055999994277954, 0.0, 0.0, 0.0, 0.0, 0.0, 1.6216044733296905E9, 2021-05-21 15:41:13.329
61.0, -185.95904541015625, -388.48583984375, 274.71435546875, 95.8293228149414, 0.03200000151991844, 0.03200000151991844, 1.055999994277954, 0.0, 0.0, 0.0, 0.0, 0.0, 1.6216044733432596E9, 2021-05-21 15:41:13.343
61.0, -199.08609008789062, -407.3349304199219, 258.5130920410156, 79.27652740478516, 0.03200000151991844, 0.03200000151991844, 1.055999994277954, 0.0, 0.0, 0.0, 0.0, 0.0, 1.6216044733432596E9, 2021-05-21 15:41:13.343
62.0, -156.53724670410156, -362.8114318847656, 302.251220703125, 125.27729797363281, 0.01600000075995922, 0.03200000151991844, 1.055999994277954, 0.0, 0.0, 0.0, 0.0, 0.0, 1.6216044733747077E9, 2021-05-21 15:41:13.374
62.0, -145.414794921875, -346.7223815917969, 326.5456237792969, 147.5783233642578, 0.01600000075995922, 0.03200000151991844, 1.055999994277954, 0.0, 0.0, 0.0, 0.0, 0.0, 1.6216044733747077E9, 2021-05-21 15:41:13.374
63.0, -186.46392822265625, -396.27978515625, 268.3939208984375, 94.2174301147461, 0.01600000075995922, 0.03200000151991844, 1.055999994277954, 0.0, 0.0, 0.0, 0.0, 0.0, 1.621604473375396E9, 2021-05-21 15:41:13.375
63.0, -195.21156311035156, -409.7958068847656, 256.919921875, 80.42467498779297, 0.01600000075995922, 0.03200000151991844, 1.055999994277954, 0.0, 0.0, 0.0, 0.0, 0.0, 1.621604473375396E9, 2021-05-21 15:41:13.375
64.0, -163.1643524169922, -372.4828186035156, 294.10198974609375, 120.2546157836914, 0.01600000075995922, 0.03200000151991844, 1.055999994277954, 0.0, 0.0, 0.0, 0.0, 0.0, 1.6216044733761992E9, 2021-05-21 15:41:13.376
64.0, -141.2560272216797, -346.9991455078125, 316.346923828125, 140.37901306152344, 0.01600000075995922, 0.03200000151991844, 1.055999994277954, 0.0, 0.0, 0.0, 0.0, 0.0, 1.6216044733761992E9, 2021-05-21 15:41:13.376
65.0, -178.41566467285156, -399.29791259765625, 261.74810791015625, 94.78215789794922, 0.01600000075995922, 0.03200000151991844, 1.055999994277954, 0.0, 0.0, 0.0, 0.0, 0.0, 1.6216044733889043E9, 2021-05-21 15:41:13.388
65.0, -197.06280517578125, -415.9179992675781, 243.4188690185547, 72.34275817871094, 0.01600000075995922, 0.03200000151991844, 1.055999994277954, 0.0, 0.0, 0.0, 0.0, 0.0, 1.6216044733889043E9, 2021-05-21 15:41:13.388
66.0, -162.18075561523438, -368.46990966796875, 291.67852783203125, 113.96784210205078, 0.01600000075995922, 0.03200000151991844, 1.055999994277954, 0.0, 0.0, 0.0, 0.0, 0.0, 1.621604473389614E9, 2021-05-21 15:41:13.389
66.0, -141.9030303955078, -339.6352844238281, 316.3020324707031, 140.76795959472656, 0.01600000075995922, 0.03200000151991844, 1.055999994277954, 0.0, 0.0, 0.0, 0.0, 0.0, 1.621604473389614E9, 2021-05-21 15:41:13.389
67.0, -179.9078826904297, -393.0522766113281, 264.69140625, 88.35700988769531, 0.01600000075995922, 0.03200000151991844, 1.055999994277954, 0.0, 0.0, 0.0, 0.0, 0.0, 1.6216044734032195E9, 2021-05-21 15:41:13.403
67.0, -191.43426513671875, -405.3565368652344, 252.43951416015625, 77.69081115722656, 0.01600000075995922, 0.03200000151991844, 1.055999994277954, 0.0, 0.0, 0.0, 0.0, 0.0, 1.6216044734032195E9, 2021-05-21 15:41:13.403
68.0, -157.13189697265625, -361.6670227050781, 294.9771423339844, 117.98075103759766, 0.01600000075995922, 0.03200000151991844, 1.055999994277954, 0.0, 0.0, 0.0, 0.0, 0.0, 1.6216044734189048E9, 2021-05-21 15:41:13.418
68.0, -144.8612823486328, -343.35272216796875, 322.614990234375, 145.8467559814453, 0.01600000075995922, 0.03200000151991844, 1.055999994277954, 0.0, 0.0, 0.0, 0.0, 0.0, 1.6216044734189048E9, 2021-05-21 15:41:13.418
69.0, -185.66358947753906, -392.5212097167969, 269.5196228027344, 101.79072570800781, 0.01600000075995922, 0.03200000151991844, 1.055999994277954, 0.0, 0.0, 0.0, 0.0, 0.0, 1.621604473419623E9, 2021-05-21 15:41:13.419
69.0, -188.7228240966797, -408.68878173828125, 254.4889678955078, 84.20571899414062, 0.01600000075995922, 0.03200000151991844, 1.055999994277954, 0.0, 0.0, 0.0, 0.0, 0.0, 1.621604473419623E9, 2021-05-21 15:41:13.419
70.0, -163.07833862304688, -366.1661376953125, 296.3421936035156, 119.5702133178711, 0.01600000075995922, 0.03200000151991844, 1.055999994277954, 0.0, 0.0, 0.0, 0.0, 0.0, 1.6216044734333265E9, 2021-05-21 15:41:13.433
70.0, -139.78623962402344, -343.71923828125, 320.28875732421875, 147.9036865234375, 0.01600000075995922, 0.03200000151991844, 1.055999994277954, 0.0, 0.0, 0.0, 0.0, 0.0, 1.6216044734333265E9, 2021-05-21 15:41:13.433
71.0, -188.92852783203125, -393.52349853515625, 260.90289306640625, 97.30284881591797, 0.01600000075995922, 0.03200000151991844, 1.055999994277954, 0.0, 0.0, 0.0, 0.0, 0.0, 1.6216044734489684E9, 2021-05-21 15:41:13.448
71.0, -198.1959991455078, -415.44677734375, 243.02244567871094, 82.57138061523438, 0.01600000075995922, 0.03200000151991844, 1.055999994277954, 0.0, 0.0, 0.0, 0.0, 0.0, 1.6216044734489684E9, 2021-05-21 15:41:13.448
72.0, -159.17388916015625, -365.39569091796875, 292.52001953125, 123.13059997558594, 0.03200000151991844, 0.03200000151991844, 1.055999994277954, 0.0, 0.0, 0.0, 0.0, 0.0, 1.6216044734497068E9, 2021-05-21 15:41:13.449
72.0, -144.70420837402344, -345.1404113769531, 313.8636169433594, 144.4255828857422, 0.03200000151991844, 0.03200000151991844, 1.055999994277954, 0.0, 0.0, 0.0, 0.0, 0.0, 1.6216044734497068E9, 2021-05-21 15:41:13.449
73.0, -189.89715576171875, -394.88482666015625, 258.0718078613281, 92.32129669189453, 0.03200000151991844, 0.03200000151991844, 1.055999994277954, 0.0, 0.0, 0.0, 0.0, 0.0, 1.6216044734633934E9, 2021-05-21 15:41:13.463
73.0, -199.18707275390625, -413.2140808105469, 242.51380920410156, 77.84788513183594, 0.03200000151991844, 0.03200000151991844, 1.055999994277954, 0.0, 0.0, 0.0, 0.0, 0.0, 1.6216044734633934E9, 2021-05-21 15:41:13.463
74.0, -161.3916473388672, -369.8985595703125, 291.98895263671875, 118.4482421875, 0.03200000151991844, 0.03200000151991844, 1.055999994277954, 0.0, 0.0, 0.0, 0.0, 0.0, 1.6216044734789853E9, 2021-05-21 15:41:13.478
74.0, -148.9153289794922, -348.8541259765625, 315.1576232910156, 140.48373413085938, 0.03200000151991844, 0.03200000151991844, 1.055999994277954, 0.0, 0.0, 0.0, 0.0, 0.0, 1.6216044734789853E9, 2021-05-21 15:41:13.478
75.0, -187.68313598632812, -393.14202880859375, 262.19317626953125, 87.79228210449219, 0.03200000151991844, 0.03200000151991844, 1.055999994277954, 0.0, 0.0, 0.0, 0.0, 0.0, 1.6216044734796093E9, 2021-05-21 15:41:13.479
75.0, -191.1051483154297, -403.19488525390625, 246.52671813964844, 67.70902252197266, 0.03200000151991844, 0.03200000151991844, 1.055999994277954, 0.0, 0.0, 0.0, 0.0, 0.0, 1.6216044734796093E9, 2021-05-21 15:41:13.479
76.0, -160.40431213378906, -367.46014404296875, 297.5501708984375, 115.00753021240234, 0.03200000151991844, 0.03200000151991844, 1.055999994277954, 0.0, 0.0, 0.0, 0.0, 0.0, 1.6216044734932785E9, 2021-05-21 15:41:13.493
76.0, -136.79432678222656, -340.68994140625, 320.1541442871094, 142.41351318359375, 0.03200000151991844, 0.03200000151991844, 1.055999994277954, 0.0, 0.0, 0.0, 0.0, 0.0, 1.6216044734932785E9, 2021-05-21 15:41:13.493
