Sample Index, EXG Channel 0, EXG Channel 1, EXG Channel 2, EXG Channel 3, Accel Channel 0, Accel Channel 1, Accel Channel 2, Other, Other, Other, Other, Other, Timestamp, Timestamp (Formatted)
0.0, -221.22442626953125, -456.8867492675781, 313.86737060546875, 42.50209426879883, 0.0, 0.0, 0.0, 0.0, 0.0, 0.0, 0.0, 0.0, 1.621605381917758E9, 2021-05-21 15:56:21.917
1.0, -177.0861358642578, -412.916748046875, 363.6080322265625, 86.49079895019531, 0.0, 0.0, 0.0, 0.0, 0.0, 0.0, 0.0, 0.0, 1.621605381931222E9, 2021-05-21 15:56:21.931
1.0, -167.6653289794922, -390.6606140136719, 387.9435729980469, 102.00389862060547, 0.0, 0.0, 0.0, 0.0, 0.0, 0.0, 0.0, 0.0, 1.621605381931222E9, 2021-05-21 15:56:21.931
2.0, -202.27809143066406, -430.64013671875, 347.31329345703125, 62.83592987060547, 0.03200000151991844, 0.0, 0.0, 0.0, 0.0, 0.0, 0.0, 0.0, 1.6216053819640932E9, 2021-05-21 15:56:21.964
2.0, -214.25326538085938, -442.4993591308594, 328.1238708496094, 50.47555923461914, 0.03200000151991844, 0.0, 0.0, 0.0, 0.0, 0.0, 0.0, 0.0, 1.6216053819640932E9, 2021-05-21 15:56:21.964
3.0, -180.4595184326172, -414.3977355957031, 370.5642395019531, 88.48416137695312, 0.03200000151991844, 0.0, 0.0, 0.0, 0.0, 0.0, 0.0, 0.0, 1.621605381964824E9, 2021-05-21 15:56:21.964
3.0, -168.92941284179688, -387.822021484375, 392.0050964355469, 102.65838623046875, 0.03200000151991844, 0.0, 0.0, 0.0, 0.0, 0.0, 0.0, 0.0, 1.621605381964824E9, 2021-05-21 15:56:21.964
4.0, -205.19522094726562, -441.1230773925781, 334.26104736328125, 59.73555374145508, 0.03200000151991844, 0.0, 0.0, 0.0, 0.0, 0.0, 0.0, 0.0, 1.621605381965673E9, 2021-05-21 15:56:21.965
4.0, -213.93536376953125, -449.3695373535156, 324.0773010253906, 49.8659553527832, 0.03200000151991844, 0.0, 0.0, 0.0, 0.0, 0.0, 0.0, 0.0, 1.621605381965673E9, 2021-05-21 15:56:21.965
5.0, -181.267333984375, -411.6713562011719, 358.8059997558594, 84.0448989868164, 0.03200000151991844, 0.0, 0.0, 0.0, 0.0, 0.0, 0.0, 0.0, 1.6216053819766583E9, 2021-05-21 15:56:21.976
5.0, -163.79452514648438, -394.781982421875, 372.1312561035156, 100.42192077636719, 0.03200000151991844, 0.0, 0.0, 0.0, 0.0, 0.0, 0.0, 0.0, 1.6216053819766583E9, 2021-05-21 15:56:21.976
6.0, -204.82122802734375, -441.72894287109375, 328.883056640625, 56.76607131958008, 0.03200000151991844, 0.0, 0.0, 0.0, 0.0, 0.0, 0.0, 0.0, 1.6216053819772415E9, 2021-05-21 15:56:21.977
6.0, -214.5561981201172, -448.38970947265625, 318.7554016113281, 47.061031341552734, 0.03200000151991844, 0.0, 0.0, 0.0, 0.0, 0.0, 0.0, 0.0, 1.6216053819772415E9, 2021-05-21 15:56:21.977
7.0, -186.42840576171875, -421.46240234375, 350.926025390625, 81.18387603759766, 0.03200000151991844, 0.0, 0.0, 0.0, 0.0, 0.0, 0.0, 0.0, 1.6216053819908855E9, 2021-05-21 15:56:21.990
7.0, -167.74386596679688, -395.7206726074219, 365.526611328125, 102.05252075195312, 0.03200000151991844, 0.0, 0.0, 0.0, 0.0, 0.0, 0.0, 0.0, 1.6216053819908855E9, 2021-05-21 15:56:21.990
8.0, -205.79360961914062, -443.2922058105469, 324.8402404785156, 60.65182876586914, 0.03200000151991844, 0.0, 0.0, 0.0, 0.0, 0.0, 0.0, 0.0, 1.6216053820073235E9, 2021-05-21 15:56:22.007
8.0, -210.6554718017578, -452.7990417480469, 316.0177917480469, 48.85618209838867, 0.03200000151991844, 0.0, 0.0, 0.0, 0.0, 0.0, 0.0, 0.0, 1.6216053820073235E9, 2021-05-21 15:56:22.007
9.0, -182.66232299804688, -416.57061767578125, 353.9964904785156, 90.3615951538086, 0.03200000151991844, 0.0, 0.0, 0.0, 0.0, 0.0, 0.0, 0.0, 1.6216053820080564E9, 2021-05-21 15:56:22.008
9.0, -164.29193115234375, -391.47216796875, 380.07855224609375, 111.66032409667969, 0.03200000151991844, 0.0, 0.0, 0.0, 0.0, 0.0, 0.0, 0.0, 1.6216053820080564E9, 2021-05-21 15:56:22.008
10.0, -205.29620361328125, -439.9823913574219, 333.3410339355469, 60.79768371582031, 0.03200000151991844, 0.0, 1.055999994277954, 0.0, 0.0, 0.0, 0.0, 0.0, 1.6216053820208414E9, 2021-05-21 15:56:22.020
10.0, -209.52603149414062, -452.7130126953125, 322.521484375, 47.90625, 0.03200000151991844, 0.0, 1.055999994277954, 0.0, 0.0, 0.0, 0.0, 0.0, 1.6216053820208414E9, 2021-05-21 15:56:22.020
11.0, -175.73228454589844, -409.6966857910156, 359.15380859375, 83.57367706298828, 0.03200000151991844, 0.0, 1.055999994277954, 0.0, 0.0, 0.0, 0.0, 0.0, 1.621605382036564E9, 2021-05-21 15:56:22.036
11.0, -162.38458251953125, -397.2016906738281, 380.5460510253906, 99.6028823852539, 0.03200000151991844, 0.0, 1.055999994277954, 0.0, 0.0, 0.0, 0.0, 0.0, 1.621605382036564E9, 2021-05-21 15:56:22.036
12.0, -202.8016815185547, -441.7812805175781, 332.9745178222656, 55.29254913330078, 0.01600000075995922, 0.0, 1.055999994277954, 0.0, 0.0, 0.0, 0.0, 0.0, 1.6216053820372329E9, 2021-05-21 15:56:22.037
12.0, -209.86260986328125, -453.37872314453125, 320.584228515625, 45.39677429199219, 0.01600000075995922, 0.0, 1.055999994277954, 0.0, 0.0, 0.0, 0.0, 0.0, 1.6216053820372329E9, 2021-05-21 15:56:22.037
13.0, -174.6739044189453, -410.7850036621094, 356.9547424316406, 89.34808349609375, 0.01600000075995922, 0.0, 1.055999994277954, 0.0, 0.0, 0.0, 0.0, 0.0, 1.6216053820508952E9, 2021-05-21 15:56:22.050
13.0, -169.55770874023438, -399.46807861328125, 373.3504638671875, 95.7059097290039, 0.01600000075995922, 0.0, 1.055999994277954, 0.0, 0.0, 0.0, 0.0, 0.0, 1.6216053820508952E9, 2021-05-21 15:56:22.050
14.0, -207.3456573486328, -442.3123474121094, 326.97198486328125, 56.59029769897461, 0.01600000075995922, 0.0, 1.055999994277954, 0.0, 0.0, 0.0, 0.0, 0.0, 1.6216053820671568E9, 2021-05-21 15:56:22.067
14.0, -218.6364288330078, -458.33782958984375, 313.5232849121094, 47.85388946533203, 0.01600000075995922, 0.0, 1.055999994277954, 0.0, 0.0, 0.0, 0.0, 0.0, 1.6216053820671568E9, 2021-05-21 15:56:22.067
15.0, -176.97019958496094, -414.6146545410156, 353.7945251464844, 89.56499481201172, 0.01600000075995922, 0.0, 1.055999994277954, 0.0, 0.0, 0.0, 0.0, 0.0, 1.6216053820679116E9, 2021-05-21 15:56:22.067
15.0, -169.7970733642578, -399.8757019042969, 369.576904296875, 102.84912109375, 0.01600000075995922, 0.0, 1.055999994277954, 0.0, 0.0, 0.0, 0.0, 0.0, 1.6216053820679116E9, 2021-05-21 15:56:22.067
16.0, -210.17677307128906, -437.5589599609375, 319.9933166503906, 60.68174743652344, 0.01600000075995922, 0.0, 1.055999994277954, 0.0, 0.0, 0.0, 0.0, 0.0, 1.6216053820808723E9, 2021-05-21 15:56:22.080
16.0, -221.2954864501953, -448.70758056640625, 313.8935546875, 55.602962493896484, 0.01600000075995922, 0.0, 1.055999994277954, 0.0, 0.0, 0.0, 0.0, 0.0, 1.6216053820808723E9, 2021-05-21 15:56:22.080
17.0, -182.7259063720703, -412.2697448730469, 353.07647705078125, 87.53422546386719, 0.01600000075995922, 0.0, 1.055999994277954, 0.0, 0.0, 0.0, 0.0, 0.0, 1.621605382112994E9, 2021-05-21 15:56:22.112
17.0, -165.17080688476562, -391.3076171875, 378.0926513671875, 108.66092681884766, 0.01600000075995922, 0.0, 1.055999994277954, 0.0, 0.0, 0.0, 0.0, 0.0, 1.621605382112994E9, 2021-05-21 15:56:22.112
18.0, -203.2242889404297, -435.4346923828125, 333.3036193847656, 65.91012573242188, 0.01600000075995922, 0.0, 1.055999994277954, 0.0, 0.0, 0.0, 0.0, 0.0, 1.6216053821135287E9, 2021-05-21 15:56:22.113
18.0, -216.1306915283203, -450.6747741699219, 317.1435241699219, 48.601871490478516, 0.01600000075995922, 0.0, 1.055999994277954, 0.0, 0.0, 0.0, 0.0, 0.0, 1.6216053821135287E9, 2021-05-21 15:56:22.113
19.0, -192.6029815673828, -404.4533386230469, 356.47979736328125, 85.70915985107422, 0.01600000075995922, 0.0, 1.055999994277954, 0.0, 0.0, 0.0, 0.0, 0.0, 1.6216053821143453E9, 2021-05-21 15:56:22.114
19.0, -170.67221069335938, -386.8870544433594, 380.70684814453125, 108.13733673095703, 0.01600000075995922, 0.0, 1.055999994277954, 0.0, 0.0, 0.0, 0.0, 0.0, 1.6216053821143453E9, 2021-05-21 15:56:22.114
20.0, -202.0462188720703, -430.61395263671875, 338.3562316894531, 62.75739288330078, 0.01600000075995922, 0.0, 1.055999994277954, 0.0, 0.0, 0.0, 0.0, 0.0, 1.6216053821151173E9, 2021-05-21 15:56:22.115
20.0, -207.7757568359375, -440.4723205566406, 335.2745361328125, 51.00288391113281, 0.01600000075995922, 0.0, 1.055999994277954, 0.0, 0.0, 0.0, 0.0, 0.0, 1.6216053821151173E9, 2021-05-21 15:56:22.115
21.0, -181.0167694091797, -403.9783935546875, 367.6097412109375, 80.68273162841797, 0.01600000075995922, 0.0, 1.055999994277954, 0.0, 0.0, 0.0, 0.0, 0.0, 1.6216053821415808E9, 2021-05-21 15:56:22.141
21.0, -166.95474243164062, -384.48602294921875, 384.8768310546875, 106.96300506591797, 0.01600000075995922, 0.0, 1.055999994277954, 0.0, 0.0, 0.0, 0.0, 0.0, 1.6216053821415808E9, 2021-05-21 15:56:22.141
22.0, -208.7481231689453, -427.1956787109375, 341.8231201171875, 61.482086181640625, 0.01600000075995922, 0.0, 1.055999994277954, 0.0, 0.0, 0.0, 0.0, 0.0, 1.6216053821423695E9, 2021-05-21 15:56:22.142
22.0, -214.9040069580078, -436.9044494628906, 328.2622375488281, 51.208580017089844, 0.01600000075995922, 0.0, 1.055999994277954, 0.0, 0.0, 0.0, 0.0, 0.0, 1.6216053821423695E9, 2021-05-21 15:56:22.142
23.0, -179.85365295410156, -404.0569152832031, 367.0337829589844, 86.74137115478516, 0.01600000075995922, 0.0, 1.055999994277954, 0.0, 0.0, 0.0, 0.0, 0.0, 1.6216053821565256E9, 2021-05-21 15:56:22.156
23.0, -161.8497772216797, -391.82745361328125, 378.0028991699219, 104.54703521728516, 0.01600000075995922, 0.0, 1.055999994277954, 0.0, 0.0, 0.0, 0.0, 0.0, 1.6216053821565256E9, 2021-05-21 15:56:22.156
24.0, -201.10377502441406, -434.2491455078125, 335.98138427734375, 61.47086715698242, 0.01600000075995922, 0.0, 1.055999994277954, 0.0, 0.0, 0.0, 0.0, 0.0, 1.6216053821572704E9, 2021-05-21 15:56:22.157
24.0, -212.66754150390625, -445.4164733886719, 321.34716796875, 48.87114334106445, 0.01600000075995922, 0.0, 1.055999994277954, 0.0, 0.0, 0.0, 0.0, 0.0, 1.6216053821572704E9, 2021-05-21 15:56:22.157
25.0, -184.1171417236328, -415.53466796875, 354.8716125488281, 83.7232666015625, 0.01600000075995922, 0.0, 1.055999994277954, 0.0, 0.0, 0.0, 0.0, 0.0, 1.6216053821708755E9, 2021-05-21 15:56:22.170
25.0, -168.90696716308594, -400.1412353515625, 370.0705871582031, 105.69892120361328, 0.01600000075995922, 0.0, 1.055999994277954, 0.0, 0.0, 0.0, 0.0, 0.0, 1.6216053821708755E9, 2021-05-21 15:56:22.170
26.0, -200.3109130859375, -445.49127197265625, 330.2256774902344, 61.07817459106445, 0.01600000075995922, 0.0, 1.055999994277954, 0.0, 0.0, 0.0, 0.0, 0.0, 1.6216053821871731E9, 2021-05-21 15:56:22.187
26.0, -207.7271270751953, -448.5243225097656, 310.7071533203125, 49.357330322265625, 0.01600000075995922, 0.0, 1.055999994277954, 0.0, 0.0, 0.0, 0.0, 0.0, 1.6216053821871731E9, 2021-05-21 15:56:22.187
27.0, -181.89938354492188, -416.67535400390625, 348.15850830078125, 79.13067626953125, 0.01600000075995922, 0.0, 1.055999994277954, 0.0, 0.0, 0.0, 0.0, 0.0, 1.6216053821879146E9, 2021-05-21 15:56:22.187
27.0, -167.9607696533203, -396.3452453613281, 368.215576171875, 103.81027221679688, 0.01600000075995922, 0.0, 1.055999994277954, 0.0, 0.0, 0.0, 0.0, 0.0, 1.6216053821879146E9, 2021-05-21 15:56:22.187
28.0, -207.45785522460938, -439.9674377441406, 323.0862121582031, 63.49789047241211, 0.01600000075995922, 0.0, 1.055999994277954, 0.0, 0.0, 0.0, 0.0, 0.0, 1.6216053822008262E9, 2021-05-21 15:56:22.200
28.0, -220.01644897460938, -447.682861328125, 311.3840637207031, 50.03799057006836, 0.01600000075995922, 0.0, 1.055999994277954, 0.0, 0.0, 0.0, 0.0, 0.0, 1.6216053822008262E9, 2021-05-21 15:56:22.200
29.0, -181.2374267578125, -409.8724670410156, 356.1207580566406, 87.87081909179688, 0.01600000075995922, 0.0, 1.055999994277954, 0.0, 0.0, 0.0, 0.0, 0.0, 1.621605382216549E9, 2021-05-21 15:56:22.216
29.0, -166.7415771484375, -391.1131286621094, 376.0693664550781, 106.20381164550781, 0.01600000075995922, 0.0, 1.055999994277954, 0.0, 0.0, 0.0, 0.0, 0.0, 1.621605382216549E9, 2021-05-21 15:56:22.216
30.0, -194.39813232421875, -429.1516418457031, 334.6051025390625, 62.619014739990234, 0.01600000075995922, 0.0, 1.055999994277954, 0.0, 0.0, 0.0, 0.0, 0.0, 1.6216053822172897E9, 2021-05-21 15:56:22.217
30.0, -209.15951538085938, -446.9722595214844, 321.1190185546875, 50.61393737792969, 0.01600000075995922, 0.0, 1.055999994277954, 0.0, 0.0, 0.0, 0.0, 0.0, 1.6216053822172897E9, 2021-05-21 15:56:22.217
31.0, -176.3231964111328, -409.7378234863281, 355.6981506347656, 83.47269439697266, 0.01600000075995922, 0.0, 1.055999994277954, 0.0, 0.0, 0.0, 0.0, 0.0, 1.6216053822308836E9, 2021-05-21 15:56:22.230
31.0, -159.54600524902344, -395.88897705078125, 377.96551513671875, 98.3761978149414, 0.01600000075995922, 0.0, 1.055999994277954, 0.0, 0.0, 0.0, 0.0, 0.0, 1.6216053822308836E9, 2021-05-21 15:56:22.230
32.0, -190.96864318847656, -433.01123046875, 336.699462890625, 64.38798522949219, 0.03200000151991844, 0.0, 1.055999994277954, 0.0, 0.0, 0.0, 0.0, 0.0, 1.6216053822471943E9, 2021-05-21 15:56:22.247
32.0, -205.99929809570312, -452.8925476074219, 318.531005859375, 45.32197570800781, 0.03200000151991844, 0.0, 1.055999994277954, 0.0, 0.0, 0.0, 0.0, 0.0, 1.6216053822471943E9, 2021-05-21 15:56:22.247
33.0, -168.23753356933594, -418.328369140625, 354.99505615234375, 76.26590728759766, 0.03200000151991844, 0.0, 1.055999994277954, 0.0, 0.0, 0.0, 0.0, 0.0, 1.6216053822479038E9, 2021-05-21 15:56:22.247
33.0, -154.822509765625, -404.7488098144531, 370.67645263671875, 99.74874114990234, 0.03200000151991844, 0.0, 1.055999994277954, 0.0, 0.0, 0.0, 0.0, 0.0, 1.6216053822479038E9, 2021-05-21 15:56:22.247
34.0, -195.10496520996094, -445.6595764160156, 326.182861328125, 58.710819244384766, 0.03200000151991844, 0.0, 1.055999994277954, 0.0, 0.0, 0.0, 0.0, 0.0, 1.6216053822608278E9, 2021-05-21 15:56:22.260
34.0, -203.4823455810547, -454.2388916015625, 312.0123596191406, 44.29350662231445, 0.03200000151991844, 0.0, 1.055999994277954, 0.0, 0.0, 0.0, 0.0, 0.0, 1.6216053822608278E9, 2021-05-21 15:56:22.260
35.0, -177.3853302001953, -419.8841857910156, 347.4591369628906, 79.93475341796875, 0.03200000151991844, 0.0, 1.055999994277954, 0.0, 0.0, 0.0, 0.0, 0.0, 1.6216053822929509E9, 2021-05-21 15:56:22.292
35.0, -162.8333740234375, -396.62200927734375, 368.0921630859375, 103.5709228515625, 0.03200000151991844, 0.0, 1.055999994277954, 0.0, 0.0, 0.0, 0.0, 0.0, 1.6216053822929509E9, 2021-05-21 15:56:22.292
36.0, -203.39633178710938, -445.03875732421875, 326.2613830566406, 64.77320098876953, 0.03200000151991844, 0.0, 1.055999994277954, 0.0, 0.0, 0.0, 0.0, 0.0, 1.6216053822935853E9, 2021-05-21 15:56:22.293
36.0, -210.03091430664062, -453.599365234375, 313.1156311035156, 52.99251174926758, 0.03200000151991844, 0.0, 1.055999994277954, 0.0, 0.0, 0.0, 0.0, 0.0, 1.6216053822935853E9, 2021-05-21 15:56:22.293
37.0, -184.48365783691406, -418.64251708984375, 349.90130615234375, 81.83087921142578, 0.03200000151991844, 0.0, 1.055999994277954, 0.0, 0.0, 0.0, 0.0, 0.0, 1.6216053822943716E9, 2021-05-21 15:56:22.294
37.0, -166.2703399658203, -395.7319030761719, 371.04669189453125, 106.43194580078125, 0.03200000151991844, 0.0, 1.055999994277954, 0.0, 0.0, 0.0, 0.0, 0.0, 1.6216053822943716E9, 2021-05-21 15:56:22.294
38.0, -209.15577697753906, -442.2151184082031, 321.94927978515625, 62.11412811279297, 0.03200000151991844, 0.0, 1.055999994277954, 0.0, 0.0, 0.0, 0.0, 0.0, 1.6216053822951012E9, 2021-05-21 15:56:22.295
38.0, -216.48223876953125, -447.7838439941406, 315.04168701171875, 52.58112335205078, 0.03200000151991844, 0.0, 1.055999994277954, 0.0, 0.0, 0.0, 0.0, 0.0, 1.6216053822951012E9, 2021-05-21 15:56:22.295
39.0, -186.5331268310547, -411.8508605957031, 355.24560546875, 85.1032943725586, 0.03200000151991844, 0.0, 1.055999994277954, 0.0, 0.0, 0.0, 0.0, 0.0, 1.6216053823058717E9, 2021-05-21 15:56:22.305
39.0, -163.61126708984375, -388.8130798339844, 375.20172119140625, 106.81715393066406, 0.03200000151991844, 0.0, 1.055999994277954, 0.0, 0.0, 0.0, 0.0, 0.0, 1.6216053823058717E9, 2021-05-21 15:56:22.305
40.0, -198.568115234375, -437.6524353027344, 337.0771789550781, 61.37736892700195, 0.03200000151991844, 0.0, 1.055999994277954, 0.0, 0.0, 0.0, 0.0, 0.0, 1.6216053823208416E9, 2021-05-21 15:56:22.320
40.0, -211.65402221679688, -446.8750305175781, 324.58966064453125, 48.93846130371094, 0.03200000151991844, 0.0, 1.055999994277954, 0.0, 0.0, 0.0, 0.0, 0.0, 1.6216053823208416E9, 2021-05-21 15:56:22.320
41.0, -185.6392822265625, -409.4199523925781, 361.67449951171875, 77.56739807128906, 0.03200000151991844, 0.0, 1.055999994277954, 0.0, 0.0, 0.0, 0.0, 0.0, 1.6216053823365796E9, 2021-05-21 15:56:22.336
41.0, -168.96681213378906, -390.68304443359375, 381.1556396484375, 103.50733947753906, 0.03200000151991844, 0.0, 1.055999994277954, 0.0, 0.0, 0.0, 0.0, 0.0, 1.6216053823365796E9, 2021-05-21 15:56:22.336
42.0, -200.66619873046875, -436.9306335449219, 338.63671875, 62.4320182800293, 0.03200000151991844, 0.0, 1.055999994277954, 0.0, 0.0, 0.0, 0.0, 0.0, 1.6216053823373315E9, 2021-05-21 15:56:22.337
42.0, -219.45172119140625, -450.95526123046875, 326.852294921875, 46.01759719848633, 0.03200000151991844, 0.0, 1.055999994277954, 0.0, 0.0, 0.0, 0.0, 0.0, 1.6216053823373315E9, 2021-05-21 15:56:22.337
43.0, -184.3677215576172, -415.6094665527344, 356.7378234863281, 79.29896545410156, 0.03200000151991844, 0.0, 1.055999994277954, 0.0, 0.0, 0.0, 0.0, 0.0, 1.621605382350802E9, 2021-05-21 15:56:22.350
43.0, -167.10433959960938, -394.69219970703125, 371.701171875, 100.4032211303711, 0.03200000151991844, 0.0, 1.055999994277954, 0.0, 0.0, 0.0, 0.0, 0.0, 1.621605382350802E9, 2021-05-21 15:56:22.350
44.0, -194.2522735595703, -441.2577209472656, 331.1606750488281, 55.67028045654297, 0.03200000151991844, 0.0, 1.055999994277954, 0.0, 0.0, 0.0, 0.0, 0.0, 1.6216053823825915E9, 2021-05-21 15:56:22.382
44.0, -212.9854278564453, -452.4624328613281, 319.9783630371094, 46.04751968383789, 0.03200000151991844, 0.0, 1.055999994277954, 0.0, 0.0, 0.0, 0.0, 0.0, 1.6216053823825915E9, 2021-05-21 15:56:22.382
45.0, -181.32717895507812, -409.3114929199219, 355.2156982421875, 78.45375061035156, 0.03200000151991844, 0.0, 1.055999994277954, 0.0, 0.0, 0.0, 0.0, 0.0, 1.6216053823833225E9, 2021-05-21 15:56:22.383
45.0, -171.24815368652344, -394.9689636230469, 374.0124206542969, 101.28958129882812, 0.03200000151991844, 0.0, 1.055999994277954, 0.0, 0.0, 0.0, 0.0, 0.0, 1.6216053823833225E9, 2021-05-21 15:56:22.383
46.0, -203.04478454589844, -438.0189514160156, 331.3850402832031, 60.46109390258789, 0.03200000151991844, 0.0, 1.055999994277954, 0.0, 0.0, 0.0, 0.0, 0.0, 1.621605382397297E9, 2021-05-21 15:56:22.397
46.0, -215.16204833984375, -450.02777099609375, 317.180908203125, 42.715267181396484, 0.03200000151991844, 0.0, 1.055999994277954, 0.0, 0.0, 0.0, 0.0, 0.0, 1.621605382397297E9, 2021-05-21 15:56:22.397
47.0, -184.50234985351562, -414.0499267578125, 356.4087219238281, 83.63725280761719, 0.03200000151991844, 0.0, 1.055999994277954, 0.0, 0.0, 0.0, 0.0, 0.0, 1.6216053823979428E9, 2021-05-21 15:56:22.397
47.0, -165.89260864257812, -398.1553649902344, 378.0103759765625, 102.83415985107422, 0.03200000151991844, 0.0, 1.055999994277954, 0.0, 0.0, 0.0, 0.0, 0.0, 1.6216053823979428E9, 2021-05-21 15:56:22.397
48.0, -201.96768188476562, -439.2044982910156, 333.0792236328125, 59.290504455566406, 0.03200000151991844, 0.0, 1.055999994277954, 0.0, 0.0, 0.0, 0.0, 0.0, 1.621605382398748E9, 2021-05-21 15:56:22.398
48.0, -207.81689453125, -453.84246826171875, 324.3241271972656, 52.15851593017578, 0.03200000151991844, 0.0, 1.055999994277954, 0.0, 0.0, 0.0, 0.0, 0.0, 1.621605382398748E9, 2021-05-21 15:56:22.398
49.0, -185.7215576171875, -415.1606750488281, 356.8238525390625, 84.44132995605469, 0.03200000151991844, 0.0, 1.055999994277954, 0.0, 0.0, 0.0, 0.0, 0.0, 1.6216053824108727E9, 2021-05-21 15:56:22.410
49.0, -164.01144409179688, -393.9853820800781, 385.0002746582031, 108.60482788085938, 0.03200000151991844, 0.0, 1.055999994277954, 0.0, 0.0, 0.0, 0.0, 0.0, 1.6216053824108727E9, 2021-05-21 15:56:22.410
50.0, -204.671630859375, -443.3183898925781, 337.2230529785156, 61.728919982910156, 0.03200000151991844, 0.0, 1.055999994277954, 0.0, 0.0, 0.0, 0.0, 0.0, 1.621605382426572E9, 2021-05-21 15:56:22.426
50.0, -206.16384887695312, -443.96539306640625, 327.2524719238281, 53.46747970581055, 0.03200000151991844, 0.0, 1.055999994277954, 0.0, 0.0, 0.0, 0.0, 0.0, 1.621605382426572E9, 2021-05-21 15:56:22.426
51.0, -176.8243408203125, -411.7536315917969, 360.9676513671875, 81.21753692626953, 0.03200000151991844, 0.0, 1.055999994277954, 0.0, 0.0, 0.0, 0.0, 0.0, 1.6216053824273021E9, 2021-05-21 15:56:22.427
51.0, -164.18722534179688, -397.36248779296875, 373.7917785644531, 98.59685516357422, 0.03200000151991844, 0.0, 1.055999994277954, 0.0, 0.0, 0.0, 0.0, 0.0, 1.6216053824273021E9, 2021-05-21 15:56:22.427
52.0, -200.78587341308594, -443.5914001464844, 333.66265869140625, 58.419105529785156, 0.01600000075995922, 0.0, 1.055999994277954, 0.0, 0.0, 0.0, 0.0, 0.0, 1.6216053824408903E9, 2021-05-21 15:56:22.440
52.0, -214.5449676513672, -455.7647705078125, 315.1127624511719, 39.2670783996582, 0.01600000075995922, 0.0, 1.055999994277954, 0.0, 0.0, 0.0, 0.0, 0.0, 1.6216053824408903E9, 2021-05-21 15:56:22.440
53.0, -179.6965789794922, -417.9656066894531, 354.26202392578125, 85.09580993652344, 0.01600000075995922, 0.0, 1.055999994277954, 0.0, 0.0, 0.0, 0.0, 0.0, 1.6216053824565163E9, 2021-05-21 15:56:22.456
53.0, -165.99732971191406, -397.6130676269531, 373.0176086425781, 101.15494537353516, 0.01600000075995922, 0.0, 1.055999994277954, 0.0, 0.0, 0.0, 0.0, 0.0, 1.6216053824565163E9, 2021-05-21 15:56:22.456
54.0, -204.3051300048828, -441.0669860839844, 331.7515563964844, 59.96742630004883, 0.01600000075995922, 0.0, 1.055999994277954, 0.0, 0.0, 0.0, 0.0, 0.0, 1.621605382457228E9, 2021-05-21 15:56:22.457
54.0, -210.9546661376953, -455.22998046875, 320.1429138183594, 49.64904022216797, 0.01600000075995922, 0.0, 1.055999994277954, 0.0, 0.0, 0.0, 0.0, 0.0, 1.621605382457228E9, 2021-05-21 15:56:22.457
55.0, -183.8590850830078, -416.6790771484375, 361.0611572265625, 87.54544830322266, 0.01600000075995922, 0.0, 1.055999994277954, 0.0, 0.0, 0.0, 0.0, 0.0, 1.6216053824708934E9, 2021-05-21 15:56:22.470
55.0, -170.74325561523438, -398.327392578125, 374.23681640625, 102.87903594970703, 0.01600000075995922, 0.0, 1.055999994277954, 0.0, 0.0, 0.0, 0.0, 0.0, 1.6216053824708934E9, 2021-05-21 15:56:22.470
56.0, -208.37039184570312, -441.4110412597656, 332.69403076171875, 64.48896789550781, 0.01600000075995922, 0.0, 1.055999994277954, 0.0, 0.0, 0.0, 0.0, 0.0, 1.621605382486253E9, 2021-05-21 15:56:22.486
56.0, -219.0178985595703, -447.4210510253906, 317.2257995605469, 54.331398010253906, 0.01600000075995922, 0.0, 1.055999994277954, 0.0, 0.0, 0.0, 0.0, 0.0, 1.621605382486253E9, 2021-05-21 15:56:22.486
57.0, -191.50718688964844, -417.2886962890625, 356.12823486328125, 85.3650894165039, 0.01600000075995922, 0.0, 1.055999994277954, 0.0, 0.0, 0.0, 0.0, 0.0, 1.6216053825016644E9, 2021-05-21 15:56:22.501
57.0, -170.41041564941406, -395.0250549316406, 375.362548828125, 106.0429916381836, 0.01600000075995922, 0.0, 1.055999994277954, 0.0, 0.0, 0.0, 0.0, 0.0, 1.6216053825016644E9, 2021-05-21 15:56:22.501
58.0, -200.68490600585938, -438.3106689453125, 332.03204345703125, 58.5350456237793, 0.01600000075995922, 0.0, 1.055999994277954, 0.0, 0.0, 0.0, 0.0, 0.0, 1.621605382502264E9, 2021-05-21 15:56:22.502
58.0, -212.08786010742188, -455.6114501953125, 315.81585693359375, 43.8634147644043, 0.01600000075995922, 0.0, 1.055999994277954, 0.0, 0.0, 0.0, 0.0, 0.0, 1.621605382502264E9, 2021-05-21 15:56:22.502
59.0, -182.23223876953125, -415.0185546875, 352.31353759765625, 79.13441467285156, 0.01600000075995922, 0.0, 1.055999994277954, 0.0, 0.0, 0.0, 0.0, 0.0, 1.6216053825165188E9, 2021-05-21 15:56:22.516
59.0, -165.11471557617188, -398.6864318847656, 373.6309509277344, 102.03382110595703, 0.01600000075995922, 0.0, 1.055999994277954, 0.0, 0.0, 0.0, 0.0, 0.0, 1.6216053825165188E9, 2021-05-21 15:56:22.516
60.0, -200.60263061523438, -441.0408020019531, 327.16644287109375, 57.34949493408203, 0.01600000075995922, 0.0, 1.055999994277954, 0.0, 0.0, 0.0, 0.0, 0.0, 1.621605382517215E9, 2021-05-21 15:56:22.517
60.0, -207.8019256591797, -446.6020202636719, 317.03131103515625, 45.40425491333008, 0.01600000075995922, 0.0, 1.055999994277954, 0.0, 0.0, 0.0, 0.0, 0.0, 1.621605382517215E9, 2021-05-21 15:56:22.517
61.0, -178.57461547851562, -412.1313781738281, 355.5522766113281, 83.2408218383789, 0.01600000075995922, 0.0, 1.055999994277954, 0.0, 0.0, 0.0, 0.0, 0.0, 1.621605382530874E9, 2021-05-21 15:56:22.530
61.0, -167.81866455078125, -397.68414306640625, 368.7503967285156, 100.99038696289062, 0.01600000075995922, 0.0, 1.055999994277954, 0.0, 0.0, 0.0, 0.0, 0.0, 1.621605382530874E9, 2021-05-21 15:56:22.530
62.0, -202.97372436523438, -440.3190002441406, 325.3451232910156, 59.04740905761719, 0.03200000151991844, 0.0, 1.055999994277954, 0.0, 0.0, 0.0, 0.0, 0.0, 1.621605382546373E9, 2021-05-21 15:56:22.546
62.0, -213.50901794433594, -453.5096130371094, 314.54803466796875, 44.94050598144531, 0.03200000151991844, 0.0, 1.055999994277954, 0.0, 0.0, 0.0, 0.0, 0.0, 1.621605382546373E9, 2021-05-21 15:56:22.546
63.0, -181.8245849609375, -419.8355712890625, 348.78680419921875, 83.41285705566406, 0.03200000151991844, 0.0, 1.055999994277954, 0.0, 0.0, 0.0, 0.0, 0.0, 1.6216053825617845E9, 2021-05-21 15:56:22.561
63.0, -164.13485717773438, -407.1834716796875, 368.26422119140625, 102.67333984375, 0.03200000151991844, 0.0, 1.055999994277954, 0.0, 0.0, 0.0, 0.0, 0.0, 1.6216053825617845E9, 2021-05-21 15:56:22.561
64.0, -202.1771240234375, -446.744140625, 325.31146240234375, 62.89576721191406, 0.03200000151991844, 0.0, 1.055999994277954, 0.0, 0.0, 0.0, 0.0, 0.0, 1.6216053825623298E9, 2021-05-21 15:56:22.562
64.0, -210.20294189453125, -458.77166748046875, 316.94903564453125, 44.970428466796875, 0.03200000151991844, 0.0, 1.055999994277954, 0.0, 0.0, 0.0, 0.0, 0.0, 1.6216053825623298E9, 2021-05-21 15:56:22.562
65.0, -181.618896484375, -422.31512451171875, 353.0091552734375, 80.73883056640625, 0.03200000151991844, 0.0, 1.055999994277954, 0.0, 0.0, 0.0, 0.0, 0.0, 1.6216053825765865E9, 2021-05-21 15:56:22.576
65.0, -169.96536254882812, -402.1533203125, 372.4529113769531, 104.55077362060547, 0.03200000151991844, 0.0, 1.055999994277954, 0.0, 0.0, 0.0, 0.0, 0.0, 1.6216053825765865E9, 2021-05-21 15:56:22.576
66.0, -200.44554138183594, -439.6009216308594, 329.1747741699219, 63.68862533569336, 0.03200000151991844, 0.0, 1.055999994277954, 0.0, 0.0, 0.0, 0.0, 0.0, 1.6216053825773003E9, 2021-05-21 15:56:22.577
66.0, -215.8127899169922, -458.5809326171875, 312.5322265625, 46.67582321166992, 0.03200000151991844, 0.0, 1.055999994277954, 0.0, 0.0, 0.0, 0.0, 0.0, 1.6216053825773003E9, 2021-05-21 15:56:22.577
67.0, -186.76126098632812, -415.2242736816406, 352.8558349609375, 85.79891204833984, 0.03200000151991844, 0.0, 1.055999994277954, 0.0, 0.0, 0.0, 0.0, 0.0, 1.621605382590844E9, 2021-05-21 15:56:22.590
67.0, -167.9532928466797, -391.99200439453125, 378.4329833984375, 105.39225006103516, 0.03200000151991844, 0.0, 1.055999994277954, 0.0, 0.0, 0.0, 0.0, 0.0, 1.621605382590844E9, 2021-05-21 15:56:22.590
68.0, -201.68345642089844, -435.9470520019531, 334.904296875, 65.40149688720703, 0.03200000151991844, 0.0, 1.055999994277954, 0.0, 0.0, 0.0, 0.0, 0.0, 1.6216053826069434E9, 2021-05-21 15:56:22.606
68.0, -213.50527954101562, -449.0292053222656, 318.40386962890625, 46.85159683227539, 0.03200000151991844, 0.0, 1.055999994277954, 0.0, 0.0, 0.0, 0.0, 0.0, 1.6216053826069434E9, 2021-05-21 15:56:22.606
69.0, -186.03196716308594, -414.1097717285156, 360.6609802246094, 81.61396789550781, 0.03200000151991844, 0.0, 1.055999994277954, 0.0, 0.0, 0.0, 0.0, 0.0, 1.621605382621557E9, 2021-05-21 15:56:22.621
69.0, -169.40811157226562, -390.8139343261719, 377.6027526855469, 105.36233520507812, 0.03200000151991844, 0.0, 1.055999994277954, 0.0, 0.0, 0.0, 0.0, 0.0, 1.621605382621557E9, 2021-05-21 15:56:22.621
70.0, -205.96937561035156, -444.4515686035156, 331.5832824707031, 62.420799255371094, 0.03200000151991844, 0.0, 1.055999994277954, 0.0, 0.0, 0.0, 0.0, 0.0, 1.621605382622224E9, 2021-05-21 15:56:22.622
70.0, -211.3772735595703, -455.1701354980469, 321.82586669921875, 49.56302261352539, 0.03200000151991844, 0.0, 1.055999994277954, 0.0, 0.0, 0.0, 0.0, 0.0, 1.621605382622224E9, 2021-05-21 15:56:22.622
71.0, -180.95692443847656, -422.39739990234375, 355.8252868652344, 84.2618179321289, 0.03200000151991844, 0.0, 1.055999994277954, 0.0, 0.0, 0.0, 0.0, 0.0, 1.6216053826366308E9, 2021-05-21 15:56:22.636
71.0, -161.4683074951172, -401.9999694824219, 371.3271789550781, 101.06892395019531, 0.03200000151991844, 0.0, 1.055999994277954, 0.0, 0.0, 0.0, 0.0, 0.0, 1.6216053826366308E9, 2021-05-21 15:56:22.636
72.0, -197.52468872070312, -453.20294189453125, 328.81573486328125, 62.92942810058594, 0.03200000151991844, 0.0, 1.055999994277954, 0.0, 0.0, 0.0, 0.0, 0.0, 1.621605382637263E9, 2021-05-21 15:56:22.637
72.0, -207.70843505859375, -461.6401672363281, 314.03192138671875, 46.7917594909668, 0.03200000151991844, 0.0, 1.055999994277954, 0.0, 0.0, 0.0, 0.0, 0.0, 1.621605382637263E9, 2021-05-21 15:56:22.637
73.0, -174.61032104492188, -425.4416809082031, 351.3000183105469, 87.75862121582031, 0.03200000151991844, 0.0, 1.055999994277954, 0.0, 0.0, 0.0, 0.0, 0.0, 1.6216053826508384E9, 2021-05-21 15:56:22.650
73.0, -165.85894775390625, -404.8759460449219, 374.8651428222656, 105.32493591308594, 0.03200000151991844, 0.0, 1.055999994277954, 0.0, 0.0, 0.0, 0.0, 0.0, 1.6216053826508384E9, 2021-05-21 15:56:22.650
74.0, -200.3109130859375, -442.8135070800781, 330.1172180175781, 63.78586196899414, 0.03200000151991844, 0.0, 1.055999994277954, 0.0, 0.0, 0.0, 0.0, 0.0, 1.6216053826829598E9, 2021-05-21 15:56:22.682
74.0, -209.4699249267578, -455.7311096191406, 318.48614501953125, 47.928688049316406, 0.03200000151991844, 0.0, 1.055999994277954, 0.0, 0.0, 0.0, 0.0, 0.0, 1.6216053826829598E9, 2021-05-21 15:56:22.682
75.0, -184.63699340820312, -420.7742614746094, 359.9242248535156, 82.49284362792969, 0.03200000151991844, 0.0, 1.055999994277954, 0.0, 0.0, 0.0, 0.0, 0.0, 1.6216053826836095E9, 2021-05-21 15:56:22.683
75.0, -166.15066528320312, -400.59002685546875, 378.0216064453125, 101.67852783203125, 0.03200000151991844, 0.0, 1.055999994277954, 0.0, 0.0, 0.0, 0.0, 0.0, 1.6216053826836095E9, 2021-05-21 15:56:22.683
76.0, -201.7993927001953, -439.5560607910156, 336.46759033203125, 58.295692443847656, 0.03200000151991844, 0.0, 1.055999994277954, 0.0, 0.0, 0.0, 0.0, 0.0, 1.6216053826843393E9, 2021-05-21 15:56:22.684
76.0, -206.06661987304688, -448.99554443359375, 325.2478942871094, 45.067665100097656, 0.03200000151991844, 0.0, 1.055999994277954, 0.0, 0.0, 0.0, 0.0, 0.0, 1.6216053826843393E9, 2021-05-21 15:56:22.684
77.0, -178.42501831054688, -419.6148986816406, 357.9158935546875, 81.82714080810547, 0.03200000151991844, 0.0, 1.055999994277954, 0.0, 0.0, 0.0, 0.0, 0.0, 1.6216053826851127E9, 2021-05-21 15:56:22.685
77.0, -160.4248809814453, -396.28167724609375, 377.7859802246094, 99.54304504394531, 0.03200000151991844, 0.0, 1.055999994277954, 0.0, 0.0, 0.0, 0.0, 0.0, 1.6216053826851127E9, 2021-05-21 15:56:22.685
78.0, -202.12850952148438, -440.7976989746094, 334.49664306640625, 61.16793441772461, 0.03200000151991844, 0.0, 1.055999994277954, 0.0, 0.0, 0.0, 0.0, 0.0, 1.6216053826958606E9, 2021-05-21 15:56:22.695
78.0, -208.4564208984375, -446.9386291503906, 324.5260925292969, 54.67546844482422, 0.03200000151991844, 0.0, 1.055999994277954, 0.0, 0.0, 0.0, 0.0, 0.0, 1.6216053826958606E9, 2021-05-21 15:56:22.695
79.0, -178.6531524658203, -413.32440185546875, 357.9720153808594, 85.54460144042969, 0.03200000151991844, 0.0, 1.055999994277954, 0.0, 0.0, 0.0, 0.0, 0.0, 1.6216053827279885E9, 2021-05-21 15:56:22.727
79.0, -158.78306579589844, -399.7784729003906, 379.8242492675781, 109.8202896118164, 0.03200000151991844, 0.0, 1.055999994277954, 0.0, 0.0, 0.0, 0.0, 0.0, 1.6216053827279885E9, 2021-05-21 15:56:22.727
80.0, -200.06407165527344, -443.1239013671875, 328.39312744140625, 66.90493774414062, 0.03200000151991844, 0.0, 1.055999994277954, 0.0, 0.0, 0.0, 0.0, 0.0, 1.6216053827289045E9, 2021-05-21 15:56:22.728
80.0, -217.66030883789062, -451.0711975097656, 310.6211242675781, 50.18010711669922, 0.03200000151991844, 0.0, 1.055999994277954, 0.0, 0.0, 0.0, 0.0, 0.0, 1.6216053827289045E9, 2021-05-21 15:56:22.728
81.0, -180.70262145996094, -416.0806884765625, 354.0638122558594, 89.92402648925781, 0.03200000151991844, 0.0, 1.055999994277954, 0.0, 0.0, 0.0, 0.0, 0.0, 1.6216053827293215E9, 2021-05-21 15:56:22.729
81.0, -162.6239471435547, -398.18902587890625, 374.1732482910156, 106.77601623535156, 0.03200000151991844, 0.0, 1.055999994277954, 0.0, 0.0, 0.0, 0.0, 0.0, 1.6216053827293215E9, 2021-05-21 15:56:22.729
82.0, -202.2145233154297, -443.97662353515625, 324.7392578125, 57.476654052734375, 0.03200000151991844, 0.0, 1.055999994277954, 0.0, 0.0, 0.0, 0.0, 0.0, 1.6216053827409086E9, 2021-05-21 15:56:22.740
82.0, -209.81399536132812, -455.73486328125, 311.9263610839844, 45.41173553466797, 0.03200000151991844, 0.0, 1.055999994277954, 0.0, 0.0, 0.0, 0.0, 0.0, 1.6216053827409086E9, 2021-05-21 15:56:22.740
83.0, -187.90567016601562, -416.4659118652344, 347.82940673828125, 80.37232208251953, 0.03200000151991844, 0.0, 1.055999994277954, 0.0, 0.0, 0.0, 0.0, 0.0, 1.621605382756518E9, 2021-05-21 15:56:22.756
83.0, -172.2915802001953, -390.5259704589844, 375.28399658203125, 103.91873168945312, 0.03200000151991844, 0.0, 1.055999994277954, 0.0, 0.0, 0.0, 0.0, 0.0, 1.621605382756518E9, 2021-05-21 15:56:22.756
84.0, -203.20933532714844, -428.77764892578125, 337.4997863769531, 67.79503631591797, 0.03200000151991844, 0.0, 1.055999994277954, 0.0, 0.0, 0.0, 0.0, 0.0, 1.6216053827572381E9, 2021-05-21 15:56:22.757
84.0, -213.8418731689453, -444.290771484375, 324.2680358886719, 48.58317184448242, 0.03200000151991844, 0.0, 1.055999994277954, 0.0, 0.0, 0.0, 0.0, 0.0, 1.6216053827572381E9, 2021-05-21 15:56:22.757
85.0, -178.70550537109375, -405.1714172363281, 355.4812316894531, 82.99772644042969, 0.03200000151991844, 0.0, 1.055999994277954, 0.0, 0.0, 0.0, 0.0, 0.0, 1.6216053827872312E9, 2021-05-21 15:56:22.787
85.0, -169.55770874023438, -388.480224609375, 375.40740966796875, 97.58333587646484, 0.03200000151991844, 0.0, 1.055999994277954, 0.0, 0.0, 0.0, 0.0, 0.0, 1.6216053827872312E9, 2021-05-21 15:56:22.787
86.0, -197.5957489013672, -434.90362548828125, 334.1937255859375, 63.32959747314453, 0.03200000151991844, 0.0, 1.055999994277954, 0.0, 0.0, 0.0, 0.0, 0.0, 1.6216053827879562E9, 2021-05-21 15:56:22.787
86.0, -209.84017944335938, -443.87188720703125, 321.7510681152344, 53.314144134521484, 0.03200000151991844, 0.0, 1.055999994277954, 0.0, 0.0, 0.0, 0.0, 0.0, 1.6216053827879562E9, 2021-05-21 15:56:22.787
87.0, -177.14596557617188, -404.5580749511719, 356.0609130859375, 89.99507904052734, 0.03200000151991844, 0.0, 1.055999994277954, 0.0, 0.0, 0.0, 0.0, 0.0, 1.6216053827886758E9, 2021-05-21 15:56:22.788
87.0, -165.7654571533203, -392.0892333984375, 375.10821533203125, 109.02743530273438, 0.03200000151991844, 0.0, 1.055999994277954, 0.0, 0.0, 0.0, 0.0, 0.0, 1.6216053827886758E9, 2021-05-21 15:56:22.788
88.0, -205.70384216308594, -436.6800537109375, 330.3752746582031, 72.91121673583984, 0.03200000151991844, 0.0, 1.055999994277954, 0.0, 0.0, 0.0, 0.0, 0.0, 1.621605382800968E9, 2021-05-21 15:56:22.800
88.0, -208.72193908691406, -454.6914367675781, 320.98065185546875, 50.62515640258789, 0.03200000151991844, 0.0, 1.055999994277954, 0.0, 0.0, 0.0, 0.0, 0.0, 1.621605382800968E9, 2021-05-21 15:56:22.800
89.0, -178.66436767578125, -412.5128479003906, 353.7945251464844, 85.67549896240234, 0.03200000151991844, 0.0, 1.055999994277954, 0.0, 0.0, 0.0, 0.0, 0.0, 1.621605382849283E9, 2021-05-21 15:56:22.849
89.0, -163.22605895996094, -390.9223937988281, 374.8800964355469, 102.7892837524414, 0.03200000151991844, 0.0, 1.055999994277954, 0.0, 0.0, 0.0, 0.0, 0.0, 1.621605382849283E9, 2021-05-21 15:56:22.849
90.0, -195.62481689453125, -438.3031921386719, 334.130126953125, 64.27204895019531, 0.03200000151991844, 0.0, 1.055999994277954, 0.0, 0.0, 0.0, 0.0, 0.0, 1.6216053828499398E9, 2021-05-21 15:56:22.849
90.0, -217.88470458984375, -447.6753845214844, 315.39324951171875, 46.65712356567383, 0.03200000151991844, 0.0, 1.055999994277954, 0.0, 0.0, 0.0, 0.0, 0.0, 1.6216053828499398E9, 2021-05-21 15:56:22.849
91.0, -184.7903289794922, -406.89923095703125, 350.5931701660156, 82.9603271484375, 0.03200000151991844, 0.0, 1.055999994277954, 0.0, 0.0, 0.0, 0.0, 0.0, 1.6216053828507316E9, 2021-05-21 15:56:22.850
91.0, -174.29991149902344, -384.429931640625, 376.0357360839844, 101.7047119140625, 0.03200000151991844, 0.0, 1.055999994277954, 0.0, 0.0, 0.0, 0.0, 0.0, 1.6216053828507316E9, 2021-05-21 15:56:22.850
92.0, -203.4449462890625, -431.1786804199219, 329.3580322265625, 59.23066711425781, 0.03200000151991844, 0.0, 1.055999994277954, 0.0, 0.0, 0.0, 0.0, 0.0, 1.6216053828514445E9, 2021-05-21 15:56:22.851
92.0, -217.42469787597656, -441.0669860839844, 321.37335205078125, 43.732521057128906, 0.03200000151991844, 0.0, 1.055999994277954, 0.0, 0.0, 0.0, 0.0, 0.0, 1.6216053828514445E9, 2021-05-21 15:56:22.851
93.0, -184.05731201171875, -403.89984130859375, 356.29278564453125, 76.81941223144531, 0.03200000151991844, 0.0, 1.055999994277954, 0.0, 0.0, 0.0, 0.0, 0.0, 1.6216053828617227E9, 2021-05-21 15:56:22.861
93.0, -167.34368896484375, -388.94024658203125, 381.2491455078125, 102.9500961303711, 0.03200000151991844, 0.0, 1.055999994277954, 0.0, 0.0, 0.0, 0.0, 0.0, 1.6216053828617227E9, 2021-05-21 15:56:22.861
94.0, -201.3693084716797, -430.13525390625, 337.16693115234375, 58.21341323852539, 0.03200000151991844, 0.0, 1.055999994277954, 0.0, 0.0, 0.0, 0.0, 0.0, 1.6216053828623965E9, 2021-05-21 15:56:22.862
94.0, -213.9615478515625, -439.44012451171875, 321.34716796875, 49.75375747680664, 0.03200000151991844, 0.0, 1.055999994277954, 0.0, 0.0, 0.0, 0.0, 0.0, 1.6216053828623965E9, 2021-05-21 15:56:22.862
95.0, -186.21896362304688, -409.2703552246094, 351.8236083984375, 79.99085235595703, 0.03200000151991844, 0.0, 1.055999994277954, 0.0, 0.0, 0.0, 0.0, 0.0, 1.621605382876501E9, 2021-05-21 15:56:22.876
95.0, -166.9098663330078, -387.9566650390625, 376.1366882324219, 109.6146011352539, 0.03200000151991844, 0.0, 1.055999994277954, 0.0, 0.0, 0.0, 0.0, 0.0, 1.621605382876501E9, 2021-05-21 15:56:22.876
96.0, -202.96998596191406, -432.2183532714844, 332.72393798828125, 66.6169662475586, 0.03200000151991844, 0.0, 1.055999994277954, 0.0, 0.0, 0.0, 0.0, 0.0, 1.621605382877242E9, 2021-05-21 15:56:22.877
96.0, -215.6519775390625, -439.31671142578125, 317.0911560058594, 49.9257926940918, 0.03200000151991844, 0.0, 1.055999994277954, 0.0, 0.0, 0.0, 0.0, 0.0, 1.621605382877242E9, 2021-05-21 15:56:22.877
97.0, -182.4267120361328, -407.9950256347656, 358.37591552734375, 84.48995208740234, 0.03200000151991844, 0.0, 1.055999994277954, 0.0, 0.0, 0.0, 0.0, 0.0, 1.6216053829072595E9, 2021-05-21 15:56:22.907
97.0, -167.4671173095703, -388.1548767089844, 376.5592956542969, 109.08727264404297, 0.03200000151991844, 0.0, 1.055999994277954, 0.0, 0.0, 0.0, 0.0, 0.0, 1.6216053829072595E9, 2021-05-21 15:56:22.907
98.0, -202.79794311523438, -436.21630859375, 333.51678466796875, 63.097721099853516, 0.03200000151991844, 0.0, 1.055999994277954, 0.0, 0.0, 0.0, 0.0, 0.0, 1.6216053829079227E9, 2021-05-21 15:56:22.907
98.0, -211.66151428222656, -448.0718078613281, 318.38140869140625, 50.195068359375, 0.03200000151991844, 0.0, 1.055999994277954, 0.0, 0.0, 0.0, 0.0, 0.0, 1.6216053829079227E9, 2021-05-21 15:56:22.907
99.0, -185.2989501953125, -413.6871643066406, 357.3175354003906, 81.75982666015625, 0.03200000151991844, 0.0, 1.055999994277954, 0.0, 0.0, 0.0, 0.0, 0.0, 1.621605382908645E9, 2021-05-21 15:56:22.908
99.0, -170.6647186279297, -395.94134521484375, 371.8021545410156, 103.99726867675781, 0.03200000151991844, 0.0, 1.055999994277954, 0.0, 0.0, 0.0, 0.0, 0.0, 1.621605382908645E9, 2021-05-21 15:56:22.908
100.0, -207.31948852539062, -437.9890441894531, 327.2375183105469, 56.44818115234375, 0.03200000151991844, 0.0, 1.055999994277954, 0.0, 0.0, 0.0, 0.0, 0.0, 1.6216053829379556E9, 2021-05-21 15:56:22.937
100.0, -214.6272430419922, -451.3143005371094, 313.459716796875, 44.75351333618164, 0.03200000151991844, 0.0, 1.055999994277954, 0.0, 0.0, 0.0, 0.0, 0.0, 1.6216053829379556E9, 2021-05-21 15:56:22.937
0.0, -184.08721923828125, -417.6888427734375, 350.78204345703125, 77.15413665771484, 0.03200000151991844, 0.0, 1.055999994277954, 0.0, 0.0, 0.0, 0.0, 0.0, 1.6216053829386027E9, 2021-05-21 15:56:22.938
1.0, -164.6958465576172, -392.13037109375, 370.4613952636719, 101.54202270507812, 0.03200000151991844, 0.0, 1.055999994277954, 0.0, 0.0, 0.0, 0.0, 0.0, 1.6216053829393551E9, 2021-05-21 15:56:22.939
1.0, -201.7507781982422, -434.6268615722656, 327.609619140625, 58.641632080078125, 0.03200000151991844, 0.0, 1.055999994277954, 0.0, 0.0, 0.0, 0.0, 0.0, 1.6216053829393551E9, 2021-05-21 15:56:22.939
2.0, -215.4911651611328, -443.92425537109375, 315.1856689453125, 47.38827133178711, 0.01600000075995922, 0.0, 1.055999994277954, 0.0, 0.0, 0.0, 0.0, 0.0, 1.62160538294015E9, 2021-05-21 15:56:22.940
2.0, -180.8409881591797, -412.905517578125, 353.53460693359375, 86.0775375366211, 0.01600000075995922, 0.0, 1.055999994277954, 0.0, 0.0, 0.0, 0.0, 0.0, 1.62160538294015E9, 2021-05-21 15:56:22.940
3.0, -165.38772583007812, -393.0092468261719, 376.9426574707031, 102.28252410888672, 0.01600000075995922, 0.0, 1.055999994277954, 0.0, 0.0, 0.0, 0.0, 0.0, 1.6216053829507778E9, 2021-05-21 15:56:22.950
3.0, -204.66041564941406, -431.38812255859375, 332.374267578125, 59.61026382446289, 0.01600000075995922, 0.0, 1.055999994277954, 0.0, 0.0, 0.0, 0.0, 0.0, 1.6216053829507778E9, 2021-05-21 15:56:22.950
4.0, -220.25579833984375, -443.281005859375, 315.7840576171875, 52.2426643371582, 0.01600000075995922, 0.0, 1.055999994277954, 0.0, 0.0, 0.0, 0.0, 0.0, 1.6216053829659605E9, 2021-05-21 15:56:22.965
4.0, -186.70889282226562, -409.9248352050781, 357.2857360839844, 86.26827239990234, 0.01600000075995922, 0.0, 1.055999994277954, 0.0, 0.0, 0.0, 0.0, 0.0, 1.6216053829659605E9, 2021-05-21 15:56:22.965
5.0, -173.6903076171875, -393.3795166015625, 376.78558349609375, 103.28482055664062, 0.01600000075995922, 0.0, 1.055999994277954, 0.0, 0.0, 0.0, 0.0, 0.0, 1.6216053829815483E9, 2021-05-21 15:56:22.981
5.0, -208.7855224609375, -434.3800354003906, 330.1639709472656, 62.362831115722656, 0.01600000075995922, 0.0, 1.055999994277954, 0.0, 0.0, 0.0, 0.0, 0.0, 1.6216053829815483E9, 2021-05-21 15:56:22.981
6.0, -218.30731201171875, -445.8876953125, 317.7362976074219, 49.561153411865234, 0.01600000075995922, 0.0, 1.055999994277954, 0.0, 0.0, 0.0, 0.0, 0.0, 1.621605382982246E9, 2021-05-21 15:56:22.982
6.0, -187.44564819335938, -418.1526184082031, 352.57720947265625, 77.75626373291016, 0.01600000075995922, 0.0, 1.055999994277954, 0.0, 0.0, 0.0, 0.0, 0.0, 1.621605382982246E9, 2021-05-21 15:56:22.982
7.0, -173.40980529785156, -393.573974609375, 374.077880859375, 100.37517547607422, 0.01600000075995922, 0.0, 1.055999994277954, 0.0, 0.0, 0.0, 0.0, 0.0, 1.621605382995791E9, 2021-05-21 15:56:22.995
7.0, -203.5234832763672, -431.2796630859375, 328.8550109863281, 58.13300323486328, 0.01600000075995922, 0.0, 1.055999994277954, 0.0, 0.0, 0.0, 0.0, 0.0, 1.621605382995791E9, 2021-05-21 15:56:22.995
8.0, -213.404296875, -444.75823974609375, 317.1640930175781, 45.16303253173828, 0.01600000075995922, 0.0, 1.055999994277954, 0.0, 0.0, 0.0, 0.0, 0.0, 1.621605383012173E9, 2021-05-21 15:56:23.012
8.0, -183.8179473876953, -411.1664733886719, 353.4261474609375, 77.29999542236328, 0.01600000075995922, 0.0, 1.055999994277954, 0.0, 0.0, 0.0, 0.0, 0.0, 1.621605383012173E9, 2021-05-21 15:56:23.012
9.0, -168.48809814453125, -387.5826721191406, 380.5703430175781, 101.07079315185547, 0.01600000075995922, 0.0, 1.055999994277954, 0.0, 0.0, 0.0, 0.0, 0.0, 1.6216053830128856E9, 2021-05-21 15:56:23.012
9.0, -201.69093322753906, -426.92266845703125, 337.4081726074219, 59.85709762573242, 0.01600000075995922, 0.0, 1.055999994277954, 0.0, 0.0, 0.0, 0.0, 0.0, 1.6216053830128856E9, 2021-05-21 15:56:23.012
10.0, -212.5964813232422, -439.5597839355469, 325.15252685546875, 46.81606674194336, 0.01600000075995922, 0.0, 1.055999994277954, 0.0, 0.0, 0.0, 0.0, 0.0, 1.6216053830257823E9, 2021-05-21 15:56:23.025
10.0, -186.16287231445312, -411.5479431152344, 356.8107604980469, 78.80342864990234, 0.01600000075995922, 0.0, 1.055999994277954, 0.0, 0.0, 0.0, 0.0, 0.0, 1.6216053830257823E9, 2021-05-21 15:56:23.025
11.0, -165.56350708007812, -393.3682861328125, 374.86700439453125, 96.52681732177734, 0.01600000075995922, 0.0, 1.055999994277954, 0.0, 0.0, 0.0, 0.0, 0.0, 1.62160538304153E9, 2021-05-21 15:56:23.041
11.0, -209.52976989746094, -433.9798583984375, 327.4114074707031, 57.36632537841797, 0.01600000075995922, 0.0, 1.055999994277954, 0.0, 0.0, 0.0, 0.0, 0.0, 1.62160538304153E9, 2021-05-21 15:56:23.041
12.0, -220.64100646972656, -450.5102233886719, 317.3959655761719, 43.068687438964844, 0.03200000151991844, 0.0, 1.055999994277954, 0.0, 0.0, 0.0, 0.0, 0.0, 1.62160538304227E9, 2021-05-21 15:56:23.042
12.0, -194.65618896484375, -408.6981506347656, 346.1557922363281, 75.24304962158203, 0.03200000151991844, 0.0, 1.055999994277954, 0.0, 0.0, 0.0, 0.0, 0.0, 1.62160538304227E9, 2021-05-21 15:56:23.042
13.0, -179.0346221923828, -390.63067626953125, 372.7763977050781, 98.65482330322266, 0.03200000151991844, 0.0, 1.055999994277954, 0.0, 0.0, 0.0, 0.0, 0.0, 1.621605383055871E9, 2021-05-21 15:56:23.055
13.0, -207.45037841796875, -425.5164794921875, 328.7615051269531, 61.065086364746094, 0.03200000151991844, 0.0, 1.055999994277954, 0.0, 0.0, 0.0, 0.0, 0.0, 1.621605383055871E9, 2021-05-21 15:56:23.055
14.0, -215.91751098632812, -447.0732421875, 312.2909851074219, 44.261714935302734, 0.03200000151991844, 0.0, 1.055999994277954, 0.0, 0.0, 0.0, 0.0, 0.0, 1.6216053830716224E9, 2021-05-21 15:56:23.071
14.0, -183.6459197998047, -407.5873718261719, 353.7702331542969, 83.77375793457031, 0.03200000151991844, 0.0, 1.055999994277954, 0.0, 0.0, 0.0, 0.0, 0.0, 1.6216053830716224E9, 2021-05-21 15:56:23.071
15.0, -169.2323455810547, -395.8441162109375, 372.0134582519531, 102.75375366210938, 0.03200000151991844, 0.0, 1.055999994277954, 0.0, 0.0, 0.0, 0.0, 0.0, 1.6216053830723689E9, 2021-05-21 15:56:23.072
15.0, -204.6678924560547, -435.4421691894531, 321.681884765625, 57.313968658447266, 0.03200000151991844, 0.0, 1.055999994277954, 0.0, 0.0, 0.0, 0.0, 0.0, 1.6216053830723689E9, 2021-05-21 15:56:23.072
16.0, -211.52687072753906, -445.4950256347656, 314.8939514160156, 49.29936218261719, 0.03200000151991844, 0.0, 1.055999994277954, 0.0, 0.0, 0.0, 0.0, 0.0, 1.621605383085847E9, 2021-05-21 15:56:23.085
16.0, -183.3467254638672, -407.5126037597656, 351.30938720703125, 84.91816711425781, 0.03200000151991844, 0.0, 1.055999994277954, 0.0, 0.0, 0.0, 0.0, 0.0, 1.621605383085847E9, 2021-05-21 15:56:23.085
17.0, -170.05511474609375, -390.41375732421875, 374.7099304199219, 106.27299499511719, 0.03200000151991844, 0.0, 1.055999994277954, 0.0, 0.0, 0.0, 0.0, 0.0, 1.6216053831015875E9, 2021-05-21 15:56:23.101
17.0, -203.20559692382812, -436.5080261230469, 333.34661865234375, 61.177284240722656, 0.03200000151991844, 0.0, 1.055999994277954, 0.0, 0.0, 0.0, 0.0, 0.0, 1.6216053831015875E9, 2021-05-21 15:56:23.101
18.0, -215.52108764648438, -445.42022705078125, 323.06939697265625, 45.125633239746094, 0.03200000151991844, 0.0, 1.055999994277954, 0.0, 0.0, 0.0, 0.0, 0.0, 1.6216053831023123E9, 2021-05-21 15:56:23.102
18.0, -182.38931274414062, -402.2318420410156, 368.5016784667969, 86.23087310791016, 0.03200000151991844, 0.0, 1.055999994277954, 0.0, 0.0, 0.0, 0.0, 0.0, 1.6216053831023123E9, 2021-05-21 15:56:23.102
19.0, -172.5309295654297, -387.2198791503906, 386.0455627441406, 102.10301208496094, 0.03200000151991844, 0.0, 1.055999994277954, 0.0, 0.0, 0.0, 0.0, 0.0, 1.621605383115857E9, 2021-05-21 15:56:23.115
19.0, -207.91786193847656, -422.80877685546875, 346.7803649902344, 63.776512145996094, 0.03200000151991844, 0.0, 1.055999994277954, 0.0, 0.0, 0.0, 0.0, 0.0, 1.621605383115857E9, 2021-05-21 15:56:23.115
20.0, -219.0440673828125, -434.630615234375, 336.435791015625, 48.29706954956055, 0.03200000151991844, 0.0, 1.055999994277954, 0.0, 0.0, 0.0, 0.0, 0.0, 1.6216053831316028E9, 2021-05-21 15:56:23.131
20.0, -186.42840576171875, -401.0986633300781, 371.8414306640625, 85.0565414428711, 0.03200000151991844, 0.0, 1.055999994277954, 0.0, 0.0, 0.0, 0.0, 0.0, 1.6216053831316028E9, 2021-05-21 15:56:23.131
21.0, -171.0499267578125, -380.8807678222656, 392.3659973144531, 101.26901245117188, 0.03200000151991844, 0.0, 1.055999994277954, 0.0, 0.0, 0.0, 0.0, 0.0, 1.6216053831322427E9, 2021-05-21 15:56:23.132
21.0, -206.39572143554688, -423.8933410644531, 344.9964294433594, 59.15399932861328, 0.03200000151991844, 0.0, 1.055999994277954, 0.0, 0.0, 0.0, 0.0, 0.0, 1.6216053831322427E9, 2021-05-21 15:56:23.132
22.0, -215.2331085205078, -440.6817626953125, 320.7431640625, 47.95673751831055, 0.03200000151991844, 0.0, 1.055999994277954, 0.0, 0.0, 0.0, 0.0, 0.0, 1.6216053831459177E9, 2021-05-21 15:56:23.145
22.0, -187.15394592285156, -405.122802734375, 359.2641296386719, 82.7303237915039, 0.03200000151991844, 0.0, 1.055999994277954, 0.0, 0.0, 0.0, 0.0, 0.0, 1.6216053831459177E9, 2021-05-21 15:56:23.145
23.0, -172.56832885742188, -385.51824951171875, 377.04736328125, 98.9652328491211, 0.03200000151991844, 0.0, 1.055999994277954, 0.0, 0.0, 0.0, 0.0, 0.0, 1.6216053831615546E9, 2021-05-21 15:56:23.161
23.0, -203.71047973632812, -428.01470947265625, 331.1587829589844, 58.79122543334961, 0.03200000151991844, 0.0, 1.055999994277954, 0.0, 0.0, 0.0, 0.0, 0.0, 1.6216053831615546E9, 2021-05-21 15:56:23.161
24.0, -219.70228576660156, -443.8793640136719, 309.0447692871094, 41.98411560058594, 0.03200000151991844, 0.0, 1.055999994277954, 0.0, 0.0, 0.0, 0.0, 0.0, 1.6216053831622512E9, 2021-05-21 15:56:23.162
24.0, -185.12692260742188, -412.5539855957031, 349.85455322265625, 78.72489166259766, 0.03200000151991844, 0.0, 1.055999994277954, 0.0, 0.0, 0.0, 0.0, 0.0, 1.6216053831622512E9, 2021-05-21 15:56:23.162
25.0, -167.5493927001953, -389.6957092285156, 370.4913330078125, 102.77245330810547, 0.03200000151991844, 0.0, 1.055999994277954, 0.0, 0.0, 0.0, 0.0, 0.0, 1.6216053831758296E9, 2021-05-21 15:56:23.175
25.0, -203.45616149902344, -428.8935852050781, 323.52191162109375, 60.010433197021484, 0.03200000151991844, 0.0, 1.055999994277954, 0.0, 0.0, 0.0, 0.0, 0.0, 1.6216053831758296E9, 2021-05-21 15:56:23.175
26.0, -217.2751007080078, -442.09918212890625, 309.9834899902344, 49.609771728515625, 0.03200000151991844, 0.0, 1.055999994277954, 0.0, 0.0, 0.0, 0.0, 0.0, 1.6216053831915305E9, 2021-05-21 15:56:23.191
26.0, -183.24200439453125, -405.9081726074219, 345.8304138183594, 84.14401245117188, 0.03200000151991844, 0.0, 1.055999994277954, 0.0, 0.0, 0.0, 0.0, 0.0, 1.6216053831915305E9, 2021-05-21 15:56:23.191
27.0, -170.57496643066406, -385.66033935546875, 371.44873046875, 106.77788543701172, 0.03200000151991844, 0.0, 1.055999994277954, 0.0, 0.0, 0.0, 0.0, 0.0, 1.6216053831922128E9, 2021-05-21 15:56:23.192
27.0, -206.13768005371094, -426.8553466796875, 328.3912658691406, 61.786888122558594, 0.03200000151991844, 0.0, 1.055999994277954, 0.0, 0.0, 0.0, 0.0, 0.0, 1.6216053831922128E9, 2021-05-21 15:56:23.192
28.0, -220.39418029785156, -438.7445068359375, 309.1532287597656, 46.932003021240234, 0.03200000151991844, 0.0, 1.055999994277954, 0.0, 0.0, 0.0, 0.0, 0.0, 1.6216053832058551E9, 2021-05-21 15:56:23.205
28.0, -184.98106384277344, -398.6153564453125, 356.9827880859375, 89.1741714477539, 0.03200000151991844, 0.0, 1.055999994277954, 0.0, 0.0, 0.0, 0.0, 0.0, 1.6216053832058551E9, 2021-05-21 15:56:23.205
29.0, -165.21194458007812, -379.7251281738281, 385.1330261230469, 111.0937271118164, 0.03200000151991844, 0.0, 1.055999994277954, 0.0, 0.0, 0.0, 0.0, 0.0, 1.6216053832215204E9, 2021-05-21 15:56:23.221
29.0, -195.71083068847656, -423.3884582519531, 340.3813781738281, 65.6464614868164, 0.03200000151991844, 0.0, 1.055999994277954, 0.0, 0.0, 0.0, 0.0, 0.0, 1.6216053832215204E9, 2021-05-21 15:56:23.221
30.0, -209.1295928955078, -435.2551574707031, 324.5391540527344, 46.04938888549805, 0.03200000151991844, 0.0, 1.055999994277954, 0.0, 0.0, 0.0, 0.0, 0.0, 1.6216053832222073E9, 2021-05-21 15:56:23.222
30.0, -175.5826873779297, -400.0066223144531, 369.9976501464844, 84.52548217773438, 0.03200000151991844, 0.0, 1.055999994277954, 0.0, 0.0, 0.0, 0.0, 0.0, 1.6216053832222073E9, 2021-05-21 15:56:23.222
31.0, -164.1460723876953, -389.36285400390625, 377.5447692871094, 101.998291015625, 0.03200000151991844, 0.0, 1.055999994277954, 0.0, 0.0, 0.0, 0.0, 0.0, 1.6216053832358365E9, 2021-05-21 15:56:23.235
31.0, -200.75596618652344, -432.577392578125, 331.5215759277344, 61.842987060546875, 0.03200000151991844, 0.0, 1.055999994277954, 0.0, 0.0, 0.0, 0.0, 0.0, 1.6216053832358365E9, 2021-05-21 15:56:23.235
32.0, -204.18170166015625, -444.548828125, 316.9920654296875, 46.87216567993164, 0.03200000151991844, 0.0, 1.055999994277954, 0.0, 0.0, 0.0, 0.0, 0.0, 1.6216053832513144E9, 2021-05-21 15:56:23.251
32.0, -173.7688446044922, -410.2015686035156, 355.48309326171875, 84.98922729492188, 0.03200000151991844, 0.0, 1.055999994277954, 0.0, 0.0, 0.0, 0.0, 0.0, 1.6216053832513144E9, 2021-05-21 15:56:23.251
33.0, -165.679443359375, -399.9654846191406, 365.416259765625, 101.32511138916016, 0.03200000151991844, 0.0, 1.055999994277954, 0.0, 0.0, 0.0, 0.0, 0.0, 1.621605383266493E9, 2021-05-21 15:56:23.266
33.0, -213.39682006835938, -438.13116455078125, 317.3286437988281, 56.80160140991211, 0.03200000151991844, 0.0, 1.055999994277954, 0.0, 0.0, 0.0, 0.0, 0.0, 1.621605383266493E9, 2021-05-21 15:56:23.266
34.0, -220.93646240234375, -457.7843322753906, 298.6702880859375, 47.86323928833008, 0.03200000151991844, 0.0, 1.055999994277954, 0.0, 0.0, 0.0, 0.0, 0.0, 1.6216053832672565E9, 2021-05-21 15:56:23.267
34.0, -189.34178161621094, -412.5315246582031, 343.724853515625, 79.64865112304688, 0.03200000151991844, 0.0, 1.055999994277954, 0.0, 0.0, 0.0, 0.0, 0.0, 1.6216053832672565E9, 2021-05-21 15:56:23.267
35.0, -176.54385375976562, -390.7727966308594, 358.88641357421875, 103.44937133789062, 0.03200000151991844, 0.0, 1.055999994277954, 0.0, 0.0, 0.0, 0.0, 0.0, 1.6216053832816222E9, 2021-05-21 15:56:23.281
35.0, -218.18016052246094, -431.2460021972656, 316.80133056640625, 58.55935287475586, 0.03200000151991844, 0.0, 1.055999994277954, 0.0, 0.0, 0.0, 0.0, 0.0, 1.6216053832816222E9, 2021-05-21 15:56:23.281
36.0, -217.27883911132812, -440.2815856933594, 305.226318359375, 48.67479705810547, 0.03200000151991844, 0.0, 1.055999994277954, 0.0, 0.0, 0.0, 0.0, 0.0, 1.6216053832822182E9, 2021-05-21 15:56:23.282
36.0, -184.30787658691406, -412.7746276855469, 342.2850036621094, 76.06208801269531, 0.03200000151991844, 0.0, 1.055999994277954, 0.0, 0.0, 0.0, 0.0, 0.0, 1.6216053832822182E9, 2021-05-21 15:56:23.282
37.0, -172.628173828125, -391.22906494140625, 364.4102478027344, 99.90768432617188, 0.03200000151991844, 0.0, 1.055999994277954, 0.0, 0.0, 0.0, 0.0, 0.0, 1.6216053833113377E9, 2021-05-21 15:56:23.311
37.0, -211.3697967529297, -429.4059753417969, 321.599609375, 56.53232955932617, 0.03200000151991844, 0.0, 1.055999994277954, 0.0, 0.0, 0.0, 0.0, 0.0, 1.6216053833113377E9, 2021-05-21 15:56:23.311
38.0, -213.24722290039062, -439.4363708496094, 313.08758544921875, 47.84828186035156, 0.03200000151991844, 0.0, 1.055999994277954, 0.0, 0.0, 0.0, 0.0, 0.0, 1.6216053833282883E9, 2021-05-21 15:56:23.328
38.0, -180.3959503173828, -404.58050537109375, 353.04095458984375, 78.69123840332031, 0.03200000151991844, 0.0, 1.055999994277954, 0.0, 0.0, 0.0, 0.0, 0.0, 1.6216053833282883E9, 2021-05-21 15:56:23.328
39.0, -164.07876586914062, -387.5751953125, 376.5836181640625, 96.22762298583984, 0.03200000151991844, 0.0, 1.055999994277954, 0.0, 0.0, 0.0, 0.0, 0.0, 1.6216053833290164E9, 2021-05-21 15:56:23.329
39.0, -201.03271484375, -429.1366882324219, 334.06842041015625, 56.83525848388672, 0.03200000151991844, 0.0, 1.055999994277954, 0.0, 0.0, 0.0, 0.0, 0.0, 1.6216053833290164E9, 2021-05-21 15:56:23.329
40.0, -210.9060516357422, -437.06903076171875, 320.3392639160156, 41.12767791748047, 0.03200000151991844, 0.0, 1.055999994277954, 0.0, 0.0, 0.0, 0.0, 0.0, 1.6216053833297727E9, 2021-05-21 15:56:23.329
40.0, -179.1580352783203, -405.3621520996094, 356.68359375, 79.90296173095703, 0.03200000151991844, 0.0, 1.055999994277954, 0.0, 0.0, 0.0, 0.0, 0.0, 1.6216053833297727E9, 2021-05-21 15:56:23.329
41.0, -169.80081176757812, -389.007568359375, 377.8439636230469, 102.2787857055664, 0.03200000151991844, 0.0, 1.055999994277954, 0.0, 0.0, 0.0, 0.0, 0.0, 1.6216053833416169E9, 2021-05-21 15:56:23.341
41.0, -204.6304931640625, -428.6392822265625, 328.6941833496094, 57.77397537231445, 0.03200000151991844, 0.0, 1.055999994277954, 0.0, 0.0, 0.0, 0.0, 0.0, 1.6216053833416169E9, 2021-05-21 15:56:23.341
42.0, -216.14190673828125, -443.4530334472656, 318.18133544921875, 42.346885681152344, 0.03200000151991844, 0.0, 1.055999994277954, 0.0, 0.0, 0.0, 0.0, 0.0, 1.6216053833422348E9, 2021-05-21 15:56:23.342
42.0, -183.37664794921875, -402.75543212890625, 355.58782958984375, 86.19721221923828, 0.03200000151991844, 0.0, 1.055999994277954, 0.0, 0.0, 0.0, 0.0, 0.0, 1.6216053833422348E9, 2021-05-21 15:56:23.342
43.0, -173.66786193847656, -389.4226989746094, 365.2292785644531, 102.08805084228516, 0.03200000151991844, 0.0, 1.055999994277954, 0.0, 0.0, 0.0, 0.0, 0.0, 1.6216053833558316E9, 2021-05-21 15:56:23.355
43.0, -204.83993530273438, -428.1343994140625, 322.5083923339844, 62.39274978637695, 0.03200000151991844, 0.0, 1.055999994277954, 0.0, 0.0, 0.0, 0.0, 0.0, 1.6216053833558316E9, 2021-05-21 15:56:23.355
44.0, -213.08267211914062, -440.01605224609375, 304.8373718261719, 51.079551696777344, 0.03200000151991844, 0.0, 1.055999994277954, 0.0, 0.0, 0.0, 0.0, 0.0, 1.6216053833719568E9, 2021-05-21 15:56:23.371
44.0, -188.84063720703125, -403.2677917480469, 345.0637512207031, 82.24040222167969, 0.03200000151991844, 0.0, 1.055999994277954, 0.0, 0.0, 0.0, 0.0, 0.0, 1.6216053833719568E9, 2021-05-21 15:56:23.371
45.0, -170.5188751220703, -386.26995849609375, 366.8224792480469, 108.91336822509766, 0.03200000151991844, 0.0, 1.055999994277954, 0.0, 0.0, 0.0, 0.0, 0.0, 1.621605383386492E9, 2021-05-21 15:56:23.386
45.0, -199.48065185546875, -426.4925842285156, 328.5146789550781, 65.27995300292969, 0.03200000151991844, 0.0, 1.055999994277954, 0.0, 0.0, 0.0, 0.0, 0.0, 1.621605383386492E9, 2021-05-21 15:56:23.386
46.0, -209.53724670410156, -438.867919921875, 314.32550048828125, 48.88797378540039, 0.03200000151991844, 0.0, 1.055999994277954, 0.0, 0.0, 0.0, 0.0, 0.0, 1.621605383387188E9, 2021-05-21 15:56:23.387
46.0, -176.3231964111328, -403.3987121582031, 356.7583923339844, 83.93457794189453, 0.03200000151991844, 0.0, 1.055999994277954, 0.0, 0.0, 0.0, 0.0, 0.0, 1.621605383387188E9, 2021-05-21 15:56:23.387
47.0, -159.482421875, -381.48663330078125, 375.8169250488281, 102.86968994140625, 0.03200000151991844, 0.0, 1.055999994277954, 0.0, 0.0, 0.0, 0.0, 0.0, 1.6216053834015725E9, 2021-05-21 15:56:23.401
47.0, -198.5830841064453, -430.0754089355469, 335.16796875, 61.558753967285156, 0.03200000151991844, 0.0, 1.055999994277954, 0.0, 0.0, 0.0, 0.0, 0.0, 1.6216053834015725E9, 2021-05-21 15:56:23.401
48.0, -204.39114379882812, -439.3092041015625, 323.6079406738281, 50.26051712036133, 0.03200000151991844, 0.0, 1.055999994277954, 0.0, 0.0, 0.0, 0.0, 0.0, 1.6216053834023025E9, 2021-05-21 15:56:23.402
48.0, -174.34478759765625, -404.782470703125, 366.7551574707031, 83.81863403320312, 0.03200000151991844, 0.0, 1.055999994277954, 0.0, 0.0, 0.0, 0.0, 0.0, 1.6216053834023025E9, 2021-05-21 15:56:23.402
49.0, -158.31182861328125, -391.0869445800781, 378.7901611328125, 101.10445404052734, 0.03200000151991844, 0.0, 1.055999994277954, 0.0, 0.0, 0.0, 0.0, 0.0, 1.6216053834159508E9, 2021-05-21 15:56:23.415
49.0, -194.74594116210938, -429.2862854003906, 334.6817626953125, 59.307334899902344, 0.03200000151991844, 0.0, 1.055999994277954, 0.0, 0.0, 0.0, 0.0, 0.0, 1.6216053834159508E9, 2021-05-21 15:56:23.415
50.0, -209.48863220214844, -445.992431640625, 311.0867614746094, 44.77408218383789, 0.03200000151991844, 0.0, 1.055999994277954, 0.0, 0.0, 0.0, 0.0, 0.0, 1.6216053834319708E9, 2021-05-21 15:56:23.431
50.0, -181.71612548828125, -412.32958984375, 348.0968017578125, 83.95701599121094, 0.03200000151991844, 0.0, 1.055999994277954, 0.0, 0.0, 0.0, 0.0, 0.0, 1.6216053834319708E9, 2021-05-21 15:56:23.431
51.0, -164.9950408935547, -394.65106201171875, 367.4358215332031, 106.54601287841797, 0.03200000151991844, 0.0, 1.055999994277954, 0.0, 0.0, 0.0, 0.0, 0.0, 1.6216053834466968E9, 2021-05-21 15:56:23.446
51.0, -194.77586364746094, -432.237060546875, 323.8697204589844, 64.10562133789062, 0.03200000151991844, 0.0, 1.055999994277954, 0.0, 0.0, 0.0, 0.0, 0.0, 1.6216053834466968E9, 2021-05-21 15:56:23.446
52.0, -201.0701141357422, -445.1023254394531, 311.1877136230469, 49.82668685913086, 0.03200000151991844, 0.0, 1.055999994277954, 0.0, 0.0, 0.0, 0.0, 0.0, 1.6216053834474869E9, 2021-05-21 15:56:23.447
52.0, -182.05645751953125, -419.1549072265625, 343.0890808105469, 76.67543029785156, 0.03200000151991844, 0.0, 1.055999994277954, 0.0, 0.0, 0.0, 0.0, 0.0, 1.6216053834474869E9, 2021-05-21 15:56:23.447
53.0, -164.24705505371094, -391.2926330566406, 365.7341613769531, 99.6683349609375, 0.03200000151991844, 0.0, 1.055999994277954, 0.0, 0.0, 0.0, 0.0, 0.0, 1.6216053834615705E9, 2021-05-21 15:56:23.461
53.0, -198.72518920898438, -435.1654052734375, 317.7923889160156, 60.04409408569336, 0.03200000151991844, 0.0, 1.055999994277954, 0.0, 0.0, 0.0, 0.0, 0.0, 1.6216053834615705E9, 2021-05-21 15:56:23.461
54.0, -215.7342529296875, -450.29705810546875, 306.00421142578125, 45.58190155029297, 0.03200000151991844, 0.0, 1.055999994277954, 0.0, 0.0, 0.0, 0.0, 0.0, 1.621605383462294E9, 2021-05-21 15:56:23.462
54.0, -176.28953552246094, -406.9703063964844, 355.673828125, 86.26453399658203, 0.03200000151991844, 0.0, 1.055999994277954, 0.0, 0.0, 0.0, 0.0, 0.0, 1.621605383462294E9, 2021-05-21 15:56:23.462
55.0, -154.85243225097656, -386.76361083984375, 377.9411926269531, 111.3517837524414, 0.03200000151991844, 0.0, 1.055999994277954, 0.0, 0.0, 0.0, 0.0, 0.0, 1.6216053834929497E9, 2021-05-21 15:56:23.492
55.0, -202.74932861328125, -435.8124084472656, 321.92498779296875, 63.09959030151367, 0.03200000151991844, 0.0, 1.055999994277954, 0.0, 0.0, 0.0, 0.0, 0.0, 1.6216053834929497E9, 2021-05-21 15:56:23.492
56.0, -213.71470642089844, -438.54254150390625, 310.671630859375, 44.87506103515625, 0.03200000151991844, 0.0, 1.055999994277954, 0.0, 0.0, 0.0, 0.0, 0.0, 1.6216053834936488E9, 2021-05-21 15:56:23.493
56.0, -178.33151245117188, -408.55975341796875, 353.46728515625, 90.6589126586914, 0.03200000151991844, 0.0, 1.055999994277954, 0.0, 0.0, 0.0, 0.0, 0.0, 1.6216053834936488E9, 2021-05-21 15:56:23.493
57.0, -165.49244689941406, -388.1025085449219, 373.64404296875, 106.22811889648438, 0.03200000151991844, 0.0, 1.055999994277954, 0.0, 0.0, 0.0, 0.0, 0.0, 1.6216053834944117E9, 2021-05-21 15:56:23.494
57.0, -204.3275604248047, -432.6110534667969, 333.4625549316406, 58.42097854614258, 0.03200000151991844, 0.0, 1.055999994277954, 0.0, 0.0, 0.0, 0.0, 0.0, 1.6216053834944117E9, 2021-05-21 15:56:23.494
58.0, -211.126708984375, -447.14056396484375, 316.50213623046875, 46.5916748046875, 0.03200000151991844, 0.0, 1.055999994277954, 0.0, 0.0, 0.0, 0.0, 0.0, 1.621605383505996E9, 2021-05-21 15:56:23.505
58.0, -182.17987060546875, -412.42681884765625, 348.6727294921875, 83.19781494140625, 0.03200000151991844, 0.0, 1.055999994277954, 0.0, 0.0, 0.0, 0.0, 0.0, 1.621605383505996E9, 2021-05-21 15:56:23.505
59.0, -167.17539978027344, -390.4810791015625, 372.047119140625, 103.14643859863281, 0.03200000151991844, 0.0, 1.055999994277954, 0.0, 0.0, 0.0, 0.0, 0.0, 1.621605383521508E9, 2021-05-21 15:56:23.521
59.0, -204.7613983154297, -435.5693054199219, 327.5759582519531, 65.83345794677734, 0.03200000151991844, 0.0, 1.055999994277954, 0.0, 0.0, 0.0, 0.0, 0.0, 1.621605383521508E9, 2021-05-21 15:56:23.521
60.0, -217.06939697265625, -451.7144775390625, 309.5982666015625, 49.95384216308594, 0.03200000151991844, 0.0, 1.055999994277954, 0.0, 0.0, 0.0, 0.0, 0.0, 1.6216053835222409E9, 2021-05-21 15:56:23.522
60.0, -191.1519012451172, -415.0522155761719, 343.9417724609375, 82.46479034423828, 0.03200000151991844, 0.0, 1.055999994277954, 0.0, 0.0, 0.0, 0.0, 0.0, 1.6216053835222409E9, 2021-05-21 15:56:23.522
61.0, -171.91758728027344, -394.8941650390625, 362.386962890625, 104.07767486572266, 0.03200000151991844, 0.01600000075995922, 1.055999994277954, 0.0, 0.0, 0.0, 0.0, 0.0, 1.6216053835687263E9, 2021-05-21 15:56:23.568
61.0, -202.50997924804688, -436.66510009765625, 321.65570068359375, 59.778560638427734, 0.03200000151991844, 0.01600000075995922, 1.055999994277954, 0.0, 0.0, 0.0, 0.0, 0.0, 1.6216053835687263E9, 2021-05-21 15:56:23.568
62.0, -216.56077575683594, -451.9313659667969, 310.7763366699219, 45.462223052978516, 0.03200000151991844, 0.01600000075995922, 1.055999994277954, 0.0, 0.0, 0.0, 0.0, 0.0, 1.6216053835694375E9, 2021-05-21 15:56:23.569
62.0, -185.90855407714844, -416.03582763671875, 345.99871826171875, 79.6748275756836, 0.03200000151991844, 0.01600000075995922, 1.055999994277954, 0.0, 0.0, 0.0, 0.0, 0.0, 1.6216053835694375E9, 2021-05-21 15:56:23.569
63.0, -169.0565643310547, -390.35394287109375, 374.6351318359375, 99.86654663085938, 0.03200000151991844, 0.01600000075995922, 1.055999994277954, 0.0, 0.0, 0.0, 0.0, 0.0, 1.621605383570093E9, 2021-05-21 15:56:23.570
63.0, -202.19955444335938, -431.051513671875, 333.52239990234375, 60.48166275024414, 0.03200000151991844, 0.01600000075995922, 1.055999994277954, 0.0, 0.0, 0.0, 0.0, 0.0, 1.621605383570093E9, 2021-05-21 15:56:23.570
64.0, -214.2981414794922, -445.86151123046875, 320.1485290527344, 47.57152557373047, 0.03200000151991844, 0.01600000075995922, 1.055999994277954, 0.0, 0.0, 0.0, 0.0, 0.0, 1.6216053835707564E9, 2021-05-21 15:56:23.570
64.0, -179.10194396972656, -406.5963134765625, 359.6269226074219, 89.97825622558594, 0.03200000151991844, 0.01600000075995922, 1.055999994277954, 0.0, 0.0, 0.0, 0.0, 0.0, 1.6216053835707564E9, 2021-05-21 15:56:23.570
65.0, -165.44381713867188, -392.646484375, 382.82177734375, 107.33512878417969, 0.03200000151991844, 0.01600000075995922, 1.055999994277954, 0.0, 0.0, 0.0, 0.0, 0.0, 1.621605383581699E9, 2021-05-21 15:56:23.581
65.0, -205.80482482910156, -435.2925720214844, 336.4582214355469, 67.07136535644531, 0.03200000151991844, 0.01600000075995922, 1.055999994277954, 0.0, 0.0, 0.0, 0.0, 0.0, 1.621605383581699E9, 2021-05-21 15:56:23.581
66.0, -216.32142639160156, -440.1170349121094, 321.4836730957031, 51.079551696777344, 0.03200000151991844, 0.01600000075995922, 1.055999994277954, 0.0, 0.0, 0.0, 0.0, 0.0, 1.621605383582358E9, 2021-05-21 15:56:23.582
66.0, -190.20196533203125, -414.0611572265625, 350.2734069824219, 82.51341247558594, 0.03200000151991844, 0.01600000075995922, 1.055999994277954, 0.0, 0.0, 0.0, 0.0, 0.0, 1.621605383582358E9, 2021-05-21 15:56:23.582
67.0, -176.69345092773438, -395.8141784667969, 370.24822998046875, 107.21171569824219, 0.03200000151991844, 0.01600000075995922, 1.055999994277954, 0.0, 0.0, 0.0, 0.0, 0.0, 1.6216053836121664E9, 2021-05-21 15:56:23.612
67.0, -208.29559326171875, -441.48583984375, 322.7664489746094, 64.99945831298828, 0.03200000151991844, 0.01600000075995922, 1.055999994277954, 0.0, 0.0, 0.0, 0.0, 0.0, 1.6216053836121664E9, 2021-05-21 15:56:23.612
68.0, -218.6251983642578, -456.75958251953125, 311.4981384277344, 47.040462493896484, 0.03200000151991844, 0.01600000075995922, 1.055999994277954, 0.0, 0.0, 0.0, 0.0, 0.0, 1.6216053836128976E9, 2021-05-21 15:56:23.612
68.0, -190.78164672851562, -418.421875, 349.8769836425781, 75.21312713623047, 0.03200000151991844, 0.01600000075995922, 1.055999994277954, 0.0, 0.0, 0.0, 0.0, 0.0, 1.6216053836128976E9, 2021-05-21 15:56:23.612
69.0, -171.4276580810547, -393.7946472167969, 368.8644714355469, 97.34585571289062, 0.03200000151991844, 0.01600000075995922, 1.055999994277954, 0.0, 0.0, 0.0, 0.0, 0.0, 1.6216053836136813E9, 2021-05-21 15:56:23.613
69.0, -200.3969268798828, -439.1633605957031, 321.06854248046875, 60.365726470947266, 0.03200000151991844, 0.01600000075995922, 1.055999994277954, 0.0, 0.0, 0.0, 0.0, 0.0, 1.6216053836136813E9, 2021-05-21 15:56:23.613
70.0, -215.3490447998047, -445.1995544433594, 313.042724609375, 43.86902618408203, 0.03200000151991844, 0.01600000075995922, 1.055999994277954, 0.0, 0.0, 0.0, 0.0, 0.0, 1.6216053836258616E9, 2021-05-21 15:56:23.625
70.0, -182.49403381347656, -403.8961181640625, 353.96844482421875, 83.31375122070312, 0.03200000151991844, 0.01600000075995922, 1.055999994277954, 0.0, 0.0, 0.0, 0.0, 0.0, 1.6216053836258616E9, 2021-05-21 15:56:23.625
71.0, -161.96571350097656, -388.46527099609375, 377.7242736816406, 100.73046875, 0.03200000151991844, 0.0, 1.055999994277954, 0.0, 0.0, 0.0, 0.0, 0.0, 1.621605383641634E9, 2021-05-21 15:56:23.641
71.0, -196.43263244628906, -434.8063659667969, 337.5390625, 57.80763244628906, 0.03200000151991844, 0.0, 1.055999994277954, 0.0, 0.0, 0.0, 0.0, 0.0, 1.621605383641634E9, 2021-05-21 15:56:23.641
72.0, -208.26193237304688, -444.7358093261719, 324.89447021484375, 48.92911148071289, 0.03200000151991844, 0.0, 1.055999994277954, 0.0, 0.0, 0.0, 0.0, 0.0, 1.6216053836423333E9, 2021-05-21 15:56:23.642
72.0, -175.56773376464844, -405.00311279296875, 364.5448913574219, 85.60256958007812, 0.03200000151991844, 0.0, 1.055999994277954, 0.0, 0.0, 0.0, 0.0, 0.0, 1.6216053836423333E9, 2021-05-21 15:56:23.642
73.0, -161.5655517578125, -388.74951171875, 380.4731140136719, 101.78137969970703, 0.03200000151991844, 0.0, 1.055999994277954, 0.0, 0.0, 0.0, 0.0, 0.0, 1.6216053836719341E9, 2021-05-21 15:56:23.671
73.0, -191.7876739501953, -428.8337707519531, 341.2378234863281, 64.77880859375, 0.03200000151991844, 0.0, 1.055999994277954, 0.0, 0.0, 0.0, 0.0, 0.0, 1.6216053836719341E9, 2021-05-21 15:56:23.671
74.0, -207.11752319335938, -451.074951171875, 328.6941833496094, 47.63136672973633, 0.03200000151991844, 0.0, 1.055999994277954, 0.0, 0.0, 0.0, 0.0, 0.0, 1.6216053836726313E9, 2021-05-21 15:56:23.672
74.0, -181.12896728515625, -407.5126037597656, 360.95831298828125, 86.0363998413086, 0.03200000151991844, 0.0, 1.055999994277954, 0.0, 0.0, 0.0, 0.0, 0.0, 1.6216053836726313E9, 2021-05-21 15:56:23.672
75.0, -167.94207763671875, -396.7716064453125, 377.9112854003906, 107.37626647949219, 0.03200000151991844, 0.0, 1.055999994277954, 0.0, 0.0, 0.0, 0.0, 0.0, 1.6216053836865342E9, 2021-05-21 15:56:23.686
75.0, -202.95127868652344, -431.47412109375, 337.3296203613281, 65.75118255615234, 0.03200000151991844, 0.0, 1.055999994277954, 0.0, 0.0, 0.0, 0.0, 0.0, 1.6216053836865342E9, 2021-05-21 15:56:23.686
76.0, -215.81654357910156, -454.3398742675781, 317.4632873535156, 48.323246002197266, 0.03200000151991844, 0.0, 1.055999994277954, 0.0, 0.0, 0.0, 0.0, 0.0, 1.6216053836872516E9, 2021-05-21 15:56:23.687
76.0, -183.13729858398438, -417.4083557128906, 353.39996337890625, 85.02288818359375, 0.03200000151991844, 0.0, 1.055999994277954, 0.0, 0.0, 0.0, 0.0, 0.0, 1.6216053836872516E9, 2021-05-21 15:56:23.687
77.0, -167.9532928466797, -395.2569274902344, 369.32073974609375, 99.10734558105469, 0.03200000151991844, 0.0, 1.055999994277954, 0.0, 0.0, 0.0, 0.0, 0.0, 1.621605383701556E9, 2021-05-21 15:56:23.701
77.0, -202.6820068359375, -436.41827392578125, 326.3455505371094, 55.14482498168945, 0.03200000151991844, 0.0, 1.055999994277954, 0.0, 0.0, 0.0, 0.0, 0.0, 1.621605383701556E9, 2021-05-21 15:56:23.701
78.0, -210.9546661376953, -448.9282531738281, 308.30426025390625, 45.69035720825195, 0.03200000151991844, 0.0, 1.055999994277954, 0.0, 0.0, 0.0, 0.0, 0.0, 1.621605383702256E9, 2021-05-21 15:56:23.702
78.0, -182.99143981933594, -414.266845703125, 344.910400390625, 75.47492218017578, 0.03200000151991844, 0.0, 1.055999994277954, 0.0, 0.0, 0.0, 0.0, 0.0, 1.621605383702256E9, 2021-05-21 15:56:23.702
79.0, -166.8911590576172, -394.03399658203125, 364.4513854980469, 92.00901794433594, 0.03200000151991844, 0.0, 1.055999994277954, 0.0, 0.0, 0.0, 0.0, 0.0, 1.621605383731942E9, 2021-05-21 15:56:23.731
79.0, -202.0948486328125, -424.56280517578125, 327.703125, 55.7880859375, 0.03200000151991844, 0.0, 1.055999994277954, 0.0, 0.0, 0.0, 0.0, 0.0, 1.621605383731942E9, 2021-05-21 15:56:23.731
80.0, -215.49490356445312, -444.279541015625, 306.5091247558594, 41.29971694946289, 0.03200000151991844, 0.0, 1.055999994277954, 0.0, 0.0, 0.0, 0.0, 0.0, 1.6216053837327251E9, 2021-05-21 15:56:23.732
80.0, -179.25527954101562, -414.2331848144531, 350.62872314453125, 77.3448715209961, 0.03200000151991844, 0.0, 1.055999994277954, 0.0, 0.0, 0.0, 0.0, 0.0, 1.6216053837327251E9, 2021-05-21 15:56:23.732
81.0, -163.8169708251953, -387.6238098144531, 374.70245361328125, 103.44189453125, 0.03200000151991844, 0.0, 1.055999994277954, 0.0, 0.0, 0.0, 0.0, 0.0, 1.6216053837467217E9, 2021-05-21 15:56:23.746
81.0, -196.04368591308594, -427.2592468261719, 337.3034362792969, 63.503501892089844, 0.03200000151991844, 0.0, 1.055999994277954, 0.0, 0.0, 0.0, 0.0, 0.0, 1.6216053837467217E9, 2021-05-21 15:56:23.746
82.0, -210.41612243652344, -449.3321533203125, 322.0035095214844, 44.52350997924805, 0.03200000151991844, 0.0, 1.055999994277954, 0.0, 0.0, 0.0, 0.0, 0.0, 1.6216053837473793E9, 2021-05-21 15:56:23.747
82.0, -177.05247497558594, -407.8566589355469, 360.9919738769531, 86.37298583984375, 0.03200000151991844, 0.0, 1.055999994277954, 0.0, 0.0, 0.0, 0.0, 0.0, 1.6216053837473793E9, 2021-05-21 15:56:23.747
83.0, -161.71888732910156, -393.1289367675781, 373.0344543457031, 103.864501953125, 0.03200000151991844, 0.0, 1.055999994277954, 0.0, 0.0, 0.0, 0.0, 0.0, 1.621605383761574E9, 2021-05-21 15:56:23.761
83.0, -196.69068908691406, -432.1323547363281, 332.4079284667969, 66.98160552978516, 0.03200000151991844, 0.0, 1.055999994277954, 0.0, 0.0, 0.0, 0.0, 0.0, 1.621605383761574E9, 2021-05-21 15:56:23.761
84.0, -213.53146362304688, -452.436279296875, 312.5639953613281, 50.574668884277344, 0.03200000151991844, 0.0, 1.055999994277954, 0.0, 0.0, 0.0, 0.0, 0.0, 1.6216053837622788E9, 2021-05-21 15:56:23.762
84.0, -179.0271453857422, -415.0484924316406, 349.6114501953125, 86.30941009521484, 0.03200000151991844, 0.0, 1.055999994277954, 0.0, 0.0, 0.0, 0.0, 0.0, 1.6216053837622788E9, 2021-05-21 15:56:23.762
85.0, -165.2867431640625, -394.2845764160156, 374.1825866699219, 106.74422454833984, 0.03200000151991844, 0.0, 1.055999994277954, 0.0, 0.0, 0.0, 0.0, 0.0, 1.6216053837759633E9, 2021-05-21 15:56:23.775
85.0, -202.73435974121094, -438.3293762207031, 326.48016357421875, 60.2310905456543, 0.03200000151991844, 0.0, 1.055999994277954, 0.0, 0.0, 0.0, 0.0, 0.0, 1.6216053837759633E9, 2021-05-21 15:56:23.775
86.0, -216.05215454101562, -448.4981384277344, 313.700927734375, 51.490943908691406, 0.03200000151991844, 0.0, 1.055999994277954, 0.0, 0.0, 0.0, 0.0, 0.0, 1.6216053837915368E9, 2021-05-21 15:56:23.791
86.0, -190.23936462402344, -413.9452209472656, 349.39453125, 76.03590393066406, 0.03200000151991844, 0.0, 1.055999994277954, 0.0, 0.0, 0.0, 0.0, 0.0, 1.6216053837915368E9, 2021-05-21 15:56:23.791
87.0, -170.56375122070312, -387.3021545410156, 366.3587341308594, 100.16574096679688, 0.03200000151991844, 0.0, 1.055999994277954, 0.0, 0.0, 0.0, 0.0, 0.0, 1.6216053837922657E9, 2021-05-21 15:56:23.792
87.0, -205.6140899658203, -432.26324462890625, 318.55908203125, 59.96555709838867, 0.03200000151991844, 0.0, 1.055999994277954, 0.0, 0.0, 0.0, 0.0, 0.0, 1.6216053837922657E9, 2021-05-21 15:56:23.792
88.0, -212.03175354003906, -440.0123291015625, 310.56689453125, 51.51338195800781, 0.03200000151991844, 0.0, 1.055999994277954, 0.0, 0.0, 0.0, 0.0, 0.0, 1.6216053838059063E9, 2021-05-21 15:56:23.805
88.0, -191.02847290039062, -415.5384216308594, 342.18402099609375, 77.97691345214844, 0.03200000151991844, 0.0, 1.055999994277954, 0.0, 0.0, 0.0, 0.0, 0.0, 1.6216053838059063E9, 2021-05-21 15:56:23.805
89.0, -163.61126708984375, -382.9526672363281, 371.5198059082031, 100.96234130859375, 0.03200000151991844, 0.0, 1.055999994277954, 0.0, 0.0, 0.0, 0.0, 0.0, 1.6216053838216577E9, 2021-05-21 15:56:23.821
89.0, -204.94090270996094, -437.9778137207031, 329.651611328125, 57.2840461730957, 0.03200000151991844, 0.0, 1.055999994277954, 0.0, 0.0, 0.0, 0.0, 0.0, 1.6216053838216577E9, 2021-05-21 15:56:23.821
90.0, -205.62156677246094, -449.3321533203125, 317.0818176269531, 44.38139343261719, 0.03200000151991844, 0.0, 1.055999994277954, 0.0, 0.0, 0.0, 0.0, 0.0, 1.6216053838222497E9, 2021-05-21 15:56:23.822
90.0, -176.4877471923828, -413.0214538574219, 357.39044189453125, 81.18949127197266, 0.03200000151991844, 0.0, 1.055999994277954, 0.0, 0.0, 0.0, 0.0, 0.0, 1.6216053838222497E9, 2021-05-21 15:56:23.822
91.0, -163.35696411132812, -391.7152404785156, 381.2734375, 103.93556213378906, 0.03200000151991844, 0.0, 1.055999994277954, 0.0, 0.0, 0.0, 0.0, 0.0, 1.621605383835961E9, 2021-05-21 15:56:23.835
91.0, -201.3580780029297, -434.2266845703125, 333.8963928222656, 64.78628540039062, 0.03200000151991844, 0.0, 1.055999994277954, 0.0, 0.0, 0.0, 0.0, 0.0, 1.621605383835961E9, 2021-05-21 15:56:23.835
92.0, -213.21730041503906, -453.9808349609375, 315.59332275390625, 49.766849517822266, 0.03200000151991844, 0.0, 1.055999994277954, 0.0, 0.0, 0.0, 0.0, 0.0, 1.621605383851546E9, 2021-05-21 15:56:23.851
92.0, -180.61659240722656, -414.091064453125, 355.1352844238281, 83.40351104736328, 0.03200000151991844, 0.0, 1.055999994277954, 0.0, 0.0, 0.0, 0.0, 0.0, 1.621605383851546E9, 2021-05-21 15:56:23.851
93.0, -164.9202423095703, -397.4896545410156, 376.5910949707031, 109.51923370361328, 0.03200000151991844, 0.0, 1.055999994277954, 0.0, 0.0, 0.0, 0.0, 0.0, 1.6216053838522418E9, 2021-05-21 15:56:23.852
93.0, -202.02005004882812, -436.8446350097656, 329.157958984375, 67.22470092773438, 0.03200000151991844, 0.0, 1.055999994277954, 0.0, 0.0, 0.0, 0.0, 0.0, 1.6216053838522418E9, 2021-05-21 15:56:23.852
94.0, -216.11572265625, -456.4454345703125, 311.7599182128906, 45.81377410888672, 0.03200000151991844, 0.0, 1.055999994277954, 0.0, 0.0, 0.0, 0.0, 0.0, 1.6216053838658864E9, 2021-05-21 15:56:23.865
94.0, -188.743408203125, -418.17877197265625, 344.0053405761719, 82.27031707763672, 0.03200000151991844, 0.0, 1.055999994277954, 0.0, 0.0, 0.0, 0.0, 0.0, 1.6216053838658864E9, 2021-05-21 15:56:23.865
95.0, -161.25140380859375, -390.94482421875, 370.5586242675781, 102.85099029541016, 0.03200000151991844, 0.0, 1.055999994277954, 0.0, 0.0, 0.0, 0.0, 0.0, 1.6216053838817008E9, 2021-05-21 15:56:23.881
95.0, -201.10377502441406, -433.3889465332031, 326.3941650390625, 63.43992233276367, 0.03200000151991844, 0.0, 1.055999994277954, 0.0, 0.0, 0.0, 0.0, 0.0, 1.6216053838817008E9, 2021-05-21 15:56:23.881
96.0, -214.9713134765625, -449.0853271484375, 314.6471252441406, 50.21563720703125, 0.03200000151991844, 0.0, 1.055999994277954, 0.0, 0.0, 0.0, 0.0, 0.0, 1.621605383882422E9, 2021-05-21 15:56:23.882
96.0, -175.81455993652344, -412.142578125, 353.7290954589844, 80.54248809814453, 0.03200000151991844, 0.0, 1.055999994277954, 0.0, 0.0, 0.0, 0.0, 0.0, 1.621605383882422E9, 2021-05-21 15:56:23.882
97.0, -157.96775817871094, -388.90283203125, 379.4895324707031, 104.7508544921875, 0.03200000151991844, 0.0, 1.055999994277954, 0.0, 0.0, 0.0, 0.0, 0.0, 1.621605383895867E9, 2021-05-21 15:56:23.895
97.0, -201.57125854492188, -432.9588623046875, 336.17401123046875, 64.9209213256836, 0.03200000151991844, 0.0, 1.055999994277954, 0.0, 0.0, 0.0, 0.0, 0.0, 1.621605383895867E9, 2021-05-21 15:56:23.895
98.0, -206.26483154296875, -445.8091735839844, 321.1321105957031, 50.35401153564453, 0.03200000151991844, 0.0, 1.055999994277954, 0.0, 0.0, 0.0, 0.0, 0.0, 1.6216053839115288E9, 2021-05-21 15:56:23.911
98.0, -185.2204132080078, -412.2286071777344, 349.2636413574219, 76.89234161376953, 0.03200000151991844, 0.0, 1.055999994277954, 0.0, 0.0, 0.0, 0.0, 0.0, 1.6216053839115288E9, 2021-05-21 15:56:23.911
99.0, -162.029296875, -387.7472229003906, 376.7818298339844, 102.16658782958984, 0.03200000151991844, 0.0, 1.055999994277954, 0.0, 0.0, 0.0, 0.0, 0.0, 1.6216053839122355E9, 2021-05-21 15:56:23.912
99.0, -197.83883666992188, -427.59210205078125, 338.4328918457031, 66.4505386352539, 0.03200000151991844, 0.0, 1.055999994277954, 0.0, 0.0, 0.0, 0.0, 0.0, 1.6216053839122355E9, 2021-05-21 15:56:23.912
100.0, -209.58212280273438, -443.4380798339844, 319.7782897949219, 49.36668014526367, 0.03200000151991844, 0.0, 1.055999994277954, 0.0, 0.0, 0.0, 0.0, 0.0, 1.621605383926532E9, 2021-05-21 15:56:23.926
100.0, -184.02365112304688, -402.1233825683594, 352.9698791503906, 84.192626953125, 0.03200000151991844, 0.0, 1.055999994277954, 0.0, 0.0, 0.0, 0.0, 0.0, 1.621605383926532E9, 2021-05-21 15:56:23.926
0.0, -173.20785522460938, -390.28662109375, 377.30914306640625, 112.339111328125, 0.03200000151991844, 0.0, 1.055999994277954, 0.0, 0.0, 0.0, 0.0, 0.0, 1.6216053839272344E9, 2021-05-21 15:56:23.927
1.0, -209.2043914794922, -430.9281005859375, 331.35699462890625, 64.7563705444336, 0.03200000151991844, 0.0, 1.055999994277954, 0.0, 0.0, 0.0, 0.0, 0.0, 1.6216053839572332E9, 2021-05-21 15:56:23.957
1.0, -217.37606811523438, -445.28558349609375, 312.33587646484375, 54.03407287597656, 0.03200000151991844, 0.0, 1.055999994277954, 0.0, 0.0, 0.0, 0.0, 0.0, 1.6216053839572332E9, 2021-05-21 15:56:23.957
2.0, -185.5944061279297, -406.57012939453125, 350.20611572265625, 87.83155059814453, 0.01600000075995922, 0.0, 1.055999994277954, 0.0, 0.0, 0.0, 0.0, 0.0, 1.6216053839579644E9, 2021-05-21 15:56:23.957
2.0, -170.35057067871094, -390.7167053222656, 379.0482177734375, 108.11676788330078, 0.01600000075995922, 0.0, 1.055999994277954, 0.0, 0.0, 0.0, 0.0, 0.0, 1.6216053839579644E9, 2021-05-21 15:56:23.957
3.0, -214.65716552734375, -440.6929931640625, 316.9209899902344, 52.21274185180664, 0.01600000075995922, 0.0, 1.055999994277954, 0.0, 0.0, 0.0, 0.0, 0.0, 1.6216053839586592E9, 2021-05-21 15:56:23.958
3.0, -216.96095275878906, -453.1468505859375, 303.3302001953125, 42.694698333740234, 0.01600000075995922, 0.0, 1.055999994277954, 0.0, 0.0, 0.0, 0.0, 0.0, 1.6216053839586592E9, 2021-05-21 15:56:23.958
4.0, -187.8495635986328, -415.1644287109375, 343.02923583984375, 79.83190155029297, 0.01600000075995922, 0.0, 1.055999994277954, 0.0, 0.0, 0.0, 0.0, 0.0, 1.6216053839708312E9, 2021-05-21 15:56:23.970
4.0, -171.74929809570312, -393.9330139160156, 360.31878662109375, 97.49545288085938, 0.01600000075995922, 0.0, 1.055999994277954, 0.0, 0.0, 0.0, 0.0, 0.0, 1.6216053839708312E9, 2021-05-21 15:56:23.970
5.0, -206.8744354248047, -433.7554626464844, 321.0872497558594, 63.701717376708984, 0.01600000075995922, 0.0, 1.055999994277954, 0.0, 0.0, 0.0, 0.0, 0.0, 1.6216053839866612E9, 2021-05-21 15:56:23.986
5.0, -215.3901824951172, -443.2174072265625, 310.5856018066406, 52.58299255371094, 0.01600000075995922, 0.0, 1.055999994277954, 0.0, 0.0, 0.0, 0.0, 0.0, 1.6216053839866612E9, 2021-05-21 15:56:23.986
6.0, -183.71697998046875, -412.6512145996094, 343.39947509765625, 79.88800048828125, 0.01600000075995922, 0.0, 1.055999994277954, 0.0, 0.0, 0.0, 0.0, 0.0, 1.6216053839872408E9, 2021-05-21 15:56:23.987
6.0, -169.7970733642578, -388.4690246582031, 365.31903076171875, 104.87801361083984, 0.01600000075995922, 0.0, 1.055999994277954, 0.0, 0.0, 0.0, 0.0, 0.0, 1.6216053839872408E9, 2021-05-21 15:56:23.987
7.0, -204.07699584960938, -429.5443420410156, 325.5003356933594, 64.4197769165039, 0.01600000075995922, 0.0, 1.055999994277954, 0.0, 0.0, 0.0, 0.0, 0.0, 1.6216053840008197E9, 2021-05-21 15:56:24.000
7.0, -210.24407958984375, -441.2614440917969, 314.3030700683594, 53.0467414855957, 0.01600000075995922, 0.0, 1.055999994277954, 0.0, 0.0, 0.0, 0.0, 0.0, 1.6216053840008197E9, 2021-05-21 15:56:24.000
8.0, -184.36024475097656, -404.9993896484375, 344.84307861328125, 83.14171600341797, 0.01600000075995922, 0.0, 1.055999994277954, 0.0, 0.0, 0.0, 0.0, 0.0, 1.6216053840163603E9, 2021-05-21 15:56:24.016
8.0, -165.48870849609375, -390.7615661621094, 369.9527587890625, 102.6976547241211, 0.01600000075995922, 0.0, 1.055999994277954, 0.0, 0.0, 0.0, 0.0, 0.0, 1.6216053840163603E9, 2021-05-21 15:56:24.016
9.0, -198.6990203857422, -429.24139404296875, 325.6087646484375, 62.695682525634766, 0.01600000075995922, 0.0, 1.055999994277954, 0.0, 0.0, 0.0, 0.0, 0.0, 1.6216053840315804E9, 2021-05-21 15:56:24.031
9.0, -215.1919708251953, -449.0516662597656, 307.5637512207031, 49.57237243652344, 0.01600000075995922, 0.0, 1.055999994277954, 0.0, 0.0, 0.0, 0.0, 0.0, 1.6216053840315804E9, 2021-05-21 15:56:24.031
10.0, -189.1959228515625, -419.7308349609375, 342.6926574707031, 81.02493286132812, 0.01600000075995922, 0.0, 1.055999994277954, 0.0, 0.0, 0.0, 0.0, 0.0, 1.6216053840323215E9, 2021-05-21 15:56:24.032
10.0, -175.1787872314453, -395.4850769042969, 363.6136474609375, 104.21604919433594, 0.01600000075995922, 0.0, 1.055999994277954, 0.0, 0.0, 0.0, 0.0, 0.0, 1.6216053840323215E9, 2021-05-21 15:56:24.032
11.0, -206.35833740234375, -435.68524169921875, 322.8487243652344, 63.884971618652344, 0.01600000075995922, 0.0, 1.055999994277954, 0.0, 0.0, 0.0, 0.0, 0.0, 1.621605384046608E9, 2021-05-21 15:56:24.046
11.0, -216.9571990966797, -452.5484619140625, 305.0804748535156, 48.764556884765625, 0.01600000075995922, 0.0, 1.055999994277954, 0.0, 0.0, 0.0, 0.0, 0.0, 1.621605384046608E9, 2021-05-21 15:56:24.046
12.0, -186.3236846923828, -415.7066955566406, 343.055419921875, 82.79764556884766, 0.01600000075995922, 0.0, 1.055999994277954, 0.0, 0.0, 0.0, 0.0, 0.0, 1.621605384047372E9, 2021-05-21 15:56:24.047
12.0, -171.64083862304688, -395.0886535644531, 362.8058166503906, 102.02446746826172, 0.01600000075995922, 0.0, 1.055999994277954, 0.0, 0.0, 0.0, 0.0, 0.0, 1.621605384047372E9, 2021-05-21 15:56:24.047
13.0, -202.49127197265625, -437.0203857421875, 321.5098571777344, 59.37465286254883, 0.01600000075995922, 0.0, 1.055999994277954, 0.0, 0.0, 0.0, 0.0, 0.0, 1.621605384060801E9, 2021-05-21 15:56:24.060
13.0, -221.3366241455078, -451.32177734375, 305.072998046875, 47.28355407714844, 0.01600000075995922, 0.0, 1.055999994277954, 0.0, 0.0, 0.0, 0.0, 0.0, 1.621605384060801E9, 2021-05-21 15:56:24.060
14.0, -182.30703735351562, -410.8560485839844, 345.66961669921875, 82.31893920898438, 0.01600000075995922, 0.0, 1.055999994277954, 0.0, 0.0, 0.0, 0.0, 0.0, 1.6216053840762513E9, 2021-05-21 15:56:24.076
14.0, -163.4579315185547, -390.81768798828125, 369.5638122558594, 100.9548568725586, 0.01600000075995922, 0.0, 1.055999994277954, 0.0, 0.0, 0.0, 0.0, 0.0, 1.6216053840762513E9, 2021-05-21 15:56:24.076
15.0, -197.28533935546875, -429.1366882324219, 329.8086853027344, 62.43014907836914, 0.01600000075995922, 0.0, 1.055999994277954, 0.0, 0.0, 0.0, 0.0, 0.0, 1.6216053840915158E9, 2021-05-21 15:56:24.091
15.0, -209.87757873535156, -439.9375305175781, 318.2935485839844, 46.95070266723633, 0.01600000075995922, 0.0, 1.055999994277954, 0.0, 0.0, 0.0, 0.0, 0.0, 1.6216053840915158E9, 2021-05-21 15:56:24.091
16.0, -181.0579071044922, -413.1149597167969, 350.16497802734375, 83.69148254394531, 0.01600000075995922, 0.0, 1.055999994277954, 0.0, 0.0, 0.0, 0.0, 0.0, 1.6216053840922372E9, 2021-05-21 15:56:24.092
16.0, -163.66363525390625, -394.9652099609375, 371.1308288574219, 103.96173858642578, 0.01600000075995922, 0.0, 1.055999994277954, 0.0, 0.0, 0.0, 0.0, 0.0, 1.6216053840922372E9, 2021-05-21 15:56:24.092
17.0, -199.68260192871094, -439.2568664550781, 328.7054138183594, 66.64875793457031, 0.01600000075995922, 0.0, 1.055999994277954, 0.0, 0.0, 0.0, 0.0, 0.0, 1.621605384106726E9, 2021-05-21 15:56:24.106
17.0, -219.48538208007812, -455.4356689453125, 309.73291015625, 49.669612884521484, 0.01600000075995922, 0.0, 1.055999994277954, 0.0, 0.0, 0.0, 0.0, 0.0, 1.621605384106726E9, 2021-05-21 15:56:24.106
18.0, -191.26036071777344, -421.8625793457031, 342.2999572753906, 88.265380859375, 0.01600000075995922, 0.0, 1.055999994277954, 0.0, 0.0, 0.0, 0.0, 0.0, 1.6216053841073024E9, 2021-05-21 15:56:24.107
18.0, -173.2527313232422, -393.05413818359375, 365.9847412109375, 108.93206787109375, 0.01600000075995922, 0.0, 1.055999994277954, 0.0, 0.0, 0.0, 0.0, 0.0, 1.6216053841073024E9, 2021-05-21 15:56:24.107
19.0, -210.0159454345703, -444.9078369140625, 314.557373046875, 63.38008499145508, 0.01600000075995922, 0.0, 1.055999994277954, 0.0, 0.0, 0.0, 0.0, 0.0, 1.6216053841209388E9, 2021-05-21 15:56:24.120
19.0, -215.07603454589844, -457.1896667480469, 301.2695007324219, 47.16013717651367, 0.01600000075995922, 0.0, 1.055999994277954, 0.0, 0.0, 0.0, 0.0, 0.0, 1.6216053841209388E9, 2021-05-21 15:56:24.120
20.0, -185.82254028320312, -419.62237548828125, 341.1443176269531, 84.15896606445312, 0.01600000075995922, 0.0, 1.055999994277954, 0.0, 0.0, 0.0, 0.0, 0.0, 1.6216053841369483E9, 2021-05-21 15:56:24.136
20.0, -164.37420654296875, -403.14813232421875, 358.572265625, 102.88090515136719, 0.01600000075995922, 0.0, 1.055999994277954, 0.0, 0.0, 0.0, 0.0, 0.0, 1.6216053841369483E9, 2021-05-21 15:56:24.136
21.0, -198.4409637451172, -445.1771240234375, 320.0625, 65.5828857421875, 0.01600000075995922, 0.0, 1.055999994277954, 0.0, 0.0, 0.0, 0.0, 0.0, 1.6216053841517384E9, 2021-05-21 15:56:24.151
21.0, -210.36376953125, -457.9339294433594, 308.4164733886719, 46.905826568603516, 0.01600000075995922, 0.0, 1.055999994277954, 0.0, 0.0, 0.0, 0.0, 0.0, 1.6216053841517384E9, 2021-05-21 15:56:24.151
22.0, -188.0664825439453, -425.9203796386719, 338.8966369628906, 77.54682922363281, 0.01600000075995922, 0.0, 1.055999994277954, 0.0, 0.0, 0.0, 0.0, 0.0, 1.621605384152274E9, 2021-05-21 15:56:24.152
22.0, -169.916748046875, -400.6498718261719, 360.8311462402344, 98.01155853271484, 0.01600000075995922, 0.0, 1.055999994277954, 0.0, 0.0, 0.0, 0.0, 0.0, 1.621605384152274E9, 2021-05-21 15:56:24.152
23.0, -203.00738525390625, -443.8045654296875, 321.4537658691406, 56.96241760253906, 0.01600000075995922, 0.0, 1.055999994277954, 0.0, 0.0, 0.0, 0.0, 0.0, 1.62160538416659E9, 2021-05-21 15:56:24.166
23.0, -212.52542114257812, -449.7061462402344, 304.5980224609375, 46.67021179199219, 0.01600000075995922, 0.0, 1.055999994277954, 0.0, 0.0, 0.0, 0.0, 0.0, 1.62160538416659E9, 2021-05-21 15:56:24.166
24.0, -189.588623046875, -412.6998291015625, 348.7699890136719, 81.57096099853516, 0.01600000075995922, 0.0, 1.055999994277954, 0.0, 0.0, 0.0, 0.0, 0.0, 1.6216053841672995E9, 2021-05-21 15:56:24.167
24.0, -168.28988647460938, -394.9278259277344, 365.6817932128906, 102.55179595947266, 0.01600000075995922, 0.0, 1.055999994277954, 0.0, 0.0, 0.0, 0.0, 0.0, 1.6216053841672995E9, 2021-05-21 15:56:24.167
25.0, -201.1935272216797, -429.38726806640625, 326.7045593261719, 65.02938079833984, 0.01600000075995922, 0.0, 1.055999994277954, 0.0, 0.0, 0.0, 0.0, 0.0, 1.621605384180998E9, 2021-05-21 15:56:24.180
25.0, -217.24143981933594, -447.7052917480469, 312.1937561035156, 50.45499038696289, 0.01600000075995922, 0.0, 1.055999994277954, 0.0, 0.0, 0.0, 0.0, 0.0, 1.621605384180998E9, 2021-05-21 15:56:24.180
26.0, -184.51731872558594, -415.5570983886719, 354.3199768066406, 88.03350830078125, 0.01600000075995922, 0.0, 1.055999994277954, 0.0, 0.0, 0.0, 0.0, 0.0, 1.6216053841969786E9, 2021-05-21 15:56:24.196
26.0, -170.22341918945312, -391.3038635253906, 379.3025207519531, 113.7602767944336, 0.01600000075995922, 0.0, 1.055999994277954, 0.0, 0.0, 0.0, 0.0, 0.0, 1.6216053841969786E9, 2021-05-21 15:56:24.196
27.0, -195.9127960205078, -434.72784423828125, 338.56005859375, 72.45307922363281, 0.01600000075995922, 0.0, 1.055999994277954, 0.0, 0.0, 0.0, 0.0, 0.0, 1.621605384211656E9, 2021-05-21 15:56:24.211
27.0, -212.8545379638672, -448.5617370605469, 317.78863525390625, 51.053375244140625, 0.01600000075995922, 0.0, 1.055999994277954, 0.0, 0.0, 0.0, 0.0, 0.0, 1.621605384211656E9, 2021-05-21 15:56:24.211
28.0, -185.6841583251953, -413.1822814941406, 354.88470458984375, 84.26368713378906, 0.01600000075995922, 0.0, 1.055999994277954, 0.0, 0.0, 0.0, 0.0, 0.0, 1.621605384212339E9, 2021-05-21 15:56:24.212
28.0, -161.84603881835938, -393.3309020996094, 382.56744384765625, 106.07478332519531, 0.01600000075995922, 0.0, 1.055999994277954, 0.0, 0.0, 0.0, 0.0, 0.0, 1.621605384212339E9, 2021-05-21 15:56:24.212
29.0, -200.5689697265625, -435.1018371582031, 341.28271484375, 66.22615051269531, 0.01600000075995922, 0.0, 1.055999994277954, 0.0, 0.0, 0.0, 0.0, 0.0, 1.6216053842265697E9, 2021-05-21 15:56:24.226
29.0, -211.48947143554688, -451.1086120605469, 323.6341247558594, 46.99932098388672, 0.01600000075995922, 0.0, 1.055999994277954, 0.0, 0.0, 0.0, 0.0, 0.0, 1.6216053842265697E9, 2021-05-21 15:56:24.226
30.0, -180.8970947265625, -411.69378662109375, 365.9735107421875, 85.05280303955078, 0.01600000075995922, 0.0, 1.055999994277954, 0.0, 0.0, 0.0, 0.0, 0.0, 1.6216053842272737E9, 2021-05-21 15:56:24.227
30.0, -162.38832092285156, -393.10650634765625, 380.8919677734375, 104.96403503417969, 0.01600000075995922, 0.0, 1.055999994277954, 0.0, 0.0, 0.0, 0.0, 0.0, 1.6216053842272737E9, 2021-05-21 15:56:24.227
31.0, -195.59115600585938, -431.7359313964844, 339.41650390625, 67.16112518310547, 0.01600000075995922, 0.0, 1.055999994277954, 0.0, 0.0, 0.0, 0.0, 0.0, 1.6216053842579665E9, 2021-05-21 15:56:24.257
31.0, -207.3157501220703, -450.02777099609375, 331.2186279296875, 55.7469482421875, 0.01600000075995922, 0.0, 1.055999994277954, 0.0, 0.0, 0.0, 0.0, 0.0, 1.6216053842579665E9, 2021-05-21 15:56:24.257
32.0, -178.92616271972656, -414.24066162109375, 358.489990234375, 80.90525817871094, 0.03200000151991844, 0.0, 1.055999994277954, 0.0, 0.0, 0.0, 0.0, 0.0, 1.6216053842586446E9, 2021-05-21 15:56:24.258
32.0, -168.50306701660156, -393.2897644042969, 370.9775085449219, 99.20832824707031, 0.03200000151991844, 0.0, 1.055999994277954, 0.0, 0.0, 0.0, 0.0, 0.0, 1.6216053842586446E9, 2021-05-21 15:56:24.258
33.0, -199.7574005126953, -428.33636474609375, 331.7684020996094, 63.37260437011719, 0.03200000151991844, 0.0, 1.055999994277954, 0.0, 0.0, 0.0, 0.0, 0.0, 1.621605384259376E9, 2021-05-21 15:56:24.259
33.0, -208.6172332763672, -449.0105285644531, 311.6402587890625, 44.14952087402344, 0.03200000151991844, 0.0, 1.055999994277954, 0.0, 0.0, 0.0, 0.0, 0.0, 1.621605384259376E9, 2021-05-21 15:56:24.259
34.0, -175.9753875732422, -415.93109130859375, 352.3453369140625, 79.614990234375, 0.03200000151991844, 0.0, 1.055999994277954, 0.0, 0.0, 0.0, 0.0, 0.0, 1.6216053842709315E9, 2021-05-21 15:56:24.270
34.0, -156.24740600585938, -392.3585205078125, 376.460205078125, 102.8210678100586, 0.03200000151991844, 0.0, 1.055999994277954, 0.0, 0.0, 0.0, 0.0, 0.0, 1.6216053842709315E9, 2021-05-21 15:56:24.270
35.0, -199.53675842285156, -438.51263427734375, 332.8903503417969, 62.130958557128906, 0.03200000151991844, 0.0, 1.055999994277954, 0.0, 0.0, 0.0, 0.0, 0.0, 1.621605384286261E9, 2021-05-21 15:56:24.286
35.0, -204.01715087890625, -452.1707458496094, 312.0329284667969, 46.90208435058594, 0.03200000151991844, 0.0, 1.055999994277954, 0.0, 0.0, 0.0, 0.0, 0.0, 1.621605384286261E9, 2021-05-21 15:56:24.286
36.0, -179.20664978027344, -418.5901794433594, 347.3450927734375, 80.66963958740234, 0.03200000151991844, 0.0, 1.055999994277954, 0.0, 0.0, 0.0, 0.0, 0.0, 1.62160538431801E9, 2021-05-21 15:56:24.318
36.0, -154.05209350585938, -392.1902160644531, 373.6029052734375, 108.24392700195312, 0.03200000151991844, 0.0, 1.055999994277954, 0.0, 0.0, 0.0, 0.0, 0.0, 1.62160538431801E9, 2021-05-21 15:56:24.318
37.0, -190.23936462402344, -438.60986328125, 333.90386962890625, 61.19972229003906, 0.03200000151991844, 0.0, 1.055999994277954, 0.0, 0.0, 0.0, 0.0, 0.0, 1.6216053843186612E9, 2021-05-21 15:56:24.318
37.0, -200.6362762451172, -463.09124755859375, 315.5334777832031, 46.692649841308594, 0.03200000151991844, 0.0, 1.055999994277954, 0.0, 0.0, 0.0, 0.0, 0.0, 1.6216053843186612E9, 2021-05-21 15:56:24.318
38.0, -174.50933837890625, -427.1021728515625, 349.1664123535156, 80.7593994140625, 0.03200000151991844, 0.0, 1.055999994277954, 0.0, 0.0, 0.0, 0.0, 0.0, 1.621605384319329E9, 2021-05-21 15:56:24.319
38.0, -157.26466369628906, -405.27239990234375, 372.7876281738281, 109.1452407836914, 0.03200000151991844, 0.0, 1.055999994277954, 0.0, 0.0, 0.0, 0.0, 0.0, 1.621605384319329E9, 2021-05-21 15:56:24.319
39.0, -192.99192810058594, -445.27435302734375, 327.0262145996094, 65.66142272949219, 0.03200000151991844, 0.0, 1.055999994277954, 0.0, 0.0, 0.0, 0.0, 0.0, 1.6216053843201337E9, 2021-05-21 15:56:24.320
39.0, -212.8134002685547, -472.4148254394531, 300.32330322265625, 40.734989166259766, 0.03200000151991844, 0.0, 1.055999994277954, 0.0, 0.0, 0.0, 0.0, 0.0, 1.6216053843201337E9, 2021-05-21 15:56:24.320
40.0, -176.2783203125, -431.4255065917969, 342.37847900390625, 77.46454620361328, 0.03200000151991844, 0.0, 1.055999994277954, 0.0, 0.0, 0.0, 0.0, 0.0, 1.6216053843308036E9, 2021-05-21 15:56:24.330
40.0, -165.09226989746094, -406.1512756347656, 362.8694152832031, 96.90454864501953, 0.03200000151991844, 0.0, 1.055999994277954, 0.0, 0.0, 0.0, 0.0, 0.0, 1.6216053843308036E9, 2021-05-21 15:56:24.330
41.0, -197.49476623535156, -447.90350341796875, 317.9943542480469, 56.22191619873047, 0.03200000151991844, 0.0, 1.055999994277954, 0.0, 0.0, 0.0, 0.0, 0.0, 1.6216053843466313E9, 2021-05-21 15:56:24.346
41.0, -212.2224884033203, -459.5084228515625, 302.18951416015625, 36.3443489074707, 0.03200000151991844, 0.0, 1.055999994277954, 0.0, 0.0, 0.0, 0.0, 0.0, 1.6216053843466313E9, 2021-05-21 15:56:24.346
42.0, -186.18905639648438, -428.5682373046875, 338.290771484375, 70.29889678955078, 0.03200000151991844, 0.0, 1.055999994277954, 0.0, 0.0, 0.0, 0.0, 0.0, 1.6216053843473127E9, 2021-05-21 15:56:24.347
42.0, -166.8687286376953, -407.0076904296875, 362.9292297363281, 97.20748138427734, 0.03200000151991844, 0.0, 1.055999994277954, 0.0, 0.0, 0.0, 0.0, 0.0, 1.6216053843473127E9, 2021-05-21 15:56:24.347
43.0, -200.2735137939453, -443.04913330078125, 320.2046203613281, 61.454036712646484, 0.03200000151991844, 0.0, 1.055999994277954, 0.0, 0.0, 0.0, 0.0, 0.0, 1.6216053843772185E9, 2021-05-21 15:56:24.377
43.0, -212.41696166992188, -460.7837219238281, 309.22802734375, 46.24386215209961, 0.03200000151991844, 0.0, 1.055999994277954, 0.0, 0.0, 0.0, 0.0, 0.0, 1.6216053843772185E9, 2021-05-21 15:56:24.377
44.0, -181.85824584960938, -424.0840759277344, 347.5096435546875, 83.42221069335938, 0.03200000151991844, 0.0, 1.055999994277954, 0.0, 0.0, 0.0, 0.0, 0.0, 1.6216053843779535E9, 2021-05-21 15:56:24.377
44.0, -161.4795379638672, -406.44671630859375, 369.7470703125, 102.91830444335938, 0.03200000151991844, 0.0, 1.055999994277954, 0.0, 0.0, 0.0, 0.0, 0.0, 1.6216053843779535E9, 2021-05-21 15:56:24.377
45.0, -194.09519958496094, -446.4561767578125, 326.1847229003906, 63.57830047607422, 0.03200000151991844, 0.0, 1.055999994277954, 0.0, 0.0, 0.0, 0.0, 0.0, 1.6216053843786657E9, 2021-05-21 15:56:24.378
45.0, -203.97227478027344, -464.8265686035156, 315.2604675292969, 52.12672424316406, 0.03200000151991844, 0.0, 1.055999994277954, 0.0, 0.0, 0.0, 0.0, 0.0, 1.6216053843786657E9, 2021-05-21 15:56:24.378
46.0, -179.04583740234375, -431.9266662597656, 344.4354248046875, 85.11638641357422, 0.03200000151991844, 0.0, 1.055999994277954, 0.0, 0.0, 0.0, 0.0, 0.0, 1.6216053843908532E9, 2021-05-21 15:56:24.390
46.0, -165.74301147460938, -413.64227294921875, 366.2764587402344, 102.76496887207031, 0.03200000151991844, 0.0, 1.055999994277954, 0.0, 0.0, 0.0, 0.0, 0.0, 1.6216053843908532E9, 2021-05-21 15:56:24.390
47.0, -200.96165466308594, -452.3390197753906, 325.49658203125, 64.1617202758789, 0.03200000151991844, 0.0, 1.055999994277954, 0.0, 0.0, 0.0, 0.0, 0.0, 1.6216053844065304E9, 2021-05-21 15:56:24.406
47.0, -212.11029052734375, -464.4263916015625, 310.6416931152344, 44.841400146484375, 0.03200000151991844, 0.0, 1.055999994277954, 0.0, 0.0, 0.0, 0.0, 0.0, 1.6216053844065304E9, 2021-05-21 15:56:24.406
48.0, -190.92750549316406, -435.9881896972656, 341.99700927734375, 81.19322967529297, 0.03200000151991844, 0.0, 1.055999994277954, 0.0, 0.0, 0.0, 0.0, 0.0, 1.621605384407278E9, 2021-05-21 15:56:24.407
48.0, -167.6653289794922, -407.9127502441406, 367.0655822753906, 101.04461669921875, 0.03200000151991844, 0.0, 1.055999994277954, 0.0, 0.0, 0.0, 0.0, 0.0, 1.621605384407278E9, 2021-05-21 15:56:24.407
49.0, -206.54531860351562, -453.8237609863281, 319.36688232421875, 55.90028381347656, 0.03200000151991844, 0.0, 1.055999994277954, 0.0, 0.0, 0.0, 0.0, 0.0, 1.6216053844372616E9, 2021-05-21 15:56:24.437
49.0, -213.838134765625, -464.4750061035156, 302.4139099121094, 44.706764221191406, 0.03200000151991844, 0.0, 1.055999994277954, 0.0, 0.0, 0.0, 0.0, 0.0, 1.6216053844372616E9, 2021-05-21 15:56:24.437
50.0, -188.58631896972656, -430.4456481933594, 334.0422668457031, 74.91393280029297, 0.03200000151991844, 0.0, 1.055999994277954, 0.0, 0.0, 0.0, 0.0, 0.0, 1.6216053844380536E9, 2021-05-21 15:56:24.438
50.0, -170.78065490722656, -406.33453369140625, 360.3636779785156, 97.0167465209961, 0.03200000151991844, 0.0, 1.055999994277954, 0.0, 0.0, 0.0, 0.0, 0.0, 1.6216053844380536E9, 2021-05-21 15:56:24.438
51.0, -210.08326721191406, -449.197509765625, 317.9158020019531, 59.842140197753906, 0.03200000151991844, 0.0, 1.055999994277954, 0.0, 0.0, 0.0, 0.0, 0.0, 1.621605384438716E9, 2021-05-21 15:56:24.438
51.0, -226.62110900878906, -466.97698974609375, 300.3831481933594, 42.48526382446289, 0.03200000151991844, 0.0, 1.055999994277954, 0.0, 0.0, 0.0, 0.0, 0.0, 1.621605384438716E9, 2021-05-21 15:56:24.438
52.0, -188.26095581054688, -424.0953063964844, 339.476318359375, 80.45272827148438, 0.03200000151991844, 0.0, 1.055999994277954, 0.0, 0.0, 0.0, 0.0, 0.0, 1.6216053844508436E9, 2021-05-21 15:56:24.450
52.0, -166.1693572998047, -400.3918151855469, 361.3173522949219, 102.96692657470703, 0.03200000151991844, 0.0, 1.055999994277954, 0.0, 0.0, 0.0, 0.0, 0.0, 1.6216053844508436E9, 2021-05-21 15:56:24.450
53.0, -195.2171630859375, -441.51202392578125, 324.50177001953125, 67.61365509033203, 0.03200000151991844, 0.0, 1.055999994277954, 0.0, 0.0, 0.0, 0.0, 0.0, 1.6216053844665828E9, 2021-05-21 15:56:24.466
53.0, -203.77780151367188, -455.7423400878906, 316.2104187011719, 56.38273239135742, 0.03200000151991844, 0.0, 1.055999994277954, 0.0, 0.0, 0.0, 0.0, 0.0, 1.6216053844665828E9, 2021-05-21 15:56:24.466
54.0, -181.68995666503906, -430.2100524902344, 340.3028564453125, 80.79306030273438, 0.03200000151991844, 0.0, 1.055999994277954, 0.0, 0.0, 0.0, 0.0, 0.0, 1.621605384467314E9, 2021-05-21 15:56:24.467
54.0, -166.27407836914062, -402.6955871582031, 362.7347717285156, 105.4128189086914, 0.03200000151991844, 0.0, 1.055999994277954, 0.0, 0.0, 0.0, 0.0, 0.0, 1.621605384467314E9, 2021-05-21 15:56:24.467
55.0, -195.34059143066406, -444.69842529296875, 328.0845947265625, 66.81331634521484, 0.03200000151991844, 0.0, 1.055999994277954, 0.0, 0.0, 0.0, 0.0, 0.0, 1.6216053844971952E9, 2021-05-21 15:56:24.497
55.0, -205.1840057373047, -459.6692199707031, 309.16070556640625, 48.54389953613281, 0.03200000151991844, 0.0, 1.055999994277954, 0.0, 0.0, 0.0, 0.0, 0.0, 1.6216053844971952E9, 2021-05-21 15:56:24.497
56.0, -178.90371704101562, -428.50091552734375, 344.86553955078125, 81.55226135253906, 0.03200000151991844, 0.0, 1.055999994277954, 0.0, 0.0, 0.0, 0.0, 0.0, 1.6216053844977434E9, 2021-05-21 15:56:24.497
56.0, -163.297119140625, -411.1328125, 360.5319519042969, 99.25694274902344, 0.03200000151991844, 0.0, 1.055999994277954, 0.0, 0.0, 0.0, 0.0, 0.0, 1.6216053844977434E9, 2021-05-21 15:56:24.497
57.0, -198.59056091308594, -454.1865539550781, 322.52337646484375, 60.51531982421875, 0.03200000151991844, 0.0, 1.055999994277954, 0.0, 0.0, 0.0, 0.0, 0.0, 1.621605384511588E9, 2021-05-21 15:56:24.511
57.0, -208.97999572753906, -469.5051574707031, 304.7139587402344, 46.87216567993164, 0.03200000151991844, 0.0, 1.055999994277954, 0.0, 0.0, 0.0, 0.0, 0.0, 1.621605384511588E9, 2021-05-21 15:56:24.511
58.0, -181.75352478027344, -430.0866394042969, 336.1702575683594, 76.31266021728516, 0.03200000151991844, 0.0, 1.055999994277954, 0.0, 0.0, 0.0, 0.0, 0.0, 1.6216053845123105E9, 2021-05-21 15:56:24.512
58.0, -168.6376953125, -408.9561767578125, 359.9111328125, 105.98502349853516, 0.03200000151991844, 0.0, 1.055999994277954, 0.0, 0.0, 0.0, 0.0, 0.0, 1.6216053845123105E9, 2021-05-21 15:56:24.512
59.0, -208.80422973632812, -445.7306213378906, 320.78057861328125, 66.19248962402344, 0.03200000151991844, 0.0, 1.055999994277954, 0.0, 0.0, 0.0, 0.0, 0.0, 1.6216053845266328E9, 2021-05-21 15:56:24.526
59.0, -211.77745056152344, -454.2164611816406, 309.6094970703125, 57.54209899902344, 0.03200000151991844, 0.0, 1.055999994277954, 0.0, 0.0, 0.0, 0.0, 0.0, 1.6216053845266328E9, 2021-05-21 15:56:24.526
60.0, -192.77500915527344, -418.0890197753906, 341.5893859863281, 80.3592300415039, 0.03200000151991844, 0.0, 1.055999994277954, 0.0, 0.0, 0.0, 0.0, 0.0, 1.6216053845274005E9, 2021-05-21 15:56:24.527
60.0, -169.4380340576172, -398.491943359375, 370.9027099609375, 105.10240936279297, 0.03200000151991844, 0.0, 1.055999994277954, 0.0, 0.0, 0.0, 0.0, 0.0, 1.6216053845274005E9, 2021-05-21 15:56:24.527
61.0, -203.4486846923828, -437.31585693359375, 329.8647766113281, 68.3130111694336, 0.03200000151991844, 0.0, 1.055999994277954, 0.0, 0.0, 0.0, 0.0, 0.0, 1.621605384540805E9, 2021-05-21 15:56:24.540
61.0, -217.11053466796875, -450.125, 310.2976379394531, 50.802799224853516, 0.03200000151991844, 0.0, 1.055999994277954, 0.0, 0.0, 0.0, 0.0, 0.0, 1.621605384540805E9, 2021-05-21 15:56:24.540
62.0, -185.98709106445312, -419.173583984375, 349.62640380859375, 83.56806182861328, 0.01600000075995922, 0.0, 1.055999994277954, 0.0, 0.0, 0.0, 0.0, 0.0, 1.6216053845565464E9, 2021-05-21 15:56:24.556
62.0, -166.54335021972656, -393.0092468261719, 375.4691162109375, 108.02326965332031, 0.01600000075995922, 0.0, 1.055999994277954, 0.0, 0.0, 0.0, 0.0, 0.0, 1.6216053845565464E9, 2021-05-21 15:56:24.556
63.0, -198.2651824951172, -437.1213684082031, 331.8282470703125, 68.44017028808594, 0.01600000075995922, 0.0, 1.055999994277954, 0.0, 0.0, 0.0, 0.0, 0.0, 1.621605384557243E9, 2021-05-21 15:56:24.557
63.0, -212.14768981933594, -452.1183776855469, 315.41754150390625, 49.78554916381836, 0.01600000075995922, 0.0, 1.055999994277954, 0.0, 0.0, 0.0, 0.0, 0.0, 1.621605384557243E9, 2021-05-21 15:56:24.557
64.0, -176.92532348632812, -415.1606750488281, 350.7371826171875, 82.36007690429688, 0.01600000075995922, 0.0, 1.055999994277954, 0.0, 0.0, 0.0, 0.0, 0.0, 1.6216053845709188E9, 2021-05-21 15:56:24.570
64.0, -158.16224670410156, -392.5417785644531, 379.9308166503906, 105.98876190185547, 0.01600000075995922, 0.0, 1.055999994277954, 0.0, 0.0, 0.0, 0.0, 0.0, 1.6216053845709188E9, 2021-05-21 15:56:24.570
65.0, -191.22669982910156, -436.908203125, 338.84429931640625, 72.0865707397461, 0.01600000075995922, 0.0, 1.055999994277954, 0.0, 0.0, 0.0, 0.0, 0.0, 1.6216053846036642E9, 2021-05-21 15:56:24.603
65.0, -203.1195831298828, -456.55389404296875, 317.8185729980469, 49.59481430053711, 0.01600000075995922, 0.0, 1.055999994277954, 0.0, 0.0, 0.0, 0.0, 0.0, 1.6216053846036642E9, 2021-05-21 15:56:24.603
66.0, -176.91409301757812, -428.24658203125, 343.5266418457031, 77.60292053222656, 0.01600000075995922, 0.0, 1.055999994277954, 0.0, 0.0, 0.0, 0.0, 0.0, 1.621605384604405E9, 2021-05-21 15:56:24.604
66.0, -167.94581604003906, -402.7479553222656, 367.3385925292969, 98.59498596191406, 0.01600000075995922, 0.0, 1.055999994277954, 0.0, 0.0, 0.0, 0.0, 0.0, 1.621605384604405E9, 2021-05-21 15:56:24.604
67.0, -208.9650421142578, -437.1138916015625, 316.92474365234375, 56.97737503051758, 0.01600000075995922, 0.0, 1.055999994277954, 0.0, 0.0, 0.0, 0.0, 0.0, 1.6216053846050255E9, 2021-05-21 15:56:24.605
67.0, -220.6522216796875, -446.5758361816406, 307.8629455566406, 48.4878044128418, 0.01600000075995922, 0.0, 1.055999994277954, 0.0, 0.0, 0.0, 0.0, 0.0, 1.6216053846050255E9, 2021-05-21 15:56:24.605
68.0, -185.7252960205078, -418.668701171875, 347.76019287109375, 78.96424865722656, 0.01600000075995922, 0.0, 1.055999994277954, 0.0, 0.0, 0.0, 0.0, 0.0, 1.6216053846058245E9, 2021-05-21 15:56:24.605
68.0, -167.1978302001953, -397.8598937988281, 368.303466796875, 95.75265502929688, 0.01600000075995922, 0.0, 1.055999994277954, 0.0, 0.0, 0.0, 0.0, 0.0, 1.6216053846058245E9, 2021-05-21 15:56:24.605
69.0, -204.45472717285156, -443.6886291503906, 325.03656005859375, 60.317108154296875, 0.01600000075995922, 0.0, 1.055999994277954, 0.0, 0.0, 0.0, 0.0, 0.0, 1.6216053846158483E9, 2021-05-21 15:56:24.615
69.0, -216.4111785888672, -459.5682678222656, 304.1155700683594, 41.00800323486328, 0.01600000075995922, 0.0, 1.055999994277954, 0.0, 0.0, 0.0, 0.0, 0.0, 1.6216053846158483E9, 2021-05-21 15:56:24.615
70.0, -184.6145477294922, -428.61309814453125, 342.85345458984375, 75.29166412353516, 0.01600000075995922, 0.0, 1.055999994277954, 0.0, 0.0, 0.0, 0.0, 0.0, 1.6216053846309175E9, 2021-05-21 15:56:24.630
70.0, -162.47808837890625, -411.14776611328125, 365.8276672363281, 95.22907257080078, 0.01600000075995922, 0.0, 1.055999994277954, 0.0, 0.0, 0.0, 0.0, 0.0, 1.6216053846309175E9, 2021-05-21 15:56:24.630
71.0, -205.03067016601562, -446.7815246582031, 323.22271728515625, 61.3979377746582, 0.01600000075995922, 0.0, 1.055999994277954, 0.0, 0.0, 0.0, 0.0, 0.0, 1.6216053846464849E9, 2021-05-21 15:56:24.646
71.0, -213.64739990234375, -460.8772277832031, 306.5465087890625, 48.68227767944336, 0.01600000075995922, 0.0, 1.055999994277954, 0.0, 0.0, 0.0, 0.0, 0.0, 1.6216053846464849E9, 2021-05-21 15:56:24.646
72.0, -189.52130126953125, -432.15106201171875, 332.9501953125, 66.53656005859375, 0.03200000151991844, 0.0, 1.055999994277954, 0.0, 0.0, 0.0, 0.0, 0.0, 1.6216053846472263E9, 2021-05-21 15:56:24.647
72.0, -155.00576782226562, -411.9144592285156, 368.17633056640625, 98.95401000976562, 0.03200000151991844, 0.0, 1.055999994277954, 0.0, 0.0, 0.0, 0.0, 0.0, 1.6216053846472263E9, 2021-05-21 15:56:24.647
73.0, -193.1078643798828, -457.75439453125, 319.03778076171875, 59.595306396484375, 0.03200000151991844, 0.0, 1.055999994277954, 0.0, 0.0, 0.0, 0.0, 0.0, 1.6216053846609251E9, 2021-05-21 15:56:24.660
73.0, -214.9376678466797, -476.52496337890625, 290.812744140625, 35.74970245361328, 0.03200000151991844, 0.0, 1.055999994277954, 0.0, 0.0, 0.0, 0.0, 0.0, 1.6216053846609251E9, 2021-05-21 15:56:24.660
74.0, -181.3047332763672, -437.330810546875, 333.4438781738281, 72.53536224365234, 0.03200000151991844, 0.0, 1.055999994277954, 0.0, 0.0, 0.0, 0.0, 0.0, 1.6216053846765423E9, 2021-05-21 15:56:24.676
74.0, -167.93833923339844, -416.4546813964844, 354.7538146972656, 100.34525299072266, 0.03200000151991844, 0.0, 1.055999994277954, 0.0, 0.0, 0.0, 0.0, 0.0, 1.6216053846765423E9, 2021-05-21 15:56:24.676
75.0, -204.0433349609375, -458.3453063964844, 310.1480407714844, 59.9019775390625, 0.03200000151991844, 0.0, 1.055999994277954, 0.0, 0.0, 0.0, 0.0, 0.0, 1.6216053846772425E9, 2021-05-21 15:56:24.677
75.0, -216.9310302734375, -471.0946350097656, 296.7292785644531, 46.468257904052734, 0.03200000151991844, 0.0, 1.055999994277954, 0.0, 0.0, 0.0, 0.0, 0.0, 1.6216053846772425E9, 2021-05-21 15:56:24.677
76.0, -185.64675903320312, -445.311767578125, 328.4473571777344, 74.7381591796875, 0.03200000151991844, 0.0, 1.055999994277954, 0.0, 0.0, 0.0, 0.0, 0.0, 1.621605384690853E9, 2021-05-21 15:56:24.690
76.0, -166.46481323242188, -417.89080810546875, 354.2938232421875, 102.48822021484375, 0.03200000151991844, 0.0, 1.055999994277954, 0.0, 0.0, 0.0, 0.0, 0.0, 1.621605384690853E9, 2021-05-21 15:56:24.690
77.0, -206.3284149169922, -457.9002685546875, 315.6830749511719, 60.115150451660156, 0.03200000151991844, 0.0, 1.055999994277954, 0.0, 0.0, 0.0, 0.0, 0.0, 1.6216053847064776E9, 2021-05-21 15:56:24.706
77.0, -213.1537322998047, -473.39093017578125, 299.74737548828125, 42.23843002319336, 0.03200000151991844, 0.0, 1.055999994277954, 0.0, 0.0, 0.0, 0.0, 0.0, 1.6216053847064776E9, 2021-05-21 15:56:24.706
78.0, -193.71372985839844, -436.4220275878906, 321.4724426269531, 74.85035705566406, 0.03200000151991844, 0.0, 1.055999994277954, 0.0, 0.0, 0.0, 0.0, 0.0, 1.62160538470721E9, 2021-05-21 15:56:24.707
78.0, -168.58534240722656, -412.98779296875, 355.673828125, 102.30870056152344, 0.03200000151991844, 0.0, 1.055999994277954, 0.0, 0.0, 0.0, 0.0, 0.0, 1.62160538470721E9, 2021-05-21 15:56:24.707
79.0, -191.32766723632812, -457.1260986328125, 316.22161865234375, 61.405418395996094, 0.03200000151991844, 0.0, 1.055999994277954, 0.0, 0.0, 0.0, 0.0, 0.0, 1.6216053847208178E9, 2021-05-21 15:56:24.720
79.0, -215.55474853515625, -477.0111389160156, 294.48907470703125, 32.65680694580078, 0.03200000151991844, 0.0, 1.055999994277954, 0.0, 0.0, 0.0, 0.0, 0.0, 1.6216053847208178E9, 2021-05-21 15:56:24.720
80.0, -188.59754943847656, -436.0405578613281, 330.8670654296875, 77.81983947753906, 0.03200000151991844, 0.0, 1.055999994277954, 0.0, 0.0, 0.0, 0.0, 0.0, 1.6216053847362304E9, 2021-05-21 15:56:24.736
80.0, -172.53466796875, -416.8062438964844, 356.05157470703125, 97.24861907958984, 0.03200000151991844, 0.0, 1.055999994277954, 0.0, 0.0, 0.0, 0.0, 0.0, 1.6216053847362304E9, 2021-05-21 15:56:24.736
81.0, -202.33419799804688, -459.8300476074219, 308.9624938964844, 59.165218353271484, 0.03200000151991844, 0.0, 1.055999994277954, 0.0, 0.0, 0.0, 0.0, 0.0, 1.6216053847515352E9, 2021-05-21 15:56:24.751
81.0, -217.40972900390625, -471.31903076171875, 297.2453918457031, 47.122737884521484, 0.03200000151991844, 0.0, 1.055999994277954, 0.0, 0.0, 0.0, 0.0, 0.0, 1.6216053847515352E9, 2021-05-21 15:56:24.751
82.0, -184.9137420654297, -437.7309875488281, 341.3500061035156, 82.6891860961914, 0.01600000075995922, 0.0, 1.055999994277954, 0.0, 0.0, 0.0, 0.0, 0.0, 1.6216053847522173E9, 2021-05-21 15:56:24.752
82.0, -155.61163330078125, -418.3844909667969, 365.7491149902344, 103.63262939453125, 0.01600000075995922, 0.0, 1.055999994277954, 0.0, 0.0, 0.0, 0.0, 0.0, 1.6216053847522173E9, 2021-05-21 15:56:24.752
83.0, -199.47317504882812, -455.7834777832031, 322.4934387207031, 61.32313919067383, 0.01600000075995922, 0.0, 1.055999994277954, 0.0, 0.0, 0.0, 0.0, 0.0, 1.6216053847665744E9, 2021-05-21 15:56:24.766
83.0, -215.2667694091797, -475.5226745605469, 301.3106384277344, 44.96481704711914, 0.01600000075995922, 0.0, 1.055999994277954, 0.0, 0.0, 0.0, 0.0, 0.0, 1.6216053847665744E9, 2021-05-21 15:56:24.766
84.0, -183.78428649902344, -440.62939453125, 336.0617980957031, 79.50653076171875, 0.01600000075995922, 0.0, 1.055999994277954, 0.0, 0.0, 0.0, 0.0, 0.0, 1.621605384767324E9, 2021-05-21 15:56:24.767
84.0, -165.98985290527344, -418.1563415527344, 358.5535583496094, 102.26008605957031, 0.01600000075995922, 0.0, 1.055999994277954, 0.0, 0.0, 0.0, 0.0, 0.0, 1.621605384767324E9, 2021-05-21 15:56:24.767
85.0, -202.36412048339844, -457.2794494628906, 318.2673645019531, 63.791473388671875, 0.01600000075995922, 0.0, 1.055999994277954, 0.0, 0.0, 0.0, 0.0, 0.0, 1.6216053847808216E9, 2021-05-21 15:56:24.780
85.0, -220.60360717773438, -472.5157775878906, 291.7851257324219, 45.91849136352539, 0.01600000075995922, 0.0, 1.055999994277954, 0.0, 0.0, 0.0, 0.0, 0.0, 1.6216053847808216E9, 2021-05-21 15:56:24.780
86.0, -188.3058319091797, -433.34033203125, 329.93585205078125, 79.64116668701172, 0.01600000075995922, 0.0, 1.055999994277954, 0.0, 0.0, 0.0, 0.0, 0.0, 1.621605384796492E9, 2021-05-21 15:56:24.796
86.0, -164.75567626953125, -409.9285583496094, 361.94189453125, 103.019287109375, 0.01600000075995922, 0.0, 1.055999994277954, 0.0, 0.0, 0.0, 0.0, 0.0, 1.621605384796492E9, 2021-05-21 15:56:24.796
87.0, -204.5444793701172, -452.0660095214844, 318.0915832519531, 63.19683074951172, 0.01600000075995922, 0.0, 1.055999994277954, 0.0, 0.0, 0.0, 0.0, 0.0, 1.6216053847972057E9, 2021-05-21 15:56:24.797
87.0, -218.09786987304688, -469.96142578125, 292.091796875, 39.50456237792969, 0.01600000075995922, 0.0, 1.055999994277954, 0.0, 0.0, 0.0, 0.0, 0.0, 1.6216053847972057E9, 2021-05-21 15:56:24.797
88.0, -180.8185577392578, -437.95538330078125, 324.9991760253906, 74.86905670166016, 0.01600000075995922, 0.0, 1.055999994277954, 0.0, 0.0, 0.0, 0.0, 0.0, 1.6216053848108265E9, 2021-05-21 15:56:24.810
88.0, -170.42910766601562, -411.64892578125, 351.1597900390625, 100.25923919677734, 0.01600000075995922, 0.0, 1.055999994277954, 0.0, 0.0, 0.0, 0.0, 0.0, 1.6216053848108265E9, 2021-05-21 15:56:24.810
89.0, -198.88601684570312, -448.51312255859375, 309.6880187988281, 59.842140197753906, 0.01600000075995922, 0.0, 1.055999994277954, 0.0, 0.0, 0.0, 0.0, 0.0, 1.6216053848266196E9, 2021-05-21 15:56:24.826
89.0, -211.30247497558594, -468.2410888671875, 300.67486572265625, 44.3851318359375, 0.01600000075995922, 0.0, 1.055999994277954, 0.0, 0.0, 0.0, 0.0, 0.0, 1.6216053848266196E9, 2021-05-21 15:56:24.826
90.0, -177.8453369140625, -442.600341796875, 333.3241882324219, 77.74130249023438, 0.01600000075995922, 0.0, 1.055999994277954, 0.0, 0.0, 0.0, 0.0, 0.0, 1.6216053848273237E9, 2021-05-21 15:56:24.827
90.0, -169.46421813964844, -415.69921875, 343.9081115722656, 94.54840850830078, 0.01600000075995922, 0.0, 1.055999994277954, 0.0, 0.0, 0.0, 0.0, 0.0, 1.6216053848273237E9, 2021-05-21 15:56:24.827
91.0, -203.321533203125, -451.32177734375, 306.4642333984375, 59.1502571105957, 0.01600000075995922, 0.0, 1.055999994277954, 0.0, 0.0, 0.0, 0.0, 0.0, 1.6216053848410573E9, 2021-05-21 15:56:24.841
91.0, -213.22479248046875, -476.5997619628906, 293.2960510253906, 40.222625732421875, 0.01600000075995922, 0.0, 1.055999994277954, 0.0, 0.0, 0.0, 0.0, 0.0, 1.6216053848410573E9, 2021-05-21 15:56:24.841
92.0, -181.86572265625, -435.3337097167969, 336.0917053222656, 74.46141052246094, 0.03200000151991844, 0.0, 1.055999994277954, 0.0, 0.0, 0.0, 0.0, 0.0, 1.6216053848564878E9, 2021-05-21 15:56:24.856
92.0, -168.28988647460938, -413.328125, 352.4462890625, 96.4183578491211, 0.03200000151991844, 0.0, 1.055999994277954, 0.0, 0.0, 0.0, 0.0, 0.0, 1.6216053848564878E9, 2021-05-21 15:56:24.856
93.0, -202.0013427734375, -453.116943359375, 316.5245666503906, 53.30853271484375, 0.03200000151991844, 0.0, 1.055999994277954, 0.0, 0.0, 0.0, 0.0, 0.0, 1.6216053848572197E9, 2021-05-21 15:56:24.857
93.0, -211.8372802734375, -469.1573486328125, 307.0551452636719, 46.700130462646484, 0.03200000151991844, 0.0, 1.055999994277954, 0.0, 0.0, 0.0, 0.0, 0.0, 1.6216053848572197E9, 2021-05-21 15:56:24.857
94.0, -189.1286163330078, -436.96429443359375, 332.1386413574219, 77.6889419555664, 0.03200000151991844, 0.0, 1.055999994277954, 0.0, 0.0, 0.0, 0.0, 0.0, 1.6216053848709586E9, 2021-05-21 15:56:24.870
94.0, -169.916748046875, -413.3580627441406, 353.901123046875, 106.54226684570312, 0.03200000151991844, 0.0, 1.055999994277954, 0.0, 0.0, 0.0, 0.0, 0.0, 1.6216053848709586E9, 2021-05-21 15:56:24.870
95.0, -205.12416076660156, -454.02197265625, 320.1634826660156, 63.267887115478516, 0.03200000151991844, 0.0, 1.055999994277954, 0.0, 0.0, 0.0, 0.0, 0.0, 1.6216053848865504E9, 2021-05-21 15:56:24.886
95.0, -219.14878845214844, -466.8460998535156, 299.6800537109375, 47.040462493896484, 0.03200000151991844, 0.0, 1.055999994277954, 0.0, 0.0, 0.0, 0.0, 0.0, 1.6216053848865504E9, 2021-05-21 15:56:24.886
96.0, -187.3372039794922, -433.8938293457031, 337.06036376953125, 76.77640533447266, 0.03200000151991844, 0.0, 1.055999994277954, 0.0, 0.0, 0.0, 0.0, 0.0, 1.6216053848872564E9, 2021-05-21 15:56:24.887
96.0, -170.61610412597656, -410.2165222167969, 360.0682067871094, 103.89816284179688, 0.03200000151991844, 0.0, 1.055999994277954, 0.0, 0.0, 0.0, 0.0, 0.0, 1.6216053848872564E9, 2021-05-21 15:56:24.887
97.0, -203.17193603515625, -446.7254333496094, 318.3533630371094, 67.14616394042969, 0.03200000151991844, 0.0, 1.055999994277954, 0.0, 0.0, 0.0, 0.0, 0.0, 1.6216053849009778E9, 2021-05-21 15:56:24.900
97.0, -220.15855407714844, -468.8394775390625, 296.658203125, 44.59082794189453, 0.03200000151991844, 0.0, 1.055999994277954, 0.0, 0.0, 0.0, 0.0, 0.0, 1.6216053849009778E9, 2021-05-21 15:56:24.900
98.0, -185.5532684326172, -428.1531066894531, 334.9548034667969, 77.90211486816406, 0.03200000151991844, 0.0, 1.055999994277954, 0.0, 0.0, 0.0, 0.0, 0.0, 1.6216053849166012E9, 2021-05-21 15:56:24.916
