Sample Index, EXG Channel 0, EXG Channel 1, EXG Channel 2, EXG Channel 3, Accel Channel 0, Accel Channel 1, Accel Channel 2, Other, Other, Other, Other, Other, Timestamp, Timestamp (Formatted)
0.0, -191.68296813964844, -417.8272399902344, 286.7867431640625, 72.07160949707031, 0.0, 0.0, 0.0, 0.0, 0.0, 0.0, 0.0, 0.0, 1.6216046454061203E9, 2021-05-21 15:44:05.406
1.0, -154.07826232910156, -368.8382873535156, 337.3763732910156, 126.74147033691406, 0.0, 0.03200000151991844, 0.0, 0.0, 0.0, 0.0, 0.0, 0.0, 1.621604645419588E9, 2021-05-21 15:44:05.419
1.0, -157.43295288085938, -385.5107421875, 333.5616760253906, 117.75074768066406, 0.0, 0.03200000151991844, 0.0, 0.0, 0.0, 0.0, 0.0, 0.0, 1.621604645419588E9, 2021-05-21 15:44:05.419
2.0, -207.57005310058594, -427.7940673828125, 279.04888916015625, 62.42641067504883, 0.03200000151991844, 0.03200000151991844, 0.0, 0.0, 0.0, 0.0, 0.0, 0.0, 1.6216046454361985E9, 2021-05-21 15:44:05.436
2.0, -198.9121856689453, -412.3258361816406, 288.6641845703125, 81.05110931396484, 0.03200000151991844, 0.03200000151991844, 0.0, 0.0, 0.0, 0.0, 0.0, 0.0, 1.6216046454361985E9, 2021-05-21 15:44:05.436
3.0, -163.96656799316406, -361.4819030761719, 337.6344299316406, 130.60104370117188, 0.03200000151991844, 0.03200000151991844, 0.0, 0.0, 0.0, 0.0, 0.0, 0.0, 1.621604645436957E9, 2021-05-21 15:44:05.436
3.0, -168.49183654785156, -382.1635437011719, 330.14715576171875, 119.50102233886719, 0.03200000151991844, 0.03200000151991844, 0.0, 0.0, 0.0, 0.0, 0.0, 0.0, 1.621604645436957E9, 2021-05-21 15:44:05.436
4.0, -201.34312438964844, -423.8035888671875, 282.60552978515625, 71.09549713134766, 0.03200000151991844, 0.03200000151991844, 0.0, 0.0, 0.0, 0.0, 0.0, 0.0, 1.6216046454493294E9, 2021-05-21 15:44:05.449
4.0, -202.40151977539062, -421.5185241699219, 289.2401123046875, 79.54019165039062, 0.03200000151991844, 0.03200000151991844, 0.0, 0.0, 0.0, 0.0, 0.0, 0.0, 1.6216046454493294E9, 2021-05-21 15:44:05.449
5.0, -165.73553466796875, -374.55657958984375, 334.81829833984375, 127.99807739257812, 0.03200000151991844, 0.03200000151991844, 0.0, 0.0, 0.0, 0.0, 0.0, 0.0, 1.6216046454648423E9, 2021-05-21 15:44:05.464
5.0, -165.27178955078125, -379.4895324707031, 330.337890625, 118.11726379394531, 0.03200000151991844, 0.03200000151991844, 0.0, 0.0, 0.0, 0.0, 0.0, 0.0, 1.6216046454648423E9, 2021-05-21 15:44:05.464
6.0, -205.00448608398438, -427.12835693359375, 278.9591369628906, 72.04169464111328, 0.03200000151991844, 0.03200000151991844, 0.0, 0.0, 0.0, 0.0, 0.0, 0.0, 1.6216046454799995E9, 2021-05-21 15:44:05.479
6.0, -198.55316162109375, -421.9673156738281, 291.14373779296875, 83.3698501586914, 0.03200000151991844, 0.03200000151991844, 0.0, 0.0, 0.0, 0.0, 0.0, 0.0, 1.6216046454799995E9, 2021-05-21 15:44:05.479
7.0, -160.36129760742188, -372.0246887207031, 340.1813049316406, 127.62034606933594, 0.03200000151991844, 0.03200000151991844, 0.0, 0.0, 0.0, 0.0, 0.0, 0.0, 1.621604645480709E9, 2021-05-21 15:44:05.480
7.0, -161.29254150390625, -381.3968811035156, 331.9684753417969, 120.87356567382812, 0.03200000151991844, 0.03200000151991844, 0.0, 0.0, 0.0, 0.0, 0.0, 0.0, 1.621604645480709E9, 2021-05-21 15:44:05.480
8.0, -195.66969299316406, -428.8973388671875, 285.36932373046875, 76.5445327758789, 0.03200000151991844, 0.03200000151991844, 0.0, 0.0, 0.0, 0.0, 0.0, 0.0, 1.6216046454950516E9, 2021-05-21 15:44:05.495
8.0, -187.58029174804688, -422.9621276855469, 291.065185546875, 77.72260284423828, 0.03200000151991844, 0.03200000151991844, 0.0, 0.0, 0.0, 0.0, 0.0, 0.0, 1.6216046454950516E9, 2021-05-21 15:44:05.495
9.0, -157.72093200683594, -369.7919616699219, 339.8933410644531, 125.5895767211914, 0.03200000151991844, 0.03200000151991844, 0.0, 0.0, 0.0, 0.0, 0.0, 0.0, 1.6216046454957976E9, 2021-05-21 15:44:05.495
9.0, -164.822998046875, -375.3905944824219, 334.7995910644531, 120.73145294189453, 0.03200000151991844, 0.03200000151991844, 0.0, 0.0, 0.0, 0.0, 0.0, 0.0, 1.6216046454957976E9, 2021-05-21 15:44:05.495
10.0, -194.66366577148438, -429.66400146484375, 290.38079833984375, 72.61016082763672, 0.03200000151991844, 0.03200000151991844, 1.055999994277954, 0.0, 0.0, 0.0, 0.0, 0.0, 1.6216046455248172E9, 2021-05-21 15:44:05.524
10.0, -189.78309631347656, -418.3919677734375, 297.76336669921875, 80.635986328125, 0.03200000151991844, 0.03200000151991844, 1.055999994277954, 0.0, 0.0, 0.0, 0.0, 0.0, 1.6216046455248172E9, 2021-05-21 15:44:05.524
11.0, -168.22630310058594, -376.5723876953125, 333.9543762207031, 124.0001220703125, 0.03200000151991844, 0.03200000151991844, 1.055999994277954, 0.0, 0.0, 0.0, 0.0, 0.0, 1.621604645542807E9, 2021-05-21 15:44:05.542
11.0, -169.67738342285156, -376.9576110839844, 331.3551330566406, 121.94317626953125, 0.03200000151991844, 0.03200000151991844, 1.055999994277954, 0.0, 0.0, 0.0, 0.0, 0.0, 1.621604645542807E9, 2021-05-21 15:44:05.542
12.0, -205.53929138183594, -428.2877197265625, 283.7349853515625, 76.74649047851562, 0.03200000151991844, 0.03200000151991844, 1.055999994277954, 0.0, 0.0, 0.0, 0.0, 0.0, 1.6216046455435383E9, 2021-05-21 15:44:05.543
12.0, -192.6029815673828, -413.2795104980469, 293.2081604003906, 84.6376724243164, 0.03200000151991844, 0.03200000151991844, 1.055999994277954, 0.0, 0.0, 0.0, 0.0, 0.0, 1.6216046455435383E9, 2021-05-21 15:44:05.543
13.0, -160.8026123046875, -374.85577392578125, 340.25982666015625, 128.14393615722656, 0.03200000151991844, 0.03200000151991844, 1.055999994277954, 0.0, 0.0, 0.0, 0.0, 0.0, 1.6216046455441356E9, 2021-05-21 15:44:05.544
13.0, -172.41873168945312, -377.9636535644531, 329.328125, 119.79273223876953, 0.03200000151991844, 0.03200000151991844, 1.055999994277954, 0.0, 0.0, 0.0, 0.0, 0.0, 1.6216046455441356E9, 2021-05-21 15:44:05.544
14.0, -204.49960327148438, -430.72613525390625, 275.6493225097656, 69.42375946044922, 0.03200000151991844, 0.03200000151991844, 1.055999994277954, 0.0, 0.0, 0.0, 0.0, 0.0, 1.6216046455449407E9, 2021-05-21 15:44:05.544
14.0, -193.96429443359375, -416.6042785644531, 287.2542419433594, 82.35260009765625, 0.03200000151991844, 0.03200000151991844, 1.055999994277954, 0.0, 0.0, 0.0, 0.0, 0.0, 1.6216046455449407E9, 2021-05-21 15:44:05.544
15.0, -158.4576873779297, -378.2815246582031, 336.9013977050781, 121.26251983642578, 0.03200000151991844, 0.03200000151991844, 1.055999994277954, 0.0, 0.0, 0.0, 0.0, 0.0, 1.6216046455544784E9, 2021-05-21 15:44:05.554
15.0, -165.76919555664062, -386.71875, 329.9227600097656, 115.49932861328125, 0.03200000151991844, 0.03200000151991844, 1.055999994277954, 0.0, 0.0, 0.0, 0.0, 0.0, 1.6216046455544784E9, 2021-05-21 15:44:05.554
16.0, -206.01051330566406, -428.515869140625, 269.8337707519531, 66.25232696533203, 0.03200000151991844, 0.03200000151991844, 1.055999994277954, 0.0, 0.0, 0.0, 0.0, 0.0, 1.6216046455866048E9, 2021-05-21 15:44:05.586
16.0, -194.94789123535156, -411.3572082519531, 289.561767578125, 77.59544372558594, 0.03200000151991844, 0.03200000151991844, 1.055999994277954, 0.0, 0.0, 0.0, 0.0, 0.0, 1.6216046455866048E9, 2021-05-21 15:44:05.586
17.0, -155.4470672607422, -360.509521484375, 342.0101013183594, 126.82374572753906, 0.03200000151991844, 0.03200000151991844, 1.055999994277954, 0.0, 0.0, 0.0, 0.0, 0.0, 1.6216046455872092E9, 2021-05-21 15:44:05.587
17.0, -166.19180297851562, -369.82562255859375, 335.8504943847656, 114.36614227294922, 0.03200000151991844, 0.03200000151991844, 1.055999994277954, 0.0, 0.0, 0.0, 0.0, 0.0, 1.6216046455872092E9, 2021-05-21 15:44:05.587
18.0, -198.79251098632812, -422.95465087890625, 278.6038513183594, 68.72814178466797, 0.03200000151991844, 0.03200000151991844, 1.055999994277954, 0.0, 0.0, 0.0, 0.0, 0.0, 1.6216046455879483E9, 2021-05-21 15:44:05.587
18.0, -200.58392333984375, -413.7657165527344, 294.0384216308594, 82.23291778564453, 0.03200000151991844, 0.03200000151991844, 1.055999994277954, 0.0, 0.0, 0.0, 0.0, 0.0, 1.6216046455879483E9, 2021-05-21 15:44:05.587
19.0, -165.27178955078125, -369.38055419921875, 339.1490783691406, 126.67789459228516, 0.03200000151991844, 0.03200000151991844, 1.055999994277954, 0.0, 0.0, 0.0, 0.0, 0.0, 1.6216046455993335E9, 2021-05-21 15:44:05.599
19.0, -165.2605743408203, -378.6181335449219, 337.28662109375, 122.91181182861328, 0.03200000151991844, 0.03200000151991844, 1.055999994277954, 0.0, 0.0, 0.0, 0.0, 0.0, 1.6216046455993335E9, 2021-05-21 15:44:05.599
20.0, -198.5232391357422, -426.51129150390625, 283.11041259765625, 76.29022216796875, 0.03200000151991844, 0.03200000151991844, 1.055999994277954, 0.0, 0.0, 0.0, 0.0, 0.0, 1.6216046456149688E9, 2021-05-21 15:44:05.614
20.0, -197.73785400390625, -415.3065490722656, 288.6641845703125, 86.75071716308594, 0.03200000151991844, 0.03200000151991844, 1.055999994277954, 0.0, 0.0, 0.0, 0.0, 0.0, 1.6216046456149688E9, 2021-05-21 15:44:05.614
21.0, -170.05511474609375, -376.5350036621094, 331.0596923828125, 126.25902557373047, 0.03200000151991844, 0.03200000151991844, 1.055999994277954, 0.0, 0.0, 0.0, 0.0, 0.0, 1.6216046456156905E9, 2021-05-21 15:44:05.615
21.0, -171.07984924316406, -379.0706481933594, 323.74444580078125, 119.90119171142578, 0.03200000151991844, 0.03200000151991844, 1.055999994277954, 0.0, 0.0, 0.0, 0.0, 0.0, 1.6216046456156905E9, 2021-05-21 15:44:05.615
22.0, -207.42794799804688, -431.0178527832031, 272.8780517578125, 73.9752197265625, 0.03200000151991844, 0.03200000151991844, 1.055999994277954, 0.0, 0.0, 0.0, 0.0, 0.0, 1.62160464562939E9, 2021-05-21 15:44:05.629
22.0, -196.94874572753906, -421.4923400878906, 287.3103332519531, 86.5824203491211, 0.03200000151991844, 0.03200000151991844, 1.055999994277954, 0.0, 0.0, 0.0, 0.0, 0.0, 1.62160464562939E9, 2021-05-21 15:44:05.629
23.0, -159.5684356689453, -375.7496032714844, 333.83843994140625, 126.6891098022461, 0.03200000151991844, 0.03200000151991844, 1.055999994277954, 0.0, 0.0, 0.0, 0.0, 0.0, 1.6216046456449916E9, 2021-05-21 15:44:05.644
23.0, -171.66702270507812, -382.6871337890625, 323.3143615722656, 124.92013549804688, 0.03200000151991844, 0.03200000151991844, 1.055999994277954, 0.0, 0.0, 0.0, 0.0, 0.0, 1.6216046456449916E9, 2021-05-21 15:44:05.644
24.0, -208.3180389404297, -426.2232971191406, 273.2894592285156, 68.35789489746094, 0.03200000151991844, 0.03200000151991844, 1.055999994277954, 0.0, 0.0, 0.0, 0.0, 0.0, 1.6216046456457005E9, 2021-05-21 15:44:05.645
24.0, -206.5415802001953, -414.1621398925781, 281.3265075683594, 79.614990234375, 0.03200000151991844, 0.03200000151991844, 1.055999994277954, 0.0, 0.0, 0.0, 0.0, 0.0, 1.6216046456457005E9, 2021-05-21 15:44:05.645
25.0, -169.2734832763672, -364.0848693847656, 329.3393249511719, 128.2748260498047, 0.03200000151991844, 0.03200000151991844, 1.055999994277954, 0.0, 0.0, 0.0, 0.0, 0.0, 1.6216046456593037E9, 2021-05-21 15:44:05.659
25.0, -179.7788543701172, -375.0652160644531, 324.0062255859375, 116.06405639648438, 0.03200000151991844, 0.03200000151991844, 1.055999994277954, 0.0, 0.0, 0.0, 0.0, 0.0, 1.6216046456593037E9, 2021-05-21 15:44:05.659
26.0, -208.8752899169922, -422.2814636230469, 273.03887939453125, 73.26837921142578, 0.03200000151991844, 0.03200000151991844, 1.055999994277954, 0.0, 0.0, 0.0, 0.0, 0.0, 1.6216046456750653E9, 2021-05-21 15:44:05.675
26.0, -196.48873901367188, -405.5790710449219, 291.2708740234375, 79.46913146972656, 0.03200000151991844, 0.03200000151991844, 1.055999994277954, 0.0, 0.0, 0.0, 0.0, 0.0, 1.6216046456750653E9, 2021-05-21 15:44:05.675
27.0, -165.35406494140625, -369.77325439453125, 337.5558776855469, 121.92073822021484, 0.03200000151991844, 0.03200000151991844, 1.055999994277954, 0.0, 0.0, 0.0, 0.0, 0.0, 1.6216046456757057E9, 2021-05-21 15:44:05.675
27.0, -167.96826171875, -367.71258544921875, 331.2728576660156, 120.81746673583984, 0.03200000151991844, 0.03200000151991844, 1.055999994277954, 0.0, 0.0, 0.0, 0.0, 0.0, 1.6216046456757057E9, 2021-05-21 15:44:05.675
28.0, -201.6236114501953, -415.22052001953125, 285.5301513671875, 74.27067565917969, 0.03200000151991844, 0.03200000151991844, 1.055999994277954, 0.0, 0.0, 0.0, 0.0, 0.0, 1.6216046456894684E9, 2021-05-21 15:44:05.689
28.0, -193.27615356445312, -407.7369689941406, 297.9653015136719, 81.91128540039062, 0.03200000151991844, 0.03200000151991844, 1.055999994277954, 0.0, 0.0, 0.0, 0.0, 0.0, 1.6216046456894684E9, 2021-05-21 15:44:05.689
29.0, -160.85122680664062, -364.6047058105469, 345.52935791015625, 130.29437255859375, 0.03200000151991844, 0.03200000151991844, 1.055999994277954, 0.0, 0.0, 0.0, 0.0, 0.0, 1.6216046457054362E9, 2021-05-21 15:44:05.705
29.0, -169.16502380371094, -373.408447265625, 340.35333251953125, 130.04754638671875, 0.03200000151991844, 0.03200000151991844, 1.055999994277954, 0.0, 0.0, 0.0, 0.0, 0.0, 1.6216046457054362E9, 2021-05-21 15:44:05.705
30.0, -204.9708251953125, -420.6246643066406, 289.1503601074219, 77.79365539550781, 0.03200000151991844, 0.03200000151991844, 1.055999994277954, 0.0, 0.0, 0.0, 0.0, 0.0, 1.6216046457201035E9, 2021-05-21 15:44:05.720
30.0, -190.46002197265625, -416.6267395019531, 303.35076904296875, 90.76363372802734, 0.03200000151991844, 0.03200000151991844, 1.055999994277954, 0.0, 0.0, 0.0, 0.0, 0.0, 1.6216046457201035E9, 2021-05-21 15:44:05.720
31.0, -157.88922119140625, -377.8439636230469, 342.50750732421875, 134.0118408203125, 0.03200000151991844, 0.03200000151991844, 1.055999994277954, 0.0, 0.0, 0.0, 0.0, 0.0, 1.6216046457208073E9, 2021-05-21 15:44:05.720
31.0, -172.9236297607422, -388.6260986328125, 329.047607421875, 122.1114730834961, 0.03200000151991844, 0.03200000151991844, 1.055999994277954, 0.0, 0.0, 0.0, 0.0, 0.0, 1.6216046457208073E9, 2021-05-21 15:44:05.720
32.0, -206.0292205810547, -435.4945068359375, 272.414306640625, 73.75830841064453, 0.01600000075995922, 0.03200000151991844, 1.055999994277954, 0.0, 0.0, 0.0, 0.0, 0.0, 1.621604645735076E9, 2021-05-21 15:44:05.735
32.0, -196.90011596679688, -419.8729553222656, 286.663330078125, 83.92335510253906, 0.01600000075995922, 0.03200000151991844, 1.055999994277954, 0.0, 0.0, 0.0, 0.0, 0.0, 1.621604645735076E9, 2021-05-21 15:44:05.735
33.0, -169.60260009765625, -379.85601806640625, 334.646240234375, 127.20147705078125, 0.01600000075995922, 0.03200000151991844, 1.055999994277954, 0.0, 0.0, 0.0, 0.0, 0.0, 1.6216046457358224E9, 2021-05-21 15:44:05.735
33.0, -172.1157989501953, -389.4787902832031, 325.1132507324219, 123.45783996582031, 0.01600000075995922, 0.03200000151991844, 1.055999994277954, 0.0, 0.0, 0.0, 0.0, 0.0, 1.6216046457358224E9, 2021-05-21 15:44:05.735
34.0, -204.6304931640625, -431.1038818359375, 271.146484375, 70.79630279541016, 0.01600000075995922, 0.03200000151991844, 1.055999994277954, 0.0, 0.0, 0.0, 0.0, 0.0, 1.6216046457664645E9, 2021-05-21 15:44:05.766
34.0, -199.0281219482422, -422.2066650390625, 283.1291198730469, 74.66336059570312, 0.01600000075995922, 0.03200000151991844, 1.055999994277954, 0.0, 0.0, 0.0, 0.0, 0.0, 1.6216046457664645E9, 2021-05-21 15:44:05.766
35.0, -159.6993408203125, -378.1020202636719, 335.1399230957031, 128.794677734375, 0.01600000075995922, 0.03200000151991844, 1.055999994277954, 0.0, 0.0, 0.0, 0.0, 0.0, 1.6216046457671642E9, 2021-05-21 15:44:05.767
35.0, -161.9058837890625, -386.5055847167969, 329.7170715332031, 121.05308532714844, 0.01600000075995922, 0.03200000151991844, 1.055999994277954, 0.0, 0.0, 0.0, 0.0, 0.0, 1.6216046457671642E9, 2021-05-21 15:44:05.767
36.0, -202.95127868652344, -431.4329833984375, 281.0721740722656, 69.58084106445312, 0.01600000075995922, 0.03200000151991844, 1.055999994277954, 0.0, 0.0, 0.0, 0.0, 0.0, 1.6216046457678835E9, 2021-05-21 15:44:05.767
36.0, -191.9185791015625, -416.802490234375, 292.1161193847656, 77.13543701171875, 0.01600000075995922, 0.03200000151991844, 1.055999994277954, 0.0, 0.0, 0.0, 0.0, 0.0, 1.6216046457678835E9, 2021-05-21 15:44:05.767
37.0, -164.2208709716797, -370.6783142089844, 348.7905578613281, 127.3286361694336, 0.01600000075995922, 0.03200000151991844, 1.055999994277954, 0.0, 0.0, 0.0, 0.0, 0.0, 1.6216046457792962E9, 2021-05-21 15:44:05.779
37.0, -168.14402770996094, -375.9253845214844, 339.2949523925781, 127.1117172241211, 0.01600000075995922, 0.03200000151991844, 1.055999994277954, 0.0, 0.0, 0.0, 0.0, 0.0, 1.6216046457792962E9, 2021-05-21 15:44:05.779
38.0, -197.70794677734375, -426.8478698730469, 288.2789611816406, 79.03904724121094, 0.01600000075995922, 0.03200000151991844, 1.055999994277954, 0.0, 0.0, 0.0, 0.0, 0.0, 1.6216046457954645E9, 2021-05-21 15:44:05.795
38.0, -189.89903259277344, -413.06634521484375, 301.78375244140625, 86.98258972167969, 0.01600000075995922, 0.03200000151991844, 1.055999994277954, 0.0, 0.0, 0.0, 0.0, 0.0, 1.6216046457954645E9, 2021-05-21 15:44:05.795
39.0, -157.11880493164062, -378.7078857421875, 344.2577819824219, 135.6237335205078, 0.01600000075995922, 0.03200000151991844, 1.055999994277954, 0.0, 0.0, 0.0, 0.0, 0.0, 1.621604645826475E9, 2021-05-21 15:44:05.826
39.0, -163.31582641601562, -390.50726318359375, 334.986572265625, 123.69718933105469, 0.01600000075995922, 0.03200000151991844, 1.055999994277954, 0.0, 0.0, 0.0, 0.0, 0.0, 1.621604645826475E9, 2021-05-21 15:44:05.826
40.0, -200.1912384033203, -431.5638732910156, 282.7214660644531, 76.04712677001953, 0.01600000075995922, 0.03200000151991844, 1.055999994277954, 0.0, 0.0, 0.0, 0.0, 0.0, 1.621604645827113E9, 2021-05-21 15:44:05.827
40.0, -197.62940979003906, -420.8565368652344, 279.6398010253906, 77.50942993164062, 0.01600000075995922, 0.03200000151991844, 1.055999994277954, 0.0, 0.0, 0.0, 0.0, 0.0, 1.621604645827113E9, 2021-05-21 15:44:05.827
41.0, -159.7778778076172, -381.5015869140625, 329.5412902832031, 124.79672241210938, 0.01600000075995922, 0.03200000151991844, 1.055999994277954, 0.0, 0.0, 0.0, 0.0, 0.0, 1.6216046458278408E9, 2021-05-21 15:44:05.827
41.0, -163.31956481933594, -388.7270812988281, 323.4228210449219, 121.44203186035156, 0.01600000075995922, 0.03200000151991844, 1.055999994277954, 0.0, 0.0, 0.0, 0.0, 0.0, 1.6216046458278408E9, 2021-05-21 15:44:05.827
42.0, -200.2548065185547, -436.23876953125, 274.1758117675781, 73.00284576416016, 0.03200000151991844, 0.03200000151991844, 1.055999994277954, 0.0, 0.0, 0.0, 0.0, 0.0, 1.6216046458286047E9, 2021-05-21 15:44:05.828
42.0, -188.31704711914062, -424.3795471191406, 287.5721130371094, 76.36875915527344, 0.03200000151991844, 0.03200000151991844, 1.055999994277954, 0.0, 0.0, 0.0, 0.0, 0.0, 1.6216046458286047E9, 2021-05-21 15:44:05.828
43.0, -162.78102111816406, -378.7041320800781, 331.4374084472656, 117.18228912353516, 0.03200000151991844, 0.03200000151991844, 1.055999994277954, 0.0, 0.0, 0.0, 0.0, 0.0, 1.6216046458394709E9, 2021-05-21 15:44:05.839
43.0, -170.84423828125, -385.0769348144531, 325.2852783203125, 109.58280944824219, 0.03200000151991844, 0.03200000151991844, 1.055999994277954, 0.0, 0.0, 0.0, 0.0, 0.0, 1.6216046458394709E9, 2021-05-21 15:44:05.839
44.0, -203.3589324951172, -433.16082763671875, 274.03369140625, 63.70919418334961, 0.03200000151991844, 0.03200000151991844, 1.055999994277954, 0.0, 0.0, 0.0, 0.0, 0.0, 1.6216046458551564E9, 2021-05-21 15:44:05.855
44.0, -193.2275390625, -425.3743591308594, 290.2424011230469, 77.20275115966797, 0.03200000151991844, 0.03200000151991844, 1.055999994277954, 0.0, 0.0, 0.0, 0.0, 0.0, 1.6216046458551564E9, 2021-05-21 15:44:05.855
45.0, -161.8946533203125, -378.9584655761719, 334.03289794921875, 117.6198501586914, 0.03200000151991844, 0.03200000151991844, 1.055999994277954, 0.0, 0.0, 0.0, 0.0, 0.0, 1.621604645855796E9, 2021-05-21 15:44:05.855
45.0, -165.49244689941406, -380.2337646484375, 326.1791076660156, 118.33043670654297, 0.03200000151991844, 0.03200000151991844, 1.055999994277954, 0.0, 0.0, 0.0, 0.0, 0.0, 1.621604645855796E9, 2021-05-21 15:44:05.855
46.0, -201.68719482421875, -425.34442138671875, 283.8658752441406, 72.39324188232422, 0.03200000151991844, 0.03200000151991844, 1.055999994277954, 0.0, 0.0, 0.0, 0.0, 0.0, 1.62160464588473E9, 2021-05-21 15:44:05.884
46.0, -191.35385131835938, -418.5265808105469, 292.2657165527344, 83.64286041259766, 0.03200000151991844, 0.03200000151991844, 1.055999994277954, 0.0, 0.0, 0.0, 0.0, 0.0, 1.62160464588473E9, 2021-05-21 15:44:05.884
47.0, -158.80923461914062, -375.1175842285156, 339.235107421875, 130.53372192382812, 0.03200000151991844, 0.03200000151991844, 1.055999994277954, 0.0, 0.0, 0.0, 0.0, 0.0, 1.6216046459015093E9, 2021-05-21 15:44:05.901
47.0, -167.88223266601562, -380.0804138183594, 337.20806884765625, 127.05561828613281, 0.03200000151991844, 0.03200000151991844, 1.055999994277954, 0.0, 0.0, 0.0, 0.0, 0.0, 1.6216046459015093E9, 2021-05-21 15:44:05.901
48.0, -204.92221069335938, -426.36541748046875, 281.10211181640625, 81.60087585449219, 0.03200000151991844, 0.03200000151991844, 1.055999994277954, 0.0, 0.0, 0.0, 0.0, 0.0, 1.6216046459021983E9, 2021-05-21 15:44:05.902
48.0, -194.72723388671875, -413.58245849609375, 289.8871154785156, 87.5211410522461, 0.03200000151991844, 0.03200000151991844, 1.055999994277954, 0.0, 0.0, 0.0, 0.0, 0.0, 1.6216046459021983E9, 2021-05-21 15:44:05.902
49.0, -164.92398071289062, -377.7093200683594, 333.7636413574219, 128.7498016357422, 0.03200000151991844, 0.03200000151991844, 1.055999994277954, 0.0, 0.0, 0.0, 0.0, 0.0, 1.6216046459029493E9, 2021-05-21 15:44:05.902
49.0, -172.21678161621094, -379.55682373046875, 326.007080078125, 122.81831359863281, 0.03200000151991844, 0.03200000151991844, 1.055999994277954, 0.0, 0.0, 0.0, 0.0, 0.0, 1.6216046459029493E9, 2021-05-21 15:44:05.902
50.0, -209.2118682861328, -423.2538146972656, 275.29779052734375, 73.64611053466797, 0.03200000151991844, 0.03200000151991844, 1.055999994277954, 0.0, 0.0, 0.0, 0.0, 0.0, 1.6216046459036849E9, 2021-05-21 15:44:05.903
50.0, -199.7125244140625, -417.6365051269531, 282.6391906738281, 80.87907409667969, 0.03200000151991844, 0.03200000151991844, 1.055999994277954, 0.0, 0.0, 0.0, 0.0, 0.0, 1.6216046459036849E9, 2021-05-21 15:44:05.903
51.0, -161.4795379638672, -373.24761962890625, 333.0904541015625, 122.72107696533203, 0.03200000151991844, 0.03200000151991844, 1.055999994277954, 0.0, 0.0, 0.0, 0.0, 0.0, 1.6216046459142923E9, 2021-05-21 15:44:05.914
51.0, -168.40956115722656, -378.502197265625, 329.9638977050781, 117.60863494873047, 0.03200000151991844, 0.03200000151991844, 1.055999994277954, 0.0, 0.0, 0.0, 0.0, 0.0, 1.6216046459142923E9, 2021-05-21 15:44:05.914
52.0, -202.4800567626953, -421.9598083496094, 279.6921691894531, 69.12831115722656, 0.03200000151991844, 0.03200000151991844, 1.055999994277954, 0.0, 0.0, 0.0, 0.0, 0.0, 1.6216046459457204E9, 2021-05-21 15:44:05.945
52.0, -197.00857543945312, -409.8575134277344, 290.7996520996094, 77.06437683105469, 0.03200000151991844, 0.03200000151991844, 1.055999994277954, 0.0, 0.0, 0.0, 0.0, 0.0, 1.6216046459457204E9, 2021-05-21 15:44:05.945
53.0, -160.09950256347656, -369.6161804199219, 334.7060852050781, 118.36783599853516, 0.03200000151991844, 0.03200000151991844, 1.055999994277954, 0.0, 0.0, 0.0, 0.0, 0.0, 1.621604645946427E9, 2021-05-21 15:44:05.946
53.0, -158.4352569580078, -374.3060302734375, 333.5055847167969, 117.03643035888672, 0.03200000151991844, 0.03200000151991844, 1.055999994277954, 0.0, 0.0, 0.0, 0.0, 0.0, 1.621604645946427E9, 2021-05-21 15:44:05.946
54.0, -199.34976196289062, -418.5079040527344, 282.3100891113281, 65.63524627685547, 0.03200000151991844, 0.03200000151991844, 1.055999994277954, 0.0, 0.0, 0.0, 0.0, 0.0, 1.6216046459471624E9, 2021-05-21 15:44:05.947
54.0, -193.47064208984375, -413.4552917480469, 292.8827819824219, 74.51750946044922, 0.03200000151991844, 0.03200000151991844, 1.055999994277954, 0.0, 0.0, 0.0, 0.0, 0.0, 1.6216046459471624E9, 2021-05-21 15:44:05.947
55.0, -159.66941833496094, -369.3768310546875, 338.02337646484375, 120.60429382324219, 0.03200000151991844, 0.03200000151991844, 1.055999994277954, 0.0, 0.0, 0.0, 0.0, 0.0, 1.621604645959426E9, 2021-05-21 15:44:05.959
55.0, -159.2318572998047, -370.3791198730469, 332.3200378417969, 115.95559692382812, 0.03200000151991844, 0.03200000151991844, 1.055999994277954, 0.0, 0.0, 0.0, 0.0, 0.0, 1.621604645959426E9, 2021-05-21 15:44:05.959
56.0, -200.2548065185547, -422.5956115722656, 282.4634094238281, 71.45826721191406, 0.03200000151991844, 0.03200000151991844, 1.055999994277954, 0.0, 0.0, 0.0, 0.0, 0.0, 1.6216046459750116E9, 2021-05-21 15:44:05.975
56.0, -192.57305908203125, -410.9196472167969, 292.602294921875, 76.19672393798828, 0.03200000151991844, 0.03200000151991844, 1.055999994277954, 0.0, 0.0, 0.0, 0.0, 0.0, 1.6216046459750116E9, 2021-05-21 15:44:05.975
57.0, -160.7577362060547, -369.6685485839844, 337.1744079589844, 123.27458190917969, 0.03200000151991844, 0.03200000151991844, 1.055999994277954, 0.0, 0.0, 0.0, 0.0, 0.0, 1.6216046459757707E9, 2021-05-21 15:44:05.975
57.0, -166.68173217773438, -378.8088684082031, 332.8286437988281, 120.53323364257812, 0.03200000151991844, 0.03200000151991844, 1.055999994277954, 0.0, 0.0, 0.0, 0.0, 0.0, 1.6216046459757707E9, 2021-05-21 15:44:05.975
58.0, -204.9296875, -420.2544250488281, 277.7848205566406, 70.19792175292969, 0.03200000151991844, 0.03200000151991844, 1.055999994277954, 0.0, 0.0, 0.0, 0.0, 0.0, 1.6216046460055487E9, 2021-05-21 15:44:06.005
58.0, -195.8155517578125, -413.8778991699219, 286.9999084472656, 78.29854583740234, 0.03200000151991844, 0.03200000151991844, 1.055999994277954, 0.0, 0.0, 0.0, 0.0, 0.0, 1.6216046460055487E9, 2021-05-21 15:44:06.005
59.0, -158.9401397705078, -372.211669921875, 339.8671569824219, 119.47110748291016, 0.03200000151991844, 0.03200000151991844, 1.055999994277954, 0.0, 0.0, 0.0, 0.0, 0.0, 1.621604646006246E9, 2021-05-21 15:44:06.006
59.0, -163.472900390625, -377.892578125, 333.20263671875, 116.26600646972656, 0.03200000151991844, 0.03200000151991844, 1.055999994277954, 0.0, 0.0, 0.0, 0.0, 0.0, 1.621604646006246E9, 2021-05-21 15:44:06.006
60.0, -194.52154541015625, -426.0625, 286.2033386230469, 65.42207336425781, 0.03200000151991844, 0.03200000151991844, 1.055999994277954, 0.0, 0.0, 0.0, 0.0, 0.0, 1.621604646020038E9, 2021-05-21 15:44:06.020
60.0, -184.2854461669922, -410.8448486328125, 293.1520690917969, 70.2240982055664, 0.03200000151991844, 0.03200000151991844, 1.055999994277954, 0.0, 0.0, 0.0, 0.0, 0.0, 1.621604646020038E9, 2021-05-21 15:44:06.020
61.0, -150.66748046875, -366.9870300292969, 339.5829162597656, 123.38304138183594, 0.03200000151991844, 0.03200000151991844, 1.055999994277954, 0.0, 0.0, 0.0, 0.0, 0.0, 1.6216046460207117E9, 2021-05-21 15:44:06.020
61.0, -161.96571350097656, -374.70245361328125, 330.14715576171875, 114.12678527832031, 0.03200000151991844, 0.03200000151991844, 1.055999994277954, 0.0, 0.0, 0.0, 0.0, 0.0, 1.6216046460207117E9, 2021-05-21 15:44:06.020
62.0, -199.63772583007812, -419.77197265625, 282.5569152832031, 66.59639739990234, 0.03200000151991844, 0.03200000151991844, 1.055999994277954, 0.0, 0.0, 0.0, 0.0, 0.0, 1.6216046460350664E9, 2021-05-21 15:44:06.035
62.0, -190.23936462402344, -413.81805419921875, 285.70965576171875, 73.75830841064453, 0.03200000151991844, 0.03200000151991844, 1.055999994277954, 0.0, 0.0, 0.0, 0.0, 0.0, 1.6216046460350664E9, 2021-05-21 15:44:06.035
63.0, -155.49569702148438, -366.42230224609375, 339.2313537597656, 120.8847885131836, 0.03200000151991844, 0.03200000151991844, 1.055999994277954, 0.0, 0.0, 0.0, 0.0, 0.0, 1.6216046460357327E9, 2021-05-21 15:44:06.035
63.0, -163.50282287597656, -371.43377685546875, 331.52716064453125, 112.4924545288086, 0.03200000151991844, 0.03200000151991844, 1.055999994277954, 0.0, 0.0, 0.0, 0.0, 0.0, 1.6216046460357327E9, 2021-05-21 15:44:06.035
64.0, -200.4792022705078, -418.7509765625, 275.3239440917969, 68.24943542480469, 0.03200000151991844, 0.03200000151991844, 1.055999994277954, 0.0, 0.0, 0.0, 0.0, 0.0, 1.6216046460493107E9, 2021-05-21 15:44:06.049
64.0, -192.86477661132812, -410.6204528808594, 290.98291015625, 76.47347259521484, 0.03200000151991844, 0.03200000151991844, 1.055999994277954, 0.0, 0.0, 0.0, 0.0, 0.0, 1.6216046460493107E9, 2021-05-21 15:44:06.049
65.0, -156.28106689453125, -368.54656982421875, 342.61224365234375, 125.14826965332031, 0.03200000151991844, 0.03200000151991844, 1.055999994277954, 0.0, 0.0, 0.0, 0.0, 0.0, 1.6216046460650737E9, 2021-05-21 15:44:06.065
65.0, -162.13027954101562, -367.89208984375, 333.4644470214844, 119.21678924560547, 0.03200000151991844, 0.03200000151991844, 1.055999994277954, 0.0, 0.0, 0.0, 0.0, 0.0, 1.6216046460650737E9, 2021-05-21 15:44:06.065
66.0, -204.90350341796875, -420.9163818359375, 279.44158935546875, 67.98016357421875, 0.03200000151991844, 0.03200000151991844, 1.055999994277954, 0.0, 0.0, 0.0, 0.0, 0.0, 1.6216046460658255E9, 2021-05-21 15:44:06.065
66.0, -195.16481018066406, -409.29278564453125, 292.2170715332031, 77.3037338256836, 0.03200000151991844, 0.03200000151991844, 1.055999994277954, 0.0, 0.0, 0.0, 0.0, 0.0, 1.6216046460658255E9, 2021-05-21 15:44:06.065
67.0, -160.26780700683594, -366.5494689941406, 335.01275634765625, 120.28266143798828, 0.03200000151991844, 0.03200000151991844, 1.055999994277954, 0.0, 0.0, 0.0, 0.0, 0.0, 1.6216046460793362E9, 2021-05-21 15:44:06.079
67.0, -161.31497192382812, -370.3230285644531, 333.55419921875, 121.08300018310547, 0.03200000151991844, 0.03200000151991844, 1.055999994277954, 0.0, 0.0, 0.0, 0.0, 0.0, 1.6216046460793362E9, 2021-05-21 15:44:06.079
68.0, -197.5134735107422, -423.8372497558594, 277.8072509765625, 65.21263885498047, 0.03200000151991844, 0.03200000151991844, 1.055999994277954, 0.0, 0.0, 0.0, 0.0, 0.0, 1.6216046460949986E9, 2021-05-21 15:44:06.094
68.0, -194.52902221679688, -411.3273010253906, 288.7352294921875, 73.58253479003906, 0.03200000151991844, 0.03200000151991844, 1.055999994277954, 0.0, 0.0, 0.0, 0.0, 0.0, 1.6216046460949986E9, 2021-05-21 15:44:06.094
69.0, -156.81961059570312, -366.6953125, 331.37384033203125, 122.96417236328125, 0.03200000151991844, 0.03200000151991844, 1.055999994277954, 0.0, 0.0, 0.0, 0.0, 0.0, 1.621604646095706E9, 2021-05-21 15:44:06.095
69.0, -158.00889587402344, -373.6066589355469, 330.95123291015625, 115.65640258789062, 0.03200000151991844, 0.03200000151991844, 1.055999994277954, 0.0, 0.0, 0.0, 0.0, 0.0, 1.621604646095706E9, 2021-05-21 15:44:06.095
70.0, -193.485595703125, -413.4403381347656, 282.9496154785156, 71.07679748535156, 0.03200000151991844, 0.03200000151991844, 1.055999994277954, 0.0, 0.0, 0.0, 0.0, 0.0, 1.6216046461093433E9, 2021-05-21 15:44:06.109
70.0, -189.0687713623047, -404.2962646484375, 296.3160095214844, 78.99042510986328, 0.03200000151991844, 0.03200000151991844, 1.055999994277954, 0.0, 0.0, 0.0, 0.0, 0.0, 1.6216046461093433E9, 2021-05-21 15:44:06.109
71.0, -158.379150390625, -363.8268127441406, 342.5823059082031, 121.65894317626953, 0.03200000151991844, 0.03200000151991844, 1.055999994277954, 0.0, 0.0, 0.0, 0.0, 0.0, 1.6216046461251247E9, 2021-05-21 15:44:06.125
71.0, -163.19615173339844, -363.6136474609375, 329.98260498046875, 115.27119445800781, 0.03200000151991844, 0.03200000151991844, 1.055999994277954, 0.0, 0.0, 0.0, 0.0, 0.0, 1.6216046461251247E9, 2021-05-21 15:44:06.125
72.0, -202.9363250732422, -416.637939453125, 281.0422668457031, 66.72355651855469, 0.03200000151991844, 0.03200000151991844, 1.055999994277954, 0.0, 0.0, 0.0, 0.0, 0.0, 1.6216046461256816E9, 2021-05-21 15:44:06.125
72.0, -191.4959716796875, -408.6869201660156, 289.8160705566406, 76.9222640991211, 0.03200000151991844, 0.03200000151991844, 1.055999994277954, 0.0, 0.0, 0.0, 0.0, 0.0, 1.6216046461256816E9, 2021-05-21 15:44:06.125
73.0, -165.21194458007812, -364.1372375488281, 333.4120788574219, 114.42971801757812, 0.03200000151991844, 0.03200000151991844, 1.055999994277954, 0.0, 0.0, 0.0, 0.0, 0.0, 1.6216046461393552E9, 2021-05-21 15:44:06.139
73.0, -164.153564453125, -363.45281982421875, 333.6327209472656, 121.11292266845703, 0.03200000151991844, 0.03200000151991844, 1.055999994277954, 0.0, 0.0, 0.0, 0.0, 0.0, 1.6216046461393552E9, 2021-05-21 15:44:06.139
74.0, -196.6757354736328, -415.6057434082031, 281.0684509277344, 71.85095977783203, 0.03200000151991844, 0.03200000151991844, 1.055999994277954, 0.0, 0.0, 0.0, 0.0, 0.0, 1.6216046461550007E9, 2021-05-21 15:44:06.155
74.0, -190.23936462402344, -410.3773498535156, 288.013427734375, 72.21746826171875, 0.03200000151991844, 0.03200000151991844, 1.055999994277954, 0.0, 0.0, 0.0, 0.0, 0.0, 1.6216046461550007E9, 2021-05-21 15:44:06.155
75.0, -157.52645874023438, -363.61737060546875, 334.0628356933594, 120.95958709716797, 0.03200000151991844, 0.03200000151991844, 1.055999994277954, 0.0, 0.0, 0.0, 0.0, 0.0, 1.621604646155725E9, 2021-05-21 15:44:06.155
75.0, -164.34803771972656, -366.50457763671875, 328.13507080078125, 118.85401916503906, 0.03200000151991844, 0.03200000151991844, 1.055999994277954, 0.0, 0.0, 0.0, 0.0, 0.0, 1.621604646155725E9, 2021-05-21 15:44:06.155
76.0, -198.41851806640625, -417.6065673828125, 283.6190490722656, 74.92889404296875, 0.03200000151991844, 0.03200000151991844, 1.055999994277954, 0.0, 0.0, 0.0, 0.0, 0.0, 1.6216046461692984E9, 2021-05-21 15:44:06.169
76.0, -193.51177978515625, -414.2257080078125, 287.497314453125, 75.1794662475586, 0.03200000151991844, 0.03200000151991844, 1.055999994277954, 0.0, 0.0, 0.0, 0.0, 0.0, 1.6216046461692984E9, 2021-05-21 15:44:06.169
77.0, -164.0974578857422, -370.5848083496094, 334.5976257324219, 121.75244140625, 0.03200000151991844, 0.03200000151991844, 1.055999994277954, 0.0, 0.0, 0.0, 0.0, 0.0, 1.621604646184994E9, 2021-05-21 15:44:06.184
77.0, -164.50137329101562, -372.4248352050781, 331.6805114746094, 119.50102233886719, 0.03200000151991844, 0.03200000151991844, 1.055999994277954, 0.0, 0.0, 0.0, 0.0, 0.0, 1.621604646184994E9, 2021-05-21 15:44:06.184
78.0, -198.30258178710938, -420.4713439941406, 283.2338562011719, 67.18356323242188, 0.03200000151991844, 0.03200000151991844, 1.055999994277954, 0.0, 0.0, 0.0, 0.0, 0.0, 1.6216046461857111E9, 2021-05-21 15:44:06.185
78.0, -189.4689483642578, -409.4423828125, 293.73175048828125, 76.58940887451172, 0.03200000151991844, 0.03200000151991844, 1.055999994277954, 0.0, 0.0, 0.0, 0.0, 0.0, 1.6216046461857111E9, 2021-05-21 15:44:06.185
79.0, -160.44357299804688, -362.3533020019531, 340.00177001953125, 124.53866577148438, 0.03200000151991844, 0.03200000151991844, 1.055999994277954, 0.0, 0.0, 0.0, 0.0, 0.0, 1.6216046461993597E9, 2021-05-21 15:44:06.199
79.0, -167.7064666748047, -367.11419677734375, 326.20904541015625, 114.71768951416016, 0.03200000151991844, 0.03200000151991844, 1.055999994277954, 0.0, 0.0, 0.0, 0.0, 0.0, 1.6216046461993597E9, 2021-05-21 15:44:06.199
80.0, -198.20535278320312, -408.6869201660156, 279.0975036621094, 68.39154815673828, 0.03200000151991844, 0.03200000151991844, 1.055999994277954, 0.0, 0.0, 0.0, 0.0, 0.0, 1.6216046462149944E9, 2021-05-21 15:44:06.214
80.0, -187.6438751220703, -408.7093505859375, 292.1759338378906, 79.21855926513672, 0.03200000151991844, 0.03200000151991844, 1.055999994277954, 0.0, 0.0, 0.0, 0.0, 0.0, 1.6216046462149944E9, 2021-05-21 15:44:06.214
81.0, -158.88778686523438, -366.28765869140625, 333.51678466796875, 120.28266143798828, 0.03200000151991844, 0.03200000151991844, 1.055999994277954, 0.0, 0.0, 0.0, 0.0, 0.0, 1.6216046462156978E9, 2021-05-21 15:44:06.215
81.0, -163.77957153320312, -362.73101806640625, 331.7328796386719, 119.87127685546875, 0.03200000151991844, 0.03200000151991844, 1.055999994277954, 0.0, 0.0, 0.0, 0.0, 0.0, 1.6216046462156978E9, 2021-05-21 15:44:06.215
82.0, -200.950439453125, -410.1567077636719, 277.2836608886719, 63.57830047607422, 0.03200000151991844, 0.03200000151991844, 1.055999994277954, 0.0, 0.0, 0.0, 0.0, 0.0, 1.6216046462293553E9, 2021-05-21 15:44:06.229
82.0, -196.3241729736328, -406.61126708984375, 281.55462646484375, 76.02842712402344, 0.03200000151991844, 0.03200000151991844, 1.055999994277954, 0.0, 0.0, 0.0, 0.0, 0.0, 1.6216046462293553E9, 2021-05-21 15:44:06.229
83.0, -157.26092529296875, -358.8789367675781, 339.4520263671875, 129.2584228515625, 0.03200000151991844, 0.03200000151991844, 1.055999994277954, 0.0, 0.0, 0.0, 0.0, 0.0, 1.6216046462450073E9, 2021-05-21 15:44:06.245
83.0, -156.98043823242188, -366.2539978027344, 335.59991455078125, 123.34938049316406, 0.03200000151991844, 0.03200000151991844, 1.055999994277954, 0.0, 0.0, 0.0, 0.0, 0.0, 1.6216046462450073E9, 2021-05-21 15:44:06.245
84.0, -194.18869018554688, -416.2340393066406, 284.0267028808594, 73.44041442871094, 0.03200000151991844, 0.03200000151991844, 1.055999994277954, 0.0, 0.0, 0.0, 0.0, 0.0, 1.621604646245772E9, 2021-05-21 15:44:06.245
84.0, -195.60986328125, -405.68377685546875, 285.313232421875, 76.57819366455078, 0.03200000151991844, 0.03200000151991844, 1.055999994277954, 0.0, 0.0, 0.0, 0.0, 0.0, 1.621604646245772E9, 2021-05-21 15:44:06.245
85.0, -162.8782501220703, -361.28369140625, 337.9186706542969, 126.80504608154297, 0.03200000151991844, 0.03200000151991844, 1.055999994277954, 0.0, 0.0, 0.0, 0.0, 0.0, 1.6216046462593868E9, 2021-05-21 15:44:06.259
85.0, -167.67654418945312, -357.74200439453125, 330.9437561035156, 123.24092102050781, 0.03200000151991844, 0.03200000151991844, 1.055999994277954, 0.0, 0.0, 0.0, 0.0, 0.0, 1.6216046462593868E9, 2021-05-21 15:44:06.259
86.0, -196.0287322998047, -408.152099609375, 279.78564453125, 72.38202667236328, 0.03200000151991844, 0.03200000151991844, 1.055999994277954, 0.0, 0.0, 0.0, 0.0, 0.0, 1.6216046462750523E9, 2021-05-21 15:44:06.275
86.0, -192.31874084472656, -400.84808349609375, 293.4774169921875, 78.85952758789062, 0.03200000151991844, 0.03200000151991844, 1.055999994277954, 0.0, 0.0, 0.0, 0.0, 0.0, 1.6216046462750523E9, 2021-05-21 15:44:06.275
87.0, -161.3112335205078, -358.89764404296875, 336.6658020019531, 115.6264877319336, 0.03200000151991844, 0.03200000151991844, 1.055999994277954, 0.0, 0.0, 0.0, 0.0, 0.0, 1.621604646275699E9, 2021-05-21 15:44:06.275
87.0, -165.77293395996094, -360.2963562011719, 330.3752746582031, 116.97285461425781, 0.03200000151991844, 0.03200000151991844, 1.055999994277954, 0.0, 0.0, 0.0, 0.0, 0.0, 1.621604646275699E9, 2021-05-21 15:44:06.275
88.0, -203.93113708496094, -413.1860046386719, 284.9093322753906, 69.06473541259766, 0.03200000151991844, 0.03200000151991844, 1.055999994277954, 0.0, 0.0, 0.0, 0.0, 0.0, 1.6216046462892935E9, 2021-05-21 15:44:06.289
88.0, -195.54254150390625, -402.84893798828125, 291.4765930175781, 74.30807495117188, 0.03200000151991844, 0.03200000151991844, 1.055999994277954, 0.0, 0.0, 0.0, 0.0, 0.0, 1.6216046462892935E9, 2021-05-21 15:44:06.289
89.0, -162.25369262695312, -356.3619689941406, 335.69342041015625, 120.649169921875, 0.03200000151991844, 0.03200000151991844, 1.055999994277954, 0.0, 0.0, 0.0, 0.0, 0.0, 1.6216046463050444E9, 2021-05-21 15:44:06.305
89.0, -164.24705505371094, -357.88037109375, 330.5398254394531, 113.17684936523438, 0.03200000151991844, 0.03200000151991844, 1.055999994277954, 0.0, 0.0, 0.0, 0.0, 0.0, 1.6216046463050444E9, 2021-05-21 15:44:06.305
90.0, -199.2450408935547, -408.0212097167969, 282.01837158203125, 68.94131469726562, 0.03200000151991844, 0.03200000151991844, 1.055999994277954, 0.0, 0.0, 0.0, 0.0, 0.0, 1.6216046463057792E9, 2021-05-21 15:44:06.305
90.0, -191.8325653076172, -398.7088623046875, 288.3948974609375, 73.80318450927734, 0.03200000151991844, 0.03200000151991844, 1.055999994277954, 0.0, 0.0, 0.0, 0.0, 0.0, 1.6216046463057792E9, 2021-05-21 15:44:06.305
91.0, -156.81961059570312, -360.8199462890625, 334.97161865234375, 120.03956604003906, 0.03200000151991844, 0.03200000151991844, 1.055999994277954, 0.0, 0.0, 0.0, 0.0, 0.0, 1.621604646319332E9, 2021-05-21 15:44:06.319
91.0, -163.68606567382812, -361.7549133300781, 331.15692138671875, 113.89491271972656, 0.03200000151991844, 0.03200000151991844, 1.055999994277954, 0.0, 0.0, 0.0, 0.0, 0.0, 1.621604646319332E9, 2021-05-21 15:44:06.319
92.0, -197.86502075195312, -409.3974914550781, 277.496826171875, 66.07281494140625, 0.03200000151991844, 0.03200000151991844, 1.055999994277954, 0.0, 0.0, 0.0, 0.0, 0.0, 1.621604646335083E9, 2021-05-21 15:44:06.335
92.0, -194.52154541015625, -404.7076721191406, 286.68951416015625, 74.31929016113281, 0.03200000151991844, 0.03200000151991844, 1.055999994277954, 0.0, 0.0, 0.0, 0.0, 0.0, 1.621604646335083E9, 2021-05-21 15:44:06.335
93.0, -151.2509002685547, -359.1893310546875, 334.56396484375, 127.42961120605469, 0.03200000151991844, 0.03200000151991844, 1.055999994277954, 0.0, 0.0, 0.0, 0.0, 0.0, 1.6216046463357801E9, 2021-05-21 15:44:06.335
93.0, -159.93121337890625, -366.70654296875, 326.44464111328125, 116.75593566894531, 0.03200000151991844, 0.03200000151991844, 1.055999994277954, 0.0, 0.0, 0.0, 0.0, 0.0, 1.6216046463357801E9, 2021-05-21 15:44:06.335
94.0, -200.32586669921875, -412.0191650390625, 276.75634765625, 68.82537841796875, 0.03200000151991844, 0.03200000151991844, 1.055999994277954, 0.0, 0.0, 0.0, 0.0, 0.0, 1.6216046463492837E9, 2021-05-21 15:44:06.349
94.0, -193.63519287109375, -404.4533386230469, 288.8885803222656, 73.96400451660156, 0.03200000151991844, 0.03200000151991844, 1.055999994277954, 0.0, 0.0, 0.0, 0.0, 0.0, 1.6216046463492837E9, 2021-05-21 15:44:06.349
95.0, -153.26670837402344, -361.3472595214844, 335.59991455078125, 122.11894989013672, 0.03200000151991844, 0.03200000151991844, 1.055999994277954, 0.0, 0.0, 0.0, 0.0, 0.0, 1.621604646365239E9, 2021-05-21 15:44:06.365
95.0, -162.55288696289062, -365.5696105957031, 331.100830078125, 119.72915649414062, 0.03200000151991844, 0.03200000151991844, 1.055999994277954, 0.0, 0.0, 0.0, 0.0, 0.0, 1.621604646365239E9, 2021-05-21 15:44:06.365
96.0, -200.01171875, -413.81805419921875, 280.4438781738281, 64.88726043701172, 0.03200000151991844, 0.03200000151991844, 1.055999994277954, 0.0, 0.0, 0.0, 0.0, 0.0, 1.621604646365868E9, 2021-05-21 15:44:06.365
96.0, -189.5736541748047, -403.65673828125, 288.73150634765625, 69.03107452392578, 0.03200000151991844, 0.03200000151991844, 1.055999994277954, 0.0, 0.0, 0.0, 0.0, 0.0, 1.621604646365868E9, 2021-05-21 15:44:06.365
97.0, -158.3828887939453, -360.7339172363281, 332.46588134765625, 113.52091979980469, 0.03200000151991844, 0.03200000151991844, 1.055999994277954, 0.0, 0.0, 0.0, 0.0, 0.0, 1.6216046463792927E9, 2021-05-21 15:44:06.379
97.0, -159.67689514160156, -365.1769104003906, 330.9848937988281, 113.02351379394531, 0.03200000151991844, 0.03200000151991844, 1.055999994277954, 0.0, 0.0, 0.0, 0.0, 0.0, 1.6216046463792927E9, 2021-05-21 15:44:06.379
98.0, -200.00050354003906, -413.6048889160156, 273.6596984863281, 61.92900466918945, 0.03200000151991844, 0.03200000151991844, 1.055999994277954, 0.0, 0.0, 0.0, 0.0, 0.0, 1.621604646395032E9, 2021-05-21 15:44:06.395
98.0, -195.50140380859375, -405.3621520996094, 285.2795715332031, 70.66915130615234, 0.03200000151991844, 0.03200000151991844, 1.055999994277954, 0.0, 0.0, 0.0, 0.0, 0.0, 1.621604646395032E9, 2021-05-21 15:44:06.395
99.0, -158.050048828125, -358.75177001953125, 327.521728515625, 113.71540069580078, 0.03200000151991844, 0.03200000151991844, 1.055999994277954, 0.0, 0.0, 0.0, 0.0, 0.0, 1.6216046463958008E9, 2021-05-21 15:44:06.395
99.0, -157.95654296875, -361.2126159667969, 330.76422119140625, 114.08938598632812, 0.03200000151991844, 0.03200000151991844, 1.055999994277954, 0.0, 0.0, 0.0, 0.0, 0.0, 1.6216046463958008E9, 2021-05-21 15:44:06.395
100.0, -199.15902709960938, -410.90093994140625, 276.63665771484375, 67.75576782226562, 0.03200000151991844, 0.03200000151991844, 1.055999994277954, 0.0, 0.0, 0.0, 0.0, 0.0, 1.6216046464104357E9, 2021-05-21 15:44:06.410
100.0, -196.87020874023438, -405.4294738769531, 283.2787170410156, 67.9726791381836, 0.03200000151991844, 0.03200000151991844, 1.055999994277954, 0.0, 0.0, 0.0, 0.0, 0.0, 1.6216046464104357E9, 2021-05-21 15:44:06.410
0.0, -161.0457000732422, -365.71173095703125, 329.9320983886719, 114.75135040283203, 0.03200000151991844, 0.03200000151991844, 1.055999994277954, 0.0, 0.0, 0.0, 0.0, 0.0, 1.6216046464250257E9, 2021-05-21 15:44:06.425
1.0, -164.4564971923828, -368.9617004394531, 329.0307922363281, 115.63770294189453, 0.03200000151991844, 0.03200000151991844, 1.055999994277954, 0.0, 0.0, 0.0, 0.0, 0.0, 1.6216046464257495E9, 2021-05-21 15:44:06.425
1.0, -202.4276885986328, -414.771728515625, 273.8336181640625, 64.79376983642578, 0.03200000151991844, 0.03200000151991844, 1.055999994277954, 0.0, 0.0, 0.0, 0.0, 0.0, 1.6216046464257495E9, 2021-05-21 15:44:06.425
2.0, -193.72494506835938, -405.4930419921875, 283.62841796875, 73.39927673339844, 0.03200000151991844, 0.03200000151991844, 1.055999994277954, 0.0, 0.0, 0.0, 0.0, 0.0, 1.6216046464400733E9, 2021-05-21 15:44:06.440
2.0, -161.9881591796875, -361.18646240234375, 333.9487609863281, 116.50536346435547, 0.03200000151991844, 0.03200000151991844, 1.055999994277954, 0.0, 0.0, 0.0, 0.0, 0.0, 1.6216046464400733E9, 2021-05-21 15:44:06.440
3.0, -163.74591064453125, -363.5949401855469, 329.2925720214844, 115.30859375, 0.03200000151991844, 0.03200000151991844, 1.055999994277954, 0.0, 0.0, 0.0, 0.0, 0.0, 1.621604646440745E9, 2021-05-21 15:44:06.440
3.0, -202.5062255859375, -410.0108337402344, 276.2869873046875, 66.16256713867188, 0.03200000151991844, 0.03200000151991844, 1.055999994277954, 0.0, 0.0, 0.0, 0.0, 0.0, 1.621604646440745E9, 2021-05-21 15:44:06.440
4.0, -199.1627655029297, -400.01409912109375, 284.275390625, 69.30408477783203, 0.03200000151991844, 0.03200000151991844, 1.055999994277954, 0.0, 0.0, 0.0, 0.0, 0.0, 1.6216046464544787E9, 2021-05-21 15:44:06.454
4.0, -163.7234649658203, -353.0858154296875, 333.8963928222656, 117.40293884277344, 0.03200000151991844, 0.03200000151991844, 1.055999994277954, 0.0, 0.0, 0.0, 0.0, 0.0, 1.6216046464544787E9, 2021-05-21 15:44:06.454
5.0, -161.41595458984375, -355.931884765625, 336.7349853515625, 119.28784942626953, 0.03200000151991844, 0.03200000151991844, 1.055999994277954, 0.0, 0.0, 0.0, 0.0, 0.0, 1.6216046464704692E9, 2021-05-21 15:44:06.470
5.0, -193.2686767578125, -403.76519775390625, 288.49774169921875, 68.20829772949219, 0.03200000151991844, 0.03200000151991844, 1.055999994277954, 0.0, 0.0, 0.0, 0.0, 0.0, 1.6216046464704692E9, 2021-05-21 15:44:06.470
6.0, -187.6812744140625, -394.2957763671875, 299.3023376464844, 78.00308990478516, 0.03200000151991844, 0.03200000151991844, 1.055999994277954, 0.0, 0.0, 0.0, 0.0, 0.0, 1.6216046464850707E9, 2021-05-21 15:44:06.485
6.0, -146.66578674316406, -360.0495300292969, 338.993896484375, 116.86065673828125, 0.03200000151991844, 0.03200000151991844, 1.055999994277954, 0.0, 0.0, 0.0, 0.0, 0.0, 1.6216046464850707E9, 2021-05-21 15:44:06.485
7.0, -154.81503295898438, -364.4139709472656, 336.4656982421875, 111.5537338256836, 0.03200000151991844, 0.03200000151991844, 1.055999994277954, 0.0, 0.0, 0.0, 0.0, 0.0, 1.6216046464857364E9, 2021-05-21 15:44:06.485
7.0, -194.26722717285156, -416.0470275878906, 278.97222900390625, 63.45488357543945, 0.03200000151991844, 0.03200000151991844, 1.055999994277954, 0.0, 0.0, 0.0, 0.0, 0.0, 1.6216046464857364E9, 2021-05-21 15:44:06.485
8.0, -192.19532775878906, -412.6512145996094, 288.628662109375, 66.90306854248047, 0.03200000151991844, 0.03200000151991844, 1.055999994277954, 0.0, 0.0, 0.0, 0.0, 0.0, 1.6216046465001123E9, 2021-05-21 15:44:06.500
8.0, -159.9199981689453, -359.89617919921875, 342.9394836425781, 117.33936309814453, 0.03200000151991844, 0.03200000151991844, 1.055999994277954, 0.0, 0.0, 0.0, 0.0, 0.0, 1.6216046465001123E9, 2021-05-21 15:44:06.500
9.0, -166.84628295898438, -365.1619567871094, 332.796875, 115.64144897460938, 0.03200000151991844, 0.03200000151991844, 1.055999994277954, 0.0, 0.0, 0.0, 0.0, 0.0, 1.6216046465008006E9, 2021-05-21 15:44:06.500
9.0, -206.86322021484375, -409.876220703125, 278.71044921875, 60.399383544921875, 0.03200000151991844, 0.03200000151991844, 1.055999994277954, 0.0, 0.0, 0.0, 0.0, 0.0, 1.6216046465008006E9, 2021-05-21 15:44:06.500
10.0, -202.37159729003906, -404.32244873046875, 279.9146728515625, 66.50289916992188, 0.03200000151991844, 0.03200000151991844, 1.055999994277954, 0.0, 0.0, 0.0, 0.0, 0.0, 1.621604646531488E9, 2021-05-21 15:44:06.531
10.0, -168.5591583251953, -357.36053466796875, 330.332275390625, 114.040771484375, 0.03200000151991844, 0.03200000151991844, 1.055999994277954, 0.0, 0.0, 0.0, 0.0, 0.0, 1.621604646531488E9, 2021-05-21 15:44:06.531
11.0, -172.22052001953125, -363.1723327636719, 329.8460998535156, 115.15525817871094, 0.03200000151991844, 0.03200000151991844, 1.055999994277954, 0.0, 0.0, 0.0, 0.0, 0.0, 1.6216046465320976E9, 2021-05-21 15:44:06.532
11.0, -209.35025024414062, -412.5465087890625, 277.5435791015625, 67.25462341308594, 0.03200000151991844, 0.03200000151991844, 1.055999994277954, 0.0, 0.0, 0.0, 0.0, 0.0, 1.6216046465320976E9, 2021-05-21 15:44:06.532
12.0, -196.84402465820312, -403.0509033203125, 287.1962585449219, 73.90042114257812, 0.03200000151991844, 0.03200000151991844, 1.055999994277954, 0.0, 0.0, 0.0, 0.0, 0.0, 1.6216046465328298E9, 2021-05-21 15:44:06.532
12.0, -160.6642303466797, -359.47357177734375, 338.1748352050781, 120.27518463134766, 0.03200000151991844, 0.03200000151991844, 1.055999994277954, 0.0, 0.0, 0.0, 0.0, 0.0, 1.6216046465328298E9, 2021-05-21 15:44:06.532
13.0, -164.34429931640625, -360.2327880859375, 337.2997131347656, 119.98721313476562, 0.03200000151991844, 0.03200000151991844, 1.055999994277954, 0.0, 0.0, 0.0, 0.0, 0.0, 1.621604646544418E9, 2021-05-21 15:44:06.544
13.0, -203.84136962890625, -407.3816833496094, 282.3979797363281, 60.92671203613281, 0.03200000151991844, 0.03200000151991844, 1.055999994277954, 0.0, 0.0, 0.0, 0.0, 0.0, 1.621604646544418E9, 2021-05-21 15:44:06.544
14.0, -192.8086700439453, -396.4237976074219, 294.4142761230469, 81.09599304199219, 0.03200000151991844, 0.03200000151991844, 1.055999994277954, 0.0, 0.0, 0.0, 0.0, 0.0, 1.6216046465602124E9, 2021-05-21 15:44:06.560
14.0, -161.5917205810547, -355.74114990234375, 347.0758056640625, 128.21499633789062, 0.03200000151991844, 0.03200000151991844, 1.055999994277954, 0.0, 0.0, 0.0, 0.0, 0.0, 1.6216046465602124E9, 2021-05-21 15:44:06.560
15.0, -167.5306854248047, -358.4151916503906, 339.4800720214844, 124.65460205078125, 0.03200000151991844, 0.03200000151991844, 1.055999994277954, 0.0, 0.0, 0.0, 0.0, 0.0, 1.6216046465607812E9, 2021-05-21 15:44:06.560
15.0, -199.6751251220703, -408.30169677734375, 284.87005615234375, 71.2413558959961, 0.03200000151991844, 0.03200000151991844, 1.055999994277954, 0.0, 0.0, 0.0, 0.0, 0.0, 1.6216046465607812E9, 2021-05-21 15:44:06.560
16.0, -187.9654998779297, -403.245361328125, 291.6654357910156, 76.25282287597656, 0.03200000151991844, 0.03200000151991844, 1.055999994277954, 0.0, 0.0, 0.0, 0.0, 0.0, 1.6216046465907176E9, 2021-05-21 15:44:06.590
16.0, -157.72093200683594, -362.2523193359375, 336.1702575683594, 120.71275329589844, 0.03200000151991844, 0.03200000151991844, 1.055999994277954, 0.0, 0.0, 0.0, 0.0, 0.0, 1.6216046465907176E9, 2021-05-21 15:44:06.590
17.0, -161.4795379638672, -364.6832580566406, 333.6009521484375, 115.9294204711914, 0.03200000151991844, 0.03200000151991844, 1.055999994277954, 0.0, 0.0, 0.0, 0.0, 0.0, 1.621604646591502E9, 2021-05-21 15:44:06.591
17.0, -197.1731414794922, -411.4806213378906, 283.3778381347656, 70.47467803955078, 0.03200000151991844, 0.03200000151991844, 1.055999994277954, 0.0, 0.0, 0.0, 0.0, 0.0, 1.621604646591502E9, 2021-05-21 15:44:06.591
18.0, -195.8940887451172, -404.7188720703125, 287.443115234375, 70.75516510009766, 0.03200000151991844, 0.03200000151991844, 1.055999994277954, 0.0, 0.0, 0.0, 0.0, 0.0, 1.621604646592268E9, 2021-05-21 15:44:06.592
18.0, -166.93978881835938, -355.94683837890625, 336.77984619140625, 120.03582763671875, 0.03200000151991844, 0.03200000151991844, 1.055999994277954, 0.0, 0.0, 0.0, 0.0, 0.0, 1.621604646592268E9, 2021-05-21 15:44:06.592
19.0, -162.205078125, -360.24774169921875, 337.4343566894531, 118.3416519165039, 0.03200000151991844, 0.03200000151991844, 1.055999994277954, 0.0, 0.0, 0.0, 0.0, 0.0, 1.6216046466043355E9, 2021-05-21 15:44:06.604
19.0, -201.42539978027344, -412.8045349121094, 284.04351806640625, 70.1829605102539, 0.03200000151991844, 0.03200000151991844, 1.055999994277954, 0.0, 0.0, 0.0, 0.0, 0.0, 1.6216046466043355E9, 2021-05-21 15:44:06.604
20.0, -192.87973022460938, -408.23065185546875, 288.05645751953125, 72.67373657226562, 0.03200000151991844, 0.03200000151991844, 1.055999994277954, 0.0, 0.0, 0.0, 0.0, 0.0, 1.6216046466200337E9, 2021-05-21 15:44:06.620
20.0, -164.08250427246094, -363.3331604003906, 333.24566650390625, 118.47254943847656, 0.03200000151991844, 0.03200000151991844, 1.055999994277954, 0.0, 0.0, 0.0, 0.0, 0.0, 1.6216046466200337E9, 2021-05-21 15:44:06.620
21.0, -163.74964904785156, -363.11248779296875, 335.4484558105469, 120.67161560058594, 0.03200000151991844, 0.03200000151991844, 1.055999994277954, 0.0, 0.0, 0.0, 0.0, 0.0, 1.621604646620761E9, 2021-05-21 15:44:06.620
21.0, -197.6443634033203, -409.5059509277344, 285.0832214355469, 71.61160278320312, 0.03200000151991844, 0.03200000151991844, 1.055999994277954, 0.0, 0.0, 0.0, 0.0, 0.0, 1.621604646620761E9, 2021-05-21 15:44:06.620
22.0, -190.0373992919922, -402.8190002441406, 295.8466491699219, 76.8848648071289, 0.03200000151991844, 0.03200000151991844, 1.055999994277954, 0.0, 0.0, 0.0, 0.0, 0.0, 1.6216046466507027E9, 2021-05-21 15:44:06.650
22.0, -170.1374053955078, -358.2655944824219, 332.96142578125, 119.56834411621094, 0.03200000151991844, 0.03200000151991844, 1.055999994277954, 0.0, 0.0, 0.0, 0.0, 0.0, 1.6216046466507027E9, 2021-05-21 15:44:06.650
23.0, -170.73204040527344, -353.34014892578125, 336.31610107421875, 124.97623443603516, 0.03200000151991844, 0.03200000151991844, 1.055999994277954, 0.0, 0.0, 0.0, 0.0, 0.0, 1.621604646651413E9, 2021-05-21 15:44:06.651
23.0, -202.31924438476562, -404.35986328125, 288.1536865234375, 77.89463806152344, 0.03200000151991844, 0.03200000151991844, 1.055999994277954, 0.0, 0.0, 0.0, 0.0, 0.0, 1.621604646651413E9, 2021-05-21 15:44:06.651
24.0, -198.6466522216797, -399.22869873046875, 290.3976135253906, 77.49446868896484, 0.03200000151991844, 0.03200000151991844, 1.055999994277954, 0.0, 0.0, 0.0, 0.0, 0.0, 1.6216046466523135E9, 2021-05-21 15:44:06.652
24.0, -164.224609375, -364.02130126953125, 339.1696472167969, 119.96102905273438, 0.03200000151991844, 0.03200000151991844, 1.055999994277954, 0.0, 0.0, 0.0, 0.0, 0.0, 1.6216046466523135E9, 2021-05-21 15:44:06.652
25.0, -166.54708862304688, -355.32977294921875, 334.8912048339844, 122.0291976928711, 0.03200000151991844, 0.03200000151991844, 1.055999994277954, 0.0, 0.0, 0.0, 0.0, 0.0, 1.6216046466643736E9, 2021-05-21 15:44:06.664
25.0, -198.51576232910156, -417.09796142578125, 278.0559387207031, 68.5748062133789, 0.03200000151991844, 0.03200000151991844, 1.055999994277954, 0.0, 0.0, 0.0, 0.0, 0.0, 1.6216046466643736E9, 2021-05-21 15:44:06.664
26.0, -193.50428771972656, -407.4078674316406, 278.5271911621094, 72.1090087890625, 0.03200000151991844, 0.03200000151991844, 1.055999994277954, 0.0, 0.0, 0.0, 0.0, 0.0, 1.6216046466799977E9, 2021-05-21 15:44:06.679
26.0, -153.4200439453125, -365.098388671875, 325.3282775878906, 112.52984619140625, 0.03200000151991844, 0.03200000151991844, 1.055999994277954, 0.0, 0.0, 0.0, 0.0, 0.0, 1.6216046466799977E9, 2021-05-21 15:44:06.679
27.0, -162.3135223388672, -370.0649719238281, 323.3386535644531, 114.5045166015625, 0.03200000151991844, 0.03200000151991844, 1.055999994277954, 0.0, 0.0, 0.0, 0.0, 0.0, 1.621604646680806E9, 2021-05-21 15:44:06.680
27.0, -194.02040100097656, -418.3769836425781, 272.17681884765625, 61.3979377746582, 0.03200000151991844, 0.03200000151991844, 1.055999994277954, 0.0, 0.0, 0.0, 0.0, 0.0, 1.621604646680806E9, 2021-05-21 15:44:06.680
28.0, -189.5325164794922, -409.595703125, 275.37445068359375, 68.92261505126953, 0.03200000151991844, 0.03200000151991844, 1.055999994277954, 0.0, 0.0, 0.0, 0.0, 0.0, 1.621604646694697E9, 2021-05-21 15:44:06.694
28.0, -158.554931640625, -367.9706115722656, 325.68731689453125, 117.01773071289062, 0.03200000151991844, 0.03200000151991844, 1.055999994277954, 0.0, 0.0, 0.0, 0.0, 0.0, 1.621604646694697E9, 2021-05-21 15:44:06.694
29.0, -163.2559814453125, -364.9300842285156, 322.5083923339844, 116.56146240234375, 0.03200000151991844, 0.03200000151991844, 1.055999994277954, 0.0, 0.0, 0.0, 0.0, 0.0, 1.6216046467101E9, 2021-05-21 15:44:06.710
29.0, -205.2288818359375, -413.410400390625, 271.5522766113281, 65.67264556884766, 0.03200000151991844, 0.03200000151991844, 1.055999994277954, 0.0, 0.0, 0.0, 0.0, 0.0, 1.6216046467101E9, 2021-05-21 15:44:06.710
30.0, -198.99819946289062, -401.4128112792969, 281.4742126464844, 79.94409942626953, 0.03200000151991844, 0.03200000151991844, 1.055999994277954, 0.0, 0.0, 0.0, 0.0, 0.0, 1.6216046467109373E9, 2021-05-21 15:44:06.710
30.0, -163.0465545654297, -356.8219909667969, 331.37945556640625, 125.30908966064453, 0.03200000151991844, 0.03200000151991844, 1.055999994277954, 0.0, 0.0, 0.0, 0.0, 0.0, 1.6216046467109373E9, 2021-05-21 15:44:06.710
31.0, -168.16273498535156, -362.89556884765625, 331.70855712890625, 122.10025024414062, 0.03200000151991844, 0.03200000151991844, 1.055999994277954, 0.0, 0.0, 0.0, 0.0, 0.0, 1.6216046467244017E9, 2021-05-21 15:44:06.724
31.0, -204.20040893554688, -406.14752197265625, 280.93194580078125, 71.67892456054688, 0.03200000151991844, 0.03200000151991844, 1.055999994277954, 0.0, 0.0, 0.0, 0.0, 0.0, 1.6216046467244017E9, 2021-05-21 15:44:06.724
32.0, -201.1112518310547, -397.46722412109375, 280.812255859375, 78.1526870727539, 0.03200000151991844, 0.03200000151991844, 1.055999994277954, 0.0, 0.0, 0.0, 0.0, 0.0, 1.6216046467400825E9, 2021-05-21 15:44:06.740
32.0, -169.72601318359375, -355.9356384277344, 332.9801330566406, 121.48690795898438, 0.03200000151991844, 0.03200000151991844, 1.055999994277954, 0.0, 0.0, 0.0, 0.0, 0.0, 1.6216046467400825E9, 2021-05-21 15:44:06.740
33.0, -179.74520874023438, -357.6522521972656, 332.82305908203125, 124.24321746826172, 0.03200000151991844, 0.03200000151991844, 1.055999994277954, 0.0, 0.0, 0.0, 0.0, 0.0, 1.621604646740786E9, 2021-05-21 15:44:06.740
33.0, -210.47970581054688, -409.9173583984375, 275.6549377441406, 75.76663208007812, 0.03200000151991844, 0.03200000151991844, 1.055999994277954, 0.0, 0.0, 0.0, 0.0, 0.0, 1.621604646740786E9, 2021-05-21 15:44:06.740
34.0, -202.9849395751953, -403.9858703613281, 284.5895690917969, 77.56178283691406, 0.03200000151991844, 0.03200000151991844, 1.055999994277954, 0.0, 0.0, 0.0, 0.0, 0.0, 1.6216046467704186E9, 2021-05-21 15:44:06.770
34.0, -163.0016632080078, -368.03045654296875, 329.0307922363281, 117.53009796142578, 0.03200000151991844, 0.03200000151991844, 1.055999994277954, 0.0, 0.0, 0.0, 0.0, 0.0, 1.6216046467704186E9, 2021-05-21 15:44:06.770
35.0, -162.38458251953125, -364.7356262207031, 328.3538513183594, 120.39112091064453, 0.03200000151991844, 0.03200000151991844, 1.055999994277954, 0.0, 0.0, 0.0, 0.0, 0.0, 1.621604646771345E9, 2021-05-21 15:44:06.771
35.0, -204.73895263671875, -416.2340393066406, 274.9256591796875, 65.07051849365234, 0.03200000151991844, 0.03200000151991844, 1.055999994277954, 0.0, 0.0, 0.0, 0.0, 0.0, 1.621604646771345E9, 2021-05-21 15:44:06.771
36.0, -192.24020385742188, -405.33221435546875, 282.667236328125, 71.2824935913086, 0.03200000151991844, 0.03200000151991844, 1.055999994277954, 0.0, 0.0, 0.0, 0.0, 0.0, 1.6216046467850204E9, 2021-05-21 15:44:06.785
36.0, -158.97006225585938, -366.437255859375, 336.3609924316406, 117.33936309814453, 0.03200000151991844, 0.03200000151991844, 1.055999994277954, 0.0, 0.0, 0.0, 0.0, 0.0, 1.6216046467850204E9, 2021-05-21 15:44:06.785
37.0, -162.5379180908203, -365.8313903808594, 331.80206298828125, 120.15176391601562, 0.03200000151991844, 0.03200000151991844, 1.055999994277954, 0.0, 0.0, 0.0, 0.0, 0.0, 1.6216046467857013E9, 2021-05-21 15:44:06.785
37.0, -203.37388610839844, -411.6152648925781, 280.8346862792969, 72.25112915039062, 0.03200000151991844, 0.03200000151991844, 1.055999994277954, 0.0, 0.0, 0.0, 0.0, 0.0, 1.6216046467857013E9, 2021-05-21 15:44:06.785
38.0, -189.17349243164062, -404.2027893066406, 284.391357421875, 77.58796691894531, 0.03200000151991844, 0.03200000151991844, 1.055999994277954, 0.0, 0.0, 0.0, 0.0, 0.0, 1.621604646800007E9, 2021-05-21 15:44:06.800
38.0, -159.2281036376953, -367.63031005859375, 333.60467529296875, 121.10169982910156, 0.03200000151991844, 0.03200000151991844, 1.055999994277954, 0.0, 0.0, 0.0, 0.0, 0.0, 1.621604646800007E9, 2021-05-21 15:44:06.800
39.0, -165.0773162841797, -362.9255065917969, 334.58453369140625, 124.2394790649414, 0.03200000151991844, 0.03200000151991844, 1.055999994277954, 0.0, 0.0, 0.0, 0.0, 0.0, 1.6216046468007772E9, 2021-05-21 15:44:06.800
39.0, -203.84886169433594, -407.8042907714844, 287.6600036621094, 73.87798309326172, 0.03200000151991844, 0.03200000151991844, 1.055999994277954, 0.0, 0.0, 0.0, 0.0, 0.0, 1.6216046468007772E9, 2021-05-21 15:44:06.800
40.0, -197.68923950195312, -398.2039794921875, 290.6893310546875, 85.22109985351562, 0.03200000151991844, 0.03200000151991844, 1.055999994277954, 0.0, 0.0, 0.0, 0.0, 0.0, 1.6216046468144596E9, 2021-05-21 15:44:06.814
40.0, -167.2913360595703, -362.5477600097656, 337.7335205078125, 127.89335632324219, 0.03200000151991844, 0.03200000151991844, 1.055999994277954, 0.0, 0.0, 0.0, 0.0, 0.0, 1.6216046468144596E9, 2021-05-21 15:44:06.814
41.0, -171.09481811523438, -360.7974853515625, 334.8912048339844, 128.78346252441406, 0.03200000151991844, 0.03200000151991844, 1.055999994277954, 0.0, 0.0, 0.0, 0.0, 0.0, 1.621604646830018E9, 2021-05-21 15:44:06.830
41.0, -206.5902099609375, -410.63916015625, 283.33294677734375, 78.08163452148438, 0.03200000151991844, 0.03200000151991844, 1.055999994277954, 0.0, 0.0, 0.0, 0.0, 0.0, 1.621604646830018E9, 2021-05-21 15:44:06.830
42.0, -198.5830841064453, -407.4527587890625, 288.2808532714844, 82.7490234375, 0.03200000151991844, 0.03200000151991844, 1.055999994277954, 0.0, 0.0, 0.0, 0.0, 0.0, 1.6216046468307061E9, 2021-05-21 15:44:06.830
42.0, -164.25079345703125, -363.50518798828125, 334.1507263183594, 124.89769744873047, 0.03200000151991844, 0.03200000151991844, 1.055999994277954, 0.0, 0.0, 0.0, 0.0, 0.0, 1.6216046468307061E9, 2021-05-21 15:44:06.830
43.0, -158.554931640625, -360.0495300292969, 338.2122497558594, 125.69429779052734, 0.03200000151991844, 0.03200000151991844, 1.055999994277954, 0.0, 0.0, 0.0, 0.0, 0.0, 1.6216046468443923E9, 2021-05-21 15:44:06.844
43.0, -199.95187377929688, -414.9961242675781, 279.55938720703125, 68.85530090332031, 0.03200000151991844, 0.03200000151991844, 1.055999994277954, 0.0, 0.0, 0.0, 0.0, 0.0, 1.6216046468443923E9, 2021-05-21 15:44:06.844
44.0, -192.06443786621094, -409.0982971191406, 289.2270202636719, 70.07450866699219, 0.03200000151991844, 0.03200000151991844, 1.055999994277954, 0.0, 0.0, 0.0, 0.0, 0.0, 1.6216046468600438E9, 2021-05-21 15:44:06.860
44.0, -154.306396484375, -359.30902099609375, 333.1259765625, 119.67305755615234, 0.03200000151991844, 0.03200000151991844, 1.055999994277954, 0.0, 0.0, 0.0, 0.0, 0.0, 1.6216046468600438E9, 2021-05-21 15:44:06.860
45.0, -156.65505981445312, -365.7266845703125, 336.4956359863281, 123.12124633789062, 0.03200000151991844, 0.03200000151991844, 1.055999994277954, 0.0, 0.0, 0.0, 0.0, 0.0, 1.6216046468608224E9, 2021-05-21 15:44:06.860
45.0, -195.2134246826172, -416.4920959472656, 281.481689453125, 68.5299301147461, 0.03200000151991844, 0.03200000151991844, 1.055999994277954, 0.0, 0.0, 0.0, 0.0, 0.0, 1.6216046468608224E9, 2021-05-21 15:44:06.860
46.0, -193.12655639648438, -409.33392333984375, 288.4341735839844, 75.7404556274414, 0.03200000151991844, 0.03200000151991844, 1.055999994277954, 0.0, 0.0, 0.0, 0.0, 0.0, 1.6216046468743737E9, 2021-05-21 15:44:06.874
46.0, -165.2418670654297, -363.95770263671875, 333.3616027832031, 118.10230255126953, 0.03200000151991844, 0.03200000151991844, 1.055999994277954, 0.0, 0.0, 0.0, 0.0, 0.0, 1.6216046468743737E9, 2021-05-21 15:44:06.874
47.0, -167.45962524414062, -361.7998046875, 332.7332763671875, 124.55362701416016, 0.03200000151991844, 0.03200000151991844, 1.055999994277954, 0.0, 0.0, 0.0, 0.0, 0.0, 1.6216046468904798E9, 2021-05-21 15:44:06.890
47.0, -202.4351806640625, -410.04449462890625, 284.6568603515625, 77.69641876220703, 0.03200000151991844, 0.03200000151991844, 1.055999994277954, 0.0, 0.0, 0.0, 0.0, 0.0, 1.6216046468904798E9, 2021-05-21 15:44:06.890
48.0, -196.87020874023438, -412.4305725097656, 289.24200439453125, 81.32786560058594, 0.03200000151991844, 0.03200000151991844, 1.055999994277954, 0.0, 0.0, 0.0, 0.0, 0.0, 1.6216046469050913E9, 2021-05-21 15:44:06.905
48.0, -164.97259521484375, -364.48876953125, 341.78759765625, 122.99783325195312, 0.03200000151991844, 0.03200000151991844, 1.055999994277954, 0.0, 0.0, 0.0, 0.0, 0.0, 1.6216046469050913E9, 2021-05-21 15:44:06.905
49.0, -165.0436553955078, -360.838623046875, 338.0476989746094, 131.65196228027344, 0.03200000151991844, 0.03200000151991844, 1.055999994277954, 0.0, 0.0, 0.0, 0.0, 0.0, 1.6216046469057062E9, 2021-05-21 15:44:06.905
49.0, -205.5131072998047, -415.01483154296875, 288.0527038574219, 82.1805648803711, 0.03200000151991844, 0.03200000151991844, 1.055999994277954, 0.0, 0.0, 0.0, 0.0, 0.0, 1.6216046469057062E9, 2021-05-21 15:44:06.905
50.0, -199.81350708007812, -408.8851318359375, 280.3672180175781, 82.0047836303711, 0.03200000151991844, 0.03200000151991844, 1.055999994277954, 0.0, 0.0, 0.0, 0.0, 0.0, 1.621604646919973E9, 2021-05-21 15:44:06.919
50.0, -159.76290893554688, -365.9510803222656, 339.4351806640625, 126.17674255371094, 0.03200000151991844, 0.03200000151991844, 1.055999994277954, 0.0, 0.0, 0.0, 0.0, 0.0, 1.621604646919973E9, 2021-05-21 15:44:06.919
51.0, -164.92771911621094, -368.4418640136719, 339.5249328613281, 128.56280517578125, 0.03200000151991844, 0.03200000151991844, 1.055999994277954, 0.0, 0.0, 0.0, 0.0, 0.0, 1.621604646920694E9, 2021-05-21 15:44:06.920
51.0, -204.7165069580078, -416.0881652832031, 282.009033203125, 78.18634796142578, 0.03200000151991844, 0.03200000151991844, 1.055999994277954, 0.0, 0.0, 0.0, 0.0, 0.0, 1.621604646920694E9, 2021-05-21 15:44:06.920
52.0, -197.41622924804688, -407.68463134765625, 288.8455505371094, 77.3074722290039, 0.01600000075995922, 0.03200000151991844, 1.055999994277954, 0.0, 0.0, 0.0, 0.0, 0.0, 1.6216046469343176E9, 2021-05-21 15:44:06.934
52.0, -161.03074645996094, -365.27789306640625, 336.8621520996094, 120.2863998413086, 0.01600000075995922, 0.03200000151991844, 1.055999994277954, 0.0, 0.0, 0.0, 0.0, 0.0, 1.6216046469343176E9, 2021-05-21 15:44:06.934
53.0, -156.1314697265625, -357.281982421875, 339.3417053222656, 122.56774139404297, 0.01600000075995922, 0.03200000151991844, 1.055999994277954, 0.0, 0.0, 0.0, 0.0, 0.0, 1.6216046469500792E9, 2021-05-21 15:44:06.950
53.0, -194.3682098388672, -415.6244201660156, 283.1609191894531, 68.7356185913086, 0.01600000075995922, 0.03200000151991844, 1.055999994277954, 0.0, 0.0, 0.0, 0.0, 0.0, 1.6216046469500792E9, 2021-05-21 15:44:06.950
54.0, -194.43179321289062, -412.30712890625, 289.1522216796875, 71.52558898925781, 0.01600000075995922, 0.03200000151991844, 1.055999994277954, 0.0, 0.0, 0.0, 0.0, 0.0, 1.6216046469507897E9, 2021-05-21 15:44:06.950
54.0, -163.40931701660156, -372.48095703125, 332.8604431152344, 120.5855941772461, 0.01600000075995922, 0.03200000151991844, 1.055999994277954, 0.0, 0.0, 0.0, 0.0, 0.0, 1.6216046469507897E9, 2021-05-21 15:44:06.950
55.0, -164.67713928222656, -366.8075256347656, 326.8504333496094, 121.54674530029297, 0.01600000075995922, 0.03200000151991844, 1.055999994277954, 0.0, 0.0, 0.0, 0.0, 0.0, 1.6216046469643755E9, 2021-05-21 15:44:06.964
55.0, -202.71192932128906, -414.19952392578125, 279.68280029296875, 71.45826721191406, 0.01600000075995922, 0.03200000151991844, 1.055999994277954, 0.0, 0.0, 0.0, 0.0, 0.0, 1.6216046469643755E9, 2021-05-21 15:44:06.964
56.0, -192.90591430664062, -410.61297607421875, 285.401123046875, 78.33594512939453, 0.01600000075995922, 0.03200000151991844, 1.055999994277954, 0.0, 0.0, 0.0, 0.0, 0.0, 1.6216046469800973E9, 2021-05-21 15:44:06.980
56.0, -164.32933044433594, -371.3066101074219, 335.5419616699219, 126.49463653564453, 0.01600000075995922, 0.03200000151991844, 1.055999994277954, 0.0, 0.0, 0.0, 0.0, 0.0, 1.6216046469800973E9, 2021-05-21 15:44:06.980
57.0, -165.6644744873047, -369.2421875, 336.2226257324219, 126.67041015625, 0.01600000075995922, 0.03200000151991844, 1.055999994277954, 0.0, 0.0, 0.0, 0.0, 0.0, 1.6216046469808147E9, 2021-05-21 15:44:06.980
57.0, -195.74075317382812, -416.4771423339844, 287.7422790527344, 77.89463806152344, 0.01600000075995922, 0.03200000151991844, 1.055999994277954, 0.0, 0.0, 0.0, 0.0, 0.0, 1.6216046469808147E9, 2021-05-21 15:44:06.980
58.0, -196.3989715576172, -415.2018127441406, 286.7961120605469, 82.39747619628906, 0.01600000075995922, 0.03200000151991844, 1.055999994277954, 0.0, 0.0, 0.0, 0.0, 0.0, 1.6216046469945145E9, 2021-05-21 15:44:06.994
58.0, -163.43923950195312, -372.6828918457031, 329.7451171875, 125.43998718261719, 0.01600000075995922, 0.03200000151991844, 1.055999994277954, 0.0, 0.0, 0.0, 0.0, 0.0, 1.6216046469945145E9, 2021-05-21 15:44:06.994
59.0, -162.41824340820312, -365.932373046875, 327.5310974121094, 128.18881225585938, 0.01600000075995922, 0.03200000151991844, 1.055999994277954, 0.0, 0.0, 0.0, 0.0, 0.0, 1.6216046470101027E9, 2021-05-21 15:44:07.010
59.0, -202.62217712402344, -417.09796142578125, 280.8309631347656, 72.13893127441406, 0.01600000075995922, 0.03200000151991844, 1.055999994277954, 0.0, 0.0, 0.0, 0.0, 0.0, 1.6216046470101027E9, 2021-05-21 15:44:07.010
60.0, -199.5330047607422, -409.1394348144531, 286.17901611328125, 75.65069580078125, 0.01600000075995922, 0.03200000151991844, 1.055999994277954, 0.0, 0.0, 0.0, 0.0, 0.0, 1.621604647010832E9, 2021-05-21 15:44:07.010
60.0, -164.91650390625, -368.1426696777344, 332.4266052246094, 121.31861114501953, 0.01600000075995922, 0.03200000151991844, 1.055999994277954, 0.0, 0.0, 0.0, 0.0, 0.0, 1.621604647010832E9, 2021-05-21 15:44:07.010
61.0, -166.96969604492188, -369.40301513671875, 329.04949951171875, 117.80684661865234, 0.01600000075995922, 0.03200000151991844, 1.055999994277954, 0.0, 0.0, 0.0, 0.0, 0.0, 1.6216046470243523E9, 2021-05-21 15:44:07.024
61.0, -201.6236114501953, -414.8353271484375, 278.20928955078125, 65.40337371826172, 0.01600000075995922, 0.03200000151991844, 1.055999994277954, 0.0, 0.0, 0.0, 0.0, 0.0, 1.6216046470243523E9, 2021-05-21 15:44:07.024
62.0, -195.6435089111328, -403.8811340332031, 288.6136779785156, 72.07909393310547, 0.01600000075995922, 0.03200000151991844, 1.055999994277954, 0.0, 0.0, 0.0, 0.0, 0.0, 1.6216046470401008E9, 2021-05-21 15:44:07.040
62.0, -157.98646545410156, -363.65850830078125, 337.6175842285156, 118.65206909179688, 0.01600000075995922, 0.03200000151991844, 1.055999994277954, 0.0, 0.0, 0.0, 0.0, 0.0, 1.6216046470401008E9, 2021-05-21 15:44:07.040
63.0, -159.45623779296875, -367.0693054199219, 337.468017578125, 120.51079559326172, 0.01600000075995922, 0.03200000151991844, 1.055999994277954, 0.0, 0.0, 0.0, 0.0, 0.0, 1.621604647040814E9, 2021-05-21 15:44:07.040
63.0, -205.3111572265625, -411.64892578125, 287.3907470703125, 74.56986236572266, 0.01600000075995922, 0.03200000151991844, 1.055999994277954, 0.0, 0.0, 0.0, 0.0, 0.0, 1.621604647040814E9, 2021-05-21 15:44:07.040
64.0, -198.58682250976562, -412.01544189453125, 289.17840576171875, 79.26344299316406, 0.01600000075995922, 0.03200000151991844, 1.055999994277954, 0.0, 0.0, 0.0, 0.0, 0.0, 1.6216046470542982E9, 2021-05-21 15:44:07.054
64.0, -165.36154174804688, -366.0333557128906, 336.5218200683594, 125.25672912597656, 0.01600000075995922, 0.03200000151991844, 1.055999994277954, 0.0, 0.0, 0.0, 0.0, 0.0, 1.6216046470542982E9, 2021-05-21 15:44:07.054
65.0, -169.69235229492188, -362.91802978515625, 334.7827453613281, 127.56424713134766, 0.01600000075995922, 0.03200000151991844, 1.055999994277954, 0.0, 0.0, 0.0, 0.0, 0.0, 1.621604647070072E9, 2021-05-21 15:44:07.070
65.0, -203.5758514404297, -421.1968688964844, 280.0007019042969, 77.99935150146484, 0.01600000075995922, 0.03200000151991844, 1.055999994277954, 0.0, 0.0, 0.0, 0.0, 0.0, 1.621604647070072E9, 2021-05-21 15:44:07.070
66.0, -202.79420471191406, -417.12786865234375, 281.7060852050781, 83.27261352539062, 0.01600000075995922, 0.03200000151991844, 1.055999994277954, 0.0, 0.0, 0.0, 0.0, 0.0, 1.6216046470707493E9, 2021-05-21 15:44:07.070
66.0, -169.0191650390625, -369.3955383300781, 330.4220275878906, 125.8251953125, 0.01600000075995922, 0.03200000151991844, 1.055999994277954, 0.0, 0.0, 0.0, 0.0, 0.0, 1.6216046470707493E9, 2021-05-21 15:44:07.070
67.0, -166.41993713378906, -362.6263122558594, 330.5566711425781, 134.16143798828125, 0.01600000075995922, 0.03200000151991844, 1.055999994277954, 0.0, 0.0, 0.0, 0.0, 0.0, 1.6216046470844069E9, 2021-05-21 15:44:07.084
67.0, -205.6066131591797, -419.4503479003906, 276.41412353515625, 76.73526763916016, 0.01600000075995922, 0.03200000151991844, 1.055999994277954, 0.0, 0.0, 0.0, 0.0, 0.0, 1.6216046470844069E9, 2021-05-21 15:44:07.084
68.0, -203.51600646972656, -409.67425537109375, 282.86920166015625, 83.17537689208984, 0.01600000075995922, 0.03200000151991844, 1.055999994277954, 0.0, 0.0, 0.0, 0.0, 0.0, 1.6216046471000547E9, 2021-05-21 15:44:07.100
68.0, -165.05860900878906, -370.8391418457031, 329.8236389160156, 122.24610900878906, 0.01600000075995922, 0.03200000151991844, 1.055999994277954, 0.0, 0.0, 0.0, 0.0, 0.0, 1.6216046471000547E9, 2021-05-21 15:44:07.100
69.0, -165.57846069335938, -367.67144775390625, 330.3659362792969, 121.08673858642578, 0.01600000075995922, 0.03200000151991844, 1.055999994277954, 0.0, 0.0, 0.0, 0.0, 0.0, 1.6216046471007545E9, 2021-05-21 15:44:07.100
69.0, -204.01341247558594, -405.1153259277344, 280.2138671875, 71.37599182128906, 0.01600000075995922, 0.03200000151991844, 1.055999994277954, 0.0, 0.0, 0.0, 0.0, 0.0, 1.6216046471007545E9, 2021-05-21 15:44:07.100
70.0, -194.14007568359375, -408.4849548339844, 291.5644836425781, 74.2931137084961, 0.01600000075995922, 0.03200000151991844, 1.055999994277954, 0.0, 0.0, 0.0, 0.0, 0.0, 1.6216046471143093E9, 2021-05-21 15:44:07.114
70.0, -161.99937438964844, -366.3662109375, 333.72808837890625, 114.4409408569336, 0.01600000075995922, 0.03200000151991844, 1.055999994277954, 0.0, 0.0, 0.0, 0.0, 0.0, 1.6216046471143093E9, 2021-05-21 15:44:07.114
71.0, -155.8846435546875, -361.3846740722656, 337.46051025390625, 124.77054595947266, 0.01600000075995922, 0.03200000151991844, 1.055999994277954, 0.0, 0.0, 0.0, 0.0, 0.0, 1.6216046471302044E9, 2021-05-21 15:44:07.130
71.0, -191.9036102294922, -411.88079833984375, 285.5619201660156, 75.3963851928711, 0.01600000075995922, 0.03200000151991844, 1.055999994277954, 0.0, 0.0, 0.0, 0.0, 0.0, 1.6216046471302044E9, 2021-05-21 15:44:07.130
72.0, -192.45338439941406, -407.38916015625, 292.3199157714844, 78.429443359375, 0.01600000075995922, 0.03200000151991844, 1.055999994277954, 0.0, 0.0, 0.0, 0.0, 0.0, 1.6216046471307924E9, 2021-05-21 15:44:07.130
72.0, -160.7128448486328, -368.7073974609375, 341.2303466796875, 124.26939392089844, 0.01600000075995922, 0.03200000151991844, 1.055999994277954, 0.0, 0.0, 0.0, 0.0, 0.0, 1.6216046471307924E9, 2021-05-21 15:44:07.130
73.0, -162.10035705566406, -367.6826477050781, 342.45703125, 127.89710235595703, 0.01600000075995922, 0.03200000151991844, 1.055999994277954, 0.0, 0.0, 0.0, 0.0, 0.0, 1.6216046471443872E9, 2021-05-21 15:44:07.144
73.0, -201.1598663330078, -418.5079040527344, 287.5179138183594, 74.92889404296875, 0.01600000075995922, 0.03200000151991844, 1.055999994277954, 0.0, 0.0, 0.0, 0.0, 0.0, 1.6216046471443872E9, 2021-05-21 15:44:07.144
74.0, -205.46075439453125, -416.6903076171875, 280.9132385253906, 78.07415008544922, 0.01600000075995922, 0.03200000151991844, 1.055999994277954, 0.0, 0.0, 0.0, 0.0, 0.0, 1.6216046471600714E9, 2021-05-21 15:44:07.160
74.0, -164.5799102783203, -372.6118469238281, 330.9530944824219, 123.37181854248047, 0.01600000075995922, 0.03200000151991844, 1.055999994277954, 0.0, 0.0, 0.0, 0.0, 0.0, 1.6216046471600714E9, 2021-05-21 15:44:07.160
75.0, -166.09457397460938, -373.4458312988281, 329.1392517089844, 123.42417907714844, 0.01600000075995922, 0.03200000151991844, 1.055999994277954, 0.0, 0.0, 0.0, 0.0, 0.0, 1.6216046471607726E9, 2021-05-21 15:44:07.160
75.0, -200.41937255859375, -424.5964660644531, 275.1537780761719, 71.1628189086914, 0.01600000075995922, 0.03200000151991844, 1.055999994277954, 0.0, 0.0, 0.0, 0.0, 0.0, 1.6216046471607726E9, 2021-05-21 15:44:07.160
76.0, -191.6156463623047, -420.49005126953125, 279.8623352050781, 81.73551177978516, 0.01600000075995922, 0.03200000151991844, 1.055999994277954, 0.0, 0.0, 0.0, 0.0, 0.0, 1.6216046471743464E9, 2021-05-21 15:44:07.174
76.0, -158.00515747070312, -371.7254943847656, 330.0443115234375, 124.46012878417969, 0.01600000075995922, 0.03200000151991844, 1.055999994277954, 0.0, 0.0, 0.0, 0.0, 0.0, 1.6216046471743464E9, 2021-05-21 15:44:07.174
77.0, -168.82469177246094, -373.07183837890625, 332.9539489746094, 120.09941101074219, 0.01600000075995922, 0.03200000151991844, 1.055999994277954, 0.0, 0.0, 0.0, 0.0, 0.0, 1.6216046471900475E9, 2021-05-21 15:44:07.190
77.0, -202.8465576171875, -415.9909362792969, 279.9632873535156, 69.12083435058594, 0.01600000075995922, 0.03200000151991844, 1.055999994277954, 0.0, 0.0, 0.0, 0.0, 0.0, 1.6216046471900475E9, 2021-05-21 15:44:07.190
78.0, -193.34347534179688, -414.1808166503906, 284.6905212402344, 72.91683197021484, 0.01600000075995922, 0.03200000151991844, 1.055999994277954, 0.0, 0.0, 0.0, 0.0, 0.0, 1.6216046471907635E9, 2021-05-21 15:44:07.190
78.0, -161.7862091064453, -372.8474426269531, 337.5465393066406, 118.69694519042969, 0.01600000075995922, 0.03200000151991844, 1.055999994277954, 0.0, 0.0, 0.0, 0.0, 0.0, 1.6216046471907635E9, 2021-05-21 15:44:07.190
79.0, -161.63287353515625, -366.80377197265625, 340.0784606933594, 116.90553283691406, 0.01600000075995922, 0.03200000151991844, 1.055999994277954, 0.0, 0.0, 0.0, 0.0, 0.0, 1.621604647204441E9, 2021-05-21 15:44:07.204
79.0, -200.8606719970703, -417.6813659667969, 285.8835754394531, 66.0690689086914, 0.01600000075995922, 0.03200000151991844, 1.055999994277954, 0.0, 0.0, 0.0, 0.0, 0.0, 1.621604647204441E9, 2021-05-21 15:44:07.204
80.0, -193.7847900390625, -409.2740783691406, 294.4965515136719, 78.25366973876953, 0.01600000075995922, 0.03200000151991844, 1.055999994277954, 0.0, 0.0, 0.0, 0.0, 0.0, 1.6216046472200043E9, 2021-05-21 15:44:07.220
80.0, -162.96426391601562, -371.542236328125, 337.8195495605469, 124.75184631347656, 0.01600000075995922, 0.03200000151991844, 1.055999994277954, 0.0, 0.0, 0.0, 0.0, 0.0, 1.6216046472200043E9, 2021-05-21 15:44:07.220
81.0, -159.50860595703125, -370.71197509765625, 344.22601318359375, 134.03427124023438, 0.01600000075995922, 0.03200000151991844, 1.055999994277954, 0.0, 0.0, 0.0, 0.0, 0.0, 1.621604647220784E9, 2021-05-21 15:44:07.220
81.0, -195.5200958251953, -418.0179748535156, 294.9977111816406, 77.3037338256836, 0.01600000075995922, 0.03200000151991844, 1.055999994277954, 0.0, 0.0, 0.0, 0.0, 0.0, 1.621604647220784E9, 2021-05-21 15:44:07.220
82.0, -192.41598510742188, -412.98779296875, 291.4859313964844, 84.73491668701172, 0.03200000151991844, 0.03200000151991844, 1.055999994277954, 0.0, 0.0, 0.0, 0.0, 0.0, 1.6216046472343953E9, 2021-05-21 15:44:07.234
82.0, -163.32704162597656, -376.9314270019531, 337.0267028808594, 125.66437530517578, 0.03200000151991844, 0.03200000151991844, 1.055999994277954, 0.0, 0.0, 0.0, 0.0, 0.0, 1.6216046472343953E9, 2021-05-21 15:44:07.234
83.0, -166.42367553710938, -373.5393371582031, 335.5307312011719, 130.29811096191406, 0.03200000151991844, 0.03200000151991844, 1.055999994277954, 0.0, 0.0, 0.0, 0.0, 0.0, 1.621604647250028E9, 2021-05-21 15:44:07.250
83.0, -205.4308319091797, -421.2455139160156, 280.9132385253906, 81.8028335571289, 0.03200000151991844, 0.03200000151991844, 1.055999994277954, 0.0, 0.0, 0.0, 0.0, 0.0, 1.621604647250028E9, 2021-05-21 15:44:07.250
84.0, -197.07589721679688, -418.421875, 281.35455322265625, 80.93517303466797, 0.03200000151991844, 0.03200000151991844, 1.055999994277954, 0.0, 0.0, 0.0, 0.0, 0.0, 1.6216046472507386E9, 2021-05-21 15:44:07.250
84.0, -163.86558532714844, -379.7513122558594, 333.735595703125, 127.11920166015625, 0.03200000151991844, 0.03200000151991844, 1.055999994277954, 0.0, 0.0, 0.0, 0.0, 0.0, 1.6216046472507386E9, 2021-05-21 15:44:07.250
85.0, -165.30918884277344, -379.8036804199219, 332.00775146484375, 125.90373229980469, 0.03200000151991844, 0.03200000151991844, 1.055999994277954, 0.0, 0.0, 0.0, 0.0, 0.0, 1.6216046472643523E9, 2021-05-21 15:44:07.264
85.0, -202.62591552734375, -426.2457580566406, 272.9958801269531, 74.10985565185547, 0.03200000151991844, 0.03200000151991844, 1.055999994277954, 0.0, 0.0, 0.0, 0.0, 0.0, 1.6216046472643523E9, 2021-05-21 15:44:07.264
86.0, -203.13079833984375, -422.49462890625, 280.4382629394531, 78.37708282470703, 0.03200000151991844, 0.03200000151991844, 1.055999994277954, 0.0, 0.0, 0.0, 0.0, 0.0, 1.6216046472965765E9, 2021-05-21 15:44:07.296
86.0, -164.7968292236328, -377.79534912109375, 328.2790832519531, 120.07696533203125, 0.03200000151991844, 0.03200000151991844, 1.055999994277954, 0.0, 0.0, 0.0, 0.0, 0.0, 1.6216046472965765E9, 2021-05-21 15:44:07.296
87.0, -167.97947692871094, -383.5772399902344, 330.7960205078125, 124.74810028076172, 0.03200000151991844, 0.03200000151991844, 1.055999994277954, 0.0, 0.0, 0.0, 0.0, 0.0, 1.6216046472971735E9, 2021-05-21 15:44:07.297
87.0, -203.68055725097656, -425.3219909667969, 278.5421447753906, 72.4493408203125, 0.03200000151991844, 0.03200000151991844, 1.055999994277954, 0.0, 0.0, 0.0, 0.0, 0.0, 1.6216046472971735E9, 2021-05-21 15:44:07.297
88.0, -199.01316833496094, -420.8453369140625, 281.7173156738281, 72.12397003173828, 0.03200000151991844, 0.03200000151991844, 1.055999994277954, 0.0, 0.0, 0.0, 0.0, 0.0, 1.6216046472979493E9, 2021-05-21 15:44:07.297
88.0, -161.41221618652344, -374.3135070800781, 331.4018859863281, 121.412109375, 0.03200000151991844, 0.03200000151991844, 1.055999994277954, 0.0, 0.0, 0.0, 0.0, 0.0, 1.6216046472979493E9, 2021-05-21 15:44:07.297
89.0, -154.1792449951172, -368.9729309082031, 348.1341857910156, 130.0251007080078, 0.03200000151991844, 0.03200000151991844, 1.055999994277954, 0.0, 0.0, 0.0, 0.0, 0.0, 1.6216046472987092E9, 2021-05-21 15:44:07.298
89.0, -189.1697540283203, -418.98284912109375, 294.8667907714844, 77.80113983154297, 0.03200000151991844, 0.03200000151991844, 1.055999994277954, 0.0, 0.0, 0.0, 0.0, 0.0, 1.6216046472987092E9, 2021-05-21 15:44:07.298
90.0, -181.69369506835938, -423.2126770019531, 300.6561584472656, 80.45646667480469, 0.03200000151991844, 0.03200000151991844, 1.055999994277954, 0.0, 0.0, 0.0, 0.0, 0.0, 1.621604647309368E9, 2021-05-21 15:44:07.309
90.0, -154.50462341308594, -376.2395324707031, 336.51434326171875, 123.55133819580078, 0.03200000151991844, 0.03200000151991844, 1.055999994277954, 0.0, 0.0, 0.0, 0.0, 0.0, 1.621604647309368E9, 2021-05-21 15:44:07.309
91.0, -165.82904052734375, -375.5027770996094, 335.55316162109375, 129.3032989501953, 0.03200000151991844, 0.03200000151991844, 1.055999994277954, 0.0, 0.0, 0.0, 0.0, 0.0, 1.6216046473243177E9, 2021-05-21 15:44:07.324
91.0, -203.57958984375, -420.0337829589844, 287.1401672363281, 79.35693359375, 0.03200000151991844, 0.03200000151991844, 1.055999994277954, 0.0, 0.0, 0.0, 0.0, 0.0, 1.6216046473243177E9, 2021-05-21 15:44:07.324
92.0, -196.94500732421875, -414.12847900390625, 294.2796325683594, 85.36322021484375, 0.03200000151991844, 0.03200000151991844, 1.055999994277954, 0.0, 0.0, 0.0, 0.0, 0.0, 1.6216046473563783E9, 2021-05-21 15:44:07.356
92.0, -163.98526000976562, -374.7286376953125, 336.9219665527344, 127.84848022460938, 0.03200000151991844, 0.03200000151991844, 1.055999994277954, 0.0, 0.0, 0.0, 0.0, 0.0, 1.6216046473563783E9, 2021-05-21 15:44:07.356
93.0, -163.66737365722656, -368.04541015625, 336.36474609375, 127.89335632324219, 0.03200000151991844, 0.03200000151991844, 1.055999994277954, 0.0, 0.0, 0.0, 0.0, 0.0, 1.62160464735712E9, 2021-05-21 15:44:07.357
93.0, -200.78587341308594, -422.154296875, 285.3525085449219, 79.58132934570312, 0.03200000151991844, 0.03200000151991844, 1.055999994277954, 0.0, 0.0, 0.0, 0.0, 0.0, 1.62160464735712E9, 2021-05-21 15:44:07.357
94.0, -200.83450317382812, -418.4443054199219, 289.0325622558594, 80.15727233886719, 0.03200000151991844, 0.03200000151991844, 1.055999994277954, 0.0, 0.0, 0.0, 0.0, 0.0, 1.6216046473578367E9, 2021-05-21 15:44:07.357
94.0, -168.50680541992188, -375.86181640625, 334.5246887207031, 127.8746566772461, 0.03200000151991844, 0.03200000151991844, 1.055999994277954, 0.0, 0.0, 0.0, 0.0, 0.0, 1.6216046473578367E9, 2021-05-21 15:44:07.357
95.0, -162.1489715576172, -374.7398376464844, 335.0220947265625, 127.7101058959961, 0.03200000151991844, 0.03200000151991844, 1.055999994277954, 0.0, 0.0, 0.0, 0.0, 0.0, 1.6216046473586316E9, 2021-05-21 15:44:07.358
95.0, -203.11209106445312, -420.95379638671875, 283.1646423339844, 77.31494903564453, 0.03200000151991844, 0.03200000151991844, 1.055999994277954, 0.0, 0.0, 0.0, 0.0, 0.0, 1.6216046473586316E9, 2021-05-21 15:44:07.358
96.0, -199.09170532226562, -415.7740173339844, 290.2330627441406, 78.57904052734375, 0.03200000151991844, 0.03200000151991844, 1.055999994277954, 0.0, 0.0, 0.0, 0.0, 0.0, 1.6216046473693929E9, 2021-05-21 15:44:07.369
96.0, -165.19699096679688, -377.88134765625, 334.8612976074219, 124.8266372680664, 0.03200000151991844, 0.03200000151991844, 1.055999994277954, 0.0, 0.0, 0.0, 0.0, 0.0, 1.6216046473693929E9, 2021-05-21 15:44:07.369
97.0, -159.5198211669922, -368.8420104980469, 335.60552978515625, 129.10134887695312, 0.03200000151991844, 0.03200000151991844, 1.055999994277954, 0.0, 0.0, 0.0, 0.0, 0.0, 1.621604647384585E9, 2021-05-21 15:44:07.384
97.0, -193.72120666503906, -417.5280456542969, 284.6718444824219, 75.04109191894531, 0.03200000151991844, 0.03200000151991844, 1.055999994277954, 0.0, 0.0, 0.0, 0.0, 0.0, 1.621604647384585E9, 2021-05-21 15:44:07.384
98.0, -189.42405700683594, -415.3327331542969, 290.1096496582031, 77.21771240234375, 0.03200000151991844, 0.03200000151991844, 1.055999994277954, 0.0, 0.0, 0.0, 0.0, 0.0, 1.6216046474001048E9, 2021-05-21 15:44:07.400
98.0, -163.3494873046875, -376.953857421875, 335.0931701660156, 124.91265869140625, 0.03200000151991844, 0.03200000151991844, 1.055999994277954, 0.0, 0.0, 0.0, 0.0, 0.0, 1.6216046474001048E9, 2021-05-21 15:44:07.400
99.0, -150.8357696533203, -371.89752197265625, 340.1644592285156, 127.28001403808594, 0.03200000151991844, 0.03200000151991844, 1.055999994277954, 0.0, 0.0, 0.0, 0.0, 0.0, 1.621604647400766E9, 2021-05-21 15:44:07.400
99.0, -196.64207458496094, -418.5901794433594, 289.2457275390625, 72.98040771484375, 0.03200000151991844, 0.03200000151991844, 1.055999994277954, 0.0, 0.0, 0.0, 0.0, 0.0, 1.621604647400766E9, 2021-05-21 15:44:07.400
100.0, -195.49766540527344, -412.12762451171875, 291.06707763671875, 79.38685607910156, 0.03200000151991844, 0.03200000151991844, 1.055999994277954, 0.0, 0.0, 0.0, 0.0, 0.0, 1.6216046474151988E9, 2021-05-21 15:44:07.415
100.0, -154.4784393310547, -370.2818908691406, 336.3946533203125, 126.6891098022461, 0.03200000151991844, 0.03200000151991844, 1.055999994277954, 0.0, 0.0, 0.0, 0.0, 0.0, 1.6216046474151988E9, 2021-05-21 15:44:07.415
0.0, -153.32655334472656, -367.6172180175781, 343.52850341796875, 135.76959228515625, 0.03200000151991844, 0.03200000151991844, 1.055999994277954, 0.0, 0.0, 0.0, 0.0, 0.0, 1.6216046474159503E9, 2021-05-21 15:44:07.415
1.0, -191.5632781982422, -420.4993896484375, 282.1343078613281, 84.91816711425781, 0.03200000151991844, 0.03200000151991844, 1.055999994277954, 0.0, 0.0, 0.0, 0.0, 0.0, 1.6216046474293442E9, 2021-05-21 15:44:07.429
1.0, -191.94850158691406, -425.81005859375, 285.6011962890625, 86.53754425048828, 0.03200000151991844, 0.03200000151991844, 1.055999994277954, 0.0, 0.0, 0.0, 0.0, 0.0, 1.6216046474293442E9, 2021-05-21 15:44:07.429
2.0, -160.00601196289062, -381.0135192871094, 323.4789123535156, 127.56050872802734, 0.01600000075995922, 0.03200000151991844, 1.055999994277954, 0.0, 0.0, 0.0, 0.0, 0.0, 1.6216046474450984E9, 2021-05-21 15:44:07.445
2.0, -161.1878204345703, -377.7411193847656, 327.11407470703125, 127.8372573852539, 0.01600000075995922, 0.03200000151991844, 1.055999994277954, 0.0, 0.0, 0.0, 0.0, 0.0, 1.6216046474450984E9, 2021-05-21 15:44:07.445
3.0, -197.78274536132812, -424.4898681640625, 276.2813720703125, 76.23037719726562, 0.01600000075995922, 0.03200000151991844, 1.055999994277954, 0.0, 0.0, 0.0, 0.0, 0.0, 1.6216046474457655E9, 2021-05-21 15:44:07.445
3.0, -195.4752197265625, -422.4403991699219, 281.26666259765625, 81.21940612792969, 0.01600000075995922, 0.03200000151991844, 1.055999994277954, 0.0, 0.0, 0.0, 0.0, 0.0, 1.6216046474457655E9, 2021-05-21 15:44:07.445
4.0, -163.95909118652344, -380.9686584472656, 324.58966064453125, 127.74375915527344, 0.01600000075995922, 0.03200000151991844, 1.055999994277954, 0.0, 0.0, 0.0, 0.0, 0.0, 1.6216046474757955E9, 2021-05-21 15:44:07.475
4.0, -164.8678741455078, -375.8973388671875, 330.7081298828125, 133.06564331054688, 0.01600000075995922, 0.03200000151991844, 1.055999994277954, 0.0, 0.0, 0.0, 0.0, 0.0, 1.6216046474757955E9, 2021-05-21 15:44:07.475
5.0, -194.98529052734375, -417.5074768066406, 274.93499755859375, 77.39348602294922, 0.01600000075995922, 0.03200000151991844, 1.055999994277954, 0.0, 0.0, 0.0, 0.0, 0.0, 1.6216046474764616E9, 2021-05-21 15:44:07.476
5.0, -190.7180633544922, -416.56500244140625, 281.44244384765625, 79.39433288574219, 0.01600000075995922, 0.03200000151991844, 1.055999994277954, 0.0, 0.0, 0.0, 0.0, 0.0, 1.6216046474764616E9, 2021-05-21 15:44:07.476
6.0, -160.61561584472656, -374.2929382324219, 327.4207763671875, 115.39835357666016, 0.01600000075995922, 0.03200000151991844, 1.055999994277954, 0.0, 0.0, 0.0, 0.0, 0.0, 1.621604647477241E9, 2021-05-21 15:44:07.477
6.0, -161.70018005371094, -368.4736328125, 337.7952575683594, 126.928466796875, 0.01600000075995922, 0.03200000151991844, 1.055999994277954, 0.0, 0.0, 0.0, 0.0, 0.0, 1.621604647477241E9, 2021-05-21 15:44:07.477
7.0, -192.53939819335938, -418.4499206542969, 292.4564514160156, 80.14979553222656, 0.01600000075995922, 0.03200000151991844, 1.055999994277954, 0.0, 0.0, 0.0, 0.0, 0.0, 1.6216046475058067E9, 2021-05-21 15:44:07.505
7.0, -191.1556396484375, -415.81329345703125, 301.6416320800781, 88.28034210205078, 0.01600000075995922, 0.03200000151991844, 1.055999994277954, 0.0, 0.0, 0.0, 0.0, 0.0, 1.6216046475058067E9, 2021-05-21 15:44:07.505
8.0, -166.3227081298828, -374.0236511230469, 341.0003356933594, 128.14393615722656, 0.01600000075995922, 0.03200000151991844, 1.055999994277954, 0.0, 0.0, 0.0, 0.0, 0.0, 1.6216046475064085E9, 2021-05-21 15:44:07.506
8.0, -160.18927001953125, -371.5328674316406, 346.9056396484375, 132.33262634277344, 0.01600000075995922, 0.03200000151991844, 1.055999994277954, 0.0, 0.0, 0.0, 0.0, 0.0, 1.6216046475064085E9, 2021-05-21 15:44:07.506
9.0, -199.27496337890625, -416.1573791503906, 292.2806701660156, 79.697265625, 0.01600000075995922, 0.03200000151991844, 1.055999994277954, 0.0, 0.0, 0.0, 0.0, 0.0, 1.6216046475071697E9, 2021-05-21 15:44:07.507
9.0, -198.24649047851562, -421.5203857421875, 292.0375671386719, 77.97691345214844, 0.01600000075995922, 0.03200000151991844, 1.055999994277954, 0.0, 0.0, 0.0, 0.0, 0.0, 1.6216046475071697E9, 2021-05-21 15:44:07.507
10.0, -162.6201934814453, -378.2160949707031, 341.5837707519531, 122.58644104003906, 0.01600000075995922, 0.03200000151991844, 1.055999994277954, 0.0, 0.0, 0.0, 0.0, 0.0, 1.6216046475357652E9, 2021-05-21 15:44:07.535
10.0, -164.37420654296875, -374.87261962890625, 343.90625, 128.1962890625, 0.01600000075995922, 0.03200000151991844, 1.055999994277954, 0.0, 0.0, 0.0, 0.0, 0.0, 1.6216046475357652E9, 2021-05-21 15:44:07.535
11.0, -196.2942657470703, -429.3442687988281, 285.0963134765625, 74.95881652832031, 0.01600000075995922, 0.03200000151991844, 1.055999994277954, 0.0, 0.0, 0.0, 0.0, 0.0, 1.6216046475364752E9, 2021-05-21 15:44:07.536
11.0, -193.60153198242188, -420.787353515625, 288.1705017089844, 80.71077728271484, 0.01600000075995922, 0.03200000151991844, 1.055999994277954, 0.0, 0.0, 0.0, 0.0, 0.0, 1.6216046475364752E9, 2021-05-21 15:44:07.536
12.0, -168.22630310058594, -379.1697692871094, 336.359130859375, 124.0225601196289, 0.01600000075995922, 0.03200000151991844, 1.055999994277954, 0.0, 0.0, 0.0, 0.0, 0.0, 1.6216046475372057E9, 2021-05-21 15:44:07.537
12.0, -164.89031982421875, -375.6392822265625, 338.4497375488281, 122.24237060546875, 0.01600000075995922, 0.03200000151991844, 1.055999994277954, 0.0, 0.0, 0.0, 0.0, 0.0, 1.6216046475372057E9, 2021-05-21 15:44:07.537
13.0, -200.5727081298828, -422.4254455566406, 286.67828369140625, 75.542236328125, 0.01600000075995922, 0.03200000151991844, 1.055999994277954, 0.0, 0.0, 0.0, 0.0, 0.0, 1.6216046475495381E9, 2021-05-21 15:44:07.549
13.0, -197.94729614257812, -416.6473083496094, 295.7774658203125, 78.27984619140625, 0.01600000075995922, 0.03200000151991844, 1.055999994277954, 0.0, 0.0, 0.0, 0.0, 0.0, 1.6216046475495381E9, 2021-05-21 15:44:07.549
14.0, -163.92916870117188, -381.71661376953125, 340.5777282714844, 119.60199737548828, 0.01600000075995922, 0.03200000151991844, 1.055999994277954, 0.0, 0.0, 0.0, 0.0, 0.0, 1.6216046475650008E9, 2021-05-21 15:44:07.565
14.0, -163.8506317138672, -376.207763671875, 343.5322570800781, 123.2371826171875, 0.01600000075995922, 0.03200000151991844, 1.055999994277954, 0.0, 0.0, 0.0, 0.0, 0.0, 1.6216046475650008E9, 2021-05-21 15:44:07.565
15.0, -195.0077362060547, -423.31927490234375, 291.1213073730469, 70.91224670410156, 0.01600000075995922, 0.03200000151991844, 1.055999994277954, 0.0, 0.0, 0.0, 0.0, 0.0, 1.6216046475658264E9, 2021-05-21 15:44:07.565
15.0, -195.24334716796875, -420.34979248046875, 297.76708984375, 73.2758560180664, 0.01600000075995922, 0.03200000151991844, 1.055999994277954, 0.0, 0.0, 0.0, 0.0, 0.0, 1.6216046475658264E9, 2021-05-21 15:44:07.565
16.0, -159.43006896972656, -378.29461669921875, 341.5126953125, 118.10230255126953, 0.01600000075995922, 0.03200000151991844, 1.055999994277954, 0.0, 0.0, 0.0, 0.0, 0.0, 1.621604647579444E9, 2021-05-21 15:44:07.579
16.0, -160.52584838867188, -376.26385498046875, 344.6617126464844, 121.80854034423828, 0.01600000075995922, 0.03200000151991844, 1.055999994277954, 0.0, 0.0, 0.0, 0.0, 0.0, 1.621604647579444E9, 2021-05-21 15:44:07.579
17.0, -199.3721923828125, -425.1219177246094, 297.1874084472656, 75.20938873291016, 0.01600000075995922, 0.03200000151991844, 1.055999994277954, 0.0, 0.0, 0.0, 0.0, 0.0, 1.6216046476114392E9, 2021-05-21 15:44:07.611
17.0, -193.7810516357422, -423.94757080078125, 299.8539733886719, 74.79425811767578, 0.01600000075995922, 0.03200000151991844, 1.055999994277954, 0.0, 0.0, 0.0, 0.0, 0.0, 1.6216046476114392E9, 2021-05-21 15:44:07.611
18.0, -163.52899169921875, -375.54205322265625, 339.72503662109375, 123.46531677246094, 0.01600000075995922, 0.03200000151991844, 1.055999994277954, 0.0, 0.0, 0.0, 0.0, 0.0, 1.6216046476121411E9, 2021-05-21 15:44:07.612
18.0, -167.69525146484375, -379.68585205078125, 342.956298828125, 124.2768783569336, 0.01600000075995922, 0.03200000151991844, 1.055999994277954, 0.0, 0.0, 0.0, 0.0, 0.0, 1.6216046476121411E9, 2021-05-21 15:44:07.612
19.0, -203.34396362304688, -421.7485046386719, 288.78759765625, 76.6043701171875, 0.01600000075995922, 0.03200000151991844, 1.055999994277954, 0.0, 0.0, 0.0, 0.0, 0.0, 1.621604647612862E9, 2021-05-21 15:44:07.612
19.0, -206.1937713623047, -418.5696105957031, 286.7268981933594, 74.4576644897461, 0.01600000075995922, 0.03200000151991844, 1.055999994277954, 0.0, 0.0, 0.0, 0.0, 0.0, 1.621604647612862E9, 2021-05-21 15:44:07.612
20.0, -171.67449951171875, -375.20172119140625, 334.5153503417969, 120.13680267333984, 0.01600000075995922, 0.03200000151991844, 1.055999994277954, 0.0, 0.0, 0.0, 0.0, 0.0, 1.6216046476136162E9, 2021-05-21 15:44:07.613
20.0, -168.79476928710938, -369.1991882324219, 337.8438720703125, 128.618896484375, 0.01600000075995922, 0.03200000151991844, 1.055999994277954, 0.0, 0.0, 0.0, 0.0, 0.0, 1.6216046476136162E9, 2021-05-21 15:44:07.613
21.0, -203.69552612304688, -416.49395751953125, 283.447021484375, 77.44584655761719, 0.01600000075995922, 0.03200000151991844, 1.055999994277954, 0.0, 0.0, 0.0, 0.0, 0.0, 1.6216046476399913E9, 2021-05-21 15:44:07.639
21.0, -202.02378845214844, -418.7266845703125, 284.5876770019531, 76.46599578857422, 0.01600000075995922, 0.03200000151991844, 1.055999994277954, 0.0, 0.0, 0.0, 0.0, 0.0, 1.6216046476399913E9, 2021-05-21 15:44:07.639
22.0, -165.4176483154297, -378.86309814453125, 336.50872802734375, 113.92108917236328, 0.01600000075995922, 0.03200000151991844, 1.055999994277954, 0.0, 0.0, 0.0, 0.0, 0.0, 1.6216046476407297E9, 2021-05-21 15:44:07.640
22.0, -164.6995849609375, -367.9388427734375, 340.8058776855469, 120.39859771728516, 0.01600000075995922, 0.03200000151991844, 1.055999994277954, 0.0, 0.0, 0.0, 0.0, 0.0, 1.6216046476407297E9, 2021-05-21 15:44:07.640
23.0, -204.78009033203125, -420.7275390625, 288.84368896484375, 69.58084106445312, 0.01600000075995922, 0.03200000151991844, 1.055999994277954, 0.0, 0.0, 0.0, 0.0, 0.0, 1.6216046476713867E9, 2021-05-21 15:44:07.671
23.0, -199.82472229003906, -422.5750427246094, 286.34918212890625, 70.93842315673828, 0.01600000075995922, 0.03200000151991844, 1.055999994277954, 0.0, 0.0, 0.0, 0.0, 0.0, 1.6216046476713867E9, 2021-05-21 15:44:07.671
24.0, -164.18722534179688, -374.7865905761719, 339.07427978515625, 120.54071807861328, 0.01600000075995922, 0.03200000151991844, 1.055999994277954, 0.0, 0.0, 0.0, 0.0, 0.0, 1.621604647672104E9, 2021-05-21 15:44:07.672
24.0, -165.14089965820312, -369.49462890625, 347.6498718261719, 126.330078125, 0.01600000075995922, 0.03200000151991844, 1.055999994277954, 0.0, 0.0, 0.0, 0.0, 0.0, 1.621604647672104E9, 2021-05-21 15:44:07.672
25.0, -201.52264404296875, -409.54522705078125, 294.7377624511719, 76.30892181396484, 0.01600000075995922, 0.03200000151991844, 1.055999994277954, 0.0, 0.0, 0.0, 0.0, 0.0, 1.6216046476728525E9, 2021-05-21 15:44:07.672
25.0, -197.49102783203125, -412.41748046875, 295.3772888183594, 79.48783111572266, 0.01600000075995922, 0.03200000151991844, 1.055999994277954, 0.0, 0.0, 0.0, 0.0, 0.0, 1.6216046476728525E9, 2021-05-21 15:44:07.672
26.0, -167.05946350097656, -374.670654296875, 347.61248779296875, 120.36868286132812, 0.01600000075995922, 0.03200000151991844, 1.055999994277954, 0.0, 0.0, 0.0, 0.0, 0.0, 1.6216046476735852E9, 2021-05-21 15:44:07.673
26.0, -163.19239807128906, -371.2261962890625, 347.54888916015625, 128.18881225585938, 0.01600000075995922, 0.03200000151991844, 1.055999994277954, 0.0, 0.0, 0.0, 0.0, 0.0, 1.6216046476735852E9, 2021-05-21 15:44:07.673
27.0, -199.99676513671875, -417.39154052734375, 291.33447265625, 76.38745880126953, 0.01600000075995922, 0.03200000151991844, 1.055999994277954, 0.0, 0.0, 0.0, 0.0, 0.0, 1.621604647684378E9, 2021-05-21 15:44:07.684
27.0, -202.50997924804688, -419.0670166015625, 292.44146728515625, 77.54308319091797, 0.01600000075995922, 0.03200000151991844, 1.055999994277954, 0.0, 0.0, 0.0, 0.0, 0.0, 1.621604647684378E9, 2021-05-21 15:44:07.684
28.0, -165.7243194580078, -375.02593994140625, 335.74951171875, 123.62612915039062, 0.01600000075995922, 0.03200000151991844, 1.055999994277954, 0.0, 0.0, 0.0, 0.0, 0.0, 1.6216046476993997E9, 2021-05-21 15:44:07.699
28.0, -161.46083068847656, -371.9405212402344, 344.7065734863281, 128.85076904296875, 0.01600000075995922, 0.03200000151991844, 1.055999994277954, 0.0, 0.0, 0.0, 0.0, 0.0, 1.6216046476993997E9, 2021-05-21 15:44:07.699
29.0, -198.97203063964844, -418.3938293457031, 282.5830993652344, 80.42280578613281, 0.01600000075995922, 0.03200000151991844, 1.055999994277954, 0.0, 0.0, 0.0, 0.0, 0.0, 1.621604647715042E9, 2021-05-21 15:44:07.715
29.0, -195.83424377441406, -421.37078857421875, 285.2496643066406, 74.91767883300781, 0.01600000075995922, 0.03200000151991844, 1.055999994277954, 0.0, 0.0, 0.0, 0.0, 0.0, 1.621604647715042E9, 2021-05-21 15:44:07.715
30.0, -162.968017578125, -375.67669677734375, 336.32171630859375, 122.42936706542969, 0.01600000075995922, 0.03200000151991844, 1.055999994277954, 0.0, 0.0, 0.0, 0.0, 0.0, 1.6216046477158103E9, 2021-05-21 15:44:07.715
30.0, -158.23329162597656, -371.5702819824219, 339.2313537597656, 126.72277069091797, 0.01600000075995922, 0.03200000151991844, 1.055999994277954, 0.0, 0.0, 0.0, 0.0, 0.0, 1.6216046477158103E9, 2021-05-21 15:44:07.715
31.0, -196.93003845214844, -423.1995849609375, 288.353759765625, 75.73297119140625, 0.01600000075995922, 0.03200000151991844, 1.055999994277954, 0.0, 0.0, 0.0, 0.0, 0.0, 1.6216046477293408E9, 2021-05-21 15:44:07.729
31.0, -192.5019989013672, -421.7036437988281, 286.8615417480469, 74.18839263916016, 0.01600000075995922, 0.03200000151991844, 1.055999994277954, 0.0, 0.0, 0.0, 0.0, 0.0, 1.6216046477293408E9, 2021-05-21 15:44:07.729
32.0, -162.0255584716797, -376.22271728515625, 332.8772888183594, 117.33187866210938, 0.03200000151991844, 0.03200000151991844, 1.055999994277954, 0.0, 0.0, 0.0, 0.0, 0.0, 1.621604647745078E9, 2021-05-21 15:44:07.745
32.0, -158.06500244140625, -369.5021057128906, 337.96728515625, 125.8027572631836, 0.03200000151991844, 0.03200000151991844, 1.055999994277954, 0.0, 0.0, 0.0, 0.0, 0.0, 1.621604647745078E9, 2021-05-21 15:44:07.745
33.0, -196.279296875, -421.37078857421875, 288.4397888183594, 74.94385528564453, 0.03200000151991844, 0.03200000151991844, 1.055999994277954, 0.0, 0.0, 0.0, 0.0, 0.0, 1.6216046477456892E9, 2021-05-21 15:44:07.745
33.0, -197.37509155273438, -414.3622131347656, 287.74041748046875, 75.11962890625, 0.03200000151991844, 0.03200000151991844, 1.055999994277954, 0.0, 0.0, 0.0, 0.0, 0.0, 1.6216046477456892E9, 2021-05-21 15:44:07.745
34.0, -166.62562561035156, -374.5659484863281, 330.6856994628906, 118.24441528320312, 0.03200000151991844, 0.03200000151991844, 1.055999994277954, 0.0, 0.0, 0.0, 0.0, 0.0, 1.6216046477592852E9, 2021-05-21 15:44:07.759
34.0, -164.59860229492188, -368.0846862792969, 338.67413330078125, 123.00157165527344, 0.03200000151991844, 0.03200000151991844, 1.055999994277954, 0.0, 0.0, 0.0, 0.0, 0.0, 1.6216046477592852E9, 2021-05-21 15:44:07.759
35.0, -197.65557861328125, -413.48333740234375, 286.21453857421875, 80.34426879882812, 0.03200000151991844, 0.03200000151991844, 1.055999994277954, 0.0, 0.0, 0.0, 0.0, 0.0, 1.621604647774976E9, 2021-05-21 15:44:07.774
35.0, -193.6052703857422, -422.1150207519531, 290.3134765625, 73.25341796875, 0.03200000151991844, 0.03200000151991844, 1.055999994277954, 0.0, 0.0, 0.0, 0.0, 0.0, 1.621604647774976E9, 2021-05-21 15:44:07.774
36.0, -161.37855529785156, -377.10906982421875, 333.3036193847656, 121.7113037109375, 0.03200000151991844, 0.03200000151991844, 1.055999994277954, 0.0, 0.0, 0.0, 0.0, 0.0, 1.6216046477757092E9, 2021-05-21 15:44:07.775
36.0, -165.35406494140625, -371.94427490234375, 330.4276428222656, 125.6082763671875, 0.03200000151991844, 0.03200000151991844, 1.055999994277954, 0.0, 0.0, 0.0, 0.0, 0.0, 1.6216046477757092E9, 2021-05-21 15:44:07.775
37.0, -203.51600646972656, -420.8434753417969, 280.1820983886719, 75.0560531616211, 0.03200000151991844, 0.03200000151991844, 1.055999994277954, 0.0, 0.0, 0.0, 0.0, 0.0, 1.6216046477893753E9, 2021-05-21 15:44:07.789
37.0, -200.55026245117188, -420.51434326171875, 281.6032409667969, 74.71198272705078, 0.03200000151991844, 0.03200000151991844, 1.055999994277954, 0.0, 0.0, 0.0, 0.0, 0.0, 1.6216046477893753E9, 2021-05-21 15:44:07.789
38.0, -168.24874877929688, -380.3814697265625, 328.2510070800781, 117.20846557617188, 0.03200000151991844, 0.03200000151991844, 1.055999994277954, 0.0, 0.0, 0.0, 0.0, 0.0, 1.6216046478197932E9, 2021-05-21 15:44:07.819
38.0, -166.1880645751953, -374.65570068359375, 330.5884704589844, 124.22077941894531, 0.03200000151991844, 0.03200000151991844, 1.055999994277954, 0.0, 0.0, 0.0, 0.0, 0.0, 1.6216046478197932E9, 2021-05-21 15:44:07.819
39.0, -205.9132843017578, -421.2735595703125, 277.6800842285156, 71.67518615722656, 0.03200000151991844, 0.03200000151991844, 1.055999994277954, 0.0, 0.0, 0.0, 0.0, 0.0, 1.6216046478365948E9, 2021-05-21 15:44:07.836
39.0, -198.9121856689453, -419.9832763671875, 279.538818359375, 70.49337768554688, 0.03200000151991844, 0.03200000151991844, 1.055999994277954, 0.0, 0.0, 0.0, 0.0, 0.0, 1.6216046478365948E9, 2021-05-21 15:44:07.836
40.0, -162.05921936035156, -370.8335266113281, 330.3341369628906, 116.90179443359375, 0.03200000151991844, 0.03200000151991844, 1.055999994277954, 0.0, 0.0, 0.0, 0.0, 0.0, 1.62160464783715E9, 2021-05-21 15:44:07.837
40.0, -158.3529815673828, -368.0435485839844, 332.7688293457031, 125.95235443115234, 0.03200000151991844, 0.03200000151991844, 1.055999994277954, 0.0, 0.0, 0.0, 0.0, 0.0, 1.62160464783715E9, 2021-05-21 15:44:07.837
41.0, -198.22030639648438, -420.8060607910156, 284.55401611328125, 73.86676025390625, 0.03200000151991844, 0.03200000151991844, 1.055999994277954, 0.0, 0.0, 0.0, 0.0, 0.0, 1.6216046478378708E9, 2021-05-21 15:44:07.837
41.0, -196.03994750976562, -409.5377502441406, 286.992431640625, 73.2758560180664, 0.03200000151991844, 0.03200000151991844, 1.055999994277954, 0.0, 0.0, 0.0, 0.0, 0.0, 1.6216046478378708E9, 2021-05-21 15:44:07.837
42.0, -167.3661346435547, -373.90399169921875, 327.8545837402344, 118.2593765258789, 0.03200000151991844, 0.03200000151991844, 1.055999994277954, 0.0, 0.0, 0.0, 0.0, 0.0, 1.6216046478386002E9, 2021-05-21 15:44:07.838
42.0, -167.5867919921875, -363.7090148925781, 334.7734069824219, 128.57028198242188, 0.03200000151991844, 0.03200000151991844, 1.055999994277954, 0.0, 0.0, 0.0, 0.0, 0.0, 1.6216046478386002E9, 2021-05-21 15:44:07.838
43.0, -200.70359802246094, -413.2963562011719, 288.376220703125, 78.19757080078125, 0.03200000151991844, 0.03200000151991844, 1.055999994277954, 0.0, 0.0, 0.0, 0.0, 0.0, 1.621604647849381E9, 2021-05-21 15:44:07.849
43.0, -195.72579956054688, -413.9283752441406, 290.5303955078125, 81.34282684326172, 0.03200000151991844, 0.03200000151991844, 1.055999994277954, 0.0, 0.0, 0.0, 0.0, 0.0, 1.621604647849381E9, 2021-05-21 15:44:07.849
44.0, -157.50027465820312, -378.0103759765625, 335.36431884765625, 121.36723327636719, 0.03200000151991844, 0.03200000151991844, 1.055999994277954, 0.0, 0.0, 0.0, 0.0, 0.0, 1.6216046478650045E9, 2021-05-21 15:44:07.865
44.0, -154.28770446777344, -376.98565673828125, 336.1795959472656, 127.54180908203125, 0.03200000151991844, 0.03200000151991844, 1.055999994277954, 0.0, 0.0, 0.0, 0.0, 0.0, 1.6216046478650045E9, 2021-05-21 15:44:07.865
45.0, -195.16481018066406, -418.56585693359375, 283.64898681640625, 75.59833526611328, 0.03200000151991844, 0.03200000151991844, 1.055999994277954, 0.0, 0.0, 0.0, 0.0, 0.0, 1.621604647865724E9, 2021-05-21 15:44:07.865
45.0, -196.7430419921875, -418.1806640625, 289.3149108886719, 71.74250030517578, 0.03200000151991844, 0.03200000151991844, 1.055999994277954, 0.0, 0.0, 0.0, 0.0, 0.0, 1.621604647865724E9, 2021-05-21 15:44:07.865
46.0, -162.3322296142578, -374.9324645996094, 333.5915832519531, 114.8672866821289, 0.03200000151991844, 0.03200000151991844, 1.055999994277954, 0.0, 0.0, 0.0, 0.0, 0.0, 1.6216046478794396E9, 2021-05-21 15:44:07.879
46.0, -162.50051879882812, -373.6945495605469, 333.2138671875, 124.79672241210938, 0.03200000151991844, 0.03200000151991844, 1.055999994277954, 0.0, 0.0, 0.0, 0.0, 0.0, 1.6216046478794396E9, 2021-05-21 15:44:07.879
47.0, -195.38172912597656, -424.5384826660156, 279.38922119140625, 74.31929016113281, 0.03200000151991844, 0.03200000151991844, 1.055999994277954, 0.0, 0.0, 0.0, 0.0, 0.0, 1.6216046478954003E9, 2021-05-21 15:44:07.895
47.0, -201.17857360839844, -417.0885925292969, 278.3009033203125, 71.95941162109375, 0.03200000151991844, 0.03200000151991844, 1.055999994277954, 0.0, 0.0, 0.0, 0.0, 0.0, 1.6216046478954003E9, 2021-05-21 15:44:07.895
48.0, -164.7818603515625, -376.63409423828125, 327.5815734863281, 116.64373779296875, 0.03200000151991844, 0.03200000151991844, 1.055999994277954, 0.0, 0.0, 0.0, 0.0, 0.0, 1.621604647910002E9, 2021-05-21 15:44:07.910
48.0, -160.11447143554688, -371.2860412597656, 330.573486328125, 123.16238403320312, 0.03200000151991844, 0.03200000151991844, 1.055999994277954, 0.0, 0.0, 0.0, 0.0, 0.0, 1.621604647910002E9, 2021-05-21 15:44:07.910
49.0, -198.12307739257812, -418.49853515625, 279.7370300292969, 75.54598236083984, 0.03200000151991844, 0.03200000151991844, 1.055999994277954, 0.0, 0.0, 0.0, 0.0, 0.0, 1.6216046479107654E9, 2021-05-21 15:44:07.910
49.0, -195.57620239257812, -418.56585693359375, 277.837158203125, 71.70136260986328, 0.03200000151991844, 0.03200000151991844, 1.055999994277954, 0.0, 0.0, 0.0, 0.0, 0.0, 1.6216046479107654E9, 2021-05-21 15:44:07.910
50.0, -158.60728454589844, -367.4040222167969, 329.8703918457031, 118.9363021850586, 0.03200000151991844, 0.03200000151991844, 1.055999994277954, 0.0, 0.0, 0.0, 0.0, 0.0, 1.6216046479251127E9, 2021-05-21 15:44:07.925
50.0, -159.75543212890625, -359.4717102050781, 336.02252197265625, 122.18253326416016, 0.03200000151991844, 0.03200000151991844, 1.055999994277954, 0.0, 0.0, 0.0, 0.0, 0.0, 1.6216046479251127E9, 2021-05-21 15:44:07.925
51.0, -198.5232391357422, -413.1093444824219, 280.4700622558594, 70.19044494628906, 0.03200000151991844, 0.03200000151991844, 1.055999994277954, 0.0, 0.0, 0.0, 0.0, 0.0, 1.6216046479257562E9, 2021-05-21 15:44:07.925
51.0, -197.95103454589844, -412.47357177734375, 286.7381286621094, 74.17717742919922, 0.03200000151991844, 0.03200000151991844, 1.055999994277954, 0.0, 0.0, 0.0, 0.0, 0.0, 1.6216046479257562E9, 2021-05-21 15:44:07.925
52.0, -162.33596801757812, -371.3720703125, 330.09478759765625, 116.57642364501953, 0.01600000075995922, 0.03200000151991844, 1.055999994277954, 0.0, 0.0, 0.0, 0.0, 0.0, 1.6216046479394798E9, 2021-05-21 15:44:07.939
52.0, -162.32101440429688, -368.07720947265625, 339.1453552246094, 129.8605499267578, 0.01600000075995922, 0.03200000151991844, 1.055999994277954, 0.0, 0.0, 0.0, 0.0, 0.0, 1.6216046479394798E9, 2021-05-21 15:44:07.939
53.0, -197.87249755859375, -419.85986328125, 285.1187438964844, 77.07933807373047, 0.01600000075995922, 0.03200000151991844, 1.055999994277954, 0.0, 0.0, 0.0, 0.0, 0.0, 1.6216046479551024E9, 2021-05-21 15:44:07.955
53.0, -197.00857543945312, -423.6408996582031, 285.6909484863281, 74.56238555908203, 0.01600000075995922, 0.03200000151991844, 1.055999994277954, 0.0, 0.0, 0.0, 0.0, 0.0, 1.6216046479551024E9, 2021-05-21 15:44:07.955
54.0, -161.16537475585938, -378.7807922363281, 329.1897277832031, 113.4199447631836, 0.01600000075995922, 0.03200000151991844, 1.055999994277954, 0.0, 0.0, 0.0, 0.0, 0.0, 1.6216046479558415E9, 2021-05-21 15:44:07.955
54.0, -158.49508666992188, -374.62579345703125, 336.699462890625, 123.67101287841797, 0.01600000075995922, 0.03200000151991844, 1.055999994277954, 0.0, 0.0, 0.0, 0.0, 0.0, 1.6216046479558415E9, 2021-05-21 15:44:07.955
55.0, -195.48269653320312, -421.87567138671875, 284.9205322265625, 73.8929443359375, 0.01600000075995922, 0.03200000151991844, 1.055999994277954, 0.0, 0.0, 0.0, 0.0, 0.0, 1.621604647969334E9, 2021-05-21 15:44:07.969
55.0, -192.61419677734375, -424.01116943359375, 283.29742431640625, 73.02154541015625, 0.01600000075995922, 0.03200000151991844, 1.055999994277954, 0.0, 0.0, 0.0, 0.0, 0.0, 1.621604647969334E9, 2021-05-21 15:44:07.969
56.0, -159.71429443359375, -386.5672912597656, 326.523193359375, 113.82759857177734, 0.01600000075995922, 0.03200000151991844, 1.055999994277954, 0.0, 0.0, 0.0, 0.0, 0.0, 1.6216046479851117E9, 2021-05-21 15:44:07.985
56.0, -163.7234649658203, -376.723876953125, 332.17791748046875, 120.05826568603516, 0.01600000075995922, 0.03200000151991844, 1.055999994277954, 0.0, 0.0, 0.0, 0.0, 0.0, 1.6216046479851117E9, 2021-05-21 15:44:07.985
57.0, -201.00653076171875, -421.6961669921875, 279.87542724609375, 71.63404083251953, 0.01600000075995922, 0.03200000151991844, 1.055999994277954, 0.0, 0.0, 0.0, 0.0, 0.0, 1.6216046479858112E9, 2021-05-21 15:44:07.985
57.0, -194.7683868408203, -420.6676940917969, 281.3040466308594, 71.08053588867188, 0.01600000075995922, 0.03200000151991844, 1.055999994277954, 0.0, 0.0, 0.0, 0.0, 0.0, 1.6216046479858112E9, 2021-05-21 15:44:07.985
58.0, -159.63949584960938, -376.9220886230469, 330.00128173828125, 114.02954864501953, 0.01600000075995922, 0.03200000151991844, 1.055999994277954, 0.0, 0.0, 0.0, 0.0, 0.0, 1.621604647999324E9, 2021-05-21 15:44:07.999
58.0, -162.71743774414062, -371.1775817871094, 332.3873596191406, 116.78959655761719, 0.01600000075995922, 0.03200000151991844, 1.055999994277954, 0.0, 0.0, 0.0, 0.0, 0.0, 1.621604647999324E9, 2021-05-21 15:44:07.999
59.0, -199.69383239746094, -415.8095703125, 284.31842041015625, 69.91368865966797, 0.01600000075995922, 0.03200000151991844, 1.055999994277954, 0.0, 0.0, 0.0, 0.0, 0.0, 1.6216046480151105E9, 2021-05-21 15:44:08.015
59.0, -197.43492126464844, -413.37115478515625, 285.73956298828125, 69.57709503173828, 0.01600000075995922, 0.03200000151991844, 1.055999994277954, 0.0, 0.0, 0.0, 0.0, 0.0, 1.6216046480151105E9, 2021-05-21 15:44:08.015
60.0, -165.41390991210938, -367.8939514160156, 332.3873596191406, 115.99299621582031, 0.01600000075995922, 0.03200000151991844, 1.055999994277954, 0.0, 0.0, 0.0, 0.0, 0.0, 1.6216046480158305E9, 2021-05-21 15:44:08.015
60.0, -161.3448944091797, -364.07177734375, 343.6257629394531, 128.37954711914062, 0.01600000075995922, 0.03200000151991844, 1.055999994277954, 0.0, 0.0, 0.0, 0.0, 0.0, 1.6216046480158305E9, 2021-05-21 15:44:08.015
61.0, -195.00025939941406, -419.5644226074219, 296.0429992675781, 77.01950073242188, 0.01600000075995922, 0.03200000151991844, 1.055999994277954, 0.0, 0.0, 0.0, 0.0, 0.0, 1.6216046480294402E9, 2021-05-21 15:44:08.029
61.0, -198.54568481445312, -420.963134765625, 295.7812194824219, 72.70365142822266, 0.01600000075995922, 0.03200000151991844, 1.055999994277954, 0.0, 0.0, 0.0, 0.0, 0.0, 1.6216046480294402E9, 2021-05-21 15:44:08.029
62.0, -164.38543701171875, -381.35760498046875, 338.49835205078125, 118.41271209716797, 0.01600000075995922, 0.03200000151991844, 1.055999994277954, 0.0, 0.0, 0.0, 0.0, 0.0, 1.6216046480620885E9, 2021-05-21 15:44:08.062
62.0, -159.20941162109375, -370.71759033203125, 349.4076232910156, 128.7385711669922, 0.01600000075995922, 0.03200000151991844, 1.055999994277954, 0.0, 0.0, 0.0, 0.0, 0.0, 1.6216046480620885E9, 2021-05-21 15:44:08.062
63.0, -194.39065551757812, -421.4754943847656, 292.7855529785156, 76.80632781982422, 0.01600000075995922, 0.03200000151991844, 1.055999994277954, 0.0, 0.0, 0.0, 0.0, 0.0, 1.6216046480627775E9, 2021-05-21 15:44:08.062
63.0, -198.2240447998047, -426.9432373046875, 286.42022705078125, 72.51666259765625, 0.01600000075995922, 0.03200000151991844, 1.055999994277954, 0.0, 0.0, 0.0, 0.0, 0.0, 1.6216046480627775E9, 2021-05-21 15:44:08.062
64.0, -163.95159912109375, -378.47412109375, 334.3807067871094, 118.56978607177734, 0.01600000075995922, 0.03200000151991844, 1.055999994277954, 0.0, 0.0, 0.0, 0.0, 0.0, 1.6216046480635722E9, 2021-05-21 15:44:08.063
64.0, -156.3857879638672, -379.2894287109375, 338.49835205078125, 126.77886962890625, 0.01600000075995922, 0.03200000151991844, 1.055999994277954, 0.0, 0.0, 0.0, 0.0, 0.0, 1.6216046480635722E9, 2021-05-21 15:44:08.063
65.0, -198.9495849609375, -426.98065185546875, 286.7643127441406, 70.02588653564453, 0.01600000075995922, 0.03200000151991844, 1.055999994277954, 0.0, 0.0, 0.0, 0.0, 0.0, 1.6216046480642977E9, 2021-05-21 15:44:08.064
65.0, -195.54627990722656, -424.26171875, 283.89581298828125, 64.67408752441406, 0.01600000075995922, 0.03200000151991844, 1.055999994277954, 0.0, 0.0, 0.0, 0.0, 0.0, 1.6216046480642977E9, 2021-05-21 15:44:08.064
66.0, -162.6575927734375, -384.9067687988281, 332.7725524902344, 111.48641967773438, 0.01600000075995922, 0.03200000151991844, 1.055999994277954, 0.0, 0.0, 0.0, 0.0, 0.0, 1.6216046480743985E9, 2021-05-21 15:44:08.074
66.0, -158.65965270996094, -377.2773742675781, 333.03436279296875, 116.38568878173828, 0.01600000075995922, 0.03200000151991844, 1.055999994277954, 0.0, 0.0, 0.0, 0.0, 0.0, 1.6216046480743985E9, 2021-05-21 15:44:08.074
67.0, -198.2427520751953, -416.5911865234375, 286.0948791503906, 69.274169921875, 0.01600000075995922, 0.03200000151991844, 1.055999994277954, 0.0, 0.0, 0.0, 0.0, 0.0, 1.6216046480893333E9, 2021-05-21 15:44:08.089
67.0, -192.77127075195312, -416.2396545410156, 289.83477783203125, 71.34980773925781, 0.01600000075995922, 0.03200000151991844, 1.055999994277954, 0.0, 0.0, 0.0, 0.0, 0.0, 1.6216046480893333E9, 2021-05-21 15:44:08.089
68.0, -158.8990020751953, -377.722412109375, 338.82745361328125, 114.31752014160156, 0.01600000075995922, 0.03200000151991844, 1.055999994277954, 0.0, 0.0, 0.0, 0.0, 0.0, 1.621604648121544E9, 2021-05-21 15:44:08.121
68.0, -157.6162109375, -368.9523620605469, 336.5835266113281, 116.10145568847656, 0.01600000075995922, 0.03200000151991844, 1.055999994277954, 0.0, 0.0, 0.0, 0.0, 0.0, 1.621604648121544E9, 2021-05-21 15:44:08.121
69.0, -203.69178771972656, -417.97869873046875, 280.9412841796875, 66.77965545654297, 0.01600000075995922, 0.03200000151991844, 1.055999994277954, 0.0, 0.0, 0.0, 0.0, 0.0, 1.6216046481222897E9, 2021-05-21 15:44:08.122
69.0, -197.382568359375, -413.8274230957031, 283.7985534667969, 73.59748840332031, 0.01600000075995922, 0.03200000151991844, 1.055999994277954, 0.0, 0.0, 0.0, 0.0, 0.0, 1.6216046481222897E9, 2021-05-21 15:44:08.122
70.0, -164.6995849609375, -374.4649658203125, 336.40399169921875, 120.30136108398438, 0.01600000075995922, 0.03200000151991844, 1.055999994277954, 0.0, 0.0, 0.0, 0.0, 0.0, 1.621604648123042E9, 2021-05-21 15:44:08.123
70.0, -158.32305908203125, -373.45892333984375, 346.935546875, 130.21583557128906, 0.01600000075995922, 0.03200000151991844, 1.055999994277954, 0.0, 0.0, 0.0, 0.0, 0.0, 1.621604648123042E9, 2021-05-21 15:44:08.123
71.0, -197.2965545654297, -424.0448303222656, 296.675048828125, 79.62995147705078, 0.01600000075995922, 0.03200000151991844, 1.055999994277954, 0.0, 0.0, 0.0, 0.0, 0.0, 1.6216046481237211E9, 2021-05-21 15:44:08.123
71.0, -202.0050811767578, -423.4875793457031, 292.0936584472656, 77.23267364501953, 0.01600000075995922, 0.03200000151991844, 1.055999994277954, 0.0, 0.0, 0.0, 0.0, 0.0, 1.6216046481237211E9, 2021-05-21 15:44:08.123
72.0, -170.07382202148438, -384.58514404296875, 333.90576171875, 119.94981384277344, 0.03200000151991844, 0.03200000151991844, 1.055999994277954, 0.0, 0.0, 0.0, 0.0, 0.0, 1.6216046481342812E9, 2021-05-21 15:44:08.134
72.0, -169.80081176757812, -374.0535888671875, 337.21929931640625, 126.92472839355469, 0.03200000151991844, 0.03200000151991844, 1.055999994277954, 0.0, 0.0, 0.0, 0.0, 0.0, 1.6216046481342812E9, 2021-05-21 15:44:08.134
73.0, -203.6468963623047, -421.27728271484375, 290.70989990234375, 78.31350708007812, 0.03200000151991844, 0.03200000151991844, 1.055999994277954, 0.0, 0.0, 0.0, 0.0, 0.0, 1.6216046481494288E9, 2021-05-21 15:44:08.149
73.0, -201.91159057617188, -422.7395935058594, 287.91619873046875, 76.5220947265625, 0.03200000151991844, 0.03200000151991844, 1.055999994277954, 0.0, 0.0, 0.0, 0.0, 0.0, 1.6216046481494288E9, 2021-05-21 15:44:08.149
74.0, -171.7866973876953, -375.4747314453125, 332.5743408203125, 118.98865509033203, 0.03200000151991844, 0.03200000151991844, 1.055999994277954, 0.0, 0.0, 0.0, 0.0, 0.0, 1.6216046481656795E9, 2021-05-21 15:44:08.165
74.0, -162.92312622070312, -374.7117919921875, 341.44537353515625, 124.59850311279297, 0.03200000151991844, 0.03200000151991844, 1.055999994277954, 0.0, 0.0, 0.0, 0.0, 0.0, 1.6216046481656795E9, 2021-05-21 15:44:08.165
75.0, -198.97203063964844, -423.54742431640625, 290.98291015625, 75.48613739013672, 0.03200000151991844, 0.03200000151991844, 1.055999994277954, 0.0, 0.0, 0.0, 0.0, 0.0, 1.6216046481663911E9, 2021-05-21 15:44:08.166
75.0, -198.19412231445312, -423.7904968261719, 290.42193603515625, 72.4306411743164, 0.03200000151991844, 0.03200000151991844, 1.055999994277954, 0.0, 0.0, 0.0, 0.0, 0.0, 1.6216046481663911E9, 2021-05-21 15:44:08.166
76.0, -163.1699676513672, -373.0101318359375, 335.62237548828125, 115.5068130493164, 0.03200000151991844, 0.03200000151991844, 1.055999994277954, 0.0, 0.0, 0.0, 0.0, 0.0, 1.6216046481792753E9, 2021-05-21 15:44:08.179
76.0, -150.35333251953125, -370.6876525878906, 346.4905090332031, 122.59391784667969, 0.03200000151991844, 0.03200000151991844, 1.055999994277954, 0.0, 0.0, 0.0, 0.0, 0.0, 1.6216046481792753E9, 2021-05-21 15:44:08.179
