Sample Index, EXG Channel 0, EXG Channel 1, EXG Channel 2, EXG Channel 3, Accel Channel 0, Accel Channel 1, Accel Channel 2, Other, Other, Other, Other, Other, Timestamp, Timestamp (Formatted)
0.0, -221.23004150390625, -22.19443702697754, 236.41403198242188, -246.57534790039062, 0.0, 0.0, 0.0, 0.0, 0.0, 0.0, 0.0, 0.0, 1.6216121810728602E9, 2021-05-21 17:49:41.072
1.0, -235.6585693359375, -26.7496337890625, 220.8784942626953, -252.96682739257812, 0.0, 0.0, 0.0, 0.0, 0.0, 0.0, 0.0, 0.0, 1.6216121810862167E9, 2021-05-21 17:49:41.086
1.0, -230.2469482421875, -26.334505081176758, 220.10433959960938, -267.30560302734375, 0.0, 0.0, 0.0, 0.0, 0.0, 0.0, 0.0, 0.0, 1.6216121810862167E9, 2021-05-21 17:49:41.086
2.0, -217.2620086669922, -8.884132385253906, 229.48025512695312, -250.23670959472656, 0.01600000075995922, 0.0, 0.0, 0.0, 0.0, 0.0, 0.0, 0.0, 1.6216121811027367E9, 2021-05-21 17:49:41.102
2.0, -218.46250915527344, -4.803901672363281, 230.65084838867188, -235.30702209472656, 0.01600000075995922, 0.0, 0.0, 0.0, 0.0, 0.0, 0.0, 0.0, 1.6216121811027367E9, 2021-05-21 17:49:41.102
3.0, -236.42526245117188, -22.523548126220703, 207.65794372558594, -242.20339965820312, 0.01600000075995922, 0.0, 0.0, 0.0, 0.0, 0.0, 0.0, 0.0, 1.6216121811035056E9, 2021-05-21 17:49:41.103
3.0, -238.7215576171875, -25.025541305541992, 202.2687530517578, -238.2615509033203, 0.01600000075995922, 0.0, 0.0, 0.0, 0.0, 0.0, 0.0, 0.0, 1.6216121811035056E9, 2021-05-21 17:49:41.103
4.0, -220.56808471679688, -20.391803741455078, 214.99563598632812, -227.87583923339844, 0.01600000075995922, 0.0, 0.0, 0.0, 0.0, 0.0, 0.0, 0.0, 1.6216121811159627E9, 2021-05-21 17:49:41.115
4.0, -218.0735626220703, -16.883777618408203, 228.58642578125, -216.6710968017578, 0.01600000075995922, 0.0, 0.0, 0.0, 0.0, 0.0, 0.0, 0.0, 1.6216121811159627E9, 2021-05-21 17:49:41.115
5.0, -235.35189819335938, -33.32811737060547, 213.88861083984375, -224.1471710205078, 0.01600000075995922, 0.0, 0.0, 0.0, 0.0, 0.0, 0.0, 0.0, 1.62161218113162E9, 2021-05-21 17:49:41.131
5.0, -225.05221557617188, -35.373844146728516, 218.27926635742188, -229.5662841796875, 0.01600000075995922, 0.0, 0.0, 0.0, 0.0, 0.0, 0.0, 0.0, 1.62161218113162E9, 2021-05-21 17:49:41.131
6.0, -212.49363708496094, -30.88222312927246, 228.98284912109375, -223.75820922851562, 0.01600000075995922, 0.0, 0.0, 0.0, 0.0, 0.0, 0.0, 0.0, 1.621612181132384E9, 2021-05-21 17:49:41.132
6.0, -213.7951202392578, -20.201068878173828, 242.00518798828125, -225.0596923828125, 0.01600000075995922, 0.0, 0.0, 0.0, 0.0, 0.0, 0.0, 0.0, 1.621612181132384E9, 2021-05-21 17:49:41.132
7.0, -229.13992309570312, -38.58641815185547, 231.24549865722656, -229.11749267578125, 0.01600000075995922, 0.0, 0.0, 0.0, 0.0, 0.0, 0.0, 0.0, 1.6216121811459515E9, 2021-05-21 17:49:41.145
7.0, -223.34307861328125, -37.91697692871094, 232.906005859375, -238.35877990722656, 0.01600000075995922, 0.0, 0.0, 0.0, 0.0, 0.0, 0.0, 0.0, 1.6216121811459515E9, 2021-05-21 17:49:41.145
8.0, -204.68472290039062, -16.23677635192871, 244.81385803222656, -226.8436279296875, 0.01600000075995922, 0.0, 0.0, 0.0, 0.0, 0.0, 0.0, 0.0, 1.621612181161682E9, 2021-05-21 17:49:41.161
8.0, -215.93060302734375, -22.026140213012695, 248.0451202392578, -235.52767944335938, 0.01600000075995922, 0.0, 0.0, 0.0, 0.0, 0.0, 0.0, 0.0, 1.621612181161682E9, 2021-05-21 17:49:41.161
9.0, -228.17129516601562, -30.76254653930664, 230.54238891601562, -252.73121643066406, 0.01600000075995922, 0.0, 0.0, 0.0, 0.0, 0.0, 0.0, 0.0, 1.6216121811623516E9, 2021-05-21 17:49:41.162
9.0, -231.18565368652344, -31.129056930541992, 227.5280303955078, -258.0531005859375, 0.01600000075995922, 0.0, 0.0, 0.0, 0.0, 0.0, 0.0, 0.0, 1.6216121811623516E9, 2021-05-21 17:49:41.162
10.0, -210.89669799804688, -24.36357879638672, 237.2742156982422, -247.24478149414062, 0.01600000075995922, 0.0, 1.055999994277954, 0.0, 0.0, 0.0, 0.0, 0.0, 1.6216121811759183E9, 2021-05-21 17:49:41.175
10.0, -212.83770751953125, -17.489641189575195, 246.49307250976562, -251.48583984375, 0.01600000075995922, 0.0, 1.055999994277954, 0.0, 0.0, 0.0, 0.0, 0.0, 1.6216121811759183E9, 2021-05-21 17:49:41.175
11.0, -224.34912109375, -28.301692962646484, 228.73976135253906, -255.53240966796875, 0.01600000075995922, 0.0, 1.055999994277954, 0.0, 0.0, 0.0, 0.0, 0.0, 1.6216121811915805E9, 2021-05-21 17:49:41.191
11.0, -227.85714721679688, -33.574951171875, 216.04653930664062, -262.0959167480469, 0.01600000075995922, 0.0, 1.055999994277954, 0.0, 0.0, 0.0, 0.0, 0.0, 1.6216121811915805E9, 2021-05-21 17:49:41.191
12.0, -206.0423126220703, -11.692797660827637, 230.6583251953125, -249.0249786376953, 0.01600000075995922, 0.0, 1.055999994277954, 0.0, 0.0, 0.0, 0.0, 0.0, 1.6216121811923294E9, 2021-05-21 17:49:41.192
12.0, -216.05775451660156, -13.88063907623291, 230.8341064453125, -235.80068969726562, 0.01600000075995922, 0.0, 1.055999994277954, 0.0, 0.0, 0.0, 0.0, 0.0, 1.6216121811923294E9, 2021-05-21 17:49:41.192
13.0, -231.1183319091797, -26.420522689819336, 211.5063018798828, -245.65907287597656, 0.01600000075995922, 0.0, 1.055999994277954, 0.0, 0.0, 0.0, 0.0, 0.0, 1.621612181205973E9, 2021-05-21 17:49:41.205
13.0, -229.84677124023438, -27.217121124267578, 203.30470275878906, -245.58053588867188, 0.01600000075995922, 0.0, 1.055999994277954, 0.0, 0.0, 0.0, 0.0, 0.0, 1.621612181205973E9, 2021-05-21 17:49:41.205
14.0, -209.28106689453125, -27.770627975463867, 221.5890655517578, -228.18624877929688, 0.01600000075995922, 0.0, 1.055999994277954, 0.0, 0.0, 0.0, 0.0, 0.0, 1.6216121812216272E9, 2021-05-21 17:49:41.221
14.0, -213.72032165527344, -27.42281723022461, 230.68077087402344, -223.84048461914062, 0.01600000075995922, 0.0, 1.055999994277954, 0.0, 0.0, 0.0, 0.0, 0.0, 1.6216121812216272E9, 2021-05-21 17:49:41.221
15.0, -223.76943969726562, -36.66410827636719, 219.36009216308594, -237.33778381347656, 0.01600000075995922, 0.0, 1.055999994277954, 0.0, 0.0, 0.0, 0.0, 0.0, 1.621612181222318E9, 2021-05-21 17:49:41.222
15.0, -228.3732452392578, -37.232574462890625, 214.98814392089844, -239.1815643310547, 0.01600000075995922, 0.0, 1.055999994277954, 0.0, 0.0, 0.0, 0.0, 0.0, 1.621612181222318E9, 2021-05-21 17:49:41.222
16.0, -207.5270538330078, -33.20844268798828, 233.69512939453125, -224.18081665039062, 0.01600000075995922, 0.0, 1.055999994277954, 0.0, 0.0, 0.0, 0.0, 0.0, 1.6216121812358868E9, 2021-05-21 17:49:41.235
16.0, -206.52101135253906, -20.50400161743164, 247.24851989746094, -227.53176879882812, 0.01600000075995922, 0.0, 1.055999994277954, 0.0, 0.0, 0.0, 0.0, 0.0, 1.6216121812358868E9, 2021-05-21 17:49:41.235
17.0, -230.5386505126953, -27.037607192993164, 226.70152282714844, -241.48159790039062, 0.01600000075995922, 0.0, 1.055999994277954, 0.0, 0.0, 0.0, 0.0, 0.0, 1.6216121812515793E9, 2021-05-21 17:49:41.251
17.0, -225.46734619140625, -27.66217041015625, 231.70176696777344, -239.40969848632812, 0.01600000075995922, 0.0, 1.055999994277954, 0.0, 0.0, 0.0, 0.0, 0.0, 1.6216121812515793E9, 2021-05-21 17:49:41.251
18.0, -214.7749786376953, -13.476729393005371, 233.63528442382812, -238.0034942626953, 0.01600000075995922, 0.0, 1.055999994277954, 0.0, 0.0, 0.0, 0.0, 0.0, 1.6216121812523105E9, 2021-05-21 17:49:41.252
18.0, -219.12074279785156, -8.19973087310791, 245.64036560058594, -232.87608337402344, 0.01600000075995922, 0.0, 1.055999994277954, 0.0, 0.0, 0.0, 0.0, 0.0, 1.6216121812523105E9, 2021-05-21 17:49:41.252
19.0, -239.24513244628906, -22.23557472229004, 226.14427185058594, -246.4369659423828, 0.01600000075995922, 0.0, 1.055999994277954, 0.0, 0.0, 0.0, 0.0, 0.0, 1.621612181265866E9, 2021-05-21 17:49:41.265
19.0, -233.26878356933594, -31.660123825073242, 218.38023376464844, -250.86874389648438, 0.01600000075995922, 0.0, 1.055999994277954, 0.0, 0.0, 0.0, 0.0, 0.0, 1.621612181265866E9, 2021-05-21 17:49:41.265
20.0, -218.76170349121094, -25.885717391967773, 224.62213134765625, -247.10267639160156, 0.01600000075995922, 0.0, 1.055999994277954, 0.0, 0.0, 0.0, 0.0, 0.0, 1.621612181281577E9, 2021-05-21 17:49:41.281
20.0, -214.0531768798828, -15.642131805419922, 234.60018920898438, -253.7596893310547, 0.01600000075995922, 0.0, 1.055999994277954, 0.0, 0.0, 0.0, 0.0, 0.0, 1.621612181281577E9, 2021-05-21 17:49:41.281
21.0, -239.09555053710938, -42.63298797607422, 217.36672973632812, -274.30670166015625, 0.01600000075995922, 0.0, 1.055999994277954, 0.0, 0.0, 0.0, 0.0, 0.0, 1.621612181282308E9, 2021-05-21 17:49:41.282
21.0, -229.2521209716797, -30.829864501953125, 213.7539825439453, -265.6488342285156, 0.01600000075995922, 0.0, 1.055999994277954, 0.0, 0.0, 0.0, 0.0, 0.0, 1.621612181282308E9, 2021-05-21 17:49:41.282
22.0, -213.7951202392578, -25.73986053466797, 228.4069061279297, -246.8184356689453, 0.01600000075995922, 0.0, 1.055999994277954, 0.0, 0.0, 0.0, 0.0, 0.0, 1.6216121812958968E9, 2021-05-21 17:49:41.295
22.0, -210.67230224609375, -16.01238250732422, 234.8918914794922, -229.61489868164062, 0.01600000075995922, 0.0, 1.055999994277954, 0.0, 0.0, 0.0, 0.0, 0.0, 1.6216121812958968E9, 2021-05-21 17:49:41.295
23.0, -231.57460021972656, -33.915283203125, 217.51258850097656, -235.6735382080078, 0.01600000075995922, 0.0, 1.055999994277954, 0.0, 0.0, 0.0, 0.0, 0.0, 1.6216121813116868E9, 2021-05-21 17:49:41.311
23.0, -235.97647094726562, -43.88585662841797, 212.92745971679688, -233.23886108398438, 0.01600000075995922, 0.0, 1.055999994277954, 0.0, 0.0, 0.0, 0.0, 0.0, 1.6216121813116868E9, 2021-05-21 17:49:41.311
24.0, -219.2179718017578, -33.365516662597656, 229.12496948242188, -219.3526153564453, 0.01600000075995922, 0.0, 1.055999994277954, 0.0, 0.0, 0.0, 0.0, 0.0, 1.6216121813123517E9, 2021-05-21 17:49:41.312
24.0, -225.9946746826172, -25.55660629272461, 235.82687377929688, -218.33535766601562, 0.01600000075995922, 0.0, 1.055999994277954, 0.0, 0.0, 0.0, 0.0, 0.0, 1.6216121813123517E9, 2021-05-21 17:49:41.312
25.0, -239.23391723632812, -47.04233169555664, 220.4558868408203, -230.4900360107422, 0.01600000075995922, 0.0, 1.055999994277954, 0.0, 0.0, 0.0, 0.0, 0.0, 1.621612181325853E9, 2021-05-21 17:49:41.325
25.0, -234.91433715820312, -47.5958366394043, 215.71742248535156, -234.23367309570312, 0.01600000075995922, 0.0, 1.055999994277954, 0.0, 0.0, 0.0, 0.0, 0.0, 1.621612181325853E9, 2021-05-21 17:49:41.325
26.0, -220.93832397460938, -35.73661422729492, 224.6857147216797, -229.5101776123047, 0.01600000075995922, 0.0, 1.055999994277954, 0.0, 0.0, 0.0, 0.0, 0.0, 1.621612181341528E9, 2021-05-21 17:49:41.341
26.0, -230.50872802734375, -32.91672897338867, 233.2052001953125, -227.0156707763672, 0.01600000075995922, 0.0, 1.055999994277954, 0.0, 0.0, 0.0, 0.0, 0.0, 1.621612181341528E9, 2021-05-21 17:49:41.341
27.0, -248.32936096191406, -46.0512580871582, 211.43898010253906, -243.85269165039062, 0.01600000075995922, 0.0, 1.055999994277954, 0.0, 0.0, 0.0, 0.0, 0.0, 1.6216121813565824E9, 2021-05-21 17:49:41.356
27.0, -239.5106658935547, -45.75206756591797, 210.8256378173828, -255.92135620117188, 0.01600000075995922, 0.0, 1.055999994277954, 0.0, 0.0, 0.0, 0.0, 0.0, 1.6216121813565824E9, 2021-05-21 17:49:41.356
28.0, -211.0799560546875, -28.967395782470703, 223.5001678466797, -245.76377868652344, 0.01600000075995922, 0.0, 1.055999994277954, 0.0, 0.0, 0.0, 0.0, 0.0, 1.6216121813573241E9, 2021-05-21 17:49:41.357
28.0, -221.9293975830078, -25.93059539794922, 228.39569091796875, -251.9757537841797, 0.01600000075995922, 0.0, 1.055999994277954, 0.0, 0.0, 0.0, 0.0, 0.0, 1.6216121813573241E9, 2021-05-21 17:49:41.357
29.0, -242.69332885742188, -37.12037658691406, 209.13894653320312, -268.49114990234375, 0.01600000075995922, 0.0, 1.055999994277954, 0.0, 0.0, 0.0, 0.0, 0.0, 1.6216121813715527E9, 2021-05-21 17:49:41.371
29.0, -237.44998168945312, -40.56108474731445, 206.99598693847656, -269.126953125, 0.01600000075995922, 0.0, 1.055999994277954, 0.0, 0.0, 0.0, 0.0, 0.0, 1.6216121813715527E9, 2021-05-21 17:49:41.371
30.0, -215.71742248535156, -33.70958709716797, 217.35549926757812, -252.01315307617188, 0.01600000075995922, 0.0, 1.055999994277954, 0.0, 0.0, 0.0, 0.0, 0.0, 1.6216121813723035E9, 2021-05-21 17:49:41.372
30.0, -215.50051879882812, -30.055706024169922, 222.71104431152344, -253.1201629638672, 0.01600000075995922, 0.0, 1.055999994277954, 0.0, 0.0, 0.0, 0.0, 0.0, 1.6216121813723035E9, 2021-05-21 17:49:41.372
31.0, -236.31680297851562, -42.50583267211914, 209.8121337890625, -261.44891357421875, 0.01600000075995922, 0.0, 1.055999994277954, 0.0, 0.0, 0.0, 0.0, 0.0, 1.621612181385914E9, 2021-05-21 17:49:41.385
31.0, -229.03147888183594, -43.91951370239258, 207.29891967773438, -259.1488952636719, 0.01600000075995922, 0.0, 1.055999994277954, 0.0, 0.0, 0.0, 0.0, 0.0, 1.621612181385914E9, 2021-05-21 17:49:41.385
32.0, -209.31472778320312, -35.26164627075195, 226.90347290039062, -236.82916259765625, 0.01600000075995922, 0.0, 1.055999994277954, 0.0, 0.0, 0.0, 0.0, 0.0, 1.6216121814013574E9, 2021-05-21 17:49:41.401
32.0, -212.71429443359375, -36.742645263671875, 237.64447021484375, -225.3962860107422, 0.01600000075995922, 0.0, 1.055999994277954, 0.0, 0.0, 0.0, 0.0, 0.0, 1.6216121814013574E9, 2021-05-21 17:49:41.401
33.0, -228.51910400390625, -42.56193161010742, 223.70211791992188, -238.22789001464844, 0.01600000075995922, 0.0, 1.055999994277954, 0.0, 0.0, 0.0, 0.0, 0.0, 1.6216121814166336E9, 2021-05-21 17:49:41.416
33.0, -230.05995178222656, -47.24054718017578, 223.21966552734375, -232.1019287109375, 0.01600000075995922, 0.0, 1.055999994277954, 0.0, 0.0, 0.0, 0.0, 0.0, 1.6216121814166336E9, 2021-05-21 17:49:41.416
34.0, -214.60293579101562, -33.99382019042969, 230.3329620361328, -221.86209106445312, 0.01600000075995922, 0.0, 1.055999994277954, 0.0, 0.0, 0.0, 0.0, 0.0, 1.6216121814173574E9, 2021-05-21 17:49:41.417
34.0, -220.16790771484375, -30.740108489990234, 237.3153533935547, -223.56373596191406, 0.01600000075995922, 0.0, 1.055999994277954, 0.0, 0.0, 0.0, 0.0, 0.0, 1.6216121814173574E9, 2021-05-21 17:49:41.417
35.0, -243.05235290527344, -49.55180358886719, 216.75338745117188, -244.67173767089844, 0.01600000075995922, 0.0, 1.055999994277954, 0.0, 0.0, 0.0, 0.0, 0.0, 1.6216121814315844E9, 2021-05-21 17:49:41.431
35.0, -240.2324676513672, -48.960899353027344, 217.7743682861328, -248.680908203125, 0.01600000075995922, 0.0, 1.055999994277954, 0.0, 0.0, 0.0, 0.0, 0.0, 1.6216121814315844E9, 2021-05-21 17:49:41.431
36.0, -222.224853515625, -35.4523811340332, 231.74290466308594, -235.29580688476562, 0.01600000075995922, 0.0, 1.055999994277954, 0.0, 0.0, 0.0, 0.0, 0.0, 1.621612181432299E9, 2021-05-21 17:49:41.432
36.0, -230.00758361816406, -28.97487449645996, 236.45143127441406, -233.57545471191406, 0.01600000075995922, 0.0, 1.055999994277954, 0.0, 0.0, 0.0, 0.0, 0.0, 1.621612181432299E9, 2021-05-21 17:49:41.432
37.0, -246.29110717773438, -36.884761810302734, 223.26828002929688, -248.20594787597656, 0.01600000075995922, 0.0, 1.055999994277954, 0.0, 0.0, 0.0, 0.0, 0.0, 1.6216121814458797E9, 2021-05-21 17:49:41.445
37.0, -238.3251190185547, -37.14655685424805, 218.8701629638672, -249.41766357421875, 0.01600000075995922, 0.0, 1.055999994277954, 0.0, 0.0, 0.0, 0.0, 0.0, 1.6216121814458797E9, 2021-05-21 17:49:41.445
38.0, -224.2257080078125, -24.763748168945312, 222.49786376953125, -245.74508666992188, 0.01600000075995922, 0.0, 1.055999994277954, 0.0, 0.0, 0.0, 0.0, 0.0, 1.621612181461985E9, 2021-05-21 17:49:41.461
38.0, -228.3695068359375, -25.193836212158203, 226.90721130371094, -245.85728454589844, 0.01600000075995922, 0.0, 1.055999994277954, 0.0, 0.0, 0.0, 0.0, 0.0, 1.621612181461985E9, 2021-05-21 17:49:41.461
39.0, -244.7689666748047, -30.53815269470215, 207.635498046875, -259.4630432128906, 0.01600000075995922, 0.0, 1.055999994277954, 0.0, 0.0, 0.0, 0.0, 0.0, 1.621612181476683E9, 2021-05-21 17:49:41.476
39.0, -240.62890625, -37.44948959350586, 202.6389923095703, -262.76910400390625, 0.01600000075995922, 0.0, 1.055999994277954, 0.0, 0.0, 0.0, 0.0, 0.0, 1.621612181476683E9, 2021-05-21 17:49:41.476
40.0, -205.1970977783203, -30.755067825317383, 222.63250732421875, -250.39752197265625, 0.01600000075995922, 0.0, 1.055999994277954, 0.0, 0.0, 0.0, 0.0, 0.0, 1.6216121814773705E9, 2021-05-21 17:49:41.477
40.0, -210.1562042236328, -23.462263107299805, 228.25730895996094, -245.2102813720703, 0.01600000075995922, 0.0, 1.055999994277954, 0.0, 0.0, 0.0, 0.0, 0.0, 1.6216121814773705E9, 2021-05-21 17:49:41.477
41.0, -223.39544677734375, -41.754112243652344, 219.41244506835938, -256.62445068359375, 0.01600000075995922, 0.0, 1.055999994277954, 0.0, 0.0, 0.0, 0.0, 0.0, 1.621612181491584E9, 2021-05-21 17:49:41.491
41.0, -220.6204376220703, -43.59040451049805, 221.1365509033203, -254.9527130126953, 0.01600000075995922, 0.0, 1.055999994277954, 0.0, 0.0, 0.0, 0.0, 0.0, 1.621612181491584E9, 2021-05-21 17:49:41.491
42.0, -203.4468231201172, -31.551666259765625, 235.59500122070312, -240.59898376464844, 0.01600000075995922, 0.0, 1.055999994277954, 0.0, 0.0, 0.0, 0.0, 0.0, 1.6216121814923007E9, 2021-05-21 17:49:41.492
42.0, -210.7845001220703, -29.83131217956543, 241.97900390625, -232.5357666015625, 0.01600000075995922, 0.0, 1.055999994277954, 0.0, 0.0, 0.0, 0.0, 0.0, 1.6216121814923007E9, 2021-05-21 17:49:41.492
43.0, -227.71128845214844, -39.73830795288086, 233.94570922851562, -239.40969848632812, 0.01600000075995922, 0.0, 1.055999994277954, 0.0, 0.0, 0.0, 0.0, 0.0, 1.6216121815059109E9, 2021-05-21 17:49:41.505
43.0, -232.20664978027344, -37.02313995361328, 229.37554931640625, -230.93133544921875, 0.01600000075995922, 0.0, 1.055999994277954, 0.0, 0.0, 0.0, 0.0, 0.0, 1.6216121815059109E9, 2021-05-21 17:49:41.505
44.0, -218.94869995117188, -30.485794067382812, 238.41114807128906, -223.6310577392578, 0.01600000075995922, 0.0, 1.055999994277954, 0.0, 0.0, 0.0, 0.0, 0.0, 1.6216121815220568E9, 2021-05-21 17:49:41.522
44.0, -222.19866943359375, -24.995620727539062, 246.3546905517578, -218.6270751953125, 0.01600000075995922, 0.0, 1.055999994277954, 0.0, 0.0, 0.0, 0.0, 0.0, 1.6216121815220568E9, 2021-05-21 17:49:41.522
45.0, -242.39413452148438, -40.441410064697266, 231.1370391845703, -233.9232635498047, 0.01600000075995922, 0.0, 1.055999994277954, 0.0, 0.0, 0.0, 0.0, 0.0, 1.621612181536579E9, 2021-05-21 17:49:41.536
45.0, -235.75955200195312, -38.37324523925781, 224.62213134765625, -239.34237670898438, 0.01600000075995922, 0.0, 1.055999994277954, 0.0, 0.0, 0.0, 0.0, 0.0, 1.621612181536579E9, 2021-05-21 17:49:41.536
46.0, -231.9822540283203, -33.57121276855469, 227.59161376953125, -235.7894744873047, 0.01600000075995922, 0.0, 1.055999994277954, 0.0, 0.0, 0.0, 0.0, 0.0, 1.6216121815373063E9, 2021-05-21 17:49:41.537
46.0, -234.11773681640625, -24.202762603759766, 230.8789825439453, -235.1910858154297, 0.01600000075995922, 0.0, 1.055999994277954, 0.0, 0.0, 0.0, 0.0, 0.0, 1.6216121815373063E9, 2021-05-21 17:49:41.537
47.0, -248.92025756835938, -34.56602478027344, 214.5991973876953, -249.0661163330078, 0.01600000075995922, 0.0, 1.055999994277954, 0.0, 0.0, 0.0, 0.0, 0.0, 1.6216121815516117E9, 2021-05-21 17:49:41.551
47.0, -246.42201232910156, -34.895137786865234, 208.15908813476562, -255.51744079589844, 0.01600000075995922, 0.0, 1.055999994277954, 0.0, 0.0, 0.0, 0.0, 0.0, 1.6216121815516117E9, 2021-05-21 17:49:41.551
48.0, -230.86776733398438, -25.392051696777344, 217.7257537841797, -253.5427703857422, 0.01600000075995922, 0.0, 1.055999994277954, 0.0, 0.0, 0.0, 0.0, 0.0, 1.6216121815522964E9, 2021-05-21 17:49:41.552
48.0, -227.0568084716797, -25.029279708862305, 216.81695556640625, -252.14405822753906, 0.01600000075995922, 0.0, 1.055999994277954, 0.0, 0.0, 0.0, 0.0, 0.0, 1.6216121815522964E9, 2021-05-21 17:49:41.552
49.0, -245.27760314941406, -40.53864669799805, 204.04893493652344, -256.6693420410156, 0.01600000075995922, 0.0, 1.055999994277954, 0.0, 0.0, 0.0, 0.0, 0.0, 1.6216121815977287E9, 2021-05-21 17:49:41.597
49.0, -241.720947265625, -44.727333068847656, 201.01588439941406, -253.7222900390625, 0.01600000075995922, 0.0, 1.055999994277954, 0.0, 0.0, 0.0, 0.0, 0.0, 1.6216121815977287E9, 2021-05-21 17:49:41.597
50.0, -223.2421112060547, -23.166810989379883, 213.4959259033203, -242.14356994628906, 0.01600000075995922, 0.0, 1.055999994277954, 0.0, 0.0, 0.0, 0.0, 0.0, 1.6216121815984373E9, 2021-05-21 17:49:41.598
50.0, -216.9291534423828, -22.205656051635742, 230.3329620361328, -232.30763244628906, 0.01600000075995922, 0.0, 1.055999994277954, 0.0, 0.0, 0.0, 0.0, 0.0, 1.6216121815984373E9, 2021-05-21 17:49:41.598
51.0, -228.26104736328125, -27.84542465209961, 220.3960418701172, -236.1298065185547, 0.01600000075995922, 0.0, 1.055999994277954, 0.0, 0.0, 0.0, 0.0, 0.0, 1.6216121815991845E9, 2021-05-21 17:49:41.599
51.0, -223.5001678466797, -33.95268249511719, 221.6638641357422, -232.36746215820312, 0.01600000075995922, 0.0, 1.055999994277954, 0.0, 0.0, 0.0, 0.0, 0.0, 1.6216121815991845E9, 2021-05-21 17:49:41.599
52.0, -203.18128967285156, -22.676883697509766, 243.92001342773438, -218.3690185546875, 0.01600000075995922, 0.0, 1.055999994277954, 0.0, 0.0, 0.0, 0.0, 0.0, 1.6216121816123216E9, 2021-05-21 17:49:41.612
52.0, -208.85096740722656, -13.794620513916016, 247.59634399414062, -214.5505828857422, 0.01600000075995922, 0.0, 1.055999994277954, 0.0, 0.0, 0.0, 0.0, 0.0, 1.6216121816123216E9, 2021-05-21 17:49:41.612
53.0, -236.58981323242188, -42.042083740234375, 230.3740997314453, -226.6753387451172, 0.01600000075995922, 0.0, 1.055999994277954, 0.0, 0.0, 0.0, 0.0, 0.0, 1.6216121816130283E9, 2021-05-21 17:49:41.613
53.0, -235.1275177001953, -37.01192092895508, 228.76968383789062, -230.89393615722656, 0.01600000075995922, 0.0, 1.055999994277954, 0.0, 0.0, 0.0, 0.0, 0.0, 1.6216121816130283E9, 2021-05-21 17:49:41.613
54.0, -221.11410522460938, -27.70330810546875, 240.4082489013672, -220.54563903808594, 0.01600000075995922, 0.0, 1.055999994277954, 0.0, 0.0, 0.0, 0.0, 0.0, 1.6216121816137583E9, 2021-05-21 17:49:41.613
54.0, -223.59739685058594, -11.879792213439941, 247.68235778808594, -220.22775268554688, 0.01600000075995922, 0.0, 1.055999994277954, 0.0, 0.0, 0.0, 0.0, 0.0, 1.6216121816137583E9, 2021-05-21 17:49:41.613
55.0, -244.103271484375, -38.21242904663086, 228.5078887939453, -239.54432678222656, 0.01600000075995922, 0.0, 1.055999994277954, 0.0, 0.0, 0.0, 0.0, 0.0, 1.6216121816431377E9, 2021-05-21 17:49:41.643
55.0, -244.33888244628906, -35.66929626464844, 219.9322967529297, -252.1590118408203, 0.01600000075995922, 0.0, 1.055999994277954, 0.0, 0.0, 0.0, 0.0, 0.0, 1.6216121816431377E9, 2021-05-21 17:49:41.643
56.0, -226.83615112304688, -16.543447494506836, 231.802734375, -248.02642822265625, 0.01600000075995922, 0.0, 1.055999994277954, 0.0, 0.0, 0.0, 0.0, 0.0, 1.6216121816437392E9, 2021-05-21 17:49:41.643
56.0, -228.21243286132812, -13.693643569946289, 232.43104553222656, -243.78163146972656, 0.01600000075995922, 0.0, 1.055999994277954, 0.0, 0.0, 0.0, 0.0, 0.0, 1.6216121816437392E9, 2021-05-21 17:49:41.643
57.0, -246.6351776123047, -31.83589744567871, 209.26609802246094, -256.6917724609375, 0.01600000075995922, 0.0, 1.055999994277954, 0.0, 0.0, 0.0, 0.0, 0.0, 1.621612181644519E9, 2021-05-21 17:49:41.644
57.0, -243.82652282714844, -44.529117584228516, 201.6666259765625, -269.6243591308594, 0.01600000075995922, 0.0, 1.055999994277954, 0.0, 0.0, 0.0, 0.0, 0.0, 1.621612181644519E9, 2021-05-21 17:49:41.644
58.0, -221.12905883789062, -28.731781005859375, 214.49073791503906, -253.4642333984375, 0.01600000075995922, 0.0, 1.055999994277954, 0.0, 0.0, 0.0, 0.0, 0.0, 1.6216121816560023E9, 2021-05-21 17:49:41.656
58.0, -217.72201538085938, -26.667356491088867, 223.7469940185547, -246.0891571044922, 0.01600000075995922, 0.0, 1.055999994277954, 0.0, 0.0, 0.0, 0.0, 0.0, 1.6216121816560023E9, 2021-05-21 17:49:41.656
59.0, -236.64590454101562, -41.04353332519531, 206.35272216796875, -255.93630981445312, 0.01600000075995922, 0.0, 1.055999994277954, 0.0, 0.0, 0.0, 0.0, 0.0, 1.6216121816715672E9, 2021-05-21 17:49:41.671
59.0, -227.10916137695312, -44.398223876953125, 207.36248779296875, -243.6432647705078, 0.01600000075995922, 0.0, 1.055999994277954, 0.0, 0.0, 0.0, 0.0, 0.0, 1.6216121816715672E9, 2021-05-21 17:49:41.671
60.0, -212.306640625, -27.026386260986328, 221.5180206298828, -228.60511779785156, 0.01600000075995922, 0.0, 1.055999994277954, 0.0, 0.0, 0.0, 0.0, 0.0, 1.6216121816723468E9, 2021-05-21 17:49:41.672
60.0, -207.5270538330078, -15.500015258789062, 241.29833984375, -220.2763671875, 0.01600000075995922, 0.0, 1.055999994277954, 0.0, 0.0, 0.0, 0.0, 0.0, 1.6216121816723468E9, 2021-05-21 17:49:41.672
61.0, -231.27540588378906, -34.44260787963867, 230.4152374267578, -229.03895568847656, 0.01600000075995922, 0.0, 1.055999994277954, 0.0, 0.0, 0.0, 0.0, 0.0, 1.6216121817038336E9, 2021-05-21 17:49:41.703
61.0, -227.39340209960938, -41.585819244384766, 229.96644592285156, -233.94944763183594, 0.01600000075995922, 0.0, 1.055999994277954, 0.0, 0.0, 0.0, 0.0, 0.0, 1.6216121817038336E9, 2021-05-21 17:49:41.703
62.0, -212.31411743164062, -22.64696502685547, 244.95970153808594, -221.83590698242188, 0.01600000075995922, 0.0, 1.055999994277954, 0.0, 0.0, 0.0, 0.0, 0.0, 1.6216121817044075E9, 2021-05-21 17:49:41.704
62.0, -213.00599670410156, -21.07620620727539, 256.744140625, -220.58303833007812, 0.01600000075995922, 0.0, 1.055999994277954, 0.0, 0.0, 0.0, 0.0, 0.0, 1.6216121817044075E9, 2021-05-21 17:49:41.704
63.0, -234.34213256835938, -32.4006233215332, 242.58486938476562, -234.12147521972656, 0.01600000075995922, 0.0, 1.055999994277954, 0.0, 0.0, 0.0, 0.0, 0.0, 1.62161218170515E9, 2021-05-21 17:49:41.705
63.0, -234.1065216064453, -32.172489166259766, 237.62950134277344, -235.0714111328125, 0.01600000075995922, 0.0, 1.055999994277954, 0.0, 0.0, 0.0, 0.0, 0.0, 1.62161218170515E9, 2021-05-21 17:49:41.705
64.0, -216.81321716308594, -26.790773391723633, 252.97805786132812, -233.89707946777344, 0.01600000075995922, 0.0, 1.055999994277954, 0.0, 0.0, 0.0, 0.0, 0.0, 1.6216121817159567E9, 2021-05-21 17:49:41.715
64.0, -217.35549926757812, -15.945063591003418, 257.4547119140625, -237.0572967529297, 0.01600000075995922, 0.0, 1.055999994277954, 0.0, 0.0, 0.0, 0.0, 0.0, 1.6216121817159567E9, 2021-05-21 17:49:41.715
65.0, -244.21546936035156, -31.140277862548828, 230.2357177734375, -253.10894775390625, 0.01600000075995922, 0.0, 1.055999994277954, 0.0, 0.0, 0.0, 0.0, 0.0, 1.6216121817315805E9, 2021-05-21 17:49:41.731
65.0, -234.41319274902344, -26.244747161865234, 225.4037628173828, -258.10546875, 0.01600000075995922, 0.0, 1.055999994277954, 0.0, 0.0, 0.0, 0.0, 0.0, 1.6216121817315805E9, 2021-05-21 17:49:41.731
66.0, -216.06898498535156, -20.97148895263672, 234.4842529296875, -250.7490692138672, 0.01600000075995922, 0.0, 1.055999994277954, 0.0, 0.0, 0.0, 0.0, 0.0, 1.6216121817323384E9, 2021-05-21 17:49:41.732
66.0, -226.85110473632812, -16.63320541381836, 236.46640014648438, -249.9898681640625, 0.01600000075995922, 0.0, 1.055999994277954, 0.0, 0.0, 0.0, 0.0, 0.0, 1.6216121817323384E9, 2021-05-21 17:49:41.732
67.0, -237.2779541015625, -32.48290252685547, 218.8739013671875, -261.6695861816406, 0.01600000075995922, 0.0, 1.055999994277954, 0.0, 0.0, 0.0, 0.0, 0.0, 1.621612181762242E9, 2021-05-21 17:49:41.762
67.0, -236.40655517578125, -43.50438690185547, 209.4306640625, -263.2216491699219, 0.01600000075995922, 0.0, 1.055999994277954, 0.0, 0.0, 0.0, 0.0, 0.0, 1.621612181762242E9, 2021-05-21 17:49:41.762
68.0, -221.3759002685547, -24.789926528930664, 220.69149780273438, -246.1901397705078, 0.01600000075995922, 0.0, 1.055999994277954, 0.0, 0.0, 0.0, 0.0, 0.0, 1.6216121817629907E9, 2021-05-21 17:49:41.762
68.0, -219.8088836669922, -24.53187370300293, 229.42042541503906, -231.0472869873047, 0.01600000075995922, 0.0, 1.055999994277954, 0.0, 0.0, 0.0, 0.0, 0.0, 1.6216121817629907E9, 2021-05-21 17:49:41.762
69.0, -233.30992126464844, -39.15114212036133, 223.68714904785156, -231.32777404785156, 0.01600000075995922, 0.0, 1.055999994277954, 0.0, 0.0, 0.0, 0.0, 0.0, 1.6216121817637243E9, 2021-05-21 17:49:41.763
69.0, -229.79067993164062, -37.7000617980957, 226.00962829589844, -229.0464324951172, 0.01600000075995922, 0.0, 1.055999994277954, 0.0, 0.0, 0.0, 0.0, 0.0, 1.6216121817637243E9, 2021-05-21 17:49:41.763
70.0, -214.090576171875, -18.432096481323242, 241.42176818847656, -215.100341796875, 0.01600000075995922, 0.0, 1.055999994277954, 0.0, 0.0, 0.0, 0.0, 0.0, 1.621612181775921E9, 2021-05-21 17:49:41.775
70.0, -213.31640625, -11.348726272583008, 249.63084411621094, -219.3114776611328, 0.01600000075995922, 0.0, 1.055999994277954, 0.0, 0.0, 0.0, 0.0, 0.0, 1.621612181775921E9, 2021-05-21 17:49:41.775
71.0, -230.79296875, -41.15946960449219, 231.4287567138672, -233.52308654785156, 0.01600000075995922, 0.0, 1.055999994277954, 0.0, 0.0, 0.0, 0.0, 0.0, 1.621612181791588E9, 2021-05-21 17:49:41.791
71.0, -225.5384063720703, -46.14475631713867, 221.7573699951172, -232.53201293945312, 0.01600000075995922, 0.0, 1.055999994277954, 0.0, 0.0, 0.0, 0.0, 0.0, 1.621612181791588E9, 2021-05-21 17:49:41.791
72.0, -215.54539489746094, -22.089719772338867, 236.39907836914062, -225.82638549804688, 0.01600000075995922, 0.0, 1.055999994277954, 0.0, 0.0, 0.0, 0.0, 0.0, 1.6216121817923083E9, 2021-05-21 17:49:41.792
72.0, -219.8163604736328, -15.941323280334473, 244.43612670898438, -218.7878875732422, 0.01600000075995922, 0.0, 1.055999994277954, 0.0, 0.0, 0.0, 0.0, 0.0, 1.6216121817923083E9, 2021-05-21 17:49:41.792
73.0, -238.73277282714844, -34.738059997558594, 232.85739135742188, -237.71925354003906, 0.01600000075995922, 0.0, 1.055999994277954, 0.0, 0.0, 0.0, 0.0, 0.0, 1.6216121818059375E9, 2021-05-21 17:49:41.805
73.0, -234.24114990234375, -27.617290496826172, 232.5694122314453, -237.8688507080078, 0.01600000075995922, 0.0, 1.055999994277954, 0.0, 0.0, 0.0, 0.0, 0.0, 1.6216121818059375E9, 2021-05-21 17:49:41.805
74.0, -220.08937072753906, -12.825986862182617, 247.00917053222656, -233.19772338867188, 0.01600000075995922, 0.0, 1.055999994277954, 0.0, 0.0, 0.0, 0.0, 0.0, 1.6216121818216476E9, 2021-05-21 17:49:41.821
74.0, -215.30604553222656, -4.856260299682617, 253.22862243652344, -233.98684692382812, 0.01600000075995922, 0.0, 1.055999994277954, 0.0, 0.0, 0.0, 0.0, 0.0, 1.6216121818216476E9, 2021-05-21 17:49:41.821
75.0, -230.29556274414062, -23.342586517333984, 238.06333923339844, -244.58197021484375, 0.01600000075995922, 0.0, 1.055999994277954, 0.0, 0.0, 0.0, 0.0, 0.0, 1.6216121818222947E9, 2021-05-21 17:49:41.822
75.0, -235.35189819335938, -32.553958892822266, 225.2317352294922, -249.94125366210938, 0.01600000075995922, 0.0, 1.055999994277954, 0.0, 0.0, 0.0, 0.0, 0.0, 1.6216121818222947E9, 2021-05-21 17:49:41.822
76.0, -218.8365020751953, -21.951343536376953, 234.33839416503906, -241.6424102783203, 0.01600000075995922, 0.0, 1.055999994277954, 0.0, 0.0, 0.0, 0.0, 0.0, 1.6216121818358805E9, 2021-05-21 17:49:41.835
76.0, -219.65928649902344, -22.160778045654297, 231.78404235839844, -244.3052215576172, 0.01600000075995922, 0.0, 1.055999994277954, 0.0, 0.0, 0.0, 0.0, 0.0, 1.6216121818358805E9, 2021-05-21 17:49:41.835
77.0, -236.83663940429688, -47.37144088745117, 213.2042236328125, -263.4422912597656, 0.01600000075995922, 0.0, 1.055999994277954, 0.0, 0.0, 0.0, 0.0, 0.0, 1.6216121818515668E9, 2021-05-21 17:49:41.851
77.0, -232.3973846435547, -45.94280242919922, 208.1142120361328, -265.454345703125, 0.01600000075995922, 0.0, 1.055999994277954, 0.0, 0.0, 0.0, 0.0, 0.0, 1.6216121818515668E9, 2021-05-21 17:49:41.851
78.0, -213.78016662597656, -36.24898147583008, 222.3557586669922, -248.5013885498047, 0.01600000075995922, 0.0, 1.055999994277954, 0.0, 0.0, 0.0, 0.0, 0.0, 1.6216121818523157E9, 2021-05-21 17:49:41.852
78.0, -211.1996307373047, -39.45781326293945, 234.70489501953125, -237.7454376220703, 0.01600000075995922, 0.0, 1.055999994277954, 0.0, 0.0, 0.0, 0.0, 0.0, 1.6216121818523157E9, 2021-05-21 17:49:41.852
79.0, -227.85714721679688, -46.51500701904297, 225.96475219726562, -242.3978729248047, 0.01600000075995922, 0.0, 1.055999994277954, 0.0, 0.0, 0.0, 0.0, 0.0, 1.62161218188205E9, 2021-05-21 17:49:41.882
79.0, -226.11434936523438, -46.7730598449707, 218.68690490722656, -247.89552307128906, 0.01600000075995922, 0.0, 1.055999994277954, 0.0, 0.0, 0.0, 0.0, 0.0, 1.62161218188205E9, 2021-05-21 17:49:41.882
80.0, -204.76699829101562, -42.6180305480957, 237.26300048828125, -228.8070831298828, 0.01600000075995922, 0.0, 1.055999994277954, 0.0, 0.0, 0.0, 0.0, 0.0, 1.6216121818827972E9, 2021-05-21 17:49:41.882
80.0, -211.4464569091797, -35.77027130126953, 243.6245574951172, -234.11773681640625, 0.01600000075995922, 0.0, 1.055999994277954, 0.0, 0.0, 0.0, 0.0, 0.0, 1.6216121818827972E9, 2021-05-21 17:49:41.882
81.0, -226.3013458251953, -41.68305587768555, 234.947998046875, -242.2407989501953, 0.01600000075995922, 0.0, 1.055999994277954, 0.0, 0.0, 0.0, 0.0, 0.0, 1.6216121818965838E9, 2021-05-21 17:49:41.896
81.0, -223.245849609375, -42.12062454223633, 229.6036834716797, -242.412841796875, 0.01600000075995922, 0.0, 1.055999994277954, 0.0, 0.0, 0.0, 0.0, 0.0, 1.6216121818965838E9, 2021-05-21 17:49:41.896
82.0, -211.7643585205078, -25.63514518737793, 243.8078155517578, -230.84532165527344, 0.01600000075995922, 0.0, 1.055999994277954, 0.0, 0.0, 0.0, 0.0, 0.0, 1.6216121818972993E9, 2021-05-21 17:49:41.897
82.0, -220.62417602539062, -22.57590675354004, 250.2516632080078, -227.83470153808594, 0.01600000075995922, 0.0, 1.055999994277954, 0.0, 0.0, 0.0, 0.0, 0.0, 1.6216121818972993E9, 2021-05-21 17:49:41.897
83.0, -233.62033081054688, -24.55431365966797, 238.33261108398438, -243.6395263671875, 0.01600000075995922, 0.0, 1.055999994277954, 0.0, 0.0, 0.0, 0.0, 0.0, 1.621612181927958E9, 2021-05-21 17:49:41.927
83.0, -234.5702667236328, -29.992128372192383, 225.18312072753906, -254.5226287841797, 0.01600000075995922, 0.0, 1.055999994277954, 0.0, 0.0, 0.0, 0.0, 0.0, 1.621612181927958E9, 2021-05-21 17:49:41.927
84.0, -216.89923095703125, -18.435836791992188, 244.8213348388672, -237.5360107421875, 0.01600000075995922, 0.0, 1.055999994277954, 0.0, 0.0, 0.0, 0.0, 0.0, 1.6216121819286685E9, 2021-05-21 17:49:41.928
84.0, -225.08213806152344, -17.194190979003906, 240.32223510742188, -246.76234436035156, 0.01600000075995922, 0.0, 1.055999994277954, 0.0, 0.0, 0.0, 0.0, 0.0, 1.6216121819286685E9, 2021-05-21 17:49:41.928
85.0, -241.814453125, -29.146909713745117, 224.8577423095703, -257.3761901855469, 0.01600000075995922, 0.0, 1.055999994277954, 0.0, 0.0, 0.0, 0.0, 0.0, 1.6216121819294324E9, 2021-05-21 17:49:41.929
85.0, -244.71661376953125, -34.644561767578125, 217.42282104492188, -258.8945617675781, 0.01600000075995922, 0.0, 1.055999994277954, 0.0, 0.0, 0.0, 0.0, 0.0, 1.6216121819294324E9, 2021-05-21 17:49:41.929
86.0, -226.3761444091797, -27.983800888061523, 219.66676330566406, -250.61444091796875, 0.01600000075995922, 0.0, 1.055999994277954, 0.0, 0.0, 0.0, 0.0, 0.0, 1.6216121819301856E9, 2021-05-21 17:49:41.930
86.0, -226.5107879638672, -23.510881423950195, 220.84109497070312, -237.7005615234375, 0.01600000075995922, 0.0, 1.055999994277954, 0.0, 0.0, 0.0, 0.0, 0.0, 1.6216121819301856E9, 2021-05-21 17:49:41.930
87.0, -247.94041442871094, -40.41522979736328, 204.2509002685547, -248.79310607910156, 0.01600000075995922, 0.0, 1.055999994277954, 0.0, 0.0, 0.0, 0.0, 0.0, 1.6216121819408507E9, 2021-05-21 17:49:41.940
87.0, -238.09698486328125, -44.02423095703125, 205.71693420410156, -242.20339965820312, 0.01600000075995922, 0.0, 1.055999994277954, 0.0, 0.0, 0.0, 0.0, 0.0, 1.6216121819408507E9, 2021-05-21 17:49:41.940
88.0, -218.1483612060547, -36.09190368652344, 217.28445434570312, -231.82518005371094, 0.01600000075995922, 0.0, 1.055999994277954, 0.0, 0.0, 0.0, 0.0, 0.0, 1.6216121819558928E9, 2021-05-21 17:49:41.955
88.0, -229.2633514404297, -27.594852447509766, 226.79127502441406, -231.0098876953125, 0.01600000075995922, 0.0, 1.055999994277954, 0.0, 0.0, 0.0, 0.0, 0.0, 1.6216121819558928E9, 2021-05-21 17:49:41.955
89.0, -230.26564025878906, -39.31943893432617, 228.163818359375, -227.47193908691406, 0.01600000075995922, 0.0, 1.055999994277954, 0.0, 0.0, 0.0, 0.0, 0.0, 1.6216121819715905E9, 2021-05-21 17:49:41.971
89.0, -230.0150604248047, -46.066219329833984, 219.7153778076172, -226.3387451171875, 0.01600000075995922, 0.0, 1.055999994277954, 0.0, 0.0, 0.0, 0.0, 0.0, 1.6216121819715905E9, 2021-05-21 17:49:41.971
90.0, -213.82504272460938, -38.8444709777832, 233.3361053466797, -221.98550415039062, 0.01600000075995922, 0.0, 1.055999994277954, 0.0, 0.0, 0.0, 0.0, 0.0, 1.6216121819723425E9, 2021-05-21 17:49:41.972
90.0, -219.70790100097656, -29.66675567626953, 243.53106689453125, -227.19143676757812, 0.01600000075995922, 0.0, 1.055999994277954, 0.0, 0.0, 0.0, 0.0, 0.0, 1.6216121819723425E9, 2021-05-21 17:49:41.972
91.0, -240.2511749267578, -39.06886672973633, 221.77232360839844, -239.19277954101562, 0.01600000075995922, 0.0, 1.055999994277954, 0.0, 0.0, 0.0, 0.0, 0.0, 1.621612181985852E9, 2021-05-21 17:49:41.985
91.0, -226.8997344970703, -48.792606353759766, 224.02748107910156, -239.79490661621094, 0.01600000075995922, 0.0, 1.055999994277954, 0.0, 0.0, 0.0, 0.0, 0.0, 1.621612181985852E9, 2021-05-21 17:49:41.985
92.0, -208.98561096191406, -37.68136215209961, 234.8133544921875, -235.81565856933594, 0.01600000075995922, 0.0, 1.055999994277954, 0.0, 0.0, 0.0, 0.0, 0.0, 1.621612182001588E9, 2021-05-21 17:49:42.001
92.0, -213.07705688476562, -28.574705123901367, 238.82252502441406, -236.57110595703125, 0.01600000075995922, 0.0, 1.055999994277954, 0.0, 0.0, 0.0, 0.0, 0.0, 1.621612182001588E9, 2021-05-21 17:49:42.001
93.0, -238.35877990722656, -40.381568908691406, 220.9944305419922, -249.1446533203125, 0.01600000075995922, 0.0, 1.055999994277954, 0.0, 0.0, 0.0, 0.0, 0.0, 1.6216121820023644E9, 2021-05-21 17:49:42.002
93.0, -232.84991455078125, -37.07175827026367, 215.01058959960938, -249.29425048828125, 0.01600000075995922, 0.0, 1.055999994277954, 0.0, 0.0, 0.0, 0.0, 0.0, 1.6216121820023644E9, 2021-05-21 17:49:42.002
94.0, -217.7257537841797, -25.608964920043945, 224.94375610351562, -244.45481872558594, 0.01600000075995922, 0.0, 1.055999994277954, 0.0, 0.0, 0.0, 0.0, 0.0, 1.6216121820159233E9, 2021-05-21 17:49:42.015
94.0, -223.1598358154297, -23.312665939331055, 229.5513153076172, -249.5635223388672, 0.01600000075995922, 0.0, 1.055999994277954, 0.0, 0.0, 0.0, 0.0, 0.0, 1.6216121820159233E9, 2021-05-21 17:49:42.015
95.0, -234.96669006347656, -29.419923782348633, 221.28614807128906, -249.30172729492188, 0.01600000075995922, 0.0, 1.055999994277954, 0.0, 0.0, 0.0, 0.0, 0.0, 1.6216121820316274E9, 2021-05-21 17:49:42.031
95.0, -231.62322998046875, -37.97307586669922, 217.19468688964844, -246.1302947998047, 0.01600000075995922, 0.0, 1.055999994277954, 0.0, 0.0, 0.0, 0.0, 0.0, 1.6216121820316274E9, 2021-05-21 17:49:42.031
96.0, -215.42572021484375, -21.01262855529785, 233.2052001953125, -230.6620635986328, 0.01600000075995922, 0.0, 1.055999994277954, 0.0, 0.0, 0.0, 0.0, 0.0, 1.6216121820322976E9, 2021-05-21 17:49:42.032
96.0, -216.06149291992188, -27.284440994262695, 238.0034942626953, -226.3798828125, 0.01600000075995922, 0.0, 1.055999994277954, 0.0, 0.0, 0.0, 0.0, 0.0, 1.6216121820322976E9, 2021-05-21 17:49:42.032
97.0, -233.5417938232422, -44.07659149169922, 226.9221649169922, -227.88706970214844, 0.01600000075995922, 0.0, 1.055999994277954, 0.0, 0.0, 0.0, 0.0, 0.0, 1.6216121820460708E9, 2021-05-21 17:49:42.046
97.0, -226.43223571777344, -50.33344268798828, 216.85435485839844, -236.66461181640625, 0.01600000075995922, 0.0, 1.055999994277954, 0.0, 0.0, 0.0, 0.0, 0.0, 1.6216121820460708E9, 2021-05-21 17:49:42.046
98.0, -211.4090576171875, -35.99840545654297, 226.5182647705078, -224.9736785888672, 0.01600000075995922, 0.0, 1.055999994277954, 0.0, 0.0, 0.0, 0.0, 0.0, 1.6216121820616572E9, 2021-05-21 17:49:42.061
98.0, -216.7646026611328, -24.55431365966797, 234.88067626953125, -227.69259643554688, 0.01600000075995922, 0.0, 1.055999994277954, 0.0, 0.0, 0.0, 0.0, 0.0, 1.6216121820616572E9, 2021-05-21 17:49:42.061
99.0, -235.60621643066406, -44.69367599487305, 218.42510986328125, -241.1786651611328, 0.01600000075995922, 0.0, 1.055999994277954, 0.0, 0.0, 0.0, 0.0, 0.0, 1.6216121820622985E9, 2021-05-21 17:49:42.062
99.0, -238.51585388183594, -34.48000717163086, 220.54937744140625, -237.56967163085938, 0.01600000075995922, 0.0, 1.055999994277954, 0.0, 0.0, 0.0, 0.0, 0.0, 1.6216121820622985E9, 2021-05-21 17:49:42.062
100.0, -225.4785614013672, -22.523548126220703, 231.75038146972656, -230.36288452148438, 0.01600000075995922, 0.0, 1.055999994277954, 0.0, 0.0, 0.0, 0.0, 0.0, 1.6216121820773914E9, 2021-05-21 17:49:42.077
100.0, -231.52598571777344, -23.1406307220459, 231.4362335205078, -232.9957733154297, 0.01600000075995922, 0.0, 1.055999994277954, 0.0, 0.0, 0.0, 0.0, 0.0, 1.6216121820773914E9, 2021-05-21 17:49:42.077
0.0, -245.0831298828125, -25.54912567138672, 217.42843627929688, -241.67420959472656, 0.01600000075995922, 0.0, 1.055999994277954, 0.0, 0.0, 0.0, 0.0, 0.0, 1.621612182077963E9, 2021-05-21 17:49:42.077
1.0, -238.4186248779297, -26.70101547241211, 217.36485290527344, -246.1246795654297, 0.01600000075995922, 0.0, 1.055999994277954, 0.0, 0.0, 0.0, 0.0, 0.0, 1.621612182090882E9, 2021-05-21 17:49:42.090
1.0, -220.73263549804688, -8.446563720703125, 230.529296875, -229.7252197265625, 0.01600000075995922, 0.0, 1.055999994277954, 0.0, 0.0, 0.0, 0.0, 0.0, 1.621612182090882E9, 2021-05-21 17:49:42.090
2.0, -224.44635009765625, -17.46720314025879, 235.64923095703125, -232.89666748046875, 0.01600000075995922, 0.0, 1.055999994277954, 0.0, 0.0, 0.0, 0.0, 0.0, 1.6216121821063852E9, 2021-05-21 17:49:42.106
2.0, -247.04283142089844, -22.73672103881836, 225.21116638183594, -245.44776916503906, 0.01600000075995922, 0.0, 1.055999994277954, 0.0, 0.0, 0.0, 0.0, 0.0, 1.6216121821063852E9, 2021-05-21 17:49:42.106
3.0, -238.2166748046875, -25.859539031982422, 223.7114715576172, -249.04928588867188, 0.01600000075995922, 0.0, 1.055999994277954, 0.0, 0.0, 0.0, 0.0, 0.0, 1.6216121821215985E9, 2021-05-21 17:49:42.121
3.0, -229.4466094970703, -12.164024353027344, 238.18861389160156, -240.0361328125, 0.01600000075995922, 0.0, 1.055999994277954, 0.0, 0.0, 0.0, 0.0, 0.0, 1.6216121821215985E9, 2021-05-21 17:49:42.121
4.0, -229.00155639648438, -10.234235763549805, 240.08474731445312, -238.8954620361328, 0.01600000075995922, 0.0, 1.055999994277954, 0.0, 0.0, 0.0, 0.0, 0.0, 1.621612182122285E9, 2021-05-21 17:49:42.122
4.0, -246.72120666503906, -23.017213821411133, 224.95310974121094, -247.4523468017578, 0.01600000075995922, 0.0, 1.055999994277954, 0.0, 0.0, 0.0, 0.0, 0.0, 1.621612182122285E9, 2021-05-21 17:49:42.122
5.0, -238.35877990722656, -28.997314453125, 218.72618103027344, -249.0305938720703, 0.01600000075995922, 0.0, 1.055999994277954, 0.0, 0.0, 0.0, 0.0, 0.0, 1.6216121821372142E9, 2021-05-21 17:49:42.137
5.0, -219.4274139404297, -17.676637649536133, 231.2585906982422, -235.55946350097656, 0.01600000075995922, 0.0, 1.055999994277954, 0.0, 0.0, 0.0, 0.0, 0.0, 1.6216121821372142E9, 2021-05-21 17:49:42.137
6.0, -222.30712890625, -14.542600631713867, 235.85865783691406, -220.9476776123047, 0.01600000075995922, 0.0, 1.055999994277954, 0.0, 0.0, 0.0, 0.0, 0.0, 1.6216121821379588E9, 2021-05-21 17:49:42.137
6.0, -247.29714965820312, -35.15692901611328, 220.6597137451172, -235.57443237304688, 0.01600000075995922, 0.0, 1.055999994277954, 0.0, 0.0, 0.0, 0.0, 0.0, 1.6216121821379588E9, 2021-05-21 17:49:42.137
7.0, -239.30123901367188, -29.707895278930664, 218.16519165039062, -228.48358154296875, 0.01600000075995922, 0.0, 1.055999994277954, 0.0, 0.0, 0.0, 0.0, 0.0, 1.6216121821663156E9, 2021-05-21 17:49:42.166
7.0, -227.93942260742188, -28.944955825805664, 229.37367248535156, -222.66429138183594, 0.01600000075995922, 0.0, 1.055999994277954, 0.0, 0.0, 0.0, 0.0, 0.0, 1.6216121821663156E9, 2021-05-21 17:49:42.166
8.0, -225.88247680664062, -16.80150032043457, 241.96591186523438, -215.0199432373047, 0.01600000075995922, 0.0, 1.055999994277954, 0.0, 0.0, 0.0, 0.0, 0.0, 1.6216121821833978E9, 2021-05-21 17:49:42.183
8.0, -248.60984802246094, -34.73432159423828, 217.41346740722656, -236.36729431152344, 0.01600000075995922, 0.0, 1.055999994277954, 0.0, 0.0, 0.0, 0.0, 0.0, 1.6216121821833978E9, 2021-05-21 17:49:42.183
9.0, -241.3507080078125, -34.3491096496582, 210.46473693847656, -240.7841033935547, 0.01600000075995922, 0.0, 1.055999994277954, 0.0, 0.0, 0.0, 0.0, 0.0, 1.6216121821840718E9, 2021-05-21 17:49:42.184
9.0, -222.67364501953125, -19.262353897094727, 224.43701171875, -238.48780822753906, 0.01600000075995922, 0.0, 1.055999994277954, 0.0, 0.0, 0.0, 0.0, 0.0, 1.6216121821840718E9, 2021-05-21 17:49:42.184
10.0, -225.90866088867188, -23.013473510742188, 222.57827758789062, -237.00680541992188, 0.01600000075995922, 0.0, 1.055999994277954, 0.0, 0.0, 0.0, 0.0, 0.0, 1.6216121821849017E9, 2021-05-21 17:49:42.184
10.0, -238.2877197265625, -37.69258117675781, 211.35108947753906, -247.60568237304688, 0.01600000075995922, 0.0, 1.055999994277954, 0.0, 0.0, 0.0, 0.0, 0.0, 1.6216121821849017E9, 2021-05-21 17:49:42.184
11.0, -228.328369140625, -28.06608009338379, 212.9555206298828, -247.73658752441406, 0.01600000075995922, 0.0, 1.055999994277954, 0.0, 0.0, 0.0, 0.0, 0.0, 1.6216121821965387E9, 2021-05-21 17:49:42.196
11.0, -213.36129760742188, -23.282747268676758, 228.19186401367188, -240.39141845703125, 0.01600000075995922, 0.0, 1.055999994277954, 0.0, 0.0, 0.0, 0.0, 0.0, 1.6216121821965387E9, 2021-05-21 17:49:42.196
12.0, -211.98501586914062, -11.079453468322754, 236.92079162597656, -228.15072631835938, 0.01600000075995922, 0.0, 1.055999994277954, 0.0, 0.0, 0.0, 0.0, 0.0, 1.621612182197322E9, 2021-05-21 17:49:42.197
12.0, -227.32981872558594, -24.70016860961914, 226.65850830078125, -239.3966064453125, 0.01600000075995922, 0.0, 1.055999994277954, 0.0, 0.0, 0.0, 0.0, 0.0, 1.621612182197322E9, 2021-05-21 17:49:42.197
13.0, -225.00360107421875, -27.213382720947266, 227.1895751953125, -245.51133728027344, 0.01600000075995922, 0.0, 1.055999994277954, 0.0, 0.0, 0.0, 0.0, 0.0, 1.6216121822108705E9, 2021-05-21 17:49:42.210
13.0, -205.9039306640625, -13.719822883605957, 242.1080322265625, -225.2298583984375, 0.01600000075995922, 0.0, 1.055999994277954, 0.0, 0.0, 0.0, 0.0, 0.0, 1.6216121822108705E9, 2021-05-21 17:49:42.210
14.0, -204.583740234375, -22.87135887145996, 247.59820556640625, -231.1650848388672, 0.01600000075995922, 0.0, 1.055999994277954, 0.0, 0.0, 0.0, 0.0, 0.0, 1.6216121822269993E9, 2021-05-21 17:49:42.226
14.0, -223.245849609375, -38.21616744995117, 231.18003845214844, -237.2461700439453, 0.01600000075995922, 0.0, 1.055999994277954, 0.0, 0.0, 0.0, 0.0, 0.0, 1.6216121822269993E9, 2021-05-21 17:49:42.226
15.0, -220.42222595214844, -36.271419525146484, 231.6737060546875, -229.92718505859375, 0.01600000075995922, 0.0, 1.055999994277954, 0.0, 0.0, 0.0, 0.0, 0.0, 1.621612182241558E9, 2021-05-21 17:49:42.241
15.0, -212.20565795898438, -35.53839874267578, 239.097412109375, -226.1723175048828, 0.01600000075995922, 0.0, 1.055999994277954, 0.0, 0.0, 0.0, 0.0, 0.0, 1.621612182241558E9, 2021-05-21 17:49:42.241
16.0, -211.97752380371094, -21.057506561279297, 250.42930603027344, -217.9407958984375, 0.01600000075995922, 0.0, 1.055999994277954, 0.0, 0.0, 0.0, 0.0, 0.0, 1.6216121822423131E9, 2021-05-21 17:49:42.242
16.0, -237.3564910888672, -42.98453903198242, 228.95480346679688, -231.1426544189453, 0.01600000075995922, 0.0, 1.055999994277954, 0.0, 0.0, 0.0, 0.0, 0.0, 1.6216121822423131E9, 2021-05-21 17:49:42.242
17.0, -233.2874755859375, -42.629249572753906, 230.26376342773438, -234.70677185058594, 0.01600000075995922, 0.0, 1.055999994277954, 0.0, 0.0, 0.0, 0.0, 0.0, 1.6216121822565076E9, 2021-05-21 17:49:42.256
17.0, -214.36358642578125, -25.066679000854492, 234.44871520996094, -229.88604736328125, 0.01600000075995922, 0.0, 1.055999994277954, 0.0, 0.0, 0.0, 0.0, 0.0, 1.6216121822565076E9, 2021-05-21 17:49:42.256
18.0, -221.60403442382812, -28.383970260620117, 234.12709045410156, -228.2965850830078, 0.01600000075995922, 0.0, 1.055999994277954, 0.0, 0.0, 0.0, 0.0, 0.0, 1.6216121822573411E9, 2021-05-21 17:49:42.257
18.0, -237.09469604492188, -39.2969970703125, 219.73968505859375, -244.34075927734375, 0.01600000075995922, 0.0, 1.055999994277954, 0.0, 0.0, 0.0, 0.0, 0.0, 1.6216121822573411E9, 2021-05-21 17:49:42.257
19.0, -229.0501708984375, -43.91951370239258, 209.01739501953125, -249.109130859375, 0.01600000075995922, 0.0, 1.055999994277954, 0.0, 0.0, 0.0, 0.0, 0.0, 1.621612182270857E9, 2021-05-21 17:49:42.270
19.0, -211.27442932128906, -35.4523811340332, 219.29464721679688, -241.644287109375, 0.01600000075995922, 0.0, 1.055999994277954, 0.0, 0.0, 0.0, 0.0, 0.0, 1.621612182270857E9, 2021-05-21 17:49:42.270
20.0, -216.26719665527344, -24.457075119018555, 222.03973388671875, -243.98545837402344, 0.01600000075995922, 0.0, 1.055999994277954, 0.0, 0.0, 0.0, 0.0, 0.0, 1.6216121822870376E9, 2021-05-21 17:49:42.287
20.0, -231.74290466308594, -34.229434967041016, 208.6209716796875, -258.53741455078125, 0.01600000075995922, 0.0, 1.055999994277954, 0.0, 0.0, 0.0, 0.0, 0.0, 1.6216121822870376E9, 2021-05-21 17:49:42.287
21.0, -228.163818359375, -35.946048736572266, 205.60287475585938, -260.0408630371094, 0.01600000075995922, 0.0, 1.055999994277954, 0.0, 0.0, 0.0, 0.0, 0.0, 1.621612182301574E9, 2021-05-21 17:49:42.301
21.0, -203.25608825683594, -15.305541038513184, 233.77178955078125, -238.68975830078125, 0.01600000075995922, 0.0, 1.055999994277954, 0.0, 0.0, 0.0, 0.0, 0.0, 1.621612182301574E9, 2021-05-21 17:49:42.301
22.0, -207.73648071289062, -12.52679443359375, 239.6920623779297, -235.0695343017578, 0.0, 0.0, 1.055999994277954, 0.0, 0.0, 0.0, 0.0, 0.0, 1.621612182302294E9, 2021-05-21 17:49:42.302
22.0, -224.57725524902344, -32.54273986816406, 227.20079040527344, -240.14459228515625, 0.0, 0.0, 1.055999994277954, 0.0, 0.0, 0.0, 0.0, 0.0, 1.621612182302294E9, 2021-05-21 17:49:42.302
23.0, -220.4371795654297, -38.582679748535156, 222.37632751464844, -240.6681671142578, 0.0, 0.0, 1.055999994277954, 0.0, 0.0, 0.0, 0.0, 0.0, 1.621612182316678E9, 2021-05-21 17:49:42.316
23.0, -202.2687530517578, -30.08562469482422, 237.65380859375, -229.0595245361328, 0.0, 0.0, 1.055999994277954, 0.0, 0.0, 0.0, 0.0, 0.0, 1.621612182316678E9, 2021-05-21 17:49:42.316
24.0, -208.46202087402344, -25.119037628173828, 243.80221557617188, -223.56935119628906, 0.0, 0.0, 1.055999994277954, 0.0, 0.0, 0.0, 0.0, 0.0, 1.621612182317432E9, 2021-05-21 17:49:42.317
24.0, -225.46734619140625, -44.44309997558594, 235.39117431640625, -234.62449645996094, 0.0, 0.0, 1.055999994277954, 0.0, 0.0, 0.0, 0.0, 0.0, 1.621612182317432E9, 2021-05-21 17:49:42.317
25.0, -217.99876403808594, -39.480255126953125, 226.2545928955078, -227.20826721191406, 0.0, 0.0, 1.055999994277954, 0.0, 0.0, 0.0, 0.0, 0.0, 1.6216121823479524E9, 2021-05-21 17:49:42.347
25.0, -206.25173950195312, -32.082733154296875, 240.9598846435547, -218.69625854492188, 0.0, 0.0, 1.055999994277954, 0.0, 0.0, 0.0, 0.0, 0.0, 1.6216121823479524E9, 2021-05-21 17:49:42.347
26.0, -218.60836791992188, -28.634544372558594, 248.82489013671875, -216.8337860107422, 0.0, 0.0, 1.055999994277954, 0.0, 0.0, 0.0, 0.0, 0.0, 1.6216121823486884E9, 2021-05-21 17:49:42.348
26.0, -238.0446319580078, -17.343786239624023, 229.89352416992188, -233.45016479492188, 0.0, 0.0, 1.055999994277954, 0.0, 0.0, 0.0, 0.0, 0.0, 1.6216121823486884E9, 2021-05-21 17:49:42.348
27.0, -236.7581024169922, -39.25960159301758, 218.97300720214844, -241.45729064941406, 0.0, 0.0, 1.055999994277954, 0.0, 0.0, 0.0, 0.0, 0.0, 1.6216121823494022E9, 2021-05-21 17:49:42.349
27.0, -212.66941833496094, -35.4112434387207, 230.05433654785156, -230.6639404296875, 0.0, 0.0, 1.055999994277954, 0.0, 0.0, 0.0, 0.0, 0.0, 1.6216121823494022E9, 2021-05-21 17:49:42.349
28.0, -213.08079528808594, -29.621877670288086, 233.85781860351562, -228.55838012695312, 0.0, 0.0, 1.055999994277954, 0.0, 0.0, 0.0, 0.0, 0.0, 1.6216121823609037E9, 2021-05-21 17:49:42.360
28.0, -231.06224060058594, -34.71562194824219, 217.3536376953125, -246.75299072265625, 0.0, 0.0, 1.055999994277954, 0.0, 0.0, 0.0, 0.0, 0.0, 1.6216121823609037E9, 2021-05-21 17:49:42.360
29.0, -227.79356384277344, -34.48000717163086, 209.9822998046875, -243.19261169433594, 0.0, 0.0, 1.055999994277954, 0.0, 0.0, 0.0, 0.0, 0.0, 1.6216121823765645E9, 2021-05-21 17:49:42.376
29.0, -208.38348388671875, -20.848072052001953, 227.41770935058594, -232.20477294921875, 0.0, 0.0, 1.055999994277954, 0.0, 0.0, 0.0, 0.0, 0.0, 1.6216121823765645E9, 2021-05-21 17:49:42.376
30.0, -210.48904418945312, -17.50086212158203, 232.09632873535156, -230.72003173828125, 0.0, 0.0, 1.055999994277954, 0.0, 0.0, 0.0, 0.0, 0.0, 1.6216121823772862E9, 2021-05-21 17:49:42.377
30.0, -227.1839599609375, -32.99900817871094, 216.70663452148438, -244.015380859375, 0.0, 0.0, 1.055999994277954, 0.0, 0.0, 0.0, 0.0, 0.0, 1.6216121823772862E9, 2021-05-21 17:49:42.377
31.0, -217.19094848632812, -31.42076873779297, 220.55873107910156, -242.11924743652344, 0.0, 0.0, 1.055999994277954, 0.0, 0.0, 0.0, 0.0, 0.0, 1.6216121824076931E9, 2021-05-21 17:49:42.407
31.0, -196.789794921875, -24.62911033630371, 234.50482177734375, -229.88229370117188, 0.0, 0.0, 1.055999994277954, 0.0, 0.0, 0.0, 0.0, 0.0, 1.6216121824076931E9, 2021-05-21 17:49:42.407
32.0, -204.73333740234375, -19.150157928466797, 241.9285125732422, -226.3406219482422, 0.01600000075995922, 0.0, 1.055999994277954, 0.0, 0.0, 0.0, 0.0, 0.0, 1.6216121824084208E9, 2021-05-21 17:49:42.408
32.0, -224.46505737304688, -37.78607940673828, 226.52760314941406, -239.19091796875, 0.01600000075995922, 0.0, 1.055999994277954, 0.0, 0.0, 0.0, 0.0, 0.0, 1.6216121824084208E9, 2021-05-21 17:49:42.408
33.0, -219.7191162109375, -40.822879791259766, 224.74742126464844, -229.15675354003906, 0.01600000075995922, 0.0, 1.055999994277954, 0.0, 0.0, 0.0, 0.0, 0.0, 1.6216121824216795E9, 2021-05-21 17:49:42.421
33.0, -206.59954833984375, -26.360685348510742, 240.91500854492188, -224.96807861328125, 0.01600000075995922, 0.0, 1.055999994277954, 0.0, 0.0, 0.0, 0.0, 0.0, 1.6216121824216795E9, 2021-05-21 17:49:42.421
34.0, -205.24197387695312, -25.552865982055664, 246.2593231201172, -223.99195861816406, 0.01600000075995922, 0.0, 1.055999994277954, 0.0, 0.0, 0.0, 0.0, 0.0, 1.6216121824223828E9, 2021-05-21 17:49:42.422
34.0, -223.4477996826172, -40.93133544921875, 231.890625, -233.9326171875, 0.01600000075995922, 0.0, 1.055999994277954, 0.0, 0.0, 0.0, 0.0, 0.0, 1.6216121824223828E9, 2021-05-21 17:49:42.422
35.0, -213.6529998779297, -46.099876403808594, 226.85671997070312, -238.24472045898438, 0.01600000075995922, 0.0, 1.055999994277954, 0.0, 0.0, 0.0, 0.0, 0.0, 1.6216121824365792E9, 2021-05-21 17:49:42.436
35.0, -195.44717407226562, -38.64999771118164, 238.44293212890625, -231.62509155273438, 0.01600000075995922, 0.0, 1.055999994277954, 0.0, 0.0, 0.0, 0.0, 0.0, 1.6216121824365792E9, 2021-05-21 17:49:42.436
36.0, -198.8355255126953, -28.032419204711914, 242.54185485839844, -227.7729949951172, 0.01600000075995922, 0.0, 1.055999994277954, 0.0, 0.0, 0.0, 0.0, 0.0, 1.6216121824373033E9, 2021-05-21 17:49:42.437
36.0, -224.947509765625, -44.9479866027832, 213.06396484375, -250.08897399902344, 0.01600000075995922, 0.0, 1.055999994277954, 0.0, 0.0, 0.0, 0.0, 0.0, 1.6216121824373033E9, 2021-05-21 17:49:42.437
37.0, -219.65554809570312, -41.83264923095703, 221.46005249023438, -245.0737762451172, 0.01600000075995922, 0.0, 1.055999994277954, 0.0, 0.0, 0.0, 0.0, 0.0, 1.6216121824673593E9, 2021-05-21 17:49:42.467
37.0, -206.54345703125, -26.117591857910156, 232.72462463378906, -240.70556640625, 0.01600000075995922, 0.0, 1.055999994277954, 0.0, 0.0, 0.0, 0.0, 0.0, 1.6216121824673593E9, 2021-05-21 17:49:42.467
38.0, -212.5609588623047, -21.023847579956055, 232.47030639648438, -239.0525360107422, 0.01600000075995922, 0.0, 1.055999994277954, 0.0, 0.0, 0.0, 0.0, 0.0, 1.6216121824679916E9, 2021-05-21 17:49:42.467
38.0, -234.4842529296875, -32.348262786865234, 218.43820190429688, -252.64332580566406, 0.01600000075995922, 0.0, 1.055999994277954, 0.0, 0.0, 0.0, 0.0, 0.0, 1.6216121824679916E9, 2021-05-21 17:49:42.467
39.0, -220.46710205078125, -28.167057037353516, 216.7178497314453, -247.830078125, 0.01600000075995922, 0.0, 1.055999994277954, 0.0, 0.0, 0.0, 0.0, 0.0, 1.621612182468743E9, 2021-05-21 17:49:42.468
39.0, -198.55502319335938, -17.06329345703125, 234.93490600585938, -237.8333282470703, 0.01600000075995922, 0.0, 1.055999994277954, 0.0, 0.0, 0.0, 0.0, 0.0, 1.621612182468743E9, 2021-05-21 17:49:42.468
40.0, -201.41604614257812, -18.08054542541504, 240.98606872558594, -236.5542755126953, 0.01600000075995922, 0.0, 1.055999994277954, 0.0, 0.0, 0.0, 0.0, 0.0, 1.6216121824809828E9, 2021-05-21 17:49:42.480
40.0, -219.12074279785156, -26.89923095703125, 229.6990509033203, -248.83985900878906, 0.01600000075995922, 0.0, 1.055999994277954, 0.0, 0.0, 0.0, 0.0, 0.0, 1.6216121824809828E9, 2021-05-21 17:49:42.480
41.0, -215.22750854492188, -29.09081268310547, 231.1688232421875, -240.31661987304688, 0.01600000075995922, 0.0, 1.055999994277954, 0.0, 0.0, 0.0, 0.0, 0.0, 1.6216121824969976E9, 2021-05-21 17:49:42.496
41.0, -199.90887451171875, -22.351512908935547, 244.78579711914062, -226.6846923828125, 0.01600000075995922, 0.0, 1.055999994277954, 0.0, 0.0, 0.0, 0.0, 0.0, 1.6216121824969976E9, 2021-05-21 17:49:42.496
42.0, -209.15390014648438, -17.915990829467773, 250.62753295898438, -214.6309814453125, 0.01600000075995922, 0.0, 1.055999994277954, 0.0, 0.0, 0.0, 0.0, 0.0, 1.6216121825130196E9, 2021-05-21 17:49:42.513
42.0, -230.42271423339844, -31.42824935913086, 231.468017578125, -228.075927734375, 0.01600000075995922, 0.0, 1.055999994277954, 0.0, 0.0, 0.0, 0.0, 0.0, 1.6216121825130196E9, 2021-05-21 17:49:42.513
43.0, -231.4698944091797, -32.752174377441406, 228.251708984375, -231.8868865966797, 0.01600000075995922, 0.0, 1.055999994277954, 0.0, 0.0, 0.0, 0.0, 0.0, 1.6216121825137084E9, 2021-05-21 17:49:42.513
43.0, -214.6365966796875, -26.56637954711914, 241.62933349609375, -221.23191833496094, 0.01600000075995922, 0.0, 1.055999994277954, 0.0, 0.0, 0.0, 0.0, 0.0, 1.6216121825137084E9, 2021-05-21 17:49:42.513
44.0, -214.46456909179688, -24.378538131713867, 238.7533416748047, -219.4779052734375, 0.01600000075995922, 0.0, 1.055999994277954, 0.0, 0.0, 0.0, 0.0, 0.0, 1.6216121825145075E9, 2021-05-21 17:49:42.514
44.0, -229.9888916015625, -36.74638748168945, 224.014404296875, -233.5511474609375, 0.01600000075995922, 0.0, 1.055999994277954, 0.0, 0.0, 0.0, 0.0, 0.0, 1.6216121825145075E9, 2021-05-21 17:49:42.514
45.0, -234.3944854736328, -40.897674560546875, 216.9160614013672, -240.48492431640625, 0.01600000075995922, 0.0, 1.055999994277954, 0.0, 0.0, 0.0, 0.0, 0.0, 1.6216121825259087E9, 2021-05-21 17:49:42.525
45.0, -214.70018005371094, -30.53815269470215, 227.44387817382812, -233.60350036621094, 0.01600000075995922, 0.0, 1.055999994277954, 0.0, 0.0, 0.0, 0.0, 0.0, 1.6216121825259087E9, 2021-05-21 17:49:42.525
46.0, -212.37770080566406, -28.238115310668945, 233.48008728027344, -238.26715087890625, 0.01600000075995922, 0.0, 1.055999994277954, 0.0, 0.0, 0.0, 0.0, 0.0, 1.6216121825409312E9, 2021-05-21 17:49:42.540
46.0, -223.33934020996094, -46.163455963134766, 216.9197998046875, -254.18043518066406, 0.01600000075995922, 0.0, 1.055999994277954, 0.0, 0.0, 0.0, 0.0, 0.0, 1.6216121825409312E9, 2021-05-21 17:49:42.540
47.0, -219.57701110839844, -45.83434295654297, 206.36581420898438, -255.70631408691406, 0.01600000075995922, 0.0, 1.055999994277954, 0.0, 0.0, 0.0, 0.0, 0.0, 1.621612182556586E9, 2021-05-21 17:49:42.556
47.0, -202.77737426757812, -34.468788146972656, 227.8627471923828, -249.9393768310547, 0.01600000075995922, 0.0, 1.055999994277954, 0.0, 0.0, 0.0, 0.0, 0.0, 1.621612182556586E9, 2021-05-21 17:49:42.556
48.0, -208.06185913085938, -31.48434829711914, 230.94068908691406, -248.70895385742188, 0.01600000075995922, 0.0, 1.055999994277954, 0.0, 0.0, 0.0, 0.0, 0.0, 1.6216121825573127E9, 2021-05-21 17:49:42.557
48.0, -229.6335906982422, -44.383262634277344, 220.869140625, -250.5452423095703, 0.01600000075995922, 0.0, 1.055999994277954, 0.0, 0.0, 0.0, 0.0, 0.0, 1.6216121825573127E9, 2021-05-21 17:49:42.557
49.0, -224.9849090576172, -53.38520050048828, 214.27195739746094, -261.92950439453125, 0.01600000075995922, 0.0, 1.055999994277954, 0.0, 0.0, 0.0, 0.0, 0.0, 1.6216121825872388E9, 2021-05-21 17:49:42.587
49.0, -206.18817138671875, -30.85604476928711, 227.4401397705078, -242.0257568359375, 0.01600000075995922, 0.0, 1.055999994277954, 0.0, 0.0, 0.0, 0.0, 0.0, 1.6216121825872388E9, 2021-05-21 17:49:42.587
50.0, -207.7327423095703, -35.02229309082031, 233.7979736328125, -230.97434997558594, 0.01600000075995922, 0.0, 1.055999994277954, 0.0, 0.0, 0.0, 0.0, 0.0, 1.6216121825879936E9, 2021-05-21 17:49:42.587
50.0, -224.65953063964844, -39.992618560791016, 226.0863037109375, -234.3589630126953, 0.01600000075995922, 0.0, 1.055999994277954, 0.0, 0.0, 0.0, 0.0, 0.0, 1.6216121825879936E9, 2021-05-21 17:49:42.587
51.0, -218.234375, -45.830604553222656, 227.74681091308594, -233.34544372558594, 0.01600000075995922, 0.0, 1.055999994277954, 0.0, 0.0, 0.0, 0.0, 0.0, 1.6216121825887125E9, 2021-05-21 17:49:42.588
51.0, -203.6151123046875, -30.635391235351562, 244.09765625, -221.0748291015625, 0.01600000075995922, 0.0, 1.055999994277954, 0.0, 0.0, 0.0, 0.0, 0.0, 1.6216121825887125E9, 2021-05-21 17:49:42.588
52.0, -213.09202575683594, -33.12990188598633, 241.88363647460938, -223.31129455566406, 0.01600000075995922, 0.0, 1.055999994277954, 0.0, 0.0, 0.0, 0.0, 0.0, 1.621612182600872E9, 2021-05-21 17:49:42.600
52.0, -233.48944091796875, -37.2961540222168, 230.77987670898438, -234.2579803466797, 0.01600000075995922, 0.0, 1.055999994277954, 0.0, 0.0, 0.0, 0.0, 0.0, 1.621612182600872E9, 2021-05-21 17:49:42.600
53.0, -231.60452270507812, -40.02627944946289, 228.61447143554688, -233.3753662109375, 0.01600000075995922, 0.0, 1.055999994277954, 0.0, 0.0, 0.0, 0.0, 0.0, 1.6216121826169565E9, 2021-05-21 17:49:42.616
53.0, -216.7047576904297, -27.119884490966797, 241.45355224609375, -224.37342834472656, 0.01600000075995922, 0.0, 1.055999994277954, 0.0, 0.0, 0.0, 0.0, 0.0, 1.6216121826169565E9, 2021-05-21 17:49:42.616
54.0, -223.71707153320312, -14.651058197021484, 237.88941955566406, -222.78396606445312, 0.01600000075995922, 0.0, 1.055999994277954, 0.0, 0.0, 0.0, 0.0, 0.0, 1.62161218264806E9, 2021-05-21 17:49:42.648
54.0, -238.7065887451172, -37.25127410888672, 223.26268005371094, -242.39601135253906, 0.01600000075995922, 0.0, 1.055999994277954, 0.0, 0.0, 0.0, 0.0, 0.0, 1.62161218264806E9, 2021-05-21 17:49:42.648
55.0, -234.0130157470703, -39.323177337646484, 204.83619689941406, -245.57118225097656, 0.01600000075995922, 0.0, 1.055999994277954, 0.0, 0.0, 0.0, 0.0, 0.0, 1.6216121826488028E9, 2021-05-21 17:49:42.648
55.0, -213.22665405273438, -23.82503318786621, 223.01210021972656, -240.44752502441406, 0.01600000075995922, 0.0, 1.055999994277954, 0.0, 0.0, 0.0, 0.0, 0.0, 1.6216121826488028E9, 2021-05-21 17:49:42.648
56.0, -218.36154174804688, -14.220969200134277, 228.592041015625, -233.68951416015625, 0.01600000075995922, 0.0, 1.055999994277954, 0.0, 0.0, 0.0, 0.0, 0.0, 1.6216121826495483E9, 2021-05-21 17:49:42.649
56.0, -236.75436401367188, -39.917823791503906, 212.87322998046875, -244.19863891601562, 0.01600000075995922, 0.0, 1.055999994277954, 0.0, 0.0, 0.0, 0.0, 0.0, 1.6216121826495483E9, 2021-05-21 17:49:42.649
57.0, -227.58413696289062, -40.74808120727539, 211.2762908935547, -245.9676055908203, 0.01600000075995922, 0.0, 1.055999994277954, 0.0, 0.0, 0.0, 0.0, 0.0, 1.6216121826502326E9, 2021-05-21 17:49:42.650
57.0, -217.21713256835938, -29.487241744995117, 220.9476776123047, -239.1796875, 0.01600000075995922, 0.0, 1.055999994277954, 0.0, 0.0, 0.0, 0.0, 0.0, 1.6216121826502326E9, 2021-05-21 17:49:42.650
58.0, -217.9090118408203, -27.06004524230957, 224.8184814453125, -237.00306701660156, 0.01600000075995922, 0.0, 1.055999994277954, 0.0, 0.0, 0.0, 0.0, 0.0, 1.6216121826608653E9, 2021-05-21 17:49:42.660
58.0, -235.628662109375, -42.03834533691406, 208.85658264160156, -251.24461364746094, 0.01600000075995922, 0.0, 1.055999994277954, 0.0, 0.0, 0.0, 0.0, 0.0, 1.6216121826608653E9, 2021-05-21 17:49:42.660
59.0, -226.5145263671875, -39.611148834228516, 210.50961303710938, -255.65020751953125, 0.01600000075995922, 0.0, 1.055999994277954, 0.0, 0.0, 0.0, 0.0, 0.0, 1.6216121826766446E9, 2021-05-21 17:49:42.676
59.0, -212.66566467285156, -34.700660705566406, 230.94442749023438, -236.80859375, 0.01600000075995922, 0.0, 1.055999994277954, 0.0, 0.0, 0.0, 0.0, 0.0, 1.6216121826766446E9, 2021-05-21 17:49:42.676
60.0, -211.45394897460938, -32.307125091552734, 238.0091094970703, -233.22203063964844, 0.01600000075995922, 0.0, 1.055999994277954, 0.0, 0.0, 0.0, 0.0, 0.0, 1.6216121826773136E9, 2021-05-21 17:49:42.677
60.0, -230.89019775390625, -38.934226989746094, 225.43182373046875, -243.15145874023438, 0.01600000075995922, 0.0, 1.055999994277954, 0.0, 0.0, 0.0, 0.0, 0.0, 1.6216121826773136E9, 2021-05-21 17:49:42.677
61.0, -224.02000427246094, -44.07284927368164, 220.24832153320312, -241.4311065673828, 0.01600000075995922, 0.01600000075995922, 1.055999994277954, 0.0, 0.0, 0.0, 0.0, 0.0, 1.6216121826909685E9, 2021-05-21 17:49:42.690
61.0, -207.3924102783203, -39.03146743774414, 232.67974853515625, -233.96627807617188, 0.01600000075995922, 0.01600000075995922, 1.055999994277954, 0.0, 0.0, 0.0, 0.0, 0.0, 1.6216121826909685E9, 2021-05-21 17:49:42.690
62.0, -210.46661376953125, -21.453935623168945, 250.16751098632812, -226.890380859375, 0.01600000075995922, 0.01600000075995922, 1.055999994277954, 0.0, 0.0, 0.0, 0.0, 0.0, 1.6216121827066329E9, 2021-05-21 17:49:42.706
62.0, -229.72335815429688, -41.26044464111328, 232.26461791992188, -242.79617309570312, 0.01600000075995922, 0.01600000075995922, 1.055999994277954, 0.0, 0.0, 0.0, 0.0, 0.0, 1.6216121827066329E9, 2021-05-21 17:49:42.706
63.0, -227.9506378173828, -34.06113815307617, 232.96397399902344, -241.52835083007812, 0.01600000075995922, 0.01600000075995922, 1.055999994277954, 0.0, 0.0, 0.0, 0.0, 0.0, 1.6216121827073448E9, 2021-05-21 17:49:42.707
63.0, -219.76400756835938, -21.820446014404297, 244.48660278320312, -235.881103515625, 0.01600000075995922, 0.01600000075995922, 1.055999994277954, 0.0, 0.0, 0.0, 0.0, 0.0, 1.6216121827073448E9, 2021-05-21 17:49:42.707
64.0, -226.5930633544922, -18.959423065185547, 243.98545837402344, -232.76576232910156, 0.01600000075995922, 0.01600000075995922, 1.055999994277954, 0.0, 0.0, 0.0, 0.0, 0.0, 1.621612182720982E9, 2021-05-21 17:49:42.720
64.0, -243.0448760986328, -17.42232322692871, 225.87686157226562, -236.15037536621094, 0.01600000075995922, 0.01600000075995922, 1.055999994277954, 0.0, 0.0, 0.0, 0.0, 0.0, 1.621612182720982E9, 2021-05-21 17:49:42.720
65.0, -242.07998657226562, -33.18600082397461, 218.075439453125, -243.98545837402344, 0.01600000075995922, 0.01600000075995922, 1.055999994277954, 0.0, 0.0, 0.0, 0.0, 0.0, 1.621612182736596E9, 2021-05-21 17:49:42.736
65.0, -221.98924255371094, -20.141231536865234, 230.7499542236328, -237.76226806640625, 0.01600000075995922, 0.01600000075995922, 1.055999994277954, 0.0, 0.0, 0.0, 0.0, 0.0, 1.621612182736596E9, 2021-05-21 17:49:42.736
66.0, -225.65060424804688, -18.56673240661621, 230.64149475097656, -237.85202026367188, 0.01600000075995922, 0.01600000075995922, 1.055999994277954, 0.0, 0.0, 0.0, 0.0, 0.0, 1.6216121827373064E9, 2021-05-21 17:49:42.737
66.0, -231.16696166992188, -29.9659481048584, 220.3268585205078, -246.99607849121094, 0.01600000075995922, 0.01600000075995922, 1.055999994277954, 0.0, 0.0, 0.0, 0.0, 0.0, 1.6216121827373064E9, 2021-05-21 17:49:42.737
67.0, -227.77113342285156, -30.672788619995117, 216.35134887695312, -250.36947631835938, 0.01600000075995922, 0.01600000075995922, 1.055999994277954, 0.0, 0.0, 0.0, 0.0, 0.0, 1.6216121827509148E9, 2021-05-21 17:49:42.750
67.0, -207.87860107421875, -18.514373779296875, 232.20477294921875, -236.35232543945312, 0.01600000075995922, 0.01600000075995922, 1.055999994277954, 0.0, 0.0, 0.0, 0.0, 0.0, 1.6216121827509148E9, 2021-05-21 17:49:42.750
68.0, -207.54200744628906, -22.88631820678711, 238.8879852294922, -244.5763702392578, 0.01600000075995922, 0.01600000075995922, 1.055999994277954, 0.0, 0.0, 0.0, 0.0, 0.0, 1.6216121827666216E9, 2021-05-21 17:49:42.766
68.0, -220.3997802734375, -41.4736213684082, 219.7621307373047, -253.41749572753906, 0.01600000075995922, 0.01600000075995922, 1.055999994277954, 0.0, 0.0, 0.0, 0.0, 0.0, 1.6216121827666216E9, 2021-05-21 17:49:42.766
69.0, -219.4760284423828, -46.354190826416016, 215.43881225585938, -245.5823974609375, 0.01600000075995922, 0.01600000075995922, 1.055999994277954, 0.0, 0.0, 0.0, 0.0, 0.0, 1.6216121827673173E9, 2021-05-21 17:49:42.767
69.0, -195.95953369140625, -31.805978775024414, 240.1595458984375, -229.426025390625, 0.01600000075995922, 0.01600000075995922, 1.055999994277954, 0.0, 0.0, 0.0, 0.0, 0.0, 1.6216121827673173E9, 2021-05-21 17:49:42.767
70.0, -199.65455627441406, -36.82118606567383, 244.2210693359375, -227.8216094970703, 0.01600000075995922, 0.01600000075995922, 1.055999994277954, 0.0, 0.0, 0.0, 0.0, 0.0, 1.62161218278087E9, 2021-05-21 17:49:42.780
70.0, -219.14691162109375, -44.76099395751953, 228.4573974609375, -234.1009063720703, 0.01600000075995922, 0.01600000075995922, 1.055999994277954, 0.0, 0.0, 0.0, 0.0, 0.0, 1.62161218278087E9, 2021-05-21 17:49:42.780
71.0, -213.44357299804688, -50.44190216064453, 226.3406219482422, -231.65127563476562, 0.01600000075995922, 0.01600000075995922, 1.055999994277954, 0.0, 0.0, 0.0, 0.0, 0.0, 1.6216121827967277E9, 2021-05-21 17:49:42.796
71.0, -202.2575225830078, -31.33475112915039, 246.65948486328125, -221.6732177734375, 0.01600000075995922, 0.01600000075995922, 1.055999994277954, 0.0, 0.0, 0.0, 0.0, 0.0, 1.6216121827967277E9, 2021-05-21 17:49:42.796
72.0, -209.58773803710938, -26.910449981689453, 251.78689575195312, -223.01210021972656, 0.01600000075995922, 0.01600000075995922, 1.055999994277954, 0.0, 0.0, 0.0, 0.0, 0.0, 1.6216121827973173E9, 2021-05-21 17:49:42.797
72.0, -229.4727783203125, -44.828311920166016, 232.10006713867188, -240.44752502441406, 0.01600000075995922, 0.01600000075995922, 1.055999994277954, 0.0, 0.0, 0.0, 0.0, 0.0, 1.6216121827973173E9, 2021-05-21 17:49:42.797
73.0, -218.86268615722656, -41.74663162231445, 227.60470581054688, -233.56610107421875, 0.01600000075995922, 0.01600000075995922, 1.055999994277954, 0.0, 0.0, 0.0, 0.0, 0.0, 1.6216121828108535E9, 2021-05-21 17:49:42.810
73.0, -203.9180450439453, -24.6665096282959, 242.18283081054688, -224.93067932128906, 0.01600000075995922, 0.01600000075995922, 1.055999994277954, 0.0, 0.0, 0.0, 0.0, 0.0, 1.6216121828108535E9, 2021-05-21 17:49:42.810
74.0, -210.18984985351562, -21.42401695251465, 243.82838439941406, -229.87481689453125, 0.01600000075995922, 0.01600000075995922, 1.055999994277954, 0.0, 0.0, 0.0, 0.0, 0.0, 1.6216121828266923E9, 2021-05-21 17:49:42.826
74.0, -230.84158325195312, -32.172489166259766, 228.2442169189453, -246.47998046875, 0.01600000075995922, 0.01600000075995922, 1.055999994277954, 0.0, 0.0, 0.0, 0.0, 0.0, 1.6216121828266923E9, 2021-05-21 17:49:42.826
75.0, -232.80877685546875, -43.95317459106445, 218.97300720214844, -251.0015106201172, 0.01600000075995922, 0.01600000075995922, 1.055999994277954, 0.0, 0.0, 0.0, 0.0, 0.0, 1.6216121828273993E9, 2021-05-21 17:49:42.827
75.0, -208.33860778808594, -21.229541778564453, 237.32470703125, -231.87940979003906, 0.01600000075995922, 0.01600000075995922, 1.055999994277954, 0.0, 0.0, 0.0, 0.0, 0.0, 1.6216121828273993E9, 2021-05-21 17:49:42.827
76.0, -208.60787963867188, -17.99452781677246, 244.1013946533203, -232.3543701171875, 0.01600000075995922, 0.01600000075995922, 1.055999994277954, 0.0, 0.0, 0.0, 0.0, 0.0, 1.6216121828408566E9, 2021-05-21 17:49:42.840
76.0, -222.0640411376953, -32.71851348876953, 229.4335174560547, -248.06195068359375, 0.01600000075995922, 0.01600000075995922, 1.055999994277954, 0.0, 0.0, 0.0, 0.0, 0.0, 1.6216121828408566E9, 2021-05-21 17:49:42.840
77.0, -218.13714599609375, -39.753265380859375, 225.21116638183594, -247.16812133789062, 0.01600000075995922, 0.01600000075995922, 1.055999994277954, 0.0, 0.0, 0.0, 0.0, 0.0, 1.621612182857344E9, 2021-05-21 17:49:42.857
77.0, -201.8760528564453, -24.774967193603516, 242.84104919433594, -233.65585327148438, 0.01600000075995922, 0.01600000075995922, 1.055999994277954, 0.0, 0.0, 0.0, 0.0, 0.0, 1.621612182857344E9, 2021-05-21 17:49:42.857
78.0, -202.78111267089844, -16.23677635192871, 248.4658660888672, -225.33831787109375, 0.01600000075995922, 0.01600000075995922, 1.055999994277954, 0.0, 0.0, 0.0, 0.0, 0.0, 1.6216121828580875E9, 2021-05-21 17:49:42.858
78.0, -218.8477325439453, -32.44550323486328, 237.8669891357422, -236.95819091796875, 0.01600000075995922, 0.01600000075995922, 1.055999994277954, 0.0, 0.0, 0.0, 0.0, 0.0, 1.6216121828580875E9, 2021-05-21 17:49:42.858
79.0, -211.98875427246094, -42.46469497680664, 235.4958953857422, -234.53099060058594, 0.01600000075995922, 0.01600000075995922, 1.055999994277954, 0.0, 0.0, 0.0, 0.0, 0.0, 1.6216121828708649E9, 2021-05-21 17:49:42.870
79.0, -190.3908233642578, -21.397836685180664, 251.62234497070312, -217.2227325439453, 0.01600000075995922, 0.01600000075995922, 1.055999994277954, 0.0, 0.0, 0.0, 0.0, 0.0, 1.6216121828708649E9, 2021-05-21 17:49:42.870
80.0, -200.12953186035156, -22.329072952270508, 255.35850524902344, -224.58660888671875, 0.01600000075995922, 0.01600000075995922, 1.055999994277954, 0.0, 0.0, 0.0, 0.0, 0.0, 1.6216121828866773E9, 2021-05-21 17:49:42.886
80.0, -216.43922424316406, -36.58930969238281, 236.27752685546875, -229.7738494873047, 0.01600000075995922, 0.01600000075995922, 1.055999994277954, 0.0, 0.0, 0.0, 0.0, 0.0, 1.6216121828866773E9, 2021-05-21 17:49:42.886
81.0, -213.01722717285156, -35.92361068725586, 236.19898986816406, -224.7810821533203, 0.01600000075995922, 0.0, 1.055999994277954, 0.0, 0.0, 0.0, 0.0, 0.0, 1.6216121828873973E9, 2021-05-21 17:49:42.887
81.0, -198.22592163085938, -17.343786239624023, 250.5452423095703, -216.02223205566406, 0.01600000075995922, 0.0, 1.055999994277954, 0.0, 0.0, 0.0, 0.0, 0.0, 1.6216121828873973E9, 2021-05-21 17:49:42.887
82.0, -214.9395294189453, -23.71283531188965, 249.1016387939453, -220.68588256835938, 0.01600000075995922, 0.0, 1.055999994277954, 0.0, 0.0, 0.0, 0.0, 0.0, 1.6216121829008663E9, 2021-05-21 17:49:42.900
82.0, -232.70779418945312, -26.906709671020508, 236.31118774414062, -227.02127075195312, 0.01600000075995922, 0.0, 1.055999994277954, 0.0, 0.0, 0.0, 0.0, 0.0, 1.6216121829008663E9, 2021-05-21 17:49:42.900
83.0, -226.6753387451172, -34.82781982421875, 228.39381408691406, -229.58685302734375, 0.01600000075995922, 0.0, 1.055999994277954, 0.0, 0.0, 0.0, 0.0, 0.0, 1.6216121829165883E9, 2021-05-21 17:49:42.916
83.0, -215.4967803955078, -15.60847282409668, 239.04132080078125, -225.5739288330078, 0.01600000075995922, 0.0, 1.055999994277954, 0.0, 0.0, 0.0, 0.0, 0.0, 1.6216121829165883E9, 2021-05-21 17:49:42.916
84.0, -228.2012176513672, -13.001762390136719, 239.49758911132812, -228.21804809570312, 0.01600000075995922, 0.0, 1.055999994277954, 0.0, 0.0, 0.0, 0.0, 0.0, 1.6216121829173253E9, 2021-05-21 17:49:42.917
84.0, -243.8601837158203, -25.003101348876953, 226.57997131347656, -239.0525360107422, 0.01600000075995922, 0.0, 1.055999994277954, 0.0, 0.0, 0.0, 0.0, 0.0, 1.6216121829173253E9, 2021-05-21 17:49:42.917
85.0, -234.39822387695312, -26.55889892578125, 228.13577270507812, -245.45150756835938, 0.01600000075995922, 0.0, 1.055999994277954, 0.0, 0.0, 0.0, 0.0, 0.0, 1.62161218293087E9, 2021-05-21 17:49:42.930
85.0, -213.54454040527344, -9.216983795166016, 236.06436157226562, -234.07098388671875, 0.01600000075995922, 0.0, 1.055999994277954, 0.0, 0.0, 0.0, 0.0, 0.0, 1.62161218293087E9, 2021-05-21 17:49:42.930
86.0, -215.12278747558594, -9.489995956420898, 237.9530029296875, -241.61062622070312, 0.01600000075995922, 0.0, 1.055999994277954, 0.0, 0.0, 0.0, 0.0, 0.0, 1.6216121829465816E9, 2021-05-21 17:49:42.946
86.0, -230.7368621826172, -26.540199279785156, 222.3912811279297, -249.50181579589844, 0.01600000075995922, 0.0, 1.055999994277954, 0.0, 0.0, 0.0, 0.0, 0.0, 1.6216121829465816E9, 2021-05-21 17:49:42.946
87.0, -212.58712768554688, -28.967395782470703, 221.39273071289062, -244.696044921875, 0.01600000075995922, 0.0, 1.055999994277954, 0.0, 0.0, 0.0, 0.0, 0.0, 1.621612182947429E9, 2021-05-21 17:49:42.947
87.0, -188.44981384277344, -19.11275863647461, 241.984619140625, -233.510009765625, 0.01600000075995922, 0.0, 1.055999994277954, 0.0, 0.0, 0.0, 0.0, 0.0, 1.621612182947429E9, 2021-05-21 17:49:42.947
88.0, -195.6827850341797, -19.920578002929688, 248.51821899414062, -223.00462341308594, 0.01600000075995922, 0.0, 1.055999994277954, 0.0, 0.0, 0.0, 0.0, 0.0, 1.6216121829609056E9, 2021-05-21 17:49:42.960
88.0, -215.92312622070312, -39.289520263671875, 232.2870635986328, -232.83682250976562, 0.01600000075995922, 0.0, 1.055999994277954, 0.0, 0.0, 0.0, 0.0, 0.0, 1.6216121829609056E9, 2021-05-21 17:49:42.960
89.0, -211.8877716064453, -37.16525650024414, 233.21829223632812, -229.36993408203125, 0.01600000075995922, 0.0, 1.055999994277954, 0.0, 0.0, 0.0, 0.0, 0.0, 1.62161218297659E9, 2021-05-21 17:49:42.976
89.0, -197.01419067382812, -21.573612213134766, 249.28489685058594, -221.97988891601562, 0.01600000075995922, 0.0, 1.055999994277954, 0.0, 0.0, 0.0, 0.0, 0.0, 1.62161218297659E9, 2021-05-21 17:49:42.976
90.0, -210.83311462402344, -15.122285842895508, 252.26559448242188, -224.45944213867188, 0.01600000075995922, 0.0, 1.055999994277954, 0.0, 0.0, 0.0, 0.0, 0.0, 1.6216121829773498E9, 2021-05-21 17:49:42.977
90.0, -222.20616149902344, -27.864124298095703, 244.08270263671875, -229.94961547851562, 0.01600000075995922, 0.0, 1.055999994277954, 0.0, 0.0, 0.0, 0.0, 0.0, 1.6216121829773498E9, 2021-05-21 17:49:42.977
91.0, -226.99322509765625, -30.990680694580078, 233.7605743408203, -231.11647033691406, 0.01600000075995922, 0.01600000075995922, 1.055999994277954, 0.0, 0.0, 0.0, 0.0, 0.0, 1.621612183007296E9, 2021-05-21 17:49:43.007
91.0, -215.18637084960938, -26.585079193115234, 241.06460571289062, -223.5356903076172, 0.01600000075995922, 0.01600000075995922, 1.055999994277954, 0.0, 0.0, 0.0, 0.0, 0.0, 1.621612183007296E9, 2021-05-21 17:49:43.007
92.0, -208.24510192871094, -17.04085350036621, 253.49603271484375, -220.622314453125, 0.01600000075995922, 0.01600000075995922, 1.055999994277954, 0.0, 0.0, 0.0, 0.0, 0.0, 1.621612183007969E9, 2021-05-21 17:49:43.007
92.0, -232.59185791015625, -33.15982437133789, 234.04107666015625, -243.30105590820312, 0.01600000075995922, 0.01600000075995922, 1.055999994277954, 0.0, 0.0, 0.0, 0.0, 0.0, 1.621612183007969E9, 2021-05-21 17:49:43.007
93.0, -226.04702758789062, -27.84542465209961, 236.07931518554688, -241.36380004882812, 0.01600000075995922, 0.01600000075995922, 1.055999994277954, 0.0, 0.0, 0.0, 0.0, 0.0, 1.6216121830086997E9, 2021-05-21 17:49:43.008
93.0, -219.40870666503906, -15.032527923583984, 242.88967895507812, -235.09571838378906, 0.01600000075995922, 0.01600000075995922, 1.055999994277954, 0.0, 0.0, 0.0, 0.0, 0.0, 1.6216121830086997E9, 2021-05-21 17:49:43.008
94.0, -220.7363739013672, -7.006702423095703, 248.03578186035156, -238.0502471923828, 0.01600000075995922, 0.01600000075995922, 1.055999994277954, 0.0, 0.0, 0.0, 0.0, 0.0, 1.621612183021047E9, 2021-05-21 17:49:43.021
94.0, -233.69512939453125, -20.74335479736328, 228.44618225097656, -253.5072479248047, 0.01600000075995922, 0.01600000075995922, 1.055999994277954, 0.0, 0.0, 0.0, 0.0, 0.0, 1.621612183021047E9, 2021-05-21 17:49:43.021
95.0, -233.91204833984375, -30.250181198120117, 217.41722106933594, -251.31192016601562, 0.01600000075995922, 0.01600000075995922, 1.055999994277954, 0.0, 0.0, 0.0, 0.0, 0.0, 1.621612183036548E9, 2021-05-21 17:49:43.036
95.0, -211.85037231445312, -16.958576202392578, 235.30889892578125, -231.4306182861328, 0.01600000075995922, 0.01600000075995922, 1.055999994277954, 0.0, 0.0, 0.0, 0.0, 0.0, 1.621612183036548E9, 2021-05-21 17:49:43.036
96.0, -210.54888916015625, -18.435836791992188, 241.7826690673828, -235.30889892578125, 0.01600000075995922, 0.01600000075995922, 1.055999994277954, 0.0, 0.0, 0.0, 0.0, 0.0, 1.6216121830372686E9, 2021-05-21 17:49:43.037
96.0, -224.8128662109375, -35.14570999145508, 224.73619079589844, -238.68975830078125, 0.01600000075995922, 0.01600000075995922, 1.055999994277954, 0.0, 0.0, 0.0, 0.0, 0.0, 1.6216121830372686E9, 2021-05-21 17:49:43.037
97.0, -223.60861206054688, -33.473976135253906, 222.8213653564453, -229.52700805664062, 0.01600000075995922, 0.01600000075995922, 1.055999994277954, 0.0, 0.0, 0.0, 0.0, 0.0, 1.6216121830510223E9, 2021-05-21 17:49:43.051
97.0, -210.4404296875, -25.762300491333008, 231.82330322265625, -224.5230255126953, 0.01600000075995922, 0.01600000075995922, 1.055999994277954, 0.0, 0.0, 0.0, 0.0, 0.0, 1.6216121830510223E9, 2021-05-21 17:49:43.051
98.0, -208.40219116210938, -26.039052963256836, 241.7677001953125, -214.0064239501953, 0.01600000075995922, 0.01600000075995922, 1.055999994277954, 0.0, 0.0, 0.0, 0.0, 0.0, 1.621612183066573E9, 2021-05-21 17:49:43.066
98.0, -223.43658447265625, -42.93592071533203, 233.41650390625, -225.01295471191406, 0.01600000075995922, 0.01600000075995922, 1.055999994277954, 0.0, 0.0, 0.0, 0.0, 0.0, 1.621612183066573E9, 2021-05-21 17:49:43.066
99.0, -218.52235412597656, -41.89997100830078, 233.87277221679688, -226.374267578125, 0.01600000075995922, 0.01600000075995922, 1.055999994277954, 0.0, 0.0, 0.0, 0.0, 0.0, 1.6216121830672789E9, 2021-05-21 17:49:43.067
99.0, -196.81597900390625, -16.58458709716797, 255.96435546875, -212.15892028808594, 0.01600000075995922, 0.01600000075995922, 1.055999994277954, 0.0, 0.0, 0.0, 0.0, 0.0, 1.6216121830672789E9, 2021-05-21 17:49:43.067
100.0, -206.15451049804688, -25.904417037963867, 250.13011169433594, -224.24627685546875, 0.01600000075995922, 0.01600000075995922, 1.055999994277954, 0.0, 0.0, 0.0, 0.0, 0.0, 1.6216121830816E9, 2021-05-21 17:49:43.081
100.0, -228.5452880859375, -44.009273529052734, 235.5781707763672, -236.53932189941406, 0.01600000075995922, 0.01600000075995922, 1.055999994277954, 0.0, 0.0, 0.0, 0.0, 0.0, 1.6216121830816E9, 2021-05-21 17:49:43.081
0.0, -229.72335815429688, -40.68263244628906, 230.50686645507812, -234.34774780273438, 0.01600000075995922, 0.01600000075995922, 1.055999994277954, 0.0, 0.0, 0.0, 0.0, 0.0, 1.6216121830824351E9, 2021-05-21 17:49:43.082
1.0, -219.54708862304688, -19.413820266723633, 246.67819213867188, -224.8558807373047, 0.01600000075995922, 0.01600000075995922, 1.055999994277954, 0.0, 0.0, 0.0, 0.0, 0.0, 1.6216121830959E9, 2021-05-21 17:49:43.095
1.0, -220.42222595214844, -16.219945907592773, 253.8550567626953, -226.79689025878906, 0.01600000075995922, 0.01600000075995922, 1.055999994277954, 0.0, 0.0, 0.0, 0.0, 0.0, 1.6216121830959E9, 2021-05-21 17:49:43.095
2.0, -239.37229919433594, -25.734251022338867, 235.30889892578125, -242.9906463623047, 0.0, 0.01600000075995922, 1.055999994277954, 0.0, 0.0, 0.0, 0.0, 0.0, 1.6216121831276996E9, 2021-05-21 17:49:43.127
2.0, -237.60707092285156, -21.781177520751953, 236.47573852539062, -247.34762573242188, 0.0, 0.01600000075995922, 1.055999994277954, 0.0, 0.0, 0.0, 0.0, 0.0, 1.6216121831276996E9, 2021-05-21 17:49:43.127
3.0, -216.9254150390625, -9.046817779541016, 242.9270782470703, -240.16702270507812, 0.0, 0.01600000075995922, 1.055999994277954, 0.0, 0.0, 0.0, 0.0, 0.0, 1.6216121831284144E9, 2021-05-21 17:49:43.128
3.0, -217.306884765625, -4.076490879058838, 245.90403747558594, -243.89944458007812, 0.0, 0.01600000075995922, 1.055999994277954, 0.0, 0.0, 0.0, 0.0, 0.0, 1.6216121831284144E9, 2021-05-21 17:49:43.128
4.0, -233.23138427734375, -29.339515686035156, 230.15158081054688, -250.5003662109375, 0.0, 0.01600000075995922, 1.055999994277954, 0.0, 0.0, 0.0, 0.0, 0.0, 1.6216121831291547E9, 2021-05-21 17:49:43.129
4.0, -225.47482299804688, -31.24312400817871, 225.2298583984375, -246.11346435546875, 0.0, 0.01600000075995922, 1.055999994277954, 0.0, 0.0, 0.0, 0.0, 0.0, 1.6216121831291547E9, 2021-05-21 17:49:43.129
5.0, -207.91226196289062, -26.56450843811035, 233.4127655029297, -228.42747497558594, 0.0, 0.01600000075995922, 1.055999994277954, 0.0, 0.0, 0.0, 0.0, 0.0, 1.6216121831415763E9, 2021-05-21 17:49:43.141
5.0, -215.00311279296875, -22.45435905456543, 234.860107421875, -222.3987579345703, 0.0, 0.01600000075995922, 1.055999994277954, 0.0, 0.0, 0.0, 0.0, 0.0, 1.6216121831415763E9, 2021-05-21 17:49:43.141
6.0, -225.65060424804688, -34.298622131347656, 224.5230255126953, -231.96168518066406, 0.0, 0.01600000075995922, 1.055999994277954, 0.0, 0.0, 0.0, 0.0, 0.0, 1.6216121831423044E9, 2021-05-21 17:49:43.142
6.0, -217.15728759765625, -39.32130813598633, 221.48622131347656, -230.0805206298828, 0.0, 0.01600000075995922, 1.055999994277954, 0.0, 0.0, 0.0, 0.0, 0.0, 1.6216121831423044E9, 2021-05-21 17:49:43.142
7.0, -199.83033752441406, -30.8691349029541, 243.510498046875, -218.7037353515625, 0.0, 0.01600000075995922, 1.055999994277954, 0.0, 0.0, 0.0, 0.0, 0.0, 1.6216121831723437E9, 2021-05-21 17:49:43.172
7.0, -201.57687377929688, -21.30246925354004, 250.2572784423828, -212.7236328125, 0.0, 0.01600000075995922, 1.055999994277954, 0.0, 0.0, 0.0, 0.0, 0.0, 1.6216121831723437E9, 2021-05-21 17:49:43.172
8.0, -224.85400390625, -43.52869415283203, 232.24217224121094, -227.08485412597656, 0.0, 0.01600000075995922, 1.055999994277954, 0.0, 0.0, 0.0, 0.0, 0.0, 1.621612183172929E9, 2021-05-21 17:49:43.172
8.0, -217.84542846679688, -36.202232360839844, 237.29104614257812, -228.31153869628906, 0.0, 0.01600000075995922, 1.055999994277954, 0.0, 0.0, 0.0, 0.0, 0.0, 1.621612183172929E9, 2021-05-21 17:49:43.172
9.0, -205.06993103027344, -24.406587600708008, 248.55935668945312, -223.47959899902344, 0.0, 0.01600000075995922, 1.055999994277954, 0.0, 0.0, 0.0, 0.0, 0.0, 1.6216121831737156E9, 2021-05-21 17:49:43.173
9.0, -205.2793731689453, -27.241432189941406, 255.6389923095703, -221.94622802734375, 0.0, 0.01600000075995922, 1.055999994277954, 0.0, 0.0, 0.0, 0.0, 0.0, 1.6216121831737156E9, 2021-05-21 17:49:43.173
10.0, -231.24923706054688, -35.2597770690918, 237.0703887939453, -240.88134765625, 0.0, 0.01600000075995922, 1.055999994277954, 0.0, 0.0, 0.0, 0.0, 0.0, 1.621612183185956E9, 2021-05-21 17:49:43.185
10.0, -230.4563751220703, -36.89785385131836, 232.9153594970703, -243.8134307861328, 0.0, 0.01600000075995922, 1.055999994277954, 0.0, 0.0, 0.0, 0.0, 0.0, 1.621612183185956E9, 2021-05-21 17:49:43.185
11.0, -216.30833435058594, -23.71844482421875, 244.8157196044922, -235.8287353515625, 0.0, 0.0, 1.055999994277954, 0.0, 0.0, 0.0, 0.0, 0.0, 1.621612183201558E9, 2021-05-21 17:49:43.201
11.0, -215.276123046875, -13.370141983032227, 249.8197021484375, -236.0045166015625, 0.0, 0.0, 1.055999994277954, 0.0, 0.0, 0.0, 0.0, 0.0, 1.621612183201558E9, 2021-05-21 17:49:43.201
12.0, -229.7308349609375, -14.443493843078613, 235.22288513183594, -247.29153442382812, 0.01600000075995922, 0.0, 1.055999994277954, 0.0, 0.0, 0.0, 0.0, 0.0, 1.6216121832023084E9, 2021-05-21 17:49:43.202
12.0, -227.41583251953125, -27.910873413085938, 234.6581573486328, -252.08982849121094, 0.01600000075995922, 0.0, 1.055999994277954, 0.0, 0.0, 0.0, 0.0, 0.0, 1.6216121832023084E9, 2021-05-21 17:49:43.202
13.0, -208.5779571533203, -10.176267623901367, 248.13674926757812, -235.540771484375, 0.01600000075995922, 0.0, 1.055999994277954, 0.0, 0.0, 0.0, 0.0, 0.0, 1.6216121832483368E9, 2021-05-21 17:49:43.248
13.0, -215.9193878173828, -16.44059944152832, 242.0631561279297, -247.88992309570312, 0.01600000075995922, 0.0, 1.055999994277954, 0.0, 0.0, 0.0, 0.0, 0.0, 1.6216121832483368E9, 2021-05-21 17:49:43.248
14.0, -229.07261657714844, -34.534236907958984, 224.343505859375, -261.89208984375, 0.01600000075995922, 0.0, 1.055999994277954, 0.0, 0.0, 0.0, 0.0, 0.0, 1.6216121832490115E9, 2021-05-21 17:49:43.249
14.0, -222.0977020263672, -39.0333366394043, 217.24891662597656, -261.1889953613281, 0.01600000075995922, 0.0, 1.055999994277954, 0.0, 0.0, 0.0, 0.0, 0.0, 1.6216121832490115E9, 2021-05-21 17:49:43.249
15.0, -203.55902099609375, -35.828243255615234, 232.47030639648438, -246.1770477294922, 0.01600000075995922, 0.0, 1.055999994277954, 0.0, 0.0, 0.0, 0.0, 0.0, 1.6216121832498028E9, 2021-05-21 17:49:43.249
15.0, -203.83203125, -28.370880126953125, 241.6031494140625, -230.73126220703125, 0.01600000075995922, 0.0, 1.055999994277954, 0.0, 0.0, 0.0, 0.0, 0.0, 1.6216121832498028E9, 2021-05-21 17:49:43.249
16.0, -227.36721801757812, -43.12104797363281, 222.6979522705078, -242.46331787109375, 0.01600000075995922, 0.0, 1.055999994277954, 0.0, 0.0, 0.0, 0.0, 0.0, 1.6216121832623067E9, 2021-05-21 17:49:43.262
16.0, -217.32933044433594, -42.58998107910156, 227.50746154785156, -233.2482147216797, 0.01600000075995922, 0.0, 1.055999994277954, 0.0, 0.0, 0.0, 0.0, 0.0, 1.6216121832623067E9, 2021-05-21 17:49:43.262
17.0, -206.33401489257812, -30.248310089111328, 239.06748962402344, -224.35098266601562, 0.01600000075995922, 0.0, 1.055999994277954, 0.0, 0.0, 0.0, 0.0, 0.0, 1.6216121832629747E9, 2021-05-21 17:49:43.262
17.0, -215.6426239013672, -24.141054153442383, 247.68048095703125, -220.1623077392578, 0.01600000075995922, 0.0, 1.055999994277954, 0.0, 0.0, 0.0, 0.0, 0.0, 1.6216121832629747E9, 2021-05-21 17:49:43.262
18.0, -227.07176208496094, -37.14094543457031, 231.8120880126953, -229.60928344726562, 0.01600000075995922, 0.0, 1.055999994277954, 0.0, 0.0, 0.0, 0.0, 0.0, 1.6216121832637427E9, 2021-05-21 17:49:43.263
18.0, -217.63973999023438, -37.50371551513672, 236.40093994140625, -233.43521118164062, 0.01600000075995922, 0.0, 1.055999994277954, 0.0, 0.0, 0.0, 0.0, 0.0, 1.6216121832637427E9, 2021-05-21 17:49:43.263
19.0, -209.2586212158203, -24.245771408081055, 246.82778930664062, -227.16712951660156, 0.01600000075995922, 0.0, 1.055999994277954, 0.0, 0.0, 0.0, 0.0, 0.0, 1.621612183292325E9, 2021-05-21 17:49:43.292
19.0, -212.01492309570312, -17.652328491210938, 257.4603271484375, -217.44338989257812, 0.01600000075995922, 0.0, 1.055999994277954, 0.0, 0.0, 0.0, 0.0, 0.0, 1.621612183292325E9, 2021-05-21 17:49:43.292
20.0, -232.82373046875, -29.59756851196289, 235.89979553222656, -244.37066650390625, 0.01600000075995922, 0.0, 1.055999994277954, 0.0, 0.0, 0.0, 0.0, 0.0, 1.621612183292899E9, 2021-05-21 17:49:43.292
20.0, -233.586669921875, -34.21260452270508, 231.2660675048828, -247.1195068359375, 0.01600000075995922, 0.0, 1.055999994277954, 0.0, 0.0, 0.0, 0.0, 0.0, 1.621612183292899E9, 2021-05-21 17:49:43.292
21.0, -205.36538696289062, -14.869842529296875, 247.16812133789062, -233.3753662109375, 0.01600000075995922, 0.0, 1.055999994277954, 0.0, 0.0, 0.0, 0.0, 0.0, 1.6216121832937555E9, 2021-05-21 17:49:43.293
21.0, -217.97633361816406, -12.49500560760498, 245.54873657226562, -242.04444885253906, 0.01600000075995922, 0.0, 1.055999994277954, 0.0, 0.0, 0.0, 0.0, 0.0, 1.6216121832937555E9, 2021-05-21 17:49:43.293
22.0, -232.04957580566406, -26.153120040893555, 232.2346954345703, -251.74949645996094, 0.01600000075995922, 0.0, 1.055999994277954, 0.0, 0.0, 0.0, 0.0, 0.0, 1.6216121833059175E9, 2021-05-21 17:49:43.305
22.0, -226.9333953857422, -20.513351440429688, 231.48672485351562, -244.02285766601562, 0.01600000075995922, 0.0, 1.055999994277954, 0.0, 0.0, 0.0, 0.0, 0.0, 1.6216121833059175E9, 2021-05-21 17:49:43.305
23.0, -217.38168334960938, -18.224533081054688, 237.90438842773438, -237.90438842773438, 0.01600000075995922, 0.0, 1.055999994277954, 0.0, 0.0, 0.0, 0.0, 0.0, 1.621612183321546E9, 2021-05-21 17:49:43.321
23.0, -209.32968139648438, -17.27459716796875, 249.4532012939453, -233.04251098632812, 0.01600000075995922, 0.0, 1.055999994277954, 0.0, 0.0, 0.0, 0.0, 0.0, 1.621612183321546E9, 2021-05-21 17:49:43.321
24.0, -230.04498291015625, -43.562355041503906, 224.54920959472656, -246.8651885986328, 0.01600000075995922, 0.0, 1.055999994277954, 0.0, 0.0, 0.0, 0.0, 0.0, 1.6216121833222609E9, 2021-05-21 17:49:43.322
24.0, -214.20277404785156, -42.51518249511719, 229.3923797607422, -237.30599975585938, 0.01600000075995922, 0.0, 1.055999994277954, 0.0, 0.0, 0.0, 0.0, 0.0, 1.6216121833222609E9, 2021-05-21 17:49:43.322
25.0, -199.3329315185547, -34.22008514404297, 235.00596618652344, -226.0863037109375, 0.01600000075995922, 0.0, 1.055999994277954, 0.0, 0.0, 0.0, 0.0, 0.0, 1.6216121833522975E9, 2021-05-21 17:49:43.352
25.0, -208.48072814941406, -38.15446090698242, 240.18946838378906, -224.11537170410156, 0.01600000075995922, 0.0, 1.055999994277954, 0.0, 0.0, 0.0, 0.0, 0.0, 1.6216121833522975E9, 2021-05-21 17:49:43.352
26.0, -221.9256591796875, -48.31576919555664, 225.9591522216797, -234.27294921875, 0.01600000075995922, 0.0, 1.055999994277954, 0.0, 0.0, 0.0, 0.0, 0.0, 1.621612183352998E9, 2021-05-21 17:49:43.352
26.0, -220.1005859375, -50.20815658569336, 225.48043823242188, -224.7399444580078, 0.01600000075995922, 0.0, 1.055999994277954, 0.0, 0.0, 0.0, 0.0, 0.0, 1.621612183352998E9, 2021-05-21 17:49:43.352
27.0, -205.41773986816406, -34.863346099853516, 239.01513671875, -215.59588623046875, 0.01600000075995922, 0.0, 1.055999994277954, 0.0, 0.0, 0.0, 0.0, 0.0, 1.6216121833537364E9, 2021-05-21 17:49:43.353
27.0, -212.65818786621094, -27.574281692504883, 241.62557983398438, -218.73365783691406, 0.01600000075995922, 0.0, 1.055999994277954, 0.0, 0.0, 0.0, 0.0, 0.0, 1.6216121833537364E9, 2021-05-21 17:49:43.353
28.0, -225.2354736328125, -39.317569732666016, 227.1521759033203, -234.70677185058594, 0.01600000075995922, 0.0, 1.055999994277954, 0.0, 0.0, 0.0, 0.0, 0.0, 1.621612183365867E9, 2021-05-21 17:49:43.365
28.0, -222.0565643310547, -39.37740707397461, 222.5633087158203, -238.92538452148438, 0.01600000075995922, 0.0, 1.055999994277954, 0.0, 0.0, 0.0, 0.0, 0.0, 1.621612183365867E9, 2021-05-21 17:49:43.365
29.0, -205.16717529296875, -27.439645767211914, 235.3275909423828, -233.3304901123047, 0.01600000075995922, 0.0, 1.055999994277954, 0.0, 0.0, 0.0, 0.0, 0.0, 1.6216121833816454E9, 2021-05-21 17:49:43.381
29.0, -208.48072814941406, -23.284616470336914, 237.6126708984375, -236.1728057861328, 0.01600000075995922, 0.0, 1.055999994277954, 0.0, 0.0, 0.0, 0.0, 0.0, 1.6216121833816454E9, 2021-05-21 17:49:43.381
30.0, -229.96270751953125, -33.61048126220703, 216.32142639160156, -249.56166076660156, 0.01600000075995922, 0.0, 1.055999994277954, 0.0, 0.0, 0.0, 0.0, 0.0, 1.621612183382368E9, 2021-05-21 17:49:43.382
30.0, -220.09310913085938, -27.974451065063477, 216.04092407226562, -244.1462860107422, 0.01600000075995922, 0.0, 1.055999994277954, 0.0, 0.0, 0.0, 0.0, 0.0, 1.621612183382368E9, 2021-05-21 17:49:43.382
31.0, -211.14727783203125, -15.370988845825195, 226.53509521484375, -244.72970581054688, 0.01600000075995922, 0.0, 1.055999994277954, 0.0, 0.0, 0.0, 0.0, 0.0, 1.6216121834120252E9, 2021-05-21 17:49:43.412
31.0, -213.79885864257812, -12.083617210388184, 236.0419158935547, -240.60833740234375, 0.01600000075995922, 0.0, 1.055999994277954, 0.0, 0.0, 0.0, 0.0, 0.0, 1.6216121834120252E9, 2021-05-21 17:49:43.412
32.0, -223.97886657714844, -27.484525680541992, 229.261474609375, -250.635009765625, 0.01600000075995922, 0.0, 1.055999994277954, 0.0, 0.0, 0.0, 0.0, 0.0, 1.621612183412773E9, 2021-05-21 17:49:43.412
32.0, -210.07391357421875, -29.81074333190918, 226.2059783935547, -251.17355346679688, 0.01600000075995922, 0.0, 1.055999994277954, 0.0, 0.0, 0.0, 0.0, 0.0, 1.621612183412773E9, 2021-05-21 17:49:43.412
33.0, -194.84878540039062, -24.062517166137695, 239.778076171875, -232.0626678466797, 0.01600000075995922, 0.0, 1.055999994277954, 0.0, 0.0, 0.0, 0.0, 0.0, 1.6216121834265757E9, 2021-05-21 17:49:43.426
33.0, -196.11660766601562, -22.32720184326172, 247.56080627441406, -226.74452209472656, 0.01600000075995922, 0.0, 1.055999994277954, 0.0, 0.0, 0.0, 0.0, 0.0, 1.6216121834265757E9, 2021-05-21 17:49:43.426
34.0, -216.1250762939453, -38.150718688964844, 231.1650848388672, -235.15182495117188, 0.01600000075995922, 0.0, 1.055999994277954, 0.0, 0.0, 0.0, 0.0, 0.0, 1.6216121834272792E9, 2021-05-21 17:49:43.427
34.0, -215.9418182373047, -39.8074951171875, 227.571044921875, -233.7942352294922, 0.01600000075995922, 0.0, 1.055999994277954, 0.0, 0.0, 0.0, 0.0, 0.0, 1.6216121834272792E9, 2021-05-21 17:49:43.427
35.0, -198.59991455078125, -23.112581253051758, 245.82923889160156, -217.37982177734375, 0.01600000075995922, 0.0, 1.055999994277954, 0.0, 0.0, 0.0, 0.0, 0.0, 1.621612183441575E9, 2021-05-21 17:49:43.441
35.0, -202.91201782226562, -22.903146743774414, 253.76904296875, -209.94114685058594, 0.01600000075995922, 0.0, 1.055999994277954, 0.0, 0.0, 0.0, 0.0, 0.0, 1.621612183441575E9, 2021-05-21 17:49:43.441
36.0, -224.40147399902344, -35.592628479003906, 233.35667419433594, -229.51953125, 0.01600000075995922, 0.0, 1.055999994277954, 0.0, 0.0, 0.0, 0.0, 0.0, 1.62161218344231E9, 2021-05-21 17:49:43.442
36.0, -223.38047790527344, -34.41455841064453, 231.31468200683594, -228.1731719970703, 0.01600000075995922, 0.0, 1.055999994277954, 0.0, 0.0, 0.0, 0.0, 0.0, 1.62161218344231E9, 2021-05-21 17:49:43.442
37.0, -209.66627502441406, -30.45400619506836, 247.5009765625, -220.6671905517578, 0.01600000075995922, 0.0, 1.055999994277954, 0.0, 0.0, 0.0, 0.0, 0.0, 1.6216121834558856E9, 2021-05-21 17:49:43.455
37.0, -222.87933349609375, -24.410327911376953, 246.79039001464844, -227.4775390625, 0.01600000075995922, 0.0, 1.055999994277954, 0.0, 0.0, 0.0, 0.0, 0.0, 1.6216121834558856E9, 2021-05-21 17:49:43.455
38.0, -238.61309814453125, -34.73992919921875, 232.92657470703125, -233.82789611816406, 0.01600000075995922, 0.0, 1.055999994277954, 0.0, 0.0, 0.0, 0.0, 0.0, 1.6216121834715774E9, 2021-05-21 17:49:43.471
38.0, -227.28868103027344, -38.745365142822266, 229.4634246826172, -236.31492614746094, 0.01600000075995922, 0.0, 1.055999994277954, 0.0, 0.0, 0.0, 0.0, 0.0, 1.6216121834715774E9, 2021-05-21 17:49:43.471
39.0, -203.7796630859375, -23.3107967376709, 243.68252563476562, -227.60096740722656, 0.01600000075995922, 0.0, 1.055999994277954, 0.0, 0.0, 0.0, 0.0, 0.0, 1.621612183472314E9, 2021-05-21 17:49:43.472
39.0, -212.07850646972656, -23.494050979614258, 241.45355224609375, -240.86264038085938, 0.01600000075995922, 0.0, 1.055999994277954, 0.0, 0.0, 0.0, 0.0, 0.0, 1.621612183472314E9, 2021-05-21 17:49:43.472
40.0, -222.03785705566406, -38.6930046081543, 227.06240844726562, -256.89935302734375, 0.01600000075995922, 0.0, 1.055999994277954, 0.0, 0.0, 0.0, 0.0, 0.0, 1.6216121834859016E9, 2021-05-21 17:49:43.485
40.0, -214.0457000732422, -38.60698699951172, 218.91317749023438, -257.2135009765625, 0.01600000075995922, 0.0, 1.055999994277954, 0.0, 0.0, 0.0, 0.0, 0.0, 1.6216121834859016E9, 2021-05-21 17:49:43.485
41.0, -201.93589782714844, -26.628087997436523, 231.0042724609375, -248.7164306640625, 0.01600000075995922, 0.0, 1.055999994277954, 0.0, 0.0, 0.0, 0.0, 0.0, 1.6216121835015728E9, 2021-05-21 17:49:43.501
41.0, -207.11566162109375, -26.41117286682129, 232.0701446533203, -250.3320770263672, 0.01600000075995922, 0.0, 1.055999994277954, 0.0, 0.0, 0.0, 0.0, 0.0, 1.6216121835015728E9, 2021-05-21 17:49:43.501
42.0, -214.24017333984375, -38.206817626953125, 227.55982971191406, -249.84588623046875, 0.01600000075995922, 0.0, 1.055999994277954, 0.0, 0.0, 0.0, 0.0, 0.0, 1.621612183502301E9, 2021-05-21 17:49:43.502
42.0, -214.83480834960938, -41.550289154052734, 220.01271057128906, -251.67095947265625, 0.01600000075995922, 0.0, 1.055999994277954, 0.0, 0.0, 0.0, 0.0, 0.0, 1.621612183502301E9, 2021-05-21 17:49:43.502
43.0, -198.7008819580078, -22.70867347717285, 235.2789764404297, -228.04226684570312, 0.01600000075995922, 0.0, 1.055999994277954, 0.0, 0.0, 0.0, 0.0, 0.0, 1.6216121835158997E9, 2021-05-21 17:49:43.515
43.0, -205.12229919433594, -30.45400619506836, 238.15121459960938, -227.5186767578125, 0.01600000075995922, 0.0, 1.055999994277954, 0.0, 0.0, 0.0, 0.0, 0.0, 1.6216121835158997E9, 2021-05-21 17:49:43.515
44.0, -223.73577880859375, -40.024410247802734, 226.6884307861328, -233.91017150878906, 0.01600000075995922, 0.0, 1.055999994277954, 0.0, 0.0, 0.0, 0.0, 0.0, 1.6216121835316143E9, 2021-05-21 17:49:43.531
44.0, -220.534423828125, -39.22780990600586, 224.4220428466797, -233.6708221435547, 0.01600000075995922, 0.0, 1.055999994277954, 0.0, 0.0, 0.0, 0.0, 0.0, 1.6216121835316143E9, 2021-05-21 17:49:43.531
45.0, -203.34210205078125, -23.411773681640625, 239.90896606445312, -222.32395935058594, 0.01600000075995922, 0.0, 1.055999994277954, 0.0, 0.0, 0.0, 0.0, 0.0, 1.6216121835323153E9, 2021-05-21 17:49:43.532
45.0, -215.80718994140625, -18.957551956176758, 242.72137451171875, -216.34385681152344, 0.01600000075995922, 0.0, 1.055999994277954, 0.0, 0.0, 0.0, 0.0, 0.0, 1.6216121835323153E9, 2021-05-21 17:49:43.532
46.0, -232.43478393554688, -29.522769927978516, 230.2263641357422, -223.01210021972656, 0.01600000075995922, 0.0, 1.055999994277954, 0.0, 0.0, 0.0, 0.0, 0.0, 1.621612183545886E9, 2021-05-21 17:49:43.545
46.0, -233.98684692382812, -33.83113479614258, 221.23565673828125, -228.67431640625, 0.01600000075995922, 0.0, 1.055999994277954, 0.0, 0.0, 0.0, 0.0, 0.0, 1.621612183545886E9, 2021-05-21 17:49:43.545
47.0, -207.90478515625, -22.78721046447754, 240.45126342773438, -222.92608642578125, 0.01600000075995922, 0.0, 1.055999994277954, 0.0, 0.0, 0.0, 0.0, 0.0, 1.6216121835623448E9, 2021-05-21 17:49:43.562
47.0, -217.67713928222656, -12.416467666625977, 238.5551300048828, -227.15965270996094, 0.01600000075995922, 0.0, 1.055999994277954, 0.0, 0.0, 0.0, 0.0, 0.0, 1.6216121835623448E9, 2021-05-21 17:49:43.562
48.0, -240.29605102539062, -32.33891677856445, 229.51953125, -239.12359619140625, 0.01600000075995922, 0.0, 1.055999994277954, 0.0, 0.0, 0.0, 0.0, 0.0, 1.6216121835629344E9, 2021-05-21 17:49:43.562
48.0, -228.93423461914062, -34.65391159057617, 227.1484375, -242.98690795898438, 0.01600000075995922, 0.0, 1.055999994277954, 0.0, 0.0, 0.0, 0.0, 0.0, 1.6216121835629344E9, 2021-05-21 17:49:43.562
49.0, -210.0963592529297, -25.786609649658203, 235.8848419189453, -229.0071563720703, 0.01600000075995922, 0.0, 1.055999994277954, 0.0, 0.0, 0.0, 0.0, 0.0, 1.6216121835758924E9, 2021-05-21 17:49:43.575
49.0, -221.61151123046875, -20.29269790649414, 240.50735473632812, -233.52870178222656, 0.01600000075995922, 0.0, 1.055999994277954, 0.0, 0.0, 0.0, 0.0, 0.0, 1.6216121835758924E9, 2021-05-21 17:49:43.575
50.0, -237.4387664794922, -29.515291213989258, 221.30296325683594, -249.63645935058594, 0.01600000075995922, 0.0, 1.055999994277954, 0.0, 0.0, 0.0, 0.0, 0.0, 1.6216121835915596E9, 2021-05-21 17:49:43.591
50.0, -226.8922576904297, -36.924034118652344, 220.6148223876953, -249.4943389892578, 0.01600000075995922, 0.0, 1.055999994277954, 0.0, 0.0, 0.0, 0.0, 0.0, 1.6216121835915596E9, 2021-05-21 17:49:43.591
51.0, -209.8121337890625, -34.79602813720703, 230.8397216796875, -242.1865692138672, 0.01600000075995922, 0.01600000075995922, 1.055999994277954, 0.0, 0.0, 0.0, 0.0, 0.0, 1.6216121835923069E9, 2021-05-21 17:49:43.592
51.0, -215.39205932617188, -24.922693252563477, 233.850341796875, -238.44293212890625, 0.01600000075995922, 0.01600000075995922, 1.055999994277954, 0.0, 0.0, 0.0, 0.0, 0.0, 1.6216121835923069E9, 2021-05-21 17:49:43.592
52.0, -228.89309692382812, -39.639198303222656, 220.39791870117188, -245.35052490234375, 0.01600000075995922, 0.01600000075995922, 1.055999994277954, 0.0, 0.0, 0.0, 0.0, 0.0, 1.6216121836059132E9, 2021-05-21 17:49:43.605
52.0, -226.29013061523438, -41.24735641479492, 221.3740234375, -239.29562377929688, 0.01600000075995922, 0.01600000075995922, 1.055999994277954, 0.0, 0.0, 0.0, 0.0, 0.0, 1.6216121836059132E9, 2021-05-21 17:49:43.605
53.0, -205.24945068359375, -24.38414764404297, 235.65296936035156, -227.04371643066406, 0.01600000075995922, 0.01600000075995922, 1.055999994277954, 0.0, 0.0, 0.0, 0.0, 0.0, 1.621612183621594E9, 2021-05-21 17:49:43.621
53.0, -215.7398681640625, -28.408279418945312, 238.8356170654297, -225.80581665039062, 0.01600000075995922, 0.01600000075995922, 1.055999994277954, 0.0, 0.0, 0.0, 0.0, 0.0, 1.621612183621594E9, 2021-05-21 17:49:43.621
54.0, -227.45697021484375, -36.389225006103516, 223.07568359375, -234.62449645996094, 0.01600000075995922, 0.01600000075995922, 1.055999994277954, 0.0, 0.0, 0.0, 0.0, 0.0, 1.6216121836222606E9, 2021-05-21 17:49:43.622
54.0, -222.78958129882812, -39.18292999267578, 226.90533447265625, -228.7528533935547, 0.01600000075995922, 0.01600000075995922, 1.055999994277954, 0.0, 0.0, 0.0, 0.0, 0.0, 1.6216121836222606E9, 2021-05-21 17:49:43.622
55.0, -207.71778869628906, -27.058176040649414, 232.76576232910156, -222.37257385253906, 0.01600000075995922, 0.01600000075995922, 1.055999994277954, 0.0, 0.0, 0.0, 0.0, 0.0, 1.6216121836359935E9, 2021-05-21 17:49:43.635
55.0, -209.26983642578125, -29.324556350708008, 238.7533416748047, -224.73245239257812, 0.01600000075995922, 0.01600000075995922, 1.055999994277954, 0.0, 0.0, 0.0, 0.0, 0.0, 1.6216121836359935E9, 2021-05-21 17:49:43.635
56.0, -230.43768310546875, -34.27618408203125, 225.869384765625, -237.34339904785156, 0.01600000075995922, 0.01600000075995922, 1.055999994277954, 0.0, 0.0, 0.0, 0.0, 0.0, 1.621612183651556E9, 2021-05-21 17:49:43.651
56.0, -230.4975128173828, -37.75054931640625, 224.20138549804688, -234.03358459472656, 0.01600000075995922, 0.01600000075995922, 1.055999994277954, 0.0, 0.0, 0.0, 0.0, 0.0, 1.621612183651556E9, 2021-05-21 17:49:43.651
57.0, -214.4271697998047, -24.60854148864746, 229.7401885986328, -229.51953125, 0.01600000075995922, 0.01600000075995922, 1.055999994277954, 0.0, 0.0, 0.0, 0.0, 0.0, 1.6216121836522937E9, 2021-05-21 17:49:43.652
57.0, -214.2925262451172, -13.811450958251953, 242.43714904785156, -223.86480712890625, 0.01600000075995922, 0.01600000075995922, 1.055999994277954, 0.0, 0.0, 0.0, 0.0, 0.0, 1.6216121836522937E9, 2021-05-21 17:49:43.652
58.0, -240.4157257080078, -29.11138153076172, 225.50662231445312, -235.12564086914062, 0.01600000075995922, 0.01600000075995922, 1.055999994277954, 0.0, 0.0, 0.0, 0.0, 0.0, 1.6216121836823943E9, 2021-05-21 17:49:43.682
58.0, -232.35250854492188, -29.866840362548828, 227.1895751953125, -236.77493286132812, 0.01600000075995922, 0.01600000075995922, 1.055999994277954, 0.0, 0.0, 0.0, 0.0, 0.0, 1.6216121836823943E9, 2021-05-21 17:49:43.682
59.0, -210.47035217285156, -11.848003387451172, 240.2380828857422, -224.1228485107422, 0.01600000075995922, 0.01600000075995922, 1.055999994277954, 0.0, 0.0, 0.0, 0.0, 0.0, 1.621612183683123E9, 2021-05-21 17:49:43.683
59.0, -212.16078186035156, -20.55449104309082, 245.6197967529297, -225.97410583496094, 0.01600000075995922, 0.01600000075995922, 1.055999994277954, 0.0, 0.0, 0.0, 0.0, 0.0, 1.621612183683123E9, 2021-05-21 17:49:43.683
60.0, -230.63963317871094, -30.962631225585938, 236.1017608642578, -237.3695831298828, 0.01600000075995922, 0.01600000075995922, 1.055999994277954, 0.0, 0.0, 0.0, 0.0, 0.0, 1.6216121836838849E9, 2021-05-21 17:49:43.683
60.0, -223.7881317138672, -33.92463302612305, 234.02236938476562, -232.10006713867188, 0.01600000075995922, 0.01600000075995922, 1.055999994277954, 0.0, 0.0, 0.0, 0.0, 0.0, 1.6216121836838849E9, 2021-05-21 17:49:43.683
61.0, -205.63465881347656, -26.067102432250977, 245.04385375976562, -234.82644653320312, 0.01600000075995922, 0.01600000075995922, 1.055999994277954, 0.0, 0.0, 0.0, 0.0, 0.0, 1.621612183695896E9, 2021-05-21 17:49:43.695
61.0, -209.4156951904297, -22.903146743774414, 243.20008850097656, -229.0557861328125, 0.01600000075995922, 0.01600000075995922, 1.055999994277954, 0.0, 0.0, 0.0, 0.0, 0.0, 1.621612183695896E9, 2021-05-21 17:49:43.695
62.0, -229.08009338378906, -49.991241455078125, 219.9678192138672, -250.1750030517578, 0.01600000075995922, 0.01600000075995922, 1.055999994277954, 0.0, 0.0, 0.0, 0.0, 0.0, 1.6216121837116046E9, 2021-05-21 17:49:43.711
62.0, -230.3254852294922, -48.282108306884766, 210.55450439453125, -246.7417755126953, 0.01600000075995922, 0.01600000075995922, 1.055999994277954, 0.0, 0.0, 0.0, 0.0, 0.0, 1.6216121837116046E9, 2021-05-21 17:49:43.711
63.0, -205.95628356933594, -33.3524284362793, 229.59059143066406, -231.96168518066406, 0.01600000075995922, 0.01600000075995922, 1.055999994277954, 0.0, 0.0, 0.0, 0.0, 0.0, 1.6216121837123237E9, 2021-05-21 17:49:43.712
63.0, -213.64552307128906, -31.344100952148438, 235.447265625, -232.9078826904297, 0.01600000075995922, 0.01600000075995922, 1.055999994277954, 0.0, 0.0, 0.0, 0.0, 0.0, 1.6216121837123237E9, 2021-05-21 17:49:43.712
64.0, -229.57749938964844, -35.54026794433594, 213.92788696289062, -238.28211975097656, 0.01600000075995922, 0.01600000075995922, 1.055999994277954, 0.0, 0.0, 0.0, 0.0, 0.0, 1.6216121837259064E9, 2021-05-21 17:49:43.725
64.0, -228.13389587402344, -43.94756317138672, 210.0496063232422, -234.9797821044922, 0.01600000075995922, 0.01600000075995922, 1.055999994277954, 0.0, 0.0, 0.0, 0.0, 0.0, 1.6216121837259064E9, 2021-05-21 17:49:43.725
65.0, -212.96112060546875, -20.401153564453125, 232.80690002441406, -222.3501434326172, 0.01600000075995922, 0.01600000075995922, 1.055999994277954, 0.0, 0.0, 0.0, 0.0, 0.0, 1.6216121837416224E9, 2021-05-21 17:49:43.741
65.0, -219.57327270507812, -20.04586410522461, 232.9078826904297, -227.1858367919922, 0.01600000075995922, 0.01600000075995922, 1.055999994277954, 0.0, 0.0, 0.0, 0.0, 0.0, 1.6216121837416224E9, 2021-05-21 17:49:43.741
66.0, -238.65797424316406, -29.95659828186035, 215.92498779296875, -240.52230834960938, 0.01600000075995922, 0.01600000075995922, 1.055999994277954, 0.0, 0.0, 0.0, 0.0, 0.0, 1.62161218374237E9, 2021-05-21 17:49:43.742
66.0, -232.16177368164062, -33.06819534301758, 209.31285095214844, -249.8571014404297, 0.01600000075995922, 0.01600000075995922, 1.055999994277954, 0.0, 0.0, 0.0, 0.0, 0.0, 1.62161218374237E9, 2021-05-21 17:49:43.742
67.0, -206.35646057128906, -20.876121520996094, 224.45570373535156, -230.64523315429688, 0.01600000075995922, 0.01600000075995922, 1.055999994277954, 0.0, 0.0, 0.0, 0.0, 0.0, 1.6216121837559168E9, 2021-05-21 17:49:43.755
67.0, -213.67918395996094, -28.370880126953125, 225.00547790527344, -239.06375122070312, 0.01600000075995922, 0.01600000075995922, 1.055999994277954, 0.0, 0.0, 0.0, 0.0, 0.0, 1.6216121837559168E9, 2021-05-21 17:49:43.755
68.0, -220.17538452148438, -33.819915771484375, 221.0710906982422, -247.15689086914062, 0.01600000075995922, 0.01600000075995922, 1.055999994277954, 0.0, 0.0, 0.0, 0.0, 0.0, 1.6216121837716036E9, 2021-05-21 17:49:43.771
68.0, -222.65867614746094, -30.16977310180664, 224.6800994873047, -245.11117553710938, 0.01600000075995922, 0.01600000075995922, 1.055999994277954, 0.0, 0.0, 0.0, 0.0, 0.0, 1.6216121837716036E9, 2021-05-21 17:49:43.771
69.0, -213.46226501464844, -24.55244255065918, 228.98846435546875, -237.12648010253906, 0.01600000075995922, 0.01600000075995922, 1.055999994277954, 0.0, 0.0, 0.0, 0.0, 0.0, 1.6216121837723558E9, 2021-05-21 17:49:43.772
69.0, -221.86209106445312, -18.05997657775879, 233.47634887695312, -233.77178955078125, 0.01600000075995922, 0.01600000075995922, 1.055999994277954, 0.0, 0.0, 0.0, 0.0, 0.0, 1.6216121837723558E9, 2021-05-21 17:49:43.772
70.0, -235.47158813476562, -27.910873413085938, 227.25689697265625, -242.2314453125, 0.01600000075995922, 0.01600000075995922, 1.055999994277954, 0.0, 0.0, 0.0, 0.0, 0.0, 1.621612183785881E9, 2021-05-21 17:49:43.785
70.0, -231.20062255859375, -30.19221305847168, 226.0825653076172, -243.35342407226562, 0.01600000075995922, 0.01600000075995922, 1.055999994277954, 0.0, 0.0, 0.0, 0.0, 0.0, 1.621612183785881E9, 2021-05-21 17:49:43.785
71.0, -209.82708740234375, -22.01679039001465, 238.0465087890625, -228.88748168945312, 0.01600000075995922, 0.0, 1.055999994277954, 0.0, 0.0, 0.0, 0.0, 0.0, 1.6216121838023248E9, 2021-05-21 17:49:43.802
71.0, -216.77581787109375, -25.483678817749023, 240.05482482910156, -227.7879638671875, 0.01600000075995922, 0.0, 1.055999994277954, 0.0, 0.0, 0.0, 0.0, 0.0, 1.6216121838023248E9, 2021-05-21 17:49:43.802
72.0, -230.51622009277344, -38.99219512939453, 227.20452880859375, -234.3140869140625, 0.01600000075995922, 0.0, 1.055999994277954, 0.0, 0.0, 0.0, 0.0, 0.0, 1.6216121838029704E9, 2021-05-21 17:49:43.802
72.0, -226.48460388183594, -38.820159912109375, 225.61508178710938, -231.80087280273438, 0.01600000075995922, 0.0, 1.055999994277954, 0.0, 0.0, 0.0, 0.0, 0.0, 1.6216121838029704E9, 2021-05-21 17:49:43.802
73.0, -209.16139221191406, -29.500329971313477, 235.01344299316406, -224.37342834472656, 0.01600000075995922, 0.0, 1.055999994277954, 0.0, 0.0, 0.0, 0.0, 0.0, 1.6216121838158464E9, 2021-05-21 17:49:43.815
73.0, -218.69064331054688, -24.256990432739258, 238.8131866455078, -220.9925537109375, 0.01600000075995922, 0.0, 1.055999994277954, 0.0, 0.0, 0.0, 0.0, 0.0, 1.6216121838158464E9, 2021-05-21 17:49:43.815
74.0, -233.15284729003906, -33.99195098876953, 225.27474975585938, -226.83428955078125, 0.01600000075995922, 0.0, 1.055999994277954, 0.0, 0.0, 0.0, 0.0, 0.0, 1.6216121838316731E9, 2021-05-21 17:49:43.831
74.0, -236.0924072265625, -41.94671630859375, 214.86660766601562, -240.33157348632812, 0.01600000075995922, 0.0, 1.055999994277954, 0.0, 0.0, 0.0, 0.0, 0.0, 1.6216121838316731E9, 2021-05-21 17:49:43.831
75.0, -220.68775939941406, -21.37352752685547, 232.489013671875, -223.4534149169922, 0.01600000075995922, 0.0, 1.055999994277954, 0.0, 0.0, 0.0, 0.0, 0.0, 1.6216121838323784E9, 2021-05-21 17:49:43.832
75.0, -221.9406280517578, -21.45206642150879, 235.4846649169922, -223.68902587890625, 0.01600000075995922, 0.0, 1.055999994277954, 0.0, 0.0, 0.0, 0.0, 0.0, 1.6216121838323784E9, 2021-05-21 17:49:43.832
76.0, -235.63987731933594, -38.016082763671875, 216.43362426757812, -245.3206024169922, 0.01600000075995922, 0.0, 1.055999994277954, 0.0, 0.0, 0.0, 0.0, 0.0, 1.6216121838793333E9, 2021-05-21 17:49:43.879
76.0, -223.00650024414062, -33.22526931762695, 222.27908325195312, -243.03927612304688, 0.01600000075995922, 0.0, 1.055999994277954, 0.0, 0.0, 0.0, 0.0, 0.0, 1.6216121838793333E9, 2021-05-21 17:49:43.879
77.0, -206.9286651611328, -22.13646697998047, 234.18692016601562, -238.3718719482422, 0.01600000075995922, 0.0, 1.055999994277954, 0.0, 0.0, 0.0, 0.0, 0.0, 1.6216121838799856E9, 2021-05-21 17:49:43.879
77.0, -216.73094177246094, -23.232257843017578, 233.9326171875, -236.83103942871094, 0.01600000075995922, 0.0, 1.055999994277954, 0.0, 0.0, 0.0, 0.0, 0.0, 1.6216121838799856E9, 2021-05-21 17:49:43.879
78.0, -232.0645294189453, -31.542316436767578, 223.0719451904297, -247.27658081054688, 0.01600000075995922, 0.0, 1.055999994277954, 0.0, 0.0, 0.0, 0.0, 0.0, 1.6216121838807757E9, 2021-05-21 17:49:43.880
78.0, -219.54708862304688, -31.878908157348633, 228.8762664794922, -241.52835083007812, 0.01600000075995922, 0.0, 1.055999994277954, 0.0, 0.0, 0.0, 0.0, 0.0, 1.6216121838807757E9, 2021-05-21 17:49:43.880
79.0, -213.85122680664062, -23.370634078979492, 233.4613800048828, -234.22805786132812, 0.01600000075995922, 0.0, 1.055999994277954, 0.0, 0.0, 0.0, 0.0, 0.0, 1.6216121838815012E9, 2021-05-21 17:49:43.881
79.0, -214.94326782226562, -7.644355297088623, 244.6175079345703, -228.5434112548828, 0.01600000075995922, 0.0, 1.055999994277954, 0.0, 0.0, 0.0, 0.0, 0.0, 1.6216121838815012E9, 2021-05-21 17:49:43.881
80.0, -231.3015899658203, -29.85188102722168, 226.0077667236328, -238.05772399902344, 0.01600000075995922, 0.0, 1.055999994277954, 0.0, 0.0, 0.0, 0.0, 0.0, 1.6216121838915455E9, 2021-05-21 17:49:43.891
80.0, -226.03955078125, -33.83487319946289, 219.24227905273438, -233.08364868164062, 0.01600000075995922, 0.0, 1.055999994277954, 0.0, 0.0, 0.0, 0.0, 0.0, 1.6216121838915455E9, 2021-05-21 17:49:43.891
81.0, -213.4510498046875, -17.637367248535156, 233.0500030517578, -219.54147338867188, 0.01600000075995922, 0.0, 1.055999994277954, 0.0, 0.0, 0.0, 0.0, 0.0, 1.6216121838922763E9, 2021-05-21 17:49:43.892
81.0, -222.93917846679688, -19.683094024658203, 237.55284118652344, -225.76841735839844, 0.01600000075995922, 0.0, 1.055999994277954, 0.0, 0.0, 0.0, 0.0, 0.0, 1.6216121838922763E9, 2021-05-21 17:49:43.892
82.0, -231.05850219726562, -29.178699493408203, 229.8636016845703, -224.4781494140625, 0.01600000075995922, 0.0, 1.055999994277954, 0.0, 0.0, 0.0, 0.0, 0.0, 1.6216121839059105E9, 2021-05-21 17:49:43.905
82.0, -226.64915466308594, -35.057823181152344, 224.65391540527344, -229.9795379638672, 0.01600000075995922, 0.0, 1.055999994277954, 0.0, 0.0, 0.0, 0.0, 0.0, 1.6216121839059105E9, 2021-05-21 17:49:43.905
83.0, -205.15220642089844, -27.93705177307129, 240.7841033935547, -219.23480224609375, 0.01600000075995922, 0.0, 1.055999994277954, 0.0, 0.0, 0.0, 0.0, 0.0, 1.6216121839387548E9, 2021-05-21 17:49:43.938
83.0, -212.7853546142578, -16.593936920166016, 245.3729705810547, -221.0075225830078, 0.01600000075995922, 0.0, 1.055999994277954, 0.0, 0.0, 0.0, 0.0, 0.0, 1.6216121839387548E9, 2021-05-21 17:49:43.938
84.0, -236.95631408691406, -40.248802185058594, 221.65826416015625, -244.18368530273438, 0.01600000075995922, 0.0, 1.055999994277954, 0.0, 0.0, 0.0, 0.0, 0.0, 1.6216121839395251E9, 2021-05-21 17:49:43.939
84.0, -226.32379150390625, -38.14323806762695, 217.1928253173828, -243.10658264160156, 0.01600000075995922, 0.0, 1.055999994277954, 0.0, 0.0, 0.0, 0.0, 0.0, 1.6216121839395251E9, 2021-05-21 17:49:43.939
85.0, -214.14292907714844, -24.522523880004883, 226.4677734375, -236.6066436767578, 0.01600000075995922, 0.0, 1.055999994277954, 0.0, 0.0, 0.0, 0.0, 0.0, 1.621612183940204E9, 2021-05-21 17:49:43.940
85.0, -209.8158721923828, -21.40718650817871, 232.489013671875, -239.28814697265625, 0.01600000075995922, 0.0, 1.055999994277954, 0.0, 0.0, 0.0, 0.0, 0.0, 1.621612183940204E9, 2021-05-21 17:49:43.940
86.0, -230.10108947753906, -31.25808334350586, 216.90110778808594, -252.0636444091797, 0.01600000075995922, 0.0, 1.055999994277954, 0.0, 0.0, 0.0, 0.0, 0.0, 1.6216121839409404E9, 2021-05-21 17:49:43.940
86.0, -224.5996856689453, -40.604095458984375, 214.0886993408203, -247.47853088378906, 0.01600000075995922, 0.0, 1.055999994277954, 0.0, 0.0, 0.0, 0.0, 0.0, 1.6216121839409404E9, 2021-05-21 17:49:43.940
87.0, -205.0138397216797, -27.28631019592285, 233.72691345214844, -245.2570343017578, 0.01600000075995922, 0.0, 1.055999994277954, 0.0, 0.0, 0.0, 0.0, 0.0, 1.6216121839509668E9, 2021-05-21 17:49:43.950
87.0, -208.7761688232422, -24.911474227905273, 239.32554626464844, -244.70726013183594, 0.01600000075995922, 0.0, 1.055999994277954, 0.0, 0.0, 0.0, 0.0, 0.0, 1.6216121839509668E9, 2021-05-21 17:49:43.950
88.0, -225.452392578125, -36.93151092529297, 227.0699005126953, -246.51364135742188, 0.01600000075995922, 0.0, 1.055999994277954, 0.0, 0.0, 0.0, 0.0, 0.0, 1.6216121839658935E9, 2021-05-21 17:49:43.965
88.0, -221.8994903564453, -36.13865280151367, 225.9254913330078, -245.08872985839844, 0.01600000075995922, 0.0, 1.055999994277954, 0.0, 0.0, 0.0, 0.0, 0.0, 1.6216121839658935E9, 2021-05-21 17:49:43.965
89.0, -211.3828887939453, -28.12778663635254, 235.5370330810547, -238.44667053222656, 0.01600000075995922, 0.0, 1.055999994277954, 0.0, 0.0, 0.0, 0.0, 0.0, 1.6216121839979873E9, 2021-05-21 17:49:43.997
89.0, -220.66531372070312, -24.26447105407715, 238.31204223632812, -233.08740234375, 0.01600000075995922, 0.0, 1.055999994277954, 0.0, 0.0, 0.0, 0.0, 0.0, 1.6216121839979873E9, 2021-05-21 17:49:43.997
90.0, -233.87091064453125, -34.018131256103516, 220.86166381835938, -238.05772399902344, 0.01600000075995922, 0.0, 1.055999994277954, 0.0, 0.0, 0.0, 0.0, 0.0, 1.621612183998731E9, 2021-05-21 17:49:43.998
90.0, -228.7248077392578, -37.967464447021484, 221.62086486816406, -236.0493927001953, 0.01600000075995922, 0.0, 1.055999994277954, 0.0, 0.0, 0.0, 0.0, 0.0, 1.621612183998731E9, 2021-05-21 17:49:43.998
91.0, -208.85096740722656, -23.138761520385742, 238.16244506835938, -221.87142944335938, 0.01600000075995922, 0.0, 1.055999994277954, 0.0, 0.0, 0.0, 0.0, 0.0, 1.6216121839994376E9, 2021-05-21 17:49:43.999
91.0, -211.027587890625, -19.073490142822266, 237.46681213378906, -223.22528076171875, 0.01600000075995922, 0.0, 1.055999994277954, 0.0, 0.0, 0.0, 0.0, 0.0, 1.6216121839994376E9, 2021-05-21 17:49:43.999
92.0, -232.80503845214844, -32.578269958496094, 223.81991577148438, -232.56381225585938, 0.01600000075995922, 0.0, 1.055999994277954, 0.0, 0.0, 0.0, 0.0, 0.0, 1.6216121840001817E9, 2021-05-21 17:49:44.000
92.0, -222.61380004882812, -32.25289535522461, 227.00631713867188, -230.30491638183594, 0.01600000075995922, 0.0, 1.055999994277954, 0.0, 0.0, 0.0, 0.0, 0.0, 1.6216121840001817E9, 2021-05-21 17:49:44.000
