Sample Index, EXG Channel 0, EXG Channel 1, EXG Channel 2, EXG Channel 3, Accel Channel 0, Accel Channel 1, Accel Channel 2, Other, Other, Other, Other, Other, Timestamp, Timestamp (Formatted)
0.0, -141.3102569580078, 43.7923583984375, 181.1944122314453, -216.82630920410156, 0.0, 0.0, 0.0, 0.0, 0.0, 0.0, 0.0, 0.0, 1.621608693877026E9, 2021-05-21 16:51:33.877
1.0, -161.39724731445312, 30.575551986694336, 159.91064453125, -230.1216583251953, 0.0, 0.0, 0.0, 0.0, 0.0, 0.0, 0.0, 0.0, 1.6216086938778093E9, 2021-05-21 16:51:33.877
1.0, -138.10890197753906, 26.674837112426758, 183.5580291748047, -219.7209930419922, 0.0, 0.0, 0.0, 0.0, 0.0, 0.0, 0.0, 0.0, 1.6216086938778093E9, 2021-05-21 16:51:33.877
2.0, -113.8519058227539, 64.09253692626953, 211.7157440185547, -191.25660705566406, 0.03200000151991844, 0.0, 0.0, 0.0, 0.0, 0.0, 0.0, 0.0, 1.621608693892314E9, 2021-05-21 16:51:33.892
2.0, -139.23460388183594, 32.73347473144531, 176.28392028808594, -211.960693359375, 0.03200000151991844, 0.0, 0.0, 0.0, 0.0, 0.0, 0.0, 0.0, 1.621608693892314E9, 2021-05-21 16:51:33.892
3.0, -154.93096923828125, 7.750942707061768, 151.3574981689453, -227.3915252685547, 0.03200000151991844, 0.0, 0.0, 0.0, 0.0, 0.0, 0.0, 0.0, 1.62160869389374E9, 2021-05-21 16:51:33.893
3.0, -136.0108184814453, 34.928794860839844, 179.1449432373047, -213.17242431640625, 0.03200000151991844, 0.0, 0.0, 0.0, 0.0, 0.0, 0.0, 0.0, 1.62160869389374E9, 2021-05-21 16:51:33.893
4.0, -112.08293151855469, 61.49704360961914, 210.68727111816406, -193.24624633789062, 0.03200000151991844, 0.0, 0.0, 0.0, 0.0, 0.0, 0.0, 0.0, 1.6216086939225855E9, 2021-05-21 16:51:33.922
4.0, -137.0542449951172, 37.44948959350586, 181.26547241210938, -212.7198944091797, 0.03200000151991844, 0.0, 0.0, 0.0, 0.0, 0.0, 0.0, 0.0, 1.6216086939225855E9, 2021-05-21 16:51:33.922
5.0, -154.46347045898438, 9.074867248535156, 150.65065002441406, -243.48431396484375, 0.03200000151991844, 0.0, 0.0, 0.0, 0.0, 0.0, 0.0, 0.0, 1.621608693923241E9, 2021-05-21 16:51:33.923
5.0, -131.81089782714844, 30.560592651367188, 179.47779846191406, -225.88809204101562, 0.03200000151991844, 0.0, 0.0, 0.0, 0.0, 0.0, 0.0, 0.0, 1.621608693923241E9, 2021-05-21 16:51:33.923
6.0, -104.82752227783203, 69.81832122802734, 212.19070434570312, -195.6136016845703, 0.03200000151991844, 0.0, 0.0, 0.0, 0.0, 0.0, 0.0, 0.0, 1.621608693924099E9, 2021-05-21 16:51:33.924
6.0, -128.25051879882812, 47.41632080078125, 182.89981079101562, -215.5248260498047, 0.03200000151991844, 0.0, 0.0, 0.0, 0.0, 0.0, 0.0, 0.0, 1.621608693924099E9, 2021-05-21 16:51:33.924
7.0, -155.4246368408203, -4.987156391143799, 146.69383239746094, -254.16172790527344, 0.03200000151991844, 0.0, 0.0, 0.0, 0.0, 0.0, 0.0, 0.0, 1.621608693936228E9, 2021-05-21 16:51:33.936
7.0, -119.96289825439453, 39.38301467895508, 193.29298400878906, -223.4608917236328, 0.03200000151991844, 0.0, 0.0, 0.0, 0.0, 0.0, 0.0, 0.0, 1.621608693936228E9, 2021-05-21 16:51:33.936
8.0, -98.89230346679688, 73.13935089111328, 224.74180603027344, -187.3372039794922, 0.03200000151991844, 0.0, 0.0, 0.0, 0.0, 0.0, 0.0, 0.0, 1.621608693951887E9, 2021-05-21 16:51:33.951
8.0, -131.9717254638672, 55.49076461791992, 193.6108856201172, -207.28956604003906, 0.03200000151991844, 0.0, 0.0, 0.0, 0.0, 0.0, 0.0, 0.0, 1.621608693951887E9, 2021-05-21 16:51:33.951
9.0, -159.14208984375, 41.0809326171875, 160.26593017578125, -243.0317840576172, 0.03200000151991844, 0.0, 0.0, 0.0, 0.0, 0.0, 0.0, 0.0, 1.6216086939525666E9, 2021-05-21 16:51:33.952
9.0, -144.130126953125, 55.56930160522461, 182.974609375, -197.81265258789062, 0.03200000151991844, 0.0, 0.0, 0.0, 0.0, 0.0, 0.0, 0.0, 1.6216086939525666E9, 2021-05-21 16:51:33.952
10.0, -114.5924072265625, 41.39882278442383, 215.44815063476562, -201.4927215576172, 0.03200000151991844, 0.0, 1.055999994277954, 0.0, 0.0, 0.0, 0.0, 0.0, 1.621608693982252E9, 2021-05-21 16:51:33.982
10.0, -143.4644317626953, 31.409549713134766, 184.93057250976562, -215.3901824951172, 0.03200000151991844, 0.0, 1.055999994277954, 0.0, 0.0, 0.0, 0.0, 0.0, 1.621608693982252E9, 2021-05-21 16:51:33.982
11.0, -156.88319396972656, 12.601593017578125, 155.54991149902344, -220.91775512695312, 0.03200000151991844, -0.01600000075995922, 1.055999994277954, 0.0, 0.0, 0.0, 0.0, 0.0, 1.6216086939829657E9, 2021-05-21 16:51:33.982
11.0, -134.8551788330078, 36.327518463134766, 181.6506805419922, -214.62350463867188, 0.03200000151991844, -0.01600000075995922, 1.055999994277954, 0.0, 0.0, 0.0, 0.0, 0.0, 1.6216086939829657E9, 2021-05-21 16:51:33.982
12.0, -106.49552154541016, 56.3098030090332, 212.7329864501953, -189.4951171875, 0.03200000151991844, -0.01600000075995922, 1.055999994277954, 0.0, 0.0, 0.0, 0.0, 0.0, 1.6216086939968305E9, 2021-05-21 16:51:33.996
12.0, -131.43316650390625, 29.38626480102539, 182.24533081054688, -220.94393920898438, 0.03200000151991844, -0.01600000075995922, 1.055999994277954, 0.0, 0.0, 0.0, 0.0, 0.0, 1.6216086939968305E9, 2021-05-21 16:51:33.996
13.0, -150.05787658691406, 5.8211541175842285, 155.66586303710938, -239.83416748046875, 0.03200000151991844, -0.01600000075995922, 1.055999994277954, 0.0, 0.0, 0.0, 0.0, 0.0, 1.6216086939975276E9, 2021-05-21 16:51:33.997
13.0, -129.5669708251953, 46.13727569580078, 185.61497497558594, -218.54666137695312, 0.03200000151991844, -0.01600000075995922, 1.055999994277954, 0.0, 0.0, 0.0, 0.0, 0.0, 1.6216086939975276E9, 2021-05-21 16:51:33.997
14.0, -108.76564025878906, 47.823970794677734, 209.74855041503906, -202.1210174560547, 0.03200000151991844, -0.01600000075995922, 1.055999994277954, 0.0, 0.0, 0.0, 0.0, 0.0, 1.621608694011776E9, 2021-05-21 16:51:34.011
14.0, -136.13796997070312, 29.62561798095703, 172.99281311035156, -230.05807495117188, 0.03200000151991844, -0.01600000075995922, 1.055999994277954, 0.0, 0.0, 0.0, 0.0, 0.0, 1.621608694011776E9, 2021-05-21 16:51:34.011
15.0, -158.36793518066406, 5.376106262207031, 146.2151336669922, -254.696533203125, 0.03200000151991844, -0.01600000075995922, 1.055999994277954, 0.0, 0.0, 0.0, 0.0, 0.0, 1.6216086940125368E9, 2021-05-21 16:51:34.012
15.0, -129.62680053710938, 37.43452835083008, 178.24737548828125, -219.26846313476562, 0.03200000151991844, -0.01600000075995922, 1.055999994277954, 0.0, 0.0, 0.0, 0.0, 0.0, 1.6216086940125368E9, 2021-05-21 16:51:34.012
16.0, -101.52145385742188, 62.37592315673828, 207.6429901123047, -216.83004760742188, 0.03200000151991844, -0.01600000075995922, 1.055999994277954, 0.0, 0.0, 0.0, 0.0, 0.0, 1.6216086940262113E9, 2021-05-21 16:51:34.026
16.0, -132.24473571777344, 31.162715911865234, 178.09030151367188, -239.95010375976562, 0.03200000151991844, -0.01600000075995922, 1.055999994277954, 0.0, 0.0, 0.0, 0.0, 0.0, 1.6216086940262113E9, 2021-05-21 16:51:34.026
17.0, -148.9620819091797, 11.094412803649902, 161.20465087890625, -251.0015106201172, 0.03200000151991844, -0.01600000075995922, 1.055999994277954, 0.0, 0.0, 0.0, 0.0, 0.0, 1.6216086940417888E9, 2021-05-21 16:51:34.041
17.0, -125.09403991699219, 41.78777313232422, 194.4149627685547, -221.27679443359375, 0.03200000151991844, -0.01600000075995922, 1.055999994277954, 0.0, 0.0, 0.0, 0.0, 0.0, 1.6216086940417888E9, 2021-05-21 16:51:34.041
18.0, -110.04842376708984, 69.4443359375, 212.905029296875, -203.38136291503906, 0.03200000151991844, -0.01600000075995922, 1.055999994277954, 0.0, 0.0, 0.0, 0.0, 0.0, 1.6216086940424984E9, 2021-05-21 16:51:34.042
18.0, -138.30337524414062, 48.10072326660156, 186.789306640625, -222.3912811279297, 0.03200000151991844, -0.01600000075995922, 1.055999994277954, 0.0, 0.0, 0.0, 0.0, 0.0, 1.6216086940424984E9, 2021-05-21 16:51:34.042
19.0, -158.10614013671875, 17.257768630981445, 160.74838256835938, -227.44387817382812, 0.03200000151991844, -0.01600000075995922, 1.055999994277954, 0.0, 0.0, 0.0, 0.0, 0.0, 1.6216086940561962E9, 2021-05-21 16:51:34.056
19.0, -138.81947326660156, 47.969825744628906, 187.09971618652344, -216.56825256347656, 0.03200000151991844, -0.01600000075995922, 1.055999994277954, 0.0, 0.0, 0.0, 0.0, 0.0, 1.6216086940561962E9, 2021-05-21 16:51:34.056
20.0, -119.59638977050781, 61.564361572265625, 215.2387237548828, -191.50718688964844, 0.03200000151991844, -0.01600000075995922, 1.055999994277954, 0.0, 0.0, 0.0, 0.0, 0.0, 1.621608694088223E9, 2021-05-21 16:51:34.088
20.0, -142.77255249023438, 40.946292877197266, 188.80511474609375, -208.074951171875, 0.03200000151991844, -0.01600000075995922, 1.055999994277954, 0.0, 0.0, 0.0, 0.0, 0.0, 1.621608694088223E9, 2021-05-21 16:51:34.088
21.0, -166.28904724121094, 8.536321640014648, 153.65005493164062, -237.21250915527344, 0.03200000151991844, -0.01600000075995922, 1.055999994277954, 0.0, 0.0, 0.0, 0.0, 0.0, 1.6216086940888891E9, 2021-05-21 16:51:34.088
21.0, -135.12071228027344, 36.181663513183594, 184.4443817138672, -208.5237274169922, 0.03200000151991844, -0.01600000075995922, 1.055999994277954, 0.0, 0.0, 0.0, 0.0, 0.0, 1.6216086940888891E9, 2021-05-21 16:51:34.088
22.0, -109.15833282470703, 53.37398147583008, 205.4850616455078, -201.13368225097656, 0.03200000151991844, -0.01600000075995922, 1.055999994277954, 0.0, 0.0, 0.0, 0.0, 0.0, 1.6216086940896773E9, 2021-05-21 16:51:34.089
22.0, -127.89897155761719, 31.80971908569336, 182.6716766357422, -205.66270446777344, 0.03200000151991844, -0.01600000075995922, 1.055999994277954, 0.0, 0.0, 0.0, 0.0, 0.0, 1.6216086940896773E9, 2021-05-21 16:51:34.089
23.0, -156.6475830078125, 2.6871180534362793, 142.3929443359375, -242.44088745117188, 0.03200000151991844, -0.01600000075995922, 1.055999994277954, 0.0, 0.0, 0.0, 0.0, 0.0, 1.6216086940903971E9, 2021-05-21 16:51:34.090
23.0, -130.7338104248047, 27.434036254882812, 181.3178253173828, -221.93875122070312, 0.03200000151991844, -0.01600000075995922, 1.055999994277954, 0.0, 0.0, 0.0, 0.0, 0.0, 1.6216086940903971E9, 2021-05-21 16:51:34.090
24.0, -108.28693389892578, 58.92399215698242, 209.2511444091797, -195.80807495117188, 0.03200000151991844, -0.01600000075995922, 1.055999994277954, 0.0, 0.0, 0.0, 0.0, 0.0, 1.6216086941012545E9, 2021-05-21 16:51:34.101
24.0, -134.33160400390625, 23.70535659790039, 172.79833984375, -231.78590393066406, 0.03200000151991844, -0.01600000075995922, 1.055999994277954, 0.0, 0.0, 0.0, 0.0, 0.0, 1.6216086941012545E9, 2021-05-21 16:51:34.101
25.0, -154.54576110839844, 12.676390647888184, 145.86732482910156, -243.57408142089844, 0.03200000151991844, -0.01600000075995922, 1.055999994277954, 0.0, 0.0, 0.0, 0.0, 0.0, 1.6216086941161792E9, 2021-05-21 16:51:34.116
25.0, -124.41338348388672, 33.32063674926758, 175.5509033203125, -240.18199157714844, 0.03200000151991844, -0.01600000075995922, 1.055999994277954, 0.0, 0.0, 0.0, 0.0, 0.0, 1.6216086941161792E9, 2021-05-21 16:51:34.116
26.0, -99.55052947998047, 62.84341049194336, 209.41943359375, -221.68069458007812, 0.03200000151991844, -0.01600000075995922, 1.055999994277954, 0.0, 0.0, 0.0, 0.0, 0.0, 1.6216086941482005E9, 2021-05-21 16:51:34.148
26.0, -127.17716979980469, 36.67906951904297, 168.6470489501953, -242.1641387939453, 0.03200000151991844, -0.01600000075995922, 1.055999994277954, 0.0, 0.0, 0.0, 0.0, 0.0, 1.6216086941482005E9, 2021-05-21 16:51:34.148
27.0, -151.58001708984375, 17.433544158935547, 146.5442352294922, -253.23423767089844, 0.03200000151991844, -0.01600000075995922, 1.055999994277954, 0.0, 0.0, 0.0, 0.0, 0.0, 1.6216086941489136E9, 2021-05-21 16:51:34.148
27.0, -123.95711517333984, 42.44599533081055, 178.89437866210938, -220.3605194091797, 0.03200000151991844, -0.01600000075995922, 1.055999994277954, 0.0, 0.0, 0.0, 0.0, 0.0, 1.6216086941489136E9, 2021-05-21 16:51:34.148
28.0, -103.33904266357422, 76.03777313232422, 219.348876953125, -191.98590087890625, 0.03200000151991844, -0.01600000075995922, 1.055999994277954, 0.0, 0.0, 0.0, 0.0, 0.0, 1.6216086941496704E9, 2021-05-21 16:51:34.149
28.0, -134.22314453125, 42.63298797607422, 195.17042541503906, -212.7610321044922, 0.03200000151991844, -0.01600000075995922, 1.055999994277954, 0.0, 0.0, 0.0, 0.0, 0.0, 1.6216086941496704E9, 2021-05-21 16:51:34.149
29.0, -157.2721405029297, 23.013473510742188, 170.5506591796875, -225.33831787109375, 0.03200000151991844, -0.01600000075995922, 1.055999994277954, 0.0, 0.0, 0.0, 0.0, 0.0, 1.6216086941504235E9, 2021-05-21 16:51:34.150
29.0, -130.1915283203125, 41.144508361816406, 198.656005859375, -200.14260864257812, 0.03200000151991844, -0.01600000075995922, 1.055999994277954, 0.0, 0.0, 0.0, 0.0, 0.0, 1.6216086941504235E9, 2021-05-21 16:51:34.150
30.0, -115.22444915771484, 67.82121276855469, 221.4768829345703, -186.60043334960938, 0.03200000151991844, -0.01600000075995922, 1.055999994277954, 0.0, 0.0, 0.0, 0.0, 0.0, 1.6216086941613076E9, 2021-05-21 16:51:34.161
30.0, -142.79124450683594, 33.01396560668945, 186.51255798339844, -203.2355194091797, 0.03200000151991844, -0.01600000075995922, 1.055999994277954, 0.0, 0.0, 0.0, 0.0, 0.0, 1.6216086941613076E9, 2021-05-21 16:51:34.161
31.0, -168.63021850585938, 7.8033013343811035, 161.2233428955078, -228.18438720703125, 0.03200000151991844, -0.01600000075995922, 1.055999994277954, 0.0, 0.0, 0.0, 0.0, 0.0, 1.621608694176175E9, 2021-05-21 16:51:34.176
31.0, -138.5801239013672, 33.1411247253418, 183.04940795898438, -208.1497344970703, 0.03200000151991844, -0.01600000075995922, 1.055999994277954, 0.0, 0.0, 0.0, 0.0, 0.0, 1.621608694176175E9, 2021-05-21 16:51:34.176
32.0, -110.75152587890625, 59.17456817626953, 214.3523712158203, -189.0687713623047, 0.03200000151991844, -0.01600000075995922, 1.055999994277954, 0.0, 0.0, 0.0, 0.0, 0.0, 1.6216086941918244E9, 2021-05-21 16:51:34.191
32.0, -137.5179901123047, 33.990081787109375, 186.7032928466797, -208.81544494628906, 0.03200000151991844, -0.01600000075995922, 1.055999994277954, 0.0, 0.0, 0.0, 0.0, 0.0, 1.6216086941918244E9, 2021-05-21 16:51:34.191
33.0, -162.35092163085938, 10.181878089904785, 151.87733459472656, -238.36065673828125, 0.03200000151991844, -0.01600000075995922, 1.055999994277954, 0.0, 0.0, 0.0, 0.0, 0.0, 1.6216086941925323E9, 2021-05-21 16:51:34.192
33.0, -136.14170837402344, 27.445255279541016, 179.03648376464844, -214.41033935546875, 0.03200000151991844, -0.01600000075995922, 1.055999994277954, 0.0, 0.0, 0.0, 0.0, 0.0, 1.6216086941925323E9, 2021-05-21 16:51:34.192
34.0, -103.30164337158203, 56.86330795288086, 213.51837158203125, -200.00424194335938, 0.03200000151991844, -0.01600000075995922, 1.055999994277954, 0.0, 0.0, 0.0, 0.0, 0.0, 1.621608694206189E9, 2021-05-21 16:51:34.206
34.0, -128.47117614746094, 29.99960708618164, 179.79942321777344, -231.2062225341797, 0.03200000151991844, -0.01600000075995922, 1.055999994277954, 0.0, 0.0, 0.0, 0.0, 0.0, 1.621608694206189E9, 2021-05-21 16:51:34.206
35.0, -149.75120544433594, 9.72560977935791, 151.99700927734375, -247.8450469970703, 0.03200000151991844, -0.01600000075995922, 1.055999994277954, 0.0, 0.0, 0.0, 0.0, 0.0, 1.6216086942382908E9, 2021-05-21 16:51:34.238
35.0, -125.85324096679688, 36.83240509033203, 177.7611846923828, -231.71859741210938, 0.03200000151991844, -0.01600000075995922, 1.055999994277954, 0.0, 0.0, 0.0, 0.0, 0.0, 1.6216086942382908E9, 2021-05-21 16:51:34.238
36.0, -99.73751831054688, 72.06974029541016, 212.36273193359375, -204.8436737060547, 0.03200000151991844, -0.01600000075995922, 1.055999994277954, 0.0, 0.0, 0.0, 0.0, 0.0, 1.6216086942390125E9, 2021-05-21 16:51:34.239
36.0, -127.37164306640625, 45.93532180786133, 187.8364715576172, -227.36160278320312, 0.03200000151991844, -0.01600000075995922, 1.055999994277954, 0.0, 0.0, 0.0, 0.0, 0.0, 1.6216086942390125E9, 2021-05-21 16:51:34.239
37.0, -148.47215270996094, 19.075359344482422, 165.6775665283203, -241.468505859375, 0.03200000151991844, -0.01600000075995922, 1.055999994277954, 0.0, 0.0, 0.0, 0.0, 0.0, 1.6216086942397325E9, 2021-05-21 16:51:34.239
37.0, -121.99366760253906, 40.83409881591797, 196.20263671875, -215.22189331054688, 0.03200000151991844, -0.01600000075995922, 1.055999994277954, 0.0, 0.0, 0.0, 0.0, 0.0, 1.6216086942397325E9, 2021-05-21 16:51:34.239
38.0, -107.76334381103516, 67.34999084472656, 225.5384063720703, -191.99337768554688, 0.03200000151991844, -0.01600000075995922, 1.055999994277954, 0.0, 0.0, 0.0, 0.0, 0.0, 1.621608694240379E9, 2021-05-21 16:51:34.240
38.0, -139.4290771484375, 36.836143493652344, 192.92274475097656, -214.81797790527344, 0.03200000151991844, -0.01600000075995922, 1.055999994277954, 0.0, 0.0, 0.0, 0.0, 0.0, 1.621608694240379E9, 2021-05-21 16:51:34.240
39.0, -158.60728454589844, 14.295767784118652, 168.03370666503906, -227.37657165527344, 0.03200000151991844, -0.01600000075995922, 1.055999994277954, 0.0, 0.0, 0.0, 0.0, 0.0, 1.6216086942511146E9, 2021-05-21 16:51:34.251
39.0, -129.7240447998047, 23.8624324798584, 183.4009552001953, -217.0133056640625, 0.03200000151991844, -0.01600000075995922, 1.055999994277954, 0.0, 0.0, 0.0, 0.0, 0.0, 1.6216086942511146E9, 2021-05-21 16:51:34.251
40.0, -105.86721801757812, 53.38894271850586, 210.10757446289062, -187.886962890625, 0.03200000151991844, -0.01600000075995922, 1.055999994277954, 0.0, 0.0, 0.0, 0.0, 0.0, 1.62160869426621E9, 2021-05-21 16:51:34.266
40.0, -134.41387939453125, 29.296506881713867, 177.74623107910156, -214.9862823486328, 0.03200000151991844, -0.01600000075995922, 1.055999994277954, 0.0, 0.0, 0.0, 0.0, 0.0, 1.62160869426621E9, 2021-05-21 16:51:34.266
41.0, -154.77389526367188, 1.7446633577346802, 151.5033416748047, -235.7838592529297, 0.03200000151991844, -0.01600000075995922, 1.055999994277954, 0.0, 0.0, 0.0, 0.0, 0.0, 1.621608694298175E9, 2021-05-21 16:51:34.298
41.0, -130.0531463623047, 28.398929595947266, 177.2488250732422, -217.1741180419922, 0.03200000151991844, -0.01600000075995922, 1.055999994277954, 0.0, 0.0, 0.0, 0.0, 0.0, 1.621608694298175E9, 2021-05-21 16:51:34.298
42.0, -103.53352355957031, 55.939552307128906, 209.1688690185547, -196.28677368164062, 0.03200000151991844, -0.01600000075995922, 1.055999994277954, 0.0, 0.0, 0.0, 0.0, 0.0, 1.6216086942988572E9, 2021-05-21 16:51:34.298
42.0, -134.52981567382812, 28.597145080566406, 177.3311004638672, -221.2880096435547, 0.03200000151991844, -0.01600000075995922, 1.055999994277954, 0.0, 0.0, 0.0, 0.0, 0.0, 1.6216086942988572E9, 2021-05-21 16:51:34.298
43.0, -152.89645385742188, 10.926117897033691, 150.25048828125, -244.80824279785156, 0.03200000151991844, -0.01600000075995922, 1.055999994277954, 0.0, 0.0, 0.0, 0.0, 0.0, 1.6216086942996337E9, 2021-05-21 16:51:34.299
43.0, -128.366455078125, 25.61270523071289, 174.93008422851562, -229.04830932617188, 0.03200000151991844, -0.01600000075995922, 1.055999994277954, 0.0, 0.0, 0.0, 0.0, 0.0, 1.6216086942996337E9, 2021-05-21 16:51:34.299
44.0, -102.97627258300781, 58.36674880981445, 203.25608825683594, -203.6880340576172, 0.03200000151991844, -0.01600000075995922, 1.055999994277954, 0.0, 0.0, 0.0, 0.0, 0.0, 1.6216086943003712E9, 2021-05-21 16:51:34.300
44.0, -132.66360473632812, 35.8338508605957, 184.33218383789062, -225.11392211914062, 0.03200000151991844, -0.01600000075995922, 1.055999994277954, 0.0, 0.0, 0.0, 0.0, 0.0, 1.6216086943003712E9, 2021-05-21 16:51:34.300
45.0, -150.09527587890625, 8.289487838745117, 165.48309326171875, -252.501220703125, 0.03200000151991844, -0.01600000075995922, 1.055999994277954, 0.0, 0.0, 0.0, 0.0, 0.0, 1.6216086943112085E9, 2021-05-21 16:51:34.311
45.0, -119.63752746582031, 37.14281463623047, 195.59677124023438, -231.96168518066406, 0.03200000151991844, -0.01600000075995922, 1.055999994277954, 0.0, 0.0, 0.0, 0.0, 0.0, 1.6216086943112085E9, 2021-05-21 16:51:34.311
46.0, -91.65933990478516, 66.55339050292969, 231.30906677246094, -199.7274932861328, 0.03200000151991844, -0.01600000075995922, 1.055999994277954, 0.0, 0.0, 0.0, 0.0, 0.0, 1.6216086943263497E9, 2021-05-21 16:51:34.326
46.0, -116.24543762207031, 38.64625549316406, 205.17465209960938, -222.79144287109375, 0.03200000151991844, -0.01600000075995922, 1.055999994277954, 0.0, 0.0, 0.0, 0.0, 0.0, 1.6216086943263497E9, 2021-05-21 16:51:34.326
47.0, -148.44598388671875, 22.310373306274414, 178.479248046875, -236.65151977539062, 0.03200000151991844, -0.01600000075995922, 1.055999994277954, 0.0, 0.0, 0.0, 0.0, 0.0, 1.621608694341822E9, 2021-05-21 16:51:34.341
47.0, -130.62161254882812, 42.34501647949219, 206.1058807373047, -213.3743896484375, 0.03200000151991844, -0.01600000075995922, 1.055999994277954, 0.0, 0.0, 0.0, 0.0, 0.0, 1.621608694341822E9, 2021-05-21 16:51:34.341
48.0, -106.22624969482422, 65.45011901855469, 229.31944274902344, -191.8624725341797, 0.03200000151991844, -0.01600000075995922, 1.055999994277954, 0.0, 0.0, 0.0, 0.0, 0.0, 1.6216086943425322E9, 2021-05-21 16:51:34.342
48.0, -138.5464630126953, 37.89079666137695, 195.32376098632812, -212.8994140625, 0.03200000151991844, -0.01600000075995922, 1.055999994277954, 0.0, 0.0, 0.0, 0.0, 0.0, 1.6216086943425322E9, 2021-05-21 16:51:34.342
49.0, -154.45599365234375, 15.619691848754883, 166.70977783203125, -231.73728942871094, 0.03200000151991844, -0.01600000075995922, 1.055999994277954, 0.0, 0.0, 0.0, 0.0, 0.0, 1.6216086943562143E9, 2021-05-21 16:51:34.356
49.0, -136.171630859375, 29.36382484436035, 183.65151977539062, -210.99954223632812, 0.03200000151991844, -0.01600000075995922, 1.055999994277954, 0.0, 0.0, 0.0, 0.0, 0.0, 1.6216086943562143E9, 2021-05-21 16:51:34.356
50.0, -110.9646987915039, 56.739891052246094, 211.27069091796875, -188.33575439453125, 0.03200000151991844, -0.01600000075995922, 1.055999994277954, 0.0, 0.0, 0.0, 0.0, 0.0, 1.6216086943718712E9, 2021-05-21 16:51:34.371
50.0, -132.9403533935547, 31.241254806518555, 179.5712890625, -214.27943420410156, 0.03200000151991844, -0.01600000075995922, 1.055999994277954, 0.0, 0.0, 0.0, 0.0, 0.0, 1.6216086943718712E9, 2021-05-21 16:51:34.371
51.0, -153.0797119140625, 9.317960739135742, 154.19607543945312, -232.54884338378906, 0.03200000151991844, 0.0, 1.055999994277954, 0.0, 0.0, 0.0, 0.0, 0.0, 1.6216086943725193E9, 2021-05-21 16:51:34.372
51.0, -134.33908081054688, 34.91009521484375, 175.57334899902344, -215.1096954345703, 0.03200000151991844, 0.0, 1.055999994277954, 0.0, 0.0, 0.0, 0.0, 0.0, 1.6216086943725193E9, 2021-05-21 16:51:34.372
52.0, -105.67274475097656, 60.40873336791992, 202.65769958496094, -192.6777801513672, 0.03200000151991844, 0.0, 1.055999994277954, 0.0, 0.0, 0.0, 0.0, 0.0, 1.6216086943862596E9, 2021-05-21 16:51:34.386
52.0, -133.0413360595703, 34.704402923583984, 169.46234130859375, -217.88096618652344, 0.03200000151991844, 0.0, 1.055999994277954, 0.0, 0.0, 0.0, 0.0, 0.0, 1.6216086943862596E9, 2021-05-21 16:51:34.386
53.0, -150.55154418945312, 10.780261993408203, 140.46690368652344, -233.7605743408203, 0.03200000151991844, 0.0, 1.055999994277954, 0.0, 0.0, 0.0, 0.0, 0.0, 1.6216086944018202E9, 2021-05-21 16:51:34.401
53.0, -129.6754150390625, 37.81599807739258, 173.1835479736328, -218.95431518554688, 0.03200000151991844, 0.0, 1.055999994277954, 0.0, 0.0, 0.0, 0.0, 0.0, 1.6216086944018202E9, 2021-05-21 16:51:34.401
54.0, -103.74295806884766, 64.35807037353516, 210.24221801757812, -192.2177734375, 0.03200000151991844, 0.0, 1.055999994277954, 0.0, 0.0, 0.0, 0.0, 0.0, 1.6216086944025953E9, 2021-05-21 16:51:34.402
54.0, -130.7412872314453, 42.32257843017578, 184.52291870117188, -211.4932098388672, 0.03200000151991844, 0.0, 1.055999994277954, 0.0, 0.0, 0.0, 0.0, 0.0, 1.6216086944025953E9, 2021-05-21 16:51:34.402
55.0, -148.718994140625, 21.09116554260254, 163.0072784423828, -228.47984313964844, 0.03200000151991844, 0.0, 1.055999994277954, 0.0, 0.0, 0.0, 0.0, 0.0, 1.6216086944161716E9, 2021-05-21 16:51:34.416
55.0, -127.14350891113281, 35.755313873291016, 193.6968994140625, -211.2538604736328, 0.03200000151991844, 0.0, 1.055999994277954, 0.0, 0.0, 0.0, 0.0, 0.0, 1.6216086944161716E9, 2021-05-21 16:51:34.416
56.0, -103.55596160888672, 63.4941520690918, 226.35745239257812, -186.37603759765625, 0.03200000151991844, 0.0, 1.055999994277954, 0.0, 0.0, 0.0, 0.0, 0.0, 1.6216086944318018E9, 2021-05-21 16:51:34.431
56.0, -129.03216552734375, 41.78777313232422, 201.77134704589844, -208.73316955566406, 0.03200000151991844, 0.0, 1.055999994277954, 0.0, 0.0, 0.0, 0.0, 0.0, 1.6216086944318018E9, 2021-05-21 16:51:34.431
57.0, -149.6988525390625, 12.575413703918457, 178.9878692626953, -234.5235137939453, 0.03200000151991844, 0.0, 1.055999994277954, 0.0, 0.0, 0.0, 0.0, 0.0, 1.6216086944325335E9, 2021-05-21 16:51:34.432
57.0, -125.52413177490234, 38.00673294067383, 204.90538024902344, -219.2460174560547, 0.03200000151991844, 0.0, 1.055999994277954, 0.0, 0.0, 0.0, 0.0, 0.0, 1.6216086944325335E9, 2021-05-21 16:51:34.432
58.0, -102.35545349121094, 63.96537780761719, 230.12351989746094, -194.60755920410156, 0.03200000151991844, 0.0, 1.055999994277954, 0.0, 0.0, 0.0, 0.0, 0.0, 1.6216086944461877E9, 2021-05-21 16:51:34.446
58.0, -132.4018096923828, 37.225093841552734, 194.42991638183594, -210.61807250976562, 0.03200000151991844, 0.0, 1.055999994277954, 0.0, 0.0, 0.0, 0.0, 0.0, 1.6216086944461877E9, 2021-05-21 16:51:34.446
59.0, -160.18553161621094, 6.460677146911621, 161.2233428955078, -234.93116760253906, 0.03200000151991844, 0.0, 1.055999994277954, 0.0, 0.0, 0.0, 0.0, 0.0, 1.621608694461798E9, 2021-05-21 16:51:34.461
59.0, -138.366943359375, 35.62067794799805, 182.2490692138672, -217.62664794921875, 0.03200000151991844, 0.0, 1.055999994277954, 0.0, 0.0, 0.0, 0.0, 0.0, 1.621608694461798E9, 2021-05-21 16:51:34.461
60.0, -111.42096710205078, 62.20388412475586, 212.6020965576172, -193.2312774658203, 0.03200000151991844, 0.0, 1.055999994277954, 0.0, 0.0, 0.0, 0.0, 0.0, 1.6216086944625864E9, 2021-05-21 16:51:34.462
60.0, -129.5557403564453, 31.8433780670166, 177.8359832763672, -221.3478546142578, 0.03200000151991844, 0.0, 1.055999994277954, 0.0, 0.0, 0.0, 0.0, 0.0, 1.6216086944625864E9, 2021-05-21 16:51:34.462
61.0, -162.65011596679688, 5.832374095916748, 139.1803741455078, -241.90234375, 0.03200000151991844, -0.01600000075995922, 1.055999994277954, 0.0, 0.0, 0.0, 0.0, 0.0, 1.6216086944762137E9, 2021-05-21 16:51:34.476
61.0, -130.7899169921875, 20.436683654785156, 163.32142639160156, -230.0655517578125, 0.03200000151991844, -0.01600000075995922, 1.055999994277954, 0.0, 0.0, 0.0, 0.0, 0.0, 1.6216086944762137E9, 2021-05-21 16:51:34.476
62.0, -109.67817687988281, 59.193267822265625, 195.59677124023438, -204.3013916015625, 0.03200000151991844, -0.01600000075995922, 1.055999994277954, 0.0, 0.0, 0.0, 0.0, 0.0, 1.6216086945089023E9, 2021-05-21 16:51:34.508
62.0, -129.9334716796875, 32.09395217895508, 167.7008514404297, -230.5704345703125, 0.03200000151991844, -0.01600000075995922, 1.055999994277954, 0.0, 0.0, 0.0, 0.0, 0.0, 1.6216086945089023E9, 2021-05-21 16:51:34.508
63.0, -150.6113739013672, 15.387818336486816, 140.27243041992188, -245.76939392089844, 0.03200000151991844, -0.01600000075995922, 1.055999994277954, 0.0, 0.0, 0.0, 0.0, 0.0, 1.62160869450957E9, 2021-05-21 16:51:34.509
63.0, -131.4593505859375, 34.47626876831055, 167.3717498779297, -226.28451538085938, 0.03200000151991844, -0.01600000075995922, 1.055999994277954, 0.0, 0.0, 0.0, 0.0, 0.0, 1.62160869450957E9, 2021-05-21 16:51:34.509
64.0, -99.80857849121094, 67.7651138305664, 210.38807678222656, -196.27182006835938, 0.03200000151991844, -0.01600000075995922, 1.055999994277954, 0.0, 0.0, 0.0, 0.0, 0.0, 1.6216086945102985E9, 2021-05-21 16:51:34.510
64.0, -133.14979553222656, 40.92385482788086, 183.3822479248047, -220.34555053710938, 0.03200000151991844, -0.01600000075995922, 1.055999994277954, 0.0, 0.0, 0.0, 0.0, 0.0, 1.6216086945102985E9, 2021-05-21 16:51:34.510
65.0, -158.54745483398438, 15.54863452911377, 162.5360565185547, -238.1661834716797, 0.03200000151991844, -0.01600000075995922, 1.055999994277954, 0.0, 0.0, 0.0, 0.0, 0.0, 1.621608694511048E9, 2021-05-21 16:51:34.511
65.0, -130.32241821289062, 36.19662094116211, 192.2084197998047, -215.2443389892578, 0.03200000151991844, -0.01600000075995922, 1.055999994277954, 0.0, 0.0, 0.0, 0.0, 0.0, 1.621608694511048E9, 2021-05-21 16:51:34.511
66.0, -99.12417602539062, 69.36205291748047, 231.3539581298828, -188.62371826171875, 0.03200000151991844, -0.01600000075995922, 1.055999994277954, 0.0, 0.0, 0.0, 0.0, 0.0, 1.6216086945212653E9, 2021-05-21 16:51:34.521
66.0, -121.95626831054688, 41.578338623046875, 205.11854553222656, -212.58900451660156, 0.03200000151991844, -0.01600000075995922, 1.055999994277954, 0.0, 0.0, 0.0, 0.0, 0.0, 1.6216086945212653E9, 2021-05-21 16:51:34.521
67.0, -161.18408203125, 13.731042861938477, 169.76527404785156, -237.62014770507812, 0.03200000151991844, -0.01600000075995922, 1.055999994277954, 0.0, 0.0, 0.0, 0.0, 0.0, 1.6216086945360987E9, 2021-05-21 16:51:34.536
67.0, -137.5628662109375, 37.69258117675781, 198.20347595214844, -214.70578002929688, 0.03200000151991844, -0.01600000075995922, 1.055999994277954, 0.0, 0.0, 0.0, 0.0, 0.0, 1.6216086945360987E9, 2021-05-21 16:51:34.536
68.0, -103.79905700683594, 59.82904815673828, 221.65264892578125, -190.96116638183594, 0.03200000151991844, -0.01600000075995922, 1.055999994277954, 0.0, 0.0, 0.0, 0.0, 0.0, 1.6216086945682728E9, 2021-05-21 16:51:34.568
68.0, -140.4949493408203, 33.690887451171875, 182.7576904296875, -213.7408905029297, 0.03200000151991844, -0.01600000075995922, 1.055999994277954, 0.0, 0.0, 0.0, 0.0, 0.0, 1.6216086945682728E9, 2021-05-21 16:51:34.568
69.0, -167.5792999267578, 8.906571388244629, 153.05540466308594, -236.9282684326172, 0.03200000151991844, -0.01600000075995922, 1.055999994277954, 0.0, 0.0, 0.0, 0.0, 0.0, 1.6216086945689795E9, 2021-05-21 16:51:34.568
69.0, -144.7696533203125, 25.904417037963867, 169.30526733398438, -222.2566375732422, 0.03200000151991844, -0.01600000075995922, 1.055999994277954, 0.0, 0.0, 0.0, 0.0, 0.0, 1.6216086945689795E9, 2021-05-21 16:51:34.568
70.0, -113.75466918945312, 58.609840393066406, 197.5078582763672, -202.476318359375, 0.03200000151991844, -0.01600000075995922, 1.055999994277954, 0.0, 0.0, 0.0, 0.0, 0.0, 1.621608694569621E9, 2021-05-21 16:51:34.569
70.0, -136.35113525390625, 42.150543212890625, 161.44773864746094, -217.94827270507812, 0.03200000151991844, -0.01600000075995922, 1.055999994277954, 0.0, 0.0, 0.0, 0.0, 0.0, 1.621608694569621E9, 2021-05-21 16:51:34.569
71.0, -158.66712951660156, 9.9387845993042, 131.3677215576172, -240.53353881835938, 0.03200000151991844, -0.01600000075995922, 1.055999994277954, 0.0, 0.0, 0.0, 0.0, 0.0, 1.621608694570388E9, 2021-05-21 16:51:34.570
71.0, -134.8664093017578, 32.90924835205078, 153.78468322753906, -224.88954162597656, 0.03200000151991844, -0.01600000075995922, 1.055999994277954, 0.0, 0.0, 0.0, 0.0, 0.0, 1.621608694570388E9, 2021-05-21 16:51:34.570
72.0, -109.71183776855469, 66.30655670166016, 196.8720703125, -190.3478240966797, 0.03200000151991844, -0.01600000075995922, 1.055999994277954, 0.0, 0.0, 0.0, 0.0, 0.0, 1.6216086945812113E9, 2021-05-21 16:51:34.581
72.0, -136.65782165527344, 33.369258880615234, 163.5532989501953, -212.54412841796875, 0.03200000151991844, -0.01600000075995922, 1.055999994277954, 0.0, 0.0, 0.0, 0.0, 0.0, 1.6216086945812113E9, 2021-05-21 16:51:34.581
73.0, -157.17864990234375, 9.467556953430176, 140.9605712890625, -227.3541259765625, 0.03200000151991844, -0.01600000075995922, 1.055999994277954, 0.0, 0.0, 0.0, 0.0, 0.0, 1.6216086945962489E9, 2021-05-21 16:51:34.596
73.0, -138.7596435546875, 33.085025787353516, 173.045166015625, -207.36810302734375, 0.03200000151991844, -0.01600000075995922, 1.055999994277954, 0.0, 0.0, 0.0, 0.0, 0.0, 1.6216086945962489E9, 2021-05-21 16:51:34.596
74.0, -112.8720474243164, 62.660152435302734, 207.5943603515625, -189.46519470214844, 0.03200000151991844, -0.01600000075995922, 1.055999994277954, 0.0, 0.0, 0.0, 0.0, 0.0, 1.6216086946285944E9, 2021-05-21 16:51:34.628
74.0, -134.06980895996094, 41.92240905761719, 182.1742706298828, -206.8744354248047, 0.03200000151991844, -0.01600000075995922, 1.055999994277954, 0.0, 0.0, 0.0, 0.0, 0.0, 1.6216086946285944E9, 2021-05-21 16:51:34.628
75.0, -158.62973022460938, 8.689657211303711, 154.67478942871094, -231.05288696289062, 0.03200000151991844, -0.01600000075995922, 1.055999994277954, 0.0, 0.0, 0.0, 0.0, 0.0, 1.6216086946292977E9, 2021-05-21 16:51:34.629
75.0, -139.21591186523438, 31.443208694458008, 184.9604949951172, -212.6151885986328, 0.03200000151991844, -0.01600000075995922, 1.055999994277954, 0.0, 0.0, 0.0, 0.0, 0.0, 1.6216086946292977E9, 2021-05-21 16:51:34.629
76.0, -113.07774353027344, 64.87791442871094, 223.8068389892578, -190.40017700195312, 0.03200000151991844, -0.01600000075995922, 1.055999994277954, 0.0, 0.0, 0.0, 0.0, 0.0, 1.621608694630077E9, 2021-05-21 16:51:34.630
76.0, -143.3335418701172, 37.408348083496094, 182.68289184570312, -213.37063598632812, 0.03200000151991844, -0.01600000075995922, 1.055999994277954, 0.0, 0.0, 0.0, 0.0, 0.0, 1.621608694630077E9, 2021-05-21 16:51:34.630
77.0, -161.99937438964844, 11.50206184387207, 152.94320678710938, -235.2789764404297, 0.03200000151991844, -0.01600000075995922, 1.055999994277954, 0.0, 0.0, 0.0, 0.0, 0.0, 1.6216086946418371E9, 2021-05-21 16:51:34.641
77.0, -146.90887451171875, 34.51740646362305, 173.23216247558594, -222.312744140625, 0.03200000151991844, -0.01600000075995922, 1.055999994277954, 0.0, 0.0, 0.0, 0.0, 0.0, 1.6216086946418371E9, 2021-05-21 16:51:34.641
78.0, -121.36536407470703, 68.02690887451172, 204.56504821777344, -199.3871612548828, 0.03200000151991844, -0.01600000075995922, 1.055999994277954, 0.0, 0.0, 0.0, 0.0, 0.0, 1.6216086946425872E9, 2021-05-21 16:51:34.642
78.0, -140.18080139160156, 34.214473724365234, 164.94454956054688, -221.73680114746094, 0.03200000151991844, -0.01600000075995922, 1.055999994277954, 0.0, 0.0, 0.0, 0.0, 0.0, 1.6216086946425872E9, 2021-05-21 16:51:34.642
79.0, -158.45394897460938, 11.909711837768555, 141.70106506347656, -243.83212280273438, 0.03200000151991844, -0.01600000075995922, 1.055999994277954, 0.0, 0.0, 0.0, 0.0, 0.0, 1.6216086946562335E9, 2021-05-21 16:51:34.656
79.0, -133.46768188476562, 28.294212341308594, 158.81484985351562, -229.6392059326172, 0.03200000151991844, -0.01600000075995922, 1.055999994277954, 0.0, 0.0, 0.0, 0.0, 0.0, 1.6216086946562335E9, 2021-05-21 16:51:34.656
80.0, -103.49986267089844, 59.084808349609375, 190.8096923828125, -202.56607055664062, 0.03200000151991844, -0.01600000075995922, 1.055999994277954, 0.0, 0.0, 0.0, 0.0, 0.0, 1.6216086946725466E9, 2021-05-21 16:51:34.672
80.0, -128.7441864013672, 34.20325469970703, 162.77540588378906, -220.7906036376953, 0.03200000151991844, -0.01600000075995922, 1.055999994277954, 0.0, 0.0, 0.0, 0.0, 0.0, 1.6216086946725466E9, 2021-05-21 16:51:34.672
81.0, -151.6510772705078, 3.4276182651519775, 125.49982452392578, -242.12673950195312, 0.03200000151991844, 0.0, 1.055999994277954, 0.0, 0.0, 0.0, 0.0, 0.0, 1.6216086946733425E9, 2021-05-21 16:51:34.673
81.0, -130.59918212890625, 28.18575668334961, 154.828125, -220.20718383789062, 0.03200000151991844, 0.0, 1.055999994277954, 0.0, 0.0, 0.0, 0.0, 0.0, 1.6216086946733425E9, 2021-05-21 16:51:34.673
82.0, -107.41179656982422, 52.599822998046875, 185.0465087890625, -195.8155517578125, 0.03200000151991844, 0.0, 1.055999994277954, 0.0, 0.0, 0.0, 0.0, 0.0, 1.6216086946861615E9, 2021-05-21 16:51:34.686
82.0, -128.39263916015625, 31.805978775024414, 160.1163330078125, -214.74317932128906, 0.03200000151991844, 0.0, 1.055999994277954, 0.0, 0.0, 0.0, 0.0, 0.0, 1.6216086946861615E9, 2021-05-21 16:51:34.686
83.0, -156.02301025390625, 13.633805274963379, 134.80844116210938, -231.43435668945312, 0.03200000151991844, 0.0, 1.055999994277954, 0.0, 0.0, 0.0, 0.0, 0.0, 1.6216086947017531E9, 2021-05-21 16:51:34.701
83.0, -135.12445068359375, 33.44779586791992, 173.33688354492188, -215.11717224121094, 0.03200000151991844, 0.0, 1.055999994277954, 0.0, 0.0, 0.0, 0.0, 0.0, 1.6216086947017531E9, 2021-05-21 16:51:34.701
84.0, -100.9604721069336, 67.12559509277344, 209.28480529785156, -182.85679626464844, 0.03200000151991844, 0.0, 1.055999994277954, 0.0, 0.0, 0.0, 0.0, 0.0, 1.62160869470247E9, 2021-05-21 16:51:34.702
84.0, -132.83937072753906, 42.66291046142578, 186.42652893066406, -204.2864227294922, 0.03200000151991844, 0.0, 1.055999994277954, 0.0, 0.0, 0.0, 0.0, 0.0, 1.62160869470247E9, 2021-05-21 16:51:34.702
85.0, -150.3271484375, 14.351865768432617, 163.9796600341797, -228.61447143554688, 0.03200000151991844, 0.0, 1.055999994277954, 0.0, 0.0, 0.0, 0.0, 0.0, 1.6216086947161553E9, 2021-05-21 16:51:34.716
85.0, -138.8867950439453, 30.493274688720703, 186.2769317626953, -222.49600219726562, 0.03200000151991844, 0.0, 1.055999994277954, 0.0, 0.0, 0.0, 0.0, 0.0, 1.6216086947161553E9, 2021-05-21 16:51:34.716
86.0, -109.41264343261719, 63.0528450012207, 217.11241149902344, -197.28533935546875, 0.03200000151991844, 0.0, 1.055999994277954, 0.0, 0.0, 0.0, 0.0, 0.0, 1.6216086947325137E9, 2021-05-21 16:51:34.732
86.0, -132.6486358642578, 45.067665100097656, 186.6658935546875, -221.49745178222656, 0.03200000151991844, 0.0, 1.055999994277954, 0.0, 0.0, 0.0, 0.0, 0.0, 1.6216086947325137E9, 2021-05-21 16:51:34.732
87.0, -163.11386108398438, 12.27622127532959, 151.15927124023438, -249.0605010986328, 0.03200000151991844, 0.0, 1.055999994277954, 0.0, 0.0, 0.0, 0.0, 0.0, 1.6216086947332485E9, 2021-05-21 16:51:34.733
87.0, -140.71560668945312, 35.71043395996094, 163.8524932861328, -232.0252685546875, 0.03200000151991844, 0.0, 1.055999994277954, 0.0, 0.0, 0.0, 0.0, 0.0, 1.6216086947332485E9, 2021-05-21 16:51:34.733
88.0, -110.01850891113281, 66.45989227294922, 199.1982879638672, -202.2220001220703, 0.03200000151991844, 0.0, 1.055999994277954, 0.0, 0.0, 0.0, 0.0, 0.0, 1.6216086947462032E9, 2021-05-21 16:51:34.746
88.0, -134.0922393798828, 43.4221076965332, 172.60386657714844, -222.9410400390625, 0.03200000151991844, 0.0, 1.055999994277954, 0.0, 0.0, 0.0, 0.0, 0.0, 1.6216086947462032E9, 2021-05-21 16:51:34.746
89.0, -152.1073455810547, 17.067033767700195, 142.03392028808594, -244.1500244140625, 0.03200000151991844, 0.0, 1.055999994277954, 0.0, 0.0, 0.0, 0.0, 0.0, 1.6216086947617698E9, 2021-05-21 16:51:34.761
89.0, -129.24159240722656, 28.4512882232666, 165.32228088378906, -223.39356994628906, 0.03200000151991844, 0.0, 1.055999994277954, 0.0, 0.0, 0.0, 0.0, 0.0, 1.6216086947617698E9, 2021-05-21 16:51:34.761
90.0, -101.90666198730469, 56.515499114990234, 198.7008819580078, -200.8681640625, 0.03200000151991844, 0.0, 1.055999994277954, 0.0, 0.0, 0.0, 0.0, 0.0, 1.6216086947625377E9, 2021-05-21 16:51:34.762
90.0, -129.3313446044922, 37.26997375488281, 177.3385772705078, -214.4215545654297, 0.03200000151991844, 0.0, 1.055999994277954, 0.0, 0.0, 0.0, 0.0, 0.0, 1.6216086947625377E9, 2021-05-21 16:51:34.762
91.0, -152.1522216796875, 7.735982894897461, 150.7815399169922, -233.4726104736328, 0.03200000151991844, 0.0, 1.055999994277954, 0.0, 0.0, 0.0, 0.0, 0.0, 1.6216086947761896E9, 2021-05-21 16:51:34.776
91.0, -130.24761962890625, 31.764841079711914, 168.33663940429688, -218.69625854492188, 0.03200000151991844, 0.0, 1.055999994277954, 0.0, 0.0, 0.0, 0.0, 0.0, 1.6216086947761896E9, 2021-05-21 16:51:34.776
92.0, -97.09341430664062, 59.133426666259766, 210.24595642089844, -184.00868225097656, 0.03200000151991844, 0.0, 1.055999994277954, 0.0, 0.0, 0.0, 0.0, 0.0, 1.6216086947918127E9, 2021-05-21 16:51:34.791
92.0, -136.82237243652344, 38.137630462646484, 187.85891723632812, -207.0576934814453, 0.03200000151991844, 0.0, 1.055999994277954, 0.0, 0.0, 0.0, 0.0, 0.0, 1.6216086947918127E9, 2021-05-21 16:51:34.791
93.0, -160.04714965820312, 17.31012725830078, 157.5694580078125, -229.12310791015625, 0.03200000151991844, 0.0, 1.055999994277954, 0.0, 0.0, 0.0, 0.0, 0.0, 1.621608694792562E9, 2021-05-21 16:51:34.792
93.0, -134.87014770507812, 34.55854415893555, 183.2999725341797, -211.34361267089844, 0.03200000151991844, 0.0, 1.055999994277954, 0.0, 0.0, 0.0, 0.0, 0.0, 1.621608694792562E9, 2021-05-21 16:51:34.792
94.0, -111.2190170288086, 62.43949890136719, 219.7303466796875, -186.185302734375, 0.03200000151991844, 0.0, 1.055999994277954, 0.0, 0.0, 0.0, 0.0, 0.0, 1.621608694806214E9, 2021-05-21 16:51:34.806
94.0, -138.47540283203125, 44.67497634887695, 193.28924560546875, -210.50213623046875, 0.03200000151991844, 0.0, 1.055999994277954, 0.0, 0.0, 0.0, 0.0, 0.0, 1.621608694806214E9, 2021-05-21 16:51:34.806
95.0, -164.33306884765625, 16.378890991210938, 157.5769500732422, -235.4435272216797, 0.03200000151991844, 0.0, 1.055999994277954, 0.0, 0.0, 0.0, 0.0, 0.0, 1.6216086948218846E9, 2021-05-21 16:51:34.821
95.0, -131.32098388671875, 35.28034591674805, 177.26751708984375, -223.10186767578125, 0.03200000151991844, 0.0, 1.055999994277954, 0.0, 0.0, 0.0, 0.0, 0.0, 1.6216086948218846E9, 2021-05-21 16:51:34.821
96.0, -112.71497344970703, 67.19290924072266, 211.3641815185547, -202.37533569335938, 0.03200000151991844, 0.0, 1.055999994277954, 0.0, 0.0, 0.0, 0.0, 0.0, 1.6216086948226082E9, 2021-05-21 16:51:34.822
96.0, -132.1437530517578, 40.77425765991211, 179.1112823486328, -221.77793884277344, 0.03200000151991844, 0.0, 1.055999994277954, 0.0, 0.0, 0.0, 0.0, 0.0, 1.6216086948226082E9, 2021-05-21 16:51:34.822
97.0, -161.75254821777344, 13.162577629089355, 143.2344207763672, -241.9472198486328, 0.03200000151991844, 0.0, 1.055999994277954, 0.0, 0.0, 0.0, 0.0, 0.0, 1.6216086948362262E9, 2021-05-21 16:51:34.836
97.0, -138.94288635253906, 36.87354278564453, 169.43243408203125, -230.880859375, 0.03200000151991844, 0.0, 1.055999994277954, 0.0, 0.0, 0.0, 0.0, 0.0, 1.6216086948362262E9, 2021-05-21 16:51:34.836
98.0, -104.96964263916016, 65.95874786376953, 203.22616577148438, -204.57066345214844, 0.03200000151991844, 0.0, 1.055999994277954, 0.0, 0.0, 0.0, 0.0, 0.0, 1.621608694851874E9, 2021-05-21 16:51:34.851
98.0, -130.29251098632812, 46.70948028564453, 172.82452392578125, -218.93560791015625, 0.03200000151991844, 0.0, 1.055999994277954, 0.0, 0.0, 0.0, 0.0, 0.0, 1.621608694851874E9, 2021-05-21 16:51:34.851
99.0, -156.09780883789062, 18.499414443969727, 142.4303436279297, -231.8532257080078, 0.03200000151991844, 0.0, 1.055999994277954, 0.0, 0.0, 0.0, 0.0, 0.0, 1.6216086948525712E9, 2021-05-21 16:51:34.852
99.0, -133.20962524414062, 37.415828704833984, 168.0000457763672, -214.6459503173828, 0.03200000151991844, 0.0, 1.055999994277954, 0.0, 0.0, 0.0, 0.0, 0.0, 1.6216086948525712E9, 2021-05-21 16:51:34.852
100.0, -108.11116027832031, 72.15950012207031, 209.99537658691406, -185.29147338867188, 0.03200000151991844, 0.0, 1.055999994277954, 0.0, 0.0, 0.0, 0.0, 0.0, 1.621608694866596E9, 2021-05-21 16:51:34.866
100.0, -130.45706176757812, 48.867401123046875, 191.3295440673828, -207.8430633544922, 0.03200000151991844, 0.0, 1.055999994277954, 0.0, 0.0, 0.0, 0.0, 0.0, 1.621608694866596E9, 2021-05-21 16:51:34.866
0.0, -156.88507080078125, 16.13205909729004, 162.1527099609375, -230.6134490966797, 0.03200000151991844, 0.0, 1.055999994277954, 0.0, 0.0, 0.0, 0.0, 0.0, 1.6216086948818612E9, 2021-05-21 16:51:34.881
1.0, -134.1202850341797, 36.619232177734375, 192.83859252929688, -202.7549285888672, 0.03200000151991844, 0.0, 1.055999994277954, 0.0, 0.0, 0.0, 0.0, 0.0, 1.6216086948825593E9, 2021-05-21 16:51:34.882
1.0, -110.22232818603516, 64.07009887695312, 222.28282165527344, -182.8362274169922, 0.03200000151991844, 0.0, 1.055999994277954, 0.0, 0.0, 0.0, 0.0, 0.0, 1.6216086948825593E9, 2021-05-21 16:51:34.882
2.0, -130.2831573486328, 42.2664794921875, 201.290771484375, -206.60328674316406, 0.03200000151991844, 0.0, 1.055999994277954, 0.0, 0.0, 0.0, 0.0, 0.0, 1.621608694913205E9, 2021-05-21 16:51:34.913
2.0, -155.9650421142578, 13.285994529724121, 171.96995544433594, -227.71502685546875, 0.03200000151991844, 0.0, 1.055999994277954, 0.0, 0.0, 0.0, 0.0, 0.0, 1.621608694913205E9, 2021-05-21 16:51:34.913
3.0, -139.44216918945312, 30.534412384033203, 186.95199584960938, -214.99563598632812, 0.03200000151991844, 0.0, 1.055999994277954, 0.0, 0.0, 0.0, 0.0, 0.0, 1.6216086949139383E9, 2021-05-21 16:51:34.913
3.0, -107.71659851074219, 64.38798522949219, 219.5227813720703, -195.41725158691406, 0.03200000151991844, 0.0, 1.055999994277954, 0.0, 0.0, 0.0, 0.0, 0.0, 1.6216086949139383E9, 2021-05-21 16:51:34.913
4.0, -132.45603942871094, 40.53864669799805, 192.53565979003906, -219.689208984375, 0.03200000151991844, 0.0, 1.055999994277954, 0.0, 0.0, 0.0, 0.0, 0.0, 1.6216086949146826E9, 2021-05-21 16:51:34.914
4.0, -151.60806274414062, 15.223262786865234, 163.28590393066406, -246.8520965576172, 0.03200000151991844, 0.0, 1.055999994277954, 0.0, 0.0, 0.0, 0.0, 0.0, 1.6216086949146826E9, 2021-05-21 16:51:34.914
5.0, -136.39041137695312, 28.301692962646484, 177.90516662597656, -225.98345947265625, 0.03200000151991844, 0.0, 1.055999994277954, 0.0, 0.0, 0.0, 0.0, 0.0, 1.621608694915438E9, 2021-05-21 16:51:34.915
5.0, -108.37107849121094, 63.46049118041992, 204.06576538085938, -203.6151123046875, 0.03200000151991844, 0.0, 1.055999994277954, 0.0, 0.0, 0.0, 0.0, 0.0, 1.621608694915438E9, 2021-05-21 16:51:34.915
6.0, -137.5722198486328, 36.66410827636719, 173.7688446044922, -226.31256103515625, 0.03200000151991844, 0.0, 1.055999994277954, 0.0, 0.0, 0.0, 0.0, 0.0, 1.6216086949261725E9, 2021-05-21 16:51:34.926
6.0, -161.7394561767578, 10.544648170471191, 141.7328643798828, -243.99107360839844, 0.03200000151991844, 0.0, 1.055999994277954, 0.0, 0.0, 0.0, 0.0, 0.0, 1.6216086949261725E9, 2021-05-21 16:51:34.926
7.0, -134.27362060546875, 29.606918334960938, 162.5379180908203, -226.91094970703125, 0.03200000151991844, 0.0, 1.055999994277954, 0.0, 0.0, 0.0, 0.0, 0.0, 1.6216086949412072E9, 2021-05-21 16:51:34.941
7.0, -99.35792541503906, 60.861263275146484, 201.6722412109375, -202.82972717285156, 0.03200000151991844, 0.0, 1.055999994277954, 0.0, 0.0, 0.0, 0.0, 0.0, 1.6216086949412072E9, 2021-05-21 16:51:34.941
8.0, -123.6597900390625, 38.21616744995117, 182.07142639160156, -215.39205932617188, 0.03200000151991844, 0.0, 1.055999994277954, 0.0, 0.0, 0.0, 0.0, 0.0, 1.6216086949568322E9, 2021-05-21 16:51:34.956
8.0, -151.75765991210938, 3.7754290103912354, 152.1970977783203, -235.6136932373047, 0.03200000151991844, 0.0, 1.055999994277954, 0.0, 0.0, 0.0, 0.0, 0.0, 1.6216086949568322E9, 2021-05-21 16:51:34.956
9.0, -129.62867736816406, 26.285886764526367, 181.19253540039062, -213.98959350585938, 0.03200000151991844, 0.0, 1.055999994277954, 0.0, 0.0, 0.0, 0.0, 0.0, 1.6216086949575915E9, 2021-05-21 16:51:34.957
9.0, -100.29290008544922, 55.58052444458008, 219.37318420410156, -183.59542846679688, 0.03200000151991844, 0.0, 1.055999994277954, 0.0, 0.0, 0.0, 0.0, 0.0, 1.6216086949575915E9, 2021-05-21 16:51:34.957
10.0, -125.49608612060547, 37.905757904052734, 204.32008361816406, -198.12867736816406, 0.03200000151991844, 0.0, 1.055999994277954, 0.0, 0.0, 0.0, 0.0, 0.0, 1.6216086949712296E9, 2021-05-21 16:51:34.971
10.0, -151.9035186767578, 9.493736267089844, 169.5203094482422, -224.40521240234375, 0.03200000151991844, 0.0, 1.055999994277954, 0.0, 0.0, 0.0, 0.0, 0.0, 1.6216086949712296E9, 2021-05-21 16:51:34.971
11.0, -139.9956817626953, 27.744447708129883, 190.0074920654297, -215.54165649414062, 0.03200000151991844, -0.01600000075995922, 1.055999994277954, 0.0, 0.0, 0.0, 0.0, 0.0, 1.6216086949867966E9, 2021-05-21 16:51:34.986
11.0, -112.35033416748047, 57.77584457397461, 225.81329345703125, -184.61268615722656, 0.03200000151991844, -0.01600000075995922, 1.055999994277954, 0.0, 0.0, 0.0, 0.0, 0.0, 1.6216086949867966E9, 2021-05-21 16:51:34.986
12.0, -136.9738311767578, 37.06801986694336, 200.66993713378906, -206.35646057128906, 0.03200000151991844, -0.01600000075995922, 1.055999994277954, 0.0, 0.0, 0.0, 0.0, 0.0, 1.621608694987569E9, 2021-05-21 16:51:34.987
12.0, -160.28463745117188, 9.635851860046387, 165.30545043945312, -228.67991638183594, 0.03200000151991844, -0.01600000075995922, 1.055999994277954, 0.0, 0.0, 0.0, 0.0, 0.0, 1.621608694987569E9, 2021-05-21 16:51:34.987
13.0, -132.80384826660156, 31.289873123168945, 191.3201904296875, -213.65673828125, 0.03200000151991844, -0.01600000075995922, 1.055999994277954, 0.0, 0.0, 0.0, 0.0, 0.0, 1.621608695001211E9, 2021-05-21 16:51:35.001
13.0, -109.89321899414062, 60.32645797729492, 223.70773315429688, -193.0985107421875, 0.03200000151991844, -0.01600000075995922, 1.055999994277954, 0.0, 0.0, 0.0, 0.0, 0.0, 1.621608695001211E9, 2021-05-21 16:51:35.001
14.0, -137.45254516601562, 44.98164749145508, 192.29257202148438, -214.69644165039062, 0.03200000151991844, -0.01600000075995922, 1.055999994277954, 0.0, 0.0, 0.0, 0.0, 0.0, 1.621608695016794E9, 2021-05-21 16:51:35.016
14.0, -161.9788055419922, 15.541153907775879, 154.13436889648438, -245.13922119140625, 0.03200000151991844, -0.01600000075995922, 1.055999994277954, 0.0, 0.0, 0.0, 0.0, 0.0, 1.621608695016794E9, 2021-05-21 16:51:35.016
15.0, -137.18701171875, 31.90695571899414, 173.15550231933594, -227.6626739501953, 0.03200000151991844, -0.01600000075995922, 1.055999994277954, 0.0, 0.0, 0.0, 0.0, 0.0, 1.6216086950174987E9, 2021-05-21 16:51:35.017
15.0, -109.85208129882812, 62.86211013793945, 207.6934814453125, -201.33377075195312, 0.03200000151991844, -0.01600000075995922, 1.055999994277954, 0.0, 0.0, 0.0, 0.0, 0.0, 1.6216086950174987E9, 2021-05-21 16:51:35.017
16.0, -127.64278411865234, 45.83434295654297, 186.66775512695312, -221.71249389648438, 0.03200000151991844, -0.01600000075995922, 1.055999994277954, 0.0, 0.0, 0.0, 0.0, 0.0, 1.6216086950311642E9, 2021-05-21 16:51:35.031
16.0, -155.8790283203125, 14.497722625732422, 148.09442138671875, -242.95138549804688, 0.03200000151991844, -0.01600000075995922, 1.055999994277954, 0.0, 0.0, 0.0, 0.0, 0.0, 1.6216086950311642E9, 2021-05-21 16:51:35.031
17.0, -132.0670928955078, 33.48519515991211, 175.33212280273438, -220.04449462890625, 0.03200000151991844, -0.01600000075995922, 1.055999994277954, 0.0, 0.0, 0.0, 0.0, 0.0, 1.621608695046799E9, 2021-05-21 16:51:35.046
17.0, -95.22907257080078, 58.486427307128906, 212.37582397460938, -188.8163299560547, 0.03200000151991844, -0.01600000075995922, 1.055999994277954, 0.0, 0.0, 0.0, 0.0, 0.0, 1.621608695046799E9, 2021-05-21 16:51:35.046
18.0, -121.75992584228516, 38.376983642578125, 188.32827758789062, -203.20745849609375, 0.03200000151991844, -0.01600000075995922, 1.055999994277954, 0.0, 0.0, 0.0, 0.0, 0.0, 1.621608695047551E9, 2021-05-21 16:51:35.047
18.0, -153.17881774902344, 4.613166809082031, 154.45973205566406, -229.9888916015625, 0.03200000151991844, -0.01600000075995922, 1.055999994277954, 0.0, 0.0, 0.0, 0.0, 0.0, 1.621608695047551E9, 2021-05-21 16:51:35.047
19.0, -133.7500457763672, 22.572166442871094, 176.92906188964844, -214.06065368652344, 0.03200000151991844, -0.01600000075995922, 1.055999994277954, 0.0, 0.0, 0.0, 0.0, 0.0, 1.6216086950611672E9, 2021-05-21 16:51:35.061
19.0, -102.0169906616211, 50.77101135253906, 211.40345764160156, -187.73550415039062, 0.03200000151991844, -0.01600000075995922, 1.055999994277954, 0.0, 0.0, 0.0, 0.0, 0.0, 1.6216086950611672E9, 2021-05-21 16:51:35.061
20.0, -129.8007049560547, 32.91672897338867, 192.9021759033203, -203.58892822265625, 0.03200000151991844, -0.01600000075995922, 1.055999994277954, 0.0, 0.0, 0.0, 0.0, 0.0, 1.621608695076605E9, 2021-05-21 16:51:35.076
20.0, -162.63702392578125, 2.6384994983673096, 161.75254821777344, -224.83531188964844, 0.03200000151991844, -0.01600000075995922, 1.055999994277954, 0.0, 0.0, 0.0, 0.0, 0.0, 1.621608695076605E9, 2021-05-21 16:51:35.076
21.0, -139.42721557617188, 18.41339683532715, 183.6459197998047, -214.26634216308594, 0.03200000151991844, 0.0, 1.055999994277954, 0.0, 0.0, 0.0, 0.0, 0.0, 1.621608695092182E9, 2021-05-21 16:51:35.092
21.0, -109.40328979492188, 53.25056457519531, 218.89073181152344, -191.58010864257812, 0.03200000151991844, 0.0, 1.055999994277954, 0.0, 0.0, 0.0, 0.0, 0.0, 1.621608695092182E9, 2021-05-21 16:51:35.092
22.0, -135.13006591796875, 32.404361724853516, 187.43817138671875, -212.7703857421875, 0.03200000151991844, 0.0, 1.055999994277954, 0.0, 0.0, 0.0, 0.0, 0.0, 1.62160869510859E9, 2021-05-21 16:51:35.108
22.0, -164.7388458251953, 9.258122444152832, 152.6945037841797, -238.01844787597656, 0.03200000151991844, 0.0, 1.055999994277954, 0.0, 0.0, 0.0, 0.0, 0.0, 1.62160869510859E9, 2021-05-21 16:51:35.108
23.0, -140.74365234375, 32.639976501464844, 176.41668701171875, -226.36492919921875, 0.03200000151991844, 0.0, 1.055999994277954, 0.0, 0.0, 0.0, 0.0, 0.0, 1.6216086951093478E9, 2021-05-21 16:51:35.109
23.0, -117.31317901611328, 62.660152435302734, 207.86924743652344, -204.2135009765625, 0.03200000151991844, 0.0, 1.055999994277954, 0.0, 0.0, 0.0, 0.0, 0.0, 1.6216086951093478E9, 2021-05-21 16:51:35.109
24.0, -141.11390686035156, 49.17033386230469, 184.1508026123047, -219.49098205566406, 0.03200000151991844, 0.0, 1.055999994277954, 0.0, 0.0, 0.0, 0.0, 0.0, 1.6216086951218448E9, 2021-05-21 16:51:35.121
24.0, -164.17413330078125, 18.626571655273438, 145.89910888671875, -246.0966339111328, 0.03200000151991844, 0.0, 1.055999994277954, 0.0, 0.0, 0.0, 0.0, 0.0, 1.6216086951218448E9, 2021-05-21 16:51:35.121
25.0, -146.33106994628906, 39.94026184082031, 162.19384765625, -230.27685546875, 0.03200000151991844, 0.0, 1.055999994277954, 0.0, 0.0, 0.0, 0.0, 0.0, 1.6216086951224911E9, 2021-05-21 16:51:35.122
25.0, -115.08419799804688, 65.78671264648438, 200.83450317382812, -202.0032196044922, 0.03200000151991844, 0.0, 1.055999994277954, 0.0, 0.0, 0.0, 0.0, 0.0, 1.6216086951224911E9, 2021-05-21 16:51:35.122
26.0, -131.9661102294922, 47.162010192871094, 175.81455993652344, -214.4346466064453, 0.03200000151991844, 0.0, 1.055999994277954, 0.0, 0.0, 0.0, 0.0, 0.0, 1.6216086951368032E9, 2021-05-21 16:51:35.136
26.0, -158.57923889160156, 16.708003997802734, 140.48373413085938, -231.1183319091797, 0.03200000151991844, 0.0, 1.055999994277954, 0.0, 0.0, 0.0, 0.0, 0.0, 1.6216086951368032E9, 2021-05-21 16:51:35.136
27.0, -137.4375762939453, 28.72804069519043, 165.75050354003906, -219.24789428710938, 0.03200000151991844, 0.0, 1.055999994277954, 0.0, 0.0, 0.0, 0.0, 0.0, 1.621608695137499E9, 2021-05-21 16:51:35.137
27.0, -104.1861343383789, 62.54795837402344, 203.15322875976562, -192.57118225097656, 0.03200000151991844, 0.0, 1.055999994277954, 0.0, 0.0, 0.0, 0.0, 0.0, 1.621608695137499E9, 2021-05-21 16:51:35.137
28.0, -123.05392456054688, 45.019046783447266, 183.74688720703125, -211.203369140625, 0.03200000151991844, 0.0, 1.055999994277954, 0.0, 0.0, 0.0, 0.0, 0.0, 1.621608695151194E9, 2021-05-21 16:51:35.151
28.0, -157.27027893066406, 5.364886283874512, 149.98681640625, -231.63070678710938, 0.03200000151991844, 0.0, 1.055999994277954, 0.0, 0.0, 0.0, 0.0, 0.0, 1.621608695151194E9, 2021-05-21 16:51:35.151
29.0, -133.5892333984375, 23.394943237304688, 170.60862731933594, -214.8497772216797, 0.03200000151991844, 0.0, 1.055999994277954, 0.0, 0.0, 0.0, 0.0, 0.0, 1.6216086951667888E9, 2021-05-21 16:51:35.166
29.0, -109.00312042236328, 56.358421325683594, 208.64340209960938, -184.39576721191406, 0.03200000151991844, 0.0, 1.055999994277954, 0.0, 0.0, 0.0, 0.0, 0.0, 1.6216086951667888E9, 2021-05-21 16:51:35.166
30.0, -133.17784118652344, 34.809120178222656, 189.59609985351562, -206.00491333007812, 0.03200000151991844, 0.0, 1.055999994277954, 0.0, 0.0, 0.0, 0.0, 0.0, 1.6216086951675339E9, 2021-05-21 16:51:35.167
30.0, -159.54412841796875, 8.409165382385254, 156.34091186523438, -230.08985900878906, 0.03200000151991844, 0.0, 1.055999994277954, 0.0, 0.0, 0.0, 0.0, 0.0, 1.6216086951675339E9, 2021-05-21 16:51:35.167
31.0, -138.970947265625, 25.03302001953125, 181.28977966308594, -221.40956115722656, 0.03200000151991844, -0.01600000075995922, 1.055999994277954, 0.0, 0.0, 0.0, 0.0, 0.0, 1.6216086951812725E9, 2021-05-21 16:51:35.181
31.0, -109.19385528564453, 57.525272369384766, 211.37353515625, -197.28346252441406, 0.03200000151991844, -0.01600000075995922, 1.055999994277954, 0.0, 0.0, 0.0, 0.0, 0.0, 1.6216086951812725E9, 2021-05-21 16:51:35.181
32.0, -136.91400146484375, 43.8222770690918, 188.62745666503906, -213.2752685546875, 0.03200000151991844, -0.01600000075995922, 1.055999994277954, 0.0, 0.0, 0.0, 0.0, 0.0, 1.6216086951967788E9, 2021-05-21 16:51:35.196
32.0, -155.23202514648438, 18.32737922668457, 160.7091064453125, -242.07998657226562, 0.03200000151991844, -0.01600000075995922, 1.055999994277954, 0.0, 0.0, 0.0, 0.0, 0.0, 1.6216086951967788E9, 2021-05-21 16:51:35.196
33.0, -134.41200256347656, 36.78752517700195, 180.79237365722656, -235.2920684814453, 0.03200000151991844, -0.01600000075995922, 1.055999994277954, 0.0, 0.0, 0.0, 0.0, 0.0, 1.6216086951975107E9, 2021-05-21 16:51:35.197
33.0, -113.3414077758789, 68.2812271118164, 213.3257598876953, -211.4240264892578, 0.03200000151991844, -0.01600000075995922, 1.055999994277954, 0.0, 0.0, 0.0, 0.0, 0.0, 1.6216086951975107E9, 2021-05-21 16:51:35.197
34.0, -131.8875732421875, 48.86366271972656, 188.03656005859375, -228.4256134033203, 0.03200000151991844, -0.01600000075995922, 1.055999994277954, 0.0, 0.0, 0.0, 0.0, 0.0, 1.6216086952111502E9, 2021-05-21 16:51:35.211
34.0, -163.0820770263672, 16.004901885986328, 149.75120544433594, -250.5919952392578, 0.03200000151991844, -0.01600000075995922, 1.055999994277954, 0.0, 0.0, 0.0, 0.0, 0.0, 1.6216086952111502E9, 2021-05-21 16:51:35.211
35.0, -146.3460235595703, 38.425601959228516, 176.1062774658203, -224.6520538330078, 0.03200000151991844, -0.01600000075995922, 1.055999994277954, 0.0, 0.0, 0.0, 0.0, 0.0, 1.6216086952268176E9, 2021-05-21 16:51:35.226
35.0, -113.19181060791016, 66.16818237304688, 210.34132385253906, -196.47938537597656, 0.03200000151991844, -0.01600000075995922, 1.055999994277954, 0.0, 0.0, 0.0, 0.0, 0.0, 1.6216086952268176E9, 2021-05-21 16:51:35.226
36.0, -129.5426483154297, 48.52707290649414, 186.877197265625, -210.3207550048828, 0.03200000151991844, -0.01600000075995922, 1.055999994277954, 0.0, 0.0, 0.0, 0.0, 0.0, 1.621608695227508E9, 2021-05-21 16:51:35.227
36.0, -154.30079650878906, 13.592666625976562, 154.54576110839844, -234.6936798095703, 0.03200000151991844, -0.01600000075995922, 1.055999994277954, 0.0, 0.0, 0.0, 0.0, 0.0, 1.621608695227508E9, 2021-05-21 16:51:35.227
37.0, -135.50405883789062, 33.126163482666016, 174.3634796142578, -219.07960510253906, 0.03200000151991844, -0.01600000075995922, 1.055999994277954, 0.0, 0.0, 0.0, 0.0, 0.0, 1.621608695241182E9, 2021-05-21 16:51:35.241
37.0, -105.07623291015625, 66.216796875, 214.40284729003906, -192.61231994628906, 0.03200000151991844, -0.01600000075995922, 1.055999994277954, 0.0, 0.0, 0.0, 0.0, 0.0, 1.621608695241182E9, 2021-05-21 16:51:35.241
38.0, -128.959228515625, 41.98972702026367, 190.3927001953125, -199.62838745117188, 0.03200000151991844, -0.01600000075995922, 1.055999994277954, 0.0, 0.0, 0.0, 0.0, 0.0, 1.621608695273848E9, 2021-05-21 16:51:35.273
38.0, -160.04901123046875, 8.487703323364258, 156.008056640625, -226.90721130371094, 0.03200000151991844, -0.01600000075995922, 1.055999994277954, 0.0, 0.0, 0.0, 0.0, 0.0, 1.621608695273848E9, 2021-05-21 16:51:35.273
39.0, -140.20884704589844, 31.054258346557617, 172.1905975341797, -209.19129943847656, 0.03200000151991844, -0.01600000075995922, 1.055999994277954, 0.0, 0.0, 0.0, 0.0, 0.0, 1.6216086952745967E9, 2021-05-21 16:51:35.274
39.0, -121.06430053710938, 54.514652252197266, 203.76283264160156, -188.71160888671875, 0.03200000151991844, -0.01600000075995922, 1.055999994277954, 0.0, 0.0, 0.0, 0.0, 0.0, 1.6216086952745967E9, 2021-05-21 16:51:35.274
40.0, -142.0264434814453, 40.72563934326172, 186.76499938964844, -203.4505615234375, 0.03200000151991844, -0.01600000075995922, 1.055999994277954, 0.0, 0.0, 0.0, 0.0, 0.0, 1.6216086952753544E9, 2021-05-21 16:51:35.275
40.0, -168.3441162109375, 13.652504920959473, 154.25404357910156, -234.57774353027344, 0.03200000151991844, -0.01600000075995922, 1.055999994277954, 0.0, 0.0, 0.0, 0.0, 0.0, 1.6216086952753544E9, 2021-05-21 16:51:35.275
41.0, -149.82412719726562, 31.15149688720703, 174.58413696289062, -215.92312622070312, 0.03200000151991844, 0.0, 1.055999994277954, 0.0, 0.0, 0.0, 0.0, 0.0, 1.6216086952761388E9, 2021-05-21 16:51:35.276
41.0, -118.67076873779297, 59.45132064819336, 205.38221740722656, -198.34933471679688, 0.03200000151991844, 0.0, 1.055999994277954, 0.0, 0.0, 0.0, 0.0, 0.0, 1.6216086952761388E9, 2021-05-21 16:51:35.276
42.0, -130.6982879638672, 47.681854248046875, 182.7184295654297, -217.20590209960938, 0.03200000151991844, 0.0, 1.055999994277954, 0.0, 0.0, 0.0, 0.0, 0.0, 1.621608695286159E9, 2021-05-21 16:51:35.286
42.0, -158.99810791015625, 15.006348609924316, 151.935302734375, -248.25830078125, 0.03200000151991844, 0.0, 1.055999994277954, 0.0, 0.0, 0.0, 0.0, 0.0, 1.621608695286159E9, 2021-05-21 16:51:35.286
43.0, -132.38124084472656, 36.9146842956543, 182.05271911621094, -230.1571807861328, 0.03200000151991844, 0.0, 1.055999994277954, 0.0, 0.0, 0.0, 0.0, 0.0, 1.6216086953011827E9, 2021-05-21 16:51:35.301
43.0, -103.84954071044922, 69.17880249023438, 219.8444061279297, -201.77508544921875, 0.03200000151991844, 0.0, 1.055999994277954, 0.0, 0.0, 0.0, 0.0, 0.0, 1.6216086953011827E9, 2021-05-21 16:51:35.301
44.0, -121.58040618896484, 47.390140533447266, 195.6547393798828, -216.4167938232422, 0.03200000151991844, 0.0, 1.055999994277954, 0.0, 0.0, 0.0, 0.0, 0.0, 1.6216086953333364E9, 2021-05-21 16:51:35.333
44.0, -147.29595947265625, 14.404224395751953, 161.2626190185547, -240.13150024414062, 0.03200000151991844, 0.0, 1.055999994277954, 0.0, 0.0, 0.0, 0.0, 0.0, 1.6216086953333364E9, 2021-05-21 16:51:35.333
45.0, -137.69937133789062, 32.25102615356445, 181.62637329101562, -225.68800354003906, 0.03200000151991844, 0.0, 1.055999994277954, 0.0, 0.0, 0.0, 0.0, 0.0, 1.6216086953339624E9, 2021-05-21 16:51:35.333
45.0, -107.91481018066406, 65.41645812988281, 214.87782287597656, -195.58180236816406, 0.03200000151991844, 0.0, 1.055999994277954, 0.0, 0.0, 0.0, 0.0, 0.0, 1.6216086953339624E9, 2021-05-21 16:51:35.333
46.0, -122.00675964355469, 43.769920349121094, 194.64495849609375, -209.23992919921875, 0.03200000151991844, 0.0, 1.055999994277954, 0.0, 0.0, 0.0, 0.0, 0.0, 1.6216086953346565E9, 2021-05-21 16:51:35.334
46.0, -148.5525665283203, 2.268249273300171, 159.03363037109375, -236.45516967773438, 0.03200000151991844, 0.0, 1.055999994277954, 0.0, 0.0, 0.0, 0.0, 0.0, 1.6216086953346565E9, 2021-05-21 16:51:35.334
47.0, -123.33441925048828, 26.5028018951416, 183.2233123779297, -219.11700439453125, 0.03200000151991844, 0.0, 1.055999994277954, 0.0, 0.0, 0.0, 0.0, 0.0, 1.6216086953354E9, 2021-05-21 16:51:35.335
47.0, -105.52127838134766, 54.86994171142578, 215.7454833984375, -192.84420776367188, 0.03200000151991844, 0.0, 1.055999994277954, 0.0, 0.0, 0.0, 0.0, 0.0, 1.6216086953354E9, 2021-05-21 16:51:35.335
48.0, -135.062744140625, 36.52947235107422, 182.21726989746094, -207.74769592285156, 0.03200000151991844, 0.0, 1.055999994277954, 0.0, 0.0, 0.0, 0.0, 0.0, 1.6216086953461983E9, 2021-05-21 16:51:35.346
48.0, -161.50384521484375, 4.0484418869018555, 150.85073852539062, -227.53924560546875, 0.03200000151991844, 0.0, 1.055999994277954, 0.0, 0.0, 0.0, 0.0, 0.0, 1.6216086953461983E9, 2021-05-21 16:51:35.346
49.0, -141.6374969482422, 23.22290802001953, 172.7665557861328, -220.44091796875, 0.03200000151991844, 0.0, 1.055999994277954, 0.0, 0.0, 0.0, 0.0, 0.0, 1.6216086953611617E9, 2021-05-21 16:51:35.361
49.0, -114.75135040283203, 52.042579650878906, 206.3171844482422, -198.28201293945312, 0.03200000151991844, 0.0, 1.055999994277954, 0.0, 0.0, 0.0, 0.0, 0.0, 1.6216086953611617E9, 2021-05-21 16:51:35.361
50.0, -132.87490844726562, 34.13967514038086, 188.12631225585938, -210.20855712890625, 0.03200000151991844, 0.0, 1.055999994277954, 0.0, 0.0, 0.0, 0.0, 0.0, 1.621608695377503E9, 2021-05-21 16:51:35.377
50.0, -157.21043395996094, 5.170411586761475, 158.43899536132812, -239.1404266357422, 0.03200000151991844, 0.0, 1.055999994277954, 0.0, 0.0, 0.0, 0.0, 0.0, 1.621608695377503E9, 2021-05-21 16:51:35.377
51.0, -138.27157592773438, 23.51462173461914, 173.88851928710938, -227.04183959960938, 0.03200000151991844, 0.0, 1.055999994277954, 0.0, 0.0, 0.0, 0.0, 0.0, 1.621608695378232E9, 2021-05-21 16:51:35.378
51.0, -105.42778015136719, 55.57304382324219, 208.1085968017578, -206.01612854003906, 0.03200000151991844, 0.0, 1.055999994277954, 0.0, 0.0, 0.0, 0.0, 0.0, 1.621608695378232E9, 2021-05-21 16:51:35.378
52.0, -121.93196105957031, 41.78403091430664, 193.6239776611328, -220.3997802734375, 0.03200000151991844, 0.0, 1.055999994277954, 0.0, 0.0, 0.0, 0.0, 0.0, 1.6216086953912137E9, 2021-05-21 16:51:35.391
52.0, -151.26773071289062, 12.98680305480957, 164.47518920898438, -239.17408752441406, 0.03200000151991844, 0.0, 1.055999994277954, 0.0, 0.0, 0.0, 0.0, 0.0, 1.6216086953912137E9, 2021-05-21 16:51:35.391
53.0, -133.13670349121094, 33.552513122558594, 189.588623046875, -225.63189697265625, 0.03200000151991844, 0.0, 1.055999994277954, 0.0, 0.0, 0.0, 0.0, 0.0, 1.621608695406845E9, 2021-05-21 16:51:35.406
53.0, -107.86619567871094, 76.93909454345703, 230.64149475097656, -191.48287963867188, 0.03200000151991844, 0.0, 1.055999994277954, 0.0, 0.0, 0.0, 0.0, 0.0, 1.621608695406845E9, 2021-05-21 16:51:35.406
54.0, -125.45120239257812, 47.5958366394043, 207.61868286132812, -216.00540161132812, 0.03200000151991844, 0.0, 1.055999994277954, 0.0, 0.0, 0.0, 0.0, 0.0, 1.621608695407542E9, 2021-05-21 16:51:35.407
54.0, -146.54049682617188, 18.035667419433594, 169.8643798828125, -235.1686553955078, 0.03200000151991844, 0.0, 1.055999994277954, 0.0, 0.0, 0.0, 0.0, 0.0, 1.621608695407542E9, 2021-05-21 16:51:35.407
55.0, -129.8605499267578, 32.61005783081055, 191.0621337890625, -218.68690490722656, 0.03200000151991844, 0.0, 1.055999994277954, 0.0, 0.0, 0.0, 0.0, 0.0, 1.6216086954212098E9, 2021-05-21 16:51:35.421
55.0, -102.14414978027344, 63.60260772705078, 228.68179321289062, -189.3735809326172, 0.03200000151991844, 0.0, 1.055999994277954, 0.0, 0.0, 0.0, 0.0, 0.0, 1.6216086954212098E9, 2021-05-21 16:51:35.421
56.0, -128.4954833984375, 37.19517517089844, 199.1216278076172, -204.12747192382812, 0.03200000151991844, 0.0, 1.055999994277954, 0.0, 0.0, 0.0, 0.0, 0.0, 1.6216086954375253E9, 2021-05-21 16:51:35.437
56.0, -155.94635009765625, 4.2690958976745605, 161.5655517578125, -226.473388671875, 0.03200000151991844, 0.0, 1.055999994277954, 0.0, 0.0, 0.0, 0.0, 0.0, 1.6216086954375253E9, 2021-05-21 16:51:35.437
57.0, -142.16481018066406, 25.87449836730957, 184.16201782226562, -212.1682586669922, 0.03200000151991844, 0.0, 1.055999994277954, 0.0, 0.0, 0.0, 0.0, 0.0, 1.6216086954382763E9, 2021-05-21 16:51:35.438
57.0, -119.73663330078125, 58.609840393066406, 210.7377471923828, -181.43002319335938, 0.03200000151991844, 0.0, 1.055999994277954, 0.0, 0.0, 0.0, 0.0, 0.0, 1.6216086954382763E9, 2021-05-21 16:51:35.438
58.0, -140.80349731445312, 39.90660095214844, 184.42755126953125, -201.34124755859375, 0.03200000151991844, 0.0, 1.055999994277954, 0.0, 0.0, 0.0, 0.0, 0.0, 1.6216086954511716E9, 2021-05-21 16:51:35.451
58.0, -169.4847869873047, 9.216983795166016, 147.1033477783203, -225.06344604492188, 0.03200000151991844, 0.0, 1.055999994277954, 0.0, 0.0, 0.0, 0.0, 0.0, 1.6216086954511716E9, 2021-05-21 16:51:35.451
59.0, -150.1532440185547, 26.214828491210938, 164.2321014404297, -211.4240264892578, 0.03200000151991844, 0.0, 1.055999994277954, 0.0, 0.0, 0.0, 0.0, 0.0, 1.6216086954668183E9, 2021-05-21 16:51:35.466
59.0, -120.1255874633789, 58.5350456237793, 200.08651733398438, -187.76541137695312, 0.03200000151991844, 0.0, 1.055999994277954, 0.0, 0.0, 0.0, 0.0, 0.0, 1.6216086954668183E9, 2021-05-21 16:51:35.466
60.0, -133.12547302246094, 37.72998046875, 180.20895385742188, -218.35406494140625, 0.03200000151991844, 0.0, 1.055999994277954, 0.0, 0.0, 0.0, 0.0, 0.0, 1.621608695467533E9, 2021-05-21 16:51:35.467
60.0, -152.30368041992188, 5.58180046081543, 144.87437438964844, -246.6351776123047, 0.03200000151991844, 0.0, 1.055999994277954, 0.0, 0.0, 0.0, 0.0, 0.0, 1.621608695467533E9, 2021-05-21 16:51:35.467
61.0, -133.84727478027344, 25.79595947265625, 167.1492156982422, -228.8818817138672, 0.03200000151991844, -0.01600000075995922, 1.055999994277954, 0.0, 0.0, 0.0, 0.0, 0.0, 1.6216086954812796E9, 2021-05-21 16:51:35.481
61.0, -103.8046646118164, 59.855228424072266, 203.83763122558594, -202.388427734375, 0.03200000151991844, -0.01600000075995922, 1.055999994277954, 0.0, 0.0, 0.0, 0.0, 0.0, 1.6216086954812796E9, 2021-05-21 16:51:35.481
62.0, -124.08988189697266, 51.52647018432617, 186.64906311035156, -210.75831604003906, 0.03200000151991844, -0.01600000075995922, 1.055999994277954, 0.0, 0.0, 0.0, 0.0, 0.0, 1.6216086954974976E9, 2021-05-21 16:51:35.497
62.0, -151.40985107421875, 15.892704963684082, 160.7465057373047, -235.47532653808594, 0.03200000151991844, -0.01600000075995922, 1.055999994277954, 0.0, 0.0, 0.0, 0.0, 0.0, 1.6216086954974976E9, 2021-05-21 16:51:35.497
63.0, -127.4931869506836, 36.20036315917969, 175.25732421875, -222.66616821289062, 0.03200000151991844, -0.01600000075995922, 1.055999994277954, 0.0, 0.0, 0.0, 0.0, 0.0, 1.6216086954982293E9, 2021-05-21 16:51:35.498
63.0, -97.7834243774414, 65.0723876953125, 221.36280822753906, -195.21156311035156, 0.03200000151991844, -0.01600000075995922, 1.055999994277954, 0.0, 0.0, 0.0, 0.0, 0.0, 1.6216086954982293E9, 2021-05-21 16:51:35.498
64.0, -116.8120346069336, 47.42380142211914, 207.28582763671875, -203.22242736816406, 0.03200000151991844, -0.01600000075995922, 1.055999994277954, 0.0, 0.0, 0.0, 0.0, 0.0, 1.621608695511227E9, 2021-05-21 16:51:35.511
64.0, -148.8106231689453, 9.912605285644531, 167.79248046875, -227.37469482421875, 0.03200000151991844, -0.01600000075995922, 1.055999994277954, 0.0, 0.0, 0.0, 0.0, 0.0, 1.621608695511227E9, 2021-05-21 16:51:35.511
65.0, -131.43504333496094, 23.275266647338867, 181.97792053222656, -215.3135223388672, 0.03200000151991844, -0.01600000075995922, 1.055999994277954, 0.0, 0.0, 0.0, 0.0, 0.0, 1.6216086955275457E9, 2021-05-21 16:51:35.527
65.0, -107.77269744873047, 51.739646911621094, 212.98916625976562, -186.07498168945312, 0.03200000151991844, -0.01600000075995922, 1.055999994277954, 0.0, 0.0, 0.0, 0.0, 0.0, 1.6216086955275457E9, 2021-05-21 16:51:35.527
66.0, -133.12173461914062, 40.06741714477539, 187.40451049804688, -202.81851196289062, 0.03200000151991844, -0.01600000075995922, 1.055999994277954, 0.0, 0.0, 0.0, 0.0, 0.0, 1.6216086955282445E9, 2021-05-21 16:51:35.528
66.0, -165.64764404296875, 6.2288031578063965, 152.37661743164062, -227.1802215576172, 0.03200000151991844, -0.01600000075995922, 1.055999994277954, 0.0, 0.0, 0.0, 0.0, 0.0, 1.6216086955282445E9, 2021-05-21 16:51:35.528
67.0, -147.09774780273438, 28.885116577148438, 171.16587829589844, -216.11012268066406, 0.03200000151991844, -0.01600000075995922, 1.055999994277954, 0.0, 0.0, 0.0, 0.0, 0.0, 1.6216086955576437E9, 2021-05-21 16:51:35.557
67.0, -121.9506607055664, 57.087703704833984, 199.29739379882812, -190.50302124023438, 0.03200000151991844, -0.01600000075995922, 1.055999994277954, 0.0, 0.0, 0.0, 0.0, 0.0, 1.6216086955576437E9, 2021-05-21 16:51:35.557
68.0, -143.1297149658203, 41.45866012573242, 172.8376007080078, -208.17405700683594, 0.03200000151991844, -0.01600000075995922, 1.055999994277954, 0.0, 0.0, 0.0, 0.0, 0.0, 1.6216086955582397E9, 2021-05-21 16:51:35.558
68.0, -170.44219970703125, 6.105386734008789, 139.32810974121094, -236.87030029296875, 0.03200000151991844, -0.01600000075995922, 1.055999994277954, 0.0, 0.0, 0.0, 0.0, 0.0, 1.6216086955582397E9, 2021-05-21 16:51:35.558
69.0, -146.0804901123047, 27.778106689453125, 154.01095581054688, -219.61441040039062, 0.03200000151991844, -0.01600000075995922, 1.055999994277954, 0.0, 0.0, 0.0, 0.0, 0.0, 1.6216086955590787E9, 2021-05-21 16:51:35.559
69.0, -118.10604095458984, 56.41078186035156, 189.0276336669922, -202.96063232421875, 0.03200000151991844, -0.01600000075995922, 1.055999994277954, 0.0, 0.0, 0.0, 0.0, 0.0, 1.6216086955590787E9, 2021-05-21 16:51:35.559
70.0, -132.9085693359375, 36.10686492919922, 166.0870819091797, -220.25018310546875, 0.03200000151991844, -0.01600000075995922, 1.055999994277954, 0.0, 0.0, 0.0, 0.0, 0.0, 1.6216086955713E9, 2021-05-21 16:51:35.571
70.0, -152.47946166992188, 8.143631935119629, 138.69606018066406, -240.9580078125, 0.03200000151991844, -0.01600000075995922, 1.055999994277954, 0.0, 0.0, 0.0, 0.0, 0.0, 1.6216086955713E9, 2021-05-21 16:51:35.571
71.0, -132.91978454589844, 26.89175033569336, 165.0810546875, -230.05245971679688, 0.03200000151991844, -0.01600000075995922, 1.055999994277954, 0.0, 0.0, 0.0, 0.0, 0.0, 1.6216086955868819E9, 2021-05-21 16:51:35.586
71.0, -100.13581848144531, 60.7939453125, 203.76283264160156, -198.04640197753906, 0.03200000151991844, -0.01600000075995922, 1.055999994277954, 0.0, 0.0, 0.0, 0.0, 0.0, 1.6216086955868819E9, 2021-05-21 16:51:35.586
72.0, -119.80021667480469, 39.45407485961914, 179.7152862548828, -213.4061737060547, 0.03200000151991844, -0.01600000075995922, 1.055999994277954, 0.0, 0.0, 0.0, 0.0, 0.0, 1.6216086955876038E9, 2021-05-21 16:51:35.587
72.0, -147.07530212402344, 12.736228942871094, 156.10154724121094, -234.95921325683594, 0.03200000151991844, -0.01600000075995922, 1.055999994277954, 0.0, 0.0, 0.0, 0.0, 0.0, 1.6216086955876038E9, 2021-05-21 16:51:35.587
73.0, -127.30245208740234, 25.478069305419922, 179.48715209960938, -221.0804443359375, 0.03200000151991844, -0.01600000075995922, 1.055999994277954, 0.0, 0.0, 0.0, 0.0, 0.0, 1.621608695601199E9, 2021-05-21 16:51:35.601
73.0, -102.21894836425781, 63.714805603027344, 217.74632263183594, -190.41700744628906, 0.03200000151991844, -0.01600000075995922, 1.055999994277954, 0.0, 0.0, 0.0, 0.0, 0.0, 1.621608695601199E9, 2021-05-21 16:51:35.601
74.0, -117.87042999267578, 38.69487380981445, 195.78189086914062, -206.85386657714844, 0.03200000151991844, -0.01600000075995922, 1.055999994277954, 0.0, 0.0, 0.0, 0.0, 0.0, 1.6216086956168563E9, 2021-05-21 16:51:35.616
74.0, -147.76344299316406, 8.648518562316895, 163.0802001953125, -228.1675567626953, 0.03200000151991844, -0.01600000075995922, 1.055999994277954, 0.0, 0.0, 0.0, 0.0, 0.0, 1.6216086956168563E9, 2021-05-21 16:51:35.616
75.0, -132.66546630859375, 27.284440994262695, 183.05126953125, -214.6927032470703, 0.03200000151991844, -0.01600000075995922, 1.055999994277954, 0.0, 0.0, 0.0, 0.0, 0.0, 1.621608695617571E9, 2021-05-21 16:51:35.617
75.0, -108.36360168457031, 58.98383331298828, 220.91775512695312, -185.54391479492188, 0.03200000151991844, -0.01600000075995922, 1.055999994277954, 0.0, 0.0, 0.0, 0.0, 0.0, 1.621608695617571E9, 2021-05-21 16:51:35.617
76.0, -129.32574462890625, 37.415828704833984, 191.51840209960938, -205.37286376953125, 0.03200000151991844, -0.01600000075995922, 1.055999994277954, 0.0, 0.0, 0.0, 0.0, 0.0, 1.6216086956312838E9, 2021-05-21 16:51:35.631
76.0, -161.4327850341797, 8.865432739257812, 155.34983825683594, -230.4152374267578, 0.03200000151991844, -0.01600000075995922, 1.055999994277954, 0.0, 0.0, 0.0, 0.0, 0.0, 1.6216086956312838E9, 2021-05-21 16:51:35.631
77.0, -145.6578826904297, 22.41135025024414, 169.4978790283203, -222.87559509277344, 0.03200000151991844, -0.01600000075995922, 1.055999994277954, 0.0, 0.0, 0.0, 0.0, 0.0, 1.6216086956468627E9, 2021-05-21 16:51:35.646
77.0, -119.17191314697266, 57.798282623291016, 200.19871520996094, -197.24232482910156, 0.03200000151991844, -0.01600000075995922, 1.055999994277954, 0.0, 0.0, 0.0, 0.0, 0.0, 1.6216086956468627E9, 2021-05-21 16:51:35.646
78.0, -133.55557250976562, 43.27251434326172, 180.57919311523438, -211.4576873779297, 0.03200000151991844, -0.01600000075995922, 1.055999994277954, 0.0, 0.0, 0.0, 0.0, 0.0, 1.6216086956477299E9, 2021-05-21 16:51:35.647
78.0, -160.2098388671875, 15.743108749389648, 146.40025329589844, -238.15682983398438, 0.03200000151991844, -0.01600000075995922, 1.055999994277954, 0.0, 0.0, 0.0, 0.0, 0.0, 1.6216086956477299E9, 2021-05-21 16:51:35.647
79.0, -140.17892456054688, 29.135690689086914, 161.9320526123047, -229.1810760498047, 0.03200000151991844, -0.01600000075995922, 1.055999994277954, 0.0, 0.0, 0.0, 0.0, 0.0, 1.6216086956611974E9, 2021-05-21 16:51:35.661
79.0, -106.68812561035156, 58.662200927734375, 201.0775909423828, -201.62548828125, 0.03200000151991844, -0.01600000075995922, 1.055999994277954, 0.0, 0.0, 0.0, 0.0, 0.0, 1.6216086956611974E9, 2021-05-21 16:51:35.661
80.0, -119.02605438232422, 43.42584991455078, 182.1275177001953, -217.98007202148438, 0.03200000151991844, -0.01600000075995922, 1.055999994277954, 0.0, 0.0, 0.0, 0.0, 0.0, 1.621608695676898E9, 2021-05-21 16:51:35.676
80.0, -147.79710388183594, 8.368025779724121, 147.2379913330078, -244.08831787109375, 0.03200000151991844, -0.01600000075995922, 1.055999994277954, 0.0, 0.0, 0.0, 0.0, 0.0, 1.621608695676898E9, 2021-05-21 16:51:35.676
81.0, -126.1879653930664, 19.93179702758789, 171.40896606445312, -224.92880249023438, 0.03200000151991844, 0.0, 1.055999994277954, 0.0, 0.0, 0.0, 0.0, 0.0, 1.6216086956776235E9, 2021-05-21 16:51:35.677
81.0, -107.11073303222656, 50.445640563964844, 211.27255249023438, -192.0438690185547, 0.03200000151991844, 0.0, 1.055999994277954, 0.0, 0.0, 0.0, 0.0, 0.0, 1.6216086956776235E9, 2021-05-21 16:51:35.677
82.0, -118.54360961914062, 45.6286506652832, 194.0278778076172, -201.90223693847656, 0.03200000151991844, 0.0, 1.055999994277954, 0.0, 0.0, 0.0, 0.0, 0.0, 1.6216086956911592E9, 2021-05-21 16:51:35.691
82.0, -150.4599151611328, 15.069927215576172, 160.99334716796875, -232.55445861816406, 0.03200000151991844, 0.0, 1.055999994277954, 0.0, 0.0, 0.0, 0.0, 0.0, 1.6216086956911592E9, 2021-05-21 16:51:35.691
83.0, -132.1343994140625, 24.894643783569336, 178.98226928710938, -215.1788787841797, 0.03200000151991844, 0.0, 1.055999994277954, 0.0, 0.0, 0.0, 0.0, 0.0, 1.6216086957068932E9, 2021-05-21 16:51:35.706
83.0, -105.8541259765625, 55.023277282714844, 215.67068481445312, -189.18284606933594, 0.03200000151991844, 0.0, 1.055999994277954, 0.0, 0.0, 0.0, 0.0, 0.0, 1.6216086957068932E9, 2021-05-21 16:51:35.706
84.0, -121.60284423828125, 39.6373291015625, 195.88661193847656, -196.09417724609375, 0.03200000151991844, 0.0, 1.055999994277954, 0.0, 0.0, 0.0, 0.0, 0.0, 1.6216086957076032E9, 2021-05-21 16:51:35.707
84.0, -154.54014587402344, 4.291535377502441, 157.20108032226562, -227.28494262695312, 0.03200000151991844, 0.0, 1.055999994277954, 0.0, 0.0, 0.0, 0.0, 0.0, 1.6216086957076032E9, 2021-05-21 16:51:35.707
85.0, -141.03536987304688, 23.020954132080078, 177.60223388671875, -215.89320373535156, 0.03200000151991844, 0.0, 1.055999994277954, 0.0, 0.0, 0.0, 0.0, 0.0, 1.6216086957211556E9, 2021-05-21 16:51:35.721
85.0, -113.47978210449219, 60.68922805786133, 212.79843139648438, -187.44752502441406, 0.03200000151991844, 0.0, 1.055999994277954, 0.0, 0.0, 0.0, 0.0, 0.0, 1.6216086957211556E9, 2021-05-21 16:51:35.721
86.0, -139.46835327148438, 41.97102737426758, 186.5331268310547, -204.38552856445312, 0.03200000151991844, 0.0, 1.055999994277954, 0.0, 0.0, 0.0, 0.0, 0.0, 1.6216086957366107E9, 2021-05-21 16:51:35.736
86.0, -164.76129150390625, 14.419184684753418, 150.39447021484375, -230.6583251953125, 0.03200000151991844, 0.0, 1.055999994277954, 0.0, 0.0, 0.0, 0.0, 0.0, 1.6216086957366107E9, 2021-05-21 16:51:35.736
87.0, -152.43832397460938, 28.062339782714844, 163.82818603515625, -221.05052185058594, 0.03200000151991844, 0.0, 1.055999994277954, 0.0, 0.0, 0.0, 0.0, 0.0, 1.6216086957518027E9, 2021-05-21 16:51:35.751
87.0, -121.88707733154297, 59.896366119384766, 197.4199676513672, -199.3778076171875, 0.03200000151991844, 0.0, 1.055999994277954, 0.0, 0.0, 0.0, 0.0, 0.0, 1.6216086957518027E9, 2021-05-21 16:51:35.751
88.0, -135.72096252441406, 40.665802001953125, 172.01856994628906, -218.3652801513672, 0.03200000151991844, 0.0, 1.055999994277954, 0.0, 0.0, 0.0, 0.0, 0.0, 1.621608695752556E9, 2021-05-21 16:51:35.752
88.0, -157.72279357910156, 7.044101715087891, 137.45816040039062, -254.13742065429688, 0.03200000151991844, 0.0, 1.055999994277954, 0.0, 0.0, 0.0, 0.0, 0.0, 1.621608695752556E9, 2021-05-21 16:51:35.752
89.0, -131.4088592529297, 25.178876876831055, 165.52984619140625, -237.71551513671875, 0.03200000151991844, 0.0, 1.055999994277954, 0.0, 0.0, 0.0, 0.0, 0.0, 1.621608695766832E9, 2021-05-21 16:51:35.766
89.0, -92.11747741699219, 53.33284378051758, 208.26568603515625, -215.13026428222656, 0.03200000151991844, 0.0, 1.055999994277954, 0.0, 0.0, 0.0, 0.0, 0.0, 1.621608695766832E9, 2021-05-21 16:51:35.766
90.0, -107.65302276611328, 31.48434829711914, 188.6947784423828, -226.54443359375, 0.03200000151991844, 0.0, 1.055999994277954, 0.0, 0.0, 0.0, 0.0, 0.0, 1.6216086957675416E9, 2021-05-21 16:51:35.767
90.0, -136.79058837890625, 4.227956771850586, 153.03857421875, -250.4162139892578, 0.03200000151991844, 0.0, 1.055999994277954, 0.0, 0.0, 0.0, 0.0, 0.0, 1.6216086957675416E9, 2021-05-21 16:51:35.767
91.0, -120.00216674804688, 27.96510124206543, 180.30992126464844, -231.22305297851562, 0.03200000151991844, 0.0, 1.055999994277954, 0.0, 0.0, 0.0, 0.0, 0.0, 1.621608695796606E9, 2021-05-21 16:51:35.796
91.0, -97.3795166015625, 53.77041244506836, 216.1680908203125, -202.8895721435547, 0.03200000151991844, 0.0, 1.055999994277954, 0.0, 0.0, 0.0, 0.0, 0.0, 1.621608695796606E9, 2021-05-21 16:51:35.796
92.0, -114.38484191894531, 45.56507110595703, 198.75885009765625, -210.97523498535156, 0.03200000151991844, 0.0, 1.055999994277954, 0.0, 0.0, 0.0, 0.0, 0.0, 1.6216086958135777E9, 2021-05-21 16:51:35.813
92.0, -145.68780517578125, 11.39360523223877, 156.28480529785156, -237.59210205078125, 0.03200000151991844, 0.0, 1.055999994277954, 0.0, 0.0, 0.0, 0.0, 0.0, 1.6216086958135777E9, 2021-05-21 16:51:35.813
93.0, -131.0386199951172, 21.502553939819336, 172.55337524414062, -224.1322021484375, 0.03200000151991844, 0.0, 1.055999994277954, 0.0, 0.0, 0.0, 0.0, 0.0, 1.621608695814365E9, 2021-05-21 16:51:35.814
93.0, -99.13352966308594, 57.233558654785156, 215.3228759765625, -194.35511779785156, 0.03200000151991844, 0.0, 1.055999994277954, 0.0, 0.0, 0.0, 0.0, 0.0, 1.621608695814365E9, 2021-05-21 16:51:35.814
94.0, -118.7193832397461, 34.618385314941406, 195.29196166992188, -207.37371826171875, 0.03200000151991844, 0.0, 1.055999994277954, 0.0, 0.0, 0.0, 0.0, 0.0, 1.621608695815142E9, 2021-05-21 16:51:35.815
94.0, -154.11380004882812, 5.970750331878662, 158.9738006591797, -231.2529754638672, 0.03200000151991844, 0.0, 1.055999994277954, 0.0, 0.0, 0.0, 0.0, 0.0, 1.621608695815142E9, 2021-05-21 16:51:35.815
95.0, -146.9444122314453, 28.888856887817383, 174.54673767089844, -210.09262084960938, 0.03200000151991844, 0.0, 1.055999994277954, 0.0, 0.0, 0.0, 0.0, 0.0, 1.6216086958267972E9, 2021-05-21 16:51:35.826
95.0, -113.55084228515625, 63.804561614990234, 209.6344757080078, -183.11671447753906, 0.03200000151991844, 0.0, 1.055999994277954, 0.0, 0.0, 0.0, 0.0, 0.0, 1.6216086958267972E9, 2021-05-21 16:51:35.826
96.0, -136.4278106689453, 43.36227035522461, 182.5089874267578, -201.1505126953125, 0.03200000151991844, 0.0, 1.055999994277954, 0.0, 0.0, 0.0, 0.0, 0.0, 1.621608695827515E9, 2021-05-21 16:51:35.827
96.0, -165.66261291503906, 10.63066577911377, 142.6192169189453, -225.98719787597656, 0.03200000151991844, 0.0, 1.055999994277954, 0.0, 0.0, 0.0, 0.0, 0.0, 1.621608695827515E9, 2021-05-21 16:51:35.827
97.0, -149.60348510742188, 32.87559127807617, 160.13690185546875, -218.84024047851562, 0.03200000151991844, 0.0, 1.055999994277954, 0.0, 0.0, 0.0, 0.0, 0.0, 1.621608695841305E9, 2021-05-21 16:51:35.841
97.0, -121.10543823242188, 56.79973220825195, 195.89035034179688, -191.7110137939453, 0.03200000151991844, 0.0, 1.055999994277954, 0.0, 0.0, 0.0, 0.0, 0.0, 1.621608695841305E9, 2021-05-21 16:51:35.841
98.0, -133.90338134765625, 40.086116790771484, 179.04209899902344, -210.70596313476562, 0.03200000151991844, 0.0, 1.055999994277954, 0.0, 0.0, 0.0, 0.0, 0.0, 1.621608695857228E9, 2021-05-21 16:51:35.857
98.0, -154.9964141845703, 8.648518562316895, 147.17066955566406, -238.3363494873047, 0.03200000151991844, 0.0, 1.055999994277954, 0.0, 0.0, 0.0, 0.0, 0.0, 1.621608695857228E9, 2021-05-21 16:51:35.857
99.0, -131.3864288330078, 23.058353424072266, 171.29676818847656, -226.98574829101562, 0.03200000151991844, 0.0, 1.055999994277954, 0.0, 0.0, 0.0, 0.0, 0.0, 1.621608695872555E9, 2021-05-21 16:51:35.872
99.0, -97.97415924072266, 50.58027648925781, 207.93283081054688, -202.32484436035156, 0.03200000151991844, 0.0, 1.055999994277954, 0.0, 0.0, 0.0, 0.0, 0.0, 1.621608695872555E9, 2021-05-21 16:51:35.872
100.0, -114.78874969482422, 37.02313995361328, 193.79974365234375, -217.1797332763672, 0.03200000151991844, 0.0, 1.055999994277954, 0.0, 0.0, 0.0, 0.0, 0.0, 1.6216086958732195E9, 2021-05-21 16:51:35.873
100.0, -144.90989685058594, 0.7274105548858643, 156.9392852783203, -248.64724731445312, 0.03200000151991844, 0.0, 1.055999994277954, 0.0, 0.0, 0.0, 0.0, 0.0, 1.6216086958732195E9, 2021-05-21 16:51:35.873
0.0, -131.47805786132812, 20.840593338012695, 173.20599365234375, -233.72691345214844, 0.03200000151991844, 0.0, 1.055999994277954, 0.0, 0.0, 0.0, 0.0, 0.0, 1.621608695874046E9, 2021-05-21 16:51:35.874
1.0, -98.4547348022461, 57.88056182861328, 215.33595275878906, -202.49127197265625, 0.03200000151991844, -0.01600000075995922, 1.055999994277954, 0.0, 0.0, 0.0, 0.0, 0.0, 1.6216086958861957E9, 2021-05-21 16:51:35.886
1.0, -114.4166259765625, 42.730228424072266, 192.94517517089844, -207.02029418945312, 0.03200000151991844, -0.01600000075995922, 1.055999994277954, 0.0, 0.0, 0.0, 0.0, 0.0, 1.6216086958861957E9, 2021-05-21 16:51:35.886
2.0, -148.9807891845703, 2.432804822921753, 151.8062744140625, -235.98956298828125, 0.03200000151991844, -0.01600000075995922, 1.055999994277954, 0.0, 0.0, 0.0, 0.0, 0.0, 1.6216086959188955E9, 2021-05-21 16:51:35.918
2.0, -136.9308319091797, 18.402177810668945, 168.49371337890625, -217.9146270751953, 0.03200000151991844, -0.01600000075995922, 1.055999994277954, 0.0, 0.0, 0.0, 0.0, 0.0, 1.6216086959188955E9, 2021-05-21 16:51:35.918
3.0, -100.1975326538086, 53.08974838256836, 202.9082794189453, -188.88551330566406, 0.03200000151991844, -0.01600000075995922, 1.055999994277954, 0.0, 0.0, 0.0, 0.0, 0.0, 1.6216086959195957E9, 2021-05-21 16:51:35.919
3.0, -122.2031021118164, 41.02109146118164, 186.97630310058594, -196.0623779296875, 0.03200000151991844, -0.01600000075995922, 1.055999994277954, 0.0, 0.0, 0.0, 0.0, 0.0, 1.6216086959195957E9, 2021-05-21 16:51:35.919
4.0, -161.92831420898438, 9.198284149169922, 151.17050170898438, -223.65162658691406, 0.03200000151991844, -0.01600000075995922, 1.055999994277954, 0.0, 0.0, 0.0, 0.0, 0.0, 1.6216086959203436E9, 2021-05-21 16:51:35.920
4.0, -150.37950134277344, 28.309173583984375, 166.8967742919922, -213.8643035888672, 0.03200000151991844, -0.01600000075995922, 1.055999994277954, 0.0, 0.0, 0.0, 0.0, 0.0, 1.6216086959203436E9, 2021-05-21 16:51:35.920
5.0, -116.35389709472656, 60.83134460449219, 203.2710418701172, -185.32887268066406, 0.03200000151991844, -0.01600000075995922, 1.055999994277954, 0.0, 0.0, 0.0, 0.0, 0.0, 1.6216086959211552E9, 2021-05-21 16:51:35.921
5.0, -138.31459045410156, 50.449378967285156, 182.1742706298828, -199.96310424804688, 0.03200000151991844, -0.01600000075995922, 1.055999994277954, 0.0, 0.0, 0.0, 0.0, 0.0, 1.6216086959211552E9, 2021-05-21 16:51:35.921
6.0, -165.6644744873047, 9.209503173828125, 141.11390686035156, -229.46717834472656, 0.03200000151991844, -0.01600000075995922, 1.055999994277954, 0.0, 0.0, 0.0, 0.0, 0.0, 1.62160869593117E9, 2021-05-21 16:51:35.931
6.0, -145.7083740234375, 23.60437774658203, 158.10801696777344, -217.79869079589844, 0.03200000151991844, -0.01600000075995922, 1.055999994277954, 0.0, 0.0, 0.0, 0.0, 0.0, 1.62160869593117E9, 2021-05-21 16:51:35.931
7.0, -109.6744384765625, 62.90324783325195, 200.08090209960938, -196.0175018310547, 0.03200000151991844, -0.01600000075995922, 1.055999994277954, 0.0, 0.0, 0.0, 0.0, 0.0, 1.62160869594615E9, 2021-05-21 16:51:35.946
7.0, -120.39299011230469, 47.18818664550781, 185.8057098388672, -212.40574645996094, 0.03200000151991844, -0.01600000075995922, 1.055999994277954, 0.0, 0.0, 0.0, 0.0, 0.0, 1.62160869594615E9, 2021-05-21 16:51:35.946
8.0, -146.852783203125, 8.96267032623291, 157.54702758789062, -240.08474731445312, 0.03200000151991844, -0.01600000075995922, 1.055999994277954, 0.0, 0.0, 0.0, 0.0, 0.0, 1.6216086959618287E9, 2021-05-21 16:51:35.961
8.0, -126.9041519165039, 29.28154754638672, 178.99534606933594, -225.42059326171875, 0.03200000151991844, -0.01600000075995922, 1.055999994277954, 0.0, 0.0, 0.0, 0.0, 0.0, 1.6216086959618287E9, 2021-05-21 16:51:35.961
9.0, -95.71713256835938, 66.35891723632812, 220.24270629882812, -197.53964233398438, 0.03200000151991844, -0.01600000075995922, 1.055999994277954, 0.0, 0.0, 0.0, 0.0, 0.0, 1.6216086959625297E9, 2021-05-21 16:51:35.962
9.0, -111.56682586669922, 44.84326934814453, 201.23654174804688, -213.4416961669922, 0.03200000151991844, -0.01600000075995922, 1.055999994277954, 0.0, 0.0, 0.0, 0.0, 0.0, 1.6216086959625297E9, 2021-05-21 16:51:35.962
10.0, -143.94314575195312, 16.22929573059082, 167.42410278320312, -233.40528869628906, 0.03200000151991844, -0.01600000075995922, 1.055999994277954, 0.0, 0.0, 0.0, 0.0, 0.0, 1.621608695976276E9, 2021-05-21 16:51:35.976
10.0, -136.8971710205078, 23.327625274658203, 172.45053100585938, -227.45510864257812, 0.03200000151991844, -0.01600000075995922, 1.055999994277954, 0.0, 0.0, 0.0, 0.0, 0.0, 1.621608695976276E9, 2021-05-21 16:51:35.976
11.0, -108.1485595703125, 57.54022979736328, 211.9289093017578, -196.42141723632812, 0.03200000151991844, -0.01600000075995922, 1.055999994277954, 0.0, 0.0, 0.0, 0.0, 0.0, 1.6216086959918168E9, 2021-05-21 16:51:35.991
11.0, -127.72319030761719, 36.44719314575195, 188.90234375, -200.6923828125, 0.03200000151991844, -0.01600000075995922, 1.055999994277954, 0.0, 0.0, 0.0, 0.0, 0.0, 1.6216086959918168E9, 2021-05-21 16:51:35.991
12.0, -159.4861602783203, 6.729949951171875, 145.51202392578125, -230.35353088378906, 0.03200000151991844, -0.01600000075995922, 1.055999994277954, 0.0, 0.0, 0.0, 0.0, 0.0, 1.6216086959925237E9, 2021-05-21 16:51:35.992
12.0, -142.4546661376953, 23.421123504638672, 165.02682495117188, -216.68418884277344, 0.03200000151991844, -0.01600000075995922, 1.055999994277954, 0.0, 0.0, 0.0, 0.0, 0.0, 1.6216086959925237E9, 2021-05-21 16:51:35.992
13.0, -117.11683654785156, 58.68463897705078, 201.1505126953125, -185.10447692871094, 0.03200000151991844, -0.01600000075995922, 1.055999994277954, 0.0, 0.0, 0.0, 0.0, 0.0, 1.6216086960062277E9, 2021-05-21 16:51:36.006
13.0, -138.61004638671875, 33.1822624206543, 178.2249298095703, -191.1444091796875, 0.03200000151991844, -0.01600000075995922, 1.055999994277954, 0.0, 0.0, 0.0, 0.0, 0.0, 1.6216086960062277E9, 2021-05-21 16:51:36.006
14.0, -168.0355682373047, 8.76071548461914, 142.66221618652344, -213.89422607421875, 0.03200000151991844, -0.01600000075995922, 1.055999994277954, 0.0, 0.0, 0.0, 0.0, 0.0, 1.6216086960375168E9, 2021-05-21 16:51:36.037
14.0, -155.4882049560547, 25.717422485351562, 157.1618194580078, -209.2043914794922, 0.03200000151991844, -0.01600000075995922, 1.055999994277954, 0.0, 0.0, 0.0, 0.0, 0.0, 1.6216086960375168E9, 2021-05-21 16:51:36.037
15.0, -122.25920104980469, 59.67571258544922, 193.46128845214844, -186.2002716064453, 0.03200000151991844, -0.01600000075995922, 1.055999994277954, 0.0, 0.0, 0.0, 0.0, 0.0, 1.6216086960529525E9, 2021-05-21 16:51:36.052
15.0, -134.0436248779297, 47.36022186279297, 174.20828247070312, -203.12705993652344, 0.03200000151991844, -0.01600000075995922, 1.055999994277954, 0.0, 0.0, 0.0, 0.0, 0.0, 1.6216086960529525E9, 2021-05-21 16:51:36.052
16.0, -159.32534790039062, 11.07197380065918, 135.67982482910156, -237.20877075195312, 0.03200000151991844, -0.01600000075995922, 1.055999994277954, 0.0, 0.0, 0.0, 0.0, 0.0, 1.6216086960536616E9, 2021-05-21 16:51:36.053
16.0, -139.14859008789062, 23.667957305908203, 150.7179718017578, -223.82366943359375, 0.03200000151991844, -0.01600000075995922, 1.055999994277954, 0.0, 0.0, 0.0, 0.0, 0.0, 1.6216086960536616E9, 2021-05-21 16:51:36.053
17.0, -106.09909057617188, 68.5654525756836, 197.3433074951172, -189.2034149169922, 0.03200000151991844, -0.01600000075995922, 1.055999994277954, 0.0, 0.0, 0.0, 0.0, 0.0, 1.621608696054422E9, 2021-05-21 16:51:36.054
17.0, -115.10477447509766, 48.20917892456055, 187.2979278564453, -201.86297607421875, 0.03200000151991844, -0.01600000075995922, 1.055999994277954, 0.0, 0.0, 0.0, 0.0, 0.0, 1.621608696054422E9, 2021-05-21 16:51:36.054
18.0, -149.5268096923828, 18.536813735961914, 160.9615478515625, -224.32481384277344, 0.03200000151991844, -0.01600000075995922, 1.055999994277954, 0.0, 0.0, 0.0, 0.0, 0.0, 1.6216086960667737E9, 2021-05-21 16:51:36.066
18.0, -132.3157958984375, 27.048826217651367, 180.57733154296875, -211.0893096923828, 0.03200000151991844, -0.01600000075995922, 1.055999994277954, 0.0, 0.0, 0.0, 0.0, 0.0, 1.6216086960667737E9, 2021-05-21 16:51:36.066
19.0, -96.74185943603516, 61.73265838623047, 215.16018676757812, -190.28050231933594, 0.03200000151991844, -0.01600000075995922, 1.055999994277954, 0.0, 0.0, 0.0, 0.0, 0.0, 1.6216086960675044E9, 2021-05-21 16:51:36.067
19.0, -118.02189636230469, 46.93761444091797, 203.2747802734375, -205.97311401367188, 0.03200000151991844, -0.01600000075995922, 1.055999994277954, 0.0, 0.0, 0.0, 0.0, 0.0, 1.6216086960675044E9, 2021-05-21 16:51:36.067
20.0, -148.82745361328125, 10.350172996520996, 165.8421173095703, -239.97254943847656, 0.03200000151991844, -0.01600000075995922, 1.055999994277954, 0.0, 0.0, 0.0, 0.0, 0.0, 1.6216086960817776E9, 2021-05-21 16:51:36.081
20.0, -134.6083526611328, 17.130611419677734, 182.63427734375, -229.59432983398438, 0.03200000151991844, -0.01600000075995922, 1.055999994277954, 0.0, 0.0, 0.0, 0.0, 0.0, 1.6216086960817776E9, 2021-05-21 16:51:36.081
21.0, -98.59310913085938, 51.107601165771484, 220.3175048828125, -198.1829071044922, 0.03200000151991844, -0.01600000075995922, 1.055999994277954, 0.0, 0.0, 0.0, 0.0, 0.0, 1.621608696082535E9, 2021-05-21 16:51:36.082
21.0, -123.41482543945312, 39.47651290893555, 194.2803192138672, -208.69203186035156, 0.03200000151991844, -0.01600000075995922, 1.055999994277954, 0.0, 0.0, 0.0, 0.0, 0.0, 1.621608696082535E9, 2021-05-21 16:51:36.082
22.0, -155.27877807617188, 7.810781002044678, 155.19088745117188, -236.43833923339844, 0.03200000151991844, -0.01600000075995922, 1.055999994277954, 0.0, 0.0, 0.0, 0.0, 0.0, 1.6216086960962727E9, 2021-05-21 16:51:36.096
22.0, -144.7733917236328, 21.637191772460938, 170.4309844970703, -224.0480499267578, 0.03200000151991844, -0.01600000075995922, 1.055999994277954, 0.0, 0.0, 0.0, 0.0, 0.0, 1.6216086960962727E9, 2021-05-21 16:51:36.096
23.0, -115.26558685302734, 57.802024841308594, 206.2816619873047, -188.94161987304688, 0.03200000151991844, -0.01600000075995922, 1.055999994277954, 0.0, 0.0, 0.0, 0.0, 0.0, 1.6216086961118867E9, 2021-05-21 16:51:36.111
23.0, -125.74104309082031, 43.02568054199219, 185.37562561035156, -200.03790283203125, 0.03200000151991844, -0.01600000075995922, 1.055999994277954, 0.0, 0.0, 0.0, 0.0, 0.0, 1.6216086961118867E9, 2021-05-21 16:51:36.111
24.0, -160.01348876953125, 15.541153907775879, 142.00025939941406, -229.8972625732422, 0.03200000151991844, -0.01600000075995922, 1.055999994277954, 0.0, 0.0, 0.0, 0.0, 0.0, 1.62160869611259E9, 2021-05-21 16:51:36.112
24.0, -147.4137725830078, 20.563838958740234, 154.80194091796875, -221.47874450683594, 0.03200000151991844, -0.01600000075995922, 1.055999994277954, 0.0, 0.0, 0.0, 0.0, 0.0, 1.62160869611259E9, 2021-05-21 16:51:36.112
25.0, -108.94889831542969, 56.276145935058594, 201.43101501464844, -193.30233764648438, 0.03200000151991844, -0.01600000075995922, 1.055999994277954, 0.0, 0.0, 0.0, 0.0, 0.0, 1.621608696126151E9, 2021-05-21 16:51:36.126
25.0, -121.06990814208984, 41.91866683959961, 182.9708709716797, -206.82955932617188, 0.03200000151991844, -0.01600000075995922, 1.055999994277954, 0.0, 0.0, 0.0, 0.0, 0.0, 1.621608696126151E9, 2021-05-21 16:51:36.126
26.0, -150.60015869140625, 9.72560977935791, 143.57101440429688, -239.26571655273438, 0.03200000151991844, -0.01600000075995922, 1.055999994277954, 0.0, 0.0, 0.0, 0.0, 0.0, 1.621608696142491E9, 2021-05-21 16:51:36.142
26.0, -133.31808471679688, 25.354652404785156, 163.2578582763672, -221.4188995361328, 0.03200000151991844, -0.01600000075995922, 1.055999994277954, 0.0, 0.0, 0.0, 0.0, 0.0, 1.621608696142491E9, 2021-05-21 16:51:36.142
27.0, -102.17593383789062, 56.511756896972656, 205.4813232421875, -194.08023071289062, 0.03200000151991844, -0.01600000075995922, 1.055999994277954, 0.0, 0.0, 0.0, 0.0, 0.0, 1.6216086961432128E9, 2021-05-21 16:51:36.143
27.0, -114.87289428710938, 44.1326904296875, 196.6102752685547, -202.0985870361328, 0.03200000151991844, -0.01600000075995922, 1.055999994277954, 0.0, 0.0, 0.0, 0.0, 0.0, 1.6216086961432128E9, 2021-05-21 16:51:36.143
28.0, -151.23594665527344, 8.846733093261719, 153.79965209960938, -229.7626190185547, 0.03200000151991844, -0.01600000075995922, 1.055999994277954, 0.0, 0.0, 0.0, 0.0, 0.0, 1.6216086961724913E9, 2021-05-21 16:51:36.172
28.0, -129.53704833984375, 29.89488983154297, 175.96229553222656, -217.82485961914062, 0.03200000151991844, -0.01600000075995922, 1.055999994277954, 0.0, 0.0, 0.0, 0.0, 0.0, 1.6216086961724913E9, 2021-05-21 16:51:36.172
29.0, -107.25846099853516, 53.504878997802734, 215.05172729492188, -194.82821655273438, 0.03200000151991844, -0.01600000075995922, 1.055999994277954, 0.0, 0.0, 0.0, 0.0, 0.0, 1.6216086961731975E9, 2021-05-21 16:51:36.173
29.0, -127.4202651977539, 43.32113265991211, 192.21963500976562, -207.92909240722656, 0.03200000151991844, -0.01600000075995922, 1.055999994277954, 0.0, 0.0, 0.0, 0.0, 0.0, 1.6216086961731975E9, 2021-05-21 16:51:36.173
30.0, -159.16453552246094, 7.709803581237793, 158.03695678710938, -233.28561401367188, 0.03200000151991844, -0.01600000075995922, 1.055999994277954, 0.0, 0.0, 0.0, 0.0, 0.0, 1.6216086961739657E9, 2021-05-21 16:51:36.173
30.0, -145.01649475097656, 18.56673240661621, 173.220947265625, -229.99449157714844, 0.03200000151991844, -0.01600000075995922, 1.055999994277954, 0.0, 0.0, 0.0, 0.0, 0.0, 1.6216086961739657E9, 2021-05-21 16:51:36.173
31.0, -121.44390106201172, 57.64868927001953, 212.8489227294922, -196.65328979492188, 0.03200000151991844, -0.01600000075995922, 1.055999994277954, 0.0, 0.0, 0.0, 0.0, 0.0, 1.6216086961862202E9, 2021-05-21 16:51:36.186
31.0, -138.72972106933594, 44.345863342285156, 187.02491760253906, -209.78407287597656, 0.03200000151991844, -0.01600000075995922, 1.055999994277954, 0.0, 0.0, 0.0, 0.0, 0.0, 1.6216086961862202E9, 2021-05-21 16:51:36.186
32.0, -165.39520263671875, 8.70087718963623, 150.44496154785156, -230.97808837890625, 0.03200000151991844, -0.01600000075995922, 1.055999994277954, 0.0, 0.0, 0.0, 0.0, 0.0, 1.6216086962183137E9, 2021-05-21 16:51:36.218
32.0, -148.2402801513672, 21.453935623168945, 162.1022186279297, -218.39706420898438, 0.03200000151991844, -0.01600000075995922, 1.055999994277954, 0.0, 0.0, 0.0, 0.0, 0.0, 1.6216086962183137E9, 2021-05-21 16:51:36.218
33.0, -122.46489715576172, 58.138614654541016, 195.88473510742188, -184.91748046875, 0.03200000151991844, -0.01600000075995922, 1.055999994277954, 0.0, 0.0, 0.0, 0.0, 0.0, 1.6216086962189927E9, 2021-05-21 16:51:36.218
33.0, -127.48757934570312, 41.74663162231445, 178.07533264160156, -198.31005859375, 0.03200000151991844, -0.01600000075995922, 1.055999994277954, 0.0, 0.0, 0.0, 0.0, 0.0, 1.6216086962189927E9, 2021-05-21 16:51:36.218
34.0, -162.05921936035156, 5.555621147155762, 137.7330322265625, -233.72691345214844, 0.03200000151991844, -0.01600000075995922, 1.055999994277954, 0.0, 0.0, 0.0, 0.0, 0.0, 1.6216086962197556E9, 2021-05-21 16:51:36.219
34.0, -142.28262329101562, 16.36393165588379, 153.48922729492188, -223.35243225097656, 0.03200000151991844, -0.01600000075995922, 1.055999994277954, 0.0, 0.0, 0.0, 0.0, 0.0, 1.6216086962197556E9, 2021-05-21 16:51:36.219
35.0, -108.52254486083984, 53.44878005981445, 192.87411499023438, -192.75631713867188, 0.03200000151991844, -0.01600000075995922, 1.055999994277954, 0.0, 0.0, 0.0, 0.0, 0.0, 1.6216086962205112E9, 2021-05-21 16:51:36.220
35.0, -123.73645782470703, 41.137027740478516, 174.01754760742188, -209.2455291748047, 0.03200000151991844, -0.01600000075995922, 1.055999994277954, 0.0, 0.0, 0.0, 0.0, 0.0, 1.6216086962205112E9, 2021-05-21 16:51:36.220
36.0, -152.22328186035156, 5.271389007568359, 144.44989013671875, -232.2346954345703, 0.03200000151991844, -0.01600000075995922, 1.055999994277954, 0.0, 0.0, 0.0, 0.0, 0.0, 1.6216086962312288E9, 2021-05-21 16:51:36.231
36.0, -132.02407836914062, 21.74190902709961, 161.9788055419922, -220.42782592773438, 0.03200000151991844, -0.01600000075995922, 1.055999994277954, 0.0, 0.0, 0.0, 0.0, 0.0, 1.6216086962312288E9, 2021-05-21 16:51:36.231
37.0, -100.05915069580078, 60.419952392578125, 204.56504821777344, -193.650146484375, 0.03200000151991844, -0.01600000075995922, 1.055999994277954, 0.0, 0.0, 0.0, 0.0, 0.0, 1.6216086962461984E9, 2021-05-21 16:51:36.246
37.0, -112.62521362304688, 41.36142349243164, 191.08644104003906, -208.5012969970703, 0.03200000151991844, -0.01600000075995922, 1.055999994277954, 0.0, 0.0, 0.0, 0.0, 0.0, 1.6216086962461984E9, 2021-05-21 16:51:36.246
38.0, -144.53030395507812, 13.779661178588867, 154.4503936767578, -238.1175537109375, 0.03200000151991844, -0.01600000075995922, 1.055999994277954, 0.0, 0.0, 0.0, 0.0, 0.0, 1.6216086962625024E9, 2021-05-21 16:51:36.262
38.0, -130.7001495361328, 23.207948684692383, 176.72523498535156, -228.7117156982422, 0.03200000151991844, -0.01600000075995922, 1.055999994277954, 0.0, 0.0, 0.0, 0.0, 0.0, 1.6216086962625024E9, 2021-05-21 16:51:36.262
39.0, -103.29790496826172, 53.09722900390625, 212.3515167236328, -205.3485565185547, 0.03200000151991844, -0.01600000075995922, 1.055999994277954, 0.0, 0.0, 0.0, 0.0, 0.0, 1.6216086962632196E9, 2021-05-21 16:51:36.263
39.0, -121.75057220458984, 33.358036041259766, 194.242919921875, -215.3677520751953, 0.03200000151991844, -0.01600000075995922, 1.055999994277954, 0.0, 0.0, 0.0, 0.0, 0.0, 1.6216086962632196E9, 2021-05-21 16:51:36.263
40.0, -153.28541564941406, 9.680730819702148, 148.86297607421875, -241.21420288085938, 0.03200000151991844, -0.01600000075995922, 1.055999994277954, 0.0, 0.0, 0.0, 0.0, 0.0, 1.6216086962761476E9, 2021-05-21 16:51:36.276
40.0, -140.1957550048828, 15.234482765197754, 171.50807189941406, -233.2482147216797, 0.03200000151991844, -0.01600000075995922, 1.055999994277954, 0.0, 0.0, 0.0, 0.0, 0.0, 1.6216086962761476E9, 2021-05-21 16:51:36.276
41.0, -112.4494400024414, 50.258644104003906, 205.9076690673828, -205.4383087158203, 0.03200000151991844, -0.01600000075995922, 1.055999994277954, 0.0, 0.0, 0.0, 0.0, 0.0, 1.6216086963082056E9, 2021-05-21 16:51:36.308
41.0, -130.24014282226562, 37.18769454956055, 187.38768005371094, -208.6583709716797, 0.03200000151991844, -0.01600000075995922, 1.055999994277954, 0.0, 0.0, 0.0, 0.0, 0.0, 1.6216086963082056E9, 2021-05-21 16:51:36.308
42.0, -161.2214813232422, 5.7949748039245605, 148.50021362304688, -234.50482177734375, 0.03200000151991844, -0.01600000075995922, 1.055999994277954, 0.0, 0.0, 0.0, 0.0, 0.0, 1.6216086963088975E9, 2021-05-21 16:51:36.308
42.0, -144.27598571777344, 21.2445011138916, 168.9275360107422, -221.47500610351562, 0.03200000151991844, -0.01600000075995922, 1.055999994277954, 0.0, 0.0, 0.0, 0.0, 0.0, 1.6216086963088975E9, 2021-05-21 16:51:36.308
43.0, -114.59614562988281, 51.930381774902344, 202.28744506835938, -195.16854858398438, 0.03200000151991844, -0.01600000075995922, 1.055999994277954, 0.0, 0.0, 0.0, 0.0, 0.0, 1.6216086963096457E9, 2021-05-21 16:51:36.309
43.0, -130.1129913330078, 43.51560592651367, 191.93167114257812, -205.6963653564453, 0.03200000151991844, -0.01600000075995922, 1.055999994277954, 0.0, 0.0, 0.0, 0.0, 0.0, 1.6216086963096457E9, 2021-05-21 16:51:36.309
44.0, -160.55203247070312, 2.6721584796905518, 140.16770935058594, -231.96542358398438, 0.03200000151991844, -0.01600000075995922, 1.055999994277954, 0.0, 0.0, 0.0, 0.0, 0.0, 1.6216086963104105E9, 2021-05-21 16:51:36.310
44.0, -141.4336700439453, 21.730688095092773, 159.2673797607422, -220.29693603515625, 0.03200000151991844, -0.01600000075995922, 1.055999994277954, 0.0, 0.0, 0.0, 0.0, 0.0, 1.6216086963104105E9, 2021-05-21 16:51:36.310
45.0, -105.99437713623047, 51.836883544921875, 197.06280517578125, -197.6032257080078, 0.03200000151991844, -0.01600000075995922, 1.055999994277954, 0.0, 0.0, 0.0, 0.0, 0.0, 1.6216086963368163E9, 2021-05-21 16:51:36.336
45.0, -122.05350494384766, 42.31509780883789, 180.75685119628906, -199.40585327148438, 0.03200000151991844, -0.01600000075995922, 1.055999994277954, 0.0, 0.0, 0.0, 0.0, 0.0, 1.6216086963368163E9, 2021-05-21 16:51:36.336
46.0, -149.2612762451172, 7.635005950927734, 149.2257537841797, -227.58226013183594, 0.03200000151991844, -0.01600000075995922, 1.055999994277954, 0.0, 0.0, 0.0, 0.0, 0.0, 1.621608696337519E9, 2021-05-21 16:51:36.337
46.0, -128.76663208007812, 19.318452835083008, 169.43617248535156, -221.43760681152344, 0.03200000151991844, -0.01600000075995922, 1.055999994277954, 0.0, 0.0, 0.0, 0.0, 0.0, 1.621608696337519E9, 2021-05-21 16:51:36.337
47.0, -100.15638732910156, 49.821075439453125, 204.66229248046875, -194.95162963867188, 0.03200000151991844, -0.01600000075995922, 1.055999994277954, 0.0, 0.0, 0.0, 0.0, 0.0, 1.6216086963517964E9, 2021-05-21 16:51:36.351
47.0, -111.57056427001953, 43.627803802490234, 195.85107421875, -202.4202117919922, 0.03200000151991844, -0.01600000075995922, 1.055999994277954, 0.0, 0.0, 0.0, 0.0, 0.0, 1.6216086963517964E9, 2021-05-21 16:51:36.351
48.0, -155.8061065673828, 8.89161205291748, 153.39573669433594, -232.7096710205078, 0.03200000151991844, -0.01600000075995922, 1.055999994277954, 0.0, 0.0, 0.0, 0.0, 0.0, 1.6216086963525295E9, 2021-05-21 16:51:36.352
48.0, -141.44114685058594, 25.30229377746582, 174.2718505859375, -220.1623077392578, 0.03200000151991844, -0.01600000075995922, 1.055999994277954, 0.0, 0.0, 0.0, 0.0, 0.0, 1.6216086963525295E9, 2021-05-21 16:51:36.352
49.0, -112.35968780517578, 56.3696403503418, 212.91624450683594, -200.8943328857422, 0.03200000151991844, -0.01600000075995922, 1.055999994277954, 0.0, 0.0, 0.0, 0.0, 0.0, 1.6216086963661516E9, 2021-05-21 16:51:36.366
49.0, -129.69412231445312, 47.40884017944336, 201.52076721191406, -209.9261932373047, 0.03200000151991844, -0.01600000075995922, 1.055999994277954, 0.0, 0.0, 0.0, 0.0, 0.0, 1.6216086963661516E9, 2021-05-21 16:51:36.366
50.0, -161.62911987304688, 14.50146198272705, 155.579833984375, -243.4319610595703, 0.03200000151991844, -0.01600000075995922, 1.055999994277954, 0.0, 0.0, 0.0, 0.0, 0.0, 1.6216086963818464E9, 2021-05-21 16:51:36.381
50.0, -150.2897491455078, 32.92047119140625, 171.08920288085938, -233.98870849609375, 0.03200000151991844, -0.01600000075995922, 1.055999994277954, 0.0, 0.0, 0.0, 0.0, 0.0, 1.6216086963818464E9, 2021-05-21 16:51:36.381
51.0, -118.19393157958984, 61.35866928100586, 202.29867553710938, -203.486083984375, 0.03200000151991844, 0.0, 1.055999994277954, 0.0, 0.0, 0.0, 0.0, 0.0, 1.621608696382549E9, 2021-05-21 16:51:36.382
51.0, -135.29649353027344, 54.05838394165039, 185.7271728515625, -212.88819885253906, 0.03200000151991844, 0.0, 1.055999994277954, 0.0, 0.0, 0.0, 0.0, 0.0, 1.621608696382549E9, 2021-05-21 16:51:36.382
52.0, -166.79019165039062, 13.256075859069824, 142.49392700195312, -239.72198486328125, 0.03200000151991844, 0.0, 1.055999994277954, 0.0, 0.0, 0.0, 0.0, 0.0, 1.6216086963961978E9, 2021-05-21 16:51:36.396
52.0, -143.71127319335938, 21.558652877807617, 163.05215454101562, -224.28741455078125, 0.03200000151991844, 0.0, 1.055999994277954, 0.0, 0.0, 0.0, 0.0, 0.0, 1.6216086963961978E9, 2021-05-21 16:51:36.396
53.0, -111.73886108398438, 54.05838394165039, 192.13735961914062, -190.5946502685547, 0.03200000151991844, 0.0, 1.055999994277954, 0.0, 0.0, 0.0, 0.0, 0.0, 1.6216086964118104E9, 2021-05-21 16:51:36.411
53.0, -124.42459869384766, 36.00214767456055, 179.69471740722656, -200.79710388183594, 0.03200000151991844, 0.0, 1.055999994277954, 0.0, 0.0, 0.0, 0.0, 0.0, 1.6216086964118104E9, 2021-05-21 16:51:36.411
54.0, -159.1009521484375, -2.5076029300689697, 136.8466796875, -229.95335388183594, 0.03200000151991844, 0.0, 1.055999994277954, 0.0, 0.0, 0.0, 0.0, 0.0, 1.6216086964125507E9, 2021-05-21 16:51:36.412
54.0, -142.49954223632812, 15.604732513427734, 152.9245147705078, -216.0297088623047, 0.03200000151991844, 0.0, 1.055999994277954, 0.0, 0.0, 0.0, 0.0, 0.0, 1.6216086964125507E9, 2021-05-21 16:51:36.412
55.0, -106.6451187133789, 50.41946029663086, 197.36199951171875, -183.896484375, 0.03200000151991844, 0.0, 1.055999994277954, 0.0, 0.0, 0.0, 0.0, 0.0, 1.6216086964261591E9, 2021-05-21 16:51:36.426
55.0, -124.63029479980469, 34.80537796020508, 182.4622344970703, -195.44903564453125, 0.03200000151991844, 0.0, 1.055999994277954, 0.0, 0.0, 0.0, 0.0, 0.0, 1.6216086964261591E9, 2021-05-21 16:51:36.426
56.0, -151.6099395751953, 10.825139999389648, 148.22718811035156, -228.4125213623047, 0.03200000151991844, 0.0, 1.055999994277954, 0.0, 0.0, 0.0, 0.0, 0.0, 1.621608696441805E9, 2021-05-21 16:51:36.441
56.0, -136.42593383789062, 18.877145767211914, 168.75924682617188, -216.65428161621094, 0.03200000151991844, 0.0, 1.055999994277954, 0.0, 0.0, 0.0, 0.0, 0.0, 1.621608696441805E9, 2021-05-21 16:51:36.441
57.0, -97.64691925048828, 51.058982849121094, 211.10987854003906, -186.51815795898438, 0.03200000151991844, 0.0, 1.055999994277954, 0.0, 0.0, 0.0, 0.0, 0.0, 1.62160869644254E9, 2021-05-21 16:51:36.442
57.0, -118.69881439208984, 43.437068939208984, 194.8450469970703, -202.28558349609375, 0.03200000151991844, 0.0, 1.055999994277954, 0.0, 0.0, 0.0, 0.0, 0.0, 1.62160869644254E9, 2021-05-21 16:51:36.442
58.0, -151.2172393798828, 9.542354583740234, 165.06048583984375, -229.79627990722656, 0.03200000151991844, 0.0, 1.055999994277954, 0.0, 0.0, 0.0, 0.0, 0.0, 1.6216086964562187E9, 2021-05-21 16:51:36.456
58.0, -137.8246612548828, 18.948204040527344, 177.8434600830078, -221.5872039794922, 0.03200000151991844, 0.0, 1.055999994277954, 0.0, 0.0, 0.0, 0.0, 0.0, 1.6216086964562187E9, 2021-05-21 16:51:36.456
59.0, -107.62123107910156, 62.387142181396484, 221.5404510498047, -196.6233673095703, 0.03200000151991844, 0.0, 1.055999994277954, 0.0, 0.0, 0.0, 0.0, 0.0, 1.621608696471814E9, 2021-05-21 16:51:36.471
59.0, -135.5321044921875, 56.852088928222656, 203.03543090820312, -213.42300415039062, 0.03200000151991844, 0.0, 1.055999994277954, 0.0, 0.0, 0.0, 0.0, 0.0, 1.621608696471814E9, 2021-05-21 16:51:36.471
60.0, -170.2982177734375, 22.48988914489746, 154.8542938232422, -243.06170654296875, 0.03200000151991844, 0.0, 1.055999994277954, 0.0, 0.0, 0.0, 0.0, 0.0, 1.6216086964725652E9, 2021-05-21 16:51:36.472
60.0, -156.54286193847656, 39.81684494018555, 170.8760223388672, -233.3379669189453, 0.03200000151991844, 0.0, 1.055999994277954, 0.0, 0.0, 0.0, 0.0, 0.0, 1.6216086964725652E9, 2021-05-21 16:51:36.472
61.0, -122.13204193115234, 67.27145385742188, 199.53114318847656, -201.40670776367188, 0.03200000151991844, 0.0, 1.055999994277954, 0.0, 0.0, 0.0, 0.0, 0.0, 1.621608696501592E9, 2021-05-21 16:51:36.501
61.0, -133.98004150390625, 52.121116638183594, 181.1121368408203, -213.26593017578125, 0.03200000151991844, 0.0, 1.055999994277954, 0.0, 0.0, 0.0, 0.0, 0.0, 1.621608696501592E9, 2021-05-21 16:51:36.501
62.0, -159.43006896972656, 17.04085350036621, 135.0178680419922, -239.45269775390625, 0.03200000151991844, 0.0, 1.055999994277954, 0.0, 0.0, 0.0, 0.0, 0.0, 1.6216086965176294E9, 2021-05-21 16:51:36.517
62.0, -140.50242614746094, 26.9553279876709, 154.50648498535156, -222.8737335205078, 0.03200000151991844, 0.0, 1.055999994277954, 0.0, 0.0, 0.0, 0.0, 0.0, 1.6216086965176294E9, 2021-05-21 16:51:36.517
63.0, -107.75960540771484, 48.355037689208984, 189.85975646972656, -196.11474609375, 0.03200000151991844, 0.0, 1.055999994277954, 0.0, 0.0, 0.0, 0.0, 0.0, 1.621608696533183E9, 2021-05-21 16:51:36.533
63.0, -114.67094421386719, 35.81515121459961, 176.60182189941406, -201.5413360595703, 0.03200000151991844, 0.0, 1.055999994277954, 0.0, 0.0, 0.0, 0.0, 0.0, 1.621608696533183E9, 2021-05-21 16:51:36.533
64.0, -150.67495727539062, 1.8381608724594116, 135.6050262451172, -235.73150634765625, 0.03200000151991844, 0.0, 1.055999994277954, 0.0, 0.0, 0.0, 0.0, 0.0, 1.6216086965339077E9, 2021-05-21 16:51:36.533
64.0, -129.37997436523438, 13.282254219055176, 159.64511108398438, -219.5115509033203, 0.03200000151991844, 0.0, 1.055999994277954, 0.0, 0.0, 0.0, 0.0, 0.0, 1.6216086965339077E9, 2021-05-21 16:51:36.533
65.0, -92.05950927734375, 53.52731704711914, 203.50291442871094, -186.70889282226562, 0.03200000151991844, 0.0, 1.055999994277954, 0.0, 0.0, 0.0, 0.0, 0.0, 1.62160869653467E9, 2021-05-21 16:51:36.534
65.0, -109.87638854980469, 36.44345474243164, 195.3985595703125, -197.3863067626953, 0.03200000151991844, 0.0, 1.055999994277954, 0.0, 0.0, 0.0, 0.0, 0.0, 1.62160869653467E9, 2021-05-21 16:51:36.534
66.0, -145.97390747070312, 1.7297037839889526, 158.01451110839844, -229.6878204345703, 0.03200000151991844, 0.0, 1.055999994277954, 0.0, 0.0, 0.0, 0.0, 0.0, 1.6216086965353873E9, 2021-05-21 16:51:36.535
66.0, -131.22000122070312, 10.028541564941406, 176.62051391601562, -224.06301879882812, 0.03200000151991844, 0.0, 1.055999994277954, 0.0, 0.0, 0.0, 0.0, 0.0, 1.6216086965353873E9, 2021-05-21 16:51:36.535
67.0, -96.96251678466797, 47.71925354003906, 219.8948974609375, -194.78707885742188, 0.03200000151991844, 0.0, 1.055999994277954, 0.0, 0.0, 0.0, 0.0, 0.0, 1.6216086965462184E9, 2021-05-21 16:51:36.546
67.0, -107.39309692382812, 40.07489776611328, 210.74710083007812, -202.41647338867188, 0.03200000151991844, 0.0, 1.055999994277954, 0.0, 0.0, 0.0, 0.0, 0.0, 1.6216086965462184E9, 2021-05-21 16:51:36.546
68.0, -142.42848205566406, 7.863139629364014, 176.41482543945312, -233.510009765625, 0.03200000151991844, 0.0, 1.055999994277954, 0.0, 0.0, 0.0, 0.0, 0.0, 1.6216086965616212E9, 2021-05-21 16:51:36.561
68.0, -132.9403533935547, 23.230388641357422, 193.057373046875, -228.158203125, 0.03200000151991844, 0.0, 1.055999994277954, 0.0, 0.0, 0.0, 0.0, 0.0, 1.6216086965616212E9, 2021-05-21 16:51:36.561
69.0, -99.35231018066406, 58.63976287841797, 226.56314086914062, -201.56378173828125, 0.03200000151991844, 0.0, 1.055999994277954, 0.0, 0.0, 0.0, 0.0, 0.0, 1.621608696576784E9, 2021-05-21 16:51:36.576
69.0, -119.74598693847656, 55.49824523925781, 205.62718200683594, -211.81484985351562, 0.03200000151991844, 0.0, 1.055999994277954, 0.0, 0.0, 0.0, 0.0, 0.0, 1.621608696576784E9, 2021-05-21 16:51:36.576
70.0, -156.5279083251953, 18.203962326049805, 165.21755981445312, -240.93743896484375, 0.03200000151991844, 0.0, 1.055999994277954, 0.0, 0.0, 0.0, 0.0, 0.0, 1.6216086965775087E9, 2021-05-21 16:51:36.577
70.0, -143.4232940673828, 29.38626480102539, 173.25086975097656, -235.99330139160156, 0.03200000151991844, 0.0, 1.055999994277954, 0.0, 0.0, 0.0, 0.0, 0.0, 1.6216086965775087E9, 2021-05-21 16:51:36.577
71.0, -109.46874237060547, 71.02631378173828, 209.49049377441406, -202.9849395751953, 0.03200000151991844, 0.0, 1.055999994277954, 0.0, 0.0, 0.0, 0.0, 0.0, 1.621608696591848E9, 2021-05-21 16:51:36.591
71.0, -126.03276062011719, 53.43008041381836, 188.7228240966797, -204.2452850341797, 0.03200000151991844, 0.0, 1.055999994277954, 0.0, 0.0, 0.0, 0.0, 0.0, 1.621608696591848E9, 2021-05-21 16:51:36.591
72.0, -154.53826904296875, 13.43185043334961, 141.35325622558594, -238.06520080566406, 0.03200000151991844, 0.0, 1.055999994277954, 0.0, 0.0, 0.0, 0.0, 0.0, 1.621608696592613E9, 2021-05-21 16:51:36.592
72.0, -141.15316772460938, 26.1923885345459, 155.09365844726562, -219.4704132080078, 0.03200000151991844, 0.0, 1.055999994277954, 0.0, 0.0, 0.0, 0.0, 0.0, 1.621608696592613E9, 2021-05-21 16:51:36.592
73.0, -111.33869171142578, 60.00108337402344, 187.60833740234375, -185.48968505859375, 0.03200000151991844, 0.0, 1.055999994277954, 0.0, 0.0, 0.0, 0.0, 0.0, 1.6216086966061904E9, 2021-05-21 16:51:36.606
73.0, -126.38804626464844, 43.437068939208984, 178.50917053222656, -196.4812469482422, 0.03200000151991844, 0.0, 1.055999994277954, 0.0, 0.0, 0.0, 0.0, 0.0, 1.6216086966061904E9, 2021-05-21 16:51:36.606
74.0, -153.6407012939453, 7.197437286376953, 140.2761688232422, -220.34555053710938, 0.03200000151991844, 0.0, 1.055999994277954, 0.0, 0.0, 0.0, 0.0, 0.0, 1.6216086966226416E9, 2021-05-21 16:51:36.622
74.0, -131.68374633789062, 18.462017059326172, 159.6974639892578, -208.4414520263672, 0.03200000151991844, 0.0, 1.055999994277954, 0.0, 0.0, 0.0, 0.0, 0.0, 1.6216086966226416E9, 2021-05-21 16:51:36.622
75.0, -100.6201400756836, 56.45191955566406, 196.02685546875, -183.62721252441406, 0.03200000151991844, 0.0, 1.055999994277954, 0.0, 0.0, 0.0, 0.0, 0.0, 1.6216086966372547E9, 2021-05-21 16:51:36.637
75.0, -109.61833953857422, 44.44309997558594, 185.79075622558594, -190.9948272705078, 0.03200000151991844, 0.0, 1.055999994277954, 0.0, 0.0, 0.0, 0.0, 0.0, 1.6216086966372547E9, 2021-05-21 16:51:36.637
76.0, -143.72622680664062, 5.297568321228027, 152.4495391845703, -225.89556884765625, 0.03200000151991844, 0.0, 1.055999994277954, 0.0, 0.0, 0.0, 0.0, 0.0, 1.6216086966525435E9, 2021-05-21 16:51:36.652
76.0, -130.6964111328125, 17.71403694152832, 171.82969665527344, -214.10740661621094, 0.03200000151991844, 0.0, 1.055999994277954, 0.0, 0.0, 0.0, 0.0, 0.0, 1.6216086966525435E9, 2021-05-21 16:51:36.652
77.0, -100.85575103759766, 51.48159408569336, 211.42776489257812, -187.48304748535156, 0.03200000151991844, 0.0, 1.055999994277954, 0.0, 0.0, 0.0, 0.0, 0.0, 1.6216086966532226E9, 2021-05-21 16:51:36.653
77.0, -118.23133087158203, 39.77570724487305, 197.53778076171875, -198.56063842773438, 0.03200000151991844, 0.0, 1.055999994277954, 0.0, 0.0, 0.0, 0.0, 0.0, 1.6216086966532226E9, 2021-05-21 16:51:36.653
78.0, -159.5796661376953, 6.31856107711792, 157.79759216308594, -234.2318115234375, 0.03200000151991844, 0.0, 1.055999994277954, 0.0, 0.0, 0.0, 0.0, 0.0, 1.6216086966540945E9, 2021-05-21 16:51:36.654
78.0, -141.72537231445312, 23.353805541992188, 173.58370971679688, -223.3748779296875, 0.03200000151991844, 0.0, 1.055999994277954, 0.0, 0.0, 0.0, 0.0, 0.0, 1.6216086966540945E9, 2021-05-21 16:51:36.654
79.0, -112.99172973632812, 63.16130065917969, 212.79283142089844, -194.32333374023438, 0.03200000151991844, 0.0, 1.055999994277954, 0.0, 0.0, 0.0, 0.0, 0.0, 1.621608696683225E9, 2021-05-21 16:51:36.683
79.0, -122.61823272705078, 54.69416809082031, 193.45005798339844, -210.094482421875, 0.03200000151991844, 0.0, 1.055999994277954, 0.0, 0.0, 0.0, 0.0, 0.0, 1.621608696683225E9, 2021-05-21 16:51:36.683
80.0, -155.55178833007812, 25.418230056762695, 155.93138122558594, -244.28091430664062, 0.03200000151991844, 0.0, 1.055999994277954, 0.0, 0.0, 0.0, 0.0, 0.0, 1.621608696683915E9, 2021-05-21 16:51:36.683
80.0, -147.0734405517578, 39.92904281616211, 170.34121704101562, -234.46742248535156, 0.03200000151991844, 0.0, 1.055999994277954, 0.0, 0.0, 0.0, 0.0, 0.0, 1.621608696683915E9, 2021-05-21 16:51:36.683
81.0, -110.71412658691406, 73.41236877441406, 210.45913696289062, -210.9958038330078, 0.03200000151991844, 0.0, 1.055999994277954, 0.0, 0.0, 0.0, 0.0, 0.0, 1.6216086966847043E9, 2021-05-21 16:51:36.684
81.0, -115.93128967285156, 53.48617935180664, 192.2532958984375, -223.25894165039062, 0.03200000151991844, 0.0, 1.055999994277954, 0.0, 0.0, 0.0, 0.0, 0.0, 1.6216086966847043E9, 2021-05-21 16:51:36.684
82.0, -148.09817504882812, 15.746849060058594, 148.0065460205078, -246.6856689453125, 0.03200000151991844, 0.0, 1.055999994277954, 0.0, 0.0, 0.0, 0.0, 0.0, 1.62160869669626E9, 2021-05-21 16:51:36.696
82.0, -134.7729034423828, 24.27008056640625, 168.18704223632812, -226.045166015625, 0.03200000151991844, 0.0, 1.055999994277954, 0.0, 0.0, 0.0, 0.0, 0.0, 1.62160869669626E9, 2021-05-21 16:51:36.696
83.0, -107.5688705444336, 55.558082580566406, 201.1467742919922, -195.06756591796875, 0.03200000151991844, 0.0, 1.055999994277954, 0.0, 0.0, 0.0, 0.0, 0.0, 1.62160869671181E9, 2021-05-21 16:51:36.711
83.0, -123.83369445800781, 40.19831466674805, 188.2628173828125, -200.84571838378906, 0.03200000151991844, 0.0, 1.055999994277954, 0.0, 0.0, 0.0, 0.0, 0.0, 1.62160869671181E9, 2021-05-21 16:51:36.711
84.0, -155.2825164794922, 7.391912460327148, 147.76344299316406, -223.83114624023438, 0.03200000151991844, 0.0, 1.055999994277954, 0.0, 0.0, 0.0, 0.0, 0.0, 1.6216086967126424E9, 2021-05-21 16:51:36.712
84.0, -138.10140991210938, 11.371166229248047, 163.53834533691406, -219.37318420410156, 0.03200000151991844, 0.0, 1.055999994277954, 0.0, 0.0, 0.0, 0.0, 0.0, 1.6216086967126424E9, 2021-05-21 16:51:36.712
