Sample Index, EXG Channel 0, EXG Channel 1, EXG Channel 2, EXG Channel 3, Accel Channel 0, Accel Channel 1, Accel Channel 2, Other, Other, Other, Other, Other, Timestamp, Timestamp (Formatted)
0.0, -56.90070724487305, 159.5684356689453, 10.353913307189941, 23.505271911621094, 0.0, 0.0, 0.0, 0.0, 0.0, 0.0, 0.0, 0.0, 1.62185237679293E9, 2021-05-24 12:32:56.792
1.0, -94.31092834472656, 105.8821792602539, -43.84471893310547, -19.286664962768555, 0.0, 0.01600000075995922, 0.0, 0.0, 0.0, 0.0, 0.0, 0.0, 1.6218523768062048E9, 2021-05-24 12:32:56.806
1.0, -149.5268096923828, 45.965240478515625, -110.44485473632812, -71.63030242919922, 0.0, 0.01600000075995922, 0.0, 0.0, 0.0, 0.0, 0.0, 0.0, 1.6218523768062048E9, 2021-05-24 12:32:56.806
2.0, -69.06660461425781, 154.93096923828125, 21.12482452392578, 19.963586807250977, -0.04800000041723251, 0.01600000075995922, 0.0, 0.0, 0.0, 0.0, 0.0, 0.0, 1.621852376822925E9, 2021-05-24 12:32:56.822
2.0, -59.49619674682617, 162.7136993408203, 13.607625961303711, 30.49514389038086, -0.04800000041723251, 0.01600000075995922, 0.0, 0.0, 0.0, 0.0, 0.0, 0.0, 1.621852376822925E9, 2021-05-24 12:32:56.822
3.0, -101.93658447265625, 93.72376251220703, -54.20423889160156, -20.40489387512207, -0.04800000041723251, 0.01600000075995922, 0.0, 0.0, 0.0, 0.0, 0.0, 0.0, 1.6218523768236666E9, 2021-05-24 12:32:56.823
3.0, -145.9103240966797, 39.94026184082031, -108.15603637695312, -59.868316650390625, -0.04800000041723251, 0.01600000075995922, 0.0, 0.0, 0.0, 0.0, 0.0, 0.0, 1.6218523768236666E9, 2021-05-24 12:32:56.823
4.0, -70.32321166992188, 156.008056640625, 16.580846786499023, 20.30765724182129, -0.04800000041723251, 0.01600000075995922, 0.0, 0.0, 0.0, 0.0, 0.0, 0.0, 1.6218523768360765E9, 2021-05-24 12:32:56.836
4.0, -57.319576263427734, 170.41415405273438, 24.546833038330078, 39.00715637207031, -0.04800000041723251, 0.01600000075995922, 0.0, 0.0, 0.0, 0.0, 0.0, 0.0, 1.6218523768360765E9, 2021-05-24 12:32:56.836
5.0, -100.44062042236328, 106.08039093017578, -51.122562408447266, -9.488125801086426, -0.04800000041723251, 0.01600000075995922, 0.0, 0.0, 0.0, 0.0, 0.0, 0.0, 1.621852376866436E9, 2021-05-24 12:32:56.866
5.0, -152.69076538085938, 40.650840759277344, -112.8720474243164, -57.45982360839844, -0.04800000041723251, 0.01600000075995922, 0.0, 0.0, 0.0, 0.0, 0.0, 0.0, 1.621852376866436E9, 2021-05-24 12:32:56.866
6.0, -64.11871337890625, 158.10240173339844, 22.332813262939453, 34.07796859741211, -0.04800000041723251, 0.01600000075995922, 0.0, 0.0, 0.0, 0.0, 0.0, 0.0, 1.62185237688385E9, 2021-05-24 12:32:56.883
6.0, -56.6276969909668, 165.81033325195312, 20.728395462036133, 33.191612243652344, -0.04800000041723251, 0.01600000075995922, 0.0, 0.0, 0.0, 0.0, 0.0, 0.0, 1.62185237688385E9, 2021-05-24 12:32:56.883
7.0, -96.25193786621094, 111.29006958007812, -48.014705657958984, -11.657268524169922, -0.04800000041723251, 0.01600000075995922, 0.0, 0.0, 0.0, 0.0, 0.0, 0.0, 1.6218523768845885E9, 2021-05-24 12:32:56.884
7.0, -147.92987060546875, 41.74289321899414, -117.52822875976562, -64.86482238769531, -0.04800000041723251, 0.01600000075995922, 0.0, 0.0, 0.0, 0.0, 0.0, 0.0, 1.6218523768845885E9, 2021-05-24 12:32:56.884
8.0, -68.165283203125, 149.74746704101562, 12.160284996032715, 25.547256469726562, -0.04800000041723251, 0.01600000075995922, 0.0, 0.0, 0.0, 0.0, 0.0, 0.0, 1.6218523768853035E9, 2021-05-24 12:32:56.885
8.0, -54.61936950683594, 176.21847534179688, 22.05232048034668, 35.05034255981445, -0.04800000041723251, 0.01600000075995922, 0.0, 0.0, 0.0, 0.0, 0.0, 0.0, 1.6218523768853035E9, 2021-05-24 12:32:56.885
9.0, -99.35604858398438, 109.80533599853516, -46.971275329589844, -12.670781135559082, -0.04800000041723251, 0.01600000075995922, 0.0, 0.0, 0.0, 0.0, 0.0, 0.0, 1.6218523768860319E9, 2021-05-24 12:32:56.886
9.0, -149.93446350097656, 36.33125686645508, -112.88327026367188, -70.05206298828125, -0.04800000041723251, 0.01600000075995922, 0.0, 0.0, 0.0, 0.0, 0.0, 0.0, 1.6218523768860319E9, 2021-05-24 12:32:56.886
10.0, -64.36554718017578, 154.19046020507812, 19.864479064941406, 25.693113327026367, -0.04800000041723251, 0.01600000075995922, 1.055999994277954, 0.0, 0.0, 0.0, 0.0, 0.0, 1.6218523768961203E9, 2021-05-24 12:32:56.896
10.0, -55.00831985473633, 169.80828857421875, 24.05690574645996, 37.649574279785156, -0.04800000041723251, 0.01600000075995922, 1.055999994277954, 0.0, 0.0, 0.0, 0.0, 0.0, 1.6218523768961203E9, 2021-05-24 12:32:56.896
11.0, -99.34857177734375, 109.21443176269531, -47.56965637207031, -15.767417907714844, -0.04800000041723251, 0.01600000075995922, 1.055999994277954, 0.0, 0.0, 0.0, 0.0, 0.0, 1.6218523769117532E9, 2021-05-24 12:32:56.911
11.0, -147.9410858154297, 42.55071258544922, -112.39334106445312, -69.7977523803711, -0.04800000041723251, 0.01600000075995922, 1.055999994277954, 0.0, 0.0, 0.0, 0.0, 0.0, 1.6218523769117532E9, 2021-05-24 12:32:56.911
12.0, -66.90493774414062, 160.30894470214844, 25.425710678100586, 20.857421875, -0.04800000041723251, 0.01600000075995922, 1.055999994277954, 0.0, 0.0, 0.0, 0.0, 0.0, 1.621852376912434E9, 2021-05-24 12:32:56.912
12.0, -52.39038848876953, 171.7792205810547, 25.93059539794922, 38.59950637817383, -0.04800000041723251, 0.01600000075995922, 1.055999994277954, 0.0, 0.0, 0.0, 0.0, 0.0, 1.621852376912434E9, 2021-05-24 12:32:56.912
13.0, -93.76116180419922, 118.32856750488281, -40.527427673339844, -2.5954904556274414, -0.04800000041723251, 0.01600000075995922, 1.055999994277954, 0.0, 0.0, 0.0, 0.0, 0.0, 1.6218523769261005E9, 2021-05-24 12:32:56.926
13.0, -144.92672729492188, 43.0817756652832, -97.84886932373047, -58.89220428466797, -0.04800000041723251, 0.01600000075995922, 1.055999994277954, 0.0, 0.0, 0.0, 0.0, 0.0, 1.6218523769261005E9, 2021-05-24 12:32:56.926
14.0, -67.79129791259766, 158.45394897460938, 25.08911895751953, 24.77309799194336, -0.04800000041723251, 0.01600000075995922, 1.055999994277954, 0.0, 0.0, 0.0, 0.0, 0.0, 1.621852376941723E9, 2021-05-24 12:32:56.941
14.0, -56.167686462402344, 173.35745239257812, 21.158483505249023, 31.77419090270996, -0.04800000041723251, 0.01600000075995922, 1.055999994277954, 0.0, 0.0, 0.0, 0.0, 0.0, 1.621852376941723E9, 2021-05-24 12:32:56.941
15.0, -105.22769165039062, 100.53411865234375, -44.727333068847656, -11.096282958984375, -0.04800000041723251, 0.01600000075995922, 1.055999994277954, 0.0, 0.0, 0.0, 0.0, 0.0, 1.6218523769424138E9, 2021-05-24 12:32:56.942
15.0, -154.62429809570312, 35.99840545654297, -113.68734741210938, -61.54005432128906, -0.04800000041723251, 0.01600000075995922, 1.055999994277954, 0.0, 0.0, 0.0, 0.0, 0.0, 1.6218523769424138E9, 2021-05-24 12:32:56.942
16.0, -67.43974304199219, 151.1312255859375, 14.445363998413086, 18.66584014892578, -0.04800000041723251, 0.01600000075995922, 1.055999994277954, 0.0, 0.0, 0.0, 0.0, 0.0, 1.6218523769724636E9, 2021-05-24 12:32:56.972
16.0, -54.368797302246094, 164.31063842773438, 9.471296310424805, 31.426380157470703, -0.04800000041723251, 0.01600000075995922, 1.055999994277954, 0.0, 0.0, 0.0, 0.0, 0.0, 1.6218523769724636E9, 2021-05-24 12:32:56.972
17.0, -98.6753921508789, 101.99268341064453, -48.452274322509766, -17.23345947265625, -0.04800000041723251, 0.01600000075995922, 1.055999994277954, 0.0, 0.0, 0.0, 0.0, 0.0, 1.621852376973104E9, 2021-05-24 12:32:56.973
17.0, -148.27394104003906, 39.36431884765625, -111.46958923339844, -61.842987060546875, -0.04800000041723251, 0.01600000075995922, 1.055999994277954, 0.0, 0.0, 0.0, 0.0, 0.0, 1.621852376973104E9, 2021-05-24 12:32:56.973
18.0, -63.76716232299805, 144.65371704101562, 13.439330101013184, 21.433366775512695, -0.04800000041723251, 0.01600000075995922, 1.055999994277954, 0.0, 0.0, 0.0, 0.0, 0.0, 1.6218523769738643E9, 2021-05-24 12:32:56.973
18.0, -48.545772552490234, 161.19155883789062, 16.820199966430664, 42.81437301635742, -0.04800000041723251, 0.01600000075995922, 1.055999994277954, 0.0, 0.0, 0.0, 0.0, 0.0, 1.6218523769738643E9, 2021-05-24 12:32:56.973
19.0, -99.89086151123047, 104.375, -48.09698486328125, -6.986133098602295, -0.04800000041723251, 0.01600000075995922, 1.055999994277954, 0.0, 0.0, 0.0, 0.0, 0.0, 1.6218523770024629E9, 2021-05-24 12:32:57.002
19.0, -151.9801788330078, 49.27505111694336, -111.37235260009766, -66.87315368652344, -0.04800000041723251, 0.01600000075995922, 1.055999994277954, 0.0, 0.0, 0.0, 0.0, 0.0, 1.6218523770024629E9, 2021-05-24 12:32:57.002
20.0, -74.51937866210938, 149.92698669433594, 15.051227569580078, 15.356029510498047, -0.04800000041723251, 0.01600000075995922, 1.040000081062317, 0.0, 0.0, 0.0, 0.0, 0.0, 1.6218523770032115E9, 2021-05-24 12:32:57.003
20.0, -58.42658615112305, 179.99203491210938, 14.677237510681152, 39.23529052734375, -0.04800000041723251, 0.01600000075995922, 1.040000081062317, 0.0, 0.0, 0.0, 0.0, 0.0, 1.6218523770032115E9, 2021-05-24 12:32:57.003
21.0, -96.89894104003906, 109.95867156982422, -47.42380142211914, -17.570049285888672, -0.04800000041723251, 0.01600000075995922, 1.040000081062317, 0.0, 0.0, 0.0, 0.0, 0.0, 1.6218523770038297E9, 2021-05-24 12:32:57.003
21.0, -144.84071350097656, 48.75520706176758, -104.53207397460938, -64.69652557373047, -0.04800000041723251, 0.01600000075995922, 1.040000081062317, 0.0, 0.0, 0.0, 0.0, 0.0, 1.6218523770038297E9, 2021-05-24 12:32:57.003
22.0, -67.08071899414062, 156.11651611328125, 17.605579376220703, 16.3209228515625, -0.04800000041723251, 0.01600000075995922, 1.040000081062317, 0.0, 0.0, 0.0, 0.0, 0.0, 1.6218523770160913E9, 2021-05-24 12:32:57.016
22.0, -53.24308395385742, 176.020263671875, 21.016366958618164, 31.31418228149414, -0.04800000041723251, 0.01600000075995922, 1.040000081062317, 0.0, 0.0, 0.0, 0.0, 0.0, 1.6218523770160913E9, 2021-05-24 12:32:57.016
23.0, -94.5577621459961, 115.0972900390625, -41.02109146118164, -15.636521339416504, -0.04800000041723251, 0.01600000075995922, 1.040000081062317, 0.0, 0.0, 0.0, 0.0, 0.0, 1.6218523770316887E9, 2021-05-24 12:32:57.031
23.0, -143.9207000732422, 46.76557922363281, -102.50505065917969, -59.96555709838867, -0.04800000041723251, 0.01600000075995922, 1.040000081062317, 0.0, 0.0, 0.0, 0.0, 0.0, 1.6218523770316887E9, 2021-05-24 12:32:57.031
24.0, -63.65870666503906, 166.37879943847656, 23.163070678710938, 30.962631225585938, -0.04800000041723251, 0.01600000075995922, 1.040000081062317, 0.0, 0.0, 0.0, 0.0, 0.0, 1.6218523770324123E9, 2021-05-24 12:32:57.032
24.0, -51.04402542114258, 177.39654541015625, 13.185017585754395, 39.493343353271484, -0.04800000041723251, 0.01600000075995922, 1.040000081062317, 0.0, 0.0, 0.0, 0.0, 0.0, 1.6218523770324123E9, 2021-05-24 12:32:57.032
25.0, -98.36497497558594, 113.18994140625, -47.068511962890625, -7.330204010009766, -0.04800000041723251, 0.01600000075995922, 1.040000081062317, 0.0, 0.0, 0.0, 0.0, 0.0, 1.6218523770460021E9, 2021-05-24 12:32:57.046
25.0, -146.82659912109375, 46.01759719848633, -110.70291137695312, -60.6536979675293, -0.04800000041723251, 0.01600000075995922, 1.040000081062317, 0.0, 0.0, 0.0, 0.0, 0.0, 1.6218523770460021E9, 2021-05-24 12:32:57.046
26.0, -61.82615661621094, 159.1159210205078, 15.402777671813965, 27.637861251831055, -0.04800000041723251, 0.01600000075995922, 1.040000081062317, 0.0, 0.0, 0.0, 0.0, 0.0, 1.6218523770618465E9, 2021-05-24 12:32:57.061
26.0, -52.30063247680664, 170.78814697265625, 15.720669746398926, 36.202232360839844, -0.04800000041723251, 0.01600000075995922, 1.040000081062317, 0.0, 0.0, 0.0, 0.0, 0.0, 1.6218523770618465E9, 2021-05-24 12:32:57.061
27.0, -97.05227661132812, 104.18426513671875, -48.75894546508789, -7.285325050354004, -0.04800000041723251, 0.01600000075995922, 1.040000081062317, 0.0, 0.0, 0.0, 0.0, 0.0, 1.6218523770625513E9, 2021-05-24 12:32:57.062
27.0, -141.6804962158203, 49.34611129760742, -107.09390258789062, -62.76674270629883, -0.04800000041723251, 0.01600000075995922, 1.040000081062317, 0.0, 0.0, 0.0, 0.0, 0.0, 1.6218523770625513E9, 2021-05-24 12:32:57.062
28.0, -63.65870666503906, 157.44418334960938, 12.968103408813477, 29.163740158081055, -0.04800000041723251, 0.01600000075995922, 1.040000081062317, 0.0, 0.0, 0.0, 0.0, 0.0, 1.6218523770760407E9, 2021-05-24 12:32:57.076
28.0, -52.09867477416992, 169.9541473388672, 12.743709564208984, 34.28740310668945, -0.04800000041723251, 0.01600000075995922, 1.040000081062317, 0.0, 0.0, 0.0, 0.0, 0.0, 1.6218523770760407E9, 2021-05-24 12:32:57.076
29.0, -101.81690979003906, 112.58782196044922, -51.00662612915039, -9.570404052734375, -0.04800000041723251, 0.01600000075995922, 1.040000081062317, 0.0, 0.0, 0.0, 0.0, 0.0, 1.6218523770916708E9, 2021-05-24 12:32:57.091
29.0, -145.30819702148438, 40.20579528808594, -107.23976135253906, -55.99004364013672, -0.04800000041723251, 0.01600000075995922, 1.040000081062317, 0.0, 0.0, 0.0, 0.0, 0.0, 1.6218523770916708E9, 2021-05-24 12:32:57.091
30.0, -59.16708755493164, 153.9286651611328, 20.548879623413086, 21.728818893432617, -0.04800000041723251, 0.01600000075995922, 1.055999994277954, 0.0, 0.0, 0.0, 0.0, 0.0, 1.6218523770924761E9, 2021-05-24 12:32:57.092
30.0, -49.8846549987793, 177.43768310546875, 23.70535659790039, 40.2001838684082, -0.04800000041723251, 0.01600000075995922, 1.055999994277954, 0.0, 0.0, 0.0, 0.0, 0.0, 1.6218523770924761E9, 2021-05-24 12:32:57.092
31.0, -101.43169403076172, 110.68795013427734, -49.51066589355469, -17.68598747253418, -0.04800000041723251, 0.01600000075995922, 1.055999994277954, 0.0, 0.0, 0.0, 0.0, 0.0, 1.621852377139472E9, 2021-05-24 12:32:57.139
31.0, -138.8381805419922, 49.114234924316406, -97.82269287109375, -67.30697631835938, -0.04800000041723251, 0.01600000075995922, 1.055999994277954, 0.0, 0.0, 0.0, 0.0, 0.0, 1.621852377139472E9, 2021-05-24 12:32:57.139
32.0, -60.045963287353516, 165.02120971679688, 22.190696716308594, 24.197153091430664, -0.04800000041723251, 0.01600000075995922, 1.055999994277954, 0.0, 0.0, 0.0, 0.0, 0.0, 1.621852377140226E9, 2021-05-24 12:32:57.140
32.0, -48.212921142578125, 176.4840087890625, 19.131458282470703, 30.962631225585938, -0.04800000041723251, 0.01600000075995922, 1.055999994277954, 0.0, 0.0, 0.0, 0.0, 0.0, 1.621852377140226E9, 2021-05-24 12:32:57.140
33.0, -96.40901184082031, 112.79724884033203, -46.20833206176758, -16.380762100219727, -0.04800000041723251, 0.01600000075995922, 1.055999994277954, 0.0, 0.0, 0.0, 0.0, 0.0, 1.6218523771408813E9, 2021-05-24 12:32:57.140
33.0, -143.8421630859375, 45.78572463989258, -106.10282897949219, -68.21951293945312, -0.04800000041723251, 0.01600000075995922, 1.055999994277954, 0.0, 0.0, 0.0, 0.0, 0.0, 1.6218523771408813E9, 2021-05-24 12:32:57.140
34.0, -60.16564178466797, 164.5387725830078, 19.632604598999023, 25.158306121826172, -0.04800000041723251, 0.01600000075995922, 1.055999994277954, 0.0, 0.0, 0.0, 0.0, 0.0, 1.6218523771416228E9, 2021-05-24 12:32:57.141
34.0, -51.208580017089844, 174.85340881347656, 16.22181510925293, 39.0445556640625, -0.04800000041723251, 0.01600000075995922, 1.055999994277954, 0.0, 0.0, 0.0, 0.0, 0.0, 1.6218523771416228E9, 2021-05-24 12:32:57.141
35.0, -98.84368896484375, 105.15290069580078, -57.53649139404297, -7.85004997253418, -0.04800000041723251, 0.01600000075995922, 1.055999994277954, 0.0, 0.0, 0.0, 0.0, 0.0, 1.6218523771518695E9, 2021-05-24 12:32:57.151
35.0, -146.4750518798828, 45.385555267333984, -114.54004669189453, -54.063995361328125, -0.04800000041723251, 0.01600000075995922, 1.055999994277954, 0.0, 0.0, 0.0, 0.0, 0.0, 1.6218523771518695E9, 2021-05-24 12:32:57.151
36.0, -67.9820327758789, 148.4571990966797, 10.181878089904785, 31.57597541809082, -0.04800000041723251, 0.01600000075995922, 1.055999994277954, 0.0, 0.0, 0.0, 0.0, 0.0, 1.6218523771524575E9, 2021-05-24 12:32:57.152
36.0, -59.219444274902344, 161.83482360839844, 8.708356857299805, 45.275230407714844, -0.04800000041723251, 0.01600000075995922, 1.055999994277954, 0.0, 0.0, 0.0, 0.0, 0.0, 1.6218523771524575E9, 2021-05-24 12:32:57.152
37.0, -94.2398681640625, 107.99522399902344, -47.49485778808594, -3.9530742168426514, -0.04800000041723251, 0.01600000075995922, 1.055999994277954, 0.0, 0.0, 0.0, 0.0, 0.0, 1.621852377182634E9, 2021-05-24 12:32:57.182
37.0, -145.9290313720703, 44.869449615478516, -105.72884368896484, -59.793521881103516, -0.04800000041723251, 0.01600000075995922, 1.055999994277954, 0.0, 0.0, 0.0, 0.0, 0.0, 1.621852377182634E9, 2021-05-24 12:32:57.182
38.0, -66.55339050292969, 153.61451721191406, 14.273327827453613, 16.65377426147461, -0.04800000041723251, 0.01600000075995922, 1.055999994277954, 0.0, 0.0, 0.0, 0.0, 0.0, 1.6218523771832552E9, 2021-05-24 12:32:57.183
38.0, -56.17890548706055, 161.67401123046875, 13.704863548278809, 25.921247482299805, -0.04800000041723251, 0.01600000075995922, 1.055999994277954, 0.0, 0.0, 0.0, 0.0, 0.0, 1.6218523771832552E9, 2021-05-24 12:32:57.183
39.0, -97.18316650390625, 100.82209014892578, -50.2249870300293, -12.528664588928223, -0.04800000041723251, 0.01600000075995922, 1.055999994277954, 0.0, 0.0, 0.0, 0.0, 0.0, 1.6218523771840684E9, 2021-05-24 12:32:57.184
39.0, -138.4080810546875, 39.24837875366211, -104.0159683227539, -67.53511047363281, -0.04800000041723251, 0.01600000075995922, 1.055999994277954, 0.0, 0.0, 0.0, 0.0, 0.0, 1.6218523771840684E9, 2021-05-24 12:32:57.184
40.0, -62.80601119995117, 148.4571990966797, 18.428356170654297, 15.356029510498047, -0.04800000041723251, 0.01600000075995922, 1.040000081062317, 0.0, 0.0, 0.0, 0.0, 0.0, 1.621852377196047E9, 2021-05-24 12:32:57.196
40.0, -44.23740768432617, 161.2700958251953, 19.14641761779785, 26.426132202148438, -0.04800000041723251, 0.01600000075995922, 1.040000081062317, 0.0, 0.0, 0.0, 0.0, 0.0, 1.621852377196047E9, 2021-05-24 12:32:57.196
41.0, -96.0238037109375, 93.93693542480469, -49.63408279418945, -22.903146743774414, -0.04800000041723251, 0.01600000075995922, 1.040000081062317, 0.0, 0.0, 0.0, 0.0, 0.0, 1.6218523772116444E9, 2021-05-24 12:32:57.211
41.0, -145.01649475097656, 41.36516189575195, -103.3727035522461, -74.7381591796875, -0.04800000041723251, 0.01600000075995922, 1.040000081062317, 0.0, 0.0, 0.0, 0.0, 0.0, 1.6218523772116444E9, 2021-05-24 12:32:57.211
42.0, -63.60634994506836, 152.3953094482422, 22.53102684020996, 17.244678497314453, -0.04800000041723251, 0.01600000075995922, 1.040000081062317, 0.0, 0.0, 0.0, 0.0, 0.0, 1.621852377212354E9, 2021-05-24 12:32:57.212
42.0, -49.76498031616211, 158.00515747070312, 15.791728019714355, 32.61566925048828, -0.04800000041723251, 0.01600000075995922, 1.040000081062317, 0.0, 0.0, 0.0, 0.0, 0.0, 1.621852377212354E9, 2021-05-24 12:32:57.212
43.0, -94.4979248046875, 94.03043365478516, -49.836036682128906, -8.844862937927246, -0.04800000041723251, 0.01600000075995922, 1.040000081062317, 0.0, 0.0, 0.0, 0.0, 0.0, 1.6218523772260892E9, 2021-05-24 12:32:57.226
43.0, -148.74891662597656, 38.4630012512207, -111.10681915283203, -58.880985260009766, -0.04800000041723251, 0.01600000075995922, 1.040000081062317, 0.0, 0.0, 0.0, 0.0, 0.0, 1.6218523772260892E9, 2021-05-24 12:32:57.226
44.0, -66.1980972290039, 144.62754821777344, 14.041454315185547, 21.0219783782959, -0.04800000041723251, 0.01600000075995922, 1.040000081062317, 0.0, 0.0, 0.0, 0.0, 0.0, 1.6218523772416868E9, 2021-05-24 12:32:57.241
44.0, -50.318485260009766, 161.33741760253906, 15.649611473083496, 42.30200958251953, -0.04800000041723251, 0.01600000075995922, 1.040000081062317, 0.0, 0.0, 0.0, 0.0, 0.0, 1.6218523772416868E9, 2021-05-24 12:32:57.241
45.0, -100.28728485107422, 97.56089782714844, -60.236698150634766, -7.8425703048706055, -0.04800000041723251, 0.01600000075995922, 1.040000081062317, 0.0, 0.0, 0.0, 0.0, 0.0, 1.6218523772423487E9, 2021-05-24 12:32:57.242
45.0, -148.95460510253906, 35.86376953125, -115.396484375, -51.60688018798828, -0.04800000041723251, 0.01600000075995922, 1.040000081062317, 0.0, 0.0, 0.0, 0.0, 0.0, 1.6218523772423487E9, 2021-05-24 12:32:57.242
46.0, -68.38594055175781, 144.35452270507812, 11.969550132751465, 22.921846389770508, -0.04800000041723251, 0.01600000075995922, 1.040000081062317, 0.0, 0.0, 0.0, 0.0, 0.0, 1.621852377288821E9, 2021-05-24 12:32:57.288
46.0, -55.67401885986328, 166.0609130859375, 14.744555473327637, 36.31816864013672, -0.04800000041723251, 0.01600000075995922, 1.040000081062317, 0.0, 0.0, 0.0, 0.0, 0.0, 1.621852377288821E9, 2021-05-24 12:32:57.288
47.0, -99.0157241821289, 98.30888366699219, -55.06067657470703, -19.484878540039062, -0.04800000041723251, 0.01600000075995922, 1.040000081062317, 0.0, 0.0, 0.0, 0.0, 0.0, 1.6218523772895057E9, 2021-05-24 12:32:57.289
47.0, -150.80210876464844, 36.222801208496094, -116.92236328125, -72.21746826171875, -0.04800000041723251, 0.01600000075995922, 1.040000081062317, 0.0, 0.0, 0.0, 0.0, 0.0, 1.6218523772895057E9, 2021-05-24 12:32:57.289
48.0, -68.4831771850586, 146.14219665527344, 10.626925468444824, 11.877922058105469, -0.04800000041723251, 0.01600000075995922, 1.040000081062317, 0.0, 0.0, 0.0, 0.0, 0.0, 1.6218523772902236E9, 2021-05-24 12:32:57.290
48.0, -49.873435974121094, 171.45758056640625, 19.49422836303711, 32.350135803222656, -0.04800000041723251, 0.01600000075995922, 1.040000081062317, 0.0, 0.0, 0.0, 0.0, 0.0, 1.6218523772902236E9, 2021-05-24 12:32:57.290
49.0, -96.30803680419922, 112.90570831298828, -47.150787353515625, -17.16240119934082, -0.04800000041723251, 0.01600000075995922, 1.040000081062317, 0.0, 0.0, 0.0, 0.0, 0.0, 1.621852377290973E9, 2021-05-24 12:32:57.290
49.0, -149.66519165039062, 40.332950592041016, -108.57864379882812, -70.07076263427734, -0.04800000041723251, 0.01600000075995922, 1.040000081062317, 0.0, 0.0, 0.0, 0.0, 0.0, 1.621852377290973E9, 2021-05-24 12:32:57.290
50.0, -63.374473571777344, 153.9623260498047, 14.340646743774414, 14.652928352355957, -0.04800000041723251, 0.01600000075995922, 1.040000081062317, 0.0, 0.0, 0.0, 0.0, 0.0, 1.6218523773018212E9, 2021-05-24 12:32:57.301
50.0, -55.23271179199219, 169.24729919433594, 15.896444320678711, 25.809049606323242, -0.04800000041723251, 0.01600000075995922, 1.040000081062317, 0.0, 0.0, 0.0, 0.0, 0.0, 1.6218523773018212E9, 2021-05-24 12:32:57.301
51.0, -97.8900146484375, 108.77686309814453, -46.08865737915039, -15.019437789916992, -0.04800000041723251, 0.01600000075995922, 1.040000081062317, 0.0, 0.0, 0.0, 0.0, 0.0, 1.621852377302516E9, 2021-05-24 12:32:57.302
51.0, -149.904541015625, 44.8844108581543, -108.530029296875, -68.32797241210938, -0.04800000041723251, 0.01600000075995922, 1.040000081062317, 0.0, 0.0, 0.0, 0.0, 0.0, 1.621852377302516E9, 2021-05-24 12:32:57.302
52.0, -67.23405456542969, 156.83457946777344, 9.691950798034668, 20.87238121032715, -0.04800000041723251, 0.01600000075995922, 1.040000081062317, 0.0, 0.0, 0.0, 0.0, 0.0, 1.621852377316034E9, 2021-05-24 12:32:57.316
52.0, -55.595481872558594, 170.31317138671875, 12.889565467834473, 36.13865280151367, -0.04800000041723251, 0.01600000075995922, 1.040000081062317, 0.0, 0.0, 0.0, 0.0, 0.0, 1.621852377316034E9, 2021-05-24 12:32:57.316
53.0, -101.41674041748047, 101.55137634277344, -57.71974563598633, -17.009065628051758, -0.04800000041723251, 0.01600000075995922, 1.040000081062317, 0.0, 0.0, 0.0, 0.0, 0.0, 1.621852377331764E9, 2021-05-24 12:32:57.331
53.0, -148.4160614013672, 35.216766357421875, -118.85588836669922, -52.17160415649414, -0.04800000041723251, 0.01600000075995922, 1.040000081062317, 0.0, 0.0, 0.0, 0.0, 0.0, 1.621852377331764E9, 2021-05-24 12:32:57.331
54.0, -67.52202606201172, 149.3959197998047, 11.950850486755371, 27.862255096435547, -0.04800000041723251, 0.01600000075995922, 1.040000081062317, 0.0, 0.0, 0.0, 0.0, 0.0, 1.6218523773324993E9, 2021-05-24 12:32:57.332
54.0, -53.220645904541016, 167.81492614746094, 12.14532470703125, 41.58768844604492, -0.04800000041723251, 0.01600000075995922, 1.040000081062317, 0.0, 0.0, 0.0, 0.0, 0.0, 1.6218523773324993E9, 2021-05-24 12:32:57.332
55.0, -98.04708862304688, 102.00016021728516, -53.2767448425293, -7.954767227172852, -0.04800000041723251, 0.01600000075995922, 1.040000081062317, 0.0, 0.0, 0.0, 0.0, 0.0, 1.621852377346021E9, 2021-05-24 12:32:57.346
55.0, -146.10853576660156, 38.492919921875, -117.73391723632812, -60.691097259521484, -0.04800000041723251, 0.01600000075995922, 1.040000081062317, 0.0, 0.0, 0.0, 0.0, 0.0, 1.621852377346021E9, 2021-05-24 12:32:57.346
56.0, -63.66618728637695, 152.62718200683594, 10.61944580078125, 28.931865692138672, -0.04800000041723251, 0.01600000075995922, 1.040000081062317, 0.0, 0.0, 0.0, 0.0, 0.0, 1.6218523773618715E9, 2021-05-24 12:32:57.361
56.0, -51.358177185058594, 168.42079162597656, 7.904278755187988, 32.54460906982422, -0.04800000041723251, 0.01600000075995922, 1.040000081062317, 0.0, 0.0, 0.0, 0.0, 0.0, 1.6218523773618715E9, 2021-05-24 12:32:57.361
57.0, -98.56319427490234, 100.65753936767578, -52.121116638183594, -19.14828872680664, -0.04800000041723251, 0.01600000075995922, 1.040000081062317, 0.0, 0.0, 0.0, 0.0, 0.0, 1.6218523773624744E9, 2021-05-24 12:32:57.362
57.0, -143.93191528320312, 47.89502716064453, -104.53581237792969, -66.27102661132812, -0.04800000041723251, 0.01600000075995922, 1.040000081062317, 0.0, 0.0, 0.0, 0.0, 0.0, 1.6218523773624744E9, 2021-05-24 12:32:57.362
58.0, -64.9714126586914, 151.8118896484375, 18.211442947387695, 15.083016395568848, -0.04800000041723251, 0.01600000075995922, 1.040000081062317, 0.0, 0.0, 0.0, 0.0, 0.0, 1.621852377376102E9, 2021-05-24 12:32:57.376
58.0, -53.48991775512695, 171.51742553710938, 14.161130905151367, 24.6309814453125, -0.04800000041723251, 0.01600000075995922, 1.040000081062317, 0.0, 0.0, 0.0, 0.0, 0.0, 1.621852377376102E9, 2021-05-24 12:32:57.376
59.0, -95.71713256835938, 104.30020141601562, -53.157066345214844, -27.248910903930664, -0.04800000041723251, 0.01600000075995922, 1.040000081062317, 0.0, 0.0, 0.0, 0.0, 0.0, 1.6218523773917327E9, 2021-05-24 12:32:57.391
59.0, -143.30735778808594, 48.82252502441406, -104.1393814086914, -67.83430480957031, -0.04800000041723251, 0.01600000075995922, 1.040000081062317, 0.0, 0.0, 0.0, 0.0, 0.0, 1.6218523773917327E9, 2021-05-24 12:32:57.391
60.0, -68.45326232910156, 156.78221130371094, 18.132904052734375, 17.457853317260742, -0.04800000041723251, 0.01600000075995922, 1.040000081062317, 0.0, 0.0, 0.0, 0.0, 0.0, 1.6218523773924258E9, 2021-05-24 12:32:57.392
60.0, -51.18239974975586, 174.67015075683594, 14.793174743652344, 41.95793914794922, -0.04800000041723251, 0.01600000075995922, 1.040000081062317, 0.0, 0.0, 0.0, 0.0, 0.0, 1.6218523773924258E9, 2021-05-24 12:32:57.392
61.0, -92.65789031982422, 117.42350769042969, -47.588356018066406, -12.49500560760498, -0.04800000041723251, 0.01600000075995922, 1.040000081062317, 0.0, 0.0, 0.0, 0.0, 0.0, 1.621852377406062E9, 2021-05-24 12:32:57.406
61.0, -143.1988983154297, 54.009765625, -109.715576171875, -63.353904724121094, -0.04800000041723251, 0.01600000075995922, 1.040000081062317, 0.0, 0.0, 0.0, 0.0, 0.0, 1.621852377406062E9, 2021-05-24 12:32:57.406
62.0, -68.81603240966797, 157.2347412109375, 8.611119270324707, 25.95864486694336, -0.04800000041723251, 0.01600000075995922, 1.040000081062317, 0.0, 0.0, 0.0, 0.0, 0.0, 1.621852377421794E9, 2021-05-24 12:32:57.421
62.0, -57.73844528198242, 173.95584106445312, 11.90597152709961, 37.37282180786133, -0.04800000041723251, 0.01600000075995922, 1.040000081062317, 0.0, 0.0, 0.0, 0.0, 0.0, 1.621852377421794E9, 2021-05-24 12:32:57.421
63.0, -97.87879180908203, 107.0265884399414, -50.41946029663086, -11.324417114257812, -0.04800000041723251, 0.01600000075995922, 1.040000081062317, 0.0, 0.0, 0.0, 0.0, 0.0, 1.6218523774224567E9, 2021-05-24 12:32:57.422
63.0, -144.47421264648438, 50.834590911865234, -108.5113296508789, -63.16691207885742, -0.04800000041723251, 0.01600000075995922, 1.040000081062317, 0.0, 0.0, 0.0, 0.0, 0.0, 1.6218523774224567E9, 2021-05-24 12:32:57.422
64.0, -62.26372528076172, 152.21580505371094, 17.321346282958984, 32.06216049194336, -0.04800000041723251, 0.01600000075995922, 1.040000081062317, 0.0, 0.0, 0.0, 0.0, 0.0, 1.62185237743608E9, 2021-05-24 12:32:57.436
64.0, -50.07538986206055, 163.62997436523438, 9.026248931884766, 39.91221237182617, -0.04800000041723251, 0.01600000075995922, 1.040000081062317, 0.0, 0.0, 0.0, 0.0, 0.0, 1.62185237743608E9, 2021-05-24 12:32:57.436
65.0, -96.98869323730469, 104.50589752197266, -60.98841857910156, -14.428533554077148, -0.04800000041723251, 0.01600000075995922, 1.040000081062317, 0.0, 0.0, 0.0, 0.0, 0.0, 1.6218523774516728E9, 2021-05-24 12:32:57.451
65.0, -146.0748748779297, 36.80622482299805, -118.9344253540039, -60.548980712890625, -0.04800000041723251, 0.01600000075995922, 1.040000081062317, 0.0, 0.0, 0.0, 0.0, 0.0, 1.6218523774516728E9, 2021-05-24 12:32:57.451
66.0, -63.75220489501953, 153.30410766601562, 1.860600233078003, 15.606602668762207, -0.04800000041723251, 0.01600000075995922, 1.040000081062317, 0.0, 0.0, 0.0, 0.0, 0.0, 1.6218523774524689E9, 2021-05-24 12:32:57.452
66.0, -51.223541259765625, 165.11097717285156, 12.867125511169434, 30.229610443115234, -0.04800000041723251, 0.01600000075995922, 1.040000081062317, 0.0, 0.0, 0.0, 0.0, 0.0, 1.6218523774524689E9, 2021-05-24 12:32:57.452
67.0, -87.74740600585938, 104.81256866455078, -45.161163330078125, -19.986024856567383, -0.04800000041723251, 0.01600000075995922, 1.040000081062317, 0.0, 0.0, 0.0, 0.0, 0.0, 1.621852377466128E9, 2021-05-24 12:32:57.466
67.0, -136.18284606933594, 40.69572067260742, -106.78349304199219, -66.0877685546875, -0.04800000041723251, 0.01600000075995922, 1.040000081062317, 0.0, 0.0, 0.0, 0.0, 0.0, 1.621852377466128E9, 2021-05-24 12:32:57.466
68.0, -55.1541748046875, 159.7853546142578, 20.915390014648438, 21.855976104736328, -0.04800000041723251, 0.01600000075995922, 1.040000081062317, 0.0, 0.0, 0.0, 0.0, 0.0, 1.6218523774816892E9, 2021-05-24 12:32:57.481
68.0, -47.07225036621094, 170.3767547607422, 21.64841079711914, 28.815929412841797, -0.04800000041723251, 0.01600000075995922, 1.040000081062317, 0.0, 0.0, 0.0, 0.0, 0.0, 1.6218523774816892E9, 2021-05-24 12:32:57.481
69.0, -89.20596313476562, 111.9034194946289, -47.1732292175293, -10.52781867980957, -0.04800000041723251, 0.01600000075995922, 1.040000081062317, 0.0, 0.0, 0.0, 0.0, 0.0, 1.62185237748238E9, 2021-05-24 12:32:57.482
69.0, -132.84686279296875, 49.76123809814453, -102.16098022460938, -60.2946662902832, -0.04800000041723251, 0.01600000075995922, 1.040000081062317, 0.0, 0.0, 0.0, 0.0, 0.0, 1.62185237748238E9, 2021-05-24 12:32:57.482
70.0, -54.084564208984375, 152.96751403808594, 25.638883590698242, 28.378360748291016, -0.04800000041723251, 0.01600000075995922, 1.040000081062317, 0.0, 0.0, 0.0, 0.0, 0.0, 1.6218523774961147E9, 2021-05-24 12:32:57.496
70.0, -43.97561264038086, 167.874755859375, 18.503154754638672, 39.98326873779297, -0.04800000041723251, 0.01600000075995922, 1.040000081062317, 0.0, 0.0, 0.0, 0.0, 0.0, 1.6218523774961147E9, 2021-05-24 12:32:57.496
71.0, -89.35929870605469, 114.16231536865234, -42.07200622558594, -3.2499730587005615, -0.04800000041723251, 0.01600000075995922, 1.040000081062317, 0.0, 0.0, 0.0, 0.0, 0.0, 1.6218523775123632E9, 2021-05-24 12:32:57.512
71.0, -133.98751831054688, 39.577491760253906, -103.6756362915039, -53.31227493286133, -0.04800000041723251, 0.01600000075995922, 1.040000081062317, 0.0, 0.0, 0.0, 0.0, 0.0, 1.6218523775123632E9, 2021-05-24 12:32:57.512
72.0, -54.357574462890625, 159.66941833496094, 18.16656494140625, 30.42408561706543, -0.04800000041723251, 0.01600000075995922, 1.040000081062317, 0.0, 0.0, 0.0, 0.0, 0.0, 1.621852377513085E9, 2021-05-24 12:32:57.513
72.0, -43.02193832397461, 168.98550415039062, 18.465755462646484, 44.24301528930664, -0.04800000041723251, 0.01600000075995922, 1.040000081062317, 0.0, 0.0, 0.0, 0.0, 0.0, 1.621852377513085E9, 2021-05-24 12:32:57.513
73.0, -85.32020568847656, 106.05421447753906, -54.12944030761719, -7.868749618530273, -0.04800000041723251, 0.01600000075995922, 1.040000081062317, 0.0, 0.0, 0.0, 0.0, 0.0, 1.6218523775259795E9, 2021-05-24 12:32:57.525
73.0, -133.38914489746094, 45.75580596923828, -104.06084442138672, -55.051326751708984, -0.04800000041723251, 0.01600000075995922, 1.040000081062317, 0.0, 0.0, 0.0, 0.0, 0.0, 1.6218523775259795E9, 2021-05-24 12:32:57.525
74.0, -55.1653938293457, 158.16224670410156, 13.555267333984375, 28.340961456298828, -0.04800000041723251, 0.01600000075995922, 1.040000081062317, 0.0, 0.0, 0.0, 0.0, 0.0, 1.621852377541729E9, 2021-05-24 12:32:57.541
74.0, -45.65482711791992, 164.98007202148438, 17.313867568969727, 48.79447555541992, -0.04800000041723251, 0.01600000075995922, 1.040000081062317, 0.0, 0.0, 0.0, 0.0, 0.0, 1.621852377541729E9, 2021-05-24 12:32:57.541
75.0, -95.982666015625, 104.98460388183594, -51.48533248901367, -1.877429723739624, -0.04800000041723251, 0.01600000075995922, 1.040000081062317, 0.0, 0.0, 0.0, 0.0, 0.0, 1.6218523775424736E9, 2021-05-24 12:32:57.542
75.0, -128.80776977539062, 47.03485107421875, -101.96649932861328, -48.86553192138672, -0.04800000041723251, 0.01600000075995922, 1.040000081062317, 0.0, 0.0, 0.0, 0.0, 0.0, 1.6218523775424736E9, 2021-05-24 12:32:57.542
76.0, -52.74567794799805, 153.6407012939453, 20.410503387451172, 36.348087310791016, -0.04800000041723251, 0.01600000075995922, 1.040000081062317, 0.0, 0.0, 0.0, 0.0, 0.0, 1.6218523775724964E9, 2021-05-24 12:32:57.572
76.0, -42.483394622802734, 166.58448791503906, 15.963763236999512, 29.171218872070312, -0.04800000041723251, 0.01600000075995922, 1.040000081062317, 0.0, 0.0, 0.0, 0.0, 0.0, 1.6218523775724964E9, 2021-05-24 12:32:57.572
77.0, -85.88493347167969, 118.365966796875, -46.64590072631836, -13.396321296691895, -0.04800000041723251, 0.01600000075995922, 1.040000081062317, 0.0, 0.0, 0.0, 0.0, 0.0, 1.6218523775731852E9, 2021-05-24 12:32:57.573
77.0, -138.23605346679688, 46.395328521728516, -102.03008270263672, -61.95518112182617, -0.04800000041723251, 0.01600000075995922, 1.040000081062317, 0.0, 0.0, 0.0, 0.0, 0.0, 1.6218523775731852E9, 2021-05-24 12:32:57.573
78.0, -55.49824523925781, 165.97488403320312, 24.617891311645508, 31.531097412109375, -0.04800000041723251, 0.01600000075995922, 1.040000081062317, 0.0, 0.0, 0.0, 0.0, 0.0, 1.6218523775739245E9, 2021-05-24 12:32:57.573
78.0, -45.2471809387207, 172.31028747558594, 28.174535751342773, 40.05432891845703, -0.04800000041723251, 0.01600000075995922, 1.040000081062317, 0.0, 0.0, 0.0, 0.0, 0.0, 1.6218523775739245E9, 2021-05-24 12:32:57.573
79.0, -93.18148040771484, 120.00029754638672, -42.2552604675293, -12.154674530029297, -0.04800000041723251, 0.01600000075995922, 1.040000081062317, 0.0, 0.0, 0.0, 0.0, 0.0, 1.621852377586138E9, 2021-05-24 12:32:57.586
79.0, -142.5257110595703, 48.94594192504883, -94.31092834472656, -57.654296875, -0.04800000041723251, 0.01600000075995922, 1.040000081062317, 0.0, 0.0, 0.0, 0.0, 0.0, 1.621852377586138E9, 2021-05-24 12:32:57.586
80.0, -59.04740905761719, 161.0606689453125, 21.12482452392578, 29.0029239654541, -0.04800000041723251, 0.01600000075995922, 1.040000081062317, 0.0, 0.0, 0.0, 0.0, 0.0, 1.6218523776016896E9, 2021-05-24 12:32:57.601
80.0, -46.743141174316406, 179.82000732421875, 24.748788833618164, 45.47344207763672, -0.04800000041723251, 0.01600000075995922, 1.040000081062317, 0.0, 0.0, 0.0, 0.0, 0.0, 1.6218523776016896E9, 2021-05-24 12:32:57.601
81.0, -91.68925476074219, 110.09330749511719, -53.40016174316406, -2.225240468978882, -0.04800000041723251, 0.01600000075995922, 1.040000081062317, 0.0, 0.0, 0.0, 0.0, 0.0, 1.6218523776025212E9, 2021-05-24 12:32:57.602
81.0, -137.54043579101562, 57.858123779296875, -106.05421447753906, -51.277767181396484, -0.04800000041723251, 0.01600000075995922, 1.040000081062317, 0.0, 0.0, 0.0, 0.0, 0.0, 1.6218523776025212E9, 2021-05-24 12:32:57.602
82.0, -56.31354522705078, 152.7543487548828, 15.092366218566895, 39.399845123291016, -0.04800000041723251, 0.01600000075995922, 1.040000081062317, 0.0, 0.0, 0.0, 0.0, 0.0, 1.6218523776160505E9, 2021-05-24 12:32:57.616
82.0, -50.972965240478516, 168.52923583984375, 12.231343269348145, 40.50685501098633, -0.04800000041723251, 0.01600000075995922, 1.040000081062317, 0.0, 0.0, 0.0, 0.0, 0.0, 1.6218523776160505E9, 2021-05-24 12:32:57.616
83.0, -92.93090057373047, 110.81510925292969, -54.840023040771484, 0.31789150834083557, -0.04800000041723251, 0.01600000075995922, 1.040000081062317, 0.0, 0.0, 0.0, 0.0, 0.0, 1.621852377631719E9, 2021-05-24 12:32:57.631
83.0, -138.95037841796875, 47.51729965209961, -107.0452880859375, -49.553672790527344, -0.04800000041723251, 0.01600000075995922, 1.040000081062317, 0.0, 0.0, 0.0, 0.0, 0.0, 1.621852377631719E9, 2021-05-24 12:32:57.631
84.0, -55.5468635559082, 161.33741760253906, 20.414243698120117, 34.12284851074219, -0.04800000041723251, 0.01600000075995922, 1.040000081062317, 0.0, 0.0, 0.0, 0.0, 0.0, 1.621852377632435E9, 2021-05-24 12:32:57.632
84.0, -45.84556198120117, 178.81396484375, 8.356806755065918, 42.67599868774414, -0.04800000041723251, 0.01600000075995922, 1.040000081062317, 0.0, 0.0, 0.0, 0.0, 0.0, 1.621852377632435E9, 2021-05-24 12:32:57.632
85.0, -88.54399871826172, 101.06144714355469, -49.43212890625, -5.763185977935791, -0.04800000041723251, 0.01600000075995922, 1.040000081062317, 0.0, 0.0, 0.0, 0.0, 0.0, 1.6218523776460147E9, 2021-05-24 12:32:57.646
85.0, -130.9544677734375, 47.771610260009766, -105.81485748291016, -51.1992301940918, -0.04800000041723251, 0.01600000075995922, 1.040000081062317, 0.0, 0.0, 0.0, 0.0, 0.0, 1.6218523776460147E9, 2021-05-24 12:32:57.646
86.0, -53.62455368041992, 160.45106506347656, 15.470096588134766, 34.4669189453125, -0.04800000041723251, 0.01600000075995922, 1.040000081062317, 0.0, 0.0, 0.0, 0.0, 0.0, 1.6218523776617224E9, 2021-05-24 12:32:57.661
86.0, -46.47012710571289, 159.85267639160156, 11.027094841003418, 41.77094268798828, -0.04800000041723251, 0.01600000075995922, 1.040000081062317, 0.0, 0.0, 0.0, 0.0, 0.0, 1.6218523776617224E9, 2021-05-24 12:32:57.661
87.0, -94.8980941772461, 110.12696075439453, -53.314144134521484, -14.065763473510742, -0.04800000041723251, 0.01600000075995922, 1.040000081062317, 0.0, 0.0, 0.0, 0.0, 0.0, 1.6218523776624303E9, 2021-05-24 12:32:57.662
87.0, -132.76832580566406, 49.641563415527344, -100.51168060302734, -56.8502197265625, -0.04800000041723251, 0.01600000075995922, 1.040000081062317, 0.0, 0.0, 0.0, 0.0, 0.0, 1.6218523776624303E9, 2021-05-24 12:32:57.662
88.0, -58.471466064453125, 168.42453002929688, 21.094905853271484, 31.684432983398438, -0.04800000041723251, 0.01600000075995922, 1.040000081062317, 0.0, 0.0, 0.0, 0.0, 0.0, 1.621852377692396E9, 2021-05-24 12:32:57.692
88.0, -45.864261627197266, 182.123779296875, 16.262954711914062, 33.573081970214844, -0.04800000041723251, 0.01600000075995922, 1.040000081062317, 0.0, 0.0, 0.0, 0.0, 0.0, 1.621852377692396E9, 2021-05-24 12:32:57.692
89.0, -89.7632064819336, 114.0127182006836, -40.83409881591797, -5.568710803985596, -0.04800000041723251, 0.01600000075995922, 1.040000081062317, 0.0, 0.0, 0.0, 0.0, 0.0, 1.6218523776931057E9, 2021-05-24 12:32:57.693
89.0, -143.3746795654297, 58.25455093383789, -100.0217514038086, -52.17908477783203, -0.04800000041723251, 0.01600000075995922, 1.040000081062317, 0.0, 0.0, 0.0, 0.0, 0.0, 1.6218523776931057E9, 2021-05-24 12:32:57.693
90.0, -63.17626190185547, 167.5905303955078, 26.9254093170166, 31.976144790649414, -0.04800000041723251, 0.01600000075995922, 1.040000081062317, 0.0, 0.0, 0.0, 0.0, 0.0, 1.621852377693988E9, 2021-05-24 12:32:57.693
90.0, -49.069358825683594, 172.09336853027344, 23.469741821289062, 37.85526657104492, -0.04800000041723251, 0.01600000075995922, 1.040000081062317, 0.0, 0.0, 0.0, 0.0, 0.0, 1.621852377693988E9, 2021-05-24 12:32:57.693
91.0, -92.59805297851562, 109.76045227050781, -44.83205032348633, -12.379069328308105, -0.04800000041723251, 0.01600000075995922, 1.040000081062317, 0.0, 0.0, 0.0, 0.0, 0.0, 1.6218523777059965E9, 2021-05-24 12:32:57.705
91.0, -137.62644958496094, 45.31075668334961, -99.9843521118164, -54.393104553222656, -0.04800000041723251, 0.01600000075995922, 1.040000081062317, 0.0, 0.0, 0.0, 0.0, 0.0, 1.6218523777059965E9, 2021-05-24 12:32:57.705
92.0, -57.62998962402344, 168.1328125, 20.12253189086914, 26.104501724243164, -0.04800000041723251, 0.01600000075995922, 1.040000081062317, 0.0, 0.0, 0.0, 0.0, 0.0, 1.621852377721662E9, 2021-05-24 12:32:57.721
92.0, -48.08202362060547, 164.80430603027344, 19.625125885009766, 46.20646286010742, -0.04800000041723251, 0.01600000075995922, 1.040000081062317, 0.0, 0.0, 0.0, 0.0, 0.0, 1.621852377721662E9, 2021-05-24 12:32:57.721
93.0, -92.6915512084961, 111.70146179199219, -56.92688751220703, -13.501038551330566, -0.04800000041723251, 0.01600000075995922, 1.040000081062317, 0.0, 0.0, 0.0, 0.0, 0.0, 1.621852377722433E9, 2021-05-24 12:32:57.722
93.0, -135.40121459960938, 40.62840270996094, -103.78783416748047, -62.108516693115234, -0.04800000041723251, 0.01600000075995922, 1.040000081062317, 0.0, 0.0, 0.0, 0.0, 0.0, 1.621852377722433E9, 2021-05-24 12:32:57.722
94.0, -59.76921081542969, 168.44696044921875, 18.402177810668945, 28.236244201660156, -0.04800000041723251, 0.01600000075995922, 1.040000081062317, 0.0, 0.0, 0.0, 0.0, 0.0, 1.621852377736076E9, 2021-05-24 12:32:57.736
94.0, -47.9586067199707, 163.3943634033203, 13.817060470581055, 35.18124008178711, -0.04800000041723251, 0.01600000075995922, 1.040000081062317, 0.0, 0.0, 0.0, 0.0, 0.0, 1.621852377736076E9, 2021-05-24 12:32:57.736
95.0, -96.4651107788086, 111.43592834472656, -50.2062873840332, -12.371588706970215, -0.04800000041723251, 0.01600000075995922, 1.040000081062317, 0.0, 0.0, 0.0, 0.0, 0.0, 1.621852377783753E9, 2021-05-24 12:32:57.783
95.0, -143.7636260986328, 45.06392288208008, -100.32842254638672, -58.82114791870117, -0.04800000041723251, 0.01600000075995922, 1.040000081062317, 0.0, 0.0, 0.0, 0.0, 0.0, 1.621852377783753E9, 2021-05-24 12:32:57.783
96.0, -59.178306579589844, 167.60922241210938, 23.540800094604492, 16.870689392089844, -0.04800000041723251, 0.01600000075995922, 1.040000081062317, 0.0, 0.0, 0.0, 0.0, 0.0, 1.621852377784454E9, 2021-05-24 12:32:57.784
96.0, -50.344661712646484, 169.92796325683594, 19.69244384765625, 28.195106506347656, -0.04800000041723251, 0.01600000075995922, 1.040000081062317, 0.0, 0.0, 0.0, 0.0, 0.0, 1.621852377784454E9, 2021-05-24 12:32:57.784
97.0, -89.20970153808594, 108.69831848144531, -45.36685562133789, -10.920507431030273, -0.04800000041723251, 0.01600000075995922, 1.040000081062317, 0.0, 0.0, 0.0, 0.0, 0.0, 1.62185237778523E9, 2021-05-24 12:32:57.785
97.0, -138.59507751464844, 44.51789855957031, -100.85201263427734, -62.321693420410156, -0.04800000041723251, 0.01600000075995922, 1.040000081062317, 0.0, 0.0, 0.0, 0.0, 0.0, 1.62185237778523E9, 2021-05-24 12:32:57.785
98.0, -61.35118865966797, 172.68052673339844, 21.50629425048828, 25.91750717163086, -0.04800000041723251, 0.01600000075995922, 1.040000081062317, 0.0, 0.0, 0.0, 0.0, 0.0, 1.621852377785978E9, 2021-05-24 12:32:57.785
98.0, -46.103614807128906, 182.5089874267578, 16.408811569213867, 35.379451751708984, -0.04800000041723251, 0.01600000075995922, 1.040000081062317, 0.0, 0.0, 0.0, 0.0, 0.0, 1.621852377785978E9, 2021-05-24 12:32:57.785
99.0, -96.29307556152344, 109.375244140625, -50.98418426513672, -18.7742977142334, -0.04800000041723251, 0.01600000075995922, 1.040000081062317, 0.0, 0.0, 0.0, 0.0, 0.0, 1.621852377797341E9, 2021-05-24 12:32:57.797
99.0, -137.83963012695312, 64.32440948486328, -98.70156860351562, -61.52883529663086, -0.04800000041723251, 0.01600000075995922, 1.040000081062317, 0.0, 0.0, 0.0, 0.0, 0.0, 1.621852377797341E9, 2021-05-24 12:32:57.797
100.0, -57.32331466674805, 164.6135711669922, 13.61884593963623, 27.959491729736328, -0.04800000041723251, 0.01600000075995922, 1.055999994277954, 0.0, 0.0, 0.0, 0.0, 0.0, 1.621852377798073E9, 2021-05-24 12:32:57.798
100.0, -48.71780776977539, 179.7377166748047, 12.72500991821289, 33.50950241088867, -0.04800000041723251, 0.01600000075995922, 1.055999994277954, 0.0, 0.0, 0.0, 0.0, 0.0, 1.621852377798073E9, 2021-05-24 12:32:57.798
0.0, -94.13702392578125, 96.25941467285156, -58.77252960205078, -16.412551879882812, -0.04800000041723251, 0.01600000075995922, 1.055999994277954, 0.0, 0.0, 0.0, 0.0, 0.0, 1.62185237779883E9, 2021-05-24 12:32:57.798
1.0, -140.34722900390625, 53.74797058105469, -106.94992065429688, -53.6582145690918, -0.04800000041723251, 0.01600000075995922, 1.055999994277954, 0.0, 0.0, 0.0, 0.0, 0.0, 1.6218523778110251E9, 2021-05-24 12:32:57.811
1.0, -59.37091064453125, 155.35357666015625, 11.799384117126465, 30.040746688842773, -0.04800000041723251, 0.01600000075995922, 1.055999994277954, 0.0, 0.0, 0.0, 0.0, 0.0, 1.6218523778110251E9, 2021-05-24 12:32:57.811
2.0, -46.741268157958984, 168.24874877929688, 11.73206615447998, 42.16176223754883, -0.04800000041723251, 0.01600000075995922, 1.055999994277954, 0.0, 0.0, 0.0, 0.0, 0.0, 1.6218523778428345E9, 2021-05-24 12:32:57.842
2.0, -90.16524505615234, 111.24519348144531, -51.1805305480957, -3.8390073776245117, -0.04800000041723251, 0.01600000075995922, 1.055999994277954, 0.0, 0.0, 0.0, 0.0, 0.0, 1.6218523778428345E9, 2021-05-24 12:32:57.842
3.0, -133.3199462890625, 48.81504440307617, -101.34007263183594, -50.9280891418457, -0.04800000041723251, 0.01600000075995922, 1.055999994277954, 0.0, 0.0, 0.0, 0.0, 0.0, 1.62185237784366E9, 2021-05-24 12:32:57.843
3.0, -55.36922073364258, 167.26515197753906, 24.48138427734375, 35.66181564331055, -0.04800000041723251, 0.01600000075995922, 1.055999994277954, 0.0, 0.0, 0.0, 0.0, 0.0, 1.62185237784366E9, 2021-05-24 12:32:57.843
4.0, -39.54570388793945, 173.82493591308594, 22.555335998535156, 43.03689956665039, -0.04800000041723251, 0.01600000075995922, 1.055999994277954, 0.0, 0.0, 0.0, 0.0, 0.0, 1.6218523778444052E9, 2021-05-24 12:32:57.844
4.0, -86.71331787109375, 112.34098815917969, -50.193199157714844, -4.889919281005859, -0.04800000041723251, 0.01600000075995922, 1.055999994277954, 0.0, 0.0, 0.0, 0.0, 0.0, 1.6218523778444052E9, 2021-05-24 12:32:57.844
5.0, -133.2526397705078, 50.37832260131836, -96.19770812988281, -53.130889892578125, -0.04800000041723251, 0.01600000075995922, 1.055999994277954, 0.0, 0.0, 0.0, 0.0, 0.0, 1.6218523778569057E9, 2021-05-24 12:32:57.856
5.0, -59.62148666381836, 161.66651916503906, 20.599369049072266, 27.112403869628906, -0.04800000041723251, 0.01600000075995922, 1.055999994277954, 0.0, 0.0, 0.0, 0.0, 0.0, 1.6218523778569057E9, 2021-05-24 12:32:57.856
6.0, -47.605186462402344, 170.3019561767578, 19.559677124023438, 38.956668853759766, -0.04800000041723251, 0.01600000075995922, 1.055999994277954, 0.0, 0.0, 0.0, 0.0, 0.0, 1.6218523778575764E9, 2021-05-24 12:32:57.857
6.0, -88.90863800048828, 113.2497787475586, -41.79338073730469, -9.953743934631348, -0.04800000041723251, 0.01600000075995922, 1.055999994277954, 0.0, 0.0, 0.0, 0.0, 0.0, 1.6218523778575764E9, 2021-05-24 12:32:57.857
7.0, -136.11740112304688, 55.786216735839844, -101.64674377441406, -57.24851989746094, -0.04800000041723251, 0.01600000075995922, 1.055999994277954, 0.0, 0.0, 0.0, 0.0, 0.0, 1.62185237788783E9, 2021-05-24 12:32:57.887
7.0, -59.22879409790039, 154.75892639160156, 24.69455909729004, 26.839391708374023, -0.04800000041723251, 0.01600000075995922, 1.055999994277954, 0.0, 0.0, 0.0, 0.0, 0.0, 1.62185237788783E9, 2021-05-24 12:32:57.887
8.0, -47.06290054321289, 181.9928741455078, 20.591888427734375, 37.69632339477539, -0.04800000041723251, 0.01600000075995922, 1.055999994277954, 0.0, 0.0, 0.0, 0.0, 0.0, 1.6218523778886204E9, 2021-05-24 12:32:57.888
8.0, -93.2244873046875, 115.32916259765625, -44.48611068725586, -6.299861431121826, -0.04800000041723251, 0.01600000075995922, 1.055999994277954, 0.0, 0.0, 0.0, 0.0, 0.0, 1.6218523778886204E9, 2021-05-24 12:32:57.888
9.0, -139.93209838867188, 54.507171630859375, -100.07971954345703, -57.809505462646484, -0.04800000041723251, 0.01600000075995922, 1.055999994277954, 0.0, 0.0, 0.0, 0.0, 0.0, 1.621852377901817E9, 2021-05-24 12:32:57.901
9.0, -60.29840850830078, 170.42910766601562, 21.893373489379883, 27.478914260864258, -0.04800000041723251, 0.01600000075995922, 1.055999994277954, 0.0, 0.0, 0.0, 0.0, 0.0, 1.621852377901817E9, 2021-05-24 12:32:57.901
10.0, -45.44352340698242, 174.89454650878906, 16.126447677612305, 46.305572509765625, -0.04800000041723251, 0.01600000075995922, 1.055999994277954, 0.0, 0.0, 0.0, 0.0, 0.0, 1.6218523779025614E9, 2021-05-24 12:32:57.902
10.0, -93.61717224121094, 114.09873962402344, -55.88532638549805, 0.11780685186386108, -0.04800000041723251, 0.01600000075995922, 1.055999994277954, 0.0, 0.0, 0.0, 0.0, 0.0, 1.6218523779025614E9, 2021-05-24 12:32:57.902
11.0, -141.3046417236328, 55.79743576049805, -106.0486068725586, -48.01096725463867, -0.04800000041723251, 0.01600000075995922, 1.055999994277954, 0.0, 0.0, 0.0, 0.0, 0.0, 1.6218523779166968E9, 2021-05-24 12:32:57.916
11.0, -64.27017974853516, 166.5657958984375, 17.555089950561523, 31.708742141723633, -0.04800000041723251, 0.01600000075995922, 1.055999994277954, 0.0, 0.0, 0.0, 0.0, 0.0, 1.6218523779166968E9, 2021-05-24 12:32:57.916
12.0, -44.130821228027344, 185.26528930664062, 17.67102813720703, 48.10820388793945, -0.04800000041723251, 0.01600000075995922, 1.055999994277954, 0.0, 0.0, 0.0, 0.0, 0.0, 1.621852377917426E9, 2021-05-24 12:32:57.917
12.0, -87.15088653564453, 117.92839813232422, -49.35919952392578, -5.895952224731445, -0.04800000041723251, 0.01600000075995922, 1.055999994277954, 0.0, 0.0, 0.0, 0.0, 0.0, 1.621852377917426E9, 2021-05-24 12:32:57.917
13.0, -137.69937133789062, 53.6582145690918, -102.81732940673828, -56.380863189697266, -0.04800000041723251, 0.01600000075995922, 1.055999994277954, 0.0, 0.0, 0.0, 0.0, 0.0, 1.6218523779310584E9, 2021-05-24 12:32:57.931
13.0, -55.82548522949219, 166.23294067382812, 21.25385093688965, 25.092859268188477, -0.04800000041723251, 0.01600000075995922, 1.055999994277954, 0.0, 0.0, 0.0, 0.0, 0.0, 1.6218523779310584E9, 2021-05-24 12:32:57.931
14.0, -46.87216567993164, 175.0404052734375, 15.221392631530762, 44.55903625488281, -0.04800000041723251, 0.01600000075995922, 1.055999994277954, 0.0, 0.0, 0.0, 0.0, 0.0, 1.6218523779467132E9, 2021-05-24 12:32:57.946
14.0, -95.65916442871094, 115.42266082763672, -52.83356857299805, -12.949403762817383, -0.04800000041723251, 0.01600000075995922, 1.055999994277954, 0.0, 0.0, 0.0, 0.0, 0.0, 1.6218523779467132E9, 2021-05-24 12:32:57.946
15.0, -140.1116180419922, 53.643253326416016, -109.92314147949219, -62.79853057861328, -0.04800000041723251, 0.01600000075995922, 1.055999994277954, 0.0, 0.0, 0.0, 0.0, 0.0, 1.6218523779474704E9, 2021-05-24 12:32:57.947
15.0, -59.98051452636719, 156.6737518310547, 18.23575210571289, 27.01890754699707, -0.04800000041723251, 0.01600000075995922, 1.055999994277954, 0.0, 0.0, 0.0, 0.0, 0.0, 1.6218523779474704E9, 2021-05-24 12:32:57.947
16.0, -52.388519287109375, 183.23826599121094, 12.04247760772705, 41.570858001708984, -0.04800000041723251, 0.01600000075995922, 1.055999994277954, 0.0, 0.0, 0.0, 0.0, 0.0, 1.6218523779610393E9, 2021-05-24 12:32:57.961
16.0, -94.84386444091797, 113.54523468017578, -53.79471969604492, -9.908864974975586, -0.04800000041723251, 0.01600000075995922, 1.055999994277954, 0.0, 0.0, 0.0, 0.0, 0.0, 1.6218523779610393E9, 2021-05-24 12:32:57.961
17.0, -145.4185333251953, 55.06441879272461, -111.07502746582031, -55.90215301513672, -0.04800000041723251, 0.01600000075995922, 1.055999994277954, 0.0, 0.0, 0.0, 0.0, 0.0, 1.6218523779768913E9, 2021-05-24 12:32:57.976
17.0, -67.71089172363281, 169.88308715820312, 10.221146583557129, 30.09310531616211, -0.04800000041723251, 0.01600000075995922, 1.055999994277954, 0.0, 0.0, 0.0, 0.0, 0.0, 1.6218523779768913E9, 2021-05-24 12:32:57.976
18.0, -58.14422607421875, 166.74905395507812, 5.856683254241943, 33.20844268798828, -0.04800000041723251, 0.01600000075995922, 1.055999994277954, 0.0, 0.0, 0.0, 0.0, 0.0, 1.6218523779776175E9, 2021-05-24 12:32:57.977
18.0, -101.54950714111328, 106.15145111083984, -55.148563385009766, -13.805840492248535, -0.04800000041723251, 0.01600000075995922, 1.055999994277954, 0.0, 0.0, 0.0, 0.0, 0.0, 1.6218523779776175E9, 2021-05-24 12:32:57.977
19.0, -147.88311767578125, 49.8248176574707, -107.3164291381836, -57.701045989990234, -0.04800000041723251, 0.01600000075995922, 1.055999994277954, 0.0, 0.0, 0.0, 0.0, 0.0, 1.6218523779911387E9, 2021-05-24 12:32:57.991
19.0, -65.10417938232422, 166.28530883789062, 16.56775665283203, 34.86895751953125, -0.04800000041723251, 0.01600000075995922, 1.055999994277954, 0.0, 0.0, 0.0, 0.0, 0.0, 1.6218523779911387E9, 2021-05-24 12:32:57.991
20.0, -55.26824188232422, 167.5905303955078, 8.620469093322754, 34.48748779296875, -0.04800000041723251, 0.01600000075995922, 1.055999994277954, 0.0, 0.0, 0.0, 0.0, 0.0, 1.621852378006765E9, 2021-05-24 12:32:58.006
20.0, -103.40823364257812, 101.3419418334961, -58.43967819213867, -7.320854187011719, -0.04800000041723251, 0.01600000075995922, 1.055999994277954, 0.0, 0.0, 0.0, 0.0, 0.0, 1.621852378006765E9, 2021-05-24 12:32:58.006
21.0, -148.69842529296875, 46.245731353759766, -112.5784683227539, -50.72987365722656, -0.04800000041723251, 0.01600000075995922, 1.055999994277954, 0.0, 0.0, 0.0, 0.0, 0.0, 1.6218523780075188E9, 2021-05-24 12:32:58.007
21.0, -62.28803253173828, 156.99539184570312, 17.383054733276367, 38.43682098388672, -0.04800000041723251, 0.01600000075995922, 1.055999994277954, 0.0, 0.0, 0.0, 0.0, 0.0, 1.6218523780075188E9, 2021-05-24 12:32:58.007
22.0, -49.751888275146484, 176.43539428710938, 11.945240020751953, 48.67292785644531, -0.04800000041723251, 0.01600000075995922, 1.055999994277954, 0.0, 0.0, 0.0, 0.0, 0.0, 1.621852378021041E9, 2021-05-24 12:32:58.021
22.0, -92.08381652832031, 109.31914520263672, -57.504703521728516, -7.649965286254883, -0.04800000041723251, 0.01600000075995922, 1.055999994277954, 0.0, 0.0, 0.0, 0.0, 0.0, 1.621852378021041E9, 2021-05-24 12:32:58.021
23.0, -136.9439239501953, 39.73082733154297, -114.34370422363281, -57.566410064697266, -0.04800000041723251, 0.01600000075995922, 1.055999994277954, 0.0, 0.0, 0.0, 0.0, 0.0, 1.6218523780367267E9, 2021-05-24 12:32:58.036
23.0, -57.6842155456543, 161.2626190185547, 14.540731430053711, 32.74843215942383, -0.04800000041723251, 0.01600000075995922, 1.055999994277954, 0.0, 0.0, 0.0, 0.0, 0.0, 1.6218523780367267E9, 2021-05-24 12:32:58.036
24.0, -45.843692779541016, 160.6417999267578, 8.99445915222168, 44.69367599487305, -0.04800000041723251, 0.01600000075995922, 1.055999994277954, 0.0, 0.0, 0.0, 0.0, 0.0, 1.621852378037438E9, 2021-05-24 12:32:58.037
24.0, -92.20722961425781, 108.26823425292969, -53.63764572143555, -8.551280975341797, -0.04800000041723251, 0.01600000075995922, 1.055999994277954, 0.0, 0.0, 0.0, 0.0, 0.0, 1.621852378037438E9, 2021-05-24 12:32:58.037
25.0, -139.7712860107422, 50.13896942138672, -106.91999816894531, -60.40873336791992, -0.04800000041723251, 0.01600000075995922, 1.055999994277954, 0.0, 0.0, 0.0, 0.0, 0.0, 1.621852378051005E9, 2021-05-24 12:32:58.051
25.0, -58.634151458740234, 165.3652801513672, 19.054790496826172, 28.279253005981445, -0.04800000041723251, 0.01600000075995922, 1.055999994277954, 0.0, 0.0, 0.0, 0.0, 0.0, 1.621852378051005E9, 2021-05-24 12:32:58.051
26.0, -54.03407287597656, 166.66677856445312, 8.508272171020508, 39.77944564819336, -0.04800000041723251, 0.01600000075995922, 1.055999994277954, 0.0, 0.0, 0.0, 0.0, 0.0, 1.6218523780667052E9, 2021-05-24 12:32:58.066
26.0, -97.55529022216797, 108.95637512207031, -57.523399353027344, -8.371766090393066, -0.04800000041723251, 0.01600000075995922, 1.055999994277954, 0.0, 0.0, 0.0, 0.0, 0.0, 1.6218523780667052E9, 2021-05-24 12:32:58.066
27.0, -147.59515380859375, 41.65313720703125, -114.32500457763672, -63.75968551635742, -0.04800000041723251, 0.01600000075995922, 1.055999994277954, 0.0, 0.0, 0.0, 0.0, 0.0, 1.6218523780675416E9, 2021-05-24 12:32:58.067
27.0, -53.589027404785156, 168.38339233398438, 14.6865873336792, 31.974275588989258, -0.04800000041723251, 0.01600000075995922, 1.055999994277954, 0.0, 0.0, 0.0, 0.0, 0.0, 1.6218523780675416E9, 2021-05-24 12:32:58.067
28.0, -56.41265106201172, 171.442626953125, 7.004832744598389, 31.974275588989258, -0.04800000041723251, 0.01600000075995922, 1.055999994277954, 0.0, 0.0, 0.0, 0.0, 0.0, 1.621852378081123E9, 2021-05-24 12:32:58.081
28.0, -107.3575668334961, 100.2835464477539, -58.589271545410156, -7.964117050170898, -0.04800000041723251, 0.01600000075995922, 1.055999994277954, 0.0, 0.0, 0.0, 0.0, 0.0, 1.621852378081123E9, 2021-05-24 12:32:58.081
29.0, -145.87106323242188, 58.07129669189453, -110.94039154052734, -61.32126998901367, -0.04800000041723251, 0.01600000075995922, 1.055999994277954, 0.0, 0.0, 0.0, 0.0, 0.0, 1.621852378096697E9, 2021-05-24 12:32:58.096
29.0, -67.22843933105469, 159.54974365234375, 11.627348899841309, 36.45841598510742, -0.04800000041723251, 0.01600000075995922, 1.055999994277954, 0.0, 0.0, 0.0, 0.0, 0.0, 1.621852378096697E9, 2021-05-24 12:32:58.096
30.0, -51.5096435546875, 168.53672790527344, 9.619022369384766, 42.40111541748047, -0.04800000041723251, 0.01600000075995922, 1.040000081062317, 0.0, 0.0, 0.0, 0.0, 0.0, 1.6218523780974104E9, 2021-05-24 12:32:58.097
30.0, -96.68389129638672, 107.7072525024414, -60.937931060791016, -2.7806155681610107, -0.04800000041723251, 0.01600000075995922, 1.040000081062317, 0.0, 0.0, 0.0, 0.0, 0.0, 1.6218523780974104E9, 2021-05-24 12:32:58.097
31.0, -143.1932830810547, 49.37228775024414, -109.4818344116211, -59.08855056762695, -0.04800000041723251, 0.01600000075995922, 1.040000081062317, 0.0, 0.0, 0.0, 0.0, 0.0, 1.621852378110996E9, 2021-05-24 12:32:58.110
31.0, -61.04264831542969, 155.2077178955078, 15.75993824005127, 29.225448608398438, -0.04800000041723251, 0.01600000075995922, 1.040000081062317, 0.0, 0.0, 0.0, 0.0, 0.0, 1.621852378110996E9, 2021-05-24 12:32:58.110
32.0, -50.54848861694336, 169.7821044921875, 9.88455581665039, 35.62067794799805, -0.04800000041723251, 0.01600000075995922, 1.040000081062317, 0.0, 0.0, 0.0, 0.0, 0.0, 1.6218523781267169E9, 2021-05-24 12:32:58.126
32.0, -93.54985809326172, 101.96649932861328, -56.31167221069336, -11.027094841003418, -0.04800000041723251, 0.01600000075995922, 1.040000081062317, 0.0, 0.0, 0.0, 0.0, 0.0, 1.6218523781267169E9, 2021-05-24 12:32:58.126
33.0, -144.42745971679688, 47.04233169555664, -108.0382308959961, -61.92713165283203, -0.04800000041723251, 0.01600000075995922, 1.040000081062317, 0.0, 0.0, 0.0, 0.0, 0.0, 1.6218523781274064E9, 2021-05-24 12:32:58.127
33.0, -58.46959686279297, 165.40267944335938, 12.259391784667969, 27.95014190673828, -0.04800000041723251, 0.01600000075995922, 1.040000081062317, 0.0, 0.0, 0.0, 0.0, 0.0, 1.6218523781274064E9, 2021-05-24 12:32:58.127
34.0, -53.74236297607422, 158.91769409179688, 10.78961181640625, 31.615243911743164, -0.04800000041723251, 0.01600000075995922, 1.040000081062317, 0.0, 0.0, 0.0, 0.0, 0.0, 1.6218523781412241E9, 2021-05-24 12:32:58.141
34.0, -92.86919403076172, 115.67323303222656, -50.8401985168457, -9.931303977966309, -0.04800000041723251, 0.01600000075995922, 1.040000081062317, 0.0, 0.0, 0.0, 0.0, 0.0, 1.6218523781412241E9, 2021-05-24 12:32:58.141
35.0, -136.96261596679688, 50.80093002319336, -104.11881256103516, -57.517791748046875, -0.04800000041723251, 0.01600000075995922, 1.040000081062317, 0.0, 0.0, 0.0, 0.0, 0.0, 1.6218523781567888E9, 2021-05-24 12:32:58.156
35.0, -55.26824188232422, 159.09347534179688, 17.308256149291992, 27.699569702148438, -0.04800000041723251, 0.01600000075995922, 1.040000081062317, 0.0, 0.0, 0.0, 0.0, 0.0, 1.6218523781567888E9, 2021-05-24 12:32:58.156
36.0, -45.421085357666016, 173.23777770996094, 14.626749038696289, 30.444656372070312, -0.04800000041723251, 0.01600000075995922, 1.040000081062317, 0.0, 0.0, 0.0, 0.0, 0.0, 1.621852378157539E9, 2021-05-24 12:32:58.157
36.0, -93.35912322998047, 107.0228500366211, -50.40262985229492, -15.933843612670898, -0.04800000041723251, 0.01600000075995922, 1.040000081062317, 0.0, 0.0, 0.0, 0.0, 0.0, 1.621852378157539E9, 2021-05-24 12:32:58.157
37.0, -136.49513244628906, 48.960899353027344, -99.4289779663086, -59.38774108886719, -0.04800000041723251, 0.01600000075995922, 1.040000081062317, 0.0, 0.0, 0.0, 0.0, 0.0, 1.6218523781710792E9, 2021-05-24 12:32:58.171
37.0, -61.30070114135742, 160.78390502929688, 16.818330764770508, 21.906463623046875, -0.04800000041723251, 0.01600000075995922, 1.040000081062317, 0.0, 0.0, 0.0, 0.0, 0.0, 1.6218523781710792E9, 2021-05-24 12:32:58.171
38.0, -42.73209762573242, 173.7725830078125, 13.57957649230957, 35.216766357421875, -0.04800000041723251, 0.01600000075995922, 1.040000081062317, 0.0, 0.0, 0.0, 0.0, 0.0, 1.62185237818671E9, 2021-05-24 12:32:58.186
38.0, -97.0167465209961, 108.14107513427734, -57.74031448364258, -15.758068084716797, -0.04800000041723251, 0.01600000075995922, 1.040000081062317, 0.0, 0.0, 0.0, 0.0, 0.0, 1.62185237818671E9, 2021-05-24 12:32:58.186
39.0, -141.14756774902344, 49.873435974121094, -110.72348022460938, -56.85582733154297, -0.04800000041723251, 0.01600000075995922, 1.040000081062317, 0.0, 0.0, 0.0, 0.0, 0.0, 1.62185237818742E9, 2021-05-24 12:32:58.187
39.0, -54.59505844116211, 169.95040893554688, 16.302223205566406, 39.88042449951172, -0.04800000041723251, 0.01600000075995922, 1.040000081062317, 0.0, 0.0, 0.0, 0.0, 0.0, 1.62185237818742E9, 2021-05-24 12:32:58.187
40.0, -47.84828186035156, 168.09915161132812, 13.235506057739258, 49.009517669677734, -0.04800000041723251, 0.01600000075995922, 1.040000081062317, 0.0, 0.0, 0.0, 0.0, 0.0, 1.6218523782010164E9, 2021-05-24 12:32:58.201
40.0, -94.94483947753906, 106.28982543945312, -50.88134002685547, -3.3677799701690674, -0.04800000041723251, 0.01600000075995922, 1.040000081062317, 0.0, 0.0, 0.0, 0.0, 0.0, 1.6218523782010164E9, 2021-05-24 12:32:58.201
41.0, -131.0386199951172, 54.7315673828125, -98.1237564086914, -51.545169830322266, -0.04800000041723251, 0.01600000075995922, 1.040000081062317, 0.0, 0.0, 0.0, 0.0, 0.0, 1.6218523782167149E9, 2021-05-24 12:32:58.216
41.0, -52.635353088378906, 162.5902862548828, 28.965524673461914, 33.38047790527344, -0.04800000041723251, 0.01600000075995922, 1.040000081062317, 0.0, 0.0, 0.0, 0.0, 0.0, 1.6218523782167149E9, 2021-05-24 12:32:58.216
42.0, -45.78385543823242, 179.8723602294922, 18.224533081054688, 41.099632263183594, -0.04800000041723251, 0.01600000075995922, 1.040000081062317, 0.0, 0.0, 0.0, 0.0, 0.0, 1.6218523782174144E9, 2021-05-24 12:32:58.217
42.0, -94.45865631103516, 104.84248352050781, -45.90727233886719, -5.757575988769531, -0.04800000041723251, 0.01600000075995922, 1.040000081062317, 0.0, 0.0, 0.0, 0.0, 0.0, 1.6218523782174144E9, 2021-05-24 12:32:58.217
43.0, -139.14671325683594, 55.00831985473633, -108.81986999511719, -58.78561782836914, -0.04800000041723251, 0.01600000075995922, 1.040000081062317, 0.0, 0.0, 0.0, 0.0, 0.0, 1.621852378231135E9, 2021-05-24 12:32:58.231
43.0, -57.6430778503418, 163.28590393066406, 24.810495376586914, 32.116390228271484, -0.04800000041723251, 0.01600000075995922, 1.040000081062317, 0.0, 0.0, 0.0, 0.0, 0.0, 1.621852378231135E9, 2021-05-24 12:32:58.231
44.0, -47.19379806518555, 179.64422607421875, 16.85198974609375, 44.07284927368164, -0.04800000041723251, 0.01600000075995922, 1.040000081062317, 0.0, 0.0, 0.0, 0.0, 0.0, 1.62185237824678E9, 2021-05-24 12:32:58.246
44.0, -90.60281372070312, 107.01162719726562, -47.952999114990234, -4.946017742156982, -0.04800000041723251, 0.01600000075995922, 1.040000081062317, 0.0, 0.0, 0.0, 0.0, 0.0, 1.62185237824678E9, 2021-05-24 12:32:58.246
45.0, -137.9088134765625, 53.92374801635742, -103.37083435058594, -53.78911209106445, -0.04800000041723251, 0.01600000075995922, 1.040000081062317, 0.0, 0.0, 0.0, 0.0, 0.0, 1.6218523782474787E9, 2021-05-24 12:32:58.247
45.0, -52.64657211303711, 177.57606506347656, 25.64823341369629, 41.96354675292969, -0.04800000041723251, 0.01600000075995922, 1.040000081062317, 0.0, 0.0, 0.0, 0.0, 0.0, 1.6218523782474787E9, 2021-05-24 12:32:58.247
46.0, -46.44581604003906, 174.88333129882812, 15.146595001220703, 45.07888412475586, -0.04800000041723251, 0.01600000075995922, 1.040000081062317, 0.0, 0.0, 0.0, 0.0, 0.0, 1.621852378261109E9, 2021-05-24 12:32:58.261
46.0, -92.25211334228516, 110.4972152709961, -56.18451690673828, -11.438484191894531, -0.04800000041723251, 0.01600000075995922, 1.040000081062317, 0.0, 0.0, 0.0, 0.0, 0.0, 1.621852378261109E9, 2021-05-24 12:32:58.261
47.0, -136.10618591308594, 55.06815719604492, -102.77245330810547, -52.70827865600586, -0.04800000041723251, 0.01600000075995922, 1.040000081062317, 0.0, 0.0, 0.0, 0.0, 0.0, 1.6218523782767107E9, 2021-05-24 12:32:58.276
47.0, -57.90861129760742, 166.79766845703125, 28.57283592224121, 36.86980438232422, -0.04800000041723251, 0.01600000075995922, 1.040000081062317, 0.0, 0.0, 0.0, 0.0, 0.0, 1.6218523782767107E9, 2021-05-24 12:32:58.276
48.0, -48.36438751220703, 174.6551971435547, 15.584162712097168, 46.96379470825195, -0.04800000041723251, 0.01600000075995922, 1.040000081062317, 0.0, 0.0, 0.0, 0.0, 0.0, 1.6218523782773964E9, 2021-05-24 12:32:58.277
48.0, -97.68618774414062, 100.10777282714844, -48.267147064208984, -3.390219211578369, -0.04800000041723251, 0.01600000075995922, 1.040000081062317, 0.0, 0.0, 0.0, 0.0, 0.0, 1.6218523782773964E9, 2021-05-24 12:32:58.277
49.0, -137.96116638183594, 48.41487503051758, -102.01325225830078, -41.776554107666016, -0.04800000041723251, 0.01600000075995922, 1.040000081062317, 0.0, 0.0, 0.0, 0.0, 0.0, 1.6218523782910075E9, 2021-05-24 12:32:58.291
49.0, -50.68312454223633, 166.7752227783203, 20.812543869018555, 45.64360809326172, -0.04800000041723251, 0.01600000075995922, 1.040000081062317, 0.0, 0.0, 0.0, 0.0, 0.0, 1.6218523782910075E9, 2021-05-24 12:32:58.291
50.0, -50.148319244384766, 167.369873046875, 19.368942260742188, 52.34925079345703, -0.04800000041723251, 0.01600000075995922, 1.040000081062317, 0.0, 0.0, 0.0, 0.0, 0.0, 1.621852378306746E9, 2021-05-24 12:32:58.306
50.0, -88.29904174804688, 111.47706604003906, -50.64946365356445, -1.9353982210159302, -0.04800000041723251, 0.01600000075995922, 1.040000081062317, 0.0, 0.0, 0.0, 0.0, 0.0, 1.621852378306746E9, 2021-05-24 12:32:58.306
51.0, -134.19508361816406, 51.605010986328125, -100.08720397949219, -49.75001907348633, -0.04800000041723251, 0.01600000075995922, 1.040000081062317, 0.0, 0.0, 0.0, 0.0, 0.0, 1.621852378307502E9, 2021-05-24 12:32:58.307
51.0, -51.135650634765625, 170.90408325195312, 26.91231918334961, 37.804779052734375, -0.04800000041723251, 0.01600000075995922, 1.040000081062317, 0.0, 0.0, 0.0, 0.0, 0.0, 1.621852378307502E9, 2021-05-24 12:32:58.307
52.0, -48.981468200683594, 179.3338165283203, 22.77225112915039, 53.13836669921875, -0.04800000041723251, 0.01600000075995922, 1.040000081062317, 0.0, 0.0, 0.0, 0.0, 0.0, 1.6218523783209891E9, 2021-05-24 12:32:58.320
52.0, -94.26417541503906, 113.11888122558594, -48.08015441894531, -3.547295093536377, -0.04800000041723251, 0.01600000075995922, 1.040000081062317, 0.0, 0.0, 0.0, 0.0, 0.0, 1.6218523783209891E9, 2021-05-24 12:32:58.320
53.0, -129.60997009277344, 57.932918548583984, -95.28517150878906, -45.378074645996094, -0.04800000041723251, 0.01600000075995922, 1.040000081062317, 0.0, 0.0, 0.0, 0.0, 0.0, 1.6218523783513932E9, 2021-05-24 12:32:58.351
53.0, -45.61555862426758, 166.83880615234375, 29.814481735229492, 39.06886672973633, -0.04800000041723251, 0.01600000075995922, 1.040000081062317, 0.0, 0.0, 0.0, 0.0, 0.0, 1.6218523783513932E9, 2021-05-24 12:32:58.351
54.0, -41.10898208618164, 177.8303680419922, 17.49525260925293, 44.282283782958984, -0.04800000041723251, 0.01600000075995922, 1.040000081062317, 0.0, 0.0, 0.0, 0.0, 0.0, 1.6218523783681319E9, 2021-05-24 12:32:58.368
54.0, -90.48313903808594, 108.92271423339844, -47.57900619506836, -6.082947254180908, -0.04800000041723251, 0.01600000075995922, 1.040000081062317, 0.0, 0.0, 0.0, 0.0, 0.0, 1.6218523783681319E9, 2021-05-24 12:32:58.368
55.0, -132.4373321533203, 55.53938293457031, -100.1732177734375, -51.739646911621094, -0.04800000041723251, 0.01600000075995922, 1.040000081062317, 0.0, 0.0, 0.0, 0.0, 0.0, 1.6218523783688736E9, 2021-05-24 12:32:58.368
55.0, -49.96132278442383, 179.9546356201172, 22.611434936523438, 37.6888427734375, -0.04800000041723251, 0.01600000075995922, 1.040000081062317, 0.0, 0.0, 0.0, 0.0, 0.0, 1.6218523783688736E9, 2021-05-24 12:32:58.368
56.0, -46.6440315246582, 170.60862731933594, 13.897468566894531, 37.26997375488281, -0.04800000041723251, 0.01600000075995922, 1.040000081062317, 0.0, 0.0, 0.0, 0.0, 0.0, 1.6218523783696563E9, 2021-05-24 12:32:58.369
56.0, -93.22822570800781, 111.80618286132812, -50.133358001708984, -4.5944671630859375, -0.04800000041723251, 0.01600000075995922, 1.040000081062317, 0.0, 0.0, 0.0, 0.0, 0.0, 1.6218523783696563E9, 2021-05-24 12:32:58.369
57.0, -133.2750701904297, 56.51923751831055, -97.73480224609375, -50.76353073120117, -0.04800000041723251, 0.01600000075995922, 1.040000081062317, 0.0, 0.0, 0.0, 0.0, 0.0, 1.621852378370396E9, 2021-05-24 12:32:58.370
57.0, -48.4691047668457, 172.45986938476562, 25.57717514038086, 36.1330451965332, -0.04800000041723251, 0.01600000075995922, 1.040000081062317, 0.0, 0.0, 0.0, 0.0, 0.0, 1.621852378370396E9, 2021-05-24 12:32:58.370
58.0, -43.08738708496094, 166.59945678710938, 8.078184127807617, 43.003238677978516, -0.04800000041723251, 0.01600000075995922, 1.040000081062317, 0.0, 0.0, 0.0, 0.0, 0.0, 1.6218523783810773E9, 2021-05-24 12:32:58.381
58.0, -87.00128936767578, 117.685302734375, -57.46730422973633, -0.4319584369659424, -0.04800000041723251, 0.01600000075995922, 1.040000081062317, 0.0, 0.0, 0.0, 0.0, 0.0, 1.6218523783810773E9, 2021-05-24 12:32:58.381
59.0, -133.85101318359375, 45.2883186340332, -113.49100494384766, -51.986480712890625, -0.04800000041723251, 0.01600000075995922, 1.040000081062317, 0.0, 0.0, 0.0, 0.0, 0.0, 1.6218523783967507E9, 2021-05-24 12:32:58.396
59.0, -51.56574249267578, 170.3356170654297, 21.994352340698242, 40.93133544921875, -0.04800000041723251, 0.01600000075995922, 1.040000081062317, 0.0, 0.0, 0.0, 0.0, 0.0, 1.6218523783967507E9, 2021-05-24 12:32:58.396
60.0, -39.3961067199707, 170.89285278320312, 15.610342025756836, 42.008426666259766, -0.04800000041723251, 0.01600000075995922, 1.040000081062317, 0.0, 0.0, 0.0, 0.0, 0.0, 1.6218523783975244E9, 2021-05-24 12:32:58.397
60.0, -84.16645050048828, 113.2310791015625, -47.272335052490234, 0.8508272171020508, -0.04800000041723251, 0.01600000075995922, 1.040000081062317, 0.0, 0.0, 0.0, 0.0, 0.0, 1.6218523783975244E9, 2021-05-24 12:32:58.397
61.0, -127.70262145996094, 50.827110290527344, -101.12689208984375, -50.542877197265625, -0.04800000041723251, 0.01600000075995922, 1.040000081062317, 0.0, 0.0, 0.0, 0.0, 0.0, 1.6218523784110222E9, 2021-05-24 12:32:58.411
61.0, -45.35002517700195, 167.59426879882812, 18.28437042236328, 36.37987518310547, -0.04800000041723251, 0.01600000075995922, 1.040000081062317, 0.0, 0.0, 0.0, 0.0, 0.0, 1.6218523784110222E9, 2021-05-24 12:32:58.411
62.0, -39.05203628540039, 175.57147216796875, 16.788410186767578, 44.60391616821289, -0.04800000041723251, 0.01600000075995922, 1.040000081062317, 0.0, 0.0, 0.0, 0.0, 0.0, 1.6218523784268355E9, 2021-05-24 12:32:58.426
62.0, -85.3557357788086, 100.9604721069336, -48.36438751220703, -4.646825790405273, -0.04800000041723251, 0.01600000075995922, 1.040000081062317, 0.0, 0.0, 0.0, 0.0, 0.0, 1.6218523784268355E9, 2021-05-24 12:32:58.426
63.0, -134.67005920410156, 51.48159408569336, -103.8420639038086, -47.008670806884766, -0.04800000041723251, 0.01600000075995922, 1.040000081062317, 0.0, 0.0, 0.0, 0.0, 0.0, 1.6218523784274423E9, 2021-05-24 12:32:58.427
63.0, -48.58504104614258, 169.38941955566406, 29.324556350708008, 36.48459243774414, -0.04800000041723251, 0.01600000075995922, 1.040000081062317, 0.0, 0.0, 0.0, 0.0, 0.0, 1.6218523784274423E9, 2021-05-24 12:32:58.427
64.0, -39.3549690246582, 177.99867248535156, 21.968172073364258, 45.490272521972656, -0.04800000041723251, 0.01600000075995922, 1.040000081062317, 0.0, 0.0, 0.0, 0.0, 0.0, 1.6218523784411378E9, 2021-05-24 12:32:58.441
64.0, -85.10142517089844, 103.43254089355469, -42.90787124633789, -1.643686056137085, -0.04800000041723251, 0.01600000075995922, 1.040000081062317, 0.0, 0.0, 0.0, 0.0, 0.0, 1.6218523784411378E9, 2021-05-24 12:32:58.441
65.0, -133.56678771972656, 57.62624740600586, -103.46807098388672, -60.98093795776367, -0.04800000041723251, 0.01600000075995922, 1.040000081062317, 0.0, 0.0, 0.0, 0.0, 0.0, 1.621852378456728E9, 2021-05-24 12:32:58.456
65.0, -45.320106506347656, 164.83047485351562, 24.163494110107422, 27.381677627563477, -0.04800000041723251, 0.01600000075995922, 1.040000081062317, 0.0, 0.0, 0.0, 0.0, 0.0, 1.621852378456728E9, 2021-05-24 12:32:58.456
66.0, -42.649818420410156, 170.1598358154297, 17.513952255249023, 36.69776916503906, -0.04800000041723251, 0.01600000075995922, 1.040000081062317, 0.0, 0.0, 0.0, 0.0, 0.0, 1.6218523784574337E9, 2021-05-24 12:32:58.457
66.0, -84.2524642944336, 113.94914245605469, -52.41469955444336, -10.024802207946777, -0.04800000041723251, 0.01600000075995922, 1.040000081062317, 0.0, 0.0, 0.0, 0.0, 0.0, 1.6218523784574337E9, 2021-05-24 12:32:58.457
67.0, -134.83087158203125, 51.638668060302734, -101.72528076171875, -57.76836395263672, -0.04800000041723251, 0.01600000075995922, 1.040000081062317, 0.0, 0.0, 0.0, 0.0, 0.0, 1.6218523784712162E9, 2021-05-24 12:32:58.471
67.0, -47.455589294433594, 165.60838317871094, 22.51045799255371, 32.744693756103516, -0.04800000041723251, 0.01600000075995922, 1.040000081062317, 0.0, 0.0, 0.0, 0.0, 0.0, 1.6218523784712162E9, 2021-05-24 12:32:58.471
68.0, -41.3632926940918, 174.46820068359375, 17.779483795166016, 42.07574462890625, -0.04800000041723251, 0.01600000075995922, 1.040000081062317, 0.0, 0.0, 0.0, 0.0, 0.0, 1.6218523784867277E9, 2021-05-24 12:32:58.486
68.0, -84.49929809570312, 112.21009063720703, -51.63679885864258, -6.404578685760498, -0.04800000041723251, 0.01600000075995922, 1.040000081062317, 0.0, 0.0, 0.0, 0.0, 0.0, 1.6218523784867277E9, 2021-05-24 12:32:58.486
69.0, -129.01907348632812, 51.29459762573242, -95.554443359375, -52.117374420166016, -0.04800000041723251, 0.01600000075995922, 1.040000081062317, 0.0, 0.0, 0.0, 0.0, 0.0, 1.6218523784874191E9, 2021-05-24 12:32:58.487
69.0, -43.12852478027344, 171.7268524169922, 36.23215103149414, 42.621768951416016, -0.04800000041723251, 0.01600000075995922, 1.040000081062317, 0.0, 0.0, 0.0, 0.0, 0.0, 1.6218523784874191E9, 2021-05-24 12:32:58.487
70.0, -35.81328201293945, 168.70501708984375, 21.773696899414062, 47.95112609863281, -0.04800000041723251, 0.01600000075995922, 1.055999994277954, 0.0, 0.0, 0.0, 0.0, 0.0, 1.6218523785174422E9, 2021-05-24 12:32:58.517
70.0, -84.94060516357422, 119.9329833984375, -50.05855941772461, 0.8470873236656189, -0.04800000041723251, 0.01600000075995922, 1.055999994277954, 0.0, 0.0, 0.0, 0.0, 0.0, 1.6218523785174422E9, 2021-05-24 12:32:58.517
71.0, -129.2135467529297, 47.37518310546875, -99.61223602294922, -44.60017776489258, -0.04800000041723251, 0.01600000075995922, 1.055999994277954, 0.0, 0.0, 0.0, 0.0, 0.0, 1.6218523785181327E9, 2021-05-24 12:32:58.518
71.0, -43.5810546875, 169.1126708984375, 27.925832748413086, 44.37204360961914, -0.04800000041723251, 0.01600000075995922, 1.055999994277954, 0.0, 0.0, 0.0, 0.0, 0.0, 1.6218523785181327E9, 2021-05-24 12:32:58.518
72.0, -42.354366302490234, 171.15464782714844, 14.929680824279785, 43.388450622558594, -0.04800000041723251, 0.01600000075995922, 1.055999994277954, 0.0, 0.0, 0.0, 0.0, 0.0, 1.621852378518865E9, 2021-05-24 12:32:58.518
72.0, -87.4800033569336, 101.90666198730469, -53.963016510009766, -4.564548015594482, -0.04800000041723251, 0.01600000075995922, 1.055999994277954, 0.0, 0.0, 0.0, 0.0, 0.0, 1.621852378518865E9, 2021-05-24 12:32:58.518
73.0, -135.6237335205078, 55.371089935302734, -104.1038589477539, -54.97840118408203, -0.04800000041723251, 0.01600000075995922, 1.055999994277954, 0.0, 0.0, 0.0, 0.0, 0.0, 1.6218523785311403E9, 2021-05-24 12:32:58.531
73.0, -56.45378875732422, 161.95449829101562, 24.48886489868164, 26.555160522460938, -0.04800000041723251, 0.01600000075995922, 1.055999994277954, 0.0, 0.0, 0.0, 0.0, 0.0, 1.6218523785311403E9, 2021-05-24 12:32:58.531
74.0, -44.609527587890625, 175.5527801513672, 16.96418571472168, 36.2564582824707, -0.04800000041723251, 0.01600000075995922, 1.055999994277954, 0.0, 0.0, 0.0, 0.0, 0.0, 1.6218523785467825E9, 2021-05-24 12:32:58.546
74.0, -95.9583511352539, 97.00739288330078, -55.62727355957031, -11.214090347290039, -0.04800000041723251, 0.01600000075995922, 1.055999994277954, 0.0, 0.0, 0.0, 0.0, 0.0, 1.6218523785467825E9, 2021-05-24 12:32:58.546
75.0, -143.2456512451172, 58.183494567871094, -108.59921264648438, -64.05887603759766, -0.04800000041723251, 0.01600000075995922, 1.055999994277954, 0.0, 0.0, 0.0, 0.0, 0.0, 1.6218523785474358E9, 2021-05-24 12:32:58.547
75.0, -57.26534652709961, 168.06922912597656, 23.890480041503906, 29.906110763549805, -0.04800000041723251, 0.01600000075995922, 1.055999994277954, 0.0, 0.0, 0.0, 0.0, 0.0, 1.6218523785474358E9, 2021-05-24 12:32:58.547
76.0, -44.426273345947266, 181.1065216064453, 19.813989639282227, 43.1004753112793, -0.04800000041723251, 0.01600000075995922, 1.055999994277954, 0.0, 0.0, 0.0, 0.0, 0.0, 1.6218523785610287E9, 2021-05-24 12:32:58.561
76.0, -100.65192413330078, 108.8516616821289, -56.046142578125, -21.992481231689453, -0.04800000041723251, 0.01600000075995922, 1.055999994277954, 0.0, 0.0, 0.0, 0.0, 0.0, 1.6218523785610287E9, 2021-05-24 12:32:58.561
77.0, -135.7471466064453, 60.371334075927734, -102.65277099609375, -63.01170349121094, -0.04800000041723251, 0.01600000075995922, 1.055999994277954, 0.0, 0.0, 0.0, 0.0, 0.0, 1.6218523785932217E9, 2021-05-24 12:32:58.593
77.0, -46.120445251464844, 169.98031616210938, 28.68503189086914, 30.624170303344727, -0.04800000041723251, 0.01600000075995922, 1.055999994277954, 0.0, 0.0, 0.0, 0.0, 0.0, 1.6218523785932217E9, 2021-05-24 12:32:58.593
78.0, -43.977481842041016, 173.33126831054688, 17.588748931884766, 35.29530715942383, -0.04800000041723251, 0.01600000075995922, 1.055999994277954, 0.0, 0.0, 0.0, 0.0, 0.0, 1.6218523785939326E9, 2021-05-24 12:32:58.593
78.0, -88.56831359863281, 122.43497467041016, -47.16761779785156, -13.955436706542969, -0.04800000041723251, 0.01600000075995922, 1.055999994277954, 0.0, 0.0, 0.0, 0.0, 0.0, 1.6218523785939326E9, 2021-05-24 12:32:58.593
79.0, -130.77308654785156, 56.82590866088867, -92.65228271484375, -51.83314514160156, -0.04800000041723251, 0.01600000075995922, 1.055999994277954, 0.0, 0.0, 0.0, 0.0, 0.0, 1.6218523785945904E9, 2021-05-24 12:32:58.594
79.0, -47.29103469848633, 181.84329223632812, 30.061315536499023, 34.19203567504883, -0.04800000041723251, 0.01600000075995922, 1.055999994277954, 0.0, 0.0, 0.0, 0.0, 0.0, 1.6218523785945904E9, 2021-05-24 12:32:58.594
80.0, -38.98097610473633, 177.4152374267578, 24.238290786743164, 40.30677032470703, -0.04800000041723251, 0.01600000075995922, 1.055999994277954, 0.0, 0.0, 0.0, 0.0, 0.0, 1.6218523785953095E9, 2021-05-24 12:32:58.595
80.0, -84.66759490966797, 115.20201110839844, -42.990150451660156, -1.3257945775985718, -0.04800000041723251, 0.01600000075995922, 1.055999994277954, 0.0, 0.0, 0.0, 0.0, 0.0, 1.6218523785953095E9, 2021-05-24 12:32:58.595
81.0, -129.10134887695312, 58.48268508911133, -92.85423278808594, -49.27131271362305, -0.04800000041723251, 0.01600000075995922, 1.055999994277954, 0.0, 0.0, 0.0, 0.0, 0.0, 1.6218523786061547E9, 2021-05-24 12:32:58.606
81.0, -48.64487838745117, 172.0746612548828, 26.328895568847656, 42.341278076171875, -0.04800000041723251, 0.01600000075995922, 1.055999994277954, 0.0, 0.0, 0.0, 0.0, 0.0, 1.6218523786061547E9, 2021-05-24 12:32:58.606
82.0, -47.418190002441406, 191.6979217529297, 20.173019409179688, 49.91831588745117, -0.04800000041723251, 0.01600000075995922, 1.055999994277954, 0.0, 0.0, 0.0, 0.0, 0.0, 1.6218523786210663E9, 2021-05-24 12:32:58.621
82.0, -93.07862854003906, 105.27257537841797, -51.77143478393555, -4.624386310577393, -0.04800000041723251, 0.01600000075995922, 1.055999994277954, 0.0, 0.0, 0.0, 0.0, 0.0, 1.6218523786210663E9, 2021-05-24 12:32:58.621
83.0, -135.02908325195312, 61.35118865966797, -98.1611557006836, -42.6591682434082, -0.04800000041723251, 0.01600000075995922, 1.055999994277954, 0.0, 0.0, 0.0, 0.0, 0.0, 1.6218523786368487E9, 2021-05-24 12:32:58.636
83.0, -53.21877670288086, 176.80563354492188, 22.484277725219727, 38.73975372314453, -0.04800000041723251, 0.01600000075995922, 1.055999994277954, 0.0, 0.0, 0.0, 0.0, 0.0, 1.6218523786368487E9, 2021-05-24 12:32:58.636
84.0, -42.76949691772461, 180.24261474609375, 19.219345092773438, 40.58726501464844, -0.04800000041723251, 0.01600000075995922, 1.055999994277954, 0.0, 0.0, 0.0, 0.0, 0.0, 1.6218523786375577E9, 2021-05-24 12:32:58.637
84.0, -87.96244812011719, 116.38007354736328, -46.83850860595703, -17.212888717651367, -0.04800000041723251, 0.01600000075995922, 1.055999994277954, 0.0, 0.0, 0.0, 0.0, 0.0, 1.6218523786375577E9, 2021-05-24 12:32:58.637
85.0, -130.75064086914062, 51.96778106689453, -101.43730926513672, -62.054290771484375, -0.04800000041723251, 0.01600000075995922, 1.055999994277954, 0.0, 0.0, 0.0, 0.0, 0.0, 1.6218523786512032E9, 2021-05-24 12:32:58.651
85.0, -44.16447830200195, 185.75521850585938, 28.363401412963867, 25.92311668395996, -0.04800000041723251, 0.01600000075995922, 1.055999994277954, 0.0, 0.0, 0.0, 0.0, 0.0, 1.6218523786512032E9, 2021-05-24 12:32:58.651
86.0, -37.41395950317383, 185.36627197265625, 18.968772888183594, 34.20325469970703, -0.04800000041723251, 0.01600000075995922, 1.055999994277954, 0.0, 0.0, 0.0, 0.0, 0.0, 1.6218523786668348E9, 2021-05-24 12:32:58.666
86.0, -80.89029693603516, 123.91971588134766, -49.6733512878418, -16.767841339111328, -0.04800000041723251, 0.01600000075995922, 1.055999994277954, 0.0, 0.0, 0.0, 0.0, 0.0, 1.6218523786668348E9, 2021-05-24 12:32:58.666
87.0, -127.19400024414062, 59.88888931274414, -95.09443664550781, -63.60260772705078, -0.04800000041723251, 0.01600000075995922, 1.055999994277954, 0.0, 0.0, 0.0, 0.0, 0.0, 1.6218523786675363E9, 2021-05-24 12:32:58.667
87.0, -40.30116271972656, 183.7768096923828, 37.006309509277344, 28.002500534057617, -0.04800000041723251, 0.01600000075995922, 1.055999994277954, 0.0, 0.0, 0.0, 0.0, 0.0, 1.6218523786675363E9, 2021-05-24 12:32:58.667
88.0, -35.20741653442383, 180.37350463867188, 28.647634506225586, 40.000099182128906, -0.04800000041723251, 0.01600000075995922, 1.055999994277954, 0.0, 0.0, 0.0, 0.0, 0.0, 1.6218523786810377E9, 2021-05-24 12:32:58.681
88.0, -84.192626953125, 116.61943054199219, -38.10210037231445, -9.149664878845215, -0.04800000041723251, 0.01600000075995922, 1.055999994277954, 0.0, 0.0, 0.0, 0.0, 0.0, 1.6218523786810377E9, 2021-05-24 12:32:58.681
89.0, -124.45265197753906, 64.95271301269531, -91.95291900634766, -56.41078186035156, -0.04800000041723251, 0.01600000075995922, 1.055999994277954, 0.0, 0.0, 0.0, 0.0, 0.0, 1.621852378696738E9, 2021-05-24 12:32:58.696
89.0, -44.29537582397461, 173.9521026611328, 28.57283592224121, 40.58352279663086, -0.04800000041723251, 0.01600000075995922, 1.055999994277954, 0.0, 0.0, 0.0, 0.0, 0.0, 1.621852378696738E9, 2021-05-24 12:32:58.696
90.0, -31.8377685546875, 178.2642059326172, 26.571989059448242, 52.65217971801758, -0.04800000041723251, 0.01600000075995922, 1.040000081062317, 0.0, 0.0, 0.0, 0.0, 0.0, 1.6218523786974545E9, 2021-05-24 12:32:58.697
90.0, -85.11264038085938, 116.8999252319336, -47.87820053100586, 5.637899398803711, -0.04800000041723251, 0.01600000075995922, 1.040000081062317, 0.0, 0.0, 0.0, 0.0, 0.0, 1.6218523786974545E9, 2021-05-24 12:32:58.697
91.0, -131.77537536621094, 53.81528854370117, -96.3360824584961, -39.30073928833008, -0.04800000041723251, 0.01600000075995922, 1.040000081062317, 0.0, 0.0, 0.0, 0.0, 0.0, 1.6218523787111216E9, 2021-05-24 12:32:58.711
91.0, -42.89665222167969, 180.94570922851562, 33.07567596435547, 59.092288970947266, -0.04800000041723251, 0.01600000075995922, 1.040000081062317, 0.0, 0.0, 0.0, 0.0, 0.0, 1.6218523787111216E9, 2021-05-24 12:32:58.711
92.0, -42.63111877441406, 174.72251892089844, 20.76392364501953, 65.58101654052734, -0.04800000041723251, 0.01600000075995922, 1.040000081062317, 0.0, 0.0, 0.0, 0.0, 0.0, 1.621852378726718E9, 2021-05-24 12:32:58.726
92.0, -91.70234680175781, 116.83634185791016, -52.205265045166016, 11.718976974487305, -0.04800000041723251, 0.01600000075995922, 1.040000081062317, 0.0, 0.0, 0.0, 0.0, 0.0, 1.621852378726718E9, 2021-05-24 12:32:58.726
93.0, -138.34637451171875, 56.298583984375, -102.55553436279297, -43.87089538574219, -0.04800000041723251, 0.01600000075995922, 1.040000081062317, 0.0, 0.0, 0.0, 0.0, 0.0, 1.6218523787275124E9, 2021-05-24 12:32:58.727
93.0, -48.383087158203125, 184.82398986816406, 24.74317741394043, 44.016754150390625, -0.04800000041723251, 0.01600000075995922, 1.040000081062317, 0.0, 0.0, 0.0, 0.0, 0.0, 1.6218523787275124E9, 2021-05-24 12:32:58.727
94.0, -47.032981872558594, 172.8899688720703, 12.43516731262207, 45.542633056640625, -0.04800000041723251, 0.01600000075995922, 1.040000081062317, 0.0, 0.0, 0.0, 0.0, 0.0, 1.6218523787412076E9, 2021-05-24 12:32:58.741
94.0, -91.75096893310547, 112.96929168701172, -57.85625076293945, -5.263909339904785, -0.04800000041723251, 0.01600000075995922, 1.040000081062317, 0.0, 0.0, 0.0, 0.0, 0.0, 1.6218523787412076E9, 2021-05-24 12:32:58.741
95.0, -135.17120361328125, 53.43008041381836, -105.3268051147461, -51.631187438964844, -0.04800000041723251, 0.01600000075995922, 1.040000081062317, 0.0, 0.0, 0.0, 0.0, 0.0, 1.6218523787566943E9, 2021-05-24 12:32:58.756
95.0, -46.96566390991211, 178.9934844970703, 27.791196823120117, 31.0692195892334, -0.04800000041723251, 0.01600000075995922, 1.040000081062317, 0.0, 0.0, 0.0, 0.0, 0.0, 1.6218523787566943E9, 2021-05-24 12:32:58.756
96.0, -44.52350997924805, 176.15489196777344, 15.898314476013184, 32.22858810424805, -0.04800000041723251, 0.01600000075995922, 1.040000081062317, 0.0, 0.0, 0.0, 0.0, 0.0, 1.6218523787574189E9, 2021-05-24 12:32:58.757
96.0, -94.73914337158203, 115.65827941894531, -55.31686019897461, -23.335105895996094, -0.04800000041723251, 0.01600000075995922, 1.040000081062317, 0.0, 0.0, 0.0, 0.0, 0.0, 1.6218523787574189E9, 2021-05-24 12:32:58.757
97.0, -132.7327880859375, 57.278438568115234, -109.1863784790039, -68.47196197509766, -0.04800000041723251, 0.01600000075995922, 1.040000081062317, 0.0, 0.0, 0.0, 0.0, 0.0, 1.62185237877116E9, 2021-05-24 12:32:58.771
97.0, -49.6957893371582, 163.87306213378906, 25.360261917114258, 25.148956298828125, -0.04800000041723251, 0.01600000075995922, 1.040000081062317, 0.0, 0.0, 0.0, 0.0, 0.0, 1.62185237877116E9, 2021-05-24 12:32:58.771
98.0, -40.50685501098633, 189.8803253173828, 16.751012802124023, 30.990680694580078, -0.04800000041723251, 0.01600000075995922, 1.040000081062317, 0.0, 0.0, 0.0, 0.0, 0.0, 1.6218523788188026E9, 2021-05-24 12:32:58.818
98.0, -90.55046081542969, 108.38790893554688, -50.46995162963867, -18.121685028076172, -0.04800000041723251, 0.01600000075995922, 1.040000081062317, 0.0, 0.0, 0.0, 0.0, 0.0, 1.6218523788188026E9, 2021-05-24 12:32:58.818
99.0, -129.69224548339844, 65.48751831054688, -99.13352966308594, -57.62250900268555, -0.04800000041723251, 0.01600000075995922, 1.040000081062317, 0.0, 0.0, 0.0, 0.0, 0.0, 1.6218523788194344E9, 2021-05-24 12:32:58.819
99.0, -48.53268051147461, 160.7128448486328, 28.243724822998047, 32.789573669433594, -0.04800000041723251, 0.01600000075995922, 1.040000081062317, 0.0, 0.0, 0.0, 0.0, 0.0, 1.6218523788194344E9, 2021-05-24 12:32:58.819
100.0, -35.72352600097656, 177.1684112548828, 16.930526733398438, 38.949188232421875, -0.04800000041723251, 0.01600000075995922, 1.040000081062317, 0.0, 0.0, 0.0, 0.0, 0.0, 1.6218523788202767E9, 2021-05-24 12:32:58.820
100.0, -85.68484497070312, 100.85948944091797, -58.260162353515625, -6.838407039642334, -0.04800000041723251, 0.01600000075995922, 1.040000081062317, 0.0, 0.0, 0.0, 0.0, 0.0, 1.6218523788202767E9, 2021-05-24 12:32:58.820
0.0, -130.67022705078125, 47.887550354003906, -103.41197204589844, -47.57152557373047, -0.04800000041723251, 0.01600000075995922, 1.040000081062317, 0.0, 0.0, 0.0, 0.0, 0.0, 1.6218523788209455E9, 2021-05-24 12:32:58.820
1.0, -42.97332000732422, 165.5859375, 21.538084030151367, 45.421085357666016, -0.04800000041723251, 0.01600000075995922, 1.040000081062317, 0.0, 0.0, 0.0, 0.0, 0.0, 1.6218523788321445E9, 2021-05-24 12:32:58.832
1.0, -43.93073654174805, 175.67245483398438, 9.981793403625488, 46.39345932006836, -0.04800000041723251, 0.01600000075995922, 1.040000081062317, 0.0, 0.0, 0.0, 0.0, 0.0, 1.6218523788321445E9, 2021-05-24 12:32:58.832
2.0, -87.66886138916016, 101.39804077148438, -59.81222152709961, 4.360723495483398, -0.04800000041723251, 0.01600000075995922, 1.040000081062317, 0.0, 0.0, 0.0, 0.0, 0.0, 1.6218523788328705E9, 2021-05-24 12:32:58.832
2.0, -128.21685791015625, 60.82760238647461, -106.47869110107422, -35.64498519897461, -0.04800000041723251, 0.01600000075995922, 1.040000081062317, 0.0, 0.0, 0.0, 0.0, 0.0, 1.6218523788328705E9, 2021-05-24 12:32:58.832
3.0, -45.56133270263672, 163.11386108398438, 20.18798065185547, 56.00874328613281, -0.04800000041723251, 0.01600000075995922, 1.040000081062317, 0.0, 0.0, 0.0, 0.0, 0.0, 1.6218523788467188E9, 2021-05-24 12:32:58.846
3.0, -39.315696716308594, 186.0357208251953, 8.960800170898438, 54.69977569580078, -0.04800000041723251, 0.01600000075995922, 1.040000081062317, 0.0, 0.0, 0.0, 0.0, 0.0, 1.6218523788467188E9, 2021-05-24 12:32:58.846
4.0, -86.47583770751953, 102.9500961303711, -54.99148941040039, -1.7764524221420288, -0.04800000041723251, 0.01600000075995922, 1.040000081062317, 0.0, 0.0, 0.0, 0.0, 0.0, 1.6218523788474293E9, 2021-05-24 12:32:58.847
4.0, -127.2444839477539, 62.48811721801758, -93.16838836669922, -42.97893142700195, -0.04800000041723251, 0.01600000075995922, 1.040000081062317, 0.0, 0.0, 0.0, 0.0, 0.0, 1.6218523788474293E9, 2021-05-24 12:32:58.847
5.0, -45.019046783447266, 167.51573181152344, 32.66428756713867, 39.09317398071289, -0.04800000041723251, 0.01600000075995922, 1.040000081062317, 0.0, 0.0, 0.0, 0.0, 0.0, 1.6218523788617623E9, 2021-05-24 12:32:58.861
5.0, -36.271419525146484, 192.2140350341797, 23.45665168762207, 46.05312728881836, -0.04800000041723251, 0.01600000075995922, 1.040000081062317, 0.0, 0.0, 0.0, 0.0, 0.0, 1.6218523788617623E9, 2021-05-24 12:32:58.861
6.0, -92.03707122802734, 101.31575775146484, -49.78180694580078, -13.979745864868164, -0.04800000041723251, 0.01600000075995922, 1.040000081062317, 0.0, 0.0, 0.0, 0.0, 0.0, 1.6218523788624792E9, 2021-05-24 12:32:58.862
6.0, -131.00308227539062, 60.917362213134766, -92.40544891357422, -59.32603454589844, -0.04800000041723251, 0.01600000075995922, 1.040000081062317, 0.0, 0.0, 0.0, 0.0, 0.0, 1.6218523788624792E9, 2021-05-24 12:32:58.862
7.0, -44.297245025634766, 176.03895568847656, 33.56934356689453, 33.614219665527344, -0.04800000041723251, 0.01600000075995922, 1.040000081062317, 0.0, 0.0, 0.0, 0.0, 0.0, 1.6218523788761237E9, 2021-05-24 12:32:58.876
7.0, -42.47217559814453, 175.7659454345703, 14.398614883422852, 34.99050521850586, -0.04800000041723251, 0.01600000075995922, 1.040000081062317, 0.0, 0.0, 0.0, 0.0, 0.0, 1.6218523788761237E9, 2021-05-24 12:32:58.876
8.0, -90.93753814697266, 106.11779022216797, -50.68686294555664, -17.581270217895508, -0.04800000041723251, 0.01600000075995922, 1.040000081062317, 0.0, 0.0, 0.0, 0.0, 0.0, 1.621852378891706E9, 2021-05-24 12:32:58.891
8.0, -132.88800048828125, 50.67003631591797, -103.73734283447266, -50.77288055419922, -0.04800000041723251, 0.01600000075995922, 1.040000081062317, 0.0, 0.0, 0.0, 0.0, 0.0, 1.621852378891706E9, 2021-05-24 12:32:58.891
9.0, -47.07225036621094, 173.2677001953125, 24.88529396057129, 36.007755279541016, -0.04800000041723251, 0.01600000075995922, 1.040000081062317, 0.0, 0.0, 0.0, 0.0, 0.0, 1.6218523788924167E9, 2021-05-24 12:32:58.892
9.0, -38.234867095947266, 169.5390167236328, 10.393181800842285, 42.93031311035156, -0.04800000041723251, 0.01600000075995922, 1.040000081062317, 0.0, 0.0, 0.0, 0.0, 0.0, 1.6218523788924167E9, 2021-05-24 12:32:58.892
10.0, -90.45134735107422, 116.39877319335938, -59.587825775146484, -8.627948760986328, -0.04800000041723251, 0.01600000075995922, 1.055999994277954, 0.0, 0.0, 0.0, 0.0, 0.0, 1.6218523789061065E9, 2021-05-24 12:32:58.906
10.0, -139.70957946777344, 45.93532180786133, -104.2272720336914, -49.46017837524414, -0.04800000041723251, 0.01600000075995922, 1.055999994277954, 0.0, 0.0, 0.0, 0.0, 0.0, 1.6218523789061065E9, 2021-05-24 12:32:58.906
11.0, -46.870296478271484, 184.35275268554688, 24.586101531982422, 43.1696662902832, -0.04800000041723251, 0.01600000075995922, 1.055999994277954, 0.0, 0.0, 0.0, 0.0, 0.0, 1.6218523789216967E9, 2021-05-24 12:32:58.921
11.0, -39.424156188964844, 169.4567413330078, 10.797091484069824, 46.52061462402344, -0.04800000041723251, 0.01600000075995922, 1.055999994277954, 0.0, 0.0, 0.0, 0.0, 0.0, 1.6218523789216967E9, 2021-05-24 12:32:58.921
12.0, -86.51697540283203, 103.38392639160156, -60.79955291748047, 1.469780683517456, -0.04800000041723251, 0.01600000075995922, 1.055999994277954, 0.0, 0.0, 0.0, 0.0, 0.0, 1.621852378922408E9, 2021-05-24 12:32:58.922
12.0, -125.59893035888672, 54.66798782348633, -98.15741729736328, -39.699039459228516, -0.04800000041723251, 0.01600000075995922, 1.055999994277954, 0.0, 0.0, 0.0, 0.0, 0.0, 1.621852378922408E9, 2021-05-24 12:32:58.922
13.0, -37.86835861206055, 165.41017150878906, 25.91750717163086, 54.36692428588867, -0.04800000041723251, 0.01600000075995922, 1.055999994277954, 0.0, 0.0, 0.0, 0.0, 0.0, 1.621852378936009E9, 2021-05-24 12:32:58.936
13.0, -38.18998718261719, 181.65255737304688, 22.465579986572266, 55.56743240356445, -0.04800000041723251, 0.01600000075995922, 1.055999994277954, 0.0, 0.0, 0.0, 0.0, 0.0, 1.621852378936009E9, 2021-05-24 12:32:58.936
14.0, -81.16143798828125, 102.49756622314453, -45.44352340698242, 5.5088725090026855, -0.04800000041723251, 0.01600000075995922, 1.055999994277954, 0.0, 0.0, 0.0, 0.0, 0.0, 1.621852378951672E9, 2021-05-24 12:32:58.951
14.0, -123.41857147216797, 59.331642150878906, -90.24004364013672, -44.269195556640625, -0.04800000041723251, 0.01600000075995922, 1.055999994277954, 0.0, 0.0, 0.0, 0.0, 0.0, 1.621852378951672E9, 2021-05-24 12:32:58.951
15.0, -38.133888244628906, 173.87356567382812, 37.66827392578125, 43.77178955078125, -0.04800000041723251, 0.01600000075995922, 1.055999994277954, 0.0, 0.0, 0.0, 0.0, 0.0, 1.6218523789524202E9, 2021-05-24 12:32:58.952
15.0, -33.77690505981445, 186.3984832763672, 29.178699493408203, 39.874813079833984, -0.04800000041723251, 0.01600000075995922, 1.055999994277954, 0.0, 0.0, 0.0, 0.0, 0.0, 1.6218523789524202E9, 2021-05-24 12:32:58.952
16.0, -87.65764617919922, 114.45402526855469, -45.53328323364258, -13.684293746948242, -0.04800000041723251, 0.01600000075995922, 1.055999994277954, 0.0, 0.0, 0.0, 0.0, 0.0, 1.6218523789824743E9, 2021-05-24 12:32:58.982
16.0, -126.17487335205078, 58.164794921875, -92.51390838623047, -57.785194396972656, -0.04800000041723251, 0.01600000075995922, 1.055999994277954, 0.0, 0.0, 0.0, 0.0, 0.0, 1.6218523789824743E9, 2021-05-24 12:32:58.982
17.0, -43.0593376159668, 170.421630859375, 33.17291259765625, 36.258331298828125, -0.04800000041723251, 0.01600000075995922, 1.055999994277954, 0.0, 0.0, 0.0, 0.0, 0.0, 1.6218523789832585E9, 2021-05-24 12:32:58.983
17.0, -32.96908950805664, 181.4019775390625, 21.149133682250977, 48.53642272949219, -0.04800000041723251, 0.01600000075995922, 1.055999994277954, 0.0, 0.0, 0.0, 0.0, 0.0, 1.6218523789832585E9, 2021-05-24 12:32:58.983
18.0, -85.37256622314453, 97.63569641113281, -49.6434326171875, -6.997352600097656, -0.04800000041723251, 0.01600000075995922, 1.055999994277954, 0.0, 0.0, 0.0, 0.0, 0.0, 1.6218523789839804E9, 2021-05-24 12:32:58.983
18.0, -125.11273956298828, 59.72807312011719, -102.90335083007812, -53.26365661621094, -0.04800000041723251, 0.01600000075995922, 1.055999994277954, 0.0, 0.0, 0.0, 0.0, 0.0, 1.6218523789839804E9, 2021-05-24 12:32:58.983
19.0, -47.539737701416016, 170.2533416748047, 26.89735984802246, 41.2623176574707, -0.04800000041723251, 0.01600000075995922, 1.055999994277954, 0.0, 0.0, 0.0, 0.0, 0.0, 1.6218523789962552E9, 2021-05-24 12:32:58.996
19.0, -34.618385314941406, 184.98106384277344, 18.83039665222168, 49.003910064697266, -0.04800000041723251, 0.01600000075995922, 1.055999994277954, 0.0, 0.0, 0.0, 0.0, 0.0, 1.6218523789962552E9, 2021-05-24 12:32:58.996
20.0, -88.91425323486328, 108.96385192871094, -52.485755920410156, -3.9044556617736816, -0.04800000041723251, 0.01600000075995922, 1.055999994277954, 0.0, 0.0, 0.0, 0.0, 0.0, 1.621852379011752E9, 2021-05-24 12:32:59.011
20.0, -129.8511962890625, 50.88694763183594, -103.69994354248047, -59.961814880371094, -0.04800000041723251, 0.01600000075995922, 1.055999994277954, 0.0, 0.0, 0.0, 0.0, 0.0, 1.621852379011752E9, 2021-05-24 12:32:59.011
21.0, -41.99720764160156, 174.97682189941406, 25.023670196533203, 48.36438751220703, -0.04800000041723251, 0.01600000075995922, 1.055999994277954, 0.0, 0.0, 0.0, 0.0, 0.0, 1.6218523790124655E9, 2021-05-24 12:32:59.012
21.0, -35.216766357421875, 169.22860717773438, 18.699499130249023, 50.40262985229492, -0.04800000041723251, 0.01600000075995922, 1.055999994277954, 0.0, 0.0, 0.0, 0.0, 0.0, 1.6218523790124655E9, 2021-05-24 12:32:59.012
22.0, -84.75173950195312, 118.51555633544922, -56.824039459228516, -0.11219699680805206, -0.04800000041723251, 0.01600000075995922, 1.055999994277954, 0.0, 0.0, 0.0, 0.0, 0.0, 1.6218523790260007E9, 2021-05-24 12:32:59.026
22.0, -126.70967864990234, 57.274696350097656, -95.12435913085938, -45.645477294921875, -0.04800000041723251, 0.01600000075995922, 1.055999994277954, 0.0, 0.0, 0.0, 0.0, 0.0, 1.6218523790260007E9, 2021-05-24 12:32:59.026
23.0, -42.6180305480957, 181.65255737304688, 34.066749572753906, 47.28355407714844, -0.04800000041723251, 0.01600000075995922, 1.055999994277954, 0.0, 0.0, 0.0, 0.0, 0.0, 1.6218523790417032E9, 2021-05-24 12:32:59.041
23.0, -37.25127410888672, 172.77777099609375, 22.697452545166016, 51.84249496459961, -0.04800000041723251, 0.01600000075995922, 1.055999994277954, 0.0, 0.0, 0.0, 0.0, 0.0, 1.6218523790417032E9, 2021-05-24 12:32:59.041
24.0, -85.3837890625, 124.42086029052734, -42.743316650390625, -9.806017875671387, -0.04800000041723251, 0.01600000075995922, 1.055999994277954, 0.0, 0.0, 0.0, 0.0, 0.0, 1.6218523790424104E9, 2021-05-24 12:32:59.042
24.0, -126.67976379394531, 55.25889205932617, -86.36550903320312, -53.050479888916016, -0.04800000041723251, 0.01600000075995922, 1.055999994277954, 0.0, 0.0, 0.0, 0.0, 0.0, 1.6218523790424104E9, 2021-05-24 12:32:59.042
25.0, -41.93362808227539, 184.63699340820312, 35.31587600708008, 38.42747116088867, -0.04800000041723251, 0.01600000075995922, 1.055999994277954, 0.0, 0.0, 0.0, 0.0, 0.0, 1.6218523790560253E9, 2021-05-24 12:32:59.056
25.0, -39.82058334350586, 186.5293731689453, 30.63726043701172, 41.04914093017578, -0.04800000041723251, 0.01600000075995922, 1.055999994277954, 0.0, 0.0, 0.0, 0.0, 0.0, 1.6218523790560253E9, 2021-05-24 12:32:59.056
26.0, -86.35990142822266, 109.20694732666016, -40.89580535888672, -12.001338958740234, -0.04800000041723251, 0.01600000075995922, 1.055999994277954, 0.0, 0.0, 0.0, 0.0, 0.0, 1.6218523790716882E9, 2021-05-24 12:32:59.071
26.0, -128.84890747070312, 68.91326904296875, -94.81768035888672, -50.75044250488281, -0.04800000041723251, 0.01600000075995922, 1.055999994277954, 0.0, 0.0, 0.0, 0.0, 0.0, 1.6218523790716882E9, 2021-05-24 12:32:59.071
27.0, -42.438514709472656, 174.30738830566406, 35.27099609375, 41.314674377441406, -0.04800000041723251, 0.01600000075995922, 1.055999994277954, 0.0, 0.0, 0.0, 0.0, 0.0, 1.6218523790723805E9, 2021-05-24 12:32:59.072
27.0, -34.74180221557617, 186.16287231445312, 27.39850616455078, 47.668766021728516, -0.04800000041723251, 0.01600000075995922, 1.055999994277954, 0.0, 0.0, 0.0, 0.0, 0.0, 1.6218523790723805E9, 2021-05-24 12:32:59.072
28.0, -86.15420532226562, 117.41976928710938, -45.87361145019531, -4.424301624298096, -0.04800000041723251, 0.01600000075995922, 1.055999994277954, 0.0, 0.0, 0.0, 0.0, 0.0, 1.6218523790860012E9, 2021-05-24 12:32:59.086
28.0, -128.7441864013672, 57.652427673339844, -102.16284942626953, -53.08039855957031, -0.04800000041723251, 0.01600000075995922, 1.055999994277954, 0.0, 0.0, 0.0, 0.0, 0.0, 1.6218523790860012E9, 2021-05-24 12:32:59.086
29.0, -44.24488830566406, 167.8485870361328, 27.649080276489258, 43.67829132080078, -0.04800000041723251, 0.01600000075995922, 1.055999994277954, 0.0, 0.0, 0.0, 0.0, 0.0, 1.6218523791017137E9, 2021-05-24 12:32:59.101
29.0, -39.5849723815918, 186.4882354736328, 20.446033477783203, 54.774574279785156, -0.04800000041723251, 0.01600000075995922, 1.055999994277954, 0.0, 0.0, 0.0, 0.0, 0.0, 1.6218523791017137E9, 2021-05-24 12:32:59.101
30.0, -93.85466003417969, 115.18704986572266, -52.953243255615234, -3.968033790588379, -0.04800000041723251, 0.01600000075995922, 1.055999994277954, 0.0, 0.0, 0.0, 0.0, 0.0, 1.6218523791024816E9, 2021-05-24 12:32:59.102
30.0, -126.47032928466797, 56.63143539428711, -99.78427124023438, -41.03792190551758, -0.04800000041723251, 0.01600000075995922, 1.055999994277954, 0.0, 0.0, 0.0, 0.0, 0.0, 1.6218523791024816E9, 2021-05-24 12:32:59.102
31.0, -41.144508361816406, 186.93702697753906, 32.907379150390625, 43.9625244140625, -0.04800000041723251, 0.01600000075995922, 1.055999994277954, 0.0, 0.0, 0.0, 0.0, 0.0, 1.6218523791160583E9, 2021-05-24 12:32:59.116
31.0, -38.664955139160156, 175.5452880859375, 16.728572845458984, 46.311180114746094, -0.04800000041723251, 0.01600000075995922, 1.055999994277954, 0.0, 0.0, 0.0, 0.0, 0.0, 1.6218523791160583E9, 2021-05-24 12:32:59.116
32.0, -86.44591522216797, 115.83405303955078, -50.56718826293945, -2.550611734390259, -0.04800000041723251, 0.01600000075995922, 1.055999994277954, 0.0, 0.0, 0.0, 0.0, 0.0, 1.6218523791317441E9, 2021-05-24 12:32:59.131
32.0, -126.4591064453125, 61.575584411621094, -95.46468353271484, -43.498775482177734, -0.04800000041723251, 0.01600000075995922, 1.055999994277954, 0.0, 0.0, 0.0, 0.0, 0.0, 1.6218523791317441E9, 2021-05-24 12:32:59.131
33.0, -42.84616470336914, 175.5939178466797, 31.284263610839844, 39.392364501953125, -0.04800000041723251, 0.01600000075995922, 1.055999994277954, 0.0, 0.0, 0.0, 0.0, 0.0, 1.6218523791324456E9, 2021-05-24 12:32:59.132
33.0, -36.5145149230957, 186.35360717773438, 20.232858657836914, 48.31202697753906, -0.04800000041723251, 0.01600000075995922, 1.055999994277954, 0.0, 0.0, 0.0, 0.0, 0.0, 1.6218523791324456E9, 2021-05-24 12:32:59.132
34.0, -86.04949188232422, 110.83380889892578, -54.344486236572266, -8.661608695983887, -0.04800000041723251, 0.01600000075995922, 1.055999994277954, 0.0, 0.0, 0.0, 0.0, 0.0, 1.621852379146108E9, 2021-05-24 12:32:59.146
34.0, -125.56153106689453, 66.72168731689453, -94.48483276367188, -58.84732437133789, -0.04800000041723251, 0.01600000075995922, 1.055999994277954, 0.0, 0.0, 0.0, 0.0, 0.0, 1.621852379146108E9, 2021-05-24 12:32:59.146
35.0, -37.08671951293945, 175.64627075195312, 37.60843276977539, 38.43495178222656, -0.04800000041723251, 0.01600000075995922, 1.055999994277954, 0.0, 0.0, 0.0, 0.0, 0.0, 1.6218523791617465E9, 2021-05-24 12:32:59.161
35.0, -32.845672607421875, 187.3035430908203, 24.907733917236328, 47.68746566772461, -0.04800000041723251, 0.01600000075995922, 1.055999994277954, 0.0, 0.0, 0.0, 0.0, 0.0, 1.6218523791617465E9, 2021-05-24 12:32:59.161
36.0, -79.69913482666016, 110.82258605957031, -43.71569061279297, -4.342023849487305, -0.04800000041723251, 0.01600000075995922, 1.055999994277954, 0.0, 0.0, 0.0, 0.0, 0.0, 1.6218523791624928E9, 2021-05-24 12:32:59.162
36.0, -125.20249938964844, 65.37158203125, -92.99261474609375, -51.434844970703125, -0.04800000041723251, 0.01600000075995922, 1.055999994277954, 0.0, 0.0, 0.0, 0.0, 0.0, 1.6218523791624928E9, 2021-05-24 12:32:59.162
37.0, -45.26961898803711, 166.89865112304688, 28.483078002929688, 36.52012252807617, -0.04800000041723251, 0.01600000075995922, 1.055999994277954, 0.0, 0.0, 0.0, 0.0, 0.0, 1.6218523791760883E9, 2021-05-24 12:32:59.176
37.0, -39.92156219482422, 180.96441650390625, 19.993505477905273, 44.34773254394531, -0.04800000041723251, 0.01600000075995922, 1.055999994277954, 0.0, 0.0, 0.0, 0.0, 0.0, 1.6218523791760883E9, 2021-05-24 12:32:59.176
38.0, -88.29716491699219, 109.7380142211914, -47.61640548706055, -9.087956428527832, -0.04800000041723251, 0.01600000075995922, 1.055999994277954, 0.0, 0.0, 0.0, 0.0, 0.0, 1.6218523791917195E9, 2021-05-24 12:32:59.191
38.0, -129.61932373046875, 61.86729431152344, -95.43850708007812, -50.39141082763672, -0.04800000041723251, 0.01600000075995922, 1.055999994277954, 0.0, 0.0, 0.0, 0.0, 0.0, 1.6218523791917195E9, 2021-05-24 12:32:59.191
39.0, -51.89672088623047, 181.33465576171875, 25.199445724487305, 28.584054946899414, -0.04800000041723251, 0.01600000075995922, 1.055999994277954, 0.0, 0.0, 0.0, 0.0, 0.0, 1.6218523791924376E9, 2021-05-24 12:32:59.192
39.0, -41.611995697021484, 176.39425659179688, 24.589841842651367, 38.31901550292969, -0.04800000041723251, 0.01600000075995922, 1.055999994277954, 0.0, 0.0, 0.0, 0.0, 0.0, 1.6218523791924376E9, 2021-05-24 12:32:59.192
40.0, -91.87251281738281, 123.39238739013672, -52.12298583984375, -6.189534664154053, -0.04800000041723251, 0.01600000075995922, 1.055999994277954, 0.0, 0.0, 0.0, 0.0, 0.0, 1.62185237920601E9, 2021-05-24 12:32:59.206
40.0, -131.65756225585938, 55.06815719604492, -98.45286560058594, -48.562599182128906, -0.04800000041723251, 0.01600000075995922, 1.055999994277954, 0.0, 0.0, 0.0, 0.0, 0.0, 1.62185237920601E9, 2021-05-24 12:32:59.206
41.0, -44.196266174316406, 181.79092407226562, 28.438199996948242, 37.50371551513672, -0.04800000041723251, 0.01600000075995922, 1.055999994277954, 0.0, 0.0, 0.0, 0.0, 0.0, 1.6218523792214692E9, 2021-05-24 12:32:59.221
41.0, -36.080684661865234, 177.72190856933594, 19.144548416137695, 33.21031188964844, -0.04800000041723251, 0.01600000075995922, 1.055999994277954, 0.0, 0.0, 0.0, 0.0, 0.0, 1.6218523792214692E9, 2021-05-24 12:32:59.221
42.0, -84.1234359741211, 119.47671508789062, -45.596858978271484, -7.1357293128967285, -0.04800000041723251, 0.01600000075995922, 1.055999994277954, 0.0, 0.0, 0.0, 0.0, 0.0, 1.621852379236781E9, 2021-05-24 12:32:59.236
42.0, -122.51725006103516, 55.999393463134766, -93.51619720458984, -53.20381546020508, -0.04800000041723251, 0.01600000075995922, 1.055999994277954, 0.0, 0.0, 0.0, 0.0, 0.0, 1.621852379236781E9, 2021-05-24 12:32:59.236
43.0, -41.395084381103516, 179.98081970214844, 28.385841369628906, 37.769248962402344, -0.04800000041723251, 0.01600000075995922, 1.055999994277954, 0.0, 0.0, 0.0, 0.0, 0.0, 1.6218523792374945E9, 2021-05-24 12:32:59.237
43.0, -38.96040725708008, 179.29641723632812, 17.921600341796875, 41.07905960083008, -0.04800000041723251, 0.01600000075995922, 1.055999994277954, 0.0, 0.0, 0.0, 0.0, 0.0, 1.6218523792374945E9, 2021-05-24 12:32:59.237
44.0, -89.16108703613281, 105.98689270019531, -53.31975555419922, -3.530465602874756, -0.04800000041723251, 0.01600000075995922, 1.055999994277954, 0.0, 0.0, 0.0, 0.0, 0.0, 1.6218523792517984E9, 2021-05-24 12:32:59.251
44.0, -131.26113891601562, 62.77983093261719, -97.45057678222656, -49.20960235595703, -0.04800000041723251, 0.01600000075995922, 1.055999994277954, 0.0, 0.0, 0.0, 0.0, 0.0, 1.6218523792517984E9, 2021-05-24 12:32:59.251
45.0, -49.0805778503418, 173.80250549316406, 32.03598403930664, 39.65789794921875, -0.04800000041723251, 0.01600000075995922, 1.055999994277954, 0.0, 0.0, 0.0, 0.0, 0.0, 1.6218523792525368E9, 2021-05-24 12:32:59.252
45.0, -41.9560661315918, 178.7354278564453, 19.31658363342285, 48.58504104614258, -0.04800000041723251, 0.01600000075995922, 1.055999994277954, 0.0, 0.0, 0.0, 0.0, 0.0, 1.6218523792525368E9, 2021-05-24 12:32:59.252
46.0, -85.39500427246094, 109.90257263183594, -47.19379806518555, -4.155028820037842, -0.04800000041723251, 0.01600000075995922, 1.055999994277954, 0.0, 0.0, 0.0, 0.0, 0.0, 1.6218523792660403E9, 2021-05-24 12:32:59.266
46.0, -132.8169403076172, 53.751712799072266, -93.67701721191406, -50.33531188964844, -0.04800000041723251, 0.01600000075995922, 1.055999994277954, 0.0, 0.0, 0.0, 0.0, 0.0, 1.6218523792660403E9, 2021-05-24 12:32:59.266
47.0, -53.77041244506836, 174.63650512695312, 26.070842742919922, 37.832828521728516, -0.04800000041723251, 0.01600000075995922, 1.055999994277954, 0.0, 0.0, 0.0, 0.0, 0.0, 1.621852379282432E9, 2021-05-24 12:32:59.282
47.0, -46.23451232910156, 179.66665649414062, 13.070950508117676, 41.62134552001953, -0.04800000041723251, 0.01600000075995922, 1.055999994277954, 0.0, 0.0, 0.0, 0.0, 0.0, 1.621852379282432E9, 2021-05-24 12:32:59.282
48.0, -97.35520935058594, 109.44630432128906, -55.85166549682617, -14.940899848937988, -0.04800000041723251, 0.01600000075995922, 1.055999994277954, 0.0, 0.0, 0.0, 0.0, 0.0, 1.6218523792831955E9, 2021-05-24 12:32:59.283
48.0, -139.92274475097656, 55.14669418334961, -101.317626953125, -52.3548583984375, -0.04800000041723251, 0.01600000075995922, 1.055999994277954, 0.0, 0.0, 0.0, 0.0, 0.0, 1.6218523792831955E9, 2021-05-24 12:32:59.283
49.0, -56.94184494018555, 179.73023986816406, 25.173267364501953, 32.301517486572266, -0.04800000041723251, 0.01600000075995922, 1.055999994277954, 0.0, 0.0, 0.0, 0.0, 0.0, 1.6218523792960122E9, 2021-05-24 12:32:59.296
49.0, -50.105308532714844, 173.70526123046875, 17.300777435302734, 41.46052932739258, -0.04800000041723251, 0.01600000075995922, 1.055999994277954, 0.0, 0.0, 0.0, 0.0, 0.0, 1.6218523792960122E9, 2021-05-24 12:32:59.296
50.0, -95.2197265625, 105.86347961425781, -53.82463836669922, -9.529265403747559, -0.04800000041723251, 0.01600000075995922, 1.055999994277954, 0.0, 0.0, 0.0, 0.0, 0.0, 1.6218523793118052E9, 2021-05-24 12:32:59.311
50.0, -134.6008758544922, 63.65870666503906, -100.52477264404297, -53.15519714355469, -0.04800000041723251, 0.01600000075995922, 1.055999994277954, 0.0, 0.0, 0.0, 0.0, 0.0, 1.6218523793118052E9, 2021-05-24 12:32:59.311
51.0, -50.51295852661133, 176.08384704589844, 23.531450271606445, 38.539669036865234, -0.04800000041723251, 0.01600000075995922, 1.055999994277954, 0.0, 0.0, 0.0, 0.0, 0.0, 1.6218523793125525E9, 2021-05-24 12:32:59.312
51.0, -46.17467498779297, 177.22076416015625, 10.7073335647583, 41.42313003540039, -0.04800000041723251, 0.01600000075995922, 1.055999994277954, 0.0, 0.0, 0.0, 0.0, 0.0, 1.6218523793125525E9, 2021-05-24 12:32:59.312
52.0, -88.36822509765625, 120.38176727294922, -58.27138137817383, -5.146102428436279, -0.04800000041723251, 0.01600000075995922, 1.055999994277954, 0.0, 0.0, 0.0, 0.0, 0.0, 1.6218523793259933E9, 2021-05-24 12:32:59.325
52.0, -137.74612426757812, 50.61019515991211, -108.0831069946289, -55.89654541015625, -0.04800000041723251, 0.01600000075995922, 1.055999994277954, 0.0, 0.0, 0.0, 0.0, 0.0, 1.6218523793259933E9, 2021-05-24 12:32:59.325
53.0, -52.46892547607422, 180.05935668945312, 21.88963508605957, 37.70193099975586, -0.04800000041723251, 0.01600000075995922, 1.055999994277954, 0.0, 0.0, 0.0, 0.0, 0.0, 1.6218523793418748E9, 2021-05-24 12:32:59.341
53.0, -40.11977767944336, 174.7973175048828, 22.746070861816406, 46.87964630126953, -0.04800000041723251, 0.01600000075995922, 1.055999994277954, 0.0, 0.0, 0.0, 0.0, 0.0, 1.6218523793418748E9, 2021-05-24 12:32:59.341
54.0, -86.06818389892578, 119.51785278320312, -54.79701232910156, -9.682600975036621, -0.04800000041723251, 0.01600000075995922, 1.055999994277954, 0.0, 0.0, 0.0, 0.0, 0.0, 1.621852379342655E9, 2021-05-24 12:32:59.342
54.0, -131.14146423339844, 59.81034851074219, -100.62948608398438, -51.958431243896484, -0.04800000041723251, 0.01600000075995922, 1.055999994277954, 0.0, 0.0, 0.0, 0.0, 0.0, 1.621852379342655E9, 2021-05-24 12:32:59.342
55.0, -48.66170883178711, 176.7869415283203, 29.451711654663086, 32.9410400390625, -0.04800000041723251, 0.01600000075995922, 1.055999994277954, 0.0, 0.0, 0.0, 0.0, 0.0, 1.6218523793561628E9, 2021-05-24 12:32:59.356
55.0, -42.475914001464844, 174.94691467285156, 21.496944427490234, 41.509151458740234, -0.04800000041723251, 0.01600000075995922, 1.055999994277954, 0.0, 0.0, 0.0, 0.0, 0.0, 1.6218523793561628E9, 2021-05-24 12:32:59.356
56.0, -90.97867584228516, 114.02394104003906, -44.43001174926758, -6.309211254119873, -0.04800000041723251, 0.01600000075995922, 1.055999994277954, 0.0, 0.0, 0.0, 0.0, 0.0, 1.6218523793718133E9, 2021-05-24 12:32:59.371
56.0, -134.1745147705078, 68.17650604248047, -96.72877502441406, -52.16412353515625, -0.04800000041723251, 0.01600000075995922, 1.055999994277954, 0.0, 0.0, 0.0, 0.0, 0.0, 1.6218523793718133E9, 2021-05-24 12:32:59.371
57.0, -57.708526611328125, 171.85775756835938, 26.86370086669922, 30.962631225585938, -0.04800000041723251, 0.01600000075995922, 1.055999994277954, 0.0, 0.0, 0.0, 0.0, 0.0, 1.6218523793725655E9, 2021-05-24 12:32:59.372
57.0, -49.56676483154297, 184.72300720214844, 23.684785842895508, 46.382240295410156, -0.04800000041723251, 0.01600000075995922, 1.055999994277954, 0.0, 0.0, 0.0, 0.0, 0.0, 1.6218523793725655E9, 2021-05-24 12:32:59.372
58.0, -97.52349853515625, 112.35220336914062, -53.98545455932617, -7.906148433685303, -0.04800000041723251, 0.01600000075995922, 1.055999994277954, 0.0, 0.0, 0.0, 0.0, 0.0, 1.6218523793863044E9, 2021-05-24 12:32:59.386
58.0, -141.4748077392578, 59.95994567871094, -100.0722427368164, -52.37730026245117, -0.04800000041723251, 0.01600000075995922, 1.055999994277954, 0.0, 0.0, 0.0, 0.0, 0.0, 1.6218523793863044E9, 2021-05-24 12:32:59.386
59.0, -56.126548767089844, 174.60658264160156, 27.779977798461914, 42.16737365722656, -0.04800000041723251, 0.01600000075995922, 1.055999994277954, 0.0, 0.0, 0.0, 0.0, 0.0, 1.6218523794017444E9, 2021-05-24 12:32:59.401
59.0, -52.042579650878906, 184.7491912841797, 15.520585060119629, 45.03587341308594, -0.04800000041723251, 0.01600000075995922, 1.055999994277954, 0.0, 0.0, 0.0, 0.0, 0.0, 1.6218523794017444E9, 2021-05-24 12:32:59.401
60.0, -96.86154174804688, 114.80558013916016, -55.7880859375, -4.439261436462402, -0.04800000041723251, 0.01600000075995922, 1.055999994277954, 0.0, 0.0, 0.0, 0.0, 0.0, 1.621852379402481E9, 2021-05-24 12:32:59.402
60.0, -137.9817352294922, 58.85667419433594, -99.9862289428711, -47.27607345581055, -0.04800000041723251, 0.01600000075995922, 1.055999994277954, 0.0, 0.0, 0.0, 0.0, 0.0, 1.621852379402481E9, 2021-05-24 12:32:59.402
61.0, -56.788509368896484, 173.97079467773438, 30.712059020996094, 36.23588943481445, -0.04800000041723251, 0.01600000075995922, 1.055999994277954, 0.0, 0.0, 0.0, 0.0, 0.0, 1.6218523794324577E9, 2021-05-24 12:32:59.432
61.0, -50.079132080078125, 182.89419555664062, 17.181100845336914, 42.129974365234375, -0.04800000041723251, 0.01600000075995922, 1.055999994277954, 0.0, 0.0, 0.0, 0.0, 0.0, 1.6218523794324577E9, 2021-05-24 12:32:59.432
62.0, -83.31188201904297, 107.46041870117188, -48.54389953613281, -4.24104642868042, -0.04800000041723251, 0.01600000075995922, 1.055999994277954, 0.0, 0.0, 0.0, 0.0, 0.0, 1.621852379433185E9, 2021-05-24 12:32:59.433
62.0, -133.13482666015625, 62.09917068481445, -99.82914733886719, -46.599151611328125, -0.04800000041723251, 0.01600000075995922, 1.055999994277954, 0.0, 0.0, 0.0, 0.0, 0.0, 1.621852379433185E9, 2021-05-24 12:32:59.433
63.0, -48.17552185058594, 162.33596801757812, 24.163494110107422, 38.89870071411133, -0.04800000041723251, 0.01600000075995922, 1.055999994277954, 0.0, 0.0, 0.0, 0.0, 0.0, 1.6218523794338508E9, 2021-05-24 12:32:59.433
63.0, -36.907203674316406, 179.20291137695312, 19.5073184967041, 51.40118408203125, -0.04800000041723251, 0.01600000075995922, 1.055999994277954, 0.0, 0.0, 0.0, 0.0, 0.0, 1.6218523794338508E9, 2021-05-24 12:32:59.433
64.0, -86.43096160888672, 105.63908386230469, -55.50385665893555, -10.333343505859375, -0.04800000041723251, 0.01600000075995922, 1.055999994277954, 0.0, 0.0, 0.0, 0.0, 0.0, 1.6218523794460812E9, 2021-05-24 12:32:59.446
64.0, -130.21022033691406, 53.688133239746094, -94.12580108642578, -53.59650802612305, -0.04800000041723251, 0.01600000075995922, 1.055999994277954, 0.0, 0.0, 0.0, 0.0, 0.0, 1.6218523794460812E9, 2021-05-24 12:32:59.446
65.0, -44.71611404418945, 173.56314086914062, 30.94019317626953, 35.95539855957031, -0.04800000041723251, 0.01600000075995922, 1.055999994277954, 0.0, 0.0, 0.0, 0.0, 0.0, 1.621852379462378E9, 2021-05-24 12:32:59.462
65.0, -44.12520980834961, 169.7783660888672, 15.43830680847168, 38.94731903076172, -0.04800000041723251, 0.01600000075995922, 1.055999994277954, 0.0, 0.0, 0.0, 0.0, 0.0, 1.621852379462378E9, 2021-05-24 12:32:59.462
66.0, -91.8089370727539, 108.38043212890625, -54.18741226196289, -13.205586433410645, -0.04800000041723251, 0.01600000075995922, 1.055999994277954, 0.0, 0.0, 0.0, 0.0, 0.0, 1.621852379463115E9, 2021-05-24 12:32:59.463
66.0, -128.23182678222656, 49.114234924316406, -103.43441009521484, -58.061946868896484, -0.04800000041723251, 0.01600000075995922, 1.055999994277954, 0.0, 0.0, 0.0, 0.0, 0.0, 1.621852379463115E9, 2021-05-24 12:32:59.463
67.0, -47.356483459472656, 167.32125854492188, 22.618915557861328, 30.330589294433594, -0.04800000041723251, 0.01600000075995922, 1.055999994277954, 0.0, 0.0, 0.0, 0.0, 0.0, 1.6218523794760535E9, 2021-05-24 12:32:59.476
67.0, -42.91722106933594, 175.5004119873047, 9.940653800964355, 42.19729232788086, -0.04800000041723251, 0.01600000075995922, 1.055999994277954, 0.0, 0.0, 0.0, 0.0, 0.0, 1.6218523794760535E9, 2021-05-24 12:32:59.476
68.0, -97.19812774658203, 103.65693664550781, -61.67095184326172, -17.936559677124023, -0.04800000041723251, 0.01600000075995922, 1.055999994277954, 0.0, 0.0, 0.0, 0.0, 0.0, 1.6218523794916685E9, 2021-05-24 12:32:59.491
68.0, -138.2884063720703, 49.57050323486328, -111.59861755371094, -56.244354248046875, -0.04800000041723251, 0.01600000075995922, 1.055999994277954, 0.0, 0.0, 0.0, 0.0, 0.0, 1.6218523794916685E9, 2021-05-24 12:32:59.491
69.0, -51.504032135009766, 166.2666015625, 18.097375869750977, 38.90991973876953, -0.04800000041723251, 0.01600000075995922, 1.055999994277954, 0.0, 0.0, 0.0, 0.0, 0.0, 1.6218523794923916E9, 2021-05-24 12:32:59.492
69.0, -47.62201690673828, 174.7860870361328, 7.52841854095459, 40.28994369506836, -0.04800000041723251, 0.01600000075995922, 1.055999994277954, 0.0, 0.0, 0.0, 0.0, 0.0, 1.6218523794923916E9, 2021-05-24 12:32:59.492
70.0, -97.673095703125, 100.90437316894531, -59.247493743896484, -12.603463172912598, -0.04800000041723251, 0.01600000075995922, 1.040000081062317, 0.0, 0.0, 0.0, 0.0, 0.0, 1.6218523795224073E9, 2021-05-24 12:32:59.522
70.0, -135.4348602294922, 48.39243698120117, -110.77583312988281, -52.100547790527344, -0.04800000041723251, 0.01600000075995922, 1.040000081062317, 0.0, 0.0, 0.0, 0.0, 0.0, 1.6218523795224073E9, 2021-05-24 12:32:59.522
71.0, -49.686439514160156, 171.7044219970703, 18.415267944335938, 36.033935546875, -0.04800000041723251, 0.01600000075995922, 1.040000081062317, 0.0, 0.0, 0.0, 0.0, 0.0, 1.6218523795232005E9, 2021-05-24 12:32:59.523
71.0, -44.861968994140625, 173.60427856445312, 16.747272491455078, 38.117061614990234, -0.04800000041723251, 0.01600000075995922, 1.040000081062317, 0.0, 0.0, 0.0, 0.0, 0.0, 1.6218523795232005E9, 2021-05-24 12:32:59.523
72.0, -96.82414245605469, 118.8521499633789, -56.966156005859375, -9.394628524780273, -0.04800000041723251, 0.01600000075995922, 1.040000081062317, 0.0, 0.0, 0.0, 0.0, 0.0, 1.621852379523844E9, 2021-05-24 12:32:59.523
72.0, -138.22483825683594, 53.51609802246094, -103.49799346923828, -51.524600982666016, -0.04800000041723251, 0.01600000075995922, 1.040000081062317, 0.0, 0.0, 0.0, 0.0, 0.0, 1.621852379523844E9, 2021-05-24 12:32:59.523
73.0, -52.543724060058594, 175.65374755859375, 27.099315643310547, 37.62339401245117, -0.04800000041723251, 0.01600000075995922, 1.040000081062317, 0.0, 0.0, 0.0, 0.0, 0.0, 1.62185237953599E9, 2021-05-24 12:32:59.535
73.0, -41.1519889831543, 171.2294464111328, 16.896867752075195, 39.773834228515625, -0.04800000041723251, 0.01600000075995922, 1.040000081062317, 0.0, 0.0, 0.0, 0.0, 0.0, 1.62185237953599E9, 2021-05-24 12:32:59.535
74.0, -86.60673522949219, 105.80364227294922, -52.777469635009766, -14.133082389831543, -0.04800000041723251, 0.01600000075995922, 1.040000081062317, 0.0, 0.0, 0.0, 0.0, 0.0, 1.6218523795517933E9, 2021-05-24 12:32:59.551
74.0, -128.1495361328125, 61.59054183959961, -103.19132232666016, -62.1907958984375, -0.04800000041723251, 0.01600000075995922, 1.040000081062317, 0.0, 0.0, 0.0, 0.0, 0.0, 1.6218523795517933E9, 2021-05-24 12:32:59.551
