Sample Index, EXG Channel 0, EXG Channel 1, EXG Channel 2, EXG Channel 3, Accel Channel 0, Accel Channel 1, Accel Channel 2, Other, Other, Other, Other, Other, Timestamp, Timestamp (Formatted)
0.0, -133.51443481445312, 101.27275085449219, -52.319332122802734, -15.457006454467773, 0.0, 0.0, 0.0, 0.0, 0.0, 0.0, 0.0, 0.0, 1.621851629217882E9, 2021-05-24 12:20:29.217
1.0, -128.20376586914062, 109.2275161743164, -46.971275329589844, -11.002785682678223, 0.0, 0.01600000075995922, 0.0, 0.0, 0.0, 0.0, 0.0, 0.0, 1.621851629231193E9, 2021-05-24 12:20:29.231
1.0, -125.14826965332031, 103.64384460449219, -48.37373733520508, -19.27544403076172, 0.0, 0.01600000075995922, 0.0, 0.0, 0.0, 0.0, 0.0, 0.0, 1.621851629231193E9, 2021-05-24 12:20:29.231
2.0, -125.01363372802734, 103.30725860595703, -45.03774642944336, -12.70818042755127, -0.04800000041723251, 0.01600000075995922, 0.0, 0.0, 0.0, 0.0, 0.0, 0.0, 1.6218516292479095E9, 2021-05-24 12:20:29.247
2.0, -118.0013198852539, 102.06561279296875, -48.06706237792969, -14.278938293457031, -0.04800000041723251, 0.01600000075995922, 0.0, 0.0, 0.0, 0.0, 0.0, 0.0, 1.6218516292479095E9, 2021-05-24 12:20:29.247
3.0, -113.10205078125, 110.33452606201172, -33.46275329589844, -10.65123462677002, -0.04800000041723251, 0.01600000075995922, 0.0, 0.0, 0.0, 0.0, 0.0, 0.0, 1.6218516292486432E9, 2021-05-24 12:20:29.248
3.0, -115.6713638305664, 104.58256530761719, -41.60825729370117, -21.837276458740234, -0.04800000041723251, 0.01600000075995922, 0.0, 0.0, 0.0, 0.0, 0.0, 0.0, 1.6218516292486432E9, 2021-05-24 12:20:29.248
4.0, -117.52261352539062, 99.89273071289062, -42.45721435546875, -19.873828887939453, -0.04800000041723251, 0.01600000075995922, 0.0, 0.0, 0.0, 0.0, 0.0, 0.0, 1.6218516292610462E9, 2021-05-24 12:20:29.261
4.0, -110.42428588867188, 98.59872436523438, -36.6566276550293, -16.608896255493164, -0.04800000041723251, 0.01600000075995922, 0.0, 0.0, 0.0, 0.0, 0.0, 0.0, 1.6218516292610462E9, 2021-05-24 12:20:29.261
5.0, -106.01868438720703, 107.86993408203125, -36.31629943847656, -8.788764953613281, -0.04800000041723251, 0.01600000075995922, 0.0, 0.0, 0.0, 0.0, 0.0, 0.0, 1.6218516292774444E9, 2021-05-24 12:20:29.277
5.0, -115.13282012939453, 106.0897445678711, -44.304725646972656, -16.99410629272461, -0.04800000041723251, 0.01600000075995922, 0.0, 0.0, 0.0, 0.0, 0.0, 0.0, 1.6218516292774444E9, 2021-05-24 12:20:29.277
6.0, -121.10169982910156, 98.59498596191406, -52.43900680541992, -18.841615676879883, -0.04800000041723251, 0.01600000075995922, 0.0, 0.0, 0.0, 0.0, 0.0, 0.0, 1.6218516292780912E9, 2021-05-24 12:20:29.278
6.0, -110.07273864746094, 99.47760009765625, -44.73855209350586, -10.183747291564941, -0.04800000041723251, 0.01600000075995922, 0.0, 0.0, 0.0, 0.0, 0.0, 0.0, 1.6218516292780912E9, 2021-05-24 12:20:29.278
7.0, -107.80261993408203, 99.59353637695312, -48.19047927856445, -12.31549072265625, -0.04800000041723251, 0.01600000075995922, 0.0, 0.0, 0.0, 0.0, 0.0, 0.0, 1.621851629290964E9, 2021-05-24 12:20:29.290
7.0, -120.46965789794922, 97.74976348876953, -51.821922302246094, -16.855728149414062, -0.04800000041723251, 0.01600000075995922, 0.0, 0.0, 0.0, 0.0, 0.0, 0.0, 1.621851629290964E9, 2021-05-24 12:20:29.290
8.0, -122.30968475341797, 100.58087158203125, -47.88380813598633, -16.388240814208984, -0.04800000041723251, 0.01600000075995922, 0.0, 0.0, 0.0, 0.0, 0.0, 0.0, 1.6218516293067896E9, 2021-05-24 12:20:29.306
8.0, -124.66956329345703, 100.47988891601562, -42.292659759521484, -21.88215446472168, -0.04800000041723251, 0.01600000075995922, 0.0, 0.0, 0.0, 0.0, 0.0, 0.0, 1.6218516293067896E9, 2021-05-24 12:20:29.306
9.0, -121.3522720336914, 107.58196258544922, -43.80731964111328, -20.894821166992188, -0.04800000041723251, 0.01600000075995922, 0.0, 0.0, 0.0, 0.0, 0.0, 0.0, 1.6218516293074272E9, 2021-05-24 12:20:29.307
9.0, -125.39510345458984, 101.19047546386719, -55.228973388671875, -19.440000534057617, -0.04800000041723251, 0.01600000075995922, 0.0, 0.0, 0.0, 0.0, 0.0, 0.0, 1.6218516293074272E9, 2021-05-24 12:20:29.307
10.0, -125.35396575927734, 100.9361572265625, -46.4215087890625, -19.432519912719727, -0.04800000041723251, 0.01600000075995922, 1.040000081062317, 0.0, 0.0, 0.0, 0.0, 0.0, 1.6218516293374662E9, 2021-05-24 12:20:29.337
10.0, -121.49064636230469, 103.05294036865234, -40.83409881591797, -12.723139762878418, -0.04800000041723251, 0.01600000075995922, 1.040000081062317, 0.0, 0.0, 0.0, 0.0, 0.0, 1.6218516293374662E9, 2021-05-24 12:20:29.337
11.0, -116.86439514160156, 105.2894058227539, -39.07260513305664, -15.281230926513672, -0.04800000041723251, 0.03200000151991844, 1.040000081062317, 0.0, 0.0, 0.0, 0.0, 0.0, 1.6218516293381786E9, 2021-05-24 12:20:29.338
11.0, -115.09168243408203, 101.45226287841797, -40.64710235595703, -21.74751853942871, -0.04800000041723251, 0.03200000151991844, 1.040000081062317, 0.0, 0.0, 0.0, 0.0, 0.0, 1.6218516293381786E9, 2021-05-24 12:20:29.338
12.0, -114.47459411621094, 97.00552368164062, -43.44828796386719, -23.36689567565918, -0.03200000151991844, 0.03200000151991844, 1.040000081062317, 0.0, 0.0, 0.0, 0.0, 0.0, 1.6218516293389556E9, 2021-05-24 12:20:29.338
12.0, -108.99190521240234, 101.29145050048828, -36.660369873046875, -13.224286079406738, -0.03200000151991844, 0.03200000151991844, 1.040000081062317, 0.0, 0.0, 0.0, 0.0, 0.0, 1.6218516293389556E9, 2021-05-24 12:20:29.338
13.0, -109.69126892089844, 109.75110626220703, -40.94255447387695, -9.540484428405762, -0.03200000151991844, 0.03200000151991844, 1.040000081062317, 0.0, 0.0, 0.0, 0.0, 0.0, 1.6218516293510296E9, 2021-05-24 12:20:29.351
13.0, -116.58016204833984, 103.21002197265625, -47.00493240356445, -14.701546669006348, -0.03200000151991844, 0.03200000151991844, 1.040000081062317, 0.0, 0.0, 0.0, 0.0, 0.0, 1.6218516293510296E9, 2021-05-24 12:20:29.351
14.0, -116.43804168701172, 100.4948501586914, -42.73770523071289, -11.60116958618164, -0.03200000151991844, 0.03200000151991844, 1.040000081062317, 0.0, 0.0, 0.0, 0.0, 0.0, 1.6218516293666835E9, 2021-05-24 12:20:29.366
14.0, -118.39027404785156, 99.48133850097656, -44.31968307495117, -13.381361961364746, -0.03200000151991844, 0.03200000151991844, 1.040000081062317, 0.0, 0.0, 0.0, 0.0, 0.0, 1.6218516293666835E9, 2021-05-24 12:20:29.366
15.0, -112.28675842285156, 102.18528747558594, -45.12002182006836, -21.324909210205078, -0.03200000151991844, 0.03200000151991844, 1.040000081062317, 0.0, 0.0, 0.0, 0.0, 0.0, 1.6218516293673766E9, 2021-05-24 12:20:29.367
15.0, -118.44637298583984, 93.63213348388672, -51.94533920288086, -13.598276138305664, -0.03200000151991844, 0.03200000151991844, 1.040000081062317, 0.0, 0.0, 0.0, 0.0, 0.0, 1.6218516293673766E9, 2021-05-24 12:20:29.367
16.0, -120.0433120727539, 97.33463287353516, -44.69367599487305, -8.074443817138672, -0.03200000151991844, 0.03200000151991844, 1.040000081062317, 0.0, 0.0, 0.0, 0.0, 0.0, 1.6218516293811762E9, 2021-05-24 12:20:29.381
16.0, -119.33646392822266, 103.79718017578125, -41.83264923095703, -8.306317329406738, -0.03200000151991844, 0.03200000151991844, 1.040000081062317, 0.0, 0.0, 0.0, 0.0, 0.0, 1.6218516293811762E9, 2021-05-24 12:20:29.381
17.0, -120.27144622802734, 103.04920196533203, -40.36286926269531, -8.463393211364746, -0.03200000151991844, 0.03200000151991844, 1.040000081062317, 0.0, 0.0, 0.0, 0.0, 0.0, 1.6218516293966813E9, 2021-05-24 12:20:29.396
17.0, -122.010498046875, 105.12858581542969, -52.308109283447266, -19.9187068939209, -0.03200000151991844, 0.03200000151991844, 1.040000081062317, 0.0, 0.0, 0.0, 0.0, 0.0, 1.6218516293966813E9, 2021-05-24 12:20:29.396
18.0, -127.92701721191406, 98.32196807861328, -49.454566955566406, -13.968525886535645, -0.03200000151991844, 0.03200000151991844, 1.040000081062317, 0.0, 0.0, 0.0, 0.0, 0.0, 1.6218516293973904E9, 2021-05-24 12:20:29.397
18.0, -123.64482879638672, 105.33428192138672, -38.14884948730469, -19.290403366088867, -0.03200000151991844, 0.03200000151991844, 1.040000081062317, 0.0, 0.0, 0.0, 0.0, 0.0, 1.6218516293973904E9, 2021-05-24 12:20:29.397
19.0, -116.12763214111328, 106.59088897705078, -37.6776237487793, -16.403202056884766, -0.03200000151991844, 0.03200000151991844, 1.040000081062317, 0.0, 0.0, 0.0, 0.0, 0.0, 1.6218516294110115E9, 2021-05-24 12:20:29.411
19.0, -120.6267318725586, 99.31304168701172, -45.32571792602539, -23.381855010986328, -0.03200000151991844, 0.03200000151991844, 1.040000081062317, 0.0, 0.0, 0.0, 0.0, 0.0, 1.6218516294110115E9, 2021-05-24 12:20:29.411
20.0, -120.52949523925781, 98.23221588134766, -45.92036056518555, -29.055282592773438, -0.03200000151991844, 0.03200000151991844, 1.055999994277954, 0.0, 0.0, 0.0, 0.0, 0.0, 1.6218516294266765E9, 2021-05-24 12:20:29.426
20.0, -115.88079833984375, 102.24886322021484, -38.130149841308594, -20.838722229003906, -0.03200000151991844, 0.03200000151991844, 1.055999994277954, 0.0, 0.0, 0.0, 0.0, 0.0, 1.6218516294266765E9, 2021-05-24 12:20:29.426
21.0, -110.86559295654297, 104.79947662353516, -41.35394287109375, -19.540977478027344, -0.03200000151991844, 0.03200000151991844, 1.055999994277954, 0.0, 0.0, 0.0, 0.0, 0.0, 1.621851629427398E9, 2021-05-24 12:20:29.427
21.0, -116.74845886230469, 102.41716003417969, -48.55699157714844, -18.467626571655273, -0.03200000151991844, 0.03200000151991844, 1.055999994277954, 0.0, 0.0, 0.0, 0.0, 0.0, 1.621851629427398E9, 2021-05-24 12:20:29.427
22.0, -115.2898941040039, 105.58485412597656, -53.19820785522461, -16.44059944152832, -0.04800000041723251, 0.03200000151991844, 1.055999994277954, 0.0, 0.0, 0.0, 0.0, 0.0, 1.6218516294410195E9, 2021-05-24 12:20:29.441
22.0, -114.1043472290039, 101.45600891113281, -47.887550354003906, -11.93402099609375, -0.04800000041723251, 0.03200000151991844, 1.055999994277954, 0.0, 0.0, 0.0, 0.0, 0.0, 1.6218516294410195E9, 2021-05-24 12:20:29.441
23.0, -110.22232818603516, 103.64759063720703, -47.80527114868164, -12.820377349853516, -0.04800000041723251, 0.03200000151991844, 1.055999994277954, 0.0, 0.0, 0.0, 0.0, 0.0, 1.6218516294568515E9, 2021-05-24 12:20:29.456
23.0, -115.2487564086914, 98.79319763183594, -53.34406280517578, -15.827256202697754, -0.04800000041723251, 0.03200000151991844, 1.055999994277954, 0.0, 0.0, 0.0, 0.0, 0.0, 1.6218516294568515E9, 2021-05-24 12:20:29.456
24.0, -119.7029800415039, 104.17491149902344, -53.25056457519531, -20.87986183166504, -0.04800000041723251, 0.03200000151991844, 1.055999994277954, 0.0, 0.0, 0.0, 0.0, 0.0, 1.6218516294575877E9, 2021-05-24 12:20:29.457
24.0, -119.20557403564453, 105.16972351074219, -46.50752639770508, -25.94368553161621, -0.04800000041723251, 0.03200000151991844, 1.055999994277954, 0.0, 0.0, 0.0, 0.0, 0.0, 1.6218516294575877E9, 2021-05-24 12:20:29.457
25.0, -115.02062225341797, 107.79513549804688, -44.5852165222168, -15.75993824005127, -0.04800000041723251, 0.03200000151991844, 1.055999994277954, 0.0, 0.0, 0.0, 0.0, 0.0, 1.6218516294710543E9, 2021-05-24 12:20:29.471
25.0, -119.53842163085938, 108.47579956054688, -50.976707458496094, -18.68828010559082, -0.04800000041723251, 0.03200000151991844, 1.055999994277954, 0.0, 0.0, 0.0, 0.0, 0.0, 1.6218516294710543E9, 2021-05-24 12:20:29.471
26.0, -118.39027404785156, 108.09432983398438, -47.737953186035156, -20.169281005859375, -0.04800000041723251, 0.03200000151991844, 1.055999994277954, 0.0, 0.0, 0.0, 0.0, 0.0, 1.6218516294868445E9, 2021-05-24 12:20:29.486
26.0, -119.6805419921875, 107.6193618774414, -42.920963287353516, -13.100869178771973, -0.04800000041723251, 0.03200000151991844, 1.055999994277954, 0.0, 0.0, 0.0, 0.0, 0.0, 1.6218516294868445E9, 2021-05-24 12:20:29.486
27.0, -116.16503143310547, 104.32450866699219, -42.65542984008789, -21.654020309448242, -0.04800000041723251, 0.03200000151991844, 1.055999994277954, 0.0, 0.0, 0.0, 0.0, 0.0, 1.6218516294874208E9, 2021-05-24 12:20:29.487
27.0, -118.09107971191406, 102.59667205810547, -50.99540710449219, -21.12669563293457, -0.04800000041723251, 0.03200000151991844, 1.055999994277954, 0.0, 0.0, 0.0, 0.0, 0.0, 1.6218516294874208E9, 2021-05-24 12:20:29.487
28.0, -121.68512725830078, 100.92868041992188, -48.732765197753906, -23.172420501708984, -0.04800000041723251, 0.03200000151991844, 1.055999994277954, 0.0, 0.0, 0.0, 0.0, 0.0, 1.6218516295010235E9, 2021-05-24 12:20:29.501
28.0, -117.22716522216797, 105.96258544921875, -44.22618865966797, -21.093036651611328, -0.04800000041723251, 0.03200000151991844, 1.055999994277954, 0.0, 0.0, 0.0, 0.0, 0.0, 1.6218516295010235E9, 2021-05-24 12:20:29.501
29.0, -116.84569549560547, 106.37397766113281, -47.55095672607422, -16.096529006958008, -0.04800000041723251, 0.03200000151991844, 1.055999994277954, 0.0, 0.0, 0.0, 0.0, 0.0, 1.621851629516434E9, 2021-05-24 12:20:29.516
29.0, -113.13571166992188, 104.41426849365234, -52.65966033935547, -15.8309965133667, -0.04800000041723251, 0.03200000151991844, 1.055999994277954, 0.0, 0.0, 0.0, 0.0, 0.0, 1.621851629516434E9, 2021-05-24 12:20:29.516
30.0, -121.7711410522461, 96.89706420898438, -58.179752349853516, -18.778038024902344, -0.04800000041723251, 0.03200000151991844, 1.055999994277954, 0.0, 0.0, 0.0, 0.0, 0.0, 1.6218516295317097E9, 2021-05-24 12:20:29.531
30.0, -117.6198501586914, 107.67546081542969, -50.269866943359375, -22.338422775268555, -0.04800000041723251, 0.03200000151991844, 1.055999994277954, 0.0, 0.0, 0.0, 0.0, 0.0, 1.6218516295317097E9, 2021-05-24 12:20:29.531
31.0, -116.96537017822266, 108.59921264648438, -51.10012435913086, -9.892035484313965, -0.04800000041723251, 0.03200000151991844, 1.055999994277954, 0.0, 0.0, 0.0, 0.0, 0.0, 1.6218516295323777E9, 2021-05-24 12:20:29.532
31.0, -122.56400299072266, 98.72962188720703, -56.754852294921875, -19.264225006103516, -0.04800000041723251, 0.03200000151991844, 1.055999994277954, 0.0, 0.0, 0.0, 0.0, 0.0, 1.6218516295323777E9, 2021-05-24 12:20:29.532
32.0, -123.06888580322266, 95.05703735351562, -56.61647415161133, -23.516490936279297, -0.03200000151991844, 0.03200000151991844, 1.055999994277954, 0.0, 0.0, 0.0, 0.0, 0.0, 1.6218516295468066E9, 2021-05-24 12:20:29.546
32.0, -118.24441528320312, 94.0098648071289, -55.849796295166016, -20.76018524169922, -0.03200000151991844, 0.03200000151991844, 1.055999994277954, 0.0, 0.0, 0.0, 0.0, 0.0, 1.6218516295468066E9, 2021-05-24 12:20:29.546
33.0, -115.49932861328125, 99.40653991699219, -60.65556716918945, -14.121862411499023, -0.03200000151991844, 0.03200000151991844, 1.055999994277954, 0.0, 0.0, 0.0, 0.0, 0.0, 1.6218516295475492E9, 2021-05-24 12:20:29.547
33.0, -116.76342010498047, 95.75640106201172, -64.42538452148438, -14.409834861755371, -0.03200000151991844, 0.03200000151991844, 1.055999994277954, 0.0, 0.0, 0.0, 0.0, 0.0, 1.6218516295475492E9, 2021-05-24 12:20:29.547
34.0, -124.56111145019531, 100.70802307128906, -58.35926818847656, -19.941146850585938, -0.03200000151991844, 0.03200000151991844, 1.055999994277954, 0.0, 0.0, 0.0, 0.0, 0.0, 1.6218516295610645E9, 2021-05-24 12:20:29.561
34.0, -120.6080322265625, 102.92205047607422, -54.37627410888672, -16.70987319946289, -0.03200000151991844, 0.03200000151991844, 1.055999994277954, 0.0, 0.0, 0.0, 0.0, 0.0, 1.6218516295610645E9, 2021-05-24 12:20:29.561
35.0, -122.27603149414062, 101.29145050048828, -54.97840118408203, -15.5579833984375, -0.03200000151991844, 0.03200000151991844, 1.055999994277954, 0.0, 0.0, 0.0, 0.0, 0.0, 1.6218516295932007E9, 2021-05-24 12:20:29.593
35.0, -125.11461639404297, 96.74747467041016, -52.71950149536133, -16.4555606842041, -0.03200000151991844, 0.03200000151991844, 1.055999994277954, 0.0, 0.0, 0.0, 0.0, 0.0, 1.6218516295932007E9, 2021-05-24 12:20:29.593
36.0, -122.07781219482422, 100.58834838867188, -57.17372131347656, -15.004478454589844, -0.03200000151991844, 0.03200000151991844, 1.055999994277954, 0.0, 0.0, 0.0, 0.0, 0.0, 1.6218516295938528E9, 2021-05-24 12:20:29.593
36.0, -119.4449234008789, 94.95980072021484, -48.52333068847656, -19.14080810546875, -0.03200000151991844, 0.03200000151991844, 1.055999994277954, 0.0, 0.0, 0.0, 0.0, 0.0, 1.6218516295938528E9, 2021-05-24 12:20:29.593
37.0, -115.63770294189453, 99.57857513427734, -46.70574188232422, -17.293296813964844, -0.03200000151991844, 0.03200000151991844, 1.055999994277954, 0.0, 0.0, 0.0, 0.0, 0.0, 1.621851629594535E9, 2021-05-24 12:20:29.594
37.0, -119.56085968017578, 93.90888977050781, -50.785972595214844, -23.666086196899414, -0.03200000151991844, 0.03200000151991844, 1.055999994277954, 0.0, 0.0, 0.0, 0.0, 0.0, 1.621851629594535E9, 2021-05-24 12:20:29.594
38.0, -119.51224517822266, 93.93880462646484, -58.78187942504883, -18.37038803100586, -0.03200000151991844, 0.03200000151991844, 1.055999994277954, 0.0, 0.0, 0.0, 0.0, 0.0, 1.621851629595361E9, 2021-05-24 12:20:29.595
38.0, -111.56869506835938, 93.04496765136719, -53.35154342651367, -12.192073822021484, -0.03200000151991844, 0.03200000151991844, 1.055999994277954, 0.0, 0.0, 0.0, 0.0, 0.0, 1.621851629595361E9, 2021-05-24 12:20:29.595
39.0, -112.82530212402344, 96.05558776855469, -54.4435920715332, -12.622162818908691, -0.03200000151991844, 0.03200000151991844, 1.055999994277954, 0.0, 0.0, 0.0, 0.0, 0.0, 1.6218516296062293E9, 2021-05-24 12:20:29.606
39.0, -122.94547271728516, 89.49580383300781, -57.44673156738281, -13.231765747070312, -0.03200000151991844, 0.03200000151991844, 1.055999994277954, 0.0, 0.0, 0.0, 0.0, 0.0, 1.6218516296062293E9, 2021-05-24 12:20:29.606
40.0, -124.52371215820312, 91.95291900634766, -59.7617301940918, -23.09762191772461, -0.03200000151991844, 0.03200000151991844, 1.055999994277954, 0.0, 0.0, 0.0, 0.0, 0.0, 1.6218516296210873E9, 2021-05-24 12:20:29.621
40.0, -119.48980712890625, 93.40399932861328, -52.19217300415039, -14.705286979675293, -0.03200000151991844, 0.03200000151991844, 1.055999994277954, 0.0, 0.0, 0.0, 0.0, 0.0, 1.6218516296210873E9, 2021-05-24 12:20:29.621
41.0, -116.8120346069336, 95.9134750366211, -50.72239303588867, -15.105456352233887, -0.03200000151991844, 0.03200000151991844, 1.055999994277954, 0.0, 0.0, 0.0, 0.0, 0.0, 1.6218516296370869E9, 2021-05-24 12:20:29.637
41.0, -119.54216003417969, 95.09817504882812, -58.041378021240234, -20.61806869506836, -0.03200000151991844, 0.03200000151991844, 1.055999994277954, 0.0, 0.0, 0.0, 0.0, 0.0, 1.6218516296370869E9, 2021-05-24 12:20:29.637
42.0, -120.35746002197266, 94.59703063964844, -59.989864349365234, -22.974205017089844, -0.03200000151991844, 0.03200000151991844, 1.055999994277954, 0.0, 0.0, 0.0, 0.0, 0.0, 1.6218516296517751E9, 2021-05-24 12:20:29.651
42.0, -117.85546875, 93.87896728515625, -51.795745849609375, -20.778884887695312, -0.03200000151991844, 0.03200000151991844, 1.055999994277954, 0.0, 0.0, 0.0, 0.0, 0.0, 1.6218516296517751E9, 2021-05-24 12:20:29.651
43.0, -116.12015533447266, 95.24029541015625, -50.311004638671875, -14.447233200073242, -0.03200000151991844, 0.03200000151991844, 1.055999994277954, 0.0, 0.0, 0.0, 0.0, 0.0, 1.6218516296524105E9, 2021-05-24 12:20:29.652
43.0, -122.29473114013672, 95.90599822998047, -52.90275573730469, -27.20403289794922, -0.03200000151991844, 0.03200000151991844, 1.055999994277954, 0.0, 0.0, 0.0, 0.0, 0.0, 1.6218516296524105E9, 2021-05-24 12:20:29.652
44.0, -126.9060287475586, 98.33692932128906, -56.53419876098633, -24.096176147460938, -0.03200000151991844, 0.03200000151991844, 1.055999994277954, 0.0, 0.0, 0.0, 0.0, 0.0, 1.62185162966671E9, 2021-05-24 12:20:29.666
44.0, -126.80130767822266, 100.73794555664062, -47.84267044067383, -14.907240867614746, -0.03200000151991844, 0.03200000151991844, 1.055999994277954, 0.0, 0.0, 0.0, 0.0, 0.0, 1.62185162966671E9, 2021-05-24 12:20:29.666
45.0, -122.47050476074219, 102.29374694824219, -43.818538665771484, -17.86176300048828, -0.03200000151991844, 0.03200000151991844, 1.055999994277954, 0.0, 0.0, 0.0, 0.0, 0.0, 1.6218516296674154E9, 2021-05-24 12:20:29.667
45.0, -123.28205871582031, 100.53973388671875, -50.79344940185547, -22.506717681884766, -0.03200000151991844, 0.03200000151991844, 1.055999994277954, 0.0, 0.0, 0.0, 0.0, 0.0, 1.6218516296674154E9, 2021-05-24 12:20:29.667
46.0, -123.84678649902344, 97.8619613647461, -58.72203826904297, -27.854774475097656, -0.03200000151991844, 0.03200000151991844, 1.055999994277954, 0.0, 0.0, 0.0, 0.0, 0.0, 1.621851629681106E9, 2021-05-24 12:20:29.681
46.0, -118.75678253173828, 97.26358032226562, -50.45685958862305, -24.6309814453125, -0.03200000151991844, 0.03200000151991844, 1.055999994277954, 0.0, 0.0, 0.0, 0.0, 0.0, 1.621851629681106E9, 2021-05-24 12:20:29.681
47.0, -117.33562469482422, 101.4747085571289, -49.57798385620117, -23.01160430908203, -0.03200000151991844, 0.03200000151991844, 1.055999994277954, 0.0, 0.0, 0.0, 0.0, 0.0, 1.621851629696774E9, 2021-05-24 12:20:29.696
47.0, -124.1983413696289, 99.47386169433594, -56.788509368896484, -25.842708587646484, -0.03200000151991844, 0.03200000151991844, 1.055999994277954, 0.0, 0.0, 0.0, 0.0, 0.0, 1.621851629696774E9, 2021-05-24 12:20:29.696
48.0, -118.65206909179688, 91.47795104980469, -52.543724060058594, -22.15142822265625, -0.03200000151991844, 0.03200000151991844, 1.055999994277954, 0.0, 0.0, 0.0, 0.0, 0.0, 1.6218516296974611E9, 2021-05-24 12:20:29.697
48.0, -117.84424591064453, 92.81683349609375, -51.19361877441406, -17.49525260925293, -0.03200000151991844, 0.03200000151991844, 1.055999994277954, 0.0, 0.0, 0.0, 0.0, 0.0, 1.6218516296974611E9, 2021-05-24 12:20:29.697
49.0, -109.91565704345703, 100.71550750732422, -49.27879333496094, -13.291604042053223, -0.03200000151991844, 0.03200000151991844, 1.055999994277954, 0.0, 0.0, 0.0, 0.0, 0.0, 1.6218516297111304E9, 2021-05-24 12:20:29.711
49.0, -116.67739868164062, 97.27853393554688, -54.18553924560547, -21.98687171936035, -0.03200000151991844, 0.03200000151991844, 1.055999994277954, 0.0, 0.0, 0.0, 0.0, 0.0, 1.6218516297111304E9, 2021-05-24 12:20:29.711
50.0, -121.21389770507812, 95.28143310546875, -62.10664749145508, -19.477399826049805, -0.03200000151991844, 0.03200000151991844, 1.055999994277954, 0.0, 0.0, 0.0, 0.0, 0.0, 1.6218516297267778E9, 2021-05-24 12:20:29.726
50.0, -113.18433380126953, 100.92868041992188, -47.27046585083008, -14.578129768371582, -0.03200000151991844, 0.03200000151991844, 1.055999994277954, 0.0, 0.0, 0.0, 0.0, 0.0, 1.6218516297267778E9, 2021-05-24 12:20:29.726
51.0, -110.7945327758789, 98.55758666992188, -47.32282257080078, -11.496452331542969, -0.03200000151991844, 0.03200000151991844, 1.055999994277954, 0.0, 0.0, 0.0, 0.0, 0.0, 1.6218516297274308E9, 2021-05-24 12:20:29.727
51.0, -116.24730682373047, 100.95860290527344, -51.72842788696289, -18.531204223632812, -0.03200000151991844, 0.03200000151991844, 1.055999994277954, 0.0, 0.0, 0.0, 0.0, 0.0, 1.6218516297274308E9, 2021-05-24 12:20:29.727
52.0, -116.98033142089844, 98.10505676269531, -51.64241027832031, -23.419254302978516, -0.03200000151991844, 0.03200000151991844, 1.055999994277954, 0.0, 0.0, 0.0, 0.0, 0.0, 1.621851629741177E9, 2021-05-24 12:20:29.741
52.0, -116.60260009765625, 101.70284271240234, -43.28373336791992, -20.823762893676758, -0.03200000151991844, 0.03200000151991844, 1.055999994277954, 0.0, 0.0, 0.0, 0.0, 0.0, 1.621851629741177E9, 2021-05-24 12:20:29.741
53.0, -117.54505920410156, 100.64070892333984, -47.887550354003906, -16.46303939819336, -0.03200000151991844, 0.03200000151991844, 1.055999994277954, 0.0, 0.0, 0.0, 0.0, 0.0, 1.621851629756801E9, 2021-05-24 12:20:29.756
53.0, -129.69973754882812, 97.925537109375, -46.627201080322266, -21.145395278930664, -0.03200000151991844, 0.03200000151991844, 1.055999994277954, 0.0, 0.0, 0.0, 0.0, 0.0, 1.621851629756801E9, 2021-05-24 12:20:29.756
54.0, -124.67330169677734, 97.04666137695312, -47.36022186279297, -22.746070861816406, -0.03200000151991844, 0.03200000151991844, 1.055999994277954, 0.0, 0.0, 0.0, 0.0, 0.0, 1.6218516297575085E9, 2021-05-24 12:20:29.757
54.0, -122.13764953613281, 101.02965545654297, -42.83868408203125, -16.706132888793945, -0.03200000151991844, 0.03200000151991844, 1.055999994277954, 0.0, 0.0, 0.0, 0.0, 0.0, 1.6218516297575085E9, 2021-05-24 12:20:29.757
55.0, -116.98406982421875, 98.22846984863281, -47.771610260009766, -20.576929092407227, -0.03200000151991844, 0.03200000151991844, 1.055999994277954, 0.0, 0.0, 0.0, 0.0, 0.0, 1.6218516297711723E9, 2021-05-24 12:20:29.771
55.0, -115.57038879394531, 96.94942474365234, -47.38266372680664, -37.600955963134766, -0.03200000151991844, 0.03200000151991844, 1.055999994277954, 0.0, 0.0, 0.0, 0.0, 0.0, 1.6218516297711723E9, 2021-05-24 12:20:29.771
56.0, -115.29737854003906, 90.5317611694336, -52.00518035888672, -37.02874755859375, -0.03200000151991844, 0.03200000151991844, 1.055999994277954, 0.0, 0.0, 0.0, 0.0, 0.0, 1.6218516297867305E9, 2021-05-24 12:20:29.786
56.0, -115.45071411132812, 91.91551971435547, -47.61079788208008, -24.754398345947266, -0.03200000151991844, 0.03200000151991844, 1.055999994277954, 0.0, 0.0, 0.0, 0.0, 0.0, 1.6218516297867305E9, 2021-05-24 12:20:29.786
57.0, -108.96572875976562, 95.59184265136719, -45.052703857421875, -22.734851837158203, -0.03200000151991844, 0.03200000151991844, 1.055999994277954, 0.0, 0.0, 0.0, 0.0, 0.0, 1.6218516297875276E9, 2021-05-24 12:20:29.787
57.0, -113.89491271972656, 98.45660400390625, -46.926395416259766, -14.596829414367676, -0.03200000151991844, 0.03200000151991844, 1.055999994277954, 0.0, 0.0, 0.0, 0.0, 0.0, 1.6218516297875276E9, 2021-05-24 12:20:29.787
58.0, -116.0490951538086, 94.91492462158203, -50.883209228515625, -13.908687591552734, -0.03200000151991844, 0.03200000151991844, 1.055999994277954, 0.0, 0.0, 0.0, 0.0, 0.0, 1.6218516298174846E9, 2021-05-24 12:20:29.817
58.0, -111.24332427978516, 95.14679718017578, -40.50872802734375, -10.505378723144531, -0.03200000151991844, 0.03200000151991844, 1.055999994277954, 0.0, 0.0, 0.0, 0.0, 0.0, 1.6218516298174846E9, 2021-05-24 12:20:29.817
59.0, -109.50801086425781, 99.57857513427734, -33.91902160644531, -9.76487922668457, -0.03200000151991844, 0.03200000151991844, 1.055999994277954, 0.0, 0.0, 0.0, 0.0, 0.0, 1.6218516298181431E9, 2021-05-24 12:20:29.818
59.0, -108.7001953125, 97.420654296875, -38.45552062988281, -8.126802444458008, -0.03200000151991844, 0.03200000151991844, 1.055999994277954, 0.0, 0.0, 0.0, 0.0, 0.0, 1.6218516298181431E9, 2021-05-24 12:20:29.818
60.0, -107.3201675415039, 95.71151733398438, -37.69632339477539, -14.67162799835205, -0.03200000151991844, 0.03200000151991844, 1.055999994277954, 0.0, 0.0, 0.0, 0.0, 0.0, 1.6218516298189628E9, 2021-05-24 12:20:29.818
60.0, -112.82904052734375, 96.56421661376953, -40.16839599609375, -13.302824020385742, -0.03200000151991844, 0.03200000151991844, 1.055999994277954, 0.0, 0.0, 0.0, 0.0, 0.0, 1.6218516298189628E9, 2021-05-24 12:20:29.818
61.0, -109.44068908691406, 97.98912048339844, -41.89997100830078, -6.305471420288086, -0.03200000151991844, 0.03200000151991844, 1.055999994277954, 0.0, 0.0, 0.0, 0.0, 0.0, 1.6218516298309977E9, 2021-05-24 12:20:29.830
61.0, -113.42742919921875, 104.04401397705078, -38.391944885253906, -14.204139709472656, -0.03200000151991844, 0.03200000151991844, 1.055999994277954, 0.0, 0.0, 0.0, 0.0, 0.0, 1.6218516298309977E9, 2021-05-24 12:20:29.830
62.0, -121.12787628173828, 99.87776947021484, -43.23511505126953, -23.5277099609375, -0.03200000151991844, 0.03200000151991844, 1.055999994277954, 0.0, 0.0, 0.0, 0.0, 0.0, 1.621851629846763E9, 2021-05-24 12:20:29.846
62.0, -117.24960327148438, 102.17032623291016, -41.230525970458984, -11.67222785949707, -0.03200000151991844, 0.03200000151991844, 1.055999994277954, 0.0, 0.0, 0.0, 0.0, 0.0, 1.621851629846763E9, 2021-05-24 12:20:29.846
63.0, -116.86813354492188, 108.73384857177734, -35.68799591064453, -16.22368621826172, -0.03200000151991844, 0.03200000151991844, 1.055999994277954, 0.0, 0.0, 0.0, 0.0, 0.0, 1.6218516298474593E9, 2021-05-24 12:20:29.847
63.0, -120.57063293457031, 102.59667205810547, -39.240901947021484, -29.42179298400879, -0.03200000151991844, 0.03200000151991844, 1.055999994277954, 0.0, 0.0, 0.0, 0.0, 0.0, 1.6218516298474593E9, 2021-05-24 12:20:29.847
64.0, -120.80998992919922, 98.68473815917969, -43.14909744262695, -34.8895263671875, -0.03200000151991844, 0.03200000151991844, 1.055999994277954, 0.0, 0.0, 0.0, 0.0, 0.0, 1.621851629861082E9, 2021-05-24 12:20:29.861
64.0, -117.79936981201172, 101.84121704101562, -37.14655685424805, -25.382701873779297, -0.03200000151991844, 0.03200000151991844, 1.055999994277954, 0.0, 0.0, 0.0, 0.0, 0.0, 1.621851629861082E9, 2021-05-24 12:20:29.861
65.0, -112.56724548339844, 100.32655334472656, -39.30447769165039, -28.281124114990234, -0.03200000151991844, 0.03200000151991844, 1.055999994277954, 0.0, 0.0, 0.0, 0.0, 0.0, 1.6218516298767328E9, 2021-05-24 12:20:29.876
65.0, -111.98382568359375, 93.74059295654297, -42.87982177734375, -24.784317016601562, -0.03200000151991844, 0.03200000151991844, 1.055999994277954, 0.0, 0.0, 0.0, 0.0, 0.0, 1.6218516298767328E9, 2021-05-24 12:20:29.876
66.0, -114.7438735961914, 95.84989929199219, -45.351898193359375, -13.048510551452637, -0.03200000151991844, 0.03200000151991844, 1.055999994277954, 0.0, 0.0, 0.0, 0.0, 0.0, 1.621851629877446E9, 2021-05-24 12:20:29.877
66.0, -111.15730285644531, 97.96668243408203, -45.23970031738281, -6.9449944496154785, -0.03200000151991844, 0.03200000151991844, 1.055999994277954, 0.0, 0.0, 0.0, 0.0, 0.0, 1.621851629877446E9, 2021-05-24 12:20:29.877
67.0, -111.59861755371094, 98.44912719726562, -42.73396682739258, -14.611788749694824, -0.03200000151991844, 0.03200000151991844, 1.055999994277954, 0.0, 0.0, 0.0, 0.0, 0.0, 1.6218516298910153E9, 2021-05-24 12:20:29.891
67.0, -112.61212921142578, 90.5766372680664, -52.05379867553711, -12.098576545715332, -0.03200000151991844, 0.03200000151991844, 1.055999994277954, 0.0, 0.0, 0.0, 0.0, 0.0, 1.6218516298910153E9, 2021-05-24 12:20:29.891
68.0, -113.86873626708984, 89.18913269042969, -46.23825454711914, -10.595136642456055, -0.03200000151991844, 0.03200000151991844, 1.055999994277954, 0.0, 0.0, 0.0, 0.0, 0.0, 1.6218516299068515E9, 2021-05-24 12:20:29.906
68.0, -107.28276824951172, 93.12725067138672, -47.539737701416016, -4.076490879058838, -0.03200000151991844, 0.03200000151991844, 1.055999994277954, 0.0, 0.0, 0.0, 0.0, 0.0, 1.6218516299068515E9, 2021-05-24 12:20:29.906
69.0, -106.2954330444336, 95.92843627929688, -47.71925354003906, -11.204740524291992, -0.03200000151991844, 0.03200000151991844, 1.055999994277954, 0.0, 0.0, 0.0, 0.0, 0.0, 1.621851629907559E9, 2021-05-24 12:20:29.907
69.0, -113.12823486328125, 94.82516479492188, -50.6588134765625, -9.476906776428223, -0.03200000151991844, 0.03200000151991844, 1.055999994277954, 0.0, 0.0, 0.0, 0.0, 0.0, 1.621851629907559E9, 2021-05-24 12:20:29.907
70.0, -119.463623046875, 91.99405670166016, -48.54951095581055, -18.837875366210938, -0.03200000151991844, 0.03200000151991844, 1.040000081062317, 0.0, 0.0, 0.0, 0.0, 0.0, 1.621851629920993E9, 2021-05-24 12:20:29.920
70.0, -116.63626098632812, 99.54866027832031, -44.31220626831055, -9.349749565124512, -0.03200000151991844, 0.03200000151991844, 1.040000081062317, 0.0, 0.0, 0.0, 0.0, 0.0, 1.621851629920993E9, 2021-05-24 12:20:29.920
71.0, -117.4739990234375, 100.7716064453125, -38.24982833862305, -16.44808006286621, -0.03200000151991844, 0.03200000151991844, 1.040000081062317, 0.0, 0.0, 0.0, 0.0, 0.0, 1.6218516299367607E9, 2021-05-24 12:20:29.936
71.0, -115.5853500366211, 103.07538604736328, -44.03171157836914, -15.038137435913086, -0.03200000151991844, 0.03200000151991844, 1.040000081062317, 0.0, 0.0, 0.0, 0.0, 0.0, 1.6218516299367607E9, 2021-05-24 12:20:29.936
72.0, -119.463623046875, 95.90973663330078, -50.58027648925781, -21.71385955810547, -0.03200000151991844, 0.03200000151991844, 1.040000081062317, 0.0, 0.0, 0.0, 0.0, 0.0, 1.6218516299374716E9, 2021-05-24 12:20:29.937
72.0, -114.66532897949219, 99.18962860107422, -49.61538314819336, -19.350242614746094, -0.03200000151991844, 0.03200000151991844, 1.040000081062317, 0.0, 0.0, 0.0, 0.0, 0.0, 1.6218516299374716E9, 2021-05-24 12:20:29.937
73.0, -107.92229461669922, 105.99250793457031, -41.06970977783203, -16.133928298950195, -0.03200000151991844, 0.03200000151991844, 1.040000081062317, 0.0, 0.0, 0.0, 0.0, 0.0, 1.6218516299510362E9, 2021-05-24 12:20:29.951
73.0, -107.02098083496094, 103.55409240722656, -39.2147216796875, -18.20957374572754, -0.03200000151991844, 0.03200000151991844, 1.040000081062317, 0.0, 0.0, 0.0, 0.0, 0.0, 1.6218516299510362E9, 2021-05-24 12:20:29.951
74.0, -109.48931121826172, 105.9139633178711, -40.40774917602539, -29.130081176757812, -0.03200000151991844, 0.03200000151991844, 1.040000081062317, 0.0, 0.0, 0.0, 0.0, 0.0, 1.6218516299667015E9, 2021-05-24 12:20:29.966
74.0, -103.26985931396484, 110.648681640625, -38.8743896484375, -29.08894157409668, -0.03200000151991844, 0.03200000151991844, 1.040000081062317, 0.0, 0.0, 0.0, 0.0, 0.0, 1.6218516299667015E9, 2021-05-24 12:20:29.966
75.0, -106.02616119384766, 103.35213470458984, -41.80647277832031, -18.961292266845703, -0.03200000151991844, 0.03200000151991844, 1.040000081062317, 0.0, 0.0, 0.0, 0.0, 0.0, 1.621851629967426E9, 2021-05-24 12:20:29.967
75.0, -106.48991394042969, 109.11531829833984, -43.54926681518555, -27.450864791870117, -0.03200000151991844, 0.03200000151991844, 1.040000081062317, 0.0, 0.0, 0.0, 0.0, 0.0, 1.621851629967426E9, 2021-05-24 12:20:29.967
76.0, -108.67027282714844, 104.77703857421875, -47.43876266479492, -23.172420501708984, -0.03200000151991844, 0.03200000151991844, 1.040000081062317, 0.0, 0.0, 0.0, 0.0, 0.0, 1.621851630013831E9, 2021-05-24 12:20:30.013
76.0, -111.77812957763672, 107.76522064208984, -41.87752914428711, -10.142608642578125, -0.03200000151991844, 0.03200000151991844, 1.040000081062317, 0.0, 0.0, 0.0, 0.0, 0.0, 1.621851630013831E9, 2021-05-24 12:20:30.013
77.0, -110.61875915527344, 107.77643585205078, -40.11229705810547, -8.328757286071777, -0.03200000151991844, 0.03200000151991844, 1.040000081062317, 0.0, 0.0, 0.0, 0.0, 0.0, 1.6218516300145013E9, 2021-05-24 12:20:30.014
77.0, -111.63227081298828, 100.93990325927734, -43.7811393737793, -7.831350326538086, -0.03200000151991844, 0.03200000151991844, 1.040000081062317, 0.0, 0.0, 0.0, 0.0, 0.0, 1.6218516300145013E9, 2021-05-24 12:20:30.014
78.0, -111.77812957763672, 104.78077697753906, -41.58955764770508, -5.123662948608398, -0.03200000151991844, 0.03200000151991844, 1.040000081062317, 0.0, 0.0, 0.0, 0.0, 0.0, 1.6218516300153325E9, 2021-05-24 12:20:30.015
78.0, -108.79368591308594, 106.62454986572266, -38.50040054321289, -2.58427095413208, -0.03200000151991844, 0.03200000151991844, 1.040000081062317, 0.0, 0.0, 0.0, 0.0, 0.0, 1.6218516300153325E9, 2021-05-24 12:20:30.015
79.0, -109.41077423095703, 113.86125183105469, -32.049072265625, -0.14959600567817688, -0.03200000151991844, 0.03200000151991844, 1.040000081062317, 0.0, 0.0, 0.0, 0.0, 0.0, 1.621851630016076E9, 2021-05-24 12:20:30.016
79.0, -118.5174331665039, 111.67341613769531, -35.650596618652344, -9.839676856994629, -0.03200000151991844, 0.03200000151991844, 1.040000081062317, 0.0, 0.0, 0.0, 0.0, 0.0, 1.621851630016076E9, 2021-05-24 12:20:30.016
80.0, -117.76197052001953, 112.13716125488281, -35.17189025878906, -8.856082916259766, -0.03200000151991844, 0.03200000151991844, 1.055999994277954, 0.0, 0.0, 0.0, 0.0, 0.0, 1.621851630026764E9, 2021-05-24 12:20:30.026
80.0, -116.59138488769531, 111.38543701171875, -35.06717300415039, -13.66185474395752, -0.03200000151991844, 0.03200000151991844, 1.055999994277954, 0.0, 0.0, 0.0, 0.0, 0.0, 1.621851630026764E9, 2021-05-24 12:20:30.026
81.0, -110.24102783203125, 108.81986999511719, -33.87788391113281, -12.966233253479004, -0.03200000151991844, 0.03200000151991844, 1.055999994277954, 0.0, 0.0, 0.0, 0.0, 0.0, 1.6218516300274773E9, 2021-05-24 12:20:30.027
81.0, -114.9271240234375, 108.36360168457031, -42.434776306152344, -17.510211944580078, -0.03200000151991844, 0.03200000151991844, 1.055999994277954, 0.0, 0.0, 0.0, 0.0, 0.0, 1.6218516300274773E9, 2021-05-24 12:20:30.027
82.0, -116.2697525024414, 107.24910736083984, -47.72673416137695, -24.683340072631836, -0.03200000151991844, 0.03200000151991844, 1.055999994277954, 0.0, 0.0, 0.0, 0.0, 0.0, 1.6218516300410633E9, 2021-05-24 12:20:30.041
82.0, -111.86040496826172, 110.54396057128906, -36.181663513183594, -20.330095291137695, -0.03200000151991844, 0.03200000151991844, 1.055999994277954, 0.0, 0.0, 0.0, 0.0, 0.0, 1.6218516300410633E9, 2021-05-24 12:20:30.041
83.0, -103.21376037597656, 111.96512603759766, -34.49122619628906, -31.927526473999023, -0.03200000151991844, 0.03200000151991844, 1.055999994277954, 0.0, 0.0, 0.0, 0.0, 0.0, 1.62185163005672E9, 2021-05-24 12:20:30.056
83.0, -100.2330551147461, 111.56495666503906, -39.79814529418945, -26.01474380493164, -0.03200000151991844, 0.03200000151991844, 1.055999994277954, 0.0, 0.0, 0.0, 0.0, 0.0, 1.62185163005672E9, 2021-05-24 12:20:30.056
84.0, -106.30291748046875, 105.0313491821289, -46.93013381958008, -27.099315643310547, -0.03200000151991844, 0.03200000151991844, 1.055999994277954, 0.0, 0.0, 0.0, 0.0, 0.0, 1.621851630057581E9, 2021-05-24 12:20:30.057
84.0, -103.99539947509766, 104.23849487304688, -37.14655685424805, -20.015945434570312, -0.03200000151991844, 0.03200000151991844, 1.055999994277954, 0.0, 0.0, 0.0, 0.0, 0.0, 1.621851630057581E9, 2021-05-24 12:20:30.057
85.0, -103.77474212646484, 112.30545806884766, -39.6074104309082, -20.19171905517578, -0.03200000151991844, 0.03200000151991844, 1.055999994277954, 0.0, 0.0, 0.0, 0.0, 0.0, 1.6218516300875688E9, 2021-05-24 12:20:30.087
85.0, -110.05029296875, 104.60126495361328, -46.69826126098633, -21.870935440063477, -0.03200000151991844, 0.03200000151991844, 1.055999994277954, 0.0, 0.0, 0.0, 0.0, 0.0, 1.6218516300875688E9, 2021-05-24 12:20:30.087
86.0, -108.43840026855469, 107.02845764160156, -44.910587310791016, -6.821577548980713, -0.03200000151991844, 0.03200000151991844, 1.055999994277954, 0.0, 0.0, 0.0, 0.0, 0.0, 1.6218516300882876E9, 2021-05-24 12:20:30.088
86.0, -107.20423126220703, 107.58196258544922, -36.62297058105469, -8.141761779785156, -0.03200000151991844, 0.03200000151991844, 1.055999994277954, 0.0, 0.0, 0.0, 0.0, 0.0, 1.6218516300882876E9, 2021-05-24 12:20:30.088
87.0, -106.8526840209961, 111.61357116699219, -30.99816131591797, -5.269518852233887, -0.03200000151991844, 0.03200000151991844, 1.055999994277954, 0.0, 0.0, 0.0, 0.0, 0.0, 1.6218516300889626E9, 2021-05-24 12:20:30.088
87.0, -112.20073699951172, 111.56869506835938, -33.61983108520508, -5.557491302490234, -0.03200000151991844, 0.03200000151991844, 1.055999994277954, 0.0, 0.0, 0.0, 0.0, 0.0, 1.6218516300889626E9, 2021-05-24 12:20:30.088
88.0, -116.57642364501953, 110.04655456542969, -35.227989196777344, -0.938714861869812, -0.03200000151991844, 0.03200000151991844, 1.055999994277954, 0.0, 0.0, 0.0, 0.0, 0.0, 1.6218516301010673E9, 2021-05-24 12:20:30.101
88.0, -115.91445922851562, 114.9046859741211, -34.072357177734375, -5.613589763641357, -0.03200000151991844, 0.03200000151991844, 1.055999994277954, 0.0, 0.0, 0.0, 0.0, 0.0, 1.6218516301010673E9, 2021-05-24 12:20:30.101
89.0, -113.55084228515625, 113.2179946899414, -31.61898422241211, -1.8549903631210327, -0.03200000151991844, 0.03200000151991844, 1.055999994277954, 0.0, 0.0, 0.0, 0.0, 0.0, 1.6218516301168492E9, 2021-05-24 12:20:30.116
89.0, -111.92772674560547, 118.41271209716797, -37.176475524902344, -8.343716621398926, -0.03200000151991844, 0.03200000151991844, 1.055999994277954, 0.0, 0.0, 0.0, 0.0, 0.0, 1.6218516301168492E9, 2021-05-24 12:20:30.116
90.0, -113.79393768310547, 112.98611450195312, -38.567718505859375, -16.63133430480957, -0.03200000151991844, 0.03200000151991844, 1.055999994277954, 0.0, 0.0, 0.0, 0.0, 0.0, 1.6218516301175554E9, 2021-05-24 12:20:30.117
90.0, -114.74761199951172, 117.93400573730469, -34.6483039855957, -19.64943504333496, -0.03200000151991844, 0.03200000151991844, 1.055999994277954, 0.0, 0.0, 0.0, 0.0, 0.0, 1.6218516301175554E9, 2021-05-24 12:20:30.117
91.0, -103.22872161865234, 124.46761322021484, -35.66929626464844, -11.316937446594238, -0.03200000151991844, 0.03200000151991844, 1.055999994277954, 0.0, 0.0, 0.0, 0.0, 0.0, 1.6218516301309872E9, 2021-05-24 12:20:30.130
91.0, -108.16912841796875, 121.29243469238281, -40.54986572265625, -16.63881492614746, -0.03200000151991844, 0.03200000151991844, 1.055999994277954, 0.0, 0.0, 0.0, 0.0, 0.0, 1.6218516301309872E9, 2021-05-24 12:20:30.130
92.0, -100.98104095458984, 113.58824157714844, -39.6485481262207, -19.608295440673828, -0.03200000151991844, 0.03200000151991844, 1.055999994277954, 0.0, 0.0, 0.0, 0.0, 0.0, 1.6218516301467001E9, 2021-05-24 12:20:30.146
92.0, -98.39302825927734, 116.72602081298828, -39.16984176635742, -23.602508544921875, -0.03200000151991844, 0.03200000151991844, 1.055999994277954, 0.0, 0.0, 0.0, 0.0, 0.0, 1.6218516301467001E9, 2021-05-24 12:20:30.146
93.0, -99.60101318359375, 120.15550231933594, -30.01456642150879, -25.999784469604492, -0.03200000151991844, 0.03200000151991844, 1.055999994277954, 0.0, 0.0, 0.0, 0.0, 0.0, 1.6218516301474912E9, 2021-05-24 12:20:30.147
93.0, -100.812744140625, 116.4717025756836, -41.60451889038086, -25.509857177734375, -0.03200000151991844, 0.03200000151991844, 1.055999994277954, 0.0, 0.0, 0.0, 0.0, 0.0, 1.6218516301474912E9, 2021-05-24 12:20:30.147
94.0, -104.7284164428711, 115.70128631591797, -45.385555267333984, -20.517091751098633, -0.03200000151991844, 0.03200000151991844, 1.055999994277954, 0.0, 0.0, 0.0, 0.0, 0.0, 1.6218516301609998E9, 2021-05-24 12:20:30.160
94.0, -109.76980590820312, 120.2041244506836, -32.81949234008789, -16.56775665283203, -0.03200000151991844, 0.03200000151991844, 1.055999994277954, 0.0, 0.0, 0.0, 0.0, 0.0, 1.6218516301609998E9, 2021-05-24 12:20:30.160
95.0, -102.15536499023438, 124.88273620605469, -33.78064727783203, -10.202446937561035, -0.03200000151991844, 0.03200000151991844, 1.055999994277954, 0.0, 0.0, 0.0, 0.0, 0.0, 1.6218516301768095E9, 2021-05-24 12:20:30.176
95.0, -106.91252136230469, 121.84593963623047, -39.83180618286133, -10.819530487060547, -0.03200000151991844, 0.03200000151991844, 1.055999994277954, 0.0, 0.0, 0.0, 0.0, 0.0, 1.6218516301768095E9, 2021-05-24 12:20:30.176
96.0, -110.55144500732422, 115.65640258789062, -41.1108512878418, -8.55315113067627, -0.03200000151991844, 0.03200000151991844, 1.055999994277954, 0.0, 0.0, 0.0, 0.0, 0.0, 1.6218516301774707E9, 2021-05-24 12:20:30.177
96.0, -112.41765594482422, 117.21220397949219, -32.7820930480957, 1.7502732276916504, -0.03200000151991844, 0.03200000151991844, 1.055999994277954, 0.0, 0.0, 0.0, 0.0, 0.0, 1.6218516301774707E9, 2021-05-24 12:20:30.177
97.0, -110.99275207519531, 121.9506607055664, -35.60197830200195, -0.9349749684333801, -0.03200000151991844, 0.03200000151991844, 1.055999994277954, 0.0, 0.0, 0.0, 0.0, 0.0, 1.6218516301910193E9, 2021-05-24 12:20:30.191
97.0, -116.0528335571289, 114.1006088256836, -37.48314666748047, -3.5790841579437256, -0.03200000151991844, 0.03200000151991844, 1.055999994277954, 0.0, 0.0, 0.0, 0.0, 0.0, 1.6218516301910193E9, 2021-05-24 12:20:30.191
98.0, -120.47339630126953, 109.07418060302734, -41.68679428100586, -5.707087516784668, -0.03200000151991844, 0.03200000151991844, 1.055999994277954, 0.0, 0.0, 0.0, 0.0, 0.0, 1.6218516302066784E9, 2021-05-24 12:20:30.206
98.0, -113.7228775024414, 114.89346313476562, -33.81804656982422, -7.214266777038574, -0.03200000151991844, 0.03200000151991844, 1.055999994277954, 0.0, 0.0, 0.0, 0.0, 0.0, 1.6218516302066784E9, 2021-05-24 12:20:30.206
99.0, -109.5865478515625, 113.97718811035156, -36.9969596862793, -3.021839141845703, -0.03200000151991844, 0.03200000151991844, 1.055999994277954, 0.0, 0.0, 0.0, 0.0, 0.0, 1.621851630207488E9, 2021-05-24 12:20:30.207
99.0, -103.1240005493164, 116.88309478759766, -39.917823791503906, -10.232366561889648, -0.03200000151991844, 0.03200000151991844, 1.055999994277954, 0.0, 0.0, 0.0, 0.0, 0.0, 1.621851630207488E9, 2021-05-24 12:20:30.207
100.0, -107.71286010742188, 108.09806823730469, -45.04148483276367, -12.177114486694336, -0.03200000151991844, 0.03200000151991844, 1.055999994277954, 0.0, 0.0, 0.0, 0.0, 0.0, 1.6218516302217188E9, 2021-05-24 12:20:30.221
100.0, -101.17925262451172, 109.1863784790039, -40.243194580078125, -4.278445720672607, -0.03200000151991844, 0.03200000151991844, 1.055999994277954, 0.0, 0.0, 0.0, 0.0, 0.0, 1.6218516302217188E9, 2021-05-24 12:20:30.221
0.0, -97.0578842163086, 114.69525146484375, -40.50124740600586, -8.99071979522705, -0.03200000151991844, 0.03200000151991844, 1.055999994277954, 0.0, 0.0, 0.0, 0.0, 0.0, 1.6218516302224958E9, 2021-05-24 12:20:30.222
1.0, -103.19879913330078, 111.8117904663086, -45.50897216796875, -12.93631362915039, -0.03200000151991844, 0.03200000151991844, 1.055999994277954, 0.0, 0.0, 0.0, 0.0, 0.0, 1.6218516302359917E9, 2021-05-24 12:20:30.235
1.0, -104.85931396484375, 108.04944610595703, -43.84845733642578, -14.630488395690918, -0.03200000151991844, 0.03200000151991844, 1.055999994277954, 0.0, 0.0, 0.0, 0.0, 0.0, 1.6218516302359917E9, 2021-05-24 12:20:30.235
2.0, -101.28397369384766, 110.30087280273438, -38.81081008911133, -22.087848663330078, -0.03200000151991844, 0.03200000151991844, 1.055999994277954, 0.0, 0.0, 0.0, 0.0, 0.0, 1.6218516302517166E9, 2021-05-24 12:20:30.251
2.0, -97.47301483154297, 113.4199447631836, -34.427650451660156, -16.736051559448242, -0.03200000151991844, 0.03200000151991844, 1.055999994277954, 0.0, 0.0, 0.0, 0.0, 0.0, 1.6218516302517166E9, 2021-05-24 12:20:30.251
3.0, -104.08141326904297, 116.25852966308594, -42.48713302612305, -12.726879119873047, -0.03200000151991844, 0.03200000151991844, 1.055999994277954, 0.0, 0.0, 0.0, 0.0, 0.0, 1.6218516302524352E9, 2021-05-24 12:20:30.252
3.0, -102.4433364868164, 103.66254425048828, -39.282039642333984, -15.995552062988281, -0.03200000151991844, 0.03200000151991844, 1.055999994277954, 0.0, 0.0, 0.0, 0.0, 0.0, 1.6218516302524352E9, 2021-05-24 12:20:30.252
4.0, -104.13377380371094, 106.81902313232422, -37.97681427001953, -11.92280101776123, -0.03200000151991844, 0.03200000151991844, 1.055999994277954, 0.0, 0.0, 0.0, 0.0, 0.0, 1.6218516302660463E9, 2021-05-24 12:20:30.266
4.0, -103.5466079711914, 114.05198669433594, -40.58352279663086, -9.383408546447754, -0.03200000151991844, 0.03200000151991844, 1.055999994277954, 0.0, 0.0, 0.0, 0.0, 0.0, 1.6218516302660463E9, 2021-05-24 12:20:30.266
5.0, -107.22293090820312, 116.40812683105469, -35.190589904785156, -7.401261806488037, -0.03200000151991844, 0.03200000151991844, 1.055999994277954, 0.0, 0.0, 0.0, 0.0, 0.0, 1.6218516302817073E9, 2021-05-24 12:20:30.281
5.0, -111.10494995117188, 116.70732116699219, -40.490028381347656, -4.349503517150879, -0.03200000151991844, 0.03200000151991844, 1.055999994277954, 0.0, 0.0, 0.0, 0.0, 0.0, 1.6218516302817073E9, 2021-05-24 12:20:30.281
6.0, -110.52152252197266, 112.35033416748047, -39.046424865722656, -2.012066125869751, -0.03200000151991844, 0.03200000151991844, 1.055999994277954, 0.0, 0.0, 0.0, 0.0, 0.0, 1.6218516302824209E9, 2021-05-24 12:20:30.282
6.0, -105.58111572265625, 111.94642639160156, -30.504493713378906, -1.413682222366333, -0.03200000151991844, 0.03200000151991844, 1.055999994277954, 0.0, 0.0, 0.0, 0.0, 0.0, 1.6218516302824209E9, 2021-05-24 12:20:30.282
7.0, -107.42488861083984, 114.62045288085938, -34.255615234375, -4.27470588684082, -0.03200000151991844, 0.03200000151991844, 1.055999994277954, 0.0, 0.0, 0.0, 0.0, 0.0, 1.621851630296151E9, 2021-05-24 12:20:30.296
7.0, -108.34864044189453, 115.9705581665039, -35.71043395996094, -9.540484428405762, -0.03200000151991844, 0.03200000151991844, 1.055999994277954, 0.0, 0.0, 0.0, 0.0, 0.0, 1.621851630296151E9, 2021-05-24 12:20:30.296
8.0, -105.97754669189453, 116.33706665039062, -29.66675567626953, -5.299437999725342, -0.03200000151991844, 0.03200000151991844, 1.055999994277954, 0.0, 0.0, 0.0, 0.0, 0.0, 1.6218516303117726E9, 2021-05-24 12:20:30.311
8.0, -96.67267608642578, 121.53553009033203, -26.730934143066406, -3.014359474182129, -0.03200000151991844, 0.03200000151991844, 1.055999994277954, 0.0, 0.0, 0.0, 0.0, 0.0, 1.6218516303117726E9, 2021-05-24 12:20:30.311
9.0, -100.29290008544922, 116.93545532226562, -38.59763717651367, -10.165047645568848, -0.03200000151991844, 0.03200000151991844, 1.055999994277954, 0.0, 0.0, 0.0, 0.0, 0.0, 1.6218516303124695E9, 2021-05-24 12:20:30.312
9.0, -101.02217864990234, 114.04450988769531, -34.319190979003906, -10.049111366271973, -0.03200000151991844, 0.03200000151991844, 1.055999994277954, 0.0, 0.0, 0.0, 0.0, 0.0, 1.6218516303124695E9, 2021-05-24 12:20:30.312
10.0, -101.09697723388672, 113.93978881835938, -28.33161163330078, -6.38400936126709, -0.03200000151991844, 0.03200000151991844, 1.055999994277954, 0.0, 0.0, 0.0, 0.0, 0.0, 1.6218516303260877E9, 2021-05-24 12:20:30.326
10.0, -99.6047592163086, 120.4621810913086, -25.69872283935547, -2.8348441123962402, -0.03200000151991844, 0.03200000151991844, 1.055999994277954, 0.0, 0.0, 0.0, 0.0, 0.0, 1.6218516303260877E9, 2021-05-24 12:20:30.326
11.0, -105.19590759277344, 116.3894271850586, -34.55106735229492, -21.874675750732422, -0.03200000151991844, 0.03200000151991844, 1.055999994277954, 0.0, 0.0, 0.0, 0.0, 0.0, 1.6218516303417575E9, 2021-05-24 12:20:30.341
11.0, -108.8236083984375, 113.1207504272461, -34.06488037109375, -19.653173446655273, -0.03200000151991844, 0.03200000151991844, 1.055999994277954, 0.0, 0.0, 0.0, 0.0, 0.0, 1.6218516303417575E9, 2021-05-24 12:20:30.341
12.0, -103.8233642578125, 113.52840423583984, -36.39109802246094, -15.935713768005371, -0.03200000151991844, 0.03200000151991844, 1.055999994277954, 0.0, 0.0, 0.0, 0.0, 0.0, 1.6218516303424973E9, 2021-05-24 12:20:30.342
12.0, -99.9899673461914, 119.16817474365234, -28.36901092529297, -12.465086936950684, -0.03200000151991844, 0.03200000151991844, 1.055999994277954, 0.0, 0.0, 0.0, 0.0, 0.0, 1.6218516303424973E9, 2021-05-24 12:20:30.342
13.0, -111.06755065917969, 121.08673858642578, -34.85399627685547, -15.008218765258789, -0.03200000151991844, 0.03200000151991844, 1.055999994277954, 0.0, 0.0, 0.0, 0.0, 0.0, 1.6218516303724053E9, 2021-05-24 12:20:30.372
13.0, -116.0528335571289, 115.63770294189453, -44.009273529052734, -21.95321273803711, -0.03200000151991844, 0.03200000151991844, 1.055999994277954, 0.0, 0.0, 0.0, 0.0, 0.0, 1.6218516303724053E9, 2021-05-24 12:20:30.372
14.0, -114.24646759033203, 118.60718536376953, -37.77486038208008, -17.158660888671875, -0.03200000151991844, 0.03200000151991844, 1.055999994277954, 0.0, 0.0, 0.0, 0.0, 0.0, 1.6218516303731608E9, 2021-05-24 12:20:30.373
14.0, -111.29568481445312, 120.85486602783203, -32.8531494140625, -2.995659828186035, -0.03200000151991844, 0.03200000151991844, 1.055999994277954, 0.0, 0.0, 0.0, 0.0, 0.0, 1.6218516303731608E9, 2021-05-24 12:20:30.373
15.0, -109.63142395019531, 120.52949523925781, -37.54672622680664, -1.0770912170410156, -0.03200000151991844, 0.03200000151991844, 1.055999994277954, 0.0, 0.0, 0.0, 0.0, 0.0, 1.62185163037386E9, 2021-05-24 12:20:30.373
15.0, -110.57388305664062, 115.84339904785156, -39.6261100769043, -3.4930665493011475, -0.03200000151991844, 0.03200000151991844, 1.055999994277954, 0.0, 0.0, 0.0, 0.0, 0.0, 1.62185163037386E9, 2021-05-24 12:20:30.373
16.0, -113.31523132324219, 117.8966064453125, -31.798500061035156, 8.818683624267578, -0.03200000151991844, 0.03200000151991844, 1.055999994277954, 0.0, 0.0, 0.0, 0.0, 0.0, 1.6218516303860552E9, 2021-05-24 12:20:30.386
16.0, -101.66169738769531, 115.3310317993164, -33.212181091308594, 5.392935752868652, -0.03200000151991844, 0.03200000151991844, 1.055999994277954, 0.0, 0.0, 0.0, 0.0, 0.0, 1.6218516303860552E9, 2021-05-24 12:20:30.386
17.0, -104.12255096435547, 112.2792739868164, -44.424400329589844, 5.434074401855469, -0.03200000151991844, 0.03200000151991844, 1.055999994277954, 0.0, 0.0, 0.0, 0.0, 0.0, 1.6218516304181125E9, 2021-05-24 12:20:30.418
17.0, -108.28506469726562, 115.6900634765625, -44.42066192626953, -1.9484878778457642, -0.03200000151991844, 0.03200000151991844, 1.055999994277954, 0.0, 0.0, 0.0, 0.0, 0.0, 1.6218516304181125E9, 2021-05-24 12:20:30.418
18.0, -103.64759063720703, 117.80684661865234, -37.84217834472656, -2.7076876163482666, -0.03200000151991844, 0.03200000151991844, 1.055999994277954, 0.0, 0.0, 0.0, 0.0, 0.0, 1.621851630418797E9, 2021-05-24 12:20:30.418
18.0, -99.78053283691406, 118.5361328125, -32.53525924682617, -1.0396921634674072, -0.03200000151991844, 0.03200000151991844, 1.055999994277954, 0.0, 0.0, 0.0, 0.0, 0.0, 1.621851630418797E9, 2021-05-24 12:20:30.418
19.0, -101.90853118896484, 119.79273223876953, -40.66206359863281, -5.677168369293213, -0.03200000151991844, 0.03200000151991844, 1.055999994277954, 0.0, 0.0, 0.0, 0.0, 0.0, 1.6218516304195082E9, 2021-05-24 12:20:30.419
19.0, -104.37686920166016, 112.9561996459961, -36.67532730102539, -12.192073822021484, -0.03200000151991844, 0.03200000151991844, 1.055999994277954, 0.0, 0.0, 0.0, 0.0, 0.0, 1.6218516304195082E9, 2021-05-24 12:20:30.419
20.0, -99.6458969116211, 120.79876708984375, -32.50160217285156, -6.167095184326172, -0.03200000151991844, 0.03200000151991844, 1.055999994277954, 0.0, 0.0, 0.0, 0.0, 0.0, 1.6218516304202847E9, 2021-05-24 12:20:30.420
20.0, -97.0990219116211, 118.42767333984375, -33.975120544433594, -13.093389511108398, -0.03200000151991844, 0.03200000151991844, 1.055999994277954, 0.0, 0.0, 0.0, 0.0, 0.0, 1.6218516304202847E9, 2021-05-24 12:20:30.420
21.0, -103.30352020263672, 111.66219329833984, -43.003238677978516, -14.667887687683105, -0.03200000151991844, 0.03200000151991844, 1.055999994277954, 0.0, 0.0, 0.0, 0.0, 0.0, 1.621851630431008E9, 2021-05-24 12:20:30.431
21.0, -99.88898468017578, 114.31752014160156, -35.040992736816406, -11.354336738586426, -0.03200000151991844, 0.03200000151991844, 1.055999994277954, 0.0, 0.0, 0.0, 0.0, 0.0, 1.621851630431008E9, 2021-05-24 12:20:30.431
22.0, -98.43416595458984, 115.8882827758789, -33.62356948852539, -8.336236953735352, -0.03200000151991844, 0.03200000151991844, 1.055999994277954, 0.0, 0.0, 0.0, 0.0, 0.0, 1.6218516304460597E9, 2021-05-24 12:20:30.446
22.0, -102.27130126953125, 113.33018493652344, -35.714176177978516, -9.82471752166748, -0.03200000151991844, 0.03200000151991844, 1.055999994277954, 0.0, 0.0, 0.0, 0.0, 0.0, 1.6218516304460597E9, 2021-05-24 12:20:30.446
23.0, -107.06211853027344, 116.56146240234375, -38.86690902709961, -9.843416213989258, -0.03200000151991844, 0.03200000151991844, 1.055999994277954, 0.0, 0.0, 0.0, 0.0, 0.0, 1.6218516304620862E9, 2021-05-24 12:20:30.462
23.0, -104.885498046875, 121.94691467285156, -34.891395568847656, -0.6320430636405945, -0.03200000151991844, 0.03200000151991844, 1.055999994277954, 0.0, 0.0, 0.0, 0.0, 0.0, 1.6218516304620862E9, 2021-05-24 12:20:30.462
24.0, -98.68099975585938, 124.2806167602539, -21.199623107910156, 2.7114274501800537, -0.03200000151991844, 0.03200000151991844, 1.055999994277954, 0.0, 0.0, 0.0, 0.0, 0.0, 1.621851630476858E9, 2021-05-24 12:20:30.476
24.0, -100.00118255615234, 124.08614349365234, -17.07077407836914, 11.30197811126709, -0.03200000151991844, 0.03200000151991844, 1.055999994277954, 0.0, 0.0, 0.0, 0.0, 0.0, 1.621851630476858E9, 2021-05-24 12:20:30.476
25.0, -97.22991943359375, 118.03124237060547, -25.68376350402832, 16.545316696166992, -0.03200000151991844, 0.03200000151991844, 1.055999994277954, 0.0, 0.0, 0.0, 0.0, 0.0, 1.6218516304774728E9, 2021-05-24 12:20:30.477
25.0, -103.73360443115234, 116.39690399169922, -25.339693069458008, 18.078676223754883, -0.03200000151991844, 0.03200000151991844, 1.055999994277954, 0.0, 0.0, 0.0, 0.0, 0.0, 1.6218516304774728E9, 2021-05-24 12:20:30.477
26.0, -95.74517822265625, 119.5458984375, -22.931196212768555, 22.13646697998047, -0.03200000151991844, 0.03200000151991844, 1.055999994277954, 0.0, 0.0, 0.0, 0.0, 0.0, 1.6218516304917445E9, 2021-05-24 12:20:30.491
26.0, -91.19371795654297, 119.19435119628906, -21.809226989746094, 12.352890014648438, -0.03200000151991844, 0.03200000151991844, 1.055999994277954, 0.0, 0.0, 0.0, 0.0, 0.0, 1.6218516304917445E9, 2021-05-24 12:20:30.491
27.0, -96.92698669433594, 116.31462860107422, -29.098291397094727, -0.14959600567817688, -0.03200000151991844, 0.03200000151991844, 1.055999994277954, 0.0, 0.0, 0.0, 0.0, 0.0, 1.6218516304924996E9, 2021-05-24 12:20:30.492
27.0, -93.46009826660156, 114.55313873291016, -24.6365909576416, 12.117276191711426, -0.03200000151991844, 0.03200000151991844, 1.055999994277954, 0.0, 0.0, 0.0, 0.0, 0.0, 1.6218516304924996E9, 2021-05-24 12:20:30.492
28.0, -87.51740264892578, 119.0597152709961, -17.8000545501709, 9.25625228881836, -0.03200000151991844, 0.03200000151991844, 1.055999994277954, 0.0, 0.0, 0.0, 0.0, 0.0, 1.621851630522428E9, 2021-05-24 12:20:30.522
28.0, -90.78233337402344, 118.79792022705078, -20.50400161743164, 4.3083648681640625, -0.03200000151991844, 0.03200000151991844, 1.055999994277954, 0.0, 0.0, 0.0, 0.0, 0.0, 1.621851630522428E9, 2021-05-24 12:20:30.522
29.0, -90.92070770263672, 120.17420196533203, -24.131704330444336, -3.051758289337158, -0.03200000151991844, 0.03200000151991844, 1.055999994277954, 0.0, 0.0, 0.0, 0.0, 0.0, 1.6218516305232666E9, 2021-05-24 12:20:30.523
29.0, -95.96583557128906, 114.94208526611328, -28.413890838623047, -7.105809688568115, -0.03200000151991844, 0.03200000151991844, 1.055999994277954, 0.0, 0.0, 0.0, 0.0, 0.0, 1.6218516305232666E9, 2021-05-24 12:20:30.523
30.0, -94.33523559570312, 121.54300689697266, -28.911296844482422, -9.910735130310059, -0.03200000151991844, 0.03200000151991844, 1.055999994277954, 0.0, 0.0, 0.0, 0.0, 0.0, 1.6218516305238893E9, 2021-05-24 12:20:30.523
30.0, -98.35189056396484, 120.34998321533203, -22.81525993347168, -13.18688678741455, -0.03200000151991844, 0.03200000151991844, 1.055999994277954, 0.0, 0.0, 0.0, 0.0, 0.0, 1.6218516305238893E9, 2021-05-24 12:20:30.523
31.0, -96.98682403564453, 122.70985412597656, -26.371904373168945, -4.9067487716674805, -0.03200000151991844, 0.03200000151991844, 1.055999994277954, 0.0, 0.0, 0.0, 0.0, 0.0, 1.621851630535988E9, 2021-05-24 12:20:30.535
31.0, -100.23680114746094, 123.37555694580078, -30.534412384033203, -13.942346572875977, -0.03200000151991844, 0.03200000151991844, 1.055999994277954, 0.0, 0.0, 0.0, 0.0, 0.0, 1.621851630535988E9, 2021-05-24 12:20:30.535
32.0, -103.45310974121094, 119.32898712158203, -21.74190902709961, -5.273259162902832, -0.03200000151991844, 0.03200000151991844, 1.055999994277954, 0.0, 0.0, 0.0, 0.0, 0.0, 1.6218516305517168E9, 2021-05-24 12:20:30.551
32.0, -93.95376586914062, 127.38847351074219, -17.168010711669922, -3.6576220989227295, -0.03200000151991844, 0.03200000151991844, 1.055999994277954, 0.0, 0.0, 0.0, 0.0, 0.0, 1.6218516305517168E9, 2021-05-24 12:20:30.551
33.0, -97.7011489868164, 127.3735122680664, -24.797407150268555, -3.481846809387207, -0.03200000151991844, 0.03200000151991844, 1.055999994277954, 0.0, 0.0, 0.0, 0.0, 0.0, 1.62185163055246E9, 2021-05-24 12:20:30.552
33.0, -104.56011962890625, 126.1430892944336, -30.743846893310547, 8.36241626739502, -0.03200000151991844, 0.03200000151991844, 1.055999994277954, 0.0, 0.0, 0.0, 0.0, 0.0, 1.62185163055246E9, 2021-05-24 12:20:30.552
34.0, -93.69197082519531, 126.33756256103516, -16.838899612426758, 14.394874572753906, -0.03200000151991844, 0.03200000151991844, 1.055999994277954, 0.0, 0.0, 0.0, 0.0, 0.0, 1.621851630566043E9, 2021-05-24 12:20:30.566
34.0, -91.45177459716797, 131.0872344970703, -17.545740127563477, 18.606002807617188, -0.03200000151991844, 0.03200000151991844, 1.055999994277954, 0.0, 0.0, 0.0, 0.0, 0.0, 1.621851630566043E9, 2021-05-24 12:20:30.566
35.0, -95.0308609008789, 130.37664794921875, -22.190696716308594, 15.804817199707031, -0.03200000151991844, 0.03200000151991844, 1.055999994277954, 0.0, 0.0, 0.0, 0.0, 0.0, 1.621851630581678E9, 2021-05-24 12:20:30.581
35.0, -93.03749084472656, 126.6517105102539, -20.563838958740234, 18.931373596191406, -0.03200000151991844, 0.03200000151991844, 1.055999994277954, 0.0, 0.0, 0.0, 0.0, 0.0, 1.621851630581678E9, 2021-05-24 12:20:30.581
36.0, -91.7173080444336, 129.53143310546875, -17.975830078125, 15.011958122253418, -0.03200000151991844, 0.03200000151991844, 1.055999994277954, 0.0, 0.0, 0.0, 0.0, 0.0, 1.621851630582482E9, 2021-05-24 12:20:30.582
36.0, -88.66181182861328, 129.50900268554688, -16.685564041137695, 13.444940567016602, -0.03200000151991844, 0.03200000151991844, 1.055999994277954, 0.0, 0.0, 0.0, 0.0, 0.0, 1.621851630582482E9, 2021-05-24 12:20:30.582
37.0, -88.86376190185547, 127.56050872802734, -20.39928436279297, 1.1481492519378662, -0.03200000151991844, 0.03200000151991844, 1.055999994277954, 0.0, 0.0, 0.0, 0.0, 0.0, 1.621851630596036E9, 2021-05-24 12:20:30.596
37.0, -88.63936614990234, 124.26565551757812, -25.04050064086914, 4.62251615524292, -0.03200000151991844, 0.03200000151991844, 1.055999994277954, 0.0, 0.0, 0.0, 0.0, 0.0, 1.621851630596036E9, 2021-05-24 12:20:30.596
38.0, -88.7515640258789, 127.50440979003906, -27.18720245361328, -4.439261436462402, -0.03200000151991844, 0.03200000151991844, 1.055999994277954, 0.0, 0.0, 0.0, 0.0, 0.0, 1.6218516306117644E9, 2021-05-24 12:20:30.611
38.0, -90.87957000732422, 130.08120727539062, -17.82623291015625, -10.860669136047363, -0.03200000151991844, 0.03200000151991844, 1.055999994277954, 0.0, 0.0, 0.0, 0.0, 0.0, 1.6218516306117644E9, 2021-05-24 12:20:30.611
39.0, -97.08406066894531, 124.71444702148438, -28.41762924194336, -10.262285232543945, -0.03200000151991844, 0.03200000151991844, 1.055999994277954, 0.0, 0.0, 0.0, 0.0, 0.0, 1.6218516306125245E9, 2021-05-24 12:20:30.612
39.0, -96.60535430908203, 131.51358032226562, -28.10721778869629, -9.62650203704834, -0.03200000151991844, 0.03200000151991844, 1.055999994277954, 0.0, 0.0, 0.0, 0.0, 0.0, 1.6218516306125245E9, 2021-05-24 12:20:30.612
40.0, -96.71381378173828, 136.8840789794922, -24.045686721801758, -6.492466449737549, -0.03200000151991844, 0.03200000151991844, 1.055999994277954, 0.0, 0.0, 0.0, 0.0, 0.0, 1.6218516306261277E9, 2021-05-24 12:20:30.626
40.0, -97.05040740966797, 134.2624053955078, -19.94675636291504, -0.9349749684333801, -0.03200000151991844, 0.03200000151991844, 1.055999994277954, 0.0, 0.0, 0.0, 0.0, 0.0, 1.6218516306261277E9, 2021-05-24 12:20:30.626
41.0, -97.47675323486328, 133.98565673828125, -26.75711441040039, -3.4968063831329346, -0.03200000151991844, 0.03200000151991844, 1.055999994277954, 0.0, 0.0, 0.0, 0.0, 0.0, 1.6218516306417952E9, 2021-05-24 12:20:30.641
41.0, -103.68124389648438, 127.48944854736328, -32.76713180541992, -0.15707579255104065, -0.03200000151991844, 0.03200000151991844, 1.055999994277954, 0.0, 0.0, 0.0, 0.0, 0.0, 1.6218516306417952E9, 2021-05-24 12:20:30.641
42.0, -98.55384063720703, 127.773681640625, -23.978368759155273, 1.6530357599258423, -0.03200000151991844, 0.03200000151991844, 1.055999994277954, 0.0, 0.0, 0.0, 0.0, 0.0, 1.6218516306425192E9, 2021-05-24 12:20:30.642
42.0, -93.01505279541016, 130.0251007080078, -24.453336715698242, 4.4990997314453125, -0.03200000151991844, 0.03200000151991844, 1.055999994277954, 0.0, 0.0, 0.0, 0.0, 0.0, 1.6218516306425192E9, 2021-05-24 12:20:30.642
43.0, -93.06366729736328, 131.26675415039062, -33.1934814453125, 4.420561790466309, -0.03200000151991844, 0.03200000151991844, 1.055999994277954, 0.0, 0.0, 0.0, 0.0, 0.0, 1.621851630656163E9, 2021-05-24 12:20:30.656
43.0, -90.54671478271484, 129.980224609375, -28.720561981201172, 8.867302894592285, -0.03200000151991844, 0.03200000151991844, 1.055999994277954, 0.0, 0.0, 0.0, 0.0, 0.0, 1.621851630656163E9, 2021-05-24 12:20:30.656
44.0, -86.60860443115234, 127.13416290283203, -21.319299697875977, 5.5350518226623535, -0.03200000151991844, 0.03200000151991844, 1.055999994277954, 0.0, 0.0, 0.0, 0.0, 0.0, 1.6218516306717067E9, 2021-05-24 12:20:30.671
44.0, -85.71102905273438, 131.91375732421875, -17.601839065551758, 10.916768074035645, -0.03200000151991844, 0.03200000151991844, 1.055999994277954, 0.0, 0.0, 0.0, 0.0, 0.0, 1.6218516306717067E9, 2021-05-24 12:20:30.671
45.0, -85.09768676757812, 130.7394256591797, -27.13858413696289, 8.007125854492188, -0.03200000151991844, 0.03200000151991844, 1.055999994277954, 0.0, 0.0, 0.0, 0.0, 0.0, 1.6218516306724064E9, 2021-05-24 12:20:30.672
45.0, -84.27116394042969, 123.70467376708984, -31.013120651245117, 4.730973243713379, -0.03200000151991844, 0.03200000151991844, 1.055999994277954, 0.0, 0.0, 0.0, 0.0, 0.0, 1.6218516306724064E9, 2021-05-24 12:20:30.672
46.0, -88.08212280273438, 127.53058624267578, -24.894643783569336, 8.250219345092773, -0.03200000151991844, 0.03200000151991844, 1.055999994277954, 0.0, 0.0, 0.0, 0.0, 0.0, 1.6218516306859996E9, 2021-05-24 12:20:30.685
46.0, -84.28612518310547, 129.83810424804688, -21.857845306396484, 1.6717352867126465, -0.03200000151991844, 0.03200000151991844, 1.055999994277954, 0.0, 0.0, 0.0, 0.0, 0.0, 1.6218516306859996E9, 2021-05-24 12:20:30.685
47.0, -88.04472351074219, 130.26071166992188, -20.88547134399414, 3.178915023803711, -0.03200000151991844, 0.03200000151991844, 1.055999994277954, 0.0, 0.0, 0.0, 0.0, 0.0, 1.621851630701749E9, 2021-05-24 12:20:30.701
47.0, -93.04122924804688, 125.9299087524414, -27.269479751586914, -1.6455559730529785, -0.03200000151991844, 0.03200000151991844, 1.055999994277954, 0.0, 0.0, 0.0, 0.0, 0.0, 1.621851630701749E9, 2021-05-24 12:20:30.701
48.0, -91.42933654785156, 130.54495239257812, -23.540800094604492, 0.830257773399353, -0.03200000151991844, 0.03200000151991844, 1.055999994277954, 0.0, 0.0, 0.0, 0.0, 0.0, 1.6218516307024536E9, 2021-05-24 12:20:30.702
48.0, -88.01106262207031, 130.62722778320312, -22.216875076293945, 3.6538822650909424, -0.03200000151991844, 0.03200000151991844, 1.055999994277954, 0.0, 0.0, 0.0, 0.0, 0.0, 1.6218516307024536E9, 2021-05-24 12:20:30.702
49.0, -92.1847915649414, 125.84015655517578, -25.20131492614746, 0.03365910053253174, -0.03200000151991844, 0.03200000151991844, 1.055999994277954, 0.0, 0.0, 0.0, 0.0, 0.0, 1.6218516307159855E9, 2021-05-24 12:20:30.715
49.0, -93.89766693115234, 127.18651580810547, -28.316652297973633, -5.4527740478515625, -0.03200000151991844, 0.03200000151991844, 1.055999994277954, 0.0, 0.0, 0.0, 0.0, 0.0, 1.6218516307159855E9, 2021-05-24 12:20:30.715
50.0, -89.05823516845703, 132.49717712402344, -20.19359016418457, 4.816991329193115, -0.03200000151991844, 0.03200000151991844, 1.055999994277954, 0.0, 0.0, 0.0, 0.0, 0.0, 1.6218516307318203E9, 2021-05-24 12:20:30.731
50.0, -87.57723999023438, 129.79696655273438, -16.20311737060547, 0.8339976668357849, -0.03200000151991844, 0.03200000151991844, 1.055999994277954, 0.0, 0.0, 0.0, 0.0, 0.0, 1.6218516307318203E9, 2021-05-24 12:20:30.731
51.0, -88.84880065917969, 132.527099609375, -20.90043067932129, -2.905902147293091, -0.03200000151991844, 0.03200000151991844, 1.055999994277954, 0.0, 0.0, 0.0, 0.0, 0.0, 1.6218516307326155E9, 2021-05-24 12:20:30.732
51.0, -90.58037567138672, 134.2624053955078, -21.106124877929688, -1.5707579851150513, -0.03200000151991844, 0.03200000151991844, 1.055999994277954, 0.0, 0.0, 0.0, 0.0, 0.0, 1.6218516307326155E9, 2021-05-24 12:20:30.732
52.0, -86.9227523803711, 139.1766357421875, -13.850719451904297, 8.676568031311035, -0.04800000041723251, 0.03200000151991844, 1.055999994277954, 0.0, 0.0, 0.0, 0.0, 0.0, 1.621851630746097E9, 2021-05-24 12:20:30.746
52.0, -83.41472625732422, 142.76319885253906, -11.176691055297852, 5.2657790184021, -0.04800000041723251, 0.03200000151991844, 1.055999994277954, 0.0, 0.0, 0.0, 0.0, 0.0, 1.621851630746097E9, 2021-05-24 12:20:30.746
53.0, -82.1805648803711, 135.11135864257812, -21.420276641845703, 3.0629780292510986, -0.04800000041723251, 0.03200000151991844, 1.055999994277954, 0.0, 0.0, 0.0, 0.0, 0.0, 1.6218516307618039E9, 2021-05-24 12:20:30.761
53.0, -90.50931549072266, 131.79782104492188, -21.308080673217773, -0.9274951815605164, -0.04800000041723251, 0.03200000151991844, 1.055999994277954, 0.0, 0.0, 0.0, 0.0, 0.0, 1.6218516307618039E9, 2021-05-24 12:20:30.761
54.0, -80.07125854492188, 133.46580505371094, -11.00091552734375, 14.839922904968262, -0.04800000041723251, 0.03200000151991844, 1.055999994277954, 0.0, 0.0, 0.0, 0.0, 0.0, 1.6218516307625494E9, 2021-05-24 12:20:30.762
54.0, -85.10516357421875, 132.4822235107422, -11.950850486755371, 13.575837135314941, -0.04800000041723251, 0.03200000151991844, 1.055999994277954, 0.0, 0.0, 0.0, 0.0, 0.0, 1.6218516307625494E9, 2021-05-24 12:20:30.762
55.0, -86.98258972167969, 132.25033569335938, -19.094058990478516, 3.9904732704162598, -0.04800000041723251, 0.03200000151991844, 1.055999994277954, 0.0, 0.0, 0.0, 0.0, 0.0, 1.621851630776019E9, 2021-05-24 12:20:30.776
55.0, -86.5225830078125, 133.14418029785156, -15.462615966796875, 1.92978835105896, -0.04800000041723251, 0.03200000151991844, 1.055999994277954, 0.0, 0.0, 0.0, 0.0, 0.0, 1.621851630776019E9, 2021-05-24 12:20:30.776
56.0, -88.83758544921875, 130.85910034179688, -10.720423698425293, 3.6015236377716064, -0.04800000041723251, 0.03200000151991844, 1.055999994277954, 0.0, 0.0, 0.0, 0.0, 0.0, 1.621851630791746E9, 2021-05-24 12:20:30.791
56.0, -90.05679321289062, 136.92147827148438, -8.491442680358887, 13.041030883789062, -0.04800000041723251, 0.03200000151991844, 1.055999994277954, 0.0, 0.0, 0.0, 0.0, 0.0, 1.621851630791746E9, 2021-05-24 12:20:30.791
57.0, -88.99839782714844, 134.78225708007812, -16.85759925842285, 8.007125854492188, -0.04800000041723251, 0.03200000151991844, 1.055999994277954, 0.0, 0.0, 0.0, 0.0, 0.0, 1.6218516307925713E9, 2021-05-24 12:20:30.792
57.0, -92.04267883300781, 134.5204620361328, -17.003454208374023, 3.9605541229248047, -0.04800000041723251, 0.03200000151991844, 1.055999994277954, 0.0, 0.0, 0.0, 0.0, 0.0, 1.6218516307925713E9, 2021-05-24 12:20:30.792
58.0, -88.37383270263672, 136.14358520507812, -15.387818336486816, 3.5753443241119385, -0.04800000041723251, 0.03200000151991844, 1.055999994277954, 0.0, 0.0, 0.0, 0.0, 0.0, 1.621851630822458E9, 2021-05-24 12:20:30.822
58.0, -88.14569854736328, 136.90652465820312, -14.748295783996582, 7.464840412139893, -0.04800000041723251, 0.03200000151991844, 1.055999994277954, 0.0, 0.0, 0.0, 0.0, 0.0, 1.621851630822458E9, 2021-05-24 12:20:30.822
59.0, -86.25704956054688, 140.69503784179688, -13.252335548400879, 0.7778992056846619, -0.04800000041723251, 0.03200000151991844, 1.055999994277954, 0.0, 0.0, 0.0, 0.0, 0.0, 1.621851630823259E9, 2021-05-24 12:20:30.823
59.0, -91.93795776367188, 134.0380096435547, -19.957975387573242, 1.062131643295288, -0.04800000041723251, 0.03200000151991844, 1.055999994277954, 0.0, 0.0, 0.0, 0.0, 0.0, 1.621851630823259E9, 2021-05-24 12:20:30.823
60.0, -86.60860443115234, 139.92088317871094, -12.223862648010254, -1.7801923751831055, -0.04800000041723251, 0.03200000151991844, 1.055999994277954, 0.0, 0.0, 0.0, 0.0, 0.0, 1.6218516308239024E9, 2021-05-24 12:20:30.823
60.0, -87.0985336303711, 137.9873504638672, -8.25956916809082, 11.99385929107666, -0.04800000041723251, 0.03200000151991844, 1.055999994277954, 0.0, 0.0, 0.0, 0.0, 0.0, 1.6218516308239024E9, 2021-05-24 12:20:30.823
61.0, -89.5743408203125, 131.3452911376953, -16.390111923217773, 7.977206707000732, -0.04800000041723251, 0.03200000151991844, 1.055999994277954, 0.0, 0.0, 0.0, 0.0, 0.0, 1.6218516308360207E9, 2021-05-24 12:20:30.836
61.0, -89.16295623779297, 135.82568359375, -19.782201766967773, 8.871042251586914, -0.04800000041723251, 0.03200000151991844, 1.055999994277954, 0.0, 0.0, 0.0, 0.0, 0.0, 1.6218516308360207E9, 2021-05-24 12:20:30.836
62.0, -90.05305480957031, 133.86598205566406, -17.16053009033203, 8.164201736450195, -0.04800000041723251, 0.03200000151991844, 1.055999994277954, 0.0, 0.0, 0.0, 0.0, 0.0, 1.621851630868085E9, 2021-05-24 12:20:30.868
62.0, -90.17646789550781, 132.91978454589844, -20.346925735473633, 8.22029972076416, -0.04800000041723251, 0.03200000151991844, 1.055999994277954, 0.0, 0.0, 0.0, 0.0, 0.0, 1.621851630868085E9, 2021-05-24 12:20:30.868
63.0, -92.59618377685547, 128.64134216308594, -21.39409828186035, 2.7376067638397217, -0.04800000041723251, 0.03200000151991844, 1.055999994277954, 0.0, 0.0, 0.0, 0.0, 0.0, 1.6218516308688686E9, 2021-05-24 12:20:30.868
63.0, -93.86775207519531, 134.69248962402344, -23.065832138061523, 0.9798538088798523, -0.04800000041723251, 0.03200000151991844, 1.055999994277954, 0.0, 0.0, 0.0, 0.0, 0.0, 1.6218516308688686E9, 2021-05-24 12:20:30.868
64.0, -93.80790710449219, 132.3924560546875, -22.059799194335938, 11.571250915527344, -0.04800000041723251, 0.03200000151991844, 1.055999994277954, 0.0, 0.0, 0.0, 0.0, 0.0, 1.6218516308695512E9, 2021-05-24 12:20:30.869
64.0, -94.1706771850586, 133.84727478027344, -15.518714904785156, 13.927387237548828, -0.04800000041723251, 0.03200000151991844, 1.055999994277954, 0.0, 0.0, 0.0, 0.0, 0.0, 1.6218516308695512E9, 2021-05-24 12:20:30.869
65.0, -94.58206939697266, 133.8397979736328, -17.77013397216797, 14.705286979675293, -0.04800000041723251, 0.03200000151991844, 1.055999994277954, 0.0, 0.0, 0.0, 0.0, 0.0, 1.621851630870276E9, 2021-05-24 12:20:30.870
65.0, -99.58231353759766, 131.89878845214844, -19.972936630249023, 17.454113006591797, -0.04800000041723251, 0.03200000151991844, 1.055999994277954, 0.0, 0.0, 0.0, 0.0, 0.0, 1.621851630870276E9, 2021-05-24 12:20:30.870
66.0, -95.75265502929688, 130.76934814453125, -22.445009231567383, 12.296791076660156, -0.04800000041723251, 0.03200000151991844, 1.055999994277954, 0.0, 0.0, 0.0, 0.0, 0.0, 1.6218516308810723E9, 2021-05-24 12:20:30.881
66.0, -88.48229217529297, 135.49282836914062, -14.490242004394531, 17.977699279785156, -0.04800000041723251, 0.03200000151991844, 1.055999994277954, 0.0, 0.0, 0.0, 0.0, 0.0, 1.6218516308810723E9, 2021-05-24 12:20:30.881
67.0, -89.95955657958984, 136.8915557861328, -16.663124084472656, 15.614082336425781, -0.04800000041723251, 0.03200000151991844, 1.055999994277954, 0.0, 0.0, 0.0, 0.0, 0.0, 1.6218516308960595E9, 2021-05-24 12:20:30.896
67.0, -88.56831359863281, 132.1418914794922, -19.583986282348633, 9.847156524658203, -0.04800000041723251, 0.03200000151991844, 1.055999994277954, 0.0, 0.0, 0.0, 0.0, 0.0, 1.6218516308960595E9, 2021-05-24 12:20:30.896
68.0, -89.34620666503906, 135.49658203125, -12.205163955688477, 12.020038604736328, -0.04800000041723251, 0.03200000151991844, 1.055999994277954, 0.0, 0.0, 0.0, 0.0, 0.0, 1.6218516309117353E9, 2021-05-24 12:20:30.911
68.0, -79.34945678710938, 141.56643676757812, -6.183924674987793, 16.41442108154297, -0.04800000041723251, 0.03200000151991844, 1.055999994277954, 0.0, 0.0, 0.0, 0.0, 0.0, 1.6218516309117353E9, 2021-05-24 12:20:30.911
69.0, -83.26139068603516, 142.17604064941406, -15.77676773071289, 13.325263977050781, -0.04800000041723251, 0.03200000151991844, 1.055999994277954, 0.0, 0.0, 0.0, 0.0, 0.0, 1.6218516309124675E9, 2021-05-24 12:20:30.912
69.0, -84.80223083496094, 133.42466735839844, -19.165117263793945, 9.607803344726562, -0.04800000041723251, 0.03200000151991844, 1.055999994277954, 0.0, 0.0, 0.0, 0.0, 0.0, 1.6218516309124675E9, 2021-05-24 12:20:30.912
70.0, -84.1514892578125, 131.35276794433594, -15.212042808532715, 17.951519012451172, -0.04800000041723251, 0.03200000151991844, 1.055999994277954, 0.0, 0.0, 0.0, 0.0, 0.0, 1.621851630925998E9, 2021-05-24 12:20:30.925
70.0, -83.04447937011719, 131.1246337890625, -12.46695613861084, 17.753305435180664, -0.04800000041723251, 0.03200000151991844, 1.055999994277954, 0.0, 0.0, 0.0, 0.0, 0.0, 1.621851630925998E9, 2021-05-24 12:20:30.925
71.0, -87.01625061035156, 126.9060287475586, -16.06100082397461, 15.015698432922363, -0.04800000041723251, 0.03200000151991844, 1.055999994277954, 0.0, 0.0, 0.0, 0.0, 0.0, 1.6218516309417136E9, 2021-05-24 12:20:30.941
71.0, -88.34391784667969, 124.32923126220703, -16.86507797241211, 15.587903022766113, -0.04800000041723251, 0.03200000151991844, 1.055999994277954, 0.0, 0.0, 0.0, 0.0, 0.0, 1.6218516309417136E9, 2021-05-24 12:20:30.941
72.0, -86.05509948730469, 125.49608612060547, -14.927810668945312, 14.93716049194336, -0.03200000151991844, 0.03200000151991844, 1.055999994277954, 0.0, 0.0, 0.0, 0.0, 0.0, 1.6218516309424334E9, 2021-05-24 12:20:30.942
72.0, -85.2360610961914, 130.1821746826172, -10.697983741760254, 25.263023376464844, -0.03200000151991844, 0.03200000151991844, 1.055999994277954, 0.0, 0.0, 0.0, 0.0, 0.0, 1.6218516309424334E9, 2021-05-24 12:20:30.942
73.0, -87.37154388427734, 128.4393768310547, -18.641530990600586, 15.430827140808105, -0.03200000151991844, 0.03200000151991844, 1.055999994277954, 0.0, 0.0, 0.0, 0.0, 0.0, 1.6218516309560397E9, 2021-05-24 12:20:30.956
73.0, -96.55299377441406, 121.2288589477539, -19.90935707092285, 11.646048545837402, -0.03200000151991844, 0.03200000151991844, 1.055999994277954, 0.0, 0.0, 0.0, 0.0, 0.0, 1.6218516309560397E9, 2021-05-24 12:20:30.956
74.0, -88.76278686523438, 124.68452453613281, -16.46864891052246, 7.46858024597168, -0.03200000151991844, 0.03200000151991844, 1.055999994277954, 0.0, 0.0, 0.0, 0.0, 0.0, 1.6218516309717212E9, 2021-05-24 12:20:30.971
74.0, -85.93167877197266, 135.4853515625, -7.305894374847412, 3.0816776752471924, -0.03200000151991844, 0.03200000151991844, 1.055999994277954, 0.0, 0.0, 0.0, 0.0, 0.0, 1.6218516309717212E9, 2021-05-24 12:20:30.971
75.0, -87.13218688964844, 133.96694946289062, -12.953143119812012, 8.833643913269043, -0.03200000151991844, 0.03200000151991844, 1.055999994277954, 0.0, 0.0, 0.0, 0.0, 0.0, 1.6218516309724078E9, 2021-05-24 12:20:30.972
75.0, -91.06656646728516, 126.87236785888672, -21.00514793395996, 12.079876899719238, -0.03200000151991844, 0.03200000151991844, 1.055999994277954, 0.0, 0.0, 0.0, 0.0, 0.0, 1.6218516309724078E9, 2021-05-24 12:20:30.972
76.0, -82.83504486083984, 131.1620330810547, -10.944817543029785, 10.666194915771484, -0.03200000151991844, 0.03200000151991844, 1.055999994277954, 0.0, 0.0, 0.0, 0.0, 0.0, 1.6218516309860482E9, 2021-05-24 12:20:30.986
76.0, -88.11578369140625, 129.34817504882812, -11.681577682495117, 7.382562637329102, -0.03200000151991844, 0.03200000151991844, 1.055999994277954, 0.0, 0.0, 0.0, 0.0, 0.0, 1.6218516309860482E9, 2021-05-24 12:20:30.986
77.0, -82.87618255615234, 133.2115020751953, -15.892704963684082, 4.3083648681640625, -0.03200000151991844, 0.03200000151991844, 1.055999994277954, 0.0, 0.0, 0.0, 0.0, 0.0, 1.6218516310017545E9, 2021-05-24 12:20:31.001
77.0, -84.6563720703125, 132.8599395751953, -16.367671966552734, 10.669934272766113, -0.03200000151991844, 0.03200000151991844, 1.055999994277954, 0.0, 0.0, 0.0, 0.0, 0.0, 1.6218516310017545E9, 2021-05-24 12:20:31.001
78.0, -78.37334442138672, 134.89071655273438, -18.275020599365234, 6.941254138946533, -0.03200000151991844, 0.03200000151991844, 1.055999994277954, 0.0, 0.0, 0.0, 0.0, 0.0, 1.62185163100257E9, 2021-05-24 12:20:31.002
78.0, -76.97087860107422, 132.88238525390625, -13.009242057800293, 14.99699878692627, -0.03200000151991844, 0.03200000151991844, 1.055999994277954, 0.0, 0.0, 0.0, 0.0, 0.0, 1.62185163100257E9, 2021-05-24 12:20:31.002
79.0, -82.08706665039062, 134.1389923095703, -17.553220748901367, 1.439861536026001, -0.03200000151991844, 0.03200000151991844, 1.055999994277954, 0.0, 0.0, 0.0, 0.0, 0.0, 1.6218516310159976E9, 2021-05-24 12:20:31.015
79.0, -87.1209716796875, 127.2912368774414, -24.647809982299805, 2.142962694168091, -0.03200000151991844, 0.03200000151991844, 1.055999994277954, 0.0, 0.0, 0.0, 0.0, 0.0, 1.6218516310159976E9, 2021-05-24 12:20:31.015
80.0, -83.96075439453125, 134.9767303466797, -17.676637649536133, 11.223440170288086, -0.03200000151991844, 0.03200000151991844, 1.055999994277954, 0.0, 0.0, 0.0, 0.0, 0.0, 1.6218516310317383E9, 2021-05-24 12:20:31.031
80.0, -83.39977264404297, 135.6461639404297, -18.772428512573242, 15.95067310333252, -0.03200000151991844, 0.03200000151991844, 1.055999994277954, 0.0, 0.0, 0.0, 0.0, 0.0, 1.6218516310317383E9, 2021-05-24 12:20:31.031
81.0, -91.2161636352539, 130.47015380859375, -24.46829605102539, 17.188579559326172, -0.03200000151991844, 0.03200000151991844, 1.055999994277954, 0.0, 0.0, 0.0, 0.0, 0.0, 1.6218516310325272E9, 2021-05-24 12:20:31.032
81.0, -92.8654556274414, 132.49343872070312, -23.787633895874023, 4.113890171051025, -0.03200000151991844, 0.03200000151991844, 1.055999994277954, 0.0, 0.0, 0.0, 0.0, 0.0, 1.6218516310325272E9, 2021-05-24 12:20:31.032
82.0, -90.30362701416016, 130.6160125732422, -21.132305145263672, 15.928234100341797, -0.03200000151991844, 0.03200000151991844, 1.055999994277954, 0.0, 0.0, 0.0, 0.0, 0.0, 1.6218516310459952E9, 2021-05-24 12:20:31.045
82.0, -86.89283752441406, 131.49114990234375, -16.84638023376465, 16.481739044189453, -0.03200000151991844, 0.03200000151991844, 1.055999994277954, 0.0, 0.0, 0.0, 0.0, 0.0, 1.6218516310459952E9, 2021-05-24 12:20:31.045
83.0, -89.87353515625, 133.68272399902344, -18.9856014251709, 7.786471843719482, -0.03200000151991844, 0.03200000151991844, 1.055999994277954, 0.0, 0.0, 0.0, 0.0, 0.0, 1.6218516310618596E9, 2021-05-24 12:20:31.061
83.0, -92.41292572021484, 130.96755981445312, -22.79281997680664, 8.283878326416016, -0.03200000151991844, 0.03200000151991844, 1.055999994277954, 0.0, 0.0, 0.0, 0.0, 0.0, 1.6218516310618596E9, 2021-05-24 12:20:31.061
84.0, -88.10456085205078, 133.51068115234375, -9.280561447143555, 18.246971130371094, -0.03200000151991844, 0.03200000151991844, 1.055999994277954, 0.0, 0.0, 0.0, 0.0, 0.0, 1.6218516310626323E9, 2021-05-24 12:20:31.062
84.0, -78.24618530273438, 135.0590057373047, -10.7017240524292, 19.410079956054688, -0.03200000151991844, 0.03200000151991844, 1.055999994277954, 0.0, 0.0, 0.0, 0.0, 0.0, 1.6218516310626323E9, 2021-05-24 12:20:31.062
85.0, -82.16560363769531, 133.794921875, -8.095013618469238, 14.817483901977539, -0.03200000151991844, 0.03200000151991844, 1.055999994277954, 0.0, 0.0, 0.0, 0.0, 0.0, 1.6218516310759895E9, 2021-05-24 12:20:31.075
85.0, -86.66470336914062, 131.73797607421875, -15.582293510437012, 6.982393264770508, -0.03200000151991844, 0.03200000151991844, 1.055999994277954, 0.0, 0.0, 0.0, 0.0, 0.0, 1.6218516310759895E9, 2021-05-24 12:20:31.075
86.0, -79.5738525390625, 135.77706909179688, -18.402177810668945, 12.753058433532715, -0.03200000151991844, 0.03200000151991844, 1.055999994277954, 0.0, 0.0, 0.0, 0.0, 0.0, 1.6218516310917263E9, 2021-05-24 12:20:31.091
86.0, -75.65069580078125, 139.90591430664062, -11.255228996276855, 14.256498336791992, -0.03200000151991844, 0.03200000151991844, 1.055999994277954, 0.0, 0.0, 0.0, 0.0, 0.0, 1.6218516310917263E9, 2021-05-24 12:20:31.091
87.0, -84.31978607177734, 136.14358520507812, -16.63320541381836, 10.561477661132812, -0.03200000151991844, 0.03200000151991844, 1.055999994277954, 0.0, 0.0, 0.0, 0.0, 0.0, 1.6218516310924504E9, 2021-05-24 12:20:31.092
87.0, -81.82527160644531, 131.56219482421875, -20.055213928222656, 14.92594051361084, -0.03200000151991844, 0.03200000151991844, 1.055999994277954, 0.0, 0.0, 0.0, 0.0, 0.0, 1.6218516310924504E9, 2021-05-24 12:20:31.092
88.0, -80.96135711669922, 132.2241668701172, -13.035421371459961, 20.79384422302246, -0.03200000151991844, 0.03200000151991844, 1.055999994277954, 0.0, 0.0, 0.0, 0.0, 0.0, 1.6218516311059916E9, 2021-05-24 12:20:31.105
88.0, -82.51341247558594, 134.23997497558594, -20.1000919342041, 15.528064727783203, -0.03200000151991844, 0.03200000151991844, 1.055999994277954, 0.0, 0.0, 0.0, 0.0, 0.0, 1.6218516311059916E9, 2021-05-24 12:20:31.105
89.0, -84.71621704101562, 135.1861572265625, -20.840593338012695, 16.979145050048828, -0.03200000151991844, 0.03200000151991844, 1.055999994277954, 0.0, 0.0, 0.0, 0.0, 0.0, 1.6218516311217809E9, 2021-05-24 12:20:31.121
89.0, -88.93482208251953, 131.27796936035156, -22.45623016357422, 16.246126174926758, -0.03200000151991844, 0.03200000151991844, 1.055999994277954, 0.0, 0.0, 0.0, 0.0, 0.0, 1.6218516311217809E9, 2021-05-24 12:20:31.121
90.0, -96.10794830322266, 131.4200897216797, -22.04483985900879, 13.744132041931152, -0.03200000151991844, 0.03200000151991844, 1.055999994277954, 0.0, 0.0, 0.0, 0.0, 0.0, 1.6218516311225326E9, 2021-05-24 12:20:31.122
90.0, -86.12989807128906, 137.71060180664062, -21.24076271057129, 3.47810697555542, -0.03200000151991844, 0.03200000151991844, 1.055999994277954, 0.0, 0.0, 0.0, 0.0, 0.0, 1.6218516311225326E9, 2021-05-24 12:20:31.122
91.0, -88.26164245605469, 141.69358825683594, -21.27442169189453, 17.10630226135254, -0.03200000151991844, 0.03200000151991844, 1.055999994277954, 0.0, 0.0, 0.0, 0.0, 0.0, 1.6218516311359901E9, 2021-05-24 12:20:31.135
91.0, -91.74722290039062, 132.9384765625, -16.629465103149414, 13.070950508117676, -0.03200000151991844, 0.03200000151991844, 1.055999994277954, 0.0, 0.0, 0.0, 0.0, 0.0, 1.6218516311359901E9, 2021-05-24 12:20:31.135
92.0, -84.88450622558594, 137.3253936767578, -16.827680587768555, 8.216560363769531, -0.03200000151991844, 0.03200000151991844, 1.055999994277954, 0.0, 0.0, 0.0, 0.0, 0.0, 1.6218516311516836E9, 2021-05-24 12:20:31.151
92.0, -80.7780990600586, 142.75572204589844, -11.445963859558105, 14.170480728149414, -0.03200000151991844, 0.03200000151991844, 1.055999994277954, 0.0, 0.0, 0.0, 0.0, 0.0, 1.6218516311516836E9, 2021-05-24 12:20:31.151
93.0, -83.61668395996094, 144.31900024414062, -16.973535537719727, 3.5940439701080322, -0.03200000151991844, 0.03200000151991844, 1.055999994277954, 0.0, 0.0, 0.0, 0.0, 0.0, 1.621851631152512E9, 2021-05-24 12:20:31.152
93.0, -85.213623046875, 141.78709411621094, -20.89295196533203, 4.30088472366333, -0.03200000151991844, 0.03200000151991844, 1.055999994277954, 0.0, 0.0, 0.0, 0.0, 0.0, 1.621851631152512E9, 2021-05-24 12:20:31.152
94.0, -83.23895263671875, 146.6414794921875, -14.176091194152832, 10.445540428161621, -0.03200000151991844, 0.03200000151991844, 1.055999994277954, 0.0, 0.0, 0.0, 0.0, 0.0, 1.6218516311659863E9, 2021-05-24 12:20:31.165
94.0, -83.01455688476562, 143.73558044433594, -16.281654357910156, 6.750519275665283, -0.03200000151991844, 0.03200000151991844, 1.055999994277954, 0.0, 0.0, 0.0, 0.0, 0.0, 1.6218516311659863E9, 2021-05-24 12:20:31.165
95.0, -93.91636657714844, 139.83111572265625, -26.1923885345459, 2.8198845386505127, -0.03200000151991844, 0.03200000151991844, 1.055999994277954, 0.0, 0.0, 0.0, 0.0, 0.0, 1.6218516311817255E9, 2021-05-24 12:20:31.181
95.0, -90.72623443603516, 139.79745483398438, -24.415937423706055, 3.504286289215088, -0.03200000151991844, 0.03200000151991844, 1.055999994277954, 0.0, 0.0, 0.0, 0.0, 0.0, 1.6218516311817255E9, 2021-05-24 12:20:31.181
96.0, -93.34042358398438, 147.8644256591797, -24.561792373657227, 3.754859447479248, -0.03200000151991844, 0.03200000151991844, 1.055999994277954, 0.0, 0.0, 0.0, 0.0, 0.0, 1.6218516311824417E9, 2021-05-24 12:20:31.182
96.0, -84.00563049316406, 146.58163452148438, -20.25716781616211, 15.599123001098633, -0.03200000151991844, 0.03200000151991844, 1.055999994277954, 0.0, 0.0, 0.0, 0.0, 0.0, 1.6218516311824417E9, 2021-05-24 12:20:31.182
97.0, -89.96329498291016, 141.5028533935547, -28.716821670532227, 15.083016395568848, -0.03200000151991844, 0.03200000151991844, 1.055999994277954, 0.0, 0.0, 0.0, 0.0, 0.0, 1.6218516311960137E9, 2021-05-24 12:20:31.196
97.0, -90.33354187011719, 139.89096069335938, -21.77556800842285, 7.341423511505127, -0.03200000151991844, 0.03200000151991844, 1.055999994277954, 0.0, 0.0, 0.0, 0.0, 0.0, 1.6218516311960137E9, 2021-05-24 12:20:31.196
98.0, -91.92674255371094, 141.98904418945312, -18.368518829345703, 14.159261703491211, -0.03200000151991844, 0.03200000151991844, 1.055999994277954, 0.0, 0.0, 0.0, 0.0, 0.0, 1.6218516312116947E9, 2021-05-24 12:20:31.211
98.0, -90.71875, 137.2318878173828, -18.439577102661133, 20.397415161132812, -0.03200000151991844, 0.03200000151991844, 1.055999994277954, 0.0, 0.0, 0.0, 0.0, 0.0, 1.6218516312116947E9, 2021-05-24 12:20:31.211
99.0, -99.3055648803711, 131.96237182617188, -29.89488983154297, 15.730019569396973, -0.03200000151991844, 0.03200000151991844, 1.055999994277954, 0.0, 0.0, 0.0, 0.0, 0.0, 1.6218516312124493E9, 2021-05-24 12:20:31.212
99.0, -103.01180267333984, 129.980224609375, -28.619585037231445, 10.699853897094727, -0.03200000151991844, 0.03200000151991844, 1.055999994277954, 0.0, 0.0, 0.0, 0.0, 0.0, 1.6218516312124493E9, 2021-05-24 12:20:31.212
100.0, -93.23196411132812, 131.73049926757812, -22.979814529418945, 11.298237800598145, -0.03200000151991844, 0.03200000151991844, 1.055999994277954, 0.0, 0.0, 0.0, 0.0, 0.0, 1.6218516312268147E9, 2021-05-24 12:20:31.226
100.0, -89.39482879638672, 132.2241668701172, -16.67434310913086, 18.531204223632812, -0.03200000151991844, 0.03200000151991844, 1.055999994277954, 0.0, 0.0, 0.0, 0.0, 0.0, 1.6218516312268147E9, 2021-05-24 12:20:31.226
0.0, -91.822021484375, 127.27440643310547, -23.8680419921875, 10.496028900146484, -0.03200000151991844, 0.03200000151991844, 1.055999994277954, 0.0, 0.0, 0.0, 0.0, 0.0, 1.6218516312274487E9, 2021-05-24 12:20:31.227
1.0, -90.80477142333984, 129.2976837158203, -26.542070388793945, 1.7147440910339355, -0.03200000151991844, 0.03200000151991844, 1.055999994277954, 0.0, 0.0, 0.0, 0.0, 0.0, 1.6218516312411916E9, 2021-05-24 12:20:31.241
1.0, -86.15607452392578, 128.59458923339844, -15.793597221374512, 1.9840168952941895, -0.03200000151991844, 0.03200000151991844, 1.055999994277954, 0.0, 0.0, 0.0, 0.0, 0.0, 1.6218516312411916E9, 2021-05-24 12:20:31.241
2.0, -83.83733367919922, 135.93226623535156, -14.084463119506836, 2.8890726566314697, -0.03200000151991844, 0.03200000151991844, 1.055999994277954, 0.0, 0.0, 0.0, 0.0, 0.0, 1.621851631256757E9, 2021-05-24 12:20:31.256
2.0, -80.61354064941406, 129.9484405517578, -18.145994186401367, 7.8556599617004395, -0.03200000151991844, 0.03200000151991844, 1.055999994277954, 0.0, 0.0, 0.0, 0.0, 0.0, 1.621851631256757E9, 2021-05-24 12:20:31.256
3.0, -83.05944061279297, 123.17173767089844, -18.291851043701172, 3.7829089164733887, -0.03200000151991844, 0.03200000151991844, 1.055999994277954, 0.0, 0.0, 0.0, 0.0, 0.0, 1.6218516312575467E9, 2021-05-24 12:20:31.257
3.0, -75.5609359741211, 126.61992645263672, -19.14080810546875, 16.20311737060547, -0.03200000151991844, 0.03200000151991844, 1.055999994277954, 0.0, 0.0, 0.0, 0.0, 0.0, 1.6218516312575467E9, 2021-05-24 12:20:31.257
4.0, -79.02408599853516, 133.35174560546875, -20.64424705505371, 12.710049629211426, -0.03200000151991844, 0.03200000151991844, 1.055999994277954, 0.0, 0.0, 0.0, 0.0, 0.0, 1.621851631271162E9, 2021-05-24 12:20:31.271
4.0, -89.47710418701172, 131.31723022460938, -30.988811492919922, 20.32822608947754, -0.03200000151991844, 0.03200000151991844, 1.055999994277954, 0.0, 0.0, 0.0, 0.0, 0.0, 1.621851631271162E9, 2021-05-24 12:20:31.271
5.0, -91.54153442382812, 123.8299560546875, -27.23769187927246, 19.647563934326172, -0.03200000151991844, 0.03200000151991844, 1.055999994277954, 0.0, 0.0, 0.0, 0.0, 0.0, 1.621851631287202E9, 2021-05-24 12:20:31.287
5.0, -92.74578094482422, 126.16365814208984, -24.032596588134766, 33.43657684326172, -0.03200000151991844, 0.03200000151991844, 1.055999994277954, 0.0, 0.0, 0.0, 0.0, 0.0, 1.621851631287202E9, 2021-05-24 12:20:31.287
6.0, -91.55648803710938, 126.81066131591797, -31.605894088745117, 27.6472110748291, -0.03200000151991844, 0.03200000151991844, 1.055999994277954, 0.0, 0.0, 0.0, 0.0, 0.0, 1.6218516313018208E9, 2021-05-24 12:20:31.301
6.0, -92.70838165283203, 123.1679916381836, -34.03683090209961, 26.371904373168945, -0.03200000151991844, 0.03200000151991844, 1.055999994277954, 0.0, 0.0, 0.0, 0.0, 0.0, 1.6218516313018208E9, 2021-05-24 12:20:31.301
7.0, -92.37178802490234, 118.54174041748047, -29.15999984741211, 25.728641510009766, -0.03200000151991844, 0.03200000151991844, 1.055999994277954, 0.0, 0.0, 0.0, 0.0, 0.0, 1.6218516313025951E9, 2021-05-24 12:20:31.302
7.0, -90.42704010009766, 123.45970916748047, -24.343008041381836, 27.030126571655273, -0.03200000151991844, 0.03200000151991844, 1.055999994277954, 0.0, 0.0, 0.0, 0.0, 0.0, 1.6218516313025951E9, 2021-05-24 12:20:31.302
8.0, -81.0772933959961, 127.95132446289062, -20.26277732849121, 31.877037048339844, -0.03200000151991844, 0.03200000151991844, 1.055999994277954, 0.0, 0.0, 0.0, 0.0, 0.0, 1.6218516313168032E9, 2021-05-24 12:20:31.316
8.0, -86.26079559326172, 122.36017608642578, -27.144193649291992, 24.322439193725586, -0.03200000151991844, 0.03200000151991844, 1.055999994277954, 0.0, 0.0, 0.0, 0.0, 0.0, 1.6218516313168032E9, 2021-05-24 12:20:31.316
9.0, -86.57494354248047, 111.73886108398438, -29.964078903198242, 15.08488655090332, -0.03200000151991844, 0.03200000151991844, 1.055999994277954, 0.0, 0.0, 0.0, 0.0, 0.0, 1.6218516313174183E9, 2021-05-24 12:20:31.317
9.0, -73.68350982666016, 122.51725006103516, -19.772851943969727, 16.225555419921875, -0.03200000151991844, 0.03200000151991844, 1.055999994277954, 0.0, 0.0, 0.0, 0.0, 0.0, 1.6218516313174183E9, 2021-05-24 12:20:31.317
10.0, -71.39842987060547, 123.96833038330078, -15.370988845825195, 17.257768630981445, -0.03200000151991844, 0.03200000151991844, 1.040000081062317, 0.0, 0.0, 0.0, 0.0, 0.0, 1.6218516313474104E9, 2021-05-24 12:20:31.347
10.0, -79.35693359375, 112.95806884765625, -21.841014862060547, 12.605332374572754, -0.03200000151991844, 0.03200000151991844, 1.040000081062317, 0.0, 0.0, 0.0, 0.0, 0.0, 1.6218516313474104E9, 2021-05-24 12:20:31.347
11.0, -77.17283630371094, 115.52364349365234, -16.05912971496582, 13.465509414672852, -0.03200000151991844, 0.03200000151991844, 1.040000081062317, 0.0, 0.0, 0.0, 0.0, 0.0, 1.6218516313481548E9, 2021-05-24 12:20:31.348
11.0, -76.85120391845703, 114.798095703125, -13.553397178649902, 21.708250045776367, -0.03200000151991844, 0.03200000151991844, 1.040000081062317, 0.0, 0.0, 0.0, 0.0, 0.0, 1.6218516313481548E9, 2021-05-24 12:20:31.348
12.0, -76.10322570800781, 122.943603515625, -10.082770347595215, 24.55431365966797, -0.03200000151991844, 0.03200000151991844, 1.040000081062317, 0.0, 0.0, 0.0, 0.0, 0.0, 1.6218516313488588E9, 2021-05-24 12:20:31.348
12.0, -80.68833923339844, 121.91886901855469, -16.549057006835938, 23.26030731201172, -0.03200000151991844, 0.03200000151991844, 1.040000081062317, 0.0, 0.0, 0.0, 0.0, 0.0, 1.6218516313488588E9, 2021-05-24 12:20:31.348
13.0, -82.73780822753906, 123.49337005615234, -21.83353614807129, 20.960269927978516, -0.03200000151991844, 0.03200000151991844, 1.040000081062317, 0.0, 0.0, 0.0, 0.0, 0.0, 1.6218516313611772E9, 2021-05-24 12:20:31.361
13.0, -83.94205474853516, 123.9309310913086, -12.24443244934082, 32.3781852722168, -0.03200000151991844, 0.03200000151991844, 1.040000081062317, 0.0, 0.0, 0.0, 0.0, 0.0, 1.6218516313611772E9, 2021-05-24 12:20:31.361
14.0, -88.04472351074219, 123.3063735961914, -16.97166633605957, 27.22460174560547, -0.03200000151991844, 0.03200000151991844, 1.040000081062317, 0.0, 0.0, 0.0, 0.0, 0.0, 1.6218516313766685E9, 2021-05-24 12:20:31.376
14.0, -90.40086364746094, 120.60990142822266, -25.32286262512207, 24.187803268432617, -0.03200000151991844, 0.03200000151991844, 1.040000081062317, 0.0, 0.0, 0.0, 0.0, 0.0, 1.6218516313766685E9, 2021-05-24 12:20:31.376
15.0, -97.57025146484375, 118.52677917480469, -29.964078903198242, 19.69244384765625, -0.03200000151991844, 0.03200000151991844, 1.040000081062317, 0.0, 0.0, 0.0, 0.0, 0.0, 1.621851631377386E9, 2021-05-24 12:20:31.377
15.0, -89.56312561035156, 125.38201904296875, -23.901700973510742, 12.653951644897461, -0.03200000151991844, 0.03200000151991844, 1.040000081062317, 0.0, 0.0, 0.0, 0.0, 0.0, 1.621851631377386E9, 2021-05-24 12:20:31.377
16.0, -86.96015167236328, 127.63343811035156, -21.321168899536133, 20.13749122619629, -0.03200000151991844, 0.03200000151991844, 1.040000081062317, 0.0, 0.0, 0.0, 0.0, 0.0, 1.6218516313910987E9, 2021-05-24 12:20:31.391
16.0, -92.91781616210938, 128.1233673095703, -27.907133102416992, 16.23677635192871, -0.03200000151991844, 0.03200000151991844, 1.040000081062317, 0.0, 0.0, 0.0, 0.0, 0.0, 1.6218516313910987E9, 2021-05-24 12:20:31.391
17.0, -92.29325103759766, 130.20648193359375, -27.383546829223633, 14.699676513671875, -0.03200000151991844, 0.03200000151991844, 1.040000081062317, 0.0, 0.0, 0.0, 0.0, 0.0, 1.621851631406676E9, 2021-05-24 12:20:31.406
17.0, -84.74239349365234, 126.59374237060547, -18.542423248291016, 17.093212127685547, -0.03200000151991844, 0.03200000151991844, 1.040000081062317, 0.0, 0.0, 0.0, 0.0, 0.0, 1.621851631406676E9, 2021-05-24 12:20:31.406
18.0, -84.8508529663086, 124.04312896728516, -20.78636360168457, 18.948204040527344, -0.03200000151991844, 0.03200000151991844, 1.040000081062317, 0.0, 0.0, 0.0, 0.0, 0.0, 1.6218516314073565E9, 2021-05-24 12:20:31.407
18.0, -82.57698822021484, 121.01007080078125, -25.999784469604492, 11.591819763183594, -0.03200000151991844, 0.03200000151991844, 1.040000081062317, 0.0, 0.0, 0.0, 0.0, 0.0, 1.6218516314073565E9, 2021-05-24 12:20:31.407
19.0, -84.45816040039062, 123.93467712402344, -15.928234100341797, 6.905725479125977, -0.03200000151991844, 0.03200000151991844, 1.040000081062317, 0.0, 0.0, 0.0, 0.0, 0.0, 1.621851631421128E9, 2021-05-24 12:20:31.421
19.0, -84.10286712646484, 127.85034942626953, -13.482338905334473, 11.344986915588379, -0.03200000151991844, 0.03200000151991844, 1.040000081062317, 0.0, 0.0, 0.0, 0.0, 0.0, 1.621851631421128E9, 2021-05-24 12:20:31.421
20.0, -83.14171600341797, 131.2386932373047, -12.308011054992676, 19.93179702758789, -0.03200000151991844, 0.03200000151991844, 1.040000081062317, 0.0, 0.0, 0.0, 0.0, 0.0, 1.6218516314366748E9, 2021-05-24 12:20:31.436
20.0, -89.9371109008789, 128.69557189941406, -17.60744857788086, 17.844932556152344, -0.03200000151991844, 0.03200000151991844, 1.040000081062317, 0.0, 0.0, 0.0, 0.0, 0.0, 1.6218516314366748E9, 2021-05-24 12:20:31.436
21.0, -90.60655975341797, 129.09573364257812, -18.650880813598633, 13.61884593963623, -0.03200000151991844, 0.03200000151991844, 1.040000081062317, 0.0, 0.0, 0.0, 0.0, 0.0, 1.62185163143745E9, 2021-05-24 12:20:31.437
21.0, -88.96099853515625, 129.3089141845703, -18.63966178894043, 15.653350830078125, -0.03200000151991844, 0.03200000151991844, 1.040000081062317, 0.0, 0.0, 0.0, 0.0, 0.0, 1.62185163143745E9, 2021-05-24 12:20:31.437
22.0, -88.72538757324219, 128.71426391601562, -19.90374755859375, 25.515466690063477, -0.03200000151991844, 0.03200000151991844, 1.040000081062317, 0.0, 0.0, 0.0, 0.0, 0.0, 1.6218516314510262E9, 2021-05-24 12:20:31.451
22.0, -85.35199737548828, 132.9889678955078, -22.50297737121582, 26.84313201904297, -0.03200000151991844, 0.03200000151991844, 1.040000081062317, 0.0, 0.0, 0.0, 0.0, 0.0, 1.6218516314510262E9, 2021-05-24 12:20:31.451
23.0, -87.95122528076172, 131.69496154785156, -25.38644027709961, 16.416290283203125, -0.03200000151991844, 0.03200000151991844, 1.040000081062317, 0.0, 0.0, 0.0, 0.0, 0.0, 1.6218516314668365E9, 2021-05-24 12:20:31.466
23.0, -89.42100524902344, 129.0433807373047, -24.952611923217773, 15.713190078735352, -0.03200000151991844, 0.03200000151991844, 1.040000081062317, 0.0, 0.0, 0.0, 0.0, 0.0, 1.6218516314668365E9, 2021-05-24 12:20:31.466
24.0, -86.32063293457031, 131.30975341796875, -19.14080810546875, 19.87569808959961, -0.03200000151991844, 0.03200000151991844, 1.040000081062317, 0.0, 0.0, 0.0, 0.0, 0.0, 1.6218516314675505E9, 2021-05-24 12:20:31.467
24.0, -78.9530258178711, 131.5416259765625, -25.498638153076172, 15.720669746398926, -0.03200000151991844, 0.03200000151991844, 1.040000081062317, 0.0, 0.0, 0.0, 0.0, 0.0, 1.6218516314675505E9, 2021-05-24 12:20:31.467
25.0, -90.88704681396484, 128.85264587402344, -29.391874313354492, 15.971242904663086, -0.03200000151991844, 0.03200000151991844, 1.040000081062317, 0.0, 0.0, 0.0, 0.0, 0.0, 1.6218516314810643E9, 2021-05-24 12:20:31.481
25.0, -89.5930404663086, 134.6307830810547, -27.839815139770508, 11.943370819091797, -0.03200000151991844, 0.03200000151991844, 1.040000081062317, 0.0, 0.0, 0.0, 0.0, 0.0, 1.6218516314810643E9, 2021-05-24 12:20:31.481
26.0, -78.593994140625, 137.80970764160156, -21.324909210205078, 15.997422218322754, -0.03200000151991844, 0.03200000151991844, 1.040000081062317, 0.0, 0.0, 0.0, 0.0, 0.0, 1.6218516314967198E9, 2021-05-24 12:20:31.496
26.0, -82.10576629638672, 135.87991333007812, -34.541717529296875, 9.086087226867676, -0.03200000151991844, 0.03200000151991844, 1.040000081062317, 0.0, 0.0, 0.0, 0.0, 0.0, 1.6218516314967198E9, 2021-05-24 12:20:31.496
27.0, -92.86919403076172, 130.62161254882812, -32.21549987792969, 0.1365063488483429, -0.03200000151991844, 0.03200000151991844, 1.040000081062317, 0.0, 0.0, 0.0, 0.0, 0.0, 1.621851631497418E9, 2021-05-24 12:20:31.497
27.0, -80.92395782470703, 129.31639099121094, -21.280031204223633, 2.028895616531372, -0.03200000151991844, 0.03200000151991844, 1.040000081062317, 0.0, 0.0, 0.0, 0.0, 0.0, 1.621851631497418E9, 2021-05-24 12:20:31.497
28.0, -79.02782440185547, 136.44090270996094, -15.707579612731934, 10.922377586364746, -0.03200000151991844, 0.03200000151991844, 1.040000081062317, 0.0, 0.0, 0.0, 0.0, 0.0, 1.6218516315109825E9, 2021-05-24 12:20:31.510
28.0, -83.40351104736328, 134.25680541992188, -23.998937606811523, 11.950850486755371, -0.03200000151991844, 0.03200000151991844, 1.040000081062317, 0.0, 0.0, 0.0, 0.0, 0.0, 1.6218516315109825E9, 2021-05-24 12:20:31.510
29.0, -85.17622375488281, 133.86036682128906, -29.077722549438477, 15.447656631469727, -0.03200000151991844, 0.03200000151991844, 1.040000081062317, 0.0, 0.0, 0.0, 0.0, 0.0, 1.6218516315269122E9, 2021-05-24 12:20:31.526
29.0, -86.45153045654297, 132.92913818359375, -20.535791397094727, 12.489396095275879, -0.03200000151991844, 0.03200000151991844, 1.040000081062317, 0.0, 0.0, 0.0, 0.0, 0.0, 1.6218516315269122E9, 2021-05-24 12:20:31.526
30.0, -83.72139739990234, 137.57034301757812, -19.484878540039062, 12.178984642028809, -0.03200000151991844, 0.03200000151991844, 1.055999994277954, 0.0, 0.0, 0.0, 0.0, 0.0, 1.621851631527475E9, 2021-05-24 12:20:31.527
30.0, -89.94085693359375, 132.87303161621094, -24.74317741394043, 14.613658905029297, -0.03200000151991844, 0.03200000151991844, 1.055999994277954, 0.0, 0.0, 0.0, 0.0, 0.0, 1.621851631527475E9, 2021-05-24 12:20:31.527
31.0, -93.66205596923828, 132.11383056640625, -24.89277458190918, 24.034467697143555, -0.03200000151991844, 0.01600000075995922, 1.055999994277954, 0.0, 0.0, 0.0, 0.0, 0.0, 1.6218516315410247E9, 2021-05-24 12:20:31.541
31.0, -90.01190948486328, 133.9276885986328, -17.760784149169922, 22.512327194213867, -0.03200000151991844, 0.01600000075995922, 1.055999994277954, 0.0, 0.0, 0.0, 0.0, 0.0, 1.6218516315410247E9, 2021-05-24 12:20:31.541
32.0, -84.62271881103516, 135.56576538085938, -19.23430633544922, 21.764347076416016, -0.03200000151991844, 0.01600000075995922, 1.055999994277954, 0.0, 0.0, 0.0, 0.0, 0.0, 1.6218516315568316E9, 2021-05-24 12:20:31.556
32.0, -86.91153717041016, 135.68544006347656, -26.1568603515625, 14.344386100769043, -0.03200000151991844, 0.01600000075995922, 1.055999994277954, 0.0, 0.0, 0.0, 0.0, 0.0, 1.6218516315568316E9, 2021-05-24 12:20:31.556
33.0, -96.46324157714844, 131.52293395996094, -29.952857971191406, 10.525948524475098, -0.03200000151991844, 0.01600000075995922, 1.055999994277954, 0.0, 0.0, 0.0, 0.0, 0.0, 1.6218516315575955E9, 2021-05-24 12:20:31.557
33.0, -87.34910583496094, 136.8822021484375, -20.92848014831543, 18.331119537353516, -0.03200000151991844, 0.01600000075995922, 1.055999994277954, 0.0, 0.0, 0.0, 0.0, 0.0, 1.6218516315575955E9, 2021-05-24 12:20:31.557
34.0, -86.35428619384766, 139.8666534423828, -19.42504119873047, 14.479022979736328, -0.03200000151991844, 0.01600000075995922, 1.055999994277954, 0.0, 0.0, 0.0, 0.0, 0.0, 1.6218516315710633E9, 2021-05-24 12:20:31.571
34.0, -85.62500762939453, 133.72947692871094, -23.737144470214844, -0.8807464241981506, -0.03200000151991844, 0.01600000075995922, 1.055999994277954, 0.0, 0.0, 0.0, 0.0, 0.0, 1.6218516315710633E9, 2021-05-24 12:20:31.571
35.0, -93.5872573852539, 125.52787017822266, -28.314783096313477, 4.242916584014893, -0.03200000151991844, 0.01600000075995922, 1.055999994277954, 0.0, 0.0, 0.0, 0.0, 0.0, 1.6218516315867407E9, 2021-05-24 12:20:31.586
35.0, -88.10082244873047, 125.78966522216797, -19.181947708129883, 4.815121173858643, -0.03200000151991844, 0.01600000075995922, 1.055999994277954, 0.0, 0.0, 0.0, 0.0, 0.0, 1.6218516315867407E9, 2021-05-24 12:20:31.586
36.0, -90.78233337402344, 133.64344787597656, -20.767663955688477, 4.456090927124023, -0.03200000151991844, 0.01600000075995922, 1.055999994277954, 0.0, 0.0, 0.0, 0.0, 0.0, 1.6218516315875142E9, 2021-05-24 12:20:31.587
36.0, -90.20639038085938, 133.63970947265625, -23.213558197021484, 6.703770637512207, -0.03200000151991844, 0.01600000075995922, 1.055999994277954, 0.0, 0.0, 0.0, 0.0, 0.0, 1.6218516315875142E9, 2021-05-24 12:20:31.587
37.0, -88.7291259765625, 136.76626586914062, -16.433120727539062, 6.621492862701416, -0.03200000151991844, 0.01600000075995922, 1.055999994277954, 0.0, 0.0, 0.0, 0.0, 0.0, 1.6218516316009734E9, 2021-05-24 12:20:31.600
37.0, -90.05679321289062, 138.59881591796875, -19.421300888061523, 15.137245178222656, -0.03200000151991844, 0.01600000075995922, 1.055999994277954, 0.0, 0.0, 0.0, 0.0, 0.0, 1.6218516316009734E9, 2021-05-24 12:20:31.600
38.0, -83.85977935791016, 136.9308319091797, -10.999045372009277, 21.26694107055664, -0.03200000151991844, 0.01600000075995922, 1.055999994277954, 0.0, 0.0, 0.0, 0.0, 0.0, 1.6218516316168368E9, 2021-05-24 12:20:31.616
38.0, -86.46648406982422, 142.2714080810547, -16.036691665649414, 22.160778045654297, -0.03200000151991844, 0.01600000075995922, 1.055999994277954, 0.0, 0.0, 0.0, 0.0, 0.0, 1.6218516316168368E9, 2021-05-24 12:20:31.616
39.0, -90.03060913085938, 136.96823120117188, -16.006771087646484, 20.032773971557617, -0.03200000151991844, 0.01600000075995922, 1.055999994277954, 0.0, 0.0, 0.0, 0.0, 0.0, 1.6218516316175373E9, 2021-05-24 12:20:31.617
39.0, -90.5354995727539, 134.51858520507812, -16.332143783569336, 19.198776245117188, -0.03200000151991844, 0.01600000075995922, 1.055999994277954, 0.0, 0.0, 0.0, 0.0, 0.0, 1.6218516316175373E9, 2021-05-24 12:20:31.617
40.0, -85.718505859375, 133.4190673828125, -12.51744556427002, 24.311220169067383, -0.03200000151991844, 0.01600000075995922, 1.055999994277954, 0.0, 0.0, 0.0, 0.0, 0.0, 1.621851631631045E9, 2021-05-24 12:20:31.631
40.0, -85.6773681640625, 139.47769165039062, -18.796737670898438, 23.17428970336914, -0.03200000151991844, 0.01600000075995922, 1.055999994277954, 0.0, 0.0, 0.0, 0.0, 0.0, 1.621851631631045E9, 2021-05-24 12:20:31.631
41.0, -89.72393798828125, 136.60171508789062, -14.525771141052246, 8.457783699035645, -0.03200000151991844, 0.03200000151991844, 1.055999994277954, 0.0, 0.0, 0.0, 0.0, 0.0, 1.6218516316467035E9, 2021-05-24 12:20:31.646
41.0, -88.83758544921875, 136.45211791992188, -13.908687591552734, 20.619937896728516, -0.03200000151991844, 0.03200000151991844, 1.055999994277954, 0.0, 0.0, 0.0, 0.0, 0.0, 1.6218516316467035E9, 2021-05-24 12:20:31.646
42.0, -84.60027313232422, 137.4357147216797, -10.52781867980957, 17.377445220947266, -0.03200000151991844, 0.03200000151991844, 1.055999994277954, 0.0, 0.0, 0.0, 0.0, 0.0, 1.6218516316474507E9, 2021-05-24 12:20:31.647
42.0, -88.07090759277344, 138.13507080078125, -22.02427101135254, 14.404224395751953, -0.03200000151991844, 0.03200000151991844, 1.055999994277954, 0.0, 0.0, 0.0, 0.0, 0.0, 1.6218516316474507E9, 2021-05-24 12:20:31.647
43.0, -92.93651580810547, 133.3779296875, -24.387887954711914, 12.197683334350586, -0.03200000151991844, 0.03200000151991844, 1.055999994277954, 0.0, 0.0, 0.0, 0.0, 0.0, 1.6218516316611423E9, 2021-05-24 12:20:31.661
43.0, -86.49640655517578, 133.08995056152344, -15.460746765136719, 8.58120059967041, -0.03200000151991844, 0.03200000151991844, 1.055999994277954, 0.0, 0.0, 0.0, 0.0, 0.0, 1.6218516316611423E9, 2021-05-24 12:20:31.661
44.0, -78.54537963867188, 141.8936767578125, -13.052250862121582, 15.069927215576172, -0.03200000151991844, 0.03200000151991844, 1.055999994277954, 0.0, 0.0, 0.0, 0.0, 0.0, 1.62185163167673E9, 2021-05-24 12:20:31.676
44.0, -85.40809631347656, 135.3525848388672, -22.678752899169922, 1.4454712867736816, -0.03200000151991844, 0.03200000151991844, 1.055999994277954, 0.0, 0.0, 0.0, 0.0, 0.0, 1.62185163167673E9, 2021-05-24 12:20:31.676
45.0, -91.54153442382812, 129.95217895507812, -19.23430633544922, -0.12528665363788605, -0.03200000151991844, 0.03200000151991844, 1.055999994277954, 0.0, 0.0, 0.0, 0.0, 0.0, 1.6218516316774175E9, 2021-05-24 12:20:31.677
45.0, -85.87557983398438, 141.6318817138672, -20.53205108642578, -2.1223931312561035, -0.03200000151991844, 0.03200000151991844, 1.055999994277954, 0.0, 0.0, 0.0, 0.0, 0.0, 1.6218516316774175E9, 2021-05-24 12:20:31.677
46.0, -87.62959289550781, 141.10455322265625, -22.046710968017578, 4.411211967468262, -0.03200000151991844, 0.03200000151991844, 1.055999994277954, 0.0, 0.0, 0.0, 0.0, 0.0, 1.621851631691158E9, 2021-05-24 12:20:31.691
46.0, -91.11144256591797, 141.6393585205078, -20.78636360168457, 10.151958465576172, -0.03200000151991844, 0.03200000151991844, 1.055999994277954, 0.0, 0.0, 0.0, 0.0, 0.0, 1.621851631691158E9, 2021-05-24 12:20:31.691
47.0, -94.40629577636719, 135.38624572753906, -19.612035751342773, 5.118052959442139, -0.03200000151991844, 0.03200000151991844, 1.055999994277954, 0.0, 0.0, 0.0, 0.0, 0.0, 1.6218516317067432E9, 2021-05-24 12:20:31.706
47.0, -87.64081573486328, 139.79185485839844, -20.027164459228516, 16.494829177856445, -0.03200000151991844, 0.03200000151991844, 1.055999994277954, 0.0, 0.0, 0.0, 0.0, 0.0, 1.6218516317067432E9, 2021-05-24 12:20:31.706
48.0, -85.54273223876953, 141.16065979003906, -16.227426528930664, 18.200223922729492, -0.03200000151991844, 0.03200000151991844, 1.055999994277954, 0.0, 0.0, 0.0, 0.0, 0.0, 1.621851631707449E9, 2021-05-24 12:20:31.707
48.0, -93.35912322998047, 135.2366485595703, -23.83812141418457, 17.216629028320312, -0.03200000151991844, 0.03200000151991844, 1.055999994277954, 0.0, 0.0, 0.0, 0.0, 0.0, 1.621851631707449E9, 2021-05-24 12:20:31.707
49.0, -95.00841522216797, 134.5559844970703, -28.550395965576172, 19.329673767089844, -0.03200000151991844, 0.03200000151991844, 1.055999994277954, 0.0, 0.0, 0.0, 0.0, 0.0, 1.621851631721052E9, 2021-05-24 12:20:31.721
49.0, -89.25271606445312, 134.28671264648438, -20.78636360168457, 19.052919387817383, -0.03200000151991844, 0.03200000151991844, 1.055999994277954, 0.0, 0.0, 0.0, 0.0, 0.0, 1.621851631721052E9, 2021-05-24 12:20:31.721
50.0, -90.1914291381836, 138.026611328125, -21.42962646484375, 28.238115310668945, -0.03200000151991844, 0.03200000151991844, 1.055999994277954, 0.0, 0.0, 0.0, 0.0, 0.0, 1.6218516317367916E9, 2021-05-24 12:20:31.736
50.0, -91.31340026855469, 139.99754333496094, -20.775144577026367, 19.744802474975586, -0.03200000151991844, 0.03200000151991844, 1.055999994277954, 0.0, 0.0, 0.0, 0.0, 0.0, 1.6218516317367916E9, 2021-05-24 12:20:31.736
51.0, -97.45805358886719, 139.0924835205078, -25.098468780517578, 13.532828330993652, -0.03200000151991844, 0.01600000075995922, 1.055999994277954, 0.0, 0.0, 0.0, 0.0, 0.0, 1.6218516317375293E9, 2021-05-24 12:20:31.737
51.0, -94.73914337158203, 134.95242309570312, -17.872982025146484, 12.971842765808105, -0.03200000151991844, 0.01600000075995922, 1.055999994277954, 0.0, 0.0, 0.0, 0.0, 0.0, 1.6218516317375293E9, 2021-05-24 12:20:31.737
52.0, -90.52427673339844, 131.56407165527344, -23.93161964416504, 9.561054229736328, -0.03200000151991844, 0.01600000075995922, 1.055999994277954, 0.0, 0.0, 0.0, 0.0, 0.0, 1.6218516317511983E9, 2021-05-24 12:20:31.751
52.0, -87.99610900878906, 135.0122528076172, -24.48886489868164, 6.434497833251953, -0.03200000151991844, 0.01600000075995922, 1.055999994277954, 0.0, 0.0, 0.0, 0.0, 0.0, 1.6218516317511983E9, 2021-05-24 12:20:31.751
53.0, -88.95726013183594, 129.6043701171875, -28.486818313598633, 4.643085956573486, -0.03200000151991844, 0.01600000075995922, 1.055999994277954, 0.0, 0.0, 0.0, 0.0, 0.0, 1.6218516317668023E9, 2021-05-24 12:20:31.766
53.0, -94.03604125976562, 136.95700073242188, -23.98771858215332, 9.830327033996582, -0.03200000151991844, 0.01600000075995922, 1.055999994277954, 0.0, 0.0, 0.0, 0.0, 0.0, 1.6218516317668023E9, 2021-05-24 12:20:31.766
54.0, -88.68798828125, 136.14544677734375, -18.310550689697266, 8.854212760925293, -0.03200000151991844, 0.01600000075995922, 1.055999994277954, 0.0, 0.0, 0.0, 0.0, 0.0, 1.6218516317675402E9, 2021-05-24 12:20:31.767
54.0, -91.13388061523438, 132.62620544433594, -23.475351333618164, 4.957237243652344, -0.03200000151991844, 0.01600000075995922, 1.055999994277954, 0.0, 0.0, 0.0, 0.0, 0.0, 1.6218516317675402E9, 2021-05-24 12:20:31.767
55.0, -94.32027435302734, 131.40325927734375, -29.174959182739258, 2.847933769226074, -0.03200000151991844, 0.01600000075995922, 1.055999994277954, 0.0, 0.0, 0.0, 0.0, 0.0, 1.6218516317811513E9, 2021-05-24 12:20:31.781
55.0, -90.6177749633789, 136.5979766845703, -31.415159225463867, 7.0141825675964355, -0.03200000151991844, 0.01600000075995922, 1.055999994277954, 0.0, 0.0, 0.0, 0.0, 0.0, 1.6218516317811513E9, 2021-05-24 12:20:31.781
56.0, -83.17911529541016, 141.7665252685547, -11.642308235168457, 12.328579902648926, -0.03200000151991844, 0.01600000075995922, 1.055999994277954, 0.0, 0.0, 0.0, 0.0, 0.0, 1.6218516317967947E9, 2021-05-24 12:20:31.796
56.0, -90.28492736816406, 133.94264221191406, -21.399707794189453, 13.128918647766113, -0.03200000151991844, 0.01600000075995922, 1.055999994277954, 0.0, 0.0, 0.0, 0.0, 0.0, 1.6218516317967947E9, 2021-05-24 12:20:31.796
57.0, -93.29554748535156, 129.55947875976562, -27.18159294128418, 3.1807849407196045, -0.03200000151991844, 0.01600000075995922, 1.055999994277954, 0.0, 0.0, 0.0, 0.0, 0.0, 1.62185163179754E9, 2021-05-24 12:20:31.797
57.0, -95.1318359375, 133.4040985107422, -20.659208297729492, 13.858199119567871, -0.03200000151991844, 0.01600000075995922, 1.055999994277954, 0.0, 0.0, 0.0, 0.0, 0.0, 1.62185163179754E9, 2021-05-24 12:20:31.797
58.0, -93.33668518066406, 137.49180603027344, -19.1557674407959, 19.726102828979492, -0.03200000151991844, 0.01600000075995922, 1.055999994277954, 0.0, 0.0, 0.0, 0.0, 0.0, 1.6218516318110664E9, 2021-05-24 12:20:31.811
58.0, -92.9439926147461, 133.8416748046875, -14.839922904968262, 16.423770904541016, -0.03200000151991844, 0.01600000075995922, 1.055999994277954, 0.0, 0.0, 0.0, 0.0, 0.0, 1.6218516318110664E9, 2021-05-24 12:20:31.811
59.0, -91.81080627441406, 133.27694702148438, -21.97939109802246, 15.245701789855957, -0.03200000151991844, 0.01600000075995922, 1.055999994277954, 0.0, 0.0, 0.0, 0.0, 0.0, 1.621851631826842E9, 2021-05-24 12:20:31.826
59.0, -90.13906860351562, 134.37648010253906, -22.155166625976562, 19.546586990356445, -0.03200000151991844, 0.01600000075995922, 1.055999994277954, 0.0, 0.0, 0.0, 0.0, 0.0, 1.621851631826842E9, 2021-05-24 12:20:31.826
60.0, -90.84964752197266, 128.8414306640625, -19.06226921081543, 15.832866668701172, -0.03200000151991844, 0.01600000075995922, 1.055999994277954, 0.0, 0.0, 0.0, 0.0, 0.0, 1.621851631827531E9, 2021-05-24 12:20:31.827
60.0, -96.02193450927734, 129.3500518798828, -25.40888023376465, 4.826340675354004, -0.03200000151991844, 0.01600000075995922, 1.055999994277954, 0.0, 0.0, 0.0, 0.0, 0.0, 1.621851631827531E9, 2021-05-24 12:20:31.827
61.0, -95.64794158935547, 128.201904296875, -30.285709381103516, 1.5988072156906128, -0.03200000151991844, 0.01600000075995922, 1.055999994277954, 0.0, 0.0, 0.0, 0.0, 0.0, 1.6218516318410313E9, 2021-05-24 12:20:31.841
61.0, -92.87667846679688, 131.36212158203125, -26.94223976135254, 1.3145748376846313, -0.03200000151991844, 0.01600000075995922, 1.055999994277954, 0.0, 0.0, 0.0, 0.0, 0.0, 1.6218516318410313E9, 2021-05-24 12:20:31.841
62.0, -86.904052734375, 128.5721435546875, -25.240585327148438, 2.298168420791626, -0.03200000151991844, 0.01600000075995922, 1.055999994277954, 0.0, 0.0, 0.0, 0.0, 0.0, 1.6218516318567488E9, 2021-05-24 12:20:31.856
62.0, -91.62380981445312, 130.24388122558594, -28.15770721435547, -3.0424087047576904, -0.03200000151991844, 0.01600000075995922, 1.055999994277954, 0.0, 0.0, 0.0, 0.0, 0.0, 1.6218516318567488E9, 2021-05-24 12:20:31.856
63.0, -95.71526336669922, 131.3359375, -28.12030792236328, -6.180184841156006, -0.03200000151991844, 0.01600000075995922, 1.055999994277954, 0.0, 0.0, 0.0, 0.0, 0.0, 1.6218516318574688E9, 2021-05-24 12:20:31.857
63.0, -97.16259765625, 133.0226287841797, -21.66897964477539, -1.3145748376846313, -0.03200000151991844, 0.01600000075995922, 1.055999994277954, 0.0, 0.0, 0.0, 0.0, 0.0, 1.6218516318574688E9, 2021-05-24 12:20:31.857
64.0, -96.11542510986328, 134.6046142578125, -26.859960556030273, 0.7124509215354919, -0.03200000151991844, 0.01600000075995922, 1.055999994277954, 0.0, 0.0, 0.0, 0.0, 0.0, 1.6218516318710952E9, 2021-05-24 12:20:31.871
64.0, -96.28372192382812, 131.7996826171875, -33.08689498901367, 4.198037624359131, -0.03200000151991844, 0.01600000075995922, 1.055999994277954, 0.0, 0.0, 0.0, 0.0, 0.0, 1.6218516318710952E9, 2021-05-24 12:20:31.871
65.0, -98.35936737060547, 127.43148040771484, -29.08894157409668, 7.373212814331055, -0.03200000151991844, 0.01600000075995922, 1.055999994277954, 0.0, 0.0, 0.0, 0.0, 0.0, 1.6218516318866684E9, 2021-05-24 12:20:31.886
65.0, -94.1706771850586, 132.7645721435547, -29.81074333190918, 10.006102561950684, -0.03200000151991844, 0.01600000075995922, 1.055999994277954, 0.0, 0.0, 0.0, 0.0, 0.0, 1.6218516318866684E9, 2021-05-24 12:20:31.886
66.0, -90.09419250488281, 131.04421997070312, -15.842216491699219, 7.706063747406006, -0.03200000151991844, 0.01600000075995922, 1.055999994277954, 0.0, 0.0, 0.0, 0.0, 0.0, 1.6218516318874E9, 2021-05-24 12:20:31.887
66.0, -86.70210266113281, 133.51629638671875, -14.548211097717285, 9.878945350646973, -0.03200000151991844, 0.01600000075995922, 1.055999994277954, 0.0, 0.0, 0.0, 0.0, 0.0, 1.6218516318874E9, 2021-05-24 12:20:31.887
67.0, -94.96727752685547, 130.26632690429688, -22.828350067138672, 13.581446647644043, -0.03200000151991844, 0.01600000075995922, 1.055999994277954, 0.0, 0.0, 0.0, 0.0, 0.0, 1.6218516319011278E9, 2021-05-24 12:20:31.901
67.0, -94.4698715209961, 129.56321716308594, -14.278938293457031, 18.06558609008789, -0.03200000151991844, 0.01600000075995922, 1.055999994277954, 0.0, 0.0, 0.0, 0.0, 0.0, 1.6218516319011278E9, 2021-05-24 12:20:31.901
68.0, -84.41328430175781, 128.6619110107422, -15.049357414245605, 19.6774845123291, -0.03200000151991844, 0.01600000075995922, 1.055999994277954, 0.0, 0.0, 0.0, 0.0, 0.0, 1.6218516319168358E9, 2021-05-24 12:20:31.916
68.0, -94.0697021484375, 128.77037048339844, -30.36050796508789, 12.160284996032715, -0.03200000151991844, 0.01600000075995922, 1.055999994277954, 0.0, 0.0, 0.0, 0.0, 0.0, 1.6218516319168358E9, 2021-05-24 12:20:31.916
69.0, -94.57459259033203, 122.64814758300781, -30.06505584716797, 11.315067291259766, -0.03200000151991844, 0.01600000075995922, 1.055999994277954, 0.0, 0.0, 0.0, 0.0, 0.0, 1.6218516319174373E9, 2021-05-24 12:20:31.917
69.0, -92.080078125, 118.39588165283203, -25.94368553161621, 5.443424224853516, -0.03200000151991844, 0.01600000075995922, 1.055999994277954, 0.0, 0.0, 0.0, 0.0, 0.0, 1.6218516319174373E9, 2021-05-24 12:20:31.917
70.0, -91.4592514038086, 123.78134155273438, -18.332988739013672, 1.8119815587997437, -0.03200000151991844, 0.01600000075995922, 1.055999994277954, 0.0, 0.0, 0.0, 0.0, 0.0, 1.6218516319311974E9, 2021-05-24 12:20:31.931
70.0, -99.65337371826172, 118.70629119873047, -27.162893295288086, -1.2622162103652954, -0.03200000151991844, 0.01600000075995922, 1.055999994277954, 0.0, 0.0, 0.0, 0.0, 0.0, 1.6218516319311974E9, 2021-05-24 12:20:31.931
71.0, -97.760986328125, 123.39612579345703, -30.887834548950195, -5.824893951416016, -0.03200000151991844, 0.01600000075995922, 1.055999994277954, 0.0, 0.0, 0.0, 0.0, 0.0, 1.6218516319466803E9, 2021-05-24 12:20:31.946
71.0, -102.843505859375, 116.9635009765625, -28.04924964904785, -4.766502380371094, -0.03200000151991844, 0.01600000075995922, 1.055999994277954, 0.0, 0.0, 0.0, 0.0, 0.0, 1.6218516319466803E9, 2021-05-24 12:20:31.946
72.0, -96.90454864501953, 122.2405014038086, -29.975297927856445, -10.331473350524902, -0.03200000151991844, 0.01600000075995922, 1.055999994277954, 0.0, 0.0, 0.0, 0.0, 0.0, 1.6218516319473796E9, 2021-05-24 12:20:31.947
72.0, -99.81419372558594, 128.35150146484375, -32.44363021850586, -7.799561500549316, -0.03200000151991844, 0.01600000075995922, 1.055999994277954, 0.0, 0.0, 0.0, 0.0, 0.0, 1.6218516319473796E9, 2021-05-24 12:20:31.947
73.0, -100.33403778076172, 122.20684051513672, -31.90882682800293, -7.810781002044678, -0.03200000151991844, 0.01600000075995922, 1.055999994277954, 0.0, 0.0, 0.0, 0.0, 0.0, 1.6218516319611487E9, 2021-05-24 12:20:31.961
73.0, -99.08490753173828, 122.54717254638672, -27.80241584777832, 1.5763678550720215, -0.03200000151991844, 0.01600000075995922, 1.055999994277954, 0.0, 0.0, 0.0, 0.0, 0.0, 1.6218516319611487E9, 2021-05-24 12:20:31.961
