Sample Index, EXG Channel 0, EXG Channel 1, EXG Channel 2, EXG Channel 3, Accel Channel 0, Accel Channel 1, Accel Channel 2, Other, Other, Other, Other, Other, Timestamp, Timestamp (Formatted)
0.0, -38.10396957397461, 241.22354125976562, -56.259315490722656, 7.513459205627441, 0.0, 0.0, 0.0, 0.0, 0.0, 0.0, 0.0, 0.0, 1.6218486409202437E9, 2021-05-24 11:30:40.920
1.0, -37.05679702758789, 238.45228576660156, -53.99293518066406, 3.392089366912842, 0.0, -0.01600000075995922, 0.0, 0.0, 0.0, 0.0, 0.0, 0.0, 1.6218486409336717E9, 2021-05-24 11:30:40.933
1.0, -40.17961502075195, 236.54867553710938, -54.778316497802734, -0.05609849840402603, 0.0, -0.01600000075995922, 0.0, 0.0, 0.0, 0.0, 0.0, 0.0, 1.6218486409336717E9, 2021-05-24 11:30:40.933
2.0, -52.77933883666992, 232.83494567871094, -57.635597229003906, 1.398722529411316, 0.04800000041723251, -0.01600000075995922, 0.0, 0.0, 0.0, 0.0, 0.0, 0.0, 1.6218486409503098E9, 2021-05-24 11:30:40.950
2.0, -31.74614143371582, 243.56846618652344, -41.85322189331055, 19.582117080688477, 0.04800000041723251, -0.01600000075995922, 0.0, 0.0, 0.0, 0.0, 0.0, 0.0, 1.6218486409503098E9, 2021-05-24 11:30:40.950
3.0, -48.25779724121094, 238.6355438232422, -50.25677490234375, 14.017145156860352, 0.04800000041723251, -0.01600000075995922, 0.0, 0.0, 0.0, 0.0, 0.0, 0.0, 1.6218486409511049E9, 2021-05-24 11:30:40.951
3.0, -49.009517669677734, 247.93666076660156, -49.42277908325195, 11.451573371887207, 0.04800000041723251, -0.01600000075995922, 0.0, 0.0, 0.0, 0.0, 0.0, 0.0, 1.6218486409511049E9, 2021-05-24 11:30:40.951
4.0, -50.62141418457031, 250.25914001464844, -55.017669677734375, 7.479799747467041, 0.04800000041723251, -0.01600000075995922, 0.0, 0.0, 0.0, 0.0, 0.0, 0.0, 1.6218486409634054E9, 2021-05-24 11:30:40.963
4.0, -52.543724060058594, 245.41970825195312, -54.202369689941406, 13.523478507995605, 0.04800000041723251, -0.01600000075995922, 0.0, 0.0, 0.0, 0.0, 0.0, 0.0, 1.6218486409634054E9, 2021-05-24 11:30:40.963
5.0, -43.13413619995117, 245.969482421875, -44.942378997802734, 12.408987998962402, 0.04800000041723251, -0.01600000075995922, 0.0, 0.0, 0.0, 0.0, 0.0, 0.0, 1.6218486409793167E9, 2021-05-24 11:30:40.979
5.0, -53.48244094848633, 241.70225524902344, -60.971588134765625, 1.6904348134994507, 0.04800000041723251, -0.01600000075995922, 0.0, 0.0, 0.0, 0.0, 0.0, 0.0, 1.6218486409793167E9, 2021-05-24 11:30:40.979
6.0, -53.18324661254883, 233.56797790527344, -57.54957962036133, 3.6239631175994873, 0.04800000041723251, -0.01600000075995922, 0.0, 0.0, 0.0, 0.0, 0.0, 0.0, 1.6218486409799752E9, 2021-05-24 11:30:40.979
6.0, -33.806827545166016, 243.73301696777344, -48.31576919555664, 18.134775161743164, 0.04800000041723251, -0.01600000075995922, 0.0, 0.0, 0.0, 0.0, 0.0, 0.0, 1.6218486409799752E9, 2021-05-24 11:30:40.979
7.0, -36.85484313964844, 250.7490692138672, -53.817161560058594, 7.81265115737915, 0.04800000041723251, -0.01600000075995922, 0.0, 0.0, 0.0, 0.0, 0.0, 0.0, 1.621848640993539E9, 2021-05-24 11:30:40.993
7.0, -38.30218505859375, 246.83714294433594, -49.41156005859375, 4.297144889831543, 0.04800000041723251, -0.01600000075995922, 0.0, 0.0, 0.0, 0.0, 0.0, 0.0, 1.621848640993539E9, 2021-05-24 11:30:40.993
8.0, -41.619476318359375, 240.46434020996094, -52.17908477783203, 7.958507061004639, 0.04800000041723251, -0.01600000075995922, 0.0, 0.0, 0.0, 0.0, 0.0, 0.0, 1.6218486410090952E9, 2021-05-24 11:30:41.009
8.0, -34.06113815307617, 243.47122192382812, -47.646324157714844, 12.098576545715332, 0.04800000041723251, -0.01600000075995922, 0.0, 0.0, 0.0, 0.0, 0.0, 0.0, 1.6218486410090952E9, 2021-05-24 11:30:41.009
9.0, -42.2365608215332, 240.30726623535156, -51.954689025878906, 4.876829624176025, 0.04800000041723251, -0.01600000075995922, 0.0, 0.0, 0.0, 0.0, 0.0, 0.0, 1.6218486410097916E9, 2021-05-24 11:30:41.009
9.0, -44.26732635498047, 237.1395721435547, -54.28464889526367, -4.517799377441406, 0.04800000041723251, -0.01600000075995922, 0.0, 0.0, 0.0, 0.0, 0.0, 0.0, 1.6218486410097916E9, 2021-05-24 11:30:41.009
10.0, -41.294105529785156, 228.4181365966797, -52.78494644165039, 3.1115968227386475, 0.04800000041723251, -0.01600000075995922, 1.055999994277954, 0.0, 0.0, 0.0, 0.0, 0.0, 1.6218486410235963E9, 2021-05-24 11:30:41.023
10.0, -37.000701904296875, 236.14476013183594, -48.09511184692383, 6.462547302246094, 0.04800000041723251, -0.01600000075995922, 1.055999994277954, 0.0, 0.0, 0.0, 0.0, 0.0, 1.6218486410235963E9, 2021-05-24 11:30:41.023
11.0, -29.09081268310547, 244.07334899902344, -45.8287353515625, 13.684293746948242, 0.04800000041723251, -0.01600000075995922, 1.055999994277954, 0.0, 0.0, 0.0, 0.0, 0.0, 1.6218486410390809E9, 2021-05-24 11:30:41.039
11.0, -43.186492919921875, 229.5625457763672, -52.54933547973633, 1.0322123765945435, 0.04800000041723251, -0.01600000075995922, 1.055999994277954, 0.0, 0.0, 0.0, 0.0, 0.0, 1.6218486410390809E9, 2021-05-24 11:30:41.039
12.0, -40.83409881591797, 236.65713500976562, -51.17679214477539, 4.1999077796936035, 0.04800000041723251, -0.01600000075995922, 1.055999994277954, 0.0, 0.0, 0.0, 0.0, 0.0, 1.621848641039786E9, 2021-05-24 11:30:41.039
12.0, -35.05595397949219, 237.9212188720703, -48.01283645629883, 12.82785701751709, 0.04800000041723251, -0.01600000075995922, 1.055999994277954, 0.0, 0.0, 0.0, 0.0, 0.0, 1.621848641039786E9, 2021-05-24 11:30:41.039
13.0, -32.43428421020508, 250.90988159179688, -45.49588394165039, 12.308011054992676, 0.04800000041723251, -0.01600000075995922, 1.055999994277954, 0.0, 0.0, 0.0, 0.0, 0.0, 1.6218486410535817E9, 2021-05-24 11:30:41.053
13.0, -43.32113265991211, 241.5152587890625, -51.11695098876953, 8.762585639953613, 0.04800000041723251, -0.01600000075995922, 1.055999994277954, 0.0, 0.0, 0.0, 0.0, 0.0, 1.6218486410535817E9, 2021-05-24 11:30:41.053
14.0, -42.93218231201172, 241.66859436035156, -47.90437698364258, 16.06661033630371, 0.04800000041723251, -0.01600000075995922, 1.055999994277954, 0.0, 0.0, 0.0, 0.0, 0.0, 1.6218486410690947E9, 2021-05-24 11:30:41.069
14.0, -36.10312271118164, 236.14476013183594, -47.605186462402344, 19.058530807495117, 0.04800000041723251, -0.01600000075995922, 1.055999994277954, 0.0, 0.0, 0.0, 0.0, 0.0, 1.6218486410690947E9, 2021-05-24 11:30:41.069
15.0, -34.58846664428711, 243.7255401611328, -41.21369934082031, 13.702993392944336, 0.04800000041723251, -0.01600000075995922, 1.055999994277954, 0.0, 0.0, 0.0, 0.0, 0.0, 1.6218486410697954E9, 2021-05-24 11:30:41.069
15.0, -44.17756652832031, 243.17202758789062, -46.29622268676758, -0.3328510820865631, 0.04800000041723251, -0.01600000075995922, 1.055999994277954, 0.0, 0.0, 0.0, 0.0, 0.0, 1.6218486410697954E9, 2021-05-24 11:30:41.069
16.0, -41.35394287109375, 228.72854614257812, -51.333866119384766, 16.107749938964844, 0.04800000041723251, -0.01600000075995922, 1.055999994277954, 0.0, 0.0, 0.0, 0.0, 0.0, 1.621848641083502E9, 2021-05-24 11:30:41.083
16.0, -36.907203674316406, 235.35189819335938, -46.842247009277344, 9.865856170654297, 0.04800000041723251, -0.01600000075995922, 1.055999994277954, 0.0, 0.0, 0.0, 0.0, 0.0, 1.621848641083502E9, 2021-05-24 11:30:41.083
17.0, -33.76194763183594, 252.6152801513672, -39.28017044067383, 20.386194229125977, 0.04800000041723251, -0.01600000075995922, 1.055999994277954, 0.0, 0.0, 0.0, 0.0, 0.0, 1.6218486411156957E9, 2021-05-24 11:30:41.115
17.0, -41.335243225097656, 248.77439880371094, -52.53437423706055, 2.4608540534973145, 0.04800000041723251, -0.01600000075995922, 1.055999994277954, 0.0, 0.0, 0.0, 0.0, 0.0, 1.6218486411156957E9, 2021-05-24 11:30:41.115
18.0, -41.720455169677734, 245.68150329589844, -53.55910873413086, -2.943301200866699, 0.04800000041723251, -0.01600000075995922, 1.055999994277954, 0.0, 0.0, 0.0, 0.0, 0.0, 1.6218486411163068E9, 2021-05-24 11:30:41.116
18.0, -30.45213508605957, 241.42176818847656, -47.646324157714844, 7.846310138702393, 0.04800000041723251, -0.01600000075995922, 1.055999994277954, 0.0, 0.0, 0.0, 0.0, 0.0, 1.6218486411163068E9, 2021-05-24 11:30:41.116
19.0, -23.79511260986328, 256.0111083984375, -47.3658332824707, 4.540238380432129, 0.04800000041723251, -0.01600000075995922, 1.055999994277954, 0.0, 0.0, 0.0, 0.0, 0.0, 1.6218486411170073E9, 2021-05-24 11:30:41.117
19.0, -33.30194091796875, 245.8086700439453, -56.4276123046875, -3.53794527053833, 0.04800000041723251, -0.01600000075995922, 1.055999994277954, 0.0, 0.0, 0.0, 0.0, 0.0, 1.6218486411170073E9, 2021-05-24 11:30:41.117
20.0, -31.439468383789062, 233.19772338867188, -56.625823974609375, 0.3365910053253174, 0.04800000041723251, -0.01600000075995922, 1.055999994277954, 0.0, 0.0, 0.0, 0.0, 0.0, 1.6218486411177127E9, 2021-05-24 11:30:41.117
20.0, -32.71851348876953, 237.17323303222656, -60.597599029541016, 4.069011211395264, 0.04800000041723251, -0.01600000075995922, 1.055999994277954, 0.0, 0.0, 0.0, 0.0, 0.0, 1.6218486411177127E9, 2021-05-24 11:30:41.117
21.0, -29.431142807006836, 240.2736053466797, -52.19404220581055, 6.032458782196045, 0.04800000041723251, -0.01600000075995922, 1.055999994277954, 0.0, 0.0, 0.0, 0.0, 0.0, 1.6218486411284335E9, 2021-05-24 11:30:41.128
21.0, -27.748188018798828, 239.71263122558594, -56.54728698730469, 5.116183280944824, 0.04800000041723251, -0.01600000075995922, 1.055999994277954, 0.0, 0.0, 0.0, 0.0, 0.0, 1.6218486411284335E9, 2021-05-24 11:30:41.128
22.0, -32.33704376220703, 236.6346893310547, -56.726802825927734, 6.1334357261657715, 0.04800000041723251, -0.01600000075995922, 1.055999994277954, 0.0, 0.0, 0.0, 0.0, 0.0, 1.6218486411435163E9, 2021-05-24 11:30:41.143
22.0, -32.408103942871094, 240.8308563232422, -51.82753372192383, 16.481739044189453, 0.04800000041723251, -0.01600000075995922, 1.055999994277954, 0.0, 0.0, 0.0, 0.0, 0.0, 1.6218486411435163E9, 2021-05-24 11:30:41.143
23.0, -29.5545597076416, 243.82652282714844, -44.12334060668945, 17.050203323364258, 0.04800000041723251, -0.01600000075995922, 1.055999994277954, 0.0, 0.0, 0.0, 0.0, 0.0, 1.6218486411752927E9, 2021-05-24 11:30:41.175
23.0, -34.6670036315918, 241.0963897705078, -51.6031379699707, 3.7585995197296143, 0.04800000041723251, -0.01600000075995922, 1.055999994277954, 0.0, 0.0, 0.0, 0.0, 0.0, 1.6218486411752927E9, 2021-05-24 11:30:41.175
24.0, -39.03146743774414, 251.8710479736328, -54.32204818725586, 11.526371955871582, 0.04800000041723251, -0.01600000075995922, 1.055999994277954, 0.0, 0.0, 0.0, 0.0, 0.0, 1.621848641175938E9, 2021-05-24 11:30:41.175
24.0, -39.16236114501953, 248.43406677246094, -51.292728424072266, 14.791304588317871, 0.04800000041723251, -0.01600000075995922, 1.055999994277954, 0.0, 0.0, 0.0, 0.0, 0.0, 1.621848641175938E9, 2021-05-24 11:30:41.175
25.0, -34.01251983642578, 242.34552001953125, -43.48381805419922, 17.34565544128418, 0.04800000041723251, -0.01600000075995922, 1.055999994277954, 0.0, 0.0, 0.0, 0.0, 0.0, 1.6218486411767464E9, 2021-05-24 11:30:41.176
25.0, -42.049564361572266, 240.9281005859375, -52.03322982788086, 6.354090213775635, 0.04800000041723251, -0.01600000075995922, 1.055999994277954, 0.0, 0.0, 0.0, 0.0, 0.0, 1.6218486411767464E9, 2021-05-24 11:30:41.176
26.0, -42.947139739990234, 243.99107360839844, -43.67081069946289, 7.715413570404053, 0.04800000041723251, -0.01600000075995922, 1.055999994277954, 0.0, 0.0, 0.0, 0.0, 0.0, 1.6218486411891804E9, 2021-05-24 11:30:41.189
26.0, -38.664955139160156, 244.58572387695312, -41.78590393066406, 9.604063034057617, 0.04800000041723251, -0.01600000075995922, 1.055999994277954, 0.0, 0.0, 0.0, 0.0, 0.0, 1.6218486411891804E9, 2021-05-24 11:30:41.189
27.0, -43.12291717529297, 247.12884521484375, -46.99932098388672, 2.3187379837036133, 0.04800000041723251, -0.01600000075995922, 1.055999994277954, 0.0, 0.0, 0.0, 0.0, 0.0, 1.6218486411899545E9, 2021-05-24 11:30:41.189
27.0, -40.74433898925781, 247.12136840820312, -46.67769241333008, -2.1953213214874268, 0.04800000041723251, -0.01600000075995922, 1.055999994277954, 0.0, 0.0, 0.0, 0.0, 0.0, 1.6218486411899545E9, 2021-05-24 11:30:41.189
28.0, -40.426448822021484, 243.00747680664062, -44.87879943847656, -0.8414775133132935, 0.04800000041723251, -0.01600000075995922, 1.055999994277954, 0.0, 0.0, 0.0, 0.0, 0.0, 1.6218486412035277E9, 2021-05-24 11:30:41.203
28.0, -36.19662094116211, 244.608154296875, -45.24905014038086, 5.867903232574463, 0.04800000041723251, -0.01600000075995922, 1.055999994277954, 0.0, 0.0, 0.0, 0.0, 0.0, 1.6218486412035277E9, 2021-05-24 11:30:41.203
29.0, -37.082977294921875, 243.62081909179688, -43.05746841430664, 3.9231550693511963, 0.04800000041723251, -0.01600000075995922, 1.055999994277954, 0.0, 0.0, 0.0, 0.0, 0.0, 1.6218486412198052E9, 2021-05-24 11:30:41.219
29.0, -40.617183685302734, 247.4429931640625, -47.15639877319336, -3.0106194019317627, 0.04800000041723251, -0.01600000075995922, 1.055999994277954, 0.0, 0.0, 0.0, 0.0, 0.0, 1.6218486412198052E9, 2021-05-24 11:30:41.219
30.0, -42.37119674682617, 242.92520141601562, -47.11151885986328, -2.7114274501800537, 0.04800000041723251, -0.01600000075995922, 1.055999994277954, 0.0, 0.0, 0.0, 0.0, 0.0, 1.6218486412205808E9, 2021-05-24 11:30:41.220
30.0, -32.0079345703125, 258.35601806640625, -42.65729904174805, 13.501038551330566, 0.04800000041723251, -0.01600000075995922, 1.055999994277954, 0.0, 0.0, 0.0, 0.0, 0.0, 1.6218486412205808E9, 2021-05-24 11:30:41.220
31.0, -29.88741111755371, 252.67886352539062, -42.51518249511719, 7.0796308517456055, 0.04800000041723251, -0.01600000075995922, 1.055999994277954, 0.0, 0.0, 0.0, 0.0, 0.0, 1.6218486412334404E9, 2021-05-24 11:30:41.233
31.0, -41.07719039916992, 241.04029846191406, -50.02490234375, 3.451927661895752, 0.04800000041723251, -0.01600000075995922, 1.055999994277954, 0.0, 0.0, 0.0, 0.0, 0.0, 1.6218486412334404E9, 2021-05-24 11:30:41.233
32.0, -31.465648651123047, 238.4186248779297, -43.32674026489258, 4.727233409881592, 0.04800000041723251, -0.01600000075995922, 1.055999994277954, 0.0, 0.0, 0.0, 0.0, 0.0, 1.6218486412491372E9, 2021-05-24 11:30:41.249
32.0, -35.52717971801758, 242.81300354003906, -38.16941833496094, 15.935713768005371, 0.04800000041723251, -0.01600000075995922, 1.055999994277954, 0.0, 0.0, 0.0, 0.0, 0.0, 1.6218486412491372E9, 2021-05-24 11:30:41.249
33.0, -34.41642761230469, 243.32537841796875, -40.56669616699219, 12.371588706970215, 0.04800000041723251, -0.01600000075995922, 1.055999994277954, 0.0, 0.0, 0.0, 0.0, 0.0, 1.6218486412498782E9, 2021-05-24 11:30:41.249
33.0, -39.12870407104492, 246.70623779296875, -39.8785514831543, 3.3247711658477783, 0.04800000041723251, -0.01600000075995922, 1.055999994277954, 0.0, 0.0, 0.0, 0.0, 0.0, 1.6218486412498782E9, 2021-05-24 11:30:41.249
34.0, -40.50124740600586, 243.8863525390625, -46.48695755004883, 4.3083648681640625, 0.04800000041723251, -0.01600000075995922, 1.055999994277954, 0.0, 0.0, 0.0, 0.0, 0.0, 1.6218486412634027E9, 2021-05-24 11:30:41.263
34.0, -32.490379333496094, 255.8091583251953, -36.71833801269531, 12.57728385925293, 0.04800000041723251, -0.01600000075995922, 1.055999994277954, 0.0, 0.0, 0.0, 0.0, 0.0, 1.6218486412634027E9, 2021-05-24 11:30:41.263
35.0, -38.900569915771484, 248.0376434326172, -35.50286865234375, 8.882262229919434, 0.04800000041723251, -0.01600000075995922, 1.055999994277954, 0.0, 0.0, 0.0, 0.0, 0.0, 1.6218486412791488E9, 2021-05-24 11:30:41.279
35.0, -55.76377868652344, 242.08746337890625, -62.512428283691406, -4.6075568199157715, 0.04800000041723251, -0.01600000075995922, 1.055999994277954, 0.0, 0.0, 0.0, 0.0, 0.0, 1.6218486412791488E9, 2021-05-24 11:30:41.279
36.0, -48.10072326660156, 236.23826599121094, -52.777469635009766, 0.11593689769506454, 0.04800000041723251, -0.01600000075995922, 1.055999994277954, 0.0, 0.0, 0.0, 0.0, 0.0, 1.6218486412798645E9, 2021-05-24 11:30:41.279
36.0, -35.183109283447266, 236.11109924316406, -44.32903289794922, 7.741592884063721, 0.04800000041723251, -0.01600000075995922, 1.055999994277954, 0.0, 0.0, 0.0, 0.0, 0.0, 1.6218486412798645E9, 2021-05-24 11:30:41.279
37.0, -35.994667053222656, 250.39004516601562, -36.27328872680664, 6.1334357261657715, 0.04800000041723251, -0.01600000075995922, 1.055999994277954, 0.0, 0.0, 0.0, 0.0, 0.0, 1.6218486412935107E9, 2021-05-24 11:30:41.293
37.0, -42.2963981628418, 246.64266967773438, -52.89714431762695, -2.6254098415374756, 0.04800000041723251, -0.01600000075995922, 1.055999994277954, 0.0, 0.0, 0.0, 0.0, 0.0, 1.6218486412935107E9, 2021-05-24 11:30:41.293
38.0, -42.872344970703125, 241.72470092773438, -54.33326721191406, 3.560384750366211, 0.04800000041723251, -0.01600000075995922, 1.055999994277954, 0.0, 0.0, 0.0, 0.0, 0.0, 1.6218486413091145E9, 2021-05-24 11:30:41.309
38.0, -39.712127685546875, 243.74798583984375, -47.67998504638672, 13.370141983032227, 0.04800000041723251, -0.01600000075995922, 1.055999994277954, 0.0, 0.0, 0.0, 0.0, 0.0, 1.6218486413091145E9, 2021-05-24 11:30:41.309
39.0, -38.750972747802734, 243.81529235839844, -42.10005569458008, 16.911827087402344, 0.04800000041723251, -0.01600000075995922, 1.055999994277954, 0.0, 0.0, 0.0, 0.0, 0.0, 1.6218486413099592E9, 2021-05-24 11:30:41.309
39.0, -41.395084381103516, 241.57884216308594, -52.53437423706055, 7.423701286315918, 0.04800000041723251, -0.01600000075995922, 1.055999994277954, 0.0, 0.0, 0.0, 0.0, 0.0, 1.6218486413099592E9, 2021-05-24 11:30:41.309
40.0, -39.74204635620117, 241.60501098632812, -55.911502838134766, 6.499946117401123, 0.04800000041723251, -0.01600000075995922, 1.055999994277954, 0.0, 0.0, 0.0, 0.0, 0.0, 1.6218486413234603E9, 2021-05-24 11:30:41.323
40.0, -35.0596923828125, 241.4367218017578, -50.48490905761719, 16.22368621826172, 0.04800000041723251, -0.01600000075995922, 1.055999994277954, 0.0, 0.0, 0.0, 0.0, 0.0, 1.6218486413234603E9, 2021-05-24 11:30:41.323
41.0, -23.98210906982422, 248.5836639404297, -39.60927963256836, 17.71216583251953, 0.04800000041723251, -0.01600000075995922, 1.055999994277954, 0.0, 0.0, 0.0, 0.0, 0.0, 1.6218486413391519E9, 2021-05-24 11:30:41.339
41.0, -40.766780853271484, 240.41946411132812, -54.153751373291016, 12.020038604736328, 0.04800000041723251, -0.01600000075995922, 1.055999994277954, 0.0, 0.0, 0.0, 0.0, 0.0, 1.6218486413391519E9, 2021-05-24 11:30:41.339
42.0, -48.01096725463867, 237.6968231201172, -54.26594924926758, 9.791058540344238, 0.04800000041723251, -0.01600000075995922, 1.055999994277954, 0.0, 0.0, 0.0, 0.0, 0.0, 1.6218486413398583E9, 2021-05-24 11:30:41.339
42.0, -33.21592330932617, 248.3368377685547, -41.209957122802734, 24.32056999206543, 0.04800000041723251, -0.01600000075995922, 1.055999994277954, 0.0, 0.0, 0.0, 0.0, 0.0, 1.6218486413398583E9, 2021-05-24 11:30:41.339
43.0, -33.49641418457031, 247.07275390625, -46.715091705322266, 19.813989639282227, 0.04800000041723251, -0.01600000075995922, 1.055999994277954, 0.0, 0.0, 0.0, 0.0, 0.0, 1.621848641353476E9, 2021-05-24 11:30:41.353
43.0, -48.254058837890625, 241.84063720703125, -51.59939956665039, 3.1115968227386475, 0.04800000041723251, -0.01600000075995922, 1.055999994277954, 0.0, 0.0, 0.0, 0.0, 0.0, 1.621848641353476E9, 2021-05-24 11:30:41.353
44.0, -45.733367919921875, 243.43382263183594, -48.86553192138672, 9.705039978027344, 0.04800000041723251, -0.01600000075995922, 1.055999994277954, 0.0, 0.0, 0.0, 0.0, 0.0, 1.6218486413691096E9, 2021-05-24 11:30:41.369
44.0, -39.72334671020508, 243.4787139892578, -51.707855224609375, 13.486079216003418, 0.04800000041723251, -0.01600000075995922, 1.055999994277954, 0.0, 0.0, 0.0, 0.0, 0.0, 1.6218486413691096E9, 2021-05-24 11:30:41.369
45.0, -42.80128479003906, 253.99903869628906, -45.0957145690918, 11.417914390563965, 0.04800000041723251, -0.01600000075995922, 1.055999994277954, 0.0, 0.0, 0.0, 0.0, 0.0, 1.6218486413698325E9, 2021-05-24 11:30:41.369
45.0, -44.529117584228516, 244.51466369628906, -46.53183364868164, 4.113890171051025, 0.04800000041723251, -0.01600000075995922, 1.055999994277954, 0.0, 0.0, 0.0, 0.0, 0.0, 1.6218486413698325E9, 2021-05-24 11:30:41.369
46.0, -48.22414016723633, 242.4427490234375, -49.83042526245117, -6.900115489959717, 0.04800000041723251, -0.01600000075995922, 1.055999994277954, 0.0, 0.0, 0.0, 0.0, 0.0, 1.6218486413835788E9, 2021-05-24 11:30:41.383
46.0, -39.43911361694336, 247.20738220214844, -43.76804733276367, 9.772358894348145, 0.04800000041723251, -0.01600000075995922, 1.055999994277954, 0.0, 0.0, 0.0, 0.0, 0.0, 1.6218486413835788E9, 2021-05-24 11:30:41.383
47.0, -40.26189422607422, 246.5117645263672, -51.87615203857422, 2.943301200866699, 0.04800000041723251, -0.01600000075995922, 1.055999994277954, 0.0, 0.0, 0.0, 0.0, 0.0, 1.621848641399126E9, 2021-05-24 11:30:41.399
47.0, -51.57508850097656, 249.2755584716797, -55.86662673950195, 0.9536744952201843, 0.04800000041723251, -0.01600000075995922, 1.055999994277954, 0.0, 0.0, 0.0, 0.0, 0.0, 1.621848641399126E9, 2021-05-24 11:30:41.399
48.0, -46.18963623046875, 252.33853149414062, -51.88363265991211, 0.07853789627552032, 0.04800000041723251, -0.01600000075995922, 1.055999994277954, 0.0, 0.0, 0.0, 0.0, 0.0, 1.6218486413998196E9, 2021-05-24 11:30:41.399
48.0, -33.79560470581055, 246.15274047851562, -56.33037185668945, 14.619269371032715, 0.04800000041723251, -0.01600000075995922, 1.055999994277954, 0.0, 0.0, 0.0, 0.0, 0.0, 1.6218486413998196E9, 2021-05-24 11:30:41.399
49.0, -34.49870681762695, 247.76463317871094, -47.15266036987305, 16.82206916809082, 0.04800000041723251, -0.01600000075995922, 1.055999994277954, 0.0, 0.0, 0.0, 0.0, 0.0, 1.621848641413497E9, 2021-05-24 11:30:41.413
49.0, -42.730228424072266, 242.55120849609375, -55.877845764160156, 11.017745018005371, 0.04800000041723251, -0.01600000075995922, 1.055999994277954, 0.0, 0.0, 0.0, 0.0, 0.0, 1.621848641413497E9, 2021-05-24 11:30:41.413
50.0, -41.776554107666016, 241.67233276367188, -59.352210998535156, 14.585609436035156, 0.04800000041723251, -0.01600000075995922, 1.055999994277954, 0.0, 0.0, 0.0, 0.0, 0.0, 1.6218486414291525E9, 2021-05-24 11:30:41.429
50.0, -34.94001388549805, 246.20135498046875, -45.5183219909668, 31.47873878479004, 0.04800000041723251, -0.01600000075995922, 1.055999994277954, 0.0, 0.0, 0.0, 0.0, 0.0, 1.6218486414291525E9, 2021-05-24 11:30:41.429
51.0, -31.278654098510742, 244.11074829101562, -48.22227096557617, 14.570650100708008, 0.04800000041723251, -0.01600000075995922, 1.055999994277954, 0.0, 0.0, 0.0, 0.0, 0.0, 1.6218486414298615E9, 2021-05-24 11:30:41.429
51.0, -42.33005905151367, 243.41513061523438, -54.5314826965332, 9.899515151977539, 0.04800000041723251, -0.01600000075995922, 1.055999994277954, 0.0, 0.0, 0.0, 0.0, 0.0, 1.6218486414298615E9, 2021-05-24 11:30:41.429
52.0, -43.55300521850586, 246.41078186035156, -52.59421157836914, 11.283278465270996, 0.03200000151991844, -0.01600000075995922, 1.055999994277954, 0.0, 0.0, 0.0, 0.0, 0.0, 1.6218486414435017E9, 2021-05-24 11:30:41.443
52.0, -38.4630012512207, 244.1406707763672, -48.5700798034668, 12.543624877929688, 0.03200000151991844, -0.01600000075995922, 1.055999994277954, 0.0, 0.0, 0.0, 0.0, 0.0, 1.6218486414435017E9, 2021-05-24 11:30:41.443
53.0, -36.286380767822266, 252.2338104248047, -43.89894485473633, 17.102561950683594, 0.03200000151991844, -0.01600000075995922, 1.055999994277954, 0.0, 0.0, 0.0, 0.0, 0.0, 1.6218486414592862E9, 2021-05-24 11:30:41.459
53.0, -39.51765441894531, 253.01171875, -51.55451965332031, 8.339977264404297, 0.03200000151991844, -0.01600000075995922, 1.055999994277954, 0.0, 0.0, 0.0, 0.0, 0.0, 1.6218486414592862E9, 2021-05-24 11:30:41.459
54.0, -41.46240234375, 239.55181884765625, -54.883033752441406, 8.08940315246582, 0.03200000151991844, -0.01600000075995922, 1.055999994277954, 0.0, 0.0, 0.0, 0.0, 0.0, 1.6218486414600108E9, 2021-05-24 11:30:41.460
54.0, -43.80731964111328, 252.42454528808594, -48.79447555541992, 13.444940567016602, 0.03200000151991844, -0.01600000075995922, 1.055999994277954, 0.0, 0.0, 0.0, 0.0, 0.0, 1.6218486414600108E9, 2021-05-24 11:30:41.460
55.0, -41.07345199584961, 246.2238006591797, -49.00016784667969, 13.373882293701172, 0.03200000151991844, -0.01600000075995922, 1.055999994277954, 0.0, 0.0, 0.0, 0.0, 0.0, 1.6218486414734664E9, 2021-05-24 11:30:41.473
55.0, -42.10566329956055, 239.75750732421875, -59.064239501953125, 6.484986305236816, 0.03200000151991844, -0.01600000075995922, 1.055999994277954, 0.0, 0.0, 0.0, 0.0, 0.0, 1.6218486414734664E9, 2021-05-24 11:30:41.473
56.0, -42.85364532470703, 233.65773010253906, -59.636444091796875, 14.271458625793457, 0.03200000151991844, -0.01600000075995922, 1.055999994277954, 0.0, 0.0, 0.0, 0.0, 0.0, 1.6218486414891307E9, 2021-05-24 11:30:41.489
56.0, -38.433082580566406, 251.12680053710938, -50.17075729370117, 15.528064727783203, 0.03200000151991844, -0.01600000075995922, 1.055999994277954, 0.0, 0.0, 0.0, 0.0, 0.0, 1.6218486414891307E9, 2021-05-24 11:30:41.489
57.0, -37.74494171142578, 246.62396240234375, -53.29731369018555, 12.592243194580078, 0.03200000151991844, -0.01600000075995922, 1.055999994277954, 0.0, 0.0, 0.0, 0.0, 0.0, 1.6218486414899747E9, 2021-05-24 11:30:41.489
57.0, -44.914329528808594, 237.21437072753906, -64.27391815185547, 2.206541061401367, 0.03200000151991844, -0.01600000075995922, 1.055999994277954, 0.0, 0.0, 0.0, 0.0, 0.0, 1.6218486414899747E9, 2021-05-24 11:30:41.489
58.0, -43.725040435791016, 245.56930541992188, -58.697731018066406, 12.236952781677246, 0.03200000151991844, -0.01600000075995922, 1.055999994277954, 0.0, 0.0, 0.0, 0.0, 0.0, 1.621848641503476E9, 2021-05-24 11:30:41.503
58.0, -37.21013641357422, 243.9835968017578, -50.55596923828125, 15.584162712097168, 0.03200000151991844, -0.01600000075995922, 1.055999994277954, 0.0, 0.0, 0.0, 0.0, 0.0, 1.621848641503476E9, 2021-05-24 11:30:41.503
59.0, -38.97910690307617, 244.76148986816406, -51.337608337402344, 15.872135162353516, 0.03200000151991844, -0.01600000075995922, 1.055999994277954, 0.0, 0.0, 0.0, 0.0, 0.0, 1.6218486415193255E9, 2021-05-24 11:30:41.519
59.0, -42.431034088134766, 238.6243133544922, -62.938777923583984, 10.875629425048828, 0.03200000151991844, -0.01600000075995922, 1.055999994277954, 0.0, 0.0, 0.0, 0.0, 0.0, 1.6218486415193255E9, 2021-05-24 11:30:41.519
60.0, -48.351295471191406, 232.54324340820312, -66.14761352539062, 8.104363441467285, 0.03200000151991844, -0.01600000075995922, 1.055999994277954, 0.0, 0.0, 0.0, 0.0, 0.0, 1.6218486415199177E9, 2021-05-24 11:30:41.519
60.0, -40.28059387207031, 236.802978515625, -55.44401550292969, 15.81977653503418, 0.03200000151991844, -0.01600000075995922, 1.055999994277954, 0.0, 0.0, 0.0, 0.0, 0.0, 1.6218486415199177E9, 2021-05-24 11:30:41.519
61.0, -38.29470443725586, 245.01580810546875, -53.89569854736328, 15.70009994506836, 0.03200000151991844, -0.01600000075995922, 1.055999994277954, 0.0, 0.0, 0.0, 0.0, 0.0, 1.6218486415334487E9, 2021-05-24 11:30:41.533
61.0, -46.339229583740234, 245.57679748535156, -58.63041305541992, 8.99445915222168, 0.03200000151991844, -0.01600000075995922, 1.055999994277954, 0.0, 0.0, 0.0, 0.0, 0.0, 1.6218486415334487E9, 2021-05-24 11:30:41.533
62.0, -40.40774917602539, 244.91856384277344, -67.1312026977539, 16.339622497558594, 0.04800000041723251, -0.01600000075995922, 1.055999994277954, 0.0, 0.0, 0.0, 0.0, 0.0, 1.6218486415491383E9, 2021-05-24 11:30:41.549
62.0, -36.9969596862793, 243.0373992919922, -55.44401550292969, 21.455806732177734, 0.04800000041723251, -0.01600000075995922, 1.055999994277954, 0.0, 0.0, 0.0, 0.0, 0.0, 1.6218486415491383E9, 2021-05-24 11:30:41.549
63.0, -37.3372917175293, 239.4022216796875, -43.34170150756836, 22.817129135131836, 0.04800000041723251, -0.01600000075995922, 1.055999994277954, 0.0, 0.0, 0.0, 0.0, 0.0, 1.6218486415498936E9, 2021-05-24 11:30:41.549
63.0, -38.526580810546875, 244.58946228027344, -53.1065788269043, 13.310303688049316, 0.04800000041723251, -0.01600000075995922, 1.055999994277954, 0.0, 0.0, 0.0, 0.0, 0.0, 1.6218486415498936E9, 2021-05-24 11:30:41.549
64.0, -39.34935760498047, 242.47267150878906, -57.9647102355957, 14.177960395812988, 0.04800000041723251, -0.01600000075995922, 1.055999994277954, 0.0, 0.0, 0.0, 0.0, 0.0, 1.6218486415634742E9, 2021-05-24 11:30:41.563
64.0, -36.989479064941406, 245.6254119873047, -46.68517303466797, 19.06226921081543, 0.04800000041723251, -0.01600000075995922, 1.055999994277954, 0.0, 0.0, 0.0, 0.0, 0.0, 1.6218486415634742E9, 2021-05-24 11:30:41.563
65.0, -39.29325866699219, 248.0413818359375, -52.11176681518555, 12.24443244934082, 0.04800000041723251, -0.01600000075995922, 1.055999994277954, 0.0, 0.0, 0.0, 0.0, 0.0, 1.6218486415793312E9, 2021-05-24 11:30:41.579
65.0, -37.370948791503906, 241.71347045898438, -49.243263244628906, 10.411881446838379, 0.04800000041723251, -0.01600000075995922, 1.055999994277954, 0.0, 0.0, 0.0, 0.0, 0.0, 1.6218486415793312E9, 2021-05-24 11:30:41.579
66.0, -38.608856201171875, 243.587158203125, -41.81956100463867, 7.7902116775512695, 0.04800000041723251, -0.01600000075995922, 1.055999994277954, 0.0, 0.0, 0.0, 0.0, 0.0, 1.621848641579888E9, 2021-05-24 11:30:41.579
66.0, -35.91238784790039, 242.73446655273438, -38.554630279541016, 11.754505157470703, 0.04800000041723251, -0.01600000075995922, 1.055999994277954, 0.0, 0.0, 0.0, 0.0, 0.0, 1.621848641579888E9, 2021-05-24 11:30:41.579
67.0, -32.77461242675781, 248.3779754638672, -39.47464370727539, 14.200400352478027, 0.04800000041723251, -0.01600000075995922, 1.055999994277954, 0.0, 0.0, 0.0, 0.0, 0.0, 1.6218486415935533E9, 2021-05-24 11:30:41.593
67.0, -43.23137283325195, 240.81964111328125, -48.30828857421875, 4.570157527923584, 0.04800000041723251, -0.01600000075995922, 1.055999994277954, 0.0, 0.0, 0.0, 0.0, 0.0, 1.6218486415935533E9, 2021-05-24 11:30:41.593
68.0, -38.02169418334961, 247.8319549560547, -47.16013717651367, 7.969727039337158, 0.04800000041723251, -0.01600000075995922, 1.055999994277954, 0.0, 0.0, 0.0, 0.0, 0.0, 1.6218486416091645E9, 2021-05-24 11:30:41.609
68.0, -39.315696716308594, 247.319580078125, -51.28150939941406, 10.303424835205078, 0.04800000041723251, -0.01600000075995922, 1.055999994277954, 0.0, 0.0, 0.0, 0.0, 0.0, 1.6218486416091645E9, 2021-05-24 11:30:41.609
69.0, -34.64082336425781, 256.9049377441406, -40.81352996826172, 12.020038604736328, 0.04800000041723251, -0.01600000075995922, 1.055999994277954, 0.0, 0.0, 0.0, 0.0, 0.0, 1.6218486416097991E9, 2021-05-24 11:30:41.609
69.0, -43.186492919921875, 249.05490112304688, -49.052528381347656, 2.6515891551971436, 0.04800000041723251, -0.01600000075995922, 1.055999994277954, 0.0, 0.0, 0.0, 0.0, 0.0, 1.6218486416097991E9, 2021-05-24 11:30:41.609
70.0, -42.857383728027344, 246.1377716064453, -52.627872467041016, 3.8446171283721924, 0.04800000041723251, -0.01600000075995922, 1.055999994277954, 0.0, 0.0, 0.0, 0.0, 0.0, 1.6218486416236253E9, 2021-05-24 11:30:41.623
70.0, -40.58352279663086, 250.0384979248047, -42.0439567565918, 12.988672256469727, 0.04800000041723251, -0.01600000075995922, 1.055999994277954, 0.0, 0.0, 0.0, 0.0, 0.0, 1.6218486416236253E9, 2021-05-24 11:30:41.623
71.0, -34.16211700439453, 251.0146026611328, -40.72377014160156, 14.477152824401855, 0.04800000041723251, -0.01600000075995922, 1.055999994277954, 0.0, 0.0, 0.0, 0.0, 0.0, 1.621848641639542E9, 2021-05-24 11:30:41.639
71.0, -41.02857208251953, 244.93727111816406, -49.46391677856445, 3.5155060291290283, 0.04800000041723251, -0.01600000075995922, 1.055999994277954, 0.0, 0.0, 0.0, 0.0, 0.0, 1.621848641639542E9, 2021-05-24 11:30:41.639
72.0, -43.63154220581055, 242.60731506347656, -50.70182418823242, 10.049111366271973, 0.04800000041723251, -0.01600000075995922, 1.055999994277954, 0.0, 0.0, 0.0, 0.0, 0.0, 1.6218486416542056E9, 2021-05-24 11:30:41.654
72.0, -31.85833740234375, 247.1587677001953, -46.83476638793945, 14.810004234313965, 0.04800000041723251, -0.01600000075995922, 1.055999994277954, 0.0, 0.0, 0.0, 0.0, 0.0, 1.6218486416542056E9, 2021-05-24 11:30:41.654
73.0, -37.288673400878906, 248.7781524658203, -42.601200103759766, 10.086509704589844, 0.04800000041723251, -0.01600000075995922, 1.055999994277954, 0.0, 0.0, 0.0, 0.0, 0.0, 1.6218486416549788E9, 2021-05-24 11:30:41.654
73.0, -40.3179931640625, 250.64060974121094, -47.96421813964844, 7.3264641761779785, 0.04800000041723251, -0.01600000075995922, 1.055999994277954, 0.0, 0.0, 0.0, 0.0, 0.0, 1.6218486416549788E9, 2021-05-24 11:30:41.654
74.0, -42.30387878417969, 241.41053771972656, -46.120445251464844, 13.108349800109863, 0.04800000041723251, -0.01600000075995922, 1.055999994277954, 0.0, 0.0, 0.0, 0.0, 0.0, 1.621848641669129E9, 2021-05-24 11:30:41.669
74.0, -36.11808395385742, 237.8688507080078, -38.41999053955078, 19.256744384765625, 0.04800000041723251, -0.01600000075995922, 1.055999994277954, 0.0, 0.0, 0.0, 0.0, 0.0, 1.621848641669129E9, 2021-05-24 11:30:41.669
75.0, -34.652042388916016, 247.9217071533203, -40.439537048339844, 14.301377296447754, 0.04800000041723251, -0.01600000075995922, 1.055999994277954, 0.0, 0.0, 0.0, 0.0, 0.0, 1.6218486416698415E9, 2021-05-24 11:30:41.669
75.0, -41.31654357910156, 248.95765686035156, -49.83042526245117, 8.08940315246582, 0.04800000041723251, -0.01600000075995922, 1.055999994277954, 0.0, 0.0, 0.0, 0.0, 0.0, 1.6218486416698415E9, 2021-05-24 11:30:41.669
76.0, -39.55879211425781, 250.4124755859375, -43.61845397949219, 10.744732856750488, 0.04800000041723251, -0.01600000075995922, 1.055999994277954, 0.0, 0.0, 0.0, 0.0, 0.0, 1.621848641683638E9, 2021-05-24 11:30:41.683
76.0, -38.702354431152344, 246.7174530029297, -41.04540252685547, 15.872135162353516, 0.04800000041723251, -0.01600000075995922, 1.055999994277954, 0.0, 0.0, 0.0, 0.0, 0.0, 1.621848641683638E9, 2021-05-24 11:30:41.683
77.0, -32.63623809814453, 247.68983459472656, -39.22407150268555, 13.976006507873535, 0.04800000041723251, -0.01600000075995922, 1.055999994277954, 0.0, 0.0, 0.0, 0.0, 0.0, 1.6218486416990836E9, 2021-05-24 11:30:41.699
77.0, -38.283485412597656, 253.27349853515625, -48.34568786621094, 6.743039608001709, 0.04800000041723251, -0.01600000075995922, 1.055999994277954, 0.0, 0.0, 0.0, 0.0, 0.0, 1.6218486416990836E9, 2021-05-24 11:30:41.699
78.0, -40.04124069213867, 241.54144287109375, -54.04529571533203, 10.894328117370605, 0.04800000041723251, -0.01600000075995922, 1.055999994277954, 0.0, 0.0, 0.0, 0.0, 0.0, 1.6218486416997688E9, 2021-05-24 11:30:41.699
78.0, -35.0709114074707, 242.64845275878906, -49.74814987182617, 13.85258960723877, 0.04800000041723251, -0.01600000075995922, 1.055999994277954, 0.0, 0.0, 0.0, 0.0, 0.0, 1.6218486416997688E9, 2021-05-24 11:30:41.699
79.0, -30.01456642150879, 255.01255798339844, -39.62797927856445, 18.13103485107422, 0.04800000041723251, -0.01600000075995922, 1.055999994277954, 0.0, 0.0, 0.0, 0.0, 0.0, 1.6218486417135959E9, 2021-05-24 11:30:41.713
79.0, -39.92530059814453, 243.4188690185547, -55.03636932373047, 7.236706256866455, 0.04800000041723251, -0.01600000075995922, 1.055999994277954, 0.0, 0.0, 0.0, 0.0, 0.0, 1.6218486417135959E9, 2021-05-24 11:30:41.713
80.0, -34.85773849487305, 238.41488647460938, -54.87929153442383, 4.790812015533447, 0.04800000041723251, -0.01600000075995922, 1.055999994277954, 0.0, 0.0, 0.0, 0.0, 0.0, 1.6218486417464018E9, 2021-05-24 11:30:41.746
80.0, -27.291919708251953, 247.60382080078125, -43.23324203491211, 12.087356567382812, 0.04800000041723251, -0.01600000075995922, 1.055999994277954, 0.0, 0.0, 0.0, 0.0, 0.0, 1.6218486417464018E9, 2021-05-24 11:30:41.746
81.0, -22.91997718811035, 255.04995727539062, -44.68806457519531, 14.17422103881836, 0.04800000041723251, -0.01600000075995922, 1.055999994277954, 0.0, 0.0, 0.0, 0.0, 0.0, 1.621848641746928E9, 2021-05-24 11:30:41.746
81.0, -35.62067794799805, 243.35528564453125, -50.952396392822266, 7.883708953857422, 0.04800000041723251, -0.01600000075995922, 1.055999994277954, 0.0, 0.0, 0.0, 0.0, 0.0, 1.621848641746928E9, 2021-05-24 11:30:41.746
82.0, -42.66291046142578, 232.47592163085938, -60.451744079589844, 7.090850353240967, 0.04800000041723251, -0.01600000075995922, 1.055999994277954, 0.0, 0.0, 0.0, 0.0, 0.0, 1.6218486417476711E9, 2021-05-24 11:30:41.747
82.0, -30.627910614013672, 239.63409423828125, -46.883384704589844, 23.03404426574707, 0.04800000041723251, -0.01600000075995922, 1.055999994277954, 0.0, 0.0, 0.0, 0.0, 0.0, 1.6218486417476711E9, 2021-05-24 11:30:41.747
83.0, -29.25910758972168, 240.73736572265625, -39.56066131591797, 22.304763793945312, 0.04800000041723251, -0.01600000075995922, 1.055999994277954, 0.0, 0.0, 0.0, 0.0, 0.0, 1.6218486417484126E9, 2021-05-24 11:30:41.748
83.0, -36.97077941894531, 243.8826141357422, -48.15495300292969, 9.177714347839355, 0.04800000041723251, -0.01600000075995922, 1.055999994277954, 0.0, 0.0, 0.0, 0.0, 0.0, 1.6218486417484126E9, 2021-05-24 11:30:41.748
84.0, -42.48713302612305, 248.0862579345703, -47.97917556762695, 4.7982916831970215, 0.04800000041723251, -0.01600000075995922, 1.055999994277954, 0.0, 0.0, 0.0, 0.0, 0.0, 1.6218486417585368E9, 2021-05-24 11:30:41.758
84.0, -40.3292121887207, 239.72384643554688, -44.29163360595703, 7.356383323669434, 0.04800000041723251, -0.01600000075995922, 1.055999994277954, 0.0, 0.0, 0.0, 0.0, 0.0, 1.6218486417585368E9, 2021-05-24 11:30:41.758
85.0, -35.8114128112793, 250.40499877929688, -44.452449798583984, 9.159014701843262, 0.04800000041723251, -0.01600000075995922, 1.055999994277954, 0.0, 0.0, 0.0, 0.0, 0.0, 1.6218486417734528E9, 2021-05-24 11:30:41.773
85.0, -45.51271438598633, 239.0656280517578, -57.94974899291992, -4.158768653869629, 0.04800000041723251, -0.01600000075995922, 1.055999994277954, 0.0, 0.0, 0.0, 0.0, 0.0, 1.6218486417734528E9, 2021-05-24 11:30:41.773
86.0, -39.229679107666016, 251.2240447998047, -53.757320404052734, 8.710227012634277, 0.04800000041723251, -0.01600000075995922, 1.055999994277954, 0.0, 0.0, 0.0, 0.0, 0.0, 1.6218486417892404E9, 2021-05-24 11:30:41.789
86.0, -37.71501922607422, 248.65472412109375, -41.591426849365234, 11.589949607849121, 0.04800000041723251, -0.01600000075995922, 1.055999994277954, 0.0, 0.0, 0.0, 0.0, 0.0, 1.6218486417892404E9, 2021-05-24 11:30:41.789
87.0, -37.090457916259766, 259.6650085449219, -41.557769775390625, 13.605755805969238, 0.04800000041723251, -0.01600000075995922, 1.055999994277954, 0.0, 0.0, 0.0, 0.0, 0.0, 1.62184864178996E9, 2021-05-24 11:30:41.789
87.0, -41.02483367919922, 239.58921813964844, -51.610618591308594, -0.1682955026626587, 0.04800000041723251, -0.01600000075995922, 1.055999994277954, 0.0, 0.0, 0.0, 0.0, 0.0, 1.62184864178996E9, 2021-05-24 11:30:41.789
88.0, -40.35165023803711, 245.8460693359375, -54.40058517456055, 7.184347629547119, 0.04800000041723251, -0.01600000075995922, 1.055999994277954, 0.0, 0.0, 0.0, 0.0, 0.0, 1.621848641803467E9, 2021-05-24 11:30:41.803
88.0, -37.12411880493164, 245.99191284179688, -46.382240295410156, 16.739791870117188, 0.04800000041723251, -0.01600000075995922, 1.055999994277954, 0.0, 0.0, 0.0, 0.0, 0.0, 1.621848641803467E9, 2021-05-24 11:30:41.803
89.0, -27.602331161499023, 248.43406677246094, -41.13890075683594, 11.657268524169922, 0.04800000041723251, -0.01600000075995922, 1.055999994277954, 0.0, 0.0, 0.0, 0.0, 0.0, 1.621848641819214E9, 2021-05-24 11:30:41.819
89.0, -33.39543533325195, 246.2275390625, -48.66731643676758, 6.679461479187012, 0.04800000041723251, -0.01600000075995922, 1.055999994277954, 0.0, 0.0, 0.0, 0.0, 0.0, 1.621848641819214E9, 2021-05-24 11:30:41.819
90.0, -37.894535064697266, 239.51815795898438, -52.859745025634766, 6.683201313018799, 0.04800000041723251, -0.01600000075995922, 1.055999994277954, 0.0, 0.0, 0.0, 0.0, 0.0, 1.6218486418199418E9, 2021-05-24 11:30:41.819
90.0, -29.502201080322266, 246.50802612304688, -46.25508117675781, 9.001938819885254, 0.04800000041723251, -0.01600000075995922, 1.055999994277954, 0.0, 0.0, 0.0, 0.0, 0.0, 1.6218486418199418E9, 2021-05-24 11:30:41.819
91.0, -26.9254093170166, 243.99481201171875, -40.319862365722656, 13.695513725280762, 0.04800000041723251, -0.01600000075995922, 1.055999994277954, 0.0, 0.0, 0.0, 0.0, 0.0, 1.6218486418334928E9, 2021-05-24 11:30:41.833
91.0, -36.742645263671875, 246.82591247558594, -52.3847770690918, 3.4930665493011475, 0.04800000041723251, -0.01600000075995922, 1.055999994277954, 0.0, 0.0, 0.0, 0.0, 0.0, 1.6218486418334928E9, 2021-05-24 11:30:41.833
92.0, -33.78064727783203, 244.99710083007812, -46.26630401611328, 2.606710195541382, 0.04800000041723251, -0.01600000075995922, 1.055999994277954, 0.0, 0.0, 0.0, 0.0, 0.0, 1.6218486418493423E9, 2021-05-24 11:30:41.849
92.0, -29.9360294342041, 246.42201232910156, -41.42313003540039, 22.484277725219727, 0.04800000041723251, -0.01600000075995922, 1.055999994277954, 0.0, 0.0, 0.0, 0.0, 0.0, 1.6218486418493423E9, 2021-05-24 11:30:41.849
93.0, -32.52777862548828, 255.70069885253906, -39.96831130981445, 14.017145156860352, 0.04800000041723251, -0.01600000075995922, 1.055999994277954, 0.0, 0.0, 0.0, 0.0, 0.0, 1.6218486418498755E9, 2021-05-24 11:30:41.849
93.0, -43.67267990112305, 247.7908172607422, -50.15953826904297, 3.9568140506744385, 0.04800000041723251, -0.01600000075995922, 1.055999994277954, 0.0, 0.0, 0.0, 0.0, 0.0, 1.6218486418498755E9, 2021-05-24 11:30:41.849
94.0, -40.06741714477539, 244.75401306152344, -48.49528121948242, 4.43178129196167, 0.04800000041723251, -0.01600000075995922, 1.055999994277954, 0.0, 0.0, 0.0, 0.0, 0.0, 1.6218486418635314E9, 2021-05-24 11:30:41.863
94.0, -33.556251525878906, 248.4677276611328, -45.372467041015625, 10.924247741699219, 0.04800000041723251, -0.01600000075995922, 1.055999994277954, 0.0, 0.0, 0.0, 0.0, 0.0, 1.6218486418635314E9, 2021-05-24 11:30:41.863
95.0, -30.265140533447266, 252.63772583007812, -41.655006408691406, 10.355782508850098, 0.04800000041723251, -0.01600000075995922, 1.055999994277954, 0.0, 0.0, 0.0, 0.0, 0.0, 1.6218486418792655E9, 2021-05-24 11:30:41.879
95.0, -39.9776611328125, 248.85293579101562, -46.80858612060547, 2.9283416271209717, 0.04800000041723251, -0.01600000075995922, 1.055999994277954, 0.0, 0.0, 0.0, 0.0, 0.0, 1.6218486418792655E9, 2021-05-24 11:30:41.879
96.0, -43.94569396972656, 240.43817138671875, -47.096561431884766, 0.44878798723220825, 0.04800000041723251, -0.01600000075995922, 1.055999994277954, 0.0, 0.0, 0.0, 0.0, 0.0, 1.6218486418798616E9, 2021-05-24 11:30:41.879
96.0, -40.897674560546875, 243.3440704345703, -39.7775764465332, 9.622762680053711, 0.04800000041723251, -0.01600000075995922, 1.055999994277954, 0.0, 0.0, 0.0, 0.0, 0.0, 1.6218486418798616E9, 2021-05-24 11:30:41.879
97.0, -32.75591278076172, 251.5531463623047, -36.31816864013672, 12.24443244934082, 0.04800000041723251, -0.01600000075995922, 1.055999994277954, 0.0, 0.0, 0.0, 0.0, 0.0, 1.621848641893538E9, 2021-05-24 11:30:41.893
97.0, -37.329811096191406, 251.87478637695312, -51.633060455322266, 5.273259162902832, 0.04800000041723251, -0.01600000075995922, 1.055999994277954, 0.0, 0.0, 0.0, 0.0, 0.0, 1.621848641893538E9, 2021-05-24 11:30:41.893
98.0, -45.449134826660156, 243.85643005371094, -58.204063415527344, 7.745332717895508, 0.04800000041723251, -0.01600000075995922, 1.055999994277954, 0.0, 0.0, 0.0, 0.0, 0.0, 1.6218486419090765E9, 2021-05-24 11:30:41.909
98.0, -35.23546600341797, 243.0037384033203, -47.470550537109375, 16.3209228515625, 0.04800000041723251, -0.01600000075995922, 1.055999994277954, 0.0, 0.0, 0.0, 0.0, 0.0, 1.6218486419090765E9, 2021-05-24 11:30:41.909
99.0, -30.253921508789062, 239.63035583496094, -38.79024124145508, 15.423347473144531, 0.04800000041723251, -0.01600000075995922, 1.055999994277954, 0.0, 0.0, 0.0, 0.0, 0.0, 1.6218486419098094E9, 2021-05-24 11:30:41.909
99.0, -35.44864273071289, 231.75038146972656, -48.480323791503906, 11.578730583190918, 0.04800000041723251, -0.01600000075995922, 1.055999994277954, 0.0, 0.0, 0.0, 0.0, 0.0, 1.6218486419098094E9, 2021-05-24 11:30:41.909
100.0, -40.381568908691406, 229.91783142089844, -52.21648406982422, 12.902654647827148, 0.04800000041723251, -0.01600000075995922, 1.055999994277954, 0.0, 0.0, 0.0, 0.0, 0.0, 1.6218486419241712E9, 2021-05-24 11:30:41.924
100.0, -27.40037727355957, 234.92555236816406, -45.21913146972656, 16.593936920166016, 0.04800000041723251, -0.01600000075995922, 1.055999994277954, 0.0, 0.0, 0.0, 0.0, 0.0, 1.6218486419241712E9, 2021-05-24 11:30:41.924
0.0, -26.663616180419922, 238.82066345214844, -41.86817932128906, 11.270188331604004, 0.04800000041723251, -0.01600000075995922, 1.055999994277954, 0.0, 0.0, 0.0, 0.0, 0.0, 1.621848641924898E9, 2021-05-24 11:30:41.924
1.0, -26.10637092590332, 234.66563415527344, -43.34170150756836, 6.50929594039917, 0.04800000041723251, -0.01600000075995922, 1.055999994277954, 0.0, 0.0, 0.0, 0.0, 0.0, 1.6218486419384356E9, 2021-05-24 11:30:41.938
1.0, -27.621030807495117, 227.97494506835938, -48.854312896728516, 9.351619720458984, 0.04800000041723251, -0.01600000075995922, 1.055999994277954, 0.0, 0.0, 0.0, 0.0, 0.0, 1.6218486419384356E9, 2021-05-24 11:30:41.938
2.0, -25.287334442138672, 235.12937927246094, -40.1179084777832, 16.128318786621094, 0.04800000041723251, -0.01600000075995922, 1.055999994277954, 0.0, 0.0, 0.0, 0.0, 0.0, 1.6218486419542265E9, 2021-05-24 11:30:41.954
2.0, -20.485301971435547, 245.34678649902344, -41.75972366333008, 21.300600051879883, 0.04800000041723251, -0.01600000075995922, 1.055999994277954, 0.0, 0.0, 0.0, 0.0, 0.0, 1.6218486419542265E9, 2021-05-24 11:30:41.954
3.0, -29.726594924926758, 229.68408203125, -59.38212966918945, 2.8217544555664062, 0.04800000041723251, -0.01600000075995922, 1.055999994277954, 0.0, 0.0, 0.0, 0.0, 0.0, 1.6218486419548042E9, 2021-05-24 11:30:41.954
3.0, -28.002500534057617, 229.12684631347656, -52.13794708251953, 5.147972106933594, 0.04800000041723251, -0.01600000075995922, 1.055999994277954, 0.0, 0.0, 0.0, 0.0, 0.0, 1.6218486419548042E9, 2021-05-24 11:30:41.954
4.0, -29.158130645751953, 240.34280395507812, -45.039615631103516, 13.835760116577148, 0.04800000041723251, -0.01600000075995922, 1.055999994277954, 0.0, 0.0, 0.0, 0.0, 0.0, 1.621848641968417E9, 2021-05-24 11:30:41.968
4.0, -29.54707908630371, 241.2254180908203, -46.06808853149414, 8.360546112060547, 0.04800000041723251, -0.01600000075995922, 1.055999994277954, 0.0, 0.0, 0.0, 0.0, 0.0, 1.621848641968417E9, 2021-05-24 11:30:41.968
5.0, -37.47566604614258, 242.45957946777344, -49.44895553588867, 2.1747517585754395, 0.04800000041723251, -0.01600000075995922, 1.055999994277954, 0.0, 0.0, 0.0, 0.0, 0.0, 1.6218486419840636E9, 2021-05-24 11:30:41.984
5.0, -28.653244018554688, 248.4247283935547, -45.70905685424805, 9.91634464263916, 0.04800000041723251, -0.01600000075995922, 1.055999994277954, 0.0, 0.0, 0.0, 0.0, 0.0, 1.6218486419840636E9, 2021-05-24 11:30:41.984
6.0, -26.349464416503906, 243.3309783935547, -42.462825775146484, 13.42811107635498, 0.04800000041723251, -0.01600000075995922, 1.055999994277954, 0.0, 0.0, 0.0, 0.0, 0.0, 1.621848641984822E9, 2021-05-24 11:30:41.984
6.0, -31.27117347717285, 242.59422302246094, -41.56524658203125, 8.727056503295898, 0.04800000041723251, -0.01600000075995922, 1.055999994277954, 0.0, 0.0, 0.0, 0.0, 0.0, 1.621848641984822E9, 2021-05-24 11:30:41.984
7.0, -41.88874816894531, 247.9497528076172, -53.772281646728516, 6.737429618835449, 0.04800000041723251, -0.01600000075995922, 1.055999994277954, 0.0, 0.0, 0.0, 0.0, 0.0, 1.621848641998429E9, 2021-05-24 11:30:41.998
7.0, -44.37952423095703, 241.23289489746094, -55.473934173583984, 7.3133745193481445, 0.04800000041723251, -0.01600000075995922, 1.055999994277954, 0.0, 0.0, 0.0, 0.0, 0.0, 1.621848641998429E9, 2021-05-24 11:30:41.998
8.0, -30.99816131591797, 251.66722106933594, -41.37077331542969, 19.404470443725586, 0.04800000041723251, -0.01600000075995922, 1.055999994277954, 0.0, 0.0, 0.0, 0.0, 0.0, 1.6218486420140662E9, 2021-05-24 11:30:42.014
8.0, -34.33041000366211, 254.58433532714844, -40.70881271362305, 15.731888771057129, 0.04800000041723251, -0.01600000075995922, 1.055999994277954, 0.0, 0.0, 0.0, 0.0, 0.0, 1.6218486420140662E9, 2021-05-24 11:30:42.014
9.0, -32.95786666870117, 249.94686889648438, -45.761417388916016, 10.754082679748535, 0.04800000041723251, -0.01600000075995922, 1.055999994277954, 0.0, 0.0, 0.0, 0.0, 0.0, 1.6218486420147948E9, 2021-05-24 11:30:42.014
9.0, -36.237762451171875, 235.04710388183594, -46.28874206542969, 10.851319313049316, 0.04800000041723251, -0.01600000075995922, 1.055999994277954, 0.0, 0.0, 0.0, 0.0, 0.0, 1.6218486420147948E9, 2021-05-24 11:30:42.014
10.0, -32.69233703613281, 245.9376983642578, -42.178592681884766, 17.0483341217041, 0.04800000041723251, -0.01600000075995922, 1.055999994277954, 0.0, 0.0, 0.0, 0.0, 0.0, 1.6218486420284348E9, 2021-05-24 11:30:42.028
10.0, -25.227495193481445, 249.6551513671875, -37.8702278137207, 20.500261306762695, 0.04800000041723251, -0.01600000075995922, 1.055999994277954, 0.0, 0.0, 0.0, 0.0, 0.0, 1.6218486420284348E9, 2021-05-24 11:30:42.028
11.0, -26.9141902923584, 230.25628662109375, -48.1699104309082, 12.870865821838379, 0.04800000041723251, 0.0, 1.055999994277954, 0.0, 0.0, 0.0, 0.0, 0.0, 1.6218486420440967E9, 2021-05-24 11:30:42.044
11.0, -34.072357177734375, 228.27413940429688, -57.6655158996582, 9.0112886428833, 0.04800000041723251, 0.0, 1.055999994277954, 0.0, 0.0, 0.0, 0.0, 0.0, 1.6218486420440967E9, 2021-05-24 11:30:42.044
12.0, -27.490135192871094, 238.932861328125, -51.25532913208008, 16.711742401123047, 0.04800000041723251, 0.0, 1.055999994277954, 0.0, 0.0, 0.0, 0.0, 0.0, 1.6218486420448177E9, 2021-05-24 11:30:42.044
12.0, -29.25162696838379, 243.01309204101562, -49.243263244628906, 14.740816116333008, 0.04800000041723251, 0.0, 1.055999994277954, 0.0, 0.0, 0.0, 0.0, 0.0, 1.6218486420448177E9, 2021-05-24 11:30:42.044
13.0, -35.037254333496094, 243.45065307617188, -53.185115814208984, 4.654305458068848, 0.04800000041723251, 0.0, 1.055999994277954, 0.0, 0.0, 0.0, 0.0, 0.0, 1.6218486420585492E9, 2021-05-24 11:30:42.058
13.0, -39.39423751831055, 240.7467041015625, -52.74007034301758, 1.0640015602111816, 0.04800000041723251, 0.0, 1.055999994277954, 0.0, 0.0, 0.0, 0.0, 0.0, 1.6218486420585492E9, 2021-05-24 11:30:42.058
14.0, -29.74529457092285, 249.02310180664062, -40.8995475769043, 14.748295783996582, 0.04800000041723251, 0.0, 1.055999994277954, 0.0, 0.0, 0.0, 0.0, 0.0, 1.6218486420740616E9, 2021-05-24 11:30:42.074
14.0, -34.083580017089844, 256.3495788574219, -42.892913818359375, 14.684717178344727, 0.04800000041723251, 0.0, 1.055999994277954, 0.0, 0.0, 0.0, 0.0, 0.0, 1.6218486420740616E9, 2021-05-24 11:30:42.074
15.0, -39.24837875366211, 256.551513671875, -51.07581329345703, 6.329780578613281, 0.04800000041723251, 0.0, 1.055999994277954, 0.0, 0.0, 0.0, 0.0, 0.0, 1.6218486420747716E9, 2021-05-24 11:30:42.074
15.0, -43.74374008178711, 244.9129638671875, -48.30454635620117, 6.546694755554199, 0.04800000041723251, 0.0, 1.055999994277954, 0.0, 0.0, 0.0, 0.0, 0.0, 1.6218486420747716E9, 2021-05-24 11:30:42.074
16.0, -41.5147590637207, 250.623779296875, -40.589134216308594, 17.82623291015625, 0.04800000041723251, 0.0, 1.055999994277954, 0.0, 0.0, 0.0, 0.0, 0.0, 1.6218486420884757E9, 2021-05-24 11:30:42.088
16.0, -41.26044464111328, 254.96580505371094, -40.23384475708008, 16.932397842407227, 0.04800000041723251, 0.0, 1.055999994277954, 0.0, 0.0, 0.0, 0.0, 0.0, 1.6218486420884757E9, 2021-05-24 11:30:42.088
17.0, -42.89104080200195, 247.5346221923828, -53.7984619140625, 9.568533897399902, 0.04800000041723251, 0.0, 1.055999994277954, 0.0, 0.0, 0.0, 0.0, 0.0, 1.6218486421040792E9, 2021-05-24 11:30:42.104
17.0, -45.14246368408203, 246.18826293945312, -48.37934494018555, 4.0222625732421875, 0.04800000041723251, 0.0, 1.055999994277954, 0.0, 0.0, 0.0, 0.0, 0.0, 1.6218486421040792E9, 2021-05-24 11:30:42.104
18.0, -33.69462966918945, 242.83731079101562, -37.047447204589844, 11.546940803527832, 0.04800000041723251, 0.0, 1.055999994277954, 0.0, 0.0, 0.0, 0.0, 0.0, 1.6218486421047983E9, 2021-05-24 11:30:42.104
18.0, -32.61753845214844, 241.44981384277344, -48.921630859375, 13.005501747131348, 0.04800000041723251, 0.0, 1.055999994277954, 0.0, 0.0, 0.0, 0.0, 0.0, 1.6218486421047983E9, 2021-05-24 11:30:42.104
19.0, -40.13847732543945, 244.43798828125, -49.73318862915039, 6.045548439025879, 0.04800000041723251, 0.0, 1.055999994277954, 0.0, 0.0, 0.0, 0.0, 0.0, 1.621848642118548E9, 2021-05-24 11:30:42.118
19.0, -35.83011245727539, 243.8882293701172, -49.06374740600586, 7.672404766082764, 0.04800000041723251, 0.0, 1.055999994277954, 0.0, 0.0, 0.0, 0.0, 0.0, 1.621848642118548E9, 2021-05-24 11:30:42.118
20.0, -26.23352813720703, 248.47708129882812, -43.491294860839844, 13.768442153930664, 0.04800000041723251, 0.0, 1.055999994277954, 0.0, 0.0, 0.0, 0.0, 0.0, 1.621848642134103E9, 2021-05-24 11:30:42.134
20.0, -29.797653198242188, 254.64418029785156, -44.53846740722656, 12.900784492492676, 0.04800000041723251, 0.0, 1.055999994277954, 0.0, 0.0, 0.0, 0.0, 0.0, 1.621848642134103E9, 2021-05-24 11:30:42.134
21.0, -33.82178497314453, 249.58782958984375, -53.0878791809082, 5.880992889404297, 0.04800000041723251, -0.01600000075995922, 1.055999994277954, 0.0, 0.0, 0.0, 0.0, 0.0, 1.6218486421347775E9, 2021-05-24 11:30:42.134
21.0, -33.930240631103516, 238.22227478027344, -52.253883361816406, 7.485409736633301, 0.04800000041723251, -0.01600000075995922, 1.055999994277954, 0.0, 0.0, 0.0, 0.0, 0.0, 1.6218486421347775E9, 2021-05-24 11:30:42.134
22.0, -26.5028018951416, 239.07872009277344, -44.175697326660156, 11.576860427856445, 0.04800000041723251, -0.01600000075995922, 1.055999994277954, 0.0, 0.0, 0.0, 0.0, 0.0, 1.62184864214842E9, 2021-05-24 11:30:42.148
22.0, -26.38312339782715, 248.94830322265625, -40.10294723510742, 18.712589263916016, 0.04800000041723251, -0.01600000075995922, 1.055999994277954, 0.0, 0.0, 0.0, 0.0, 0.0, 1.62184864214842E9, 2021-05-24 11:30:42.148
23.0, -35.07465362548828, 251.95892333984375, -48.1699104309082, 8.70087718963623, 0.04800000041723251, -0.01600000075995922, 1.055999994277954, 0.0, 0.0, 0.0, 0.0, 0.0, 1.621848642164068E9, 2021-05-24 11:30:42.164
23.0, -36.30133819580078, 247.94601440429688, -51.02719497680664, 7.15255880355835, 0.04800000041723251, -0.01600000075995922, 1.055999994277954, 0.0, 0.0, 0.0, 0.0, 0.0, 1.621848642164068E9, 2021-05-24 11:30:42.164
24.0, -33.126163482666016, 239.2283172607422, -44.897499084472656, 14.935290336608887, 0.04800000041723251, -0.01600000075995922, 1.055999994277954, 0.0, 0.0, 0.0, 0.0, 0.0, 1.6218486421647763E9, 2021-05-24 11:30:42.164
24.0, -36.48833465576172, 245.1635284423828, -43.96626281738281, 13.686163902282715, 0.04800000041723251, -0.01600000075995922, 1.055999994277954, 0.0, 0.0, 0.0, 0.0, 0.0, 1.6218486421647763E9, 2021-05-24 11:30:42.164
25.0, -45.12750244140625, 244.9129638671875, -55.50759506225586, 3.5136361122131348, 0.04800000041723251, -0.01600000075995922, 1.055999994277954, 0.0, 0.0, 0.0, 0.0, 0.0, 1.621848642178419E9, 2021-05-24 11:30:42.178
25.0, -51.48533248901367, 236.9806365966797, -59.13155746459961, 2.7768757343292236, 0.04800000041723251, -0.01600000075995922, 1.055999994277954, 0.0, 0.0, 0.0, 0.0, 0.0, 1.621848642178419E9, 2021-05-24 11:30:42.178
26.0, -45.41547393798828, 243.65635681152344, -50.63450622558594, 11.748895645141602, 0.04800000041723251, -0.01600000075995922, 1.055999994277954, 0.0, 0.0, 0.0, 0.0, 0.0, 1.6218486421941042E9, 2021-05-24 11:30:42.194
26.0, -40.65458297729492, 249.1540069580078, -47.395751953125, 10.75034236907959, 0.04800000041723251, -0.01600000075995922, 1.055999994277954, 0.0, 0.0, 0.0, 0.0, 0.0, 1.6218486421941042E9, 2021-05-24 11:30:42.194
27.0, -49.836036682128906, 242.6503143310547, -56.154598236083984, 11.909711837768555, 0.04800000041723251, -0.01600000075995922, 1.055999994277954, 0.0, 0.0, 0.0, 0.0, 0.0, 1.6218486421948335E9, 2021-05-24 11:30:42.194
27.0, -54.07334518432617, 241.25534057617188, -54.29212951660156, 10.331473350524902, 0.04800000041723251, -0.01600000075995922, 1.055999994277954, 0.0, 0.0, 0.0, 0.0, 0.0, 1.6218486421948335E9, 2021-05-24 11:30:42.194
28.0, -39.10252380371094, 249.00440979003906, -49.00016784667969, 8.977629661560059, 0.04800000041723251, -0.01600000075995922, 1.055999994277954, 0.0, 0.0, 0.0, 0.0, 0.0, 1.621848642224835E9, 2021-05-24 11:30:42.224
28.0, -41.40256118774414, 248.2115478515625, -48.31202697753906, 17.99078941345215, 0.04800000041723251, -0.01600000075995922, 1.055999994277954, 0.0, 0.0, 0.0, 0.0, 0.0, 1.621848642224835E9, 2021-05-24 11:30:42.224
29.0, -43.92699432373047, 239.76686096191406, -53.99293518066406, 3.928764820098877, 0.04800000041723251, -0.01600000075995922, 1.055999994277954, 0.0, 0.0, 0.0, 0.0, 0.0, 1.6218486422255151E9, 2021-05-24 11:30:42.225
29.0, -47.65567398071289, 229.18667602539062, -57.347625732421875, 12.72500991821289, 0.04800000041723251, -0.01600000075995922, 1.055999994277954, 0.0, 0.0, 0.0, 0.0, 0.0, 1.6218486422255151E9, 2021-05-24 11:30:42.225
30.0, -34.06861877441406, 242.55682373046875, -56.70436477661133, 20.23472785949707, 0.04800000041723251, -0.01600000075995922, 1.055999994277954, 0.0, 0.0, 0.0, 0.0, 0.0, 1.6218486422262554E9, 2021-05-24 11:30:42.226
30.0, -32.505340576171875, 246.562255859375, -51.060855865478516, 16.27791404724121, 0.04800000041723251, -0.01600000075995922, 1.055999994277954, 0.0, 0.0, 0.0, 0.0, 0.0, 1.6218486422262554E9, 2021-05-24 11:30:42.226
31.0, -35.83011245727539, 239.37416076660156, -53.21129608154297, 12.994282722473145, 0.04800000041723251, -0.01600000075995922, 1.055999994277954, 0.0, 0.0, 0.0, 0.0, 0.0, 1.6218486422385E9, 2021-05-24 11:30:42.238
31.0, -34.977413177490234, 240.04734802246094, -53.08039855957031, 4.542108535766602, 0.04800000041723251, -0.01600000075995922, 1.055999994277954, 0.0, 0.0, 0.0, 0.0, 0.0, 1.6218486422385E9, 2021-05-24 11:30:42.238
32.0, -29.397483825683594, 243.4693603515625, -46.64029312133789, 13.48794937133789, 0.04800000041723251, -0.01600000075995922, 1.055999994277954, 0.0, 0.0, 0.0, 0.0, 0.0, 1.6218486422541108E9, 2021-05-24 11:30:42.254
32.0, -27.73322868347168, 251.5251007080078, -43.04998779296875, 12.680130958557129, 0.04800000041723251, -0.01600000075995922, 1.055999994277954, 0.0, 0.0, 0.0, 0.0, 0.0, 1.6218486422541108E9, 2021-05-24 11:30:42.254
33.0, -37.91323471069336, 244.20611572265625, -51.58818054199219, 5.181631565093994, 0.04800000041723251, -0.01600000075995922, 1.055999994277954, 0.0, 0.0, 0.0, 0.0, 0.0, 1.6218486422548568E9, 2021-05-24 11:30:42.254
33.0, -39.11748504638672, 246.52859497070312, -53.1477165222168, -5.237730026245117, 0.04800000041723251, -0.01600000075995922, 1.055999994277954, 0.0, 0.0, 0.0, 0.0, 0.0, 1.6218486422548568E9, 2021-05-24 11:30:42.254
34.0, -39.64480972290039, 246.4238739013672, -51.490943908691406, 5.5444016456604, 0.04800000041723251, -0.01600000075995922, 1.055999994277954, 0.0, 0.0, 0.0, 0.0, 0.0, 1.621848642268444E9, 2021-05-24 11:30:42.268
34.0, -37.18769454956055, 247.89739990234375, -47.16761779785156, 7.451750755310059, 0.04800000041723251, -0.01600000075995922, 1.055999994277954, 0.0, 0.0, 0.0, 0.0, 0.0, 1.621848642268444E9, 2021-05-24 11:30:42.268
35.0, -44.64879608154297, 258.67578125, -53.25243377685547, -4.545848369598389, 0.04800000041723251, -0.01600000075995922, 1.055999994277954, 0.0, 0.0, 0.0, 0.0, 0.0, 1.621848642284217E9, 2021-05-24 11:30:42.284
35.0, -45.2883186340332, 248.7126922607422, -50.79158020019531, 0.6713120341300964, 0.04800000041723251, -0.01600000075995922, 1.055999994277954, 0.0, 0.0, 0.0, 0.0, 0.0, 1.621848642284217E9, 2021-05-24 11:30:42.284
36.0, -36.660369873046875, 250.04783630371094, -47.7061653137207, 12.762408256530762, 0.04800000041723251, -0.01600000075995922, 1.055999994277954, 0.0, 0.0, 0.0, 0.0, 0.0, 1.6218486422849393E9, 2021-05-24 11:30:42.284
36.0, -34.86521911621094, 258.7655334472656, -40.106685638427734, 17.95339012145996, 0.04800000041723251, -0.01600000075995922, 1.055999994277954, 0.0, 0.0, 0.0, 0.0, 0.0, 1.6218486422849393E9, 2021-05-24 11:30:42.284
37.0, -49.93327331542969, 250.56394958496094, -53.22625732421875, 2.7432165145874023, 0.04800000041723251, -0.01600000075995922, 1.055999994277954, 0.0, 0.0, 0.0, 0.0, 0.0, 1.6218486422985213E9, 2021-05-24 11:30:42.298
37.0, -46.97875213623047, 244.20985412597656, -50.35775375366211, 11.793774604797363, 0.04800000041723251, -0.01600000075995922, 1.055999994277954, 0.0, 0.0, 0.0, 0.0, 0.0, 1.6218486422985213E9, 2021-05-24 11:30:42.298
38.0, -39.88416290283203, 245.5973663330078, -44.14952087402344, 12.384678840637207, 0.04800000041723251, -0.01600000075995922, 1.055999994277954, 0.0, 0.0, 0.0, 0.0, 0.0, 1.6218486423141785E9, 2021-05-24 11:30:42.314
38.0, -34.412689208984375, 252.21697998046875, -36.55378341674805, 23.466001510620117, 0.04800000041723251, -0.01600000075995922, 1.055999994277954, 0.0, 0.0, 0.0, 0.0, 0.0, 1.6218486423141785E9, 2021-05-24 11:30:42.314
39.0, -51.115081787109375, 249.4868621826172, -43.9625244140625, 13.327133178710938, 0.04800000041723251, -0.01600000075995922, 1.055999994277954, 0.0, 0.0, 0.0, 0.0, 0.0, 1.621848642314911E9, 2021-05-24 11:30:42.314
39.0, -51.10386276245117, 244.54644775390625, -47.19379806518555, 6.284902095794678, 0.04800000041723251, -0.01600000075995922, 1.055999994277954, 0.0, 0.0, 0.0, 0.0, 0.0, 1.621848642314911E9, 2021-05-24 11:30:42.314
40.0, -39.01276779174805, 244.79702758789062, -37.13346481323242, 24.004547119140625, 0.04800000041723251, -0.01600000075995922, 1.055999994277954, 0.0, 0.0, 0.0, 0.0, 0.0, 1.6218486423284173E9, 2021-05-24 11:30:42.328
40.0, -28.316652297973633, 236.33363342285156, -40.645233154296875, 23.020954132080078, 0.04800000041723251, -0.01600000075995922, 1.055999994277954, 0.0, 0.0, 0.0, 0.0, 0.0, 1.6218486423284173E9, 2021-05-24 11:30:42.328
41.0, -35.325225830078125, 233.498779296875, -47.478031158447266, 7.870619297027588, 0.04800000041723251, -0.01600000075995922, 1.055999994277954, 0.0, 0.0, 0.0, 0.0, 0.0, 1.6218486423440976E9, 2021-05-24 11:30:42.344
41.0, -28.0698184967041, 230.705078125, -47.29103469848633, 17.23906898498535, 0.04800000041723251, -0.01600000075995922, 1.055999994277954, 0.0, 0.0, 0.0, 0.0, 0.0, 1.6218486423440976E9, 2021-05-24 11:30:42.344
42.0, -23.735275268554688, 233.86155700683594, -44.92741775512695, 13.727302551269531, 0.04800000041723251, -0.01600000075995922, 1.055999994277954, 0.0, 0.0, 0.0, 0.0, 0.0, 1.6218486423447964E9, 2021-05-24 11:30:42.344
42.0, -25.489288330078125, 247.03721618652344, -38.95479965209961, 10.795221328735352, 0.04800000041723251, -0.01600000075995922, 1.055999994277954, 0.0, 0.0, 0.0, 0.0, 0.0, 1.6218486423447964E9, 2021-05-24 11:30:42.344
43.0, -39.72334671020508, 239.51254272460938, -56.09101867675781, -0.8770065307617188, 0.04800000041723251, -0.01600000075995922, 1.055999994277954, 0.0, 0.0, 0.0, 0.0, 0.0, 1.6218486423585212E9, 2021-05-24 11:30:42.358
43.0, -44.921810150146484, 238.076416015625, -54.22854995727539, 2.645979166030884, 0.04800000041723251, -0.01600000075995922, 1.055999994277954, 0.0, 0.0, 0.0, 0.0, 0.0, 1.6218486423585212E9, 2021-05-24 11:30:42.358
44.0, -27.95014190673828, 236.79364013671875, -46.48321533203125, 13.36079216003418, 0.04800000041723251, -0.01600000075995922, 1.055999994277954, 0.0, 0.0, 0.0, 0.0, 0.0, 1.6218486423741572E9, 2021-05-24 11:30:42.374
44.0, -33.507633209228516, 243.82838439941406, -49.83416748046875, 9.127225875854492, 0.04800000041723251, -0.01600000075995922, 1.055999994277954, 0.0, 0.0, 0.0, 0.0, 0.0, 1.6218486423741572E9, 2021-05-24 11:30:42.374
45.0, -43.7213020324707, 234.93490600585938, -59.389610290527344, 2.7506964206695557, 0.04800000041723251, -0.01600000075995922, 1.055999994277954, 0.0, 0.0, 0.0, 0.0, 0.0, 1.6218486423748536E9, 2021-05-24 11:30:42.374
45.0, -44.47676086425781, 231.3894805908203, -56.782901763916016, 1.8979992866516113, 0.04800000041723251, -0.01600000075995922, 1.055999994277954, 0.0, 0.0, 0.0, 0.0, 0.0, 1.6218486423748536E9, 2021-05-24 11:30:42.374
46.0, -38.283485412597656, 241.87242126464844, -46.741268157958984, 13.7534818649292, 0.04800000041723251, -0.01600000075995922, 1.055999994277954, 0.0, 0.0, 0.0, 0.0, 0.0, 1.6218486424054408E9, 2021-05-24 11:30:42.405
46.0, -37.77859878540039, 245.09246826171875, -51.46476364135742, 8.65225887298584, 0.04800000041723251, -0.01600000075995922, 1.055999994277954, 0.0, 0.0, 0.0, 0.0, 0.0, 1.6218486424054408E9, 2021-05-24 11:30:42.405
47.0, -45.60995101928711, 241.8238067626953, -56.33411407470703, -8.353066444396973, 0.04800000041723251, -0.01600000075995922, 1.055999994277954, 0.0, 0.0, 0.0, 0.0, 0.0, 1.6218486424061596E9, 2021-05-24 11:30:42.406
47.0, -48.16804122924805, 235.9259796142578, -58.974483489990234, 8.547541618347168, 0.04800000041723251, -0.01600000075995922, 1.055999994277954, 0.0, 0.0, 0.0, 0.0, 0.0, 1.6218486424061596E9, 2021-05-24 11:30:42.406
48.0, -46.00263977050781, 233.20333862304688, -55.33182144165039, 12.747448921203613, 0.04800000041723251, -0.01600000075995922, 1.055999994277954, 0.0, 0.0, 0.0, 0.0, 0.0, 1.621848642407028E9, 2021-05-24 11:30:42.407
48.0, -42.72648620605469, 248.2489471435547, -53.5291862487793, 14.677237510681152, 0.04800000041723251, -0.01600000075995922, 1.055999994277954, 0.0, 0.0, 0.0, 0.0, 0.0, 1.621848642407028E9, 2021-05-24 11:30:42.407
49.0, -47.68559265136719, 237.65380859375, -57.97966766357422, 5.477083683013916, 0.04800000041723251, -0.01600000075995922, 1.055999994277954, 0.0, 0.0, 0.0, 0.0, 0.0, 1.6218486424185293E9, 2021-05-24 11:30:42.418
49.0, -53.11967086791992, 230.106689453125, -65.33605194091797, 4.560808181762695, 0.04800000041723251, -0.01600000075995922, 1.055999994277954, 0.0, 0.0, 0.0, 0.0, 0.0, 1.6218486424185293E9, 2021-05-24 11:30:42.418
50.0, -52.64470291137695, 242.67276000976562, -54.56888198852539, 9.389019012451172, 0.04800000041723251, -0.01600000075995922, 1.055999994277954, 0.0, 0.0, 0.0, 0.0, 0.0, 1.6218486424340744E9, 2021-05-24 11:30:42.434
50.0, -52.49136734008789, 252.38528442382812, -53.61894607543945, 10.866279602050781, 0.04800000041723251, -0.01600000075995922, 1.055999994277954, 0.0, 0.0, 0.0, 0.0, 0.0, 1.6218486424340744E9, 2021-05-24 11:30:42.434
51.0, -55.19157409667969, 243.56658935546875, -60.691097259521484, 0.8321277499198914, 0.04800000041723251, -0.01600000075995922, 1.055999994277954, 0.0, 0.0, 0.0, 0.0, 0.0, 1.6218486424348068E9, 2021-05-24 11:30:42.434
51.0, -51.63492965698242, 239.00018310546875, -56.19199752807617, 5.0843939781188965, 0.04800000041723251, -0.01600000075995922, 1.055999994277954, 0.0, 0.0, 0.0, 0.0, 0.0, 1.6218486424348068E9, 2021-05-24 11:30:42.434
52.0, -49.0618782043457, 235.81004333496094, -55.28694152832031, 6.374659538269043, 0.04800000041723251, -0.01600000075995922, 1.055999994277954, 0.0, 0.0, 0.0, 0.0, 0.0, 1.621848642448486E9, 2021-05-24 11:30:42.448
52.0, -38.62007522583008, 244.5726318359375, -49.011390686035156, 12.579153060913086, 0.04800000041723251, -0.01600000075995922, 1.055999994277954, 0.0, 0.0, 0.0, 0.0, 0.0, 1.621848642448486E9, 2021-05-24 11:30:42.448
53.0, -47.89128875732422, 227.93380737304688, -61.23338317871094, 2.4253251552581787, 0.04800000041723251, -0.01600000075995922, 1.055999994277954, 0.0, 0.0, 0.0, 0.0, 0.0, 1.6218486424640777E9, 2021-05-24 11:30:42.464
53.0, -47.98104476928711, 234.66563415527344, -60.82573318481445, 5.649118900299072, 0.04800000041723251, -0.01600000075995922, 1.055999994277954, 0.0, 0.0, 0.0, 0.0, 0.0, 1.6218486424640777E9, 2021-05-24 11:30:42.464
54.0, -31.1103572845459, 232.76950073242188, -52.713890075683594, 14.935290336608887, 0.04800000041723251, -0.01600000075995922, 1.055999994277954, 0.0, 0.0, 0.0, 0.0, 0.0, 1.6218486424648747E9, 2021-05-24 11:30:42.464
54.0, -28.6158447265625, 238.14373779296875, -48.1998291015625, 14.348126411437988, 0.04800000041723251, -0.01600000075995922, 1.055999994277954, 0.0, 0.0, 0.0, 0.0, 0.0, 1.6218486424648747E9, 2021-05-24 11:30:42.464
55.0, -35.040992736816406, 232.3917694091797, -56.981117248535156, 0.8358676433563232, 0.04800000041723251, -0.01600000075995922, 1.055999994277954, 0.0, 0.0, 0.0, 0.0, 0.0, 1.6218486424784648E9, 2021-05-24 11:30:42.478
55.0, -42.74892807006836, 237.51170349121094, -59.88701629638672, 2.3879261016845703, 0.04800000041723251, -0.01600000075995922, 1.055999994277954, 0.0, 0.0, 0.0, 0.0, 0.0, 1.6218486424784648E9, 2021-05-24 11:30:42.478
56.0, -36.29759979248047, 239.55368041992188, -49.7257080078125, 9.377799034118652, 0.04800000041723251, -0.01600000075995922, 1.055999994277954, 0.0, 0.0, 0.0, 0.0, 0.0, 1.6218486424942467E9, 2021-05-24 11:30:42.494
56.0, -35.4523811340332, 241.4311065673828, -47.28355407714844, 9.239422798156738, 0.04800000041723251, -0.01600000075995922, 1.055999994277954, 0.0, 0.0, 0.0, 0.0, 0.0, 1.6218486424942467E9, 2021-05-24 11:30:42.494
57.0, -38.69113540649414, 246.7829132080078, -44.26545715332031, 5.469603538513184, 0.04800000041723251, -0.01600000075995922, 1.055999994277954, 0.0, 0.0, 0.0, 0.0, 0.0, 1.6218486424948003E9, 2021-05-24 11:30:42.494
57.0, -42.01964569091797, 244.25473022460938, -49.07122802734375, 4.964717388153076, 0.04800000041723251, -0.01600000075995922, 1.055999994277954, 0.0, 0.0, 0.0, 0.0, 0.0, 1.6218486424948003E9, 2021-05-24 11:30:42.494
58.0, -37.980552673339844, 245.4178466796875, -43.6521110534668, 7.822000980377197, 0.04800000041723251, -0.01600000075995922, 1.055999994277954, 0.0, 0.0, 0.0, 0.0, 0.0, 1.6218486425084653E9, 2021-05-24 11:30:42.508
58.0, -40.482547760009766, 242.13421630859375, -42.58250045776367, 7.881839275360107, 0.04800000041723251, -0.01600000075995922, 1.055999994277954, 0.0, 0.0, 0.0, 0.0, 0.0, 1.6218486425084653E9, 2021-05-24 11:30:42.508
59.0, -43.683902740478516, 236.3074493408203, -49.134803771972656, 1.0789611339569092, 0.04800000041723251, -0.01600000075995922, 1.055999994277954, 0.0, 0.0, 0.0, 0.0, 0.0, 1.6218486425240648E9, 2021-05-24 11:30:42.524
59.0, -46.74687957763672, 236.69639587402344, -51.434844970703125, 6.034328460693359, 0.04800000041723251, -0.01600000075995922, 1.055999994277954, 0.0, 0.0, 0.0, 0.0, 0.0, 1.6218486425240648E9, 2021-05-24 11:30:42.524
60.0, -43.65024185180664, 231.2099609375, -42.80315399169922, 15.268141746520996, 0.04800000041723251, -0.01600000075995922, 1.055999994277954, 0.0, 0.0, 0.0, 0.0, 0.0, 1.621848642524793E9, 2021-05-24 11:30:42.524
60.0, -35.86376953125, 243.7722930908203, -40.91824722290039, 20.223508834838867, 0.04800000041723251, -0.01600000075995922, 1.055999994277954, 0.0, 0.0, 0.0, 0.0, 0.0, 1.621848642524793E9, 2021-05-24 11:30:42.524
61.0, -44.98164749145508, 240.34654235839844, -49.849124908447266, 4.837560653686523, 0.04800000041723251, -0.01600000075995922, 1.055999994277954, 0.0, 0.0, 0.0, 0.0, 0.0, 1.6218486425384233E9, 2021-05-24 11:30:42.538
61.0, -44.46928024291992, 234.99099731445312, -53.099098205566406, 5.099353790283203, 0.04800000041723251, -0.01600000075995922, 1.055999994277954, 0.0, 0.0, 0.0, 0.0, 0.0, 1.6218486425384233E9, 2021-05-24 11:30:42.538
62.0, -34.58098602294922, 237.736083984375, -35.6225471496582, 14.086333274841309, 0.04800000041723251, -0.01600000075995922, 1.055999994277954, 0.0, 0.0, 0.0, 0.0, 0.0, 1.6218486425543385E9, 2021-05-24 11:30:42.554
62.0, -35.73287582397461, 244.84564208984375, -43.61471176147461, 4.845040321350098, 0.04800000041723251, -0.01600000075995922, 1.055999994277954, 0.0, 0.0, 0.0, 0.0, 0.0, 1.6218486425543385E9, 2021-05-24 11:30:42.554
63.0, -41.07345199584961, 234.84889221191406, -58.634151458740234, 3.951204299926758, 0.04800000041723251, -0.01600000075995922, 1.055999994277954, 0.0, 0.0, 0.0, 0.0, 0.0, 1.6218486425549765E9, 2021-05-24 11:30:42.554
63.0, -41.279144287109375, 227.46632385253906, -57.03347396850586, 4.852519989013672, 0.04800000041723251, -0.01600000075995922, 1.055999994277954, 0.0, 0.0, 0.0, 0.0, 0.0, 1.6218486425549765E9, 2021-05-24 11:30:42.554
64.0, -39.35309600830078, 240.1632843017578, -53.22625732421875, 18.76494789123535, 0.04800000041723251, -0.01600000075995922, 1.055999994277954, 0.0, 0.0, 0.0, 0.0, 0.0, 1.6218486425684595E9, 2021-05-24 11:30:42.568
64.0, -33.1411247253418, 239.36668395996094, -48.16242980957031, 9.579753875732422, 0.04800000041723251, -0.01600000075995922, 1.055999994277954, 0.0, 0.0, 0.0, 0.0, 0.0, 1.6218486425684595E9, 2021-05-24 11:30:42.568
65.0, -39.32691955566406, 238.252197265625, -54.72221755981445, 8.525101661682129, 0.04800000041723251, -0.01600000075995922, 1.055999994277954, 0.0, 0.0, 0.0, 0.0, 0.0, 1.6218486425841572E9, 2021-05-24 11:30:42.584
65.0, -33.15608215332031, 236.47947692871094, -47.62388610839844, 8.543801307678223, 0.04800000041723251, -0.01600000075995922, 1.055999994277954, 0.0, 0.0, 0.0, 0.0, 0.0, 1.6218486425841572E9, 2021-05-24 11:30:42.584
66.0, -31.622724533081055, 232.07388305664062, -47.0442008972168, 7.691104412078857, 0.04800000041723251, -0.01600000075995922, 1.055999994277954, 0.0, 0.0, 0.0, 0.0, 0.0, 1.6218486425849235E9, 2021-05-24 11:30:42.584
66.0, -33.515113830566406, 243.77976989746094, -50.46995162963867, 6.082947254180908, 0.04800000041723251, -0.01600000075995922, 1.055999994277954, 0.0, 0.0, 0.0, 0.0, 0.0, 1.6218486425849235E9, 2021-05-24 11:30:42.584
67.0, -41.851348876953125, 238.5775604248047, -53.731143951416016, -3.73429012298584, 0.04800000041723251, -0.01600000075995922, 1.055999994277954, 0.0, 0.0, 0.0, 0.0, 0.0, 1.621848642598457E9, 2021-05-24 11:30:42.598
67.0, -38.242347717285156, 236.19151306152344, -47.90437698364258, 5.00959587097168, 0.04800000041723251, -0.01600000075995922, 1.055999994277954, 0.0, 0.0, 0.0, 0.0, 0.0, 1.621848642598457E9, 2021-05-24 11:30:42.598
68.0, -26.944108963012695, 249.59530639648438, -35.73100280761719, 14.968949317932129, 0.04800000041723251, -0.01600000075995922, 1.055999994277954, 0.0, 0.0, 0.0, 0.0, 0.0, 1.6218486426141353E9, 2021-05-24 11:30:42.614
68.0, -33.82178497314453, 247.29901123046875, -39.96083068847656, 7.335813999176025, 0.04800000041723251, -0.01600000075995922, 1.055999994277954, 0.0, 0.0, 0.0, 0.0, 0.0, 1.6218486426141353E9, 2021-05-24 11:30:42.614
69.0, -37.273712158203125, 247.83755493164062, -48.326988220214844, -8.648518562316895, 0.04800000041723251, -0.01600000075995922, 1.055999994277954, 0.0, 0.0, 0.0, 0.0, 0.0, 1.6218486426149397E9, 2021-05-24 11:30:42.614
69.0, -40.003841400146484, 250.14508056640625, -49.07496643066406, 1.7371835708618164, 0.04800000041723251, -0.01600000075995922, 1.055999994277954, 0.0, 0.0, 0.0, 0.0, 0.0, 1.6218486426149397E9, 2021-05-24 11:30:42.614
70.0, -32.598838806152344, 248.90716552734375, -45.58190155029297, 12.46695613861084, 0.04800000041723251, -0.01600000075995922, 1.055999994277954, 0.0, 0.0, 0.0, 0.0, 0.0, 1.6218486426285455E9, 2021-05-24 11:30:42.628
70.0, -34.01251983642578, 259.39385986328125, -46.9843635559082, 8.540061950683594, 0.04800000041723251, -0.01600000075995922, 1.055999994277954, 0.0, 0.0, 0.0, 0.0, 0.0, 1.6218486426285455E9, 2021-05-24 11:30:42.628
71.0, -35.845069885253906, 258.7281494140625, -52.79242706298828, 7.410611629486084, 0.04800000041723251, -0.01600000075995922, 1.055999994277954, 0.0, 0.0, 0.0, 0.0, 0.0, 1.6218486426442897E9, 2021-05-24 11:30:42.644
71.0, -37.35599136352539, 258.82537841796875, -53.480567932128906, 8.756976127624512, 0.04800000041723251, -0.01600000075995922, 1.055999994277954, 0.0, 0.0, 0.0, 0.0, 0.0, 1.6218486426442897E9, 2021-05-24 11:30:42.644
72.0, -34.120975494384766, 266.2042236328125, -53.89196014404297, 5.241469860076904, 0.04800000041723251, -0.01600000075995922, 1.055999994277954, 0.0, 0.0, 0.0, 0.0, 0.0, 1.621848642644904E9, 2021-05-24 11:30:42.644
72.0, -33.92276382446289, 258.8702697753906, -46.988101959228516, 8.614859580993652, 0.04800000041723251, -0.01600000075995922, 1.055999994277954, 0.0, 0.0, 0.0, 0.0, 0.0, 1.621848642644904E9, 2021-05-24 11:30:42.644
73.0, -41.31280517578125, 250.0328826904297, -50.8289794921875, 3.92502498626709, 0.04800000041723251, -0.01600000075995922, 1.055999994277954, 0.0, 0.0, 0.0, 0.0, 0.0, 1.6218486426584454E9, 2021-05-24 11:30:42.658
73.0, -38.73227310180664, 246.2593231201172, -55.391658782958984, 4.5682878494262695, 0.04800000041723251, -0.01600000075995922, 1.055999994277954, 0.0, 0.0, 0.0, 0.0, 0.0, 1.6218486426584454E9, 2021-05-24 11:30:42.658
74.0, -44.918067932128906, 249.72247314453125, -58.95204162597656, 10.832620620727539, 0.04800000041723251, -0.01600000075995922, 1.055999994277954, 0.0, 0.0, 0.0, 0.0, 0.0, 1.6218486426741977E9, 2021-05-24 11:30:42.674
74.0, -41.32402420043945, 260.119384765625, -47.13396072387695, 10.51098918914795, 0.04800000041723251, -0.01600000075995922, 1.055999994277954, 0.0, 0.0, 0.0, 0.0, 0.0, 1.6218486426741977E9, 2021-05-24 11:30:42.674
75.0, -38.552757263183594, 245.84793090820312, -55.3953971862793, 5.450904369354248, 0.04800000041723251, -0.01600000075995922, 1.055999994277954, 0.0, 0.0, 0.0, 0.0, 0.0, 1.621848642674846E9, 2021-05-24 11:30:42.674
75.0, -37.0081787109375, 244.06399536132812, -54.243507385253906, 4.414951801300049, 0.04800000041723251, -0.01600000075995922, 1.055999994277954, 0.0, 0.0, 0.0, 0.0, 0.0, 1.621848642674846E9, 2021-05-24 11:30:42.674
76.0, -47.74543380737305, 236.87591552734375, -56.54728698730469, 2.0139360427856445, 0.04800000041723251, -0.01600000075995922, 1.055999994277954, 0.0, 0.0, 0.0, 0.0, 0.0, 1.6218486427048187E9, 2021-05-24 11:30:42.704
76.0, -32.71477508544922, 251.0426483154297, -45.129371643066406, 12.575413703918457, 0.04800000041723251, -0.01600000075995922, 1.055999994277954, 0.0, 0.0, 0.0, 0.0, 0.0, 1.6218486427048187E9, 2021-05-24 11:30:42.704
77.0, -47.90625, 247.47479248046875, -55.23084259033203, 1.8194613456726074, 0.04800000041723251, -0.01600000075995922, 1.055999994277954, 0.0, 0.0, 0.0, 0.0, 0.0, 1.6218486427055235E9, 2021-05-24 11:30:42.705
77.0, -59.35408401489258, 231.3296356201172, -68.28683471679688, -2.5076029300689697, 0.04800000041723251, -0.01600000075995922, 1.055999994277954, 0.0, 0.0, 0.0, 0.0, 0.0, 1.6218486427055235E9, 2021-05-24 11:30:42.705
78.0, -49.166595458984375, 241.99583435058594, -53.57032775878906, 8.416645050048828, 0.04800000041723251, -0.01600000075995922, 1.055999994277954, 0.0, 0.0, 0.0, 0.0, 0.0, 1.6218486427062535E9, 2021-05-24 11:30:42.706
78.0, -44.02797317504883, 243.75732421875, -47.3658332824707, 8.611119270324707, 0.04800000041723251, -0.01600000075995922, 1.055999994277954, 0.0, 0.0, 0.0, 0.0, 0.0, 1.6218486427062535E9, 2021-05-24 11:30:42.706
79.0, -53.37398147583008, 232.25714111328125, -61.783145904541016, 2.1261332035064697, 0.04800000041723251, -0.01600000075995922, 1.055999994277954, 0.0, 0.0, 0.0, 0.0, 0.0, 1.621848642718523E9, 2021-05-24 11:30:42.718
79.0, -55.700199127197266, 229.3400115966797, -67.07884216308594, -0.2823624610900879, 0.04800000041723251, -0.01600000075995922, 1.055999994277954, 0.0, 0.0, 0.0, 0.0, 0.0, 1.621848642718523E9, 2021-05-24 11:30:42.718
80.0, -46.802978515625, 245.05133056640625, -52.25014114379883, 12.339799880981445, 0.04800000041723251, -0.01600000075995922, 1.055999994277954, 0.0, 0.0, 0.0, 0.0, 0.0, 1.6218486427341883E9, 2021-05-24 11:30:42.734
80.0, -53.23186492919922, 233.44268798828125, -55.07002639770508, -0.21130435168743134, 0.04800000041723251, -0.01600000075995922, 1.055999994277954, 0.0, 0.0, 0.0, 0.0, 0.0, 1.6218486427341883E9, 2021-05-24 11:30:42.734
81.0, -44.68993377685547, 238.40927124023438, -50.53352737426758, 5.667818546295166, 0.04800000041723251, -0.01600000075995922, 1.055999994277954, 0.0, 0.0, 0.0, 0.0, 0.0, 1.6218486427348528E9, 2021-05-24 11:30:42.734
81.0, -50.90564727783203, 237.24990844726562, -64.68157196044922, -3.143385887145996, 0.04800000041723251, -0.01600000075995922, 1.055999994277954, 0.0, 0.0, 0.0, 0.0, 0.0, 1.6218486427348528E9, 2021-05-24 11:30:42.734
82.0, -46.37289047241211, 236.1017608642578, -59.98799514770508, -1.7895420789718628, 0.04800000041723251, -0.01600000075995922, 1.055999994277954, 0.0, 0.0, 0.0, 0.0, 0.0, 1.621848642748526E9, 2021-05-24 11:30:42.748
82.0, -47.33030319213867, 241.17306518554688, -60.43304443359375, -2.189711332321167, 0.04800000041723251, -0.01600000075995922, 1.055999994277954, 0.0, 0.0, 0.0, 0.0, 0.0, 1.621848642748526E9, 2021-05-24 11:30:42.748
83.0, -50.972965240478516, 232.1935577392578, -57.2616081237793, -6.655151844024658, 0.04800000041723251, -0.01600000075995922, 1.055999994277954, 0.0, 0.0, 0.0, 0.0, 0.0, 1.62184864276415E9, 2021-05-24 11:30:42.764
83.0, -56.58655548095703, 226.1237030029297, -71.83599853515625, -6.217583656311035, 0.04800000041723251, -0.01600000075995922, 1.055999994277954, 0.0, 0.0, 0.0, 0.0, 0.0, 1.62184864276415E9, 2021-05-24 11:30:42.764
84.0, -42.625511169433594, 237.88194274902344, -53.31975555419922, 10.410011291503906, 0.04800000041723251, -0.01600000075995922, 1.055999994277954, 0.0, 0.0, 0.0, 0.0, 0.0, 1.6218486427649345E9, 2021-05-24 11:30:42.764
84.0, -43.78861999511719, 242.11550903320312, -55.46271514892578, 7.818260669708252, 0.04800000041723251, -0.01600000075995922, 1.055999994277954, 0.0, 0.0, 0.0, 0.0, 0.0, 1.6218486427649345E9, 2021-05-24 11:30:42.764
85.0, -49.304969787597656, 237.11900329589844, -58.27886199951172, 0.8545671105384827, 0.04800000041723251, -0.01600000075995922, 1.055999994277954, 0.0, 0.0, 0.0, 0.0, 0.0, 1.621848642778473E9, 2021-05-24 11:30:42.778
85.0, -51.43297576904297, 232.07388305664062, -61.30818176269531, 4.011042594909668, 0.04800000041723251, -0.01600000075995922, 1.055999994277954, 0.0, 0.0, 0.0, 0.0, 0.0, 1.621848642778473E9, 2021-05-24 11:30:42.778
86.0, -40.950035095214844, 238.02032470703125, -53.64886474609375, 15.488795280456543, 0.04800000041723251, -0.01600000075995922, 1.055999994277954, 0.0, 0.0, 0.0, 0.0, 0.0, 1.621848642794172E9, 2021-05-24 11:30:42.794
86.0, -38.335845947265625, 237.3546142578125, -51.681678771972656, 14.426664352416992, 0.04800000041723251, -0.01600000075995922, 1.055999994277954, 0.0, 0.0, 0.0, 0.0, 0.0, 1.621848642794172E9, 2021-05-24 11:30:42.794
87.0, -42.2552604675293, 229.16050720214844, -59.43075180053711, 3.5323355197906494, 0.04800000041723251, -0.01600000075995922, 1.055999994277954, 0.0, 0.0, 0.0, 0.0, 0.0, 1.6218486427948556E9, 2021-05-24 11:30:42.794
87.0, -51.38809585571289, 224.0443115234375, -64.8199462890625, -2.2869489192962646, 0.04800000041723251, -0.01600000075995922, 1.055999994277954, 0.0, 0.0, 0.0, 0.0, 0.0, 1.6218486427948556E9, 2021-05-24 11:30:42.794
88.0, -35.17936706542969, 236.41964721679688, -56.36029052734375, 11.711496353149414, 0.04800000041723251, -0.01600000075995922, 1.055999994277954, 0.0, 0.0, 0.0, 0.0, 0.0, 1.621848642808446E9, 2021-05-24 11:30:42.808
88.0, -42.53575134277344, 232.59373474121094, -55.04758834838867, 3.199484348297119, 0.04800000041723251, -0.01600000075995922, 1.055999994277954, 0.0, 0.0, 0.0, 0.0, 0.0, 1.621848642808446E9, 2021-05-24 11:30:42.808
89.0, -51.58631134033203, 219.40310668945312, -60.167510986328125, 0.06918814778327942, 0.04800000041723251, -0.01600000075995922, 1.055999994277954, 0.0, 0.0, 0.0, 0.0, 0.0, 1.6218486428240993E9, 2021-05-24 11:30:42.824
89.0, -54.028465270996094, 218.89447021484375, -68.10357666015625, -6.195144176483154, 0.04800000041723251, -0.01600000075995922, 1.055999994277954, 0.0, 0.0, 0.0, 0.0, 0.0, 1.6218486428240993E9, 2021-05-24 11:30:42.824
90.0, -40.97247314453125, 229.8037567138672, -57.38128662109375, 5.4920430183410645, 0.04800000041723251, -0.01600000075995922, 1.055999994277954, 0.0, 0.0, 0.0, 0.0, 0.0, 1.6218486428248231E9, 2021-05-24 11:30:42.824
90.0, -43.0294189453125, 235.72402954101562, -57.635597229003906, 9.688210487365723, 0.04800000041723251, -0.01600000075995922, 1.055999994277954, 0.0, 0.0, 0.0, 0.0, 0.0, 1.6218486428248231E9, 2021-05-24 11:30:42.824
91.0, -47.85763168334961, 229.777587890625, -61.47647476196289, -4.564548015594482, 0.04800000041723251, -0.01600000075995922, 1.055999994277954, 0.0, 0.0, 0.0, 0.0, 0.0, 1.62184864283847E9, 2021-05-24 11:30:42.838
91.0, -47.1844482421875, 230.85467529296875, -64.88726043701172, -3.0162293910980225, 0.04800000041723251, -0.01600000075995922, 1.055999994277954, 0.0, 0.0, 0.0, 0.0, 0.0, 1.62184864283847E9, 2021-05-24 11:30:42.838
92.0, -41.428741455078125, 228.90618896484375, -61.04638671875, 4.265356063842773, 0.04800000041723251, -0.01600000075995922, 1.055999994277954, 0.0, 0.0, 0.0, 0.0, 0.0, 1.6218486428541844E9, 2021-05-24 11:30:42.854
92.0, -37.370948791503906, 222.7764892578125, -56.07979965209961, 4.6206464767456055, 0.04800000041723251, -0.01600000075995922, 1.055999994277954, 0.0, 0.0, 0.0, 0.0, 0.0, 1.6218486428541844E9, 2021-05-24 11:30:42.854
93.0, -43.87089538574219, 230.4918975830078, -65.71378326416016, -2.1822316646575928, 0.04800000041723251, -0.01600000075995922, 1.055999994277954, 0.0, 0.0, 0.0, 0.0, 0.0, 1.6218486428549168E9, 2021-05-24 11:30:42.854
93.0, -55.038238525390625, 222.136962890625, -69.31156921386719, -11.614259719848633, 0.04800000041723251, -0.01600000075995922, 1.055999994277954, 0.0, 0.0, 0.0, 0.0, 0.0, 1.6218486428549168E9, 2021-05-24 11:30:42.854
94.0, -44.529117584228516, 232.97145080566406, -60.70231628417969, 3.595913887023926, 0.04800000041723251, -0.01600000075995922, 1.055999994277954, 0.0, 0.0, 0.0, 0.0, 0.0, 1.6218486428684845E9, 2021-05-24 11:30:42.868
94.0, -47.13208770751953, 237.1900634765625, -62.57974624633789, 4.8113813400268555, 0.04800000041723251, -0.01600000075995922, 1.055999994277954, 0.0, 0.0, 0.0, 0.0, 0.0, 1.6218486428684845E9, 2021-05-24 11:30:42.868
95.0, -52.67835998535156, 230.97061157226562, -67.748291015625, -4.272835731506348, 0.04800000041723251, -0.01600000075995922, 1.055999994277954, 0.0, 0.0, 0.0, 0.0, 0.0, 1.621848642884173E9, 2021-05-24 11:30:42.884
95.0, -59.671974182128906, 222.87747192382812, -76.77266693115234, -6.838407039642334, 0.04800000041723251, -0.01600000075995922, 1.055999994277954, 0.0, 0.0, 0.0, 0.0, 0.0, 1.621848642884173E9, 2021-05-24 11:30:42.884
96.0, -39.05764389038086, 244.1425323486328, -55.81052780151367, 13.861939430236816, 0.04800000041723251, -0.01600000075995922, 1.055999994277954, 0.0, 0.0, 0.0, 0.0, 0.0, 1.6218486428849297E9, 2021-05-24 11:30:42.884
96.0, -48.437313079833984, 233.24073791503906, -61.33435821533203, 9.590973854064941, 0.04800000041723251, -0.01600000075995922, 1.055999994277954, 0.0, 0.0, 0.0, 0.0, 0.0, 1.6218486428849297E9, 2021-05-24 11:30:42.884
97.0, -55.752559661865234, 224.11911010742188, -71.52932739257812, -0.4020392596721649, 0.04800000041723251, -0.01600000075995922, 1.055999994277954, 0.0, 0.0, 0.0, 0.0, 0.0, 1.6218486428985837E9, 2021-05-24 11:30:42.898
97.0, -66.42623138427734, 223.14300537109375, -78.1938247680664, -10.365132331848145, 0.04800000041723251, -0.01600000075995922, 1.055999994277954, 0.0, 0.0, 0.0, 0.0, 0.0, 1.6218486428985837E9, 2021-05-24 11:30:42.898
98.0, -54.28651809692383, 234.9835205078125, -65.57540893554688, 6.524255275726318, 0.04800000041723251, -0.01600000075995922, 1.055999994277954, 0.0, 0.0, 0.0, 0.0, 0.0, 1.6218486429141235E9, 2021-05-24 11:30:42.914
98.0, -51.31703567504883, 230.24880981445312, -72.61763763427734, 1.2322970628738403, 0.04800000041723251, -0.01600000075995922, 1.055999994277954, 0.0, 0.0, 0.0, 0.0, 0.0, 1.6218486429141235E9, 2021-05-24 11:30:42.914
99.0, -52.81673812866211, 224.24253845214844, -75.15328979492188, -4.220477104187012, 0.04800000041723251, -0.01600000075995922, 1.055999994277954, 0.0, 0.0, 0.0, 0.0, 0.0, 1.621848642914832E9, 2021-05-24 11:30:42.914
99.0, -56.788509368896484, 223.8760223388672, -77.68146514892578, -10.136999130249023, 0.04800000041723251, -0.01600000075995922, 1.055999994277954, 0.0, 0.0, 0.0, 0.0, 0.0, 1.621848642914832E9, 2021-05-24 11:30:42.914
100.0, -52.042579650878906, 233.15097045898438, -71.21143341064453, -4.815121173858643, 0.04800000041723251, -0.01600000075995922, 1.055999994277954, 0.0, 0.0, 0.0, 0.0, 0.0, 1.6218486429292684E9, 2021-05-24 11:30:42.929
100.0, -52.28193283081055, 231.02670288085938, -72.47552490234375, -7.870619297027588, 0.04800000041723251, -0.01600000075995922, 1.055999994277954, 0.0, 0.0, 0.0, 0.0, 0.0, 1.6218486429292684E9, 2021-05-24 11:30:42.929
0.0, -58.13674545288086, 218.55227661132812, -73.23846435546875, -11.330026626586914, 0.04800000041723251, -0.01600000075995922, 1.055999994277954, 0.0, 0.0, 0.0, 0.0, 0.0, 1.6218486429299352E9, 2021-05-24 11:30:42.929
1.0, -54.55392074584961, 219.60691833496094, -76.48095703125, -5.649118900299072, 0.04800000041723251, -0.01600000075995922, 1.055999994277954, 0.0, 0.0, 0.0, 0.0, 0.0, 1.6218486429434679E9, 2021-05-24 11:30:42.943
1.0, -54.26968765258789, 221.64517211914062, -66.49168395996094, 0.5703347325325012, 0.04800000041723251, -0.01600000075995922, 1.055999994277954, 0.0, 0.0, 0.0, 0.0, 0.0, 1.6218486429434679E9, 2021-05-24 11:30:42.943
2.0, -50.69060516357422, 230.2357177734375, -62.70690155029297, 1.6586456298828125, 0.04800000041723251, -0.01600000075995922, 1.055999994277954, 0.0, 0.0, 0.0, 0.0, 0.0, 1.6218486429591997E9, 2021-05-24 11:30:42.959
2.0, -60.91923141479492, 228.0366668701172, -72.03421020507812, -11.636698722839355, 0.04800000041723251, -0.01600000075995922, 1.055999994277954, 0.0, 0.0, 0.0, 0.0, 0.0, 1.6218486429591997E9, 2021-05-24 11:30:42.959
3.0, -57.171852111816406, 235.30328369140625, -71.60786437988281, -5.742616176605225, 0.04800000041723251, -0.01600000075995922, 1.055999994277954, 0.0, 0.0, 0.0, 0.0, 0.0, 1.6218486429599044E9, 2021-05-24 11:30:42.959
3.0, -50.63450622558594, 228.73976135253906, -68.60846710205078, -0.2861023545265198, 0.04800000041723251, -0.01600000075995922, 1.055999994277954, 0.0, 0.0, 0.0, 0.0, 0.0, 1.6218486429599044E9, 2021-05-24 11:30:42.959
4.0, -53.74236297607422, 233.01072692871094, -65.52678680419922, 0.5478953719139099, 0.04800000041723251, -0.01600000075995922, 1.055999994277954, 0.0, 0.0, 0.0, 0.0, 0.0, 1.6218486429734576E9, 2021-05-24 11:30:42.973
4.0, -63.312767028808594, 221.56289672851562, -75.20565032958984, -3.5659945011138916, 0.04800000041723251, -0.01600000075995922, 1.055999994277954, 0.0, 0.0, 0.0, 0.0, 0.0, 1.6218486429734576E9, 2021-05-24 11:30:42.973
5.0, -68.32423400878906, 216.26345825195312, -87.02747344970703, -4.261616230010986, 0.04800000041723251, -0.01600000075995922, 1.055999994277954, 0.0, 0.0, 0.0, 0.0, 0.0, 1.6218486429892457E9, 2021-05-24 11:30:42.989
5.0, -57.01103591918945, 216.51028442382812, -80.97631072998047, 2.6945979595184326, 0.04800000041723251, -0.01600000075995922, 1.055999994277954, 0.0, 0.0, 0.0, 0.0, 0.0, 1.6218486429892457E9, 2021-05-24 11:30:42.989
6.0, -68.32797241210938, 221.1589813232422, -71.71632385253906, -1.265956163406372, 0.04800000041723251, -0.01600000075995922, 1.055999994277954, 0.0, 0.0, 0.0, 0.0, 0.0, 1.6218486429899132E9, 2021-05-24 11:30:42.989
6.0, -72.68121337890625, 221.56289672851562, -74.79425811767578, -3.7193305492401123, 0.04800000041723251, -0.01600000075995922, 1.055999994277954, 0.0, 0.0, 0.0, 0.0, 0.0, 1.6218486429899132E9, 2021-05-24 11:30:42.989
7.0, -73.54138946533203, 218.85147094726562, -78.8333511352539, -3.3715198040008545, 0.04800000041723251, -0.01600000075995922, 1.055999994277954, 0.0, 0.0, 0.0, 0.0, 0.0, 1.6218486430199182E9, 2021-05-24 11:30:43.019
7.0, -75.00369262695312, 215.94931030273438, -72.22869110107422, 2.103693723678589, 0.04800000041723251, -0.01600000075995922, 1.055999994277954, 0.0, 0.0, 0.0, 0.0, 0.0, 1.6218486430199182E9, 2021-05-24 11:30:43.019
8.0, -67.75576782226562, 221.203857421875, -63.38382339477539, 2.1223931312561035, 0.04800000041723251, -0.01600000075995922, 1.055999994277954, 0.0, 0.0, 0.0, 0.0, 0.0, 1.621848643020655E9, 2021-05-24 11:30:43.020
8.0, -71.21891784667969, 221.04678344726562, -69.99971008300781, -10.050981521606445, 0.04800000041723251, -0.01600000075995922, 1.055999994277954, 0.0, 0.0, 0.0, 0.0, 0.0, 1.621848643020655E9, 2021-05-24 11:30:43.020
9.0, -71.73502349853516, 218.94496154785156, -69.93238830566406, -5.372366428375244, 0.04800000041723251, -0.01600000075995922, 1.055999994277954, 0.0, 0.0, 0.0, 0.0, 0.0, 1.6218486430214128E9, 2021-05-24 11:30:43.021
9.0, -73.65733337402344, 228.3732452392578, -69.23677062988281, 3.928764820098877, 0.04800000041723251, -0.01600000075995922, 1.055999994277954, 0.0, 0.0, 0.0, 0.0, 0.0, 1.6218486430214128E9, 2021-05-24 11:30:43.021
10.0, -68.9113998413086, 226.30508422851562, -65.33979034423828, 3.4537975788116455, 0.04800000041723251, -0.01600000075995922, 1.055999994277954, 0.0, 0.0, 0.0, 0.0, 0.0, 1.6218486430334885E9, 2021-05-24 11:30:43.033
10.0, -75.1420669555664, 213.12567138671875, -73.72838592529297, -14.598699569702148, 0.04800000041723251, -0.01600000075995922, 1.055999994277954, 0.0, 0.0, 0.0, 0.0, 0.0, 1.6218486430334885E9, 2021-05-24 11:30:43.033
11.0, -66.86193084716797, 221.2001190185547, -65.31361389160156, -4.100800514221191, 0.04800000041723251, -0.01600000075995922, 1.055999994277954, 0.0, 0.0, 0.0, 0.0, 0.0, 1.6218486430491972E9, 2021-05-24 11:30:43.049
11.0, -56.32289505004883, 222.41184997558594, -60.365726470947266, 9.58349323272705, 0.04800000041723251, -0.01600000075995922, 1.055999994277954, 0.0, 0.0, 0.0, 0.0, 0.0, 1.6218486430491972E9, 2021-05-24 11:30:43.049
12.0, -55.83296585083008, 221.28988647460938, -59.389610290527344, -2.5824010372161865, 0.04800000041723251, -0.01600000075995922, 1.055999994277954, 0.0, 0.0, 0.0, 0.0, 0.0, 1.621848643049832E9, 2021-05-24 11:30:43.049
12.0, -72.75601196289062, 205.6084747314453, -68.16716003417969, -13.55900764465332, 0.04800000041723251, -0.01600000075995922, 1.055999994277954, 0.0, 0.0, 0.0, 0.0, 0.0, 1.621848643049832E9, 2021-05-24 11:30:43.049
13.0, -65.81849670410156, 215.51173400878906, -66.79835510253906, -6.576613903045654, 0.04800000041723251, -0.01600000075995922, 1.055999994277954, 0.0, 0.0, 0.0, 0.0, 0.0, 1.621848643063599E9, 2021-05-24 11:30:43.063
13.0, -68.1110610961914, 214.0494384765625, -61.218421936035156, 6.2549824714660645, 0.04800000041723251, -0.01600000075995922, 1.055999994277954, 0.0, 0.0, 0.0, 0.0, 0.0, 1.621848643063599E9, 2021-05-24 11:30:43.063
14.0, -72.5129165649414, 215.9119110107422, -68.8927001953125, -0.9555444121360779, 0.04800000041723251, -0.01600000075995922, 1.055999994277954, 0.0, 0.0, 0.0, 0.0, 0.0, 1.621848643079118E9, 2021-05-24 11:30:43.079
14.0, -76.57445526123047, 217.67340087890625, -75.20191192626953, -9.770488739013672, 0.04800000041723251, -0.01600000075995922, 1.055999994277954, 0.0, 0.0, 0.0, 0.0, 0.0, 1.621848643079118E9, 2021-05-24 11:30:43.079
15.0, -78.37334442138672, 208.26007080078125, -73.34317779541016, -3.607133388519287, 0.04800000041723251, -0.01600000075995922, 1.055999994277954, 0.0, 0.0, 0.0, 0.0, 0.0, 1.6218486430798292E9, 2021-05-24 11:30:43.079
15.0, -81.2418441772461, 207.39988708496094, -75.41134643554688, -5.802454948425293, 0.04800000041723251, -0.01600000075995922, 1.055999994277954, 0.0, 0.0, 0.0, 0.0, 0.0, 1.6218486430798292E9, 2021-05-24 11:30:43.079
16.0, -70.0969467163086, 210.72840881347656, -68.9936752319336, -3.981123447418213, 0.04800000041723251, -0.01600000075995922, 1.055999994277954, 0.0, 0.0, 0.0, 0.0, 0.0, 1.6218486430935616E9, 2021-05-24 11:30:43.093
16.0, -79.30831909179688, 208.42835998535156, -78.69123840332031, -11.550681114196777, 0.04800000041723251, -0.01600000075995922, 1.055999994277954, 0.0, 0.0, 0.0, 0.0, 0.0, 1.6218486430935616E9, 2021-05-24 11:30:43.093
17.0, -71.9668960571289, 210.0552215576172, -72.4493408203125, -9.912605285644531, 0.04800000041723251, -0.01600000075995922, 1.055999994277954, 0.0, 0.0, 0.0, 0.0, 0.0, 1.6218486431091285E9, 2021-05-24 11:30:43.109
17.0, -71.83599853515625, 217.306884765625, -70.02962493896484, -1.5501885414123535, 0.04800000041723251, -0.01600000075995922, 1.055999994277954, 0.0, 0.0, 0.0, 0.0, 0.0, 1.6218486431091285E9, 2021-05-24 11:30:43.109
18.0, -68.07740020751953, 224.44635009765625, -64.356201171875, -1.0640015602111816, 0.04800000041723251, -0.01600000075995922, 1.055999994277954, 0.0, 0.0, 0.0, 0.0, 0.0, 1.6218486431098497E9, 2021-05-24 11:30:43.109
18.0, -74.88027954101562, 219.40870666503906, -72.6849594116211, -4.586987495422363, 0.04800000041723251, -0.01600000075995922, 1.055999994277954, 0.0, 0.0, 0.0, 0.0, 0.0, 1.6218486431098497E9, 2021-05-24 11:30:43.109
19.0, -72.34088134765625, 215.5341796875, -71.86965942382812, -7.552728176116943, 0.04800000041723251, -0.01600000075995922, 1.055999994277954, 0.0, 0.0, 0.0, 0.0, 0.0, 1.6218486431236608E9, 2021-05-24 11:30:43.123
19.0, -61.409156799316406, 226.4584197998047, -60.2423095703125, 6.643932342529297, 0.04800000041723251, -0.01600000075995922, 1.055999994277954, 0.0, 0.0, 0.0, 0.0, 0.0, 1.6218486431236608E9, 2021-05-24 11:30:43.123
20.0, -71.37599182128906, 219.53587341308594, -63.73163604736328, -3.842747211456299, 0.04800000041723251, -0.01600000075995922, 1.055999994277954, 0.0, 0.0, 0.0, 0.0, 0.0, 1.6218486431555977E9, 2021-05-24 11:30:43.155
20.0, -61.00150680541992, 226.02833557128906, -55.56369400024414, 2.7768757343292236, 0.04800000041723251, -0.01600000075995922, 1.055999994277954, 0.0, 0.0, 0.0, 0.0, 0.0, 1.6218486431555977E9, 2021-05-24 11:30:43.155
21.0, -80.62850189208984, 203.47299194335938, -78.01057434082031, -19.138938903808594, 0.04800000041723251, -0.01600000075995922, 1.055999994277954, 0.0, 0.0, 0.0, 0.0, 0.0, 1.6218486431562536E9, 2021-05-24 11:30:43.156
21.0, -68.07366180419922, 215.6613311767578, -60.724754333496094, 1.3594536781311035, 0.04800000041723251, -0.01600000075995922, 1.055999994277954, 0.0, 0.0, 0.0, 0.0, 0.0, 1.6218486431562536E9, 2021-05-24 11:30:43.156
22.0, -64.23651885986328, 225.112060546875, -56.30793380737305, 3.1770451068878174, 0.04800000041723251, -0.01600000075995922, 1.055999994277954, 0.0, 0.0, 0.0, 0.0, 0.0, 1.6218486431569932E9, 2021-05-24 11:30:43.156
22.0, -74.94011688232422, 221.6339569091797, -68.30927276611328, -8.865432739257812, 0.04800000041723251, -0.01600000075995922, 1.055999994277954, 0.0, 0.0, 0.0, 0.0, 0.0, 1.6218486431569932E9, 2021-05-24 11:30:43.156
23.0, -66.33086395263672, 213.39869689941406, -65.53426361083984, -2.9638707637786865, 0.04800000041723251, -0.01600000075995922, 1.055999994277954, 0.0, 0.0, 0.0, 0.0, 0.0, 1.6218486431577067E9, 2021-05-24 11:30:43.157
23.0, -68.2307357788086, 218.69064331054688, -58.84358596801758, -0.8583070635795593, 0.04800000041723251, -0.01600000075995922, 1.055999994277954, 0.0, 0.0, 0.0, 0.0, 0.0, 1.6218486431577067E9, 2021-05-24 11:30:43.157
24.0, -71.19647216796875, 211.08743286132812, -60.915489196777344, -3.1321661472320557, 0.04800000041723251, -0.01600000075995922, 1.055999994277954, 0.0, 0.0, 0.0, 0.0, 0.0, 1.6218486431685271E9, 2021-05-24 11:30:43.168
24.0, -77.58422088623047, 217.83795166015625, -71.04688262939453, -9.216983795166016, 0.04800000041723251, -0.01600000075995922, 1.055999994277954, 0.0, 0.0, 0.0, 0.0, 0.0, 1.6218486431685271E9, 2021-05-24 11:30:43.168
25.0, -72.52787780761719, 213.77642822265625, -62.878936767578125, -3.4537975788116455, 0.04800000041723251, -0.01600000075995922, 1.055999994277954, 0.0, 0.0, 0.0, 0.0, 0.0, 1.6218486431834135E9, 2021-05-24 11:30:43.183
25.0, -75.9237060546875, 208.491943359375, -66.09525299072266, -0.869526743888855, 0.04800000041723251, -0.01600000075995922, 1.055999994277954, 0.0, 0.0, 0.0, 0.0, 0.0, 1.6218486431834135E9, 2021-05-24 11:30:43.183
26.0, -78.29854583740234, 219.69668579101562, -65.96809387207031, -0.7947287559509277, 0.04800000041723251, -0.01600000075995922, 1.055999994277954, 0.0, 0.0, 0.0, 0.0, 0.0, 1.621848643199186E9, 2021-05-24 11:30:43.199
26.0, -76.43233489990234, 221.52923583984375, -68.27935028076172, -5.398545742034912, 0.04800000041723251, -0.01600000075995922, 1.055999994277954, 0.0, 0.0, 0.0, 0.0, 0.0, 1.621848643199186E9, 2021-05-24 11:30:43.199
27.0, -80.86785888671875, 204.31072998046875, -68.66082000732422, -7.459230422973633, 0.04800000041723251, -0.01600000075995922, 1.055999994277954, 0.0, 0.0, 0.0, 0.0, 0.0, 1.6218486431999316E9, 2021-05-24 11:30:43.199
27.0, -80.55744171142578, 213.85496520996094, -62.321693420410156, 7.87809944152832, 0.04800000041723251, -0.01600000075995922, 1.055999994277954, 0.0, 0.0, 0.0, 0.0, 0.0, 1.6218486431999316E9, 2021-05-24 11:30:43.199
28.0, -79.60376739501953, 218.0660858154297, -54.04155349731445, 4.661785125732422, 0.04800000041723251, -0.01600000075995922, 1.055999994277954, 0.0, 0.0, 0.0, 0.0, 0.0, 1.6218486432134163E9, 2021-05-24 11:30:43.213
28.0, -90.26996612548828, 195.50326538085938, -57.48600387573242, -1.4080723524093628, 0.04800000041723251, -0.01600000075995922, 1.055999994277954, 0.0, 0.0, 0.0, 0.0, 0.0, 1.6218486432134163E9, 2021-05-24 11:30:43.213
29.0, -91.64250946044922, 200.59701538085938, -50.679386138916016, -0.7236706614494324, 0.04800000041723251, -0.01600000075995922, 1.055999994277954, 0.0, 0.0, 0.0, 0.0, 0.0, 1.621848643229066E9, 2021-05-24 11:30:43.229
29.0, -80.95761108398438, 202.33607482910156, -42.81063461303711, 3.2967216968536377, 0.04800000041723251, -0.01600000075995922, 1.055999994277954, 0.0, 0.0, 0.0, 0.0, 0.0, 1.621848643229066E9, 2021-05-24 11:30:43.229
30.0, -85.56517028808594, 213.43983459472656, -33.27014923095703, 10.88123893737793, 0.04800000041723251, -0.01600000075995922, 1.055999994277954, 0.0, 0.0, 0.0, 0.0, 0.0, 1.6218486432298229E9, 2021-05-24 11:30:43.229
30.0, -87.36405944824219, 211.61476135253906, -39.70277786254883, 2.2009310722351074, 0.04800000041723251, -0.01600000075995922, 1.055999994277954, 0.0, 0.0, 0.0, 0.0, 0.0, 1.6218486432298229E9, 2021-05-24 11:30:43.229
31.0, -89.30133056640625, 204.90911865234375, -38.681785583496094, 11.116852760314941, 0.04800000041723251, -0.01600000075995922, 1.055999994277954, 0.0, 0.0, 0.0, 0.0, 0.0, 1.6218486432434225E9, 2021-05-24 11:30:43.243
31.0, -80.35175323486328, 209.2511444091797, -31.347841262817383, 22.02988052368164, 0.04800000041723251, -0.01600000075995922, 1.055999994277954, 0.0, 0.0, 0.0, 0.0, 0.0, 1.6218486432434225E9, 2021-05-24 11:30:43.243
32.0, -73.56008911132812, 218.37649536132812, -20.636768341064453, 22.142078399658203, 0.04800000041723251, -0.01600000075995922, 1.055999994277954, 0.0, 0.0, 0.0, 0.0, 0.0, 1.6218486432591546E9, 2021-05-24 11:30:43.259
32.0, -78.05918884277344, 211.39036560058594, -29.305856704711914, 7.062800884246826, 0.04800000041723251, -0.01600000075995922, 1.055999994277954, 0.0, 0.0, 0.0, 0.0, 0.0, 1.6218486432591546E9, 2021-05-24 11:30:43.259
33.0, -86.55998229980469, 206.7603759765625, -33.7750358581543, -0.5890342593193054, 0.04800000041723251, -0.01600000075995922, 1.055999994277954, 0.0, 0.0, 0.0, 0.0, 0.0, 1.6218486432597969E9, 2021-05-24 11:30:43.259
33.0, -75.98355102539062, 210.77328491210938, -20.71530532836914, 0.5404155254364014, 0.04800000041723251, -0.01600000075995922, 1.055999994277954, 0.0, 0.0, 0.0, 0.0, 0.0, 1.6218486432597969E9, 2021-05-24 11:30:43.259
34.0, -73.62367248535156, 220.98321533203125, -17.199800491333008, 0.48057714104652405, 0.04800000041723251, -0.01600000075995922, 1.055999994277954, 0.0, 0.0, 0.0, 0.0, 0.0, 1.6218486432734182E9, 2021-05-24 11:30:43.273
34.0, -77.27007293701172, 224.9923858642578, -24.372928619384766, -14.187310218811035, 0.04800000041723251, -0.01600000075995922, 1.055999994277954, 0.0, 0.0, 0.0, 0.0, 0.0, 1.6218486432734182E9, 2021-05-24 11:30:43.273
35.0, -63.79521179199219, 230.94630432128906, -20.4759521484375, -12.590373039245605, 0.04800000041723251, -0.01600000075995922, 1.055999994277954, 0.0, 0.0, 0.0, 0.0, 0.0, 1.621848643289132E9, 2021-05-24 11:30:43.289
35.0, -56.62956619262695, 226.97079467773438, -15.62904167175293, -13.315914154052734, 0.04800000041723251, -0.01600000075995922, 1.055999994277954, 0.0, 0.0, 0.0, 0.0, 0.0, 1.621848643289132E9, 2021-05-24 11:30:43.289
36.0, -56.251834869384766, 226.45468139648438, -20.34879493713379, -24.558053970336914, 0.04800000041723251, -0.01600000075995922, 1.055999994277954, 0.0, 0.0, 0.0, 0.0, 0.0, 1.6218486432898314E9, 2021-05-24 11:30:43.289
36.0, -54.93539047241211, 219.3937530517578, -22.278583526611328, -29.670495986938477, 0.04800000041723251, -0.01600000075995922, 1.055999994277954, 0.0, 0.0, 0.0, 0.0, 0.0, 1.6218486432898314E9, 2021-05-24 11:30:43.289
37.0, -54.733436584472656, 223.15609741210938, -27.11801528930664, -32.449241638183594, 0.04800000041723251, -0.01600000075995922, 1.055999994277954, 0.0, 0.0, 0.0, 0.0, 0.0, 1.621848643303434E9, 2021-05-24 11:30:43.303
37.0, -63.888710021972656, 233.94570922851562, -30.199691772460938, -28.780399322509766, 0.04800000041723251, -0.01600000075995922, 1.055999994277954, 0.0, 0.0, 0.0, 0.0, 0.0, 1.621848643303434E9, 2021-05-24 11:30:43.303
38.0, -72.61016082763672, 246.134033203125, -24.230812072753906, -29.9360294342041, 0.04800000041723251, -0.01600000075995922, 1.055999994277954, 0.0, 0.0, 0.0, 0.0, 0.0, 1.6218486433190897E9, 2021-05-24 11:30:43.319
38.0, -82.42365264892578, 230.0674285888672, -40.405879974365234, -43.53056716918945, 0.04800000041723251, -0.01600000075995922, 1.055999994277954, 0.0, 0.0, 0.0, 0.0, 0.0, 1.6218486433190897E9, 2021-05-24 11:30:43.319
39.0, -83.19781494140625, 234.79840087890625, -31.684432983398438, -42.25899887084961, 0.04800000041723251, -0.01600000075995922, 1.055999994277954, 0.0, 0.0, 0.0, 0.0, 0.0, 1.6218486433199248E9, 2021-05-24 11:30:43.319
39.0, -77.16909790039062, 243.1346435546875, -35.75344467163086, -34.21073532104492, 0.04800000041723251, -0.01600000075995922, 1.055999994277954, 0.0, 0.0, 0.0, 0.0, 0.0, 1.6218486433199248E9, 2021-05-24 11:30:43.319
40.0, -74.697021484375, 257.49212646484375, -32.11825942993164, -34.45008850097656, 0.04800000041723251, -0.01600000075995922, 1.055999994277954, 0.0, 0.0, 0.0, 0.0, 0.0, 1.621848643333518E9, 2021-05-24 11:30:43.333
40.0, -87.70813751220703, 252.54795837402344, -35.49164962768555, -41.668094635009766, 0.04800000041723251, -0.01600000075995922, 1.055999994277954, 0.0, 0.0, 0.0, 0.0, 0.0, 1.621848643333518E9, 2021-05-24 11:30:43.333
41.0, -90.9992446899414, 231.32403564453125, -38.88747787475586, -33.90032196044922, 0.04800000041723251, -0.01600000075995922, 1.055999994277954, 0.0, 0.0, 0.0, 0.0, 0.0, 1.62184864334913E9, 2021-05-24 11:30:43.349
41.0, -79.76832580566406, 240.64759826660156, -23.116321563720703, -17.94590950012207, 0.04800000041723251, -0.01600000075995922, 1.055999994277954, 0.0, 0.0, 0.0, 0.0, 0.0, 1.62184864334913E9, 2021-05-24 11:30:43.349
42.0, -61.49891662597656, 258.39715576171875, -10.475460052490234, -16.99971580505371, 0.04800000041723251, -0.01600000075995922, 1.055999994277954, 0.0, 0.0, 0.0, 0.0, 0.0, 1.6218486433498428E9, 2021-05-24 11:30:43.349
42.0, -75.32158660888672, 275.2005310058594, -22.402000427246094, -25.35091209411621, 0.04800000041723251, -0.01600000075995922, 1.055999994277954, 0.0, 0.0, 0.0, 0.0, 0.0, 1.6218486433498428E9, 2021-05-24 11:30:43.349
43.0, -79.1923828125, 254.4066925048828, -29.601308822631836, -27.91648292541504, 0.04800000041723251, -0.01600000075995922, 1.055999994277954, 0.0, 0.0, 0.0, 0.0, 0.0, 1.6218486433635898E9, 2021-05-24 11:30:43.363
43.0, -78.98294830322266, 251.1492462158203, -21.410926818847656, -21.02010726928711, 0.04800000041723251, -0.01600000075995922, 1.055999994277954, 0.0, 0.0, 0.0, 0.0, 0.0, 1.6218486433635898E9, 2021-05-24 11:30:43.363
44.0, -79.61872863769531, 250.0459747314453, -23.729665756225586, -28.268033981323242, 0.04800000041723251, -0.01600000075995922, 1.055999994277954, 0.0, 0.0, 0.0, 0.0, 0.0, 1.6218486433792272E9, 2021-05-24 11:30:43.379
44.0, -87.47625732421875, 259.0965270996094, -30.532543182373047, -32.8007926940918, 0.04800000041723251, -0.01600000075995922, 1.055999994277954, 0.0, 0.0, 0.0, 0.0, 0.0, 1.6218486433792272E9, 2021-05-24 11:30:43.379
45.0, -99.7506103515625, 257.67535400390625, -44.23179626464844, -34.079837799072266, 0.04800000041723251, -0.01600000075995922, 1.055999994277954, 0.0, 0.0, 0.0, 0.0, 0.0, 1.621848643379882E9, 2021-05-24 11:30:43.379
45.0, -89.62296295166016, 261.30682373046875, -33.629180908203125, -21.936382293701172, 0.04800000041723251, -0.01600000075995922, 1.055999994277954, 0.0, 0.0, 0.0, 0.0, 0.0, 1.621848643379882E9, 2021-05-24 11:30:43.379
46.0, -62.893898010253906, 295.8709716796875, -12.603463172912598, -2.3430473804473877, 0.04800000041723251, -0.01600000075995922, 1.055999994277954, 0.0, 0.0, 0.0, 0.0, 0.0, 1.621848643393481E9, 2021-05-24 11:30:43.393
46.0, -56.958675384521484, 289.5467834472656, -0.24309349060058594, 6.666371822357178, 0.04800000041723251, -0.01600000075995922, 1.055999994277954, 0.0, 0.0, 0.0, 0.0, 0.0, 1.621848643393481E9, 2021-05-24 11:30:43.393
47.0, -60.93418884277344, 240.80841064453125, -1.1294498443603516, 10.746602058410645, 0.04800000041723251, -0.01600000075995922, 1.055999994277954, 0.0, 0.0, 0.0, 0.0, 0.0, 1.6218486434091516E9, 2021-05-24 11:30:43.409
47.0, -59.61026382446289, 214.9395294189453, 5.0152058601379395, 14.142431259155273, 0.04800000041723251, -0.01600000075995922, 1.055999994277954, 0.0, 0.0, 0.0, 0.0, 0.0, 1.6218486434091516E9, 2021-05-24 11:30:43.409
48.0, -55.65719223022461, 209.68870544433594, -1.0284725427627563, 7.762162208557129, 0.04800000041723251, -0.01600000075995922, 1.055999994277954, 0.0, 0.0, 0.0, 0.0, 0.0, 1.6218486434098728E9, 2021-05-24 11:30:43.409
48.0, -66.49916076660156, 219.79017639160156, -16.055391311645508, -4.916098594665527, 0.04800000041723251, -0.01600000075995922, 1.055999994277954, 0.0, 0.0, 0.0, 0.0, 0.0, 1.6218486434098728E9, 2021-05-24 11:30:43.409
49.0, -60.75093460083008, 213.2490997314453, -31.875167846679688, -13.600146293640137, 0.04800000041723251, -0.01600000075995922, 1.055999994277954, 0.0, 0.0, 0.0, 0.0, 0.0, 1.621848643423509E9, 2021-05-24 11:30:43.423
49.0, -51.24784851074219, 217.97259521484375, -33.32624816894531, -7.032881736755371, 0.04800000041723251, -0.01600000075995922, 1.055999994277954, 0.0, 0.0, 0.0, 0.0, 0.0, 1.621848643423509E9, 2021-05-24 11:30:43.423
50.0, -50.21937561035156, 217.5686798095703, -37.111026763916016, -2.9676105976104736, 0.04800000041723251, -0.01600000075995922, 1.055999994277954, 0.0, 0.0, 0.0, 0.0, 0.0, 1.6218486434391418E9, 2021-05-24 11:30:43.439
50.0, -58.48829650878906, 224.2967529296875, -49.08244705200195, -8.536321640014648, 0.04800000041723251, -0.01600000075995922, 1.055999994277954, 0.0, 0.0, 0.0, 0.0, 0.0, 1.6218486434391418E9, 2021-05-24 11:30:43.439
51.0, -58.009586334228516, 220.28384399414062, -58.544395446777344, -7.500369548797607, 0.04800000041723251, -0.01600000075995922, 1.055999994277954, 0.0, 0.0, 0.0, 0.0, 0.0, 1.6218486434398284E9, 2021-05-24 11:30:43.439
51.0, -46.74501037597656, 227.66641235351562, -55.769386291503906, 7.440530776977539, 0.04800000041723251, -0.01600000075995922, 1.055999994277954, 0.0, 0.0, 0.0, 0.0, 0.0, 1.6218486434398284E9, 2021-05-24 11:30:43.439
52.0, -37.163387298583984, 214.75253295898438, -59.31481170654297, 1.9129588603973389, 0.04800000041723251, -0.01600000075995922, 1.055999994277954, 0.0, 0.0, 0.0, 0.0, 0.0, 1.6218486434534059E9, 2021-05-24 11:30:43.453
52.0, -49.6135139465332, 219.03846740722656, -73.5339126586914, 0.10284724831581116, 0.04800000041723251, -0.01600000075995922, 1.055999994277954, 0.0, 0.0, 0.0, 0.0, 0.0, 1.6218486434534059E9, 2021-05-24 11:30:43.453
53.0, -58.91090393066406, 218.75796508789062, -82.55455017089844, -5.843593597412109, 0.04800000041723251, -0.01600000075995922, 1.055999994277954, 0.0, 0.0, 0.0, 0.0, 0.0, 1.6218486434692051E9, 2021-05-24 11:30:43.469
53.0, -50.806541442871094, 227.0044403076172, -76.1181869506836, 3.797868490219116, 0.04800000041723251, -0.01600000075995922, 1.055999994277954, 0.0, 0.0, 0.0, 0.0, 0.0, 1.6218486434692051E9, 2021-05-24 11:30:43.469
54.0, -57.71039581298828, 208.64154052734375, -89.25271606445312, 4.762762546539307, 0.04800000041723251, -0.01600000075995922, 1.055999994277954, 0.0, 0.0, 0.0, 0.0, 0.0, 1.621848643469952E9, 2021-05-24 11:30:43.469
54.0, -78.12277221679688, 195.91465759277344, -109.287353515625, -8.502662658691406, 0.04800000041723251, -0.01600000075995922, 1.055999994277954, 0.0, 0.0, 0.0, 0.0, 0.0, 1.621848643469952E9, 2021-05-24 11:30:43.469
55.0, -74.53994750976562, 199.99488830566406, -106.61332702636719, -7.025402069091797, 0.04800000041723251, -0.01600000075995922, 1.055999994277954, 0.0, 0.0, 0.0, 0.0, 0.0, 1.6218486434834332E9, 2021-05-24 11:30:43.483
55.0, -67.0040512084961, 206.120849609375, -99.3878402709961, 3.278022289276123, 0.04800000041723251, -0.01600000075995922, 1.055999994277954, 0.0, 0.0, 0.0, 0.0, 0.0, 1.6218486434834332E9, 2021-05-24 11:30:43.483
56.0, -65.27247619628906, 200.5633544921875, -104.27963256835938, -5.286348819732666, 0.04800000041723251, -0.01600000075995922, 1.055999994277954, 0.0, 0.0, 0.0, 0.0, 0.0, 1.6218486434992285E9, 2021-05-24 11:30:43.499
56.0, -70.01092529296875, 206.109619140625, -116.5128402709961, -15.866525650024414, 0.04800000041723251, -0.01600000075995922, 1.055999994277954, 0.0, 0.0, 0.0, 0.0, 0.0, 1.6218486434992285E9, 2021-05-24 11:30:43.499
57.0, -69.00489044189453, 204.5426025390625, -126.9471664428711, -12.208903312683105, 0.04800000041723251, -0.01600000075995922, 1.055999994277954, 0.0, 0.0, 0.0, 0.0, 0.0, 1.6218486434999208E9, 2021-05-24 11:30:43.499
57.0, -68.22325134277344, 197.77713012695312, -119.0821533203125, -0.8844863176345825, 0.04800000041723251, -0.01600000075995922, 1.055999994277954, 0.0, 0.0, 0.0, 0.0, 0.0, 1.6218486434999208E9, 2021-05-24 11:30:43.499
58.0, -57.47478103637695, 204.8006591796875, -115.1851806640625, 5.499522686004639, 0.04800000041723251, -0.01600000075995922, 1.055999994277954, 0.0, 0.0, 0.0, 0.0, 0.0, 1.621848643513445E9, 2021-05-24 11:30:43.513
58.0, -58.90716552734375, 204.8006591796875, -119.45988464355469, -5.35366678237915, 0.04800000041723251, -0.01600000075995922, 1.055999994277954, 0.0, 0.0, 0.0, 0.0, 0.0, 1.621848643513445E9, 2021-05-24 11:30:43.513
59.0, -71.56298828125, 199.82659912109375, -126.01219177246094, -12.672651290893555, 0.04800000041723251, -0.01600000075995922, 1.055999994277954, 0.0, 0.0, 0.0, 0.0, 0.0, 1.6218486435289237E9, 2021-05-24 11:30:43.528
59.0, -64.94710540771484, 207.29518127441406, -127.50814819335938, -9.258122444152832, 0.04800000041723251, -0.01600000075995922, 1.055999994277954, 0.0, 0.0, 0.0, 0.0, 0.0, 1.6218486435289237E9, 2021-05-24 11:30:43.528
60.0, -58.7164306640625, 208.7126007080078, -122.02171325683594, 0.12528665363788605, 0.04800000041723251, -0.01600000075995922, 1.055999994277954, 0.0, 0.0, 0.0, 0.0, 0.0, 1.6218486435441737E9, 2021-05-24 11:30:43.544
60.0, -67.77446746826172, 220.47084045410156, -132.1493682861328, -2.9115121364593506, 0.04800000041723251, -0.01600000075995922, 1.055999994277954, 0.0, 0.0, 0.0, 0.0, 0.0, 1.6218486435441737E9, 2021-05-24 11:30:43.544
61.0, -70.44849395751953, 232.5282745361328, -129.61370849609375, -0.09910734742879868, 0.04800000041723251, -0.01600000075995922, 1.055999994277954, 0.0, 0.0, 0.0, 0.0, 0.0, 1.6218486435448635E9, 2021-05-24 11:30:43.544
61.0, -70.14556121826172, 237.93617248535156, -127.3735122680664, -6.513035774230957, 0.04800000041723251, -0.01600000075995922, 1.055999994277954, 0.0, 0.0, 0.0, 0.0, 0.0, 1.6218486435448635E9, 2021-05-24 11:30:43.544
62.0, -76.05086517333984, 228.90057373046875, -125.33526611328125, -6.729949951171875, 0.04800000041723251, -0.01600000075995922, 1.055999994277954, 0.0, 0.0, 0.0, 0.0, 0.0, 1.621848643559314E9, 2021-05-24 11:30:43.559
62.0, -70.82622528076172, 226.19288635253906, -115.43201446533203, -2.844193935394287, 0.04800000041723251, -0.01600000075995922, 1.055999994277954, 0.0, 0.0, 0.0, 0.0, 0.0, 1.621848643559314E9, 2021-05-24 11:30:43.559
63.0, -62.9836540222168, 217.59112548828125, -110.18119049072266, -2.679638385772705, 0.04800000041723251, -0.01600000075995922, 1.055999994277954, 0.0, 0.0, 0.0, 0.0, 0.0, 1.6218486435599337E9, 2021-05-24 11:30:43.559
63.0, -59.352210998535156, 220.0744171142578, -105.64469146728516, 1.9503577947616577, 0.04800000041723251, -0.01600000075995922, 1.055999994277954, 0.0, 0.0, 0.0, 0.0, 0.0, 1.6218486435599337E9, 2021-05-24 11:30:43.559
64.0, -48.764556884765625, 220.28384399414062, -91.02916717529297, -0.0018699499778449535, 0.04800000041723251, -0.01600000075995922, 1.055999994277954, 0.0, 0.0, 0.0, 0.0, 0.0, 1.6218486435735586E9, 2021-05-24 11:30:43.573
64.0, -65.30987548828125, 209.96546936035156, -111.23210144042969, -6.217583656311035, 0.04800000041723251, -0.01600000075995922, 1.055999994277954, 0.0, 0.0, 0.0, 0.0, 0.0, 1.6218486435735586E9, 2021-05-24 11:30:43.573
65.0, -66.48046112060547, 208.90333557128906, -109.77728271484375, -2.90029239654541, 0.04800000041723251, -0.01600000075995922, 1.055999994277954, 0.0, 0.0, 0.0, 0.0, 0.0, 1.6218486435892825E9, 2021-05-24 11:30:43.589
65.0, -62.314212799072266, 220.09310913085938, -102.48448181152344, -1.4379914999008179, 0.04800000041723251, -0.01600000075995922, 1.055999994277954, 0.0, 0.0, 0.0, 0.0, 0.0, 1.6218486435892825E9, 2021-05-24 11:30:43.589
66.0, -64.08318328857422, 242.46145629882812, -98.63238525390625, 4.852519989013672, 0.04800000041723251, -0.01600000075995922, 1.055999994277954, 0.0, 0.0, 0.0, 0.0, 0.0, 1.6218486435900223E9, 2021-05-24 11:30:43.590
66.0, -66.39070129394531, 234.91433715820312, -98.36685180664062, -7.698584079742432, 0.04800000041723251, -0.01600000075995922, 1.055999994277954, 0.0, 0.0, 0.0, 0.0, 0.0, 1.6218486435900223E9, 2021-05-24 11:30:43.590
67.0, -67.11998748779297, 222.71104431152344, -98.01529693603516, -6.266202449798584, 0.04800000041723251, -0.01600000075995922, 1.055999994277954, 0.0, 0.0, 0.0, 0.0, 0.0, 1.6218486436034591E9, 2021-05-24 11:30:43.603
67.0, -66.58892059326172, 214.2177276611328, -102.26756286621094, -0.7535898685455322, 0.04800000041723251, -0.01600000075995922, 1.055999994277954, 0.0, 0.0, 0.0, 0.0, 0.0, 1.6218486436034591E9, 2021-05-24 11:30:43.603
68.0, -59.778560638427734, 219.99961853027344, -90.07174682617188, 1.3257945775985718, 0.04800000041723251, -0.01600000075995922, 1.055999994277954, 0.0, 0.0, 0.0, 0.0, 0.0, 1.6218486436191614E9, 2021-05-24 11:30:43.619
68.0, -61.58119201660156, 223.44032287597656, -92.4391098022461, -1.4903501272201538, 0.04800000041723251, -0.01600000075995922, 1.055999994277954, 0.0, 0.0, 0.0, 0.0, 0.0, 1.6218486436191614E9, 2021-05-24 11:30:43.619
69.0, -64.34497833251953, 223.4141387939453, -102.33488464355469, -6.677591323852539, 0.04800000041723251, -0.01600000075995922, 1.055999994277954, 0.0, 0.0, 0.0, 0.0, 0.0, 1.62184864361986E9, 2021-05-24 11:30:43.619
69.0, -65.83345794677734, 235.43792724609375, -90.28866577148438, -1.034082293510437, 0.04800000041723251, -0.01600000075995922, 1.055999994277954, 0.0, 0.0, 0.0, 0.0, 0.0, 1.62184864361986E9, 2021-05-24 11:30:43.619
70.0, -52.579254150390625, 234.267333984375, -80.7593994140625, 3.0498883724212646, 0.04800000041723251, -0.01600000075995922, 1.055999994277954, 0.0, 0.0, 0.0, 0.0, 0.0, 1.621848643633441E9, 2021-05-24 11:30:43.633
70.0, -70.17174530029297, 222.78958129882812, -90.43077850341797, -7.563947677612305, 0.04800000041723251, -0.01600000075995922, 1.055999994277954, 0.0, 0.0, 0.0, 0.0, 0.0, 1.621848643633441E9, 2021-05-24 11:30:43.633
71.0, -73.19731903076172, 227.72250366210938, -95.0308609008789, -10.8101806640625, 0.04800000041723251, -0.01600000075995922, 1.055999994277954, 0.0, 0.0, 0.0, 0.0, 0.0, 1.621848643649143E9, 2021-05-24 11:30:43.649
71.0, -61.4278564453125, 234.15513610839844, -74.49880981445312, 2.9713504314422607, 0.04800000041723251, -0.01600000075995922, 1.055999994277954, 0.0, 0.0, 0.0, 0.0, 0.0, 1.621848643649143E9, 2021-05-24 11:30:43.649
72.0, -64.63668823242188, 235.30702209472656, -79.6374282836914, 2.657198905944824, 0.04800000041723251, -0.01600000075995922, 1.055999994277954, 0.0, 0.0, 0.0, 0.0, 0.0, 1.6218486436498559E9, 2021-05-24 11:30:43.649
72.0, -66.48419952392578, 231.0023956298828, -85.84192657470703, -15.559853553771973, 0.04800000041723251, -0.01600000075995922, 1.055999994277954, 0.0, 0.0, 0.0, 0.0, 0.0, 1.6218486436498559E9, 2021-05-24 11:30:43.649
73.0, -75.90875244140625, 223.0251922607422, -97.96668243408203, -19.18381690979004, 0.04800000041723251, -0.01600000075995922, 1.055999994277954, 0.0, 0.0, 0.0, 0.0, 0.0, 1.6218486436634285E9, 2021-05-24 11:30:43.663
73.0, -72.5316162109375, 233.07057189941406, -92.7794418334961, -10.600746154785156, 0.04800000041723251, -0.01600000075995922, 1.055999994277954, 0.0, 0.0, 0.0, 0.0, 0.0, 1.6218486436634285E9, 2021-05-24 11:30:43.663
74.0, -66.35330200195312, 245.8460693359375, -80.17223358154297, -2.4215853214263916, 0.04800000041723251, -0.01600000075995922, 1.055999994277954, 0.0, 0.0, 0.0, 0.0, 0.0, 1.6218486436791403E9, 2021-05-24 11:30:43.679
74.0, -80.63224029541016, 230.8341064453125, -88.38131713867188, -14.841793060302734, 0.04800000041723251, -0.01600000075995922, 1.055999994277954, 0.0, 0.0, 0.0, 0.0, 0.0, 1.6218486436791403E9, 2021-05-24 11:30:43.679
75.0, -81.2418441772461, 222.318359375, -95.26647186279297, -16.77532196044922, 0.04800000041723251, -0.01600000075995922, 1.055999994277954, 0.0, 0.0, 0.0, 0.0, 0.0, 1.621848643679872E9, 2021-05-24 11:30:43.679
