Sample Index, EXG Channel 0, EXG Channel 1, EXG Channel 2, EXG Channel 3, Accel Channel 0, Accel Channel 1, Accel Channel 2, Other, Other, Other, Other, Other, Timestamp, Timestamp (Formatted)
58.0, -66.99282836914062, -58.57057189941406, -75.59459686279297, -58.499515533447266, 0.0, 0.0, 0.0, 0.0, 0.0, 0.0, 0.0, 0.0, 1.621865347071854E9, 2021-05-24 16:09:07.071
58.0, 60.39564514160156, -95.40484619140625, -213.5333251953125, -45.49214172363281, 0.0, 0.0, 0.0, 0.0, 0.0, 0.0, 0.0, 0.0, 1.621865347071854E9, 2021-05-24 16:09:07.071
0.0, -144.0889892578125, 23.735275268554688, 124.67704772949219, -10.307164192199707, 0.0, 0.0, 0.0, 0.0, 0.0, 0.0, 0.0, 0.0, 1.621865347090901E9, 2021-05-24 16:09:07.090
1.0, -270.10491943359375, -102.23951721191406, -11.829303741455078, -132.28773498535156, 0.0, 0.01600000075995922, 0.0, 0.0, 0.0, 0.0, 0.0, 0.0, 1.621865347104301E9, 2021-05-24 16:09:07.104
1.0, -150.9517059326172, 0.12154674530029297, 126.11316680908203, -28.165185928344727, 0.0, 0.01600000075995922, 0.0, 0.0, 0.0, 0.0, 0.0, 0.0, 1.621865347104301E9, 2021-05-24 16:09:07.104
2.0, -66.56086730957031, 94.99159240722656, 214.3822784423828, 58.548133850097656, -0.06400000303983688, 0.01600000075995922, 0.0, 0.0, 0.0, 0.0, 0.0, 0.0, 1.621865347120968E9, 2021-05-24 16:09:07.120
2.0, -139.39915466308594, 25.029279708862305, 135.6162567138672, -10.090250015258789, -0.06400000303983688, 0.01600000075995922, 0.0, 0.0, 0.0, 0.0, 0.0, 0.0, 1.621865347120968E9, 2021-05-24 16:09:07.120
3.0, -263.76953125, -94.24735260009766, -13.055991172790527, -136.73822021484375, -0.06400000303983688, 0.01600000075995922, 0.0, 0.0, 0.0, 0.0, 0.0, 0.0, 1.6218653471217144E9, 2021-05-24 16:09:07.121
3.0, -147.03977966308594, 6.778568744659424, 124.381591796875, -35.03538131713867, -0.06400000303983688, 0.01600000075995922, 0.0, 0.0, 0.0, 0.0, 0.0, 0.0, 1.6218653471217144E9, 2021-05-24 16:09:07.121
4.0, -65.63711547851562, 89.703369140625, 211.73817443847656, 53.18137741088867, -0.06400000303983688, 0.01600000075995922, 0.0, 0.0, 0.0, 0.0, 0.0, 0.0, 1.6218653471341052E9, 2021-05-24 16:09:07.134
4.0, -139.80307006835938, 21.64841079711914, 127.0518798828125, -7.797691345214844, -0.06400000303983688, 0.01600000075995922, 0.0, 0.0, 0.0, 0.0, 0.0, 0.0, 1.6218653471341052E9, 2021-05-24 16:09:07.134
5.0, -270.3816833496094, -100.7435531616211, -11.952720642089844, -134.27737426757812, -0.06400000303983688, 0.01600000075995922, 0.0, 0.0, 0.0, 0.0, 0.0, 0.0, 1.6218653471497574E9, 2021-05-24 16:09:07.149
5.0, -149.51559448242188, 4.631865978240967, 126.21788024902344, -23.651126861572266, -0.06400000303983688, 0.01600000075995922, 0.0, 0.0, 0.0, 0.0, 0.0, 0.0, 1.6218653471497574E9, 2021-05-24 16:09:07.149
6.0, -71.19834899902344, 87.13780212402344, 208.60040283203125, 62.68072509765625, -0.06400000303983688, 0.01600000075995922, 0.0, 0.0, 0.0, 0.0, 0.0, 0.0, 1.6218653471504812E9, 2021-05-24 16:09:07.150
6.0, -140.573486328125, 20.23472785949707, 128.47303771972656, -0.25805309414863586, -0.06400000303983688, 0.01600000075995922, 0.0, 0.0, 0.0, 0.0, 0.0, 0.0, 1.6218653471504812E9, 2021-05-24 16:09:07.150
7.0, -274.06549072265625, -104.18052673339844, -13.358922958374023, -132.8262939453125, -0.06400000303983688, 0.01600000075995922, 0.0, 0.0, 0.0, 0.0, 0.0, 0.0, 1.6218653471641455E9, 2021-05-24 16:09:07.164
7.0, -148.8798065185547, 0.577814519405365, 119.28784942626953, -26.239137649536133, -0.06400000303983688, 0.01600000075995922, 0.0, 0.0, 0.0, 0.0, 0.0, 0.0, 1.6218653471641455E9, 2021-05-24 16:09:07.164
8.0, -69.60888671875, 93.36099243164062, 208.1890106201172, 60.216129302978516, -0.06400000303983688, 0.01600000075995922, 0.0, 0.0, 0.0, 0.0, 0.0, 0.0, 1.6218653471797667E9, 2021-05-24 16:09:07.179
8.0, -144.5228271484375, 16.573366165161133, 123.39425659179688, -4.790812015533447, -0.06400000303983688, 0.01600000075995922, 0.0, 0.0, 0.0, 0.0, 0.0, 0.0, 1.6218653471797667E9, 2021-05-24 16:09:07.179
9.0, -270.7930603027344, -103.5933609008789, -15.928234100341797, -134.26988220214844, -0.06400000303983688, 0.01600000075995922, 0.0, 0.0, 0.0, 0.0, 0.0, 0.0, 1.6218653471804702E9, 2021-05-24 16:09:07.180
9.0, -149.20892333984375, -5.364886283874512, 120.4621810913086, -33.17665100097656, -0.06400000303983688, 0.01600000075995922, 0.0, 0.0, 0.0, 0.0, 0.0, 0.0, 1.6218653471804702E9, 2021-05-24 16:09:07.180
10.0, -67.09567260742188, 84.78913879394531, 208.34608459472656, 57.56079864501953, -0.06400000303983688, 0.01600000075995922, 1.055999994277954, 0.0, 0.0, 0.0, 0.0, 0.0, 1.6218653471941133E9, 2021-05-24 16:09:07.194
10.0, -142.9520721435547, 19.871957778930664, 131.82772827148438, -7.7902116775512695, -0.06400000303983688, 0.01600000075995922, 1.055999994277954, 0.0, 0.0, 0.0, 0.0, 0.0, 1.6218653471941133E9, 2021-05-24 16:09:07.194
11.0, -266.7203063964844, -99.6028823852539, -12.023777961730957, -133.13296508789062, -0.06400000303983688, 0.0, 1.055999994277954, 0.0, 0.0, 0.0, 0.0, 0.0, 1.6218653472097588E9, 2021-05-24 16:09:07.209
11.0, -146.2581329345703, 1.8232011795043945, 120.30509948730469, -27.15915298461914, -0.06400000303983688, 0.0, 1.055999994277954, 0.0, 0.0, 0.0, 0.0, 0.0, 1.6218653472097588E9, 2021-05-24 16:09:07.209
12.0, -64.83303833007812, 89.62483215332031, 207.91973876953125, 58.15544509887695, -0.03200000151991844, 0.0, 1.055999994277954, 0.0, 0.0, 0.0, 0.0, 0.0, 1.621865347210487E9, 2021-05-24 16:09:07.210
12.0, -140.97366333007812, 26.82069206237793, 133.4919891357422, -6.118476390838623, -0.03200000151991844, 0.0, 1.055999994277954, 0.0, 0.0, 0.0, 0.0, 0.0, 1.621865347210487E9, 2021-05-24 16:09:07.210
13.0, -274.2524719238281, -96.82039642333984, -8.49331283569336, -132.0633544921875, -0.03200000151991844, 0.0, 1.055999994277954, 0.0, 0.0, 0.0, 0.0, 0.0, 1.6218653472240884E9, 2021-05-24 16:09:07.224
13.0, -158.74940490722656, 0.360900342464447, 121.74496459960938, -30.40912628173828, -0.03200000151991844, 0.0, 1.055999994277954, 0.0, 0.0, 0.0, 0.0, 0.0, 1.6218653472240884E9, 2021-05-24 16:09:07.224
14.0, -66.56460571289062, 92.53447723388672, 218.05860900878906, 59.37465286254883, -0.03200000151991844, 0.0, 1.055999994277954, 0.0, 0.0, 0.0, 0.0, 0.0, 1.6218653472398944E9, 2021-05-24 16:09:07.239
14.0, -141.02227783203125, 25.34343147277832, 137.17205810546875, -13.968525886535645, -0.03200000151991844, 0.0, 1.055999994277954, 0.0, 0.0, 0.0, 0.0, 0.0, 1.6218653472398944E9, 2021-05-24 16:09:07.239
15.0, -269.4691467285156, -98.72400665283203, -6.668241500854492, -138.09207153320312, -0.03200000151991844, 0.0, 1.055999994277954, 0.0, 0.0, 0.0, 0.0, 0.0, 1.6218653472405639E9, 2021-05-24 16:09:07.240
15.0, -144.79583740234375, 0.24870334565639496, 130.42901611328125, -33.26266860961914, -0.03200000151991844, 0.0, 1.055999994277954, 0.0, 0.0, 0.0, 0.0, 0.0, 1.6218653472405639E9, 2021-05-24 16:09:07.240
16.0, -69.2087173461914, 86.1691665649414, 216.6785888671875, 53.39455032348633, -0.03200000151991844, 0.0, 1.055999994277954, 0.0, 0.0, 0.0, 0.0, 0.0, 1.621865347254073E9, 2021-05-24 16:09:07.254
16.0, -138.26597595214844, 22.175737380981445, 136.9439239501953, -8.328757286071777, -0.03200000151991844, 0.0, 1.055999994277954, 0.0, 0.0, 0.0, 0.0, 0.0, 1.621865347254073E9, 2021-05-24 16:09:07.254
17.0, -266.3650207519531, -103.08473205566406, 0.531065821647644, -128.96670532226562, -0.03200000151991844, 0.0, 1.055999994277954, 0.0, 0.0, 0.0, 0.0, 0.0, 1.6218653472698343E9, 2021-05-24 16:09:07.269
17.0, -151.54261779785156, -7.68736457824707, 121.06056213378906, -26.3625545501709, -0.03200000151991844, 0.0, 1.055999994277954, 0.0, 0.0, 0.0, 0.0, 0.0, 1.6218653472698343E9, 2021-05-24 16:09:07.269
18.0, -65.63337707519531, 82.61625671386719, 211.05003356933594, 55.98630142211914, -0.03200000151991844, 0.0, 1.055999994277954, 0.0, 0.0, 0.0, 0.0, 0.0, 1.6218653472705686E9, 2021-05-24 16:09:07.270
18.0, -138.65118408203125, 24.2551212310791, 136.59609985351562, -6.387749195098877, -0.03200000151991844, 0.0, 1.055999994277954, 0.0, 0.0, 0.0, 0.0, 0.0, 1.6218653472705686E9, 2021-05-24 16:09:07.270
19.0, -268.3808288574219, -98.90352630615234, -5.965140342712402, -129.79696655273438, -0.03200000151991844, 0.0, 1.055999994277954, 0.0, 0.0, 0.0, 0.0, 0.0, 1.6218653472841284E9, 2021-05-24 16:09:07.284
19.0, -154.45973205566406, 0.09910734742879868, 124.45639038085938, -28.670072555541992, -0.03200000151991844, 0.0, 1.055999994277954, 0.0, 0.0, 0.0, 0.0, 0.0, 1.6218653472841284E9, 2021-05-24 16:09:07.284
20.0, -67.6379623413086, 88.26725006103516, 215.30604553222656, 51.26654815673828, -0.03200000151991844, 0.0, 0.5440000295639038, 0.0, 0.0, 0.0, 0.0, 0.0, 1.621865347316154E9, 2021-05-24 16:09:07.316
20.0, -144.5115966796875, 21.66337013244629, 132.2653045654297, -10.434320449829102, -0.03200000151991844, 0.0, 0.5440000295639038, 0.0, 0.0, 0.0, 0.0, 0.0, 1.621865347316154E9, 2021-05-24 16:09:07.316
21.0, -271.00250244140625, -102.89399719238281, -14.447233200073242, -132.3139190673828, -0.03200000151991844, 0.01600000075995922, 0.5440000295639038, 0.0, 0.0, 0.0, 0.0, 0.0, 1.6218653473168368E9, 2021-05-24 16:09:07.316
21.0, -155.3236541748047, -11.27392864227295, 117.52261352539062, -36.4266242980957, -0.03200000151991844, 0.01600000075995922, 0.5440000295639038, 0.0, 0.0, 0.0, 0.0, 0.0, 1.6218653473168368E9, 2021-05-24 16:09:07.316
22.0, -65.97370147705078, 79.25408935546875, 217.31436157226562, 54.351966857910156, -0.04800000041723251, 0.01600000075995922, 0.5440000295639038, 0.0, 0.0, 0.0, 0.0, 0.0, 1.6218653473177114E9, 2021-05-24 16:09:07.317
22.0, -138.93540954589844, 18.675189971923828, 131.6856231689453, -10.752212524414062, -0.04800000041723251, 0.01600000075995922, 0.5440000295639038, 0.0, 0.0, 0.0, 0.0, 0.0, 1.6218653473177114E9, 2021-05-24 16:09:07.317
23.0, -272.5358581542969, -105.05565643310547, -7.14694881439209, -134.95802307128906, -0.04800000041723251, 0.01600000075995922, 0.5440000295639038, 0.0, 0.0, 0.0, 0.0, 0.0, 1.6218653473183217E9, 2021-05-24 16:09:07.318
23.0, -151.70343017578125, -0.06544824689626694, 122.00301361083984, -35.061561584472656, -0.04800000041723251, 0.01600000075995922, 0.5440000295639038, 0.0, 0.0, 0.0, 0.0, 0.0, 1.6218653473183217E9, 2021-05-24 16:09:07.318
24.0, -71.57233428955078, 84.11595916748047, 207.23159790039062, 41.90184020996094, -0.04800000041723251, 0.01600000075995922, 0.5440000295639038, 0.0, 0.0, 0.0, 0.0, 0.0, 1.621865347329164E9, 2021-05-24 16:09:07.329
24.0, -141.44862365722656, 25.896936416625977, 132.0633544921875, -15.494405746459961, -0.04800000041723251, 0.01600000075995922, 0.5440000295639038, 0.0, 0.0, 0.0, 0.0, 0.0, 1.621865347329164E9, 2021-05-24 16:09:07.329
25.0, -266.87738037109375, -96.53242492675781, -6.447587490081787, -138.86622619628906, -0.04800000041723251, 0.01600000075995922, 0.5440000295639038, 0.0, 0.0, 0.0, 0.0, 0.0, 1.6218653473441365E9, 2021-05-24 16:09:07.344
25.0, -152.369140625, -5.622939586639404, 122.17131042480469, -42.496482849121094, -0.04800000041723251, 0.01600000075995922, 0.5440000295639038, 0.0, 0.0, 0.0, 0.0, 0.0, 1.6218653473441365E9, 2021-05-24 16:09:07.344
26.0, -69.11895751953125, 87.96805572509766, 214.98814392089844, 49.276920318603516, -0.04800000041723251, 0.01600000075995922, 0.5440000295639038, 0.0, 0.0, 0.0, 0.0, 0.0, 1.6218653473597713E9, 2021-05-24 16:09:07.359
26.0, -141.58326721191406, 20.014074325561523, 135.63494873046875, -13.818930625915527, -0.04800000041723251, 0.01600000075995922, 0.5440000295639038, 0.0, 0.0, 0.0, 0.0, 0.0, 1.6218653473597713E9, 2021-05-24 16:09:07.359
27.0, -271.87762451171875, -102.81919860839844, -13.90120792388916, -135.29087829589844, -0.04800000041723251, 0.01600000075995922, 0.5440000295639038, 0.0, 0.0, 0.0, 0.0, 0.0, 1.6218653473605225E9, 2021-05-24 16:09:07.360
27.0, -158.40907287597656, -5.323747634887695, 119.53468322753906, -35.00172424316406, -0.04800000041723251, 0.01600000075995922, 0.5440000295639038, 0.0, 0.0, 0.0, 0.0, 0.0, 1.6218653473605225E9, 2021-05-24 16:09:07.360
28.0, -75.36085510253906, 82.29837036132812, 213.9933319091797, 51.337608337402344, -0.04800000041723251, 0.01600000075995922, 0.5440000295639038, 0.0, 0.0, 0.0, 0.0, 0.0, 1.6218653473741095E9, 2021-05-24 16:09:07.374
28.0, -144.0515899658203, 20.825632095336914, 134.23623657226562, -6.148395538330078, -0.04800000041723251, 0.01600000075995922, 0.5440000295639038, 0.0, 0.0, 0.0, 0.0, 0.0, 1.6218653473741095E9, 2021-05-24 16:09:07.374
29.0, -268.0517272949219, -97.97976684570312, -7.962246894836426, -129.12753295898438, -0.04800000041723251, 0.01600000075995922, 0.5440000295639038, 0.0, 0.0, 0.0, 0.0, 0.0, 1.621865347389796E9, 2021-05-24 16:09:07.389
29.0, -155.49569702148438, -7.328333854675293, 117.63107299804688, -27.914613723754883, -0.04800000041723251, 0.01600000075995922, 0.5440000295639038, 0.0, 0.0, 0.0, 0.0, 0.0, 1.621865347389796E9, 2021-05-24 16:09:07.389
30.0, -69.03668212890625, 82.33203125, 211.3380126953125, 61.259559631347656, -0.04800000041723251, 0.01600000075995922, 0.800000011920929, 0.0, 0.0, 0.0, 0.0, 0.0, 1.6218653473904955E9, 2021-05-24 16:09:07.390
30.0, -142.6528778076172, 22.45623016357422, 134.20257568359375, -4.521539211273193, -0.04800000041723251, 0.01600000075995922, 0.800000011920929, 0.0, 0.0, 0.0, 0.0, 0.0, 1.6218653473904955E9, 2021-05-24 16:09:07.390
31.0, -272.52838134765625, -103.70181274414062, -6.301731586456299, -130.85536193847656, -0.04800000041723251, 0.01600000075995922, 0.800000011920929, 0.0, 0.0, 0.0, 0.0, 0.0, 1.6218653474040885E9, 2021-05-24 16:09:07.404
31.0, -156.04171752929688, -10.305294036865234, 121.49813079833984, -34.95310592651367, -0.04800000041723251, 0.01600000075995922, 0.800000011920929, 0.0, 0.0, 0.0, 0.0, 0.0, 1.6218653474040885E9, 2021-05-24 16:09:07.404
32.0, -60.25539779663086, 81.68502807617188, 215.80345153808594, 61.596153259277344, -0.06400000303983688, 0.01600000075995922, 0.800000011920929, 0.0, 0.0, 0.0, 0.0, 0.0, 1.6218653474198053E9, 2021-05-24 16:09:07.419
32.0, -135.54331970214844, 18.37599754333496, 135.49282836914062, -5.0152058601379395, -0.06400000303983688, 0.01600000075995922, 0.800000011920929, 0.0, 0.0, 0.0, 0.0, 0.0, 1.6218653474198053E9, 2021-05-24 16:09:07.419
33.0, -269.70849609375, -107.15748596191406, -10.415621757507324, -134.23997497558594, -0.06400000303983688, 0.01600000075995922, 0.800000011920929, 0.0, 0.0, 0.0, 0.0, 0.0, 1.621865347420504E9, 2021-05-24 16:09:07.420
33.0, -152.0213165283203, -10.024802207946777, 120.2452621459961, -31.97988510131836, -0.06400000303983688, 0.01600000075995922, 0.800000011920929, 0.0, 0.0, 0.0, 0.0, 0.0, 1.621865347420504E9, 2021-05-24 16:09:07.420
34.0, -62.88454818725586, 81.30355834960938, 217.811767578125, 51.576961517333984, -0.06400000303983688, 0.01600000075995922, 0.800000011920929, 0.0, 0.0, 0.0, 0.0, 0.0, 1.6218653474341004E9, 2021-05-24 16:09:07.434
34.0, -134.87762451171875, 16.868818283081055, 136.48016357421875, -11.402955055236816, -0.06400000303983688, 0.01600000075995922, 0.800000011920929, 0.0, 0.0, 0.0, 0.0, 0.0, 1.6218653474341004E9, 2021-05-24 16:09:07.434
35.0, -267.1092529296875, -98.79132843017578, -7.07589054107666, -136.91773986816406, -0.06400000303983688, 0.01600000075995922, 0.800000011920929, 0.0, 0.0, 0.0, 0.0, 0.0, 1.6218653474497857E9, 2021-05-24 16:09:07.449
35.0, -154.7664031982422, -9.665771484375, 121.24007415771484, -32.12200164794922, -0.06400000303983688, 0.01600000075995922, 0.800000011920929, 0.0, 0.0, 0.0, 0.0, 0.0, 1.6218653474497857E9, 2021-05-24 16:09:07.449
36.0, -66.43745422363281, 89.52385711669922, 213.3238983154297, 51.5620002746582, -0.06400000303983688, 0.01600000075995922, 0.800000011920929, 0.0, 0.0, 0.0, 0.0, 0.0, 1.6218653474505377E9, 2021-05-24 16:09:07.450
36.0, -139.97511291503906, 18.162824630737305, 133.7911834716797, -17.042724609375, -0.06400000303983688, 0.01600000075995922, 0.800000011920929, 0.0, 0.0, 0.0, 0.0, 0.0, 1.6218653474505377E9, 2021-05-24 16:09:07.450
37.0, -268.2574157714844, -102.07495880126953, -8.126802444458008, -139.4384307861328, -0.06400000303983688, 0.01600000075995922, 0.800000011920929, 0.0, 0.0, 0.0, 0.0, 0.0, 1.6218653474641087E9, 2021-05-24 16:09:07.464
37.0, -154.25404357910156, -10.884979248046875, 121.44577026367188, -38.76406478881836, -0.06400000303983688, 0.01600000075995922, 0.800000011920929, 0.0, 0.0, 0.0, 0.0, 0.0, 1.6218653474641087E9, 2021-05-24 16:09:07.464
38.0, -68.28496551513672, 85.0845947265625, 218.81781005859375, 49.998722076416016, -0.06400000303983688, 0.01600000075995922, 0.800000011920929, 0.0, 0.0, 0.0, 0.0, 0.0, 1.6218653474797547E9, 2021-05-24 16:09:07.479
38.0, -140.52487182617188, 19.236175537109375, 135.919189453125, -17.880460739135742, -0.06400000303983688, 0.01600000075995922, 0.800000011920929, 0.0, 0.0, 0.0, 0.0, 0.0, 1.6218653474797547E9, 2021-05-24 16:09:07.479
39.0, -269.6860656738281, -99.69638061523438, -2.31125807762146, -140.08917236328125, -0.06400000303983688, 0.01600000075995922, 0.800000011920929, 0.0, 0.0, 0.0, 0.0, 0.0, 1.6218653474804773E9, 2021-05-24 16:09:07.480
39.0, -158.15475463867188, -4.242916584014893, 117.4964370727539, -44.21683883666992, -0.06400000303983688, 0.01600000075995922, 0.800000011920929, 0.0, 0.0, 0.0, 0.0, 0.0, 1.6218653474804773E9, 2021-05-24 16:09:07.480
40.0, -68.11293029785156, 83.38668060302734, 209.38577270507812, 45.379947662353516, -0.06400000303983688, 0.01600000075995922, 0.9280000329017639, 0.0, 0.0, 0.0, 0.0, 0.0, 1.621865347494095E9, 2021-05-24 16:09:07.494
40.0, -142.67904663085938, 21.468894958496094, 131.81651306152344, -16.818330764770508, -0.06400000303983688, 0.01600000075995922, 0.9280000329017639, 0.0, 0.0, 0.0, 0.0, 0.0, 1.621865347494095E9, 2021-05-24 16:09:07.494
41.0, -270.0899658203125, -97.76659393310547, -11.750765800476074, -137.3665313720703, -0.06400000303983688, 0.01600000075995922, 0.9280000329017639, 0.0, 0.0, 0.0, 0.0, 0.0, 1.6218653475098336E9, 2021-05-24 16:09:07.509
41.0, -155.667724609375, -4.81886100769043, 114.2240219116211, -39.448463439941406, -0.06400000303983688, 0.01600000075995922, 0.9280000329017639, 0.0, 0.0, 0.0, 0.0, 0.0, 1.6218653475098336E9, 2021-05-24 16:09:07.509
42.0, -72.27169799804688, 91.24420928955078, 209.7186279296875, 57.08957290649414, -0.06400000303983688, 0.01600000075995922, 0.9280000329017639, 0.0, 0.0, 0.0, 0.0, 0.0, 1.6218653475105383E9, 2021-05-24 16:09:07.510
42.0, -141.91236877441406, 27.243301391601562, 130.2681884765625, -11.055144309997559, -0.06400000303983688, 0.01600000075995922, 0.9280000329017639, 0.0, 0.0, 0.0, 0.0, 0.0, 1.6218653475105383E9, 2021-05-24 16:09:07.510
43.0, -269.72344970703125, -98.92222595214844, -12.319230079650879, -137.4488067626953, -0.06400000303983688, 0.01600000075995922, 0.9280000329017639, 0.0, 0.0, 0.0, 0.0, 0.0, 1.62186534752413E9, 2021-05-24 16:09:07.524
43.0, -156.7261199951172, -6.397099018096924, 113.42742919921875, -40.402137756347656, -0.06400000303983688, 0.01600000075995922, 0.9280000329017639, 0.0, 0.0, 0.0, 0.0, 0.0, 1.62186534752413E9, 2021-05-24 16:09:07.524
44.0, -68.3635025024414, 86.81990814208984, 213.1481170654297, 52.65779113769531, -0.06400000303983688, 0.01600000075995922, 0.9280000329017639, 0.0, 0.0, 0.0, 0.0, 0.0, 1.62186534753981E9, 2021-05-24 16:09:07.539
44.0, -142.74636840820312, 15.698229789733887, 127.56424713134766, -7.509718894958496, -0.06400000303983688, 0.01600000075995922, 0.9280000329017639, 0.0, 0.0, 0.0, 0.0, 0.0, 1.62186534753981E9, 2021-05-24 16:09:07.539
45.0, -271.6495056152344, -106.12527465820312, -6.125956058502197, -131.58090209960938, -0.06400000303983688, 0.01600000075995922, 0.9280000329017639, 0.0, 0.0, 0.0, 0.0, 0.0, 1.6218653475405304E9, 2021-05-24 16:09:07.540
45.0, -157.6162109375, -7.328333854675293, 116.86813354492188, -38.722923278808594, -0.06400000303983688, 0.01600000075995922, 0.9280000329017639, 0.0, 0.0, 0.0, 0.0, 0.0, 1.6218653475405304E9, 2021-05-24 16:09:07.540
46.0, -73.48716735839844, 91.064697265625, 215.30230712890625, 51.47972106933594, -0.06400000303983688, 0.01600000075995922, 0.9280000329017639, 0.0, 0.0, 0.0, 0.0, 0.0, 1.6218653475541267E9, 2021-05-24 16:09:07.554
46.0, -142.37611389160156, 25.474328994750977, 135.94161987304688, -9.50682544708252, -0.06400000303983688, 0.01600000075995922, 0.9280000329017639, 0.0, 0.0, 0.0, 0.0, 0.0, 1.6218653475541267E9, 2021-05-24 16:09:07.554
47.0, -272.0197448730469, -94.85694885253906, -6.829057216644287, -135.72096252441406, -0.06400000303983688, 0.01600000075995922, 0.9280000329017639, 0.0, 0.0, 0.0, 0.0, 0.0, 1.6218653475698156E9, 2021-05-24 16:09:07.569
47.0, -160.02096557617188, -2.492643356323242, 117.82554626464844, -39.84489440917969, -0.06400000303983688, 0.01600000075995922, 0.9280000329017639, 0.0, 0.0, 0.0, 0.0, 0.0, 1.6218653475698156E9, 2021-05-24 16:09:07.569
48.0, -69.25733947753906, 93.27497863769531, 213.93350219726562, 51.808834075927734, -0.06400000303983688, 0.01600000075995922, 0.9280000329017639, 0.0, 0.0, 0.0, 0.0, 0.0, 1.621865347570505E9, 2021-05-24 16:09:07.570
48.0, -140.40145874023438, 25.967994689941406, 131.15829467773438, -16.807109832763672, -0.06400000303983688, 0.01600000075995922, 0.9280000329017639, 0.0, 0.0, 0.0, 0.0, 0.0, 1.621865347570505E9, 2021-05-24 16:09:07.570
49.0, -267.8049011230469, -94.06035614013672, -3.1676952838897705, -138.66427612304688, -0.06400000303983688, 0.01600000075995922, 0.9280000329017639, 0.0, 0.0, 0.0, 0.0, 0.0, 1.6218653475840924E9, 2021-05-24 16:09:07.584
49.0, -162.52296447753906, 0.27114275097846985, 119.0223159790039, -41.15760040283203, -0.06400000303983688, 0.01600000075995922, 0.9280000329017639, 0.0, 0.0, 0.0, 0.0, 0.0, 1.6218653475840924E9, 2021-05-24 16:09:07.584
50.0, -70.38678741455078, 92.85984802246094, 219.008544921875, 48.76081466674805, -0.06400000303983688, 0.01600000075995922, 0.9920000433921814, 0.0, 0.0, 0.0, 0.0, 0.0, 1.621865347600263E9, 2021-05-24 16:09:07.600
50.0, -140.51365661621094, 30.867263793945312, 139.20655822753906, -17.03524398803711, -0.06400000303983688, 0.01600000075995922, 0.9920000433921814, 0.0, 0.0, 0.0, 0.0, 0.0, 1.621865347600263E9, 2021-05-24 16:09:07.600
51.0, -276.00274658203125, -92.49707794189453, -4.764632701873779, -138.1294708251953, -0.06400000303983688, 0.01600000075995922, 0.9920000433921814, 0.0, 0.0, 0.0, 0.0, 0.0, 1.6218653476147668E9, 2021-05-24 16:09:07.614
51.0, -158.96632385253906, -5.196590900421143, 123.536376953125, -39.153011322021484, -0.06400000303983688, 0.01600000075995922, 0.9920000433921814, 0.0, 0.0, 0.0, 0.0, 0.0, 1.6218653476147668E9, 2021-05-24 16:09:07.614
52.0, -71.65460968017578, 98.67913055419922, 218.41015625, 42.48152542114258, -0.06400000303983688, 0.01600000075995922, 0.9920000433921814, 0.0, 0.0, 0.0, 0.0, 0.0, 1.6218653476154642E9, 2021-05-24 16:09:07.615
52.0, -144.95291137695312, 31.55540657043457, 135.47787475585938, -9.346010208129883, -0.06400000303983688, 0.01600000075995922, 0.9920000433921814, 0.0, 0.0, 0.0, 0.0, 0.0, 1.6218653476154642E9, 2021-05-24 16:09:07.615
53.0, -267.1690979003906, -98.82872772216797, -9.106656074523926, -133.5892333984375, -0.06400000303983688, 0.01600000075995922, 0.9920000433921814, 0.0, 0.0, 0.0, 0.0, 0.0, 1.6218653476298037E9, 2021-05-24 16:09:07.629
53.0, -162.616455078125, -7.459230422973633, 118.2369384765625, -41.355812072753906, -0.06400000303983688, 0.01600000075995922, 0.9920000433921814, 0.0, 0.0, 0.0, 0.0, 0.0, 1.6218653476298037E9, 2021-05-24 16:09:07.629
54.0, -74.05188751220703, 85.63062286376953, 209.1987762451172, 53.772281646728516, -0.06400000303983688, 0.01600000075995922, 0.9920000433921814, 0.0, 0.0, 0.0, 0.0, 0.0, 1.6218653476304727E9, 2021-05-24 16:09:07.630
54.0, -135.64056396484375, 20.952789306640625, 137.49742126464844, -5.190980911254883, -0.06400000303983688, 0.01600000075995922, 0.9920000433921814, 0.0, 0.0, 0.0, 0.0, 0.0, 1.6218653476304727E9, 2021-05-24 16:09:07.630
55.0, -261.9033203125, -103.96734619140625, -8.175421714782715, -129.40054321289062, -0.06400000303983688, 0.01600000075995922, 0.9920000433921814, 0.0, 0.0, 0.0, 0.0, 0.0, 1.6218653476441665E9, 2021-05-24 16:09:07.644
55.0, -153.33029174804688, -13.532828330993652, 114.09312438964844, -37.9113655090332, -0.06400000303983688, 0.01600000075995922, 0.9920000433921814, 0.0, 0.0, 0.0, 0.0, 0.0, 1.6218653476441665E9, 2021-05-24 16:09:07.644
56.0, -57.78706359863281, 85.82135772705078, 217.1011962890625, 58.23398208618164, -0.06400000303983688, 0.01600000075995922, 0.9920000433921814, 0.0, 0.0, 0.0, 0.0, 0.0, 1.621865347659778E9, 2021-05-24 16:09:07.659
56.0, -129.44728088378906, 24.81610679626465, 136.33432006835938, -10.501639366149902, -0.06400000303983688, 0.01600000075995922, 0.9920000433921814, 0.0, 0.0, 0.0, 0.0, 0.0, 1.621865347659778E9, 2021-05-24 16:09:07.659
57.0, -271.3690185546875, -99.54678344726562, -6.092297077178955, -141.1213836669922, -0.06400000303983688, 0.01600000075995922, 0.9920000433921814, 0.0, 0.0, 0.0, 0.0, 0.0, 1.621865347660574E9, 2021-05-24 16:09:07.660
57.0, -161.442138671875, -8.046394348144531, 119.11207580566406, -44.16073989868164, -0.06400000303983688, 0.01600000075995922, 0.9920000433921814, 0.0, 0.0, 0.0, 0.0, 0.0, 1.621865347660574E9, 2021-05-24 16:09:07.660
58.0, -71.29558563232422, 80.89216613769531, 216.21484375, 47.0442008972168, -0.06400000303983688, 0.01600000075995922, 0.9920000433921814, 0.0, 0.0, 0.0, 0.0, 0.0, 1.6218653476741452E9, 2021-05-24 16:09:07.674
58.0, -135.5321044921875, 23.75397491455078, 146.424560546875, -16.747272491455078, -0.06400000303983688, 0.01600000075995922, 0.9920000433921814, 0.0, 0.0, 0.0, 0.0, 0.0, 1.6218653476741452E9, 2021-05-24 16:09:07.674
59.0, -264.7606201171875, -98.63050842285156, -2.0270256996154785, -140.156494140625, -0.06400000303983688, 0.01600000075995922, 0.9920000433921814, 0.0, 0.0, 0.0, 0.0, 0.0, 1.6218653477061744E9, 2021-05-24 16:09:07.706
59.0, -160.38748168945312, -10.241716384887695, 120.74640655517578, -43.97000503540039, -0.06400000303983688, 0.01600000075995922, 0.9920000433921814, 0.0, 0.0, 0.0, 0.0, 0.0, 1.6218653477061744E9, 2021-05-24 16:09:07.706
60.0, -65.7306137084961, 84.94247436523438, 220.72515869140625, 52.41843795776367, -0.06400000303983688, 0.01600000075995922, 1.0080000162124634, 0.0, 0.0, 0.0, 0.0, 0.0, 1.621865347706895E9, 2021-05-24 16:09:07.706
60.0, -134.4325714111328, 21.588571548461914, 140.485595703125, -14.148041725158691, -0.06400000303983688, 0.01600000075995922, 1.0080000162124634, 0.0, 0.0, 0.0, 0.0, 0.0, 1.621865347706895E9, 2021-05-24 16:09:07.706
61.0, -261.4171447753906, -98.2939224243164, 0.29919201135635376, -141.27845764160156, -0.06400000303983688, 0.01600000075995922, 1.0080000162124634, 0.0, 0.0, 0.0, 0.0, 0.0, 1.6218653477076666E9, 2021-05-24 16:09:07.707
61.0, -156.33343505859375, -9.684471130371094, 122.73603820800781, -46.38972091674805, -0.06400000303983688, 0.01600000075995922, 1.0080000162124634, 0.0, 0.0, 0.0, 0.0, 0.0, 1.6218653477076666E9, 2021-05-24 16:09:07.707
62.0, -70.34564971923828, 80.37979888916016, 219.28529357910156, 48.10259246826172, -0.06400000303983688, 0.01600000075995922, 1.0080000162124634, 0.0, 0.0, 0.0, 0.0, 0.0, 1.621865347708396E9, 2021-05-24 16:09:07.708
62.0, -136.5531005859375, 15.630911827087402, 142.4303436279297, -14.780084609985352, -0.06400000303983688, 0.01600000075995922, 1.0080000162124634, 0.0, 0.0, 0.0, 0.0, 0.0, 1.621865347708396E9, 2021-05-24 16:09:07.708
63.0, -265.4524841308594, -97.2691879272461, 0.46748748421669006, -132.78514099121094, -0.06400000303983688, 0.01600000075995922, 1.0080000162124634, 0.0, 0.0, 0.0, 0.0, 0.0, 1.6218653477191238E9, 2021-05-24 16:09:07.719
63.0, -159.43380737304688, -7.3395538330078125, 125.00615692138672, -44.841400146484375, -0.06400000303983688, 0.01600000075995922, 1.0080000162124634, 0.0, 0.0, 0.0, 0.0, 0.0, 1.6218653477191238E9, 2021-05-24 16:09:07.719
64.0, -62.951866149902344, 88.51408386230469, 224.11724853515625, 49.57985305786133, -0.06400000303983688, 0.01600000075995922, 1.0080000162124634, 0.0, 0.0, 0.0, 0.0, 0.0, 1.621865347734073E9, 2021-05-24 16:09:07.734
64.0, -127.51001739501953, 25.713682174682617, 146.61529541015625, -9.675121307373047, -0.06400000303983688, 0.01600000075995922, 1.0080000162124634, 0.0, 0.0, 0.0, 0.0, 0.0, 1.621865347734073E9, 2021-05-24 16:09:07.734
65.0, -263.4104919433594, -97.20186614990234, 1.6679953336715698, -132.96092224121094, -0.06400000303983688, 0.01600000075995922, 1.0080000162124634, 0.0, 0.0, 0.0, 0.0, 0.0, 1.6218653477498004E9, 2021-05-24 16:09:07.749
65.0, -156.7335968017578, -10.873759269714355, 118.01628112792969, -44.53099060058594, -0.06400000303983688, 0.01600000075995922, 1.0080000162124634, 0.0, 0.0, 0.0, 0.0, 0.0, 1.6218653477498004E9, 2021-05-24 16:09:07.749
66.0, -65.10978698730469, 89.9801254272461, 223.78065490722656, 49.6733512878418, -0.06400000303983688, 0.01600000075995922, 1.0080000162124634, 0.0, 0.0, 0.0, 0.0, 0.0, 1.6218653477506435E9, 2021-05-24 16:09:07.750
66.0, -140.244384765625, 25.014320373535156, 141.03163146972656, -13.968525886535645, -0.06400000303983688, 0.01600000075995922, 1.0080000162124634, 0.0, 0.0, 0.0, 0.0, 0.0, 1.6218653477506435E9, 2021-05-24 16:09:07.750
67.0, -265.9424133300781, -97.1270751953125, -1.3501038551330566, -135.3656768798828, -0.06400000303983688, 0.01600000075995922, 1.0080000162124634, 0.0, 0.0, 0.0, 0.0, 0.0, 1.6218653477641256E9, 2021-05-24 16:09:07.764
67.0, -162.09661865234375, -13.207456588745117, 119.41500854492188, -42.93778991699219, -0.06400000303983688, 0.01600000075995922, 1.0080000162124634, 0.0, 0.0, 0.0, 0.0, 0.0, 1.6218653477641256E9, 2021-05-24 16:09:07.764
68.0, -67.07697296142578, 83.8392105102539, 221.22630310058594, 53.12154006958008, -0.06400000303983688, 0.01600000075995922, 1.0080000162124634, 0.0, 0.0, 0.0, 0.0, 0.0, 1.621865347779788E9, 2021-05-24 16:09:07.779
68.0, -139.69834899902344, 24.019508361816406, 142.08253479003906, -7.214266777038574, -0.06400000303983688, 0.01600000075995922, 1.0080000162124634, 0.0, 0.0, 0.0, 0.0, 0.0, 1.621865347779788E9, 2021-05-24 16:09:07.779
69.0, -267.6477966308594, -98.15554809570312, -3.915675163269043, -129.26963806152344, -0.06400000303983688, 0.01600000075995922, 1.0080000162124634, 0.0, 0.0, 0.0, 0.0, 0.0, 1.6218653477805345E9, 2021-05-24 16:09:07.780
69.0, -156.81961059570312, -15.567333221435547, 116.78959655761719, -42.27582931518555, -0.06400000303983688, 0.01600000075995922, 1.0080000162124634, 0.0, 0.0, 0.0, 0.0, 0.0, 1.6218653477805345E9, 2021-05-24 16:09:07.780
70.0, -66.42249298095703, 81.14273834228516, 218.09600830078125, 49.39659881591797, -0.06400000303983688, 0.01600000075995922, 1.040000081062317, 0.0, 0.0, 0.0, 0.0, 0.0, 1.6218653477941496E9, 2021-05-24 16:09:07.794
70.0, -142.37611389160156, 17.104433059692383, 136.1286163330078, -8.08940315246582, -0.06400000303983688, 0.01600000075995922, 1.040000081062317, 0.0, 0.0, 0.0, 0.0, 0.0, 1.6218653477941496E9, 2021-05-24 16:09:07.794
71.0, -269.69354248046875, -104.38247680664062, -6.211973667144775, -136.44276428222656, -0.06400000303983688, 0.01600000075995922, 1.040000081062317, 0.0, 0.0, 0.0, 0.0, 0.0, 1.6218653478098435E9, 2021-05-24 16:09:07.809
71.0, -159.482421875, -10.963517189025879, 117.09626770019531, -43.19210433959961, -0.06400000303983688, 0.01600000075995922, 1.040000081062317, 0.0, 0.0, 0.0, 0.0, 0.0, 1.6218653478098435E9, 2021-05-24 16:09:07.809
72.0, -64.32440948486328, 84.75548553466797, 215.3583984375, 53.200077056884766, -0.06400000303983688, 0.01600000075995922, 1.040000081062317, 0.0, 0.0, 0.0, 0.0, 0.0, 1.621865347810524E9, 2021-05-24 16:09:07.810
72.0, -136.22398376464844, 20.975229263305664, 144.00111389160156, -7.427441120147705, -0.06400000303983688, 0.01600000075995922, 1.040000081062317, 0.0, 0.0, 0.0, 0.0, 0.0, 1.621865347810524E9, 2021-05-24 16:09:07.810
73.0, -262.7073974609375, -95.642333984375, 0.7292804718017578, -129.7670440673828, -0.06400000303983688, 0.01600000075995922, 1.040000081062317, 0.0, 0.0, 0.0, 0.0, 0.0, 1.621865347824109E9, 2021-05-24 16:09:07.824
73.0, -162.38832092285156, -14.108772277832031, 118.07238006591797, -37.784210205078125, -0.06400000303983688, 0.01600000075995922, 1.040000081062317, 0.0, 0.0, 0.0, 0.0, 0.0, 1.621865347824109E9, 2021-05-24 16:09:07.824
74.0, -66.216796875, 83.96636199951172, 222.95787048339844, 53.35715103149414, -0.06400000303983688, 0.01600000075995922, 1.040000081062317, 0.0, 0.0, 0.0, 0.0, 0.0, 1.6218653478397977E9, 2021-05-24 16:09:07.839
74.0, -135.9921112060547, 26.540199279785156, 141.9441680908203, -8.650388717651367, -0.06400000303983688, 0.01600000075995922, 1.040000081062317, 0.0, 0.0, 0.0, 0.0, 0.0, 1.6218653478397977E9, 2021-05-24 16:09:07.839
75.0, -266.00225830078125, -102.67333984375, 0.5348057150840759, -134.0081024169922, -0.06400000303983688, 0.01600000075995922, 1.040000081062317, 0.0, 0.0, 0.0, 0.0, 0.0, 1.621865347840518E9, 2021-05-24 16:09:07.840
75.0, -161.7338409423828, -13.30095386505127, 119.57582092285156, -40.67141342163086, -0.06400000303983688, 0.01600000075995922, 1.040000081062317, 0.0, 0.0, 0.0, 0.0, 0.0, 1.621865347840518E9, 2021-05-24 16:09:07.840
76.0, -61.36988830566406, 82.89301300048828, 220.89344787597656, 49.49757766723633, -0.06400000303983688, 0.01600000075995922, 1.040000081062317, 0.0, 0.0, 0.0, 0.0, 0.0, 1.62186534785418E9, 2021-05-24 16:09:07.854
76.0, -132.58880615234375, 20.36188507080078, 139.4720916748047, -11.885401725769043, -0.06400000303983688, 0.01600000075995922, 1.040000081062317, 0.0, 0.0, 0.0, 0.0, 0.0, 1.62186534785418E9, 2021-05-24 16:09:07.854
77.0, -259.9585876464844, -105.10427856445312, -2.9507811069488525, -131.47991943359375, -0.06400000303983688, 0.01600000075995922, 1.040000081062317, 0.0, 0.0, 0.0, 0.0, 0.0, 1.6218653478697937E9, 2021-05-24 16:09:07.869
77.0, -156.0117950439453, -12.351019859313965, 115.41331481933594, -37.5897331237793, -0.06400000303983688, 0.01600000075995922, 1.040000081062317, 0.0, 0.0, 0.0, 0.0, 0.0, 1.6218653478697937E9, 2021-05-24 16:09:07.869
78.0, -61.945831298828125, 79.87117004394531, 216.02035522460938, 55.148563385009766, -0.06400000303983688, 0.01600000075995922, 1.040000081062317, 0.0, 0.0, 0.0, 0.0, 0.0, 1.621865347870493E9, 2021-05-24 16:09:07.870
78.0, -137.0617218017578, 19.131458282470703, 142.63230895996094, -6.608403205871582, -0.06400000303983688, 0.01600000075995922, 1.040000081062317, 0.0, 0.0, 0.0, 0.0, 0.0, 1.621865347870493E9, 2021-05-24 16:09:07.870
79.0, -271.9486999511719, -103.52603912353516, -4.7459330558776855, -133.51817321777344, -0.06400000303983688, 0.01600000075995922, 1.040000081062317, 0.0, 0.0, 0.0, 0.0, 0.0, 1.621865347884168E9, 2021-05-24 16:09:07.884
79.0, -163.73095703125, -12.683870315551758, 118.79418182373047, -35.435550689697266, -0.06400000303983688, 0.01600000075995922, 1.040000081062317, 0.0, 0.0, 0.0, 0.0, 0.0, 1.621865347884168E9, 2021-05-24 16:09:07.884
80.0, -64.30570983886719, 80.70890808105469, 221.2599639892578, 54.868072509765625, -0.06400000303983688, 0.01600000075995922, 1.040000081062317, 0.0, 0.0, 0.0, 0.0, 0.0, 1.6218653478997996E9, 2021-05-24 16:09:07.899
80.0, -133.65093994140625, 22.60956573486328, 151.29017639160156, -3.9904732704162598, -0.06400000303983688, 0.01600000075995922, 1.040000081062317, 0.0, 0.0, 0.0, 0.0, 0.0, 1.6218653478997996E9, 2021-05-24 16:09:07.899
81.0, -267.8908996582031, -102.1460189819336, 2.554351568222046, -130.35047912597656, -0.06400000303983688, 0.01600000075995922, 1.040000081062317, 0.0, 0.0, 0.0, 0.0, 0.0, 1.6218653479005015E9, 2021-05-24 16:09:07.900
81.0, -161.92457580566406, -16.954835891723633, 118.79044342041016, -47.40323257446289, -0.06400000303983688, 0.01600000075995922, 1.040000081062317, 0.0, 0.0, 0.0, 0.0, 0.0, 1.6218653479005015E9, 2021-05-24 16:09:07.900
82.0, -63.340816497802734, 78.33781433105469, 226.74266052246094, 58.74260711669922, -0.06400000303983688, 0.01600000075995922, 1.040000081062317, 0.0, 0.0, 0.0, 0.0, 0.0, 1.6218653479141653E9, 2021-05-24 16:09:07.914
82.0, -137.8246612548828, 16.599546432495117, 145.826171875, -7.689234256744385, -0.06400000303983688, 0.01600000075995922, 1.040000081062317, 0.0, 0.0, 0.0, 0.0, 0.0, 1.6218653479141653E9, 2021-05-24 16:09:07.914
83.0, -267.068115234375, -96.4277114868164, 7.674274921417236, -132.45977783203125, -0.06400000303983688, 0.01600000075995922, 1.040000081062317, 0.0, 0.0, 0.0, 0.0, 0.0, 1.621865347930257E9, 2021-05-24 16:09:07.930
83.0, -158.26695251464844, -17.328826904296875, 115.1253433227539, -46.034427642822266, -0.06400000303983688, 0.01600000075995922, 1.040000081062317, 0.0, 0.0, 0.0, 0.0, 0.0, 1.621865347930257E9, 2021-05-24 16:09:07.930
84.0, -63.75968551635742, 78.6594467163086, 219.01602172851562, 56.244354248046875, -0.06400000303983688, 0.01600000075995922, 1.040000081062317, 0.0, 0.0, 0.0, 0.0, 0.0, 1.621865347944801E9, 2021-05-24 16:09:07.944
84.0, -131.43692016601562, 21.66337013244629, 151.4397735595703, -3.7997384071350098, -0.06400000303983688, 0.01600000075995922, 1.040000081062317, 0.0, 0.0, 0.0, 0.0, 0.0, 1.621865347944801E9, 2021-05-24 16:09:07.944
85.0, -263.90789794921875, -104.24410247802734, 1.7240939140319824, -129.48655700683594, -0.06400000303983688, 0.01600000075995922, 1.040000081062317, 0.0, 0.0, 0.0, 0.0, 0.0, 1.6218653479454896E9, 2021-05-24 16:09:07.945
85.0, -165.53358459472656, -18.862184524536133, 116.0079574584961, -43.20332336425781, -0.06400000303983688, 0.01600000075995922, 1.040000081062317, 0.0, 0.0, 0.0, 0.0, 0.0, 1.6218653479454896E9, 2021-05-24 16:09:07.945
86.0, -62.60031509399414, 85.04719543457031, 222.7334747314453, 56.04988098144531, -0.06400000303983688, 0.01600000075995922, 1.040000081062317, 0.0, 0.0, 0.0, 0.0, 0.0, 1.6218653479598532E9, 2021-05-24 16:09:07.959
86.0, -141.52342224121094, 20.133750915527344, 142.7295379638672, -6.686941146850586, -0.06400000303983688, 0.01600000075995922, 1.040000081062317, 0.0, 0.0, 0.0, 0.0, 0.0, 1.6218653479598532E9, 2021-05-24 16:09:07.959
87.0, -267.2476501464844, -102.45269012451172, 2.1018238067626953, -126.5282974243164, -0.06400000303983688, 0.01600000075995922, 1.040000081062317, 0.0, 0.0, 0.0, 0.0, 0.0, 1.6218653479605265E9, 2021-05-24 16:09:07.960
87.0, -163.27842712402344, -22.415090560913086, 107.62310028076172, -44.27293395996094, -0.06400000303983688, 0.01600000075995922, 1.040000081062317, 0.0, 0.0, 0.0, 0.0, 0.0, 1.6218653479605265E9, 2021-05-24 16:09:07.960
88.0, -62.278682708740234, 87.837158203125, 219.58822631835938, 54.916690826416016, -0.06400000303983688, 0.01600000075995922, 1.040000081062317, 0.0, 0.0, 0.0, 0.0, 0.0, 1.621865347974166E9, 2021-05-24 16:09:07.974
88.0, -135.92105102539062, 22.669403076171875, 136.9252166748047, -9.095437049865723, -0.06400000303983688, 0.01600000075995922, 1.040000081062317, 0.0, 0.0, 0.0, 0.0, 0.0, 1.621865347974166E9, 2021-05-24 16:09:07.974
89.0, -267.8235778808594, -98.43229675292969, -3.09663724899292, -132.9459686279297, -0.06400000303983688, 0.01600000075995922, 1.040000081062317, 0.0, 0.0, 0.0, 0.0, 0.0, 1.6218653479897556E9, 2021-05-24 16:09:07.989
89.0, -166.8500213623047, -16.883777618408203, 107.55204010009766, -41.7260627746582, -0.06400000303983688, 0.01600000075995922, 1.040000081062317, 0.0, 0.0, 0.0, 0.0, 0.0, 1.6218653479897556E9, 2021-05-24 16:09:07.989
90.0, -64.6273422241211, 84.48995208740234, 219.18431091308594, 55.234580993652344, -0.06400000303983688, 0.01600000075995922, 1.055999994277954, 0.0, 0.0, 0.0, 0.0, 0.0, 1.6218653479905071E9, 2021-05-24 16:09:07.990
90.0, -133.52003479003906, 25.870758056640625, 143.44386291503906, -2.5431320667266846, -0.06400000303983688, 0.01600000075995922, 1.055999994277954, 0.0, 0.0, 0.0, 0.0, 0.0, 1.6218653479905071E9, 2021-05-24 16:09:07.990
91.0, -261.5966491699219, -95.89290618896484, -1.7502732276916504, -138.290283203125, -0.06400000303983688, 0.01600000075995922, 1.055999994277954, 0.0, 0.0, 0.0, 0.0, 0.0, 1.6218653480041416E9, 2021-05-24 16:09:08.004
91.0, -161.88343811035156, -16.924917221069336, 109.19011688232422, -49.16472625732422, -0.06400000303983688, 0.01600000075995922, 1.055999994277954, 0.0, 0.0, 0.0, 0.0, 0.0, 1.6218653480041416E9, 2021-05-24 16:09:08.004
92.0, -63.30341720581055, 87.94561767578125, 218.42137145996094, 53.817161560058594, -0.06400000303983688, 0.01600000075995922, 1.055999994277954, 0.0, 0.0, 0.0, 0.0, 0.0, 1.6218653480197616E9, 2021-05-24 16:09:08.019
92.0, -136.48951721191406, 24.696430206298828, 141.6262664794922, -6.638322353363037, -0.06400000303983688, 0.01600000075995922, 1.055999994277954, 0.0, 0.0, 0.0, 0.0, 0.0, 1.6218653480197616E9, 2021-05-24 16:09:08.019
93.0, -267.32244873046875, -98.06578826904297, -1.2304270267486572, -126.98081970214844, -0.06400000303983688, 0.01600000075995922, 1.055999994277954, 0.0, 0.0, 0.0, 0.0, 0.0, 1.621865348020478E9, 2021-05-24 16:09:08.020
93.0, -165.22691345214844, -23.93722915649414, 106.8526840209961, -43.846588134765625, -0.06400000303983688, 0.01600000075995922, 1.055999994277954, 0.0, 0.0, 0.0, 0.0, 0.0, 1.621865348020478E9, 2021-05-24 16:09:08.020
94.0, -65.16214752197266, 81.3746109008789, 220.84483337402344, 58.054466247558594, -0.06400000303983688, 0.01600000075995922, 1.055999994277954, 0.0, 0.0, 0.0, 0.0, 0.0, 1.6218653480341334E9, 2021-05-24 16:09:08.034
94.0, -138.3407745361328, 23.645517349243164, 142.43409729003906, -4.345763683319092, -0.06400000303983688, 0.01600000075995922, 1.055999994277954, 0.0, 0.0, 0.0, 0.0, 0.0, 1.6218653480341334E9, 2021-05-24 16:09:08.034
95.0, -266.0284423828125, -97.65813446044922, -4.8805694580078125, -129.02281188964844, -0.06400000303983688, 0.01600000075995922, 1.055999994277954, 0.0, 0.0, 0.0, 0.0, 0.0, 1.6218653480497694E9, 2021-05-24 16:09:08.049
95.0, -162.60523986816406, -17.740215301513672, 104.97898864746094, -46.43459701538086, -0.06400000303983688, 0.01600000075995922, 1.055999994277954, 0.0, 0.0, 0.0, 0.0, 0.0, 1.6218653480497694E9, 2021-05-24 16:09:08.049
96.0, -65.56231689453125, 83.84668731689453, 213.4061737060547, 52.68022918701172, -0.06400000303983688, 0.01600000075995922, 1.055999994277954, 0.0, 0.0, 0.0, 0.0, 0.0, 1.6218653480504904E9, 2021-05-24 16:09:08.050
96.0, -132.4018096923828, 26.371904373168945, 142.45278930664062, -13.583316802978516, -0.06400000303983688, 0.01600000075995922, 1.055999994277954, 0.0, 0.0, 0.0, 0.0, 0.0, 1.6218653480504904E9, 2021-05-24 16:09:08.050
97.0, -262.62139892578125, -100.82209014892578, -5.146102428436279, -136.19219970703125, -0.06400000303983688, 0.01600000075995922, 1.055999994277954, 0.0, 0.0, 0.0, 0.0, 0.0, 1.6218653480641005E9, 2021-05-24 16:09:08.064
97.0, -163.1699676513672, -16.30783462524414, 106.73300170898438, -47.186317443847656, -0.06400000303983688, 0.01600000075995922, 1.055999994277954, 0.0, 0.0, 0.0, 0.0, 0.0, 1.6218653480641005E9, 2021-05-24 16:09:08.064
98.0, -64.42164611816406, 84.87889862060547, 218.8290252685547, 51.01223373413086, -0.06400000303983688, 0.01600000075995922, 1.055999994277954, 0.0, 0.0, 0.0, 0.0, 0.0, 1.6218653480961645E9, 2021-05-24 16:09:08.096
98.0, -134.2904510498047, 29.77521324157715, 140.8745574951172, -7.606956481933594, -0.06400000303983688, 0.01600000075995922, 1.055999994277954, 0.0, 0.0, 0.0, 0.0, 0.0, 1.6218653480961645E9, 2021-05-24 16:09:08.096
99.0, -269.81695556640625, -89.7445068359375, 3.268672466278076, -129.33322143554688, -0.06400000303983688, 0.01600000075995922, 1.055999994277954, 0.0, 0.0, 0.0, 0.0, 0.0, 1.621865348096882E9, 2021-05-24 16:09:08.096
99.0, -162.5379180908203, -13.416891098022461, 111.18722534179688, -46.408416748046875, -0.06400000303983688, 0.01600000075995922, 1.055999994277954, 0.0, 0.0, 0.0, 0.0, 0.0, 1.621865348096882E9, 2021-05-24 16:09:08.096
100.0, -63.07528305053711, 87.59780883789062, 215.96800231933594, 54.494083404541016, -0.06400000303983688, 0.01600000075995922, 1.055999994277954, 0.0, 0.0, 0.0, 0.0, 0.0, 1.6218653480977292E9, 2021-05-24 16:09:08.097
100.0, -131.6201629638672, 25.773521423339844, 137.5236053466797, -2.5767910480499268, -0.06400000303983688, 0.01600000075995922, 1.055999994277954, 0.0, 0.0, 0.0, 0.0, 0.0, 1.6218653480977292E9, 2021-05-24 16:09:08.097
0.0, -262.5765075683594, -96.81478881835938, -0.6058638095855713, -127.94384765625, -0.06400000303983688, 0.01600000075995922, 1.055999994277954, 0.0, 0.0, 0.0, 0.0, 0.0, 1.6218653480983942E9, 2021-05-24 16:09:08.098
1.0, -162.6688232421875, -20.431074142456055, 111.52755737304688, -40.16839599609375, -0.06400000303983688, 0.01600000075995922, 1.055999994277954, 0.0, 0.0, 0.0, 0.0, 0.0, 1.621865348109079E9, 2021-05-24 16:09:08.109
1.0, -69.39197540283203, 87.4837417602539, 217.17225646972656, 52.82795715332031, -0.06400000303983688, 0.01600000075995922, 1.055999994277954, 0.0, 0.0, 0.0, 0.0, 0.0, 1.621865348109079E9, 2021-05-24 16:09:08.109
2.0, -136.62042236328125, 22.682493209838867, 135.8780517578125, -3.468757152557373, -0.06400000303983688, 0.01600000075995922, 1.055999994277954, 0.0, 0.0, 0.0, 0.0, 0.0, 1.6218653481248038E9, 2021-05-24 16:09:08.124
2.0, -261.2151794433594, -97.74602508544922, 1.8175914287567139, -127.5848159790039, -0.06400000303983688, 0.01600000075995922, 1.055999994277954, 0.0, 0.0, 0.0, 0.0, 0.0, 1.6218653481248038E9, 2021-05-24 16:09:08.124
3.0, -163.60379028320312, -15.049357414245605, 114.1417465209961, -45.26213836669922, -0.06400000303983688, 0.01600000075995922, 1.055999994277954, 0.0, 0.0, 0.0, 0.0, 0.0, 1.6218653481255069E9, 2021-05-24 16:09:08.125
3.0, -65.21824645996094, 88.85628509521484, 225.30279541015625, 57.652427673339844, -0.06400000303983688, 0.01600000075995922, 1.055999994277954, 0.0, 0.0, 0.0, 0.0, 0.0, 1.6218653481255069E9, 2021-05-24 16:09:08.125
4.0, -142.02456665039062, 29.13755989074707, 144.93234252929688, -2.3617467880249023, -0.06400000303983688, 0.01600000075995922, 1.055999994277954, 0.0, 0.0, 0.0, 0.0, 0.0, 1.6218653481390765E9, 2021-05-24 16:09:08.139
4.0, -267.924560546875, -94.99346160888672, -4.506579399108887, -129.20419311523438, -0.06400000303983688, 0.01600000075995922, 1.055999994277954, 0.0, 0.0, 0.0, 0.0, 0.0, 1.6218653481390765E9, 2021-05-24 16:09:08.139
5.0, -164.38543701171875, -14.731466293334961, 106.24681854248047, -42.45721435546875, -0.06400000303983688, 0.01600000075995922, 1.055999994277954, 0.0, 0.0, 0.0, 0.0, 0.0, 1.6218653481547856E9, 2021-05-24 16:09:08.154
5.0, -62.342262268066406, 86.15233612060547, 221.34597778320312, 57.30087661743164, -0.06400000303983688, 0.01600000075995922, 1.055999994277954, 0.0, 0.0, 0.0, 0.0, 0.0, 1.6218653481547856E9, 2021-05-24 16:09:08.154
6.0, -138.52777099609375, 24.548704147338867, 139.0008544921875, -3.169565200805664, -0.06400000303983688, 0.01600000075995922, 1.055999994277954, 0.0, 0.0, 0.0, 0.0, 0.0, 1.6218653481555543E9, 2021-05-24 16:09:08.155
6.0, -267.61041259765625, -96.79608917236328, 1.290265440940857, -129.79135131835938, -0.06400000303983688, 0.01600000075995922, 1.055999994277954, 0.0, 0.0, 0.0, 0.0, 0.0, 1.6218653481555543E9, 2021-05-24 16:09:08.155
7.0, -167.93460083007812, -16.657514572143555, 112.60464477539062, -46.70948028564453, -0.06400000303983688, 0.01600000075995922, 1.055999994277954, 0.0, 0.0, 0.0, 0.0, 0.0, 1.6218653481691053E9, 2021-05-24 16:09:08.169
7.0, -71.40403747558594, 87.37902069091797, 227.24380493164062, 49.37228775024414, -0.06400000303983688, 0.01600000075995922, 1.055999994277954, 0.0, 0.0, 0.0, 0.0, 0.0, 1.6218653481691053E9, 2021-05-24 16:09:08.169
8.0, -138.93167114257812, 26.73654556274414, 148.48524475097656, -9.923824310302734, -0.06400000303983688, 0.01600000075995922, 1.055999994277954, 0.0, 0.0, 0.0, 0.0, 0.0, 1.6218653481848211E9, 2021-05-24 16:09:08.184
8.0, -267.150390625, -91.35453796386719, 6.971173286437988, -128.55345153808594, -0.06400000303983688, 0.01600000075995922, 1.055999994277954, 0.0, 0.0, 0.0, 0.0, 0.0, 1.6218653481848211E9, 2021-05-24 16:09:08.184
9.0, -169.03787231445312, -12.6146821975708, 111.28820037841797, -48.05210494995117, -0.06400000303983688, 0.01600000075995922, 1.055999994277954, 0.0, 0.0, 0.0, 0.0, 0.0, 1.621865348185537E9, 2021-05-24 16:09:08.185
9.0, -62.09917068481445, 92.9439926147461, 218.9674072265625, 51.7733039855957, -0.06400000303983688, 0.01600000075995922, 1.055999994277954, 0.0, 0.0, 0.0, 0.0, 0.0, 1.621865348185537E9, 2021-05-24 16:09:08.185
10.0, -135.33763122558594, 29.720985412597656, 143.69444274902344, -9.748048782348633, -0.06400000303983688, 0.01600000075995922, 1.055999994277954, 0.0, 0.0, 0.0, 0.0, 0.0, 1.6218653481990547E9, 2021-05-24 16:09:08.199
10.0, -265.8601379394531, -97.18504333496094, 3.9755136966705322, -129.28273010253906, -0.06400000303983688, 0.01600000075995922, 1.055999994277954, 0.0, 0.0, 0.0, 0.0, 0.0, 1.6218653481990547E9, 2021-05-24 16:09:08.199
11.0, -170.5899200439453, -18.351688385009766, 108.89466857910156, -47.71551513671875, -0.06400000303983688, 0.01600000075995922, 1.055999994277954, 0.0, 0.0, 0.0, 0.0, 0.0, 1.6218653482315896E9, 2021-05-24 16:09:08.231
11.0, -69.90434265136719, 88.42245483398438, 224.70440673828125, 56.80720901489258, -0.06400000303983688, 0.01600000075995922, 1.055999994277954, 0.0, 0.0, 0.0, 0.0, 0.0, 1.6218653482315896E9, 2021-05-24 16:09:08.231
12.0, -148.26646423339844, 22.62265396118164, 145.68032836914062, -8.016475677490234, -0.06400000303983688, 0.01600000075995922, 1.055999994277954, 0.0, 0.0, 0.0, 0.0, 0.0, 1.621865348232326E9, 2021-05-24 16:09:08.232
12.0, -279.2078552246094, -88.99092102050781, 7.221746921539307, -125.46429443359375, -0.06400000303983688, 0.01600000075995922, 1.055999994277954, 0.0, 0.0, 0.0, 0.0, 0.0, 1.621865348232326E9, 2021-05-24 16:09:08.232
13.0, -177.4152374267578, -14.144301414489746, 112.18952178955078, -42.12810134887695, -0.06400000303983688, 0.01600000075995922, 1.055999994277954, 0.0, 0.0, 0.0, 0.0, 0.0, 1.6218653482330945E9, 2021-05-24 16:09:08.233
13.0, -72.96357727050781, 85.47541046142578, 222.5614471435547, 61.30257034301758, -0.06400000303983688, 0.01600000075995922, 1.055999994277954, 0.0, 0.0, 0.0, 0.0, 0.0, 1.6218653482330945E9, 2021-05-24 16:09:08.233
14.0, -136.852294921875, 21.960693359375, 147.0603485107422, 2.8217544555664062, -0.06400000303983688, 0.01600000075995922, 1.055999994277954, 0.0, 0.0, 0.0, 0.0, 0.0, 1.6218653482448158E9, 2021-05-24 16:09:08.244
14.0, -270.83795166015625, -98.72213745117188, 6.200754165649414, -125.96543884277344, -0.06400000303983688, 0.01600000075995922, 1.055999994277954, 0.0, 0.0, 0.0, 0.0, 0.0, 1.6218653482448158E9, 2021-05-24 16:09:08.244
15.0, -174.5392608642578, -21.11173439025879, 107.3613052368164, -45.45661544799805, -0.06400000303983688, 0.01600000075995922, 1.055999994277954, 0.0, 0.0, 0.0, 0.0, 0.0, 1.6218653482455409E9, 2021-05-24 16:09:08.245
15.0, -70.5700454711914, 74.61848449707031, 222.63624572753906, 54.473514556884766, -0.06400000303983688, 0.01600000075995922, 1.055999994277954, 0.0, 0.0, 0.0, 0.0, 0.0, 1.6218653482455409E9, 2021-05-24 16:09:08.245
16.0, -137.49180603027344, 20.19171905517578, 141.10269165039062, -5.196590900421143, -0.06400000303983688, 0.01600000075995922, 1.055999994277954, 0.0, 0.0, 0.0, 0.0, 0.0, 1.6218653482591105E9, 2021-05-24 16:09:08.259
16.0, -261.9369812011719, -101.5121078491211, -0.6769219040870667, -128.1046600341797, -0.06400000303983688, 0.01600000075995922, 1.055999994277954, 0.0, 0.0, 0.0, 0.0, 0.0, 1.6218653482591105E9, 2021-05-24 16:09:08.259
17.0, -162.90817260742188, -21.324909210205078, 109.9904556274414, -39.9477424621582, -0.06400000303983688, 0.01600000075995922, 1.055999994277954, 0.0, 0.0, 0.0, 0.0, 0.0, 1.6218653482748392E9, 2021-05-24 16:09:08.274
17.0, -66.5346908569336, 81.29046630859375, 217.87161254882812, 61.61298370361328, -0.06400000303983688, 0.01600000075995922, 1.055999994277954, 0.0, 0.0, 0.0, 0.0, 0.0, 1.6218653482748392E9, 2021-05-24 16:09:08.274
18.0, -134.41014099121094, 15.344809532165527, 141.2447967529297, -3.221923828125, -0.06400000303983688, 0.01600000075995922, 1.055999994277954, 0.0, 0.0, 0.0, 0.0, 0.0, 1.6218653482755468E9, 2021-05-24 16:09:08.275
18.0, -260.9122619628906, -98.75205993652344, 0.19821469485759735, -129.39866638183594, -0.06400000303983688, 0.01600000075995922, 1.055999994277954, 0.0, 0.0, 0.0, 0.0, 0.0, 1.6218653482755468E9, 2021-05-24 16:09:08.275
19.0, -168.555419921875, -21.55678367614746, 100.22183990478516, -50.44190216064453, -0.06400000303983688, 0.01600000075995922, 1.055999994277954, 0.0, 0.0, 0.0, 0.0, 0.0, 1.621865348289194E9, 2021-05-24 16:09:08.289
19.0, -63.89057922363281, 85.2771987915039, 224.4762725830078, 60.27409744262695, -0.06400000303983688, 0.01600000075995922, 1.055999994277954, 0.0, 0.0, 0.0, 0.0, 0.0, 1.621865348289194E9, 2021-05-24 16:09:08.289
20.0, -133.3704376220703, 23.02656364440918, 147.12017822265625, -5.394805908203125, -0.06400000303983688, 0.01600000075995922, 1.040000081062317, 0.0, 0.0, 0.0, 0.0, 0.0, 1.6218653483047614E9, 2021-05-24 16:09:08.304
20.0, -263.0552062988281, -94.31279754638672, 5.748226165771484, -127.5810775756836, -0.06400000303983688, 0.01600000075995922, 1.040000081062317, 0.0, 0.0, 0.0, 0.0, 0.0, 1.6218653483047614E9, 2021-05-24 16:09:08.304
21.0, -172.4972686767578, -17.97395896911621, 112.84774017333984, -49.33863067626953, -0.06400000303983688, 0.01600000075995922, 1.040000081062317, 0.0, 0.0, 0.0, 0.0, 0.0, 1.6218653483055508E9, 2021-05-24 16:09:08.305
21.0, -68.44951629638672, 87.61089324951172, 226.23776245117188, 55.270111083984375, -0.06400000303983688, 0.01600000075995922, 1.040000081062317, 0.0, 0.0, 0.0, 0.0, 0.0, 1.6218653483055508E9, 2021-05-24 16:09:08.305
22.0, -133.9276885986328, 29.126340866088867, 143.84402465820312, -8.278268814086914, -0.06400000303983688, 0.01600000075995922, 1.040000081062317, 0.0, 0.0, 0.0, 0.0, 0.0, 1.621865348319075E9, 2021-05-24 16:09:08.319
22.0, -264.79052734375, -89.38360595703125, -0.19821469485759735, -132.1400146484375, -0.06400000303983688, 0.01600000075995922, 1.040000081062317, 0.0, 0.0, 0.0, 0.0, 0.0, 1.621865348319075E9, 2021-05-24 16:09:08.319
23.0, -172.2093048095703, -17.693466186523438, 107.84001159667969, -50.699954986572266, -0.06400000303983688, 0.01600000075995922, 1.040000081062317, 0.0, 0.0, 0.0, 0.0, 0.0, 1.6218653483347487E9, 2021-05-24 16:09:08.334
23.0, -63.69984436035156, 99.0699462890625, 222.89430236816406, 54.514652252197266, -0.06400000303983688, 0.01600000075995922, 1.040000081062317, 0.0, 0.0, 0.0, 0.0, 0.0, 1.6218653483347487E9, 2021-05-24 16:09:08.334
24.0, -137.72743225097656, 26.317676544189453, 142.011474609375, -6.849626541137695, -0.06400000303983688, 0.01600000075995922, 1.040000081062317, 0.0, 0.0, 0.0, 0.0, 0.0, 1.6218653483355017E9, 2021-05-24 16:09:08.335
24.0, -262.06787109375, -89.83613586425781, -2.1654021739959717, -133.65093994140625, -0.06400000303983688, 0.01600000075995922, 1.040000081062317, 0.0, 0.0, 0.0, 0.0, 0.0, 1.6218653483355017E9, 2021-05-24 16:09:08.335
25.0, -173.7277069091797, -23.093881607055664, 101.47096252441406, -51.115081787109375, -0.06400000303983688, 0.01600000075995922, 1.040000081062317, 0.0, 0.0, 0.0, 0.0, 0.0, 1.6218653483491251E9, 2021-05-24 16:09:08.349
25.0, -67.50706481933594, 88.85628509521484, 219.6480712890625, 55.24019241333008, -0.06400000303983688, 0.01600000075995922, 1.040000081062317, 0.0, 0.0, 0.0, 0.0, 0.0, 1.6218653483491251E9, 2021-05-24 16:09:08.349
26.0, -130.17282104492188, 25.786609649658203, 147.0678253173828, -8.353066444396973, -0.06400000303983688, 0.01600000075995922, 1.040000081062317, 0.0, 0.0, 0.0, 0.0, 0.0, 1.6218653483648255E9, 2021-05-24 16:09:08.364
26.0, -264.61102294921875, -99.37287902832031, 0.014959599822759628, -126.02902221679688, -0.06400000303983688, 0.01600000075995922, 1.040000081062317, 0.0, 0.0, 0.0, 0.0, 0.0, 1.6218653483648255E9, 2021-05-24 16:09:08.364
27.0, -169.9952850341797, -26.351335525512695, 103.91686248779297, -51.18239974975586, -0.06400000303983688, 0.01600000075995922, 1.040000081062317, 0.0, 0.0, 0.0, 0.0, 0.0, 1.621865348365512E9, 2021-05-24 16:09:08.365
27.0, -65.74931335449219, 81.2418441772461, 218.72430419921875, 57.858123779296875, -0.06400000303983688, 0.01600000075995922, 1.040000081062317, 0.0, 0.0, 0.0, 0.0, 0.0, 1.621865348365512E9, 2021-05-24 16:09:08.365
28.0, -131.6725311279297, 24.15601348876953, 139.9844512939453, -10.514728546142578, -0.06400000303983688, 0.01600000075995922, 1.040000081062317, 0.0, 0.0, 0.0, 0.0, 0.0, 1.6218653483791287E9, 2021-05-24 16:09:08.379
28.0, -260.9945373535156, -102.91830444335938, -3.66884183883667, -121.4813003540039, -0.06400000303983688, 0.01600000075995922, 1.040000081062317, 0.0, 0.0, 0.0, 0.0, 0.0, 1.6218653483791287E9, 2021-05-24 16:09:08.379
29.0, -169.00794982910156, -24.406587600708008, 106.48616790771484, -41.885009765625, -0.06400000303983688, 0.01600000075995922, 1.040000081062317, 0.0, 0.0, 0.0, 0.0, 0.0, 1.62186534839481E9, 2021-05-24 16:09:08.394
29.0, -66.48606872558594, 82.04966735839844, 220.4521484375, 55.05693817138672, -0.06400000303983688, 0.01600000075995922, 1.040000081062317, 0.0, 0.0, 0.0, 0.0, 0.0, 1.62186534839481E9, 2021-05-24 16:09:08.394
30.0, -138.7633819580078, 20.719045639038086, 140.25746154785156, -5.8735127449035645, -0.06400000303983688, 0.01600000075995922, 1.055999994277954, 0.0, 0.0, 0.0, 0.0, 0.0, 1.6218653483955173E9, 2021-05-24 16:09:08.395
30.0, -260.2427978515625, -100.62948608398438, 0.16081570088863373, -127.82042694091797, -0.06400000303983688, 0.01600000075995922, 1.055999994277954, 0.0, 0.0, 0.0, 0.0, 0.0, 1.6218653483955173E9, 2021-05-24 16:09:08.395
31.0, -165.843994140625, -28.105348587036133, 107.6156234741211, -46.24199295043945, -0.06400000303983688, 0.01600000075995922, 1.055999994277954, 0.0, 0.0, 0.0, 0.0, 0.0, 1.621865348409227E9, 2021-05-24 16:09:08.409
31.0, -59.567256927490234, 79.91792297363281, 219.01976013183594, 55.9058952331543, -0.06400000303983688, 0.01600000075995922, 1.055999994277954, 0.0, 0.0, 0.0, 0.0, 0.0, 1.621865348409227E9, 2021-05-24 16:09:08.409
32.0, -125.81584167480469, 20.37871551513672, 146.40213012695312, 1.4679107666015625, -0.06400000303983688, 0.01600000075995922, 1.055999994277954, 0.0, 0.0, 0.0, 0.0, 0.0, 1.6218653484247725E9, 2021-05-24 16:09:08.424
32.0, -254.30758666992188, -105.51005554199219, 6.073597431182861, -132.06521606445312, -0.06400000303983688, 0.01600000075995922, 1.055999994277954, 0.0, 0.0, 0.0, 0.0, 0.0, 1.6218653484247725E9, 2021-05-24 16:09:08.424
33.0, -167.73263549804688, -22.925586700439453, 105.65217590332031, -49.61164474487305, -0.06400000303983688, 0.01600000075995922, 1.055999994277954, 0.0, 0.0, 0.0, 0.0, 0.0, 1.6218653484254987E9, 2021-05-24 16:09:08.425
33.0, -61.50452423095703, 86.563720703125, 224.42018127441406, 62.136566162109375, -0.06400000303983688, 0.01600000075995922, 1.055999994277954, 0.0, 0.0, 0.0, 0.0, 0.0, 1.6218653484254987E9, 2021-05-24 16:09:08.425
34.0, -135.16932678222656, 25.741731643676758, 146.09170532226562, -4.706664085388184, -0.06400000303983688, 0.01600000075995922, 1.055999994277954, 0.0, 0.0, 0.0, 0.0, 0.0, 1.6218653484390745E9, 2021-05-24 16:09:08.439
34.0, -261.0805358886719, -98.77823638916016, -2.098083972930908, -128.9611053466797, -0.06400000303983688, 0.01600000075995922, 1.055999994277954, 0.0, 0.0, 0.0, 0.0, 0.0, 1.6218653484390745E9, 2021-05-24 16:09:08.439
35.0, -160.83253479003906, -22.78721046447754, 110.6262435913086, -46.53370666503906, -0.06400000303983688, 0.01600000075995922, 1.055999994277954, 0.0, 0.0, 0.0, 0.0, 0.0, 1.621865348454758E9, 2021-05-24 16:09:08.454
35.0, -61.82615661621094, 80.22085571289062, 223.52259826660156, 58.25081253051758, -0.06400000303983688, 0.01600000075995922, 1.055999994277954, 0.0, 0.0, 0.0, 0.0, 0.0, 1.621865348454758E9, 2021-05-24 16:09:08.454
36.0, -128.75540161132812, 24.148534774780273, 144.02354431152344, -5.2489495277404785, -0.06400000303983688, 0.01600000075995922, 1.055999994277954, 0.0, 0.0, 0.0, 0.0, 0.0, 1.6218653484555013E9, 2021-05-24 16:09:08.455
36.0, -263.358154296875, -95.06077575683594, 1.2341669797897339, -129.7128143310547, -0.06400000303983688, 0.01600000075995922, 1.055999994277954, 0.0, 0.0, 0.0, 0.0, 0.0, 1.6218653484555013E9, 2021-05-24 16:09:08.455
37.0, -169.08274841308594, -24.51130485534668, 106.06729888916016, -52.71950149536133, -0.06400000303983688, 0.01600000075995922, 1.055999994277954, 0.0, 0.0, 0.0, 0.0, 0.0, 1.621865348469136E9, 2021-05-24 16:09:08.469
37.0, -58.96513366699219, 90.68883514404297, 217.8491668701172, 59.73929214477539, -0.06400000303983688, 0.01600000075995922, 1.055999994277954, 0.0, 0.0, 0.0, 0.0, 0.0, 1.621865348469136E9, 2021-05-24 16:09:08.469
38.0, -137.2375030517578, 27.462085723876953, 143.3690643310547, -4.235436916351318, -0.06400000303983688, 0.01600000075995922, 1.055999994277954, 0.0, 0.0, 0.0, 0.0, 0.0, 1.6218653484848254E9, 2021-05-24 16:09:08.484
38.0, -258.5635986328125, -94.11083984375, 1.3725433349609375, -119.12890625, -0.06400000303983688, 0.01600000075995922, 1.055999994277954, 0.0, 0.0, 0.0, 0.0, 0.0, 1.6218653484848254E9, 2021-05-24 16:09:08.484
39.0, -170.72830200195312, -23.875520706176758, 101.39990997314453, -51.780784606933594, -0.06400000303983688, 0.01600000075995922, 1.055999994277954, 0.0, 0.0, 0.0, 0.0, 0.0, 1.6218653484855585E9, 2021-05-24 16:09:08.485
39.0, -58.64350128173828, 88.01106262207031, 222.47543334960938, 57.083961486816406, -0.06400000303983688, 0.01600000075995922, 1.055999994277954, 0.0, 0.0, 0.0, 0.0, 0.0, 1.6218653484855585E9, 2021-05-24 16:09:08.485
40.0, -135.29649353027344, 20.41237449645996, 136.5624542236328, -8.56998062133789, -0.06400000303983688, 0.01600000075995922, 1.055999994277954, 0.0, 0.0, 0.0, 0.0, 0.0, 1.621865348499133E9, 2021-05-24 16:09:08.499
40.0, -261.7312927246094, -100.20314025878906, -1.6754751205444336, -117.37863159179688, -0.06400000303983688, 0.01600000075995922, 1.055999994277954, 0.0, 0.0, 0.0, 0.0, 0.0, 1.621865348499133E9, 2021-05-24 16:09:08.499
41.0, -170.66098022460938, -24.23455238342285, 102.6976547241211, -49.682701110839844, -0.06400000303983688, 0.01600000075995922, 1.055999994277954, 0.0, 0.0, 0.0, 0.0, 0.0, 1.6218653485147772E9, 2021-05-24 16:09:08.514
41.0, -63.729766845703125, 79.61125183105469, 213.09950256347656, 55.24767303466797, -0.06400000303983688, 0.01600000075995922, 1.055999994277954, 0.0, 0.0, 0.0, 0.0, 0.0, 1.6218653485147772E9, 2021-05-24 16:09:08.514
42.0, -124.53679656982422, 27.409727096557617, 141.09146118164062, 4.033482074737549, -0.06400000303983688, 0.01600000075995922, 1.055999994277954, 0.0, 0.0, 0.0, 0.0, 0.0, 1.6218653485155032E9, 2021-05-24 16:09:08.515
42.0, -255.39964294433594, -98.81937408447266, 1.9447479248046875, -122.25171661376953, -0.06400000303983688, 0.01600000075995922, 1.055999994277954, 0.0, 0.0, 0.0, 0.0, 0.0, 1.6218653485155032E9, 2021-05-24 16:09:08.515
43.0, -168.42079162597656, -30.7344970703125, 99.451416015625, -46.170936584472656, -0.06400000303983688, 0.01600000075995922, 1.055999994277954, 0.0, 0.0, 0.0, 0.0, 0.0, 1.6218653485290833E9, 2021-05-24 16:09:08.529
43.0, -60.659305572509766, 80.66590118408203, 223.61984252929688, 55.9058952331543, -0.06400000303983688, 0.01600000075995922, 1.055999994277954, 0.0, 0.0, 0.0, 0.0, 0.0, 1.6218653485290833E9, 2021-05-24 16:09:08.529
44.0, -133.00767517089844, 17.872982025146484, 144.80519104003906, -1.3257945775985718, -0.06400000303983688, 0.01600000075995922, 1.055999994277954, 0.0, 0.0, 0.0, 0.0, 0.0, 1.621865348544796E9, 2021-05-24 16:09:08.544
44.0, -257.3780517578125, -99.09613037109375, 0.22439399361610413, -120.66973876953125, -0.06400000303983688, 0.01600000075995922, 1.055999994277954, 0.0, 0.0, 0.0, 0.0, 0.0, 1.621865348544796E9, 2021-05-24 16:09:08.544
45.0, -171.19578552246094, -25.33034324645996, 105.7531509399414, -44.30846405029297, -0.06400000303983688, 0.01600000075995922, 1.055999994277954, 0.0, 0.0, 0.0, 0.0, 0.0, 1.621865348545594E9, 2021-05-24 16:09:08.545
45.0, -65.03498840332031, 80.7818374633789, 218.55227661132812, 59.23814392089844, -0.06400000303983688, 0.01600000075995922, 1.055999994277954, 0.0, 0.0, 0.0, 0.0, 0.0, 1.621865348545594E9, 2021-05-24 16:09:08.545
46.0, -131.0816192626953, 28.2399845123291, 146.49562072753906, -2.3056483268737793, -0.06400000303983688, 0.01600000075995922, 1.055999994277954, 0.0, 0.0, 0.0, 0.0, 0.0, 1.6218653485590992E9, 2021-05-24 16:09:08.559
46.0, -263.6910095214844, -88.18309783935547, 4.405601978302002, -126.63862609863281, -0.06400000303983688, 0.01600000075995922, 1.055999994277954, 0.0, 0.0, 0.0, 0.0, 0.0, 1.6218653485590992E9, 2021-05-24 16:09:08.559
47.0, -176.6597900390625, -15.692620277404785, 107.39122772216797, -53.078529357910156, -0.06400000303983688, 0.01600000075995922, 1.055999994277954, 0.0, 0.0, 0.0, 0.0, 0.0, 1.6218653485748072E9, 2021-05-24 16:09:08.574
47.0, -65.65955352783203, 90.59159851074219, 223.05885314941406, 57.77958297729492, -0.06400000303983688, 0.01600000075995922, 1.055999994277954, 0.0, 0.0, 0.0, 0.0, 0.0, 1.6218653485748072E9, 2021-05-24 16:09:08.574
48.0, -133.0824737548828, 27.978191375732422, 144.3526611328125, -4.7852020263671875, -0.06400000303983688, 0.01600000075995922, 1.055999994277954, 0.0, 0.0, 0.0, 0.0, 0.0, 1.6218653485755584E9, 2021-05-24 16:09:08.575
48.0, -261.7051086425781, -91.69112396240234, 8.42225456237793, -125.1725845336914, -0.06400000303983688, 0.01600000075995922, 1.055999994277954, 0.0, 0.0, 0.0, 0.0, 0.0, 1.6218653485755584E9, 2021-05-24 16:09:08.575
49.0, -174.64024353027344, -18.620962142944336, 109.8857421875, -53.729270935058594, -0.06400000303983688, 0.01600000075995922, 1.055999994277954, 0.0, 0.0, 0.0, 0.0, 0.0, 1.6218653485891483E9, 2021-05-24 16:09:08.589
49.0, -70.7345962524414, 88.42245483398438, 225.0260467529297, 58.02267837524414, -0.06400000303983688, 0.01600000075995922, 1.055999994277954, 0.0, 0.0, 0.0, 0.0, 0.0, 1.6218653485891483E9, 2021-05-24 16:09:08.589
50.0, -133.74069213867188, 29.937898635864258, 145.51950073242188, -6.980523109436035, -0.06400000303983688, 0.01600000075995922, 1.055999994277954, 0.0, 0.0, 0.0, 0.0, 0.0, 1.6218653486048255E9, 2021-05-24 16:09:08.604
50.0, -263.6498718261719, -93.25814819335938, 4.057791233062744, -132.5663604736328, -0.06400000303983688, 0.01600000075995922, 1.055999994277954, 0.0, 0.0, 0.0, 0.0, 0.0, 1.6218653486048255E9, 2021-05-24 16:09:08.604
51.0, -173.46591186523438, -18.51250457763672, 98.36685180664062, -57.136322021484375, -0.06400000303983688, 0.01600000075995922, 1.055999994277954, 0.0, 0.0, 0.0, 0.0, 0.0, 1.6218653486055472E9, 2021-05-24 16:09:08.605
51.0, -68.3223648071289, 88.25789642333984, 219.0945587158203, 56.92688751220703, -0.06400000303983688, 0.01600000075995922, 1.055999994277954, 0.0, 0.0, 0.0, 0.0, 0.0, 1.6218653486055472E9, 2021-05-24 16:09:08.605
52.0, -135.92852783203125, 27.458345413208008, 139.05322265625, -5.6304192543029785, -0.06400000303983688, 0.01600000075995922, 1.055999994277954, 0.0, 0.0, 0.0, 0.0, 0.0, 1.6218653486191242E9, 2021-05-24 16:09:08.619
52.0, -259.76409912109375, -94.62320709228516, 1.1593689918518066, -124.8509521484375, -0.06400000303983688, 0.01600000075995922, 1.055999994277954, 0.0, 0.0, 0.0, 0.0, 0.0, 1.6218653486191242E9, 2021-05-24 16:09:08.619
53.0, -174.85340881347656, -27.907133102416992, 97.29723358154297, -49.929534912109375, -0.06400000303983688, 0.01600000075995922, 1.055999994277954, 0.0, 0.0, 0.0, 0.0, 0.0, 1.6218653486348405E9, 2021-05-24 16:09:08.634
53.0, -60.180599212646484, 86.14485931396484, 218.152099609375, 63.73350524902344, -0.06400000303983688, 0.01600000075995922, 1.055999994277954, 0.0, 0.0, 0.0, 0.0, 0.0, 1.6218653486348405E9, 2021-05-24 16:09:08.634
54.0, -130.7412872314453, 21.530603408813477, 141.75717163085938, 6.3073410987854, -0.06400000303983688, 0.01600000075995922, 1.055999994277954, 0.0, 0.0, 0.0, 0.0, 0.0, 1.621865348635568E9, 2021-05-24 16:09:08.635
54.0, -259.3452453613281, -101.70658111572266, -2.1130435466766357, -124.58915710449219, -0.06400000303983688, 0.01600000075995922, 1.055999994277954, 0.0, 0.0, 0.0, 0.0, 0.0, 1.621865348635568E9, 2021-05-24 16:09:08.635
55.0, -167.52320861816406, -22.626394271850586, 98.55384063720703, -47.56217956542969, -0.06400000303983688, 0.01600000075995922, 1.055999994277954, 0.0, 0.0, 0.0, 0.0, 0.0, 1.6218653486491432E9, 2021-05-24 16:09:08.649
55.0, -59.93750762939453, 85.94664001464844, 217.811767578125, 64.90035247802734, -0.06400000303983688, 0.01600000075995922, 1.055999994277954, 0.0, 0.0, 0.0, 0.0, 0.0, 1.6218653486491432E9, 2021-05-24 16:09:08.649
56.0, -132.3120574951172, 25.91002655029297, 143.44760131835938, 7.017922401428223, -0.06400000303983688, 0.01600000075995922, 1.055999994277954, 0.0, 0.0, 0.0, 0.0, 0.0, 1.6218653486649354E9, 2021-05-24 16:09:08.664
56.0, -259.31158447265625, -94.3277587890625, 5.557491302490234, -117.25147247314453, -0.06400000303983688, 0.01600000075995922, 1.055999994277954, 0.0, 0.0, 0.0, 0.0, 0.0, 1.6218653486649354E9, 2021-05-24 16:09:08.664
57.0, -176.33067321777344, -28.03803062438965, 98.21725463867188, -54.43985366821289, -0.06400000303983688, 0.01600000075995922, 1.055999994277954, 0.0, 0.0, 0.0, 0.0, 0.0, 1.6218653486655328E9, 2021-05-24 16:09:08.665
57.0, -64.30197143554688, 88.40001678466797, 226.473388671875, 58.68090057373047, -0.06400000303983688, 0.01600000075995922, 1.055999994277954, 0.0, 0.0, 0.0, 0.0, 0.0, 1.6218653486655328E9, 2021-05-24 16:09:08.665
58.0, -139.73574829101562, 27.970712661743164, 146.929443359375, -1.7671027183532715, -0.06400000303983688, 0.01600000075995922, 1.055999994277954, 0.0, 0.0, 0.0, 0.0, 0.0, 1.6218653486790926E9, 2021-05-24 16:09:08.679
58.0, -260.4522399902344, -95.97331237792969, 5.407895565032959, -125.64006805419922, -0.06400000303983688, 0.01600000075995922, 1.055999994277954, 0.0, 0.0, 0.0, 0.0, 0.0, 1.6218653486790926E9, 2021-05-24 16:09:08.679
59.0, -180.24635314941406, -23.710966110229492, 101.99455261230469, -54.29773712158203, -0.06400000303983688, 0.01600000075995922, 1.055999994277954, 0.0, 0.0, 0.0, 0.0, 0.0, 1.6218653486948116E9, 2021-05-24 16:09:08.694
59.0, -62.93316650390625, 89.84735870361328, 222.61380004882812, 61.960792541503906, -0.06400000303983688, 0.01600000075995922, 1.055999994277954, 0.0, 0.0, 0.0, 0.0, 0.0, 1.6218653486948116E9, 2021-05-24 16:09:08.694
60.0, -133.19467163085938, 28.531696319580078, 140.0330810546875, -2.675898313522339, -0.06400000303983688, 0.01600000075995922, 1.055999994277954, 0.0, 0.0, 0.0, 0.0, 0.0, 1.621865348695557E9, 2021-05-24 16:09:08.695
60.0, -258.68701171875, -90.72997283935547, 2.9545209407806396, -125.78218841552734, -0.06400000303983688, 0.01600000075995922, 1.055999994277954, 0.0, 0.0, 0.0, 0.0, 0.0, 1.621865348695557E9, 2021-05-24 16:09:08.695
61.0, -175.1301727294922, -23.17616081237793, 99.84784698486328, -52.981292724609375, -0.06400000303983688, 0.01600000075995922, 1.055999994277954, 0.0, 0.0, 0.0, 0.0, 0.0, 1.6218653487091043E9, 2021-05-24 16:09:08.709
61.0, -64.7096176147461, 88.40375518798828, 217.75193786621094, 49.96693420410156, -0.06400000303983688, 0.01600000075995922, 1.055999994277954, 0.0, 0.0, 0.0, 0.0, 0.0, 1.6218653487091043E9, 2021-05-24 16:09:08.709
62.0, -137.42449951171875, 28.165185928344727, 145.81495666503906, -5.622939586639404, -0.06400000303983688, 0.01600000075995922, 1.055999994277954, 0.0, 0.0, 0.0, 0.0, 0.0, 1.6218653487248085E9, 2021-05-24 16:09:08.724
62.0, -268.2050476074219, -96.235107421875, -0.856437087059021, -131.9754638671875, -0.06400000303983688, 0.01600000075995922, 1.055999994277954, 0.0, 0.0, 0.0, 0.0, 0.0, 1.6218653487248085E9, 2021-05-24 16:09:08.724
63.0, -181.2224578857422, -24.36170768737793, 97.04666137695312, -58.52382278442383, -0.06400000303983688, 0.01600000075995922, 1.055999994277954, 0.0, 0.0, 0.0, 0.0, 0.0, 1.6218653487255151E9, 2021-05-24 16:09:08.725
63.0, -70.33442687988281, 91.0179443359375, 216.23353576660156, 55.236454010009766, -0.06400000303983688, 0.01600000075995922, 1.055999994277954, 0.0, 0.0, 0.0, 0.0, 0.0, 1.6218653487255151E9, 2021-05-24 16:09:08.725
64.0, -132.40928649902344, 31.037429809570312, 138.39874267578125, -4.085840702056885, -0.06400000303983688, 0.01600000075995922, 1.055999994277954, 0.0, 0.0, 0.0, 0.0, 0.0, 1.6218653487391524E9, 2021-05-24 16:09:08.739
64.0, -258.8702697753906, -96.24632263183594, -3.212574005126953, -124.84346771240234, -0.06400000303983688, 0.01600000075995922, 1.055999994277954, 0.0, 0.0, 0.0, 0.0, 0.0, 1.6218653487391524E9, 2021-05-24 16:09:08.739
65.0, -178.02859497070312, -28.752351760864258, 92.53260803222656, -53.44878005981445, -0.06400000303983688, 0.01600000075995922, 1.055999994277954, 0.0, 0.0, 0.0, 0.0, 0.0, 1.6218653487548506E9, 2021-05-24 16:09:08.754
65.0, -62.86958694458008, 91.0777816772461, 219.61441040039062, 64.91531372070312, -0.06400000303983688, 0.01600000075995922, 1.055999994277954, 0.0, 0.0, 0.0, 0.0, 0.0, 1.6218653487548506E9, 2021-05-24 16:09:08.754
66.0, -134.1670379638672, 24.638460159301758, 141.5589599609375, 4.168118476867676, -0.06400000303983688, 0.01600000075995922, 1.055999994277954, 0.0, 0.0, 0.0, 0.0, 0.0, 1.6218653487555745E9, 2021-05-24 16:09:08.755
66.0, -260.47467041015625, -93.56855773925781, 0.9424548149108887, -110.26908111572266, -0.06400000303983688, 0.01600000075995922, 1.055999994277954, 0.0, 0.0, 0.0, 0.0, 0.0, 1.6218653487555745E9, 2021-05-24 16:09:08.755
67.0, -173.6865692138672, -28.576576232910156, 98.89417266845703, -45.303279876708984, -0.06400000303983688, 0.01600000075995922, 1.055999994277954, 0.0, 0.0, 0.0, 0.0, 0.0, 1.6218653487690792E9, 2021-05-24 16:09:08.769
67.0, -61.54192352294922, 84.15896606445312, 215.6949920654297, 58.19845199584961, -0.06400000303983688, 0.01600000075995922, 1.055999994277954, 0.0, 0.0, 0.0, 0.0, 0.0, 1.6218653487690792E9, 2021-05-24 16:09:08.769
68.0, -130.11672973632812, 24.593582153320312, 145.29885864257812, 6.322300910949707, -0.06400000303983688, 0.01600000075995922, 1.055999994277954, 0.0, 0.0, 0.0, 0.0, 0.0, 1.6218653487848651E9, 2021-05-24 16:09:08.784
68.0, -263.6348876953125, -98.77823638916016, 1.387502908706665, -122.43123626708984, -0.06400000303983688, 0.01600000075995922, 1.055999994277954, 0.0, 0.0, 0.0, 0.0, 0.0, 1.6218653487848651E9, 2021-05-24 16:09:08.784
69.0, -172.04849243164062, -22.933067321777344, 98.33692932128906, -43.4408073425293, -0.06400000303983688, 0.01600000075995922, 1.055999994277954, 0.0, 0.0, 0.0, 0.0, 0.0, 1.6218653487855573E9, 2021-05-24 16:09:08.785
69.0, -71.0711898803711, 88.45237731933594, 217.92022705078125, 61.60176086425781, -0.06400000303983688, 0.01600000075995922, 1.055999994277954, 0.0, 0.0, 0.0, 0.0, 0.0, 1.6218653487855573E9, 2021-05-24 16:09:08.785
70.0, -138.25100708007812, 31.463777542114258, 146.20016479492188, -0.734890341758728, -0.06400000303983688, 0.01600000075995922, 1.055999994277954, 0.0, 0.0, 0.0, 0.0, 0.0, 1.62186534879917E9, 2021-05-24 16:09:08.799
70.0, -264.20709228515625, -91.90804290771484, 2.4645941257476807, -126.94903564453125, -0.06400000303983688, 0.01600000075995922, 1.055999994277954, 0.0, 0.0, 0.0, 0.0, 0.0, 1.62186534879917E9, 2021-05-24 16:09:08.799
71.0, -173.57437133789062, -18.13103485107422, 101.80007934570312, -56.73615264892578, -0.06400000303983688, 0.01600000075995922, 1.055999994277954, 0.0, 0.0, 0.0, 0.0, 0.0, 1.6218653488148482E9, 2021-05-24 16:09:08.814
71.0, -63.628787994384766, 91.59014892578125, 221.91070556640625, 53.6993522644043, -0.06400000303983688, 0.01600000075995922, 1.055999994277954, 0.0, 0.0, 0.0, 0.0, 0.0, 1.6218653488148482E9, 2021-05-24 16:09:08.814
72.0, -135.04217529296875, 32.436153411865234, 144.84259033203125, -2.3916659355163574, -0.06400000303983688, 0.01600000075995922, 1.055999994277954, 0.0, 0.0, 0.0, 0.0, 0.0, 1.6218653488155189E9, 2021-05-24 16:09:08.815
72.0, -263.49652099609375, -86.16729736328125, 0.07479800283908844, -132.3419647216797, -0.06400000303983688, 0.01600000075995922, 1.055999994277954, 0.0, 0.0, 0.0, 0.0, 0.0, 1.6218653488155189E9, 2021-05-24 16:09:08.815
73.0, -173.5930633544922, -21.093036651611328, 97.0616226196289, -62.301124572753906, -0.06400000303983688, 0.01600000075995922, 1.055999994277954, 0.0, 0.0, 0.0, 0.0, 0.0, 1.6218653488291345E9, 2021-05-24 16:09:08.829
73.0, -61.33622741699219, 84.4731216430664, 221.72744750976562, 45.153682708740234, -0.06400000303983688, 0.01600000075995922, 1.055999994277954, 0.0, 0.0, 0.0, 0.0, 0.0, 1.6218653488291345E9, 2021-05-24 16:09:08.829
74.0, -133.7855682373047, 28.479337692260742, 141.9329376220703, -11.816213607788086, -0.06400000303983688, 0.01600000075995922, 1.055999994277954, 0.0, 0.0, 0.0, 0.0, 0.0, 1.6218653488448265E9, 2021-05-24 16:09:08.844
74.0, -260.3811950683594, -84.615234375, 4.719753742218018, -125.94673919677734, -0.06400000303983688, 0.01600000075995922, 1.055999994277954, 0.0, 0.0, 0.0, 0.0, 0.0, 1.6218653488448265E9, 2021-05-24 16:09:08.844
75.0, -175.3022003173828, -18.87153434753418, 92.59992218017578, -61.81867599487305, -0.06400000303983688, 0.01600000075995922, 1.055999994277954, 0.0, 0.0, 0.0, 0.0, 0.0, 1.6218653488455389E9, 2021-05-24 16:09:08.845
75.0, -64.52262115478516, 92.15113830566406, 216.09889221191406, 51.75834655761719, -0.06400000303983688, 0.01600000075995922, 1.055999994277954, 0.0, 0.0, 0.0, 0.0, 0.0, 1.6218653488455389E9, 2021-05-24 16:09:08.845
76.0, -131.2985382080078, 32.432411193847656, 146.40586853027344, -4.691704273223877, -0.06400000303983688, 0.01600000075995922, 1.055999994277954, 0.0, 0.0, 0.0, 0.0, 0.0, 1.621865348859124E9, 2021-05-24 16:09:08.859
76.0, -264.1285705566406, -85.42305755615234, 1.170588731765747, -127.5399398803711, -0.06400000303983688, 0.01600000075995922, 1.055999994277954, 0.0, 0.0, 0.0, 0.0, 0.0, 1.621865348859124E9, 2021-05-24 16:09:08.859
77.0, -177.6246795654297, -26.77768325805664, 95.13557434082031, -58.17227554321289, -0.06400000303983688, 0.01600000075995922, 1.055999994277954, 0.0, 0.0, 0.0, 0.0, 0.0, 1.621865348874817E9, 2021-05-24 16:09:08.874
77.0, -64.76571655273438, 91.3358383178711, 223.245849609375, 58.11617660522461, -0.06400000303983688, 0.01600000075995922, 1.055999994277954, 0.0, 0.0, 0.0, 0.0, 0.0, 1.621865348874817E9, 2021-05-24 16:09:08.874
78.0, -138.31085205078125, 31.048648834228516, 149.38656616210938, 2.6609387397766113, -0.06400000303983688, 0.01600000075995922, 1.055999994277954, 0.0, 0.0, 0.0, 0.0, 0.0, 1.621865348875517E9, 2021-05-24 16:09:08.875
78.0, -262.7934265136719, -91.4592514038086, 6.406448841094971, -113.77336883544922, -0.06400000303983688, 0.01600000075995922, 1.055999994277954, 0.0, 0.0, 0.0, 0.0, 0.0, 1.621865348875517E9, 2021-05-24 16:09:08.875
79.0, -175.83326721191406, -27.439645767211914, 98.8866958618164, -45.61368942260742, -0.06400000303983688, 0.01600000075995922, 1.055999994277954, 0.0, 0.0, 0.0, 0.0, 0.0, 1.6218653488891566E9, 2021-05-24 16:09:08.889
79.0, -63.333335876464844, 90.80477142333984, 220.75132751464844, 68.42333984375, -0.06400000303983688, 0.01600000075995922, 1.055999994277954, 0.0, 0.0, 0.0, 0.0, 0.0, 1.6218653488891566E9, 2021-05-24 16:09:08.889
80.0, -134.5111083984375, 25.715551376342773, 144.6481170654297, 3.173305034637451, -0.06400000303983688, 0.01600000075995922, 1.055999994277954, 0.0, 0.0, 0.0, 0.0, 0.0, 1.6218653489211757E9, 2021-05-24 16:09:08.921
80.0, -261.9257507324219, -87.71561431884766, 7.07589054107666, -116.00982666015625, -0.06400000303983688, 0.01600000075995922, 1.055999994277954, 0.0, 0.0, 0.0, 0.0, 0.0, 1.6218653489211757E9, 2021-05-24 16:09:08.921
81.0, -185.01846313476562, -24.414066314697266, 97.32341766357422, -44.70115280151367, -0.06400000303983688, 0.01600000075995922, 1.055999994277954, 0.0, 0.0, 0.0, 0.0, 0.0, 1.6218653489218988E9, 2021-05-24 16:09:08.921
81.0, -65.38279724121094, 90.64769744873047, 221.62646484375, 64.42538452148438, -0.06400000303983688, 0.01600000075995922, 1.055999994277954, 0.0, 0.0, 0.0, 0.0, 0.0, 1.6218653489218988E9, 2021-05-24 16:09:08.921
82.0, -135.1468963623047, 31.029949188232422, 146.83221435546875, 5.2489495277404785, -0.06400000303983688, 0.01600000075995922, 1.055999994277954, 0.0, 0.0, 0.0, 0.0, 0.0, 1.621865348922654E9, 2021-05-24 16:09:08.922
82.0, -254.63670349121094, -88.46359252929688, 2.745086669921875, -120.39299011230469, -0.06400000303983688, 0.01600000075995922, 1.055999994277954, 0.0, 0.0, 0.0, 0.0, 0.0, 1.621865348922654E9, 2021-05-24 16:09:08.922
83.0, -175.29098510742188, -20.90604019165039, 95.29264831542969, -55.890933990478516, -0.06400000303983688, 0.01600000075995922, 1.055999994277954, 0.0, 0.0, 0.0, 0.0, 0.0, 1.621865348923401E9, 2021-05-24 16:09:08.923
83.0, -66.80022430419922, 94.81768035888672, 220.95703125, 54.76522445678711, -0.06400000303983688, 0.01600000075995922, 1.055999994277954, 0.0, 0.0, 0.0, 0.0, 0.0, 1.621865348923401E9, 2021-05-24 16:09:08.923
84.0, -133.22833251953125, 36.99135208129883, 145.8785400390625, -4.287795066833496, -0.06400000303983688, 0.01600000075995922, 1.055999994277954, 0.0, 0.0, 0.0, 0.0, 0.0, 1.6218653489341218E9, 2021-05-24 16:09:08.934
84.0, -263.44415283203125, -82.41991424560547, 5.3443169593811035, -132.0427703857422, -0.06400000303983688, 0.01600000075995922, 1.055999994277954, 0.0, 0.0, 0.0, 0.0, 0.0, 1.6218653489341218E9, 2021-05-24 16:09:08.934
85.0, -182.39305114746094, -22.798429489135742, 97.33837890625, -64.5899429321289, -0.06400000303983688, 0.01600000075995922, 1.055999994277954, 0.0, 0.0, 0.0, 0.0, 0.0, 1.621865348949152E9, 2021-05-24 16:09:08.949
85.0, -60.19929885864258, 93.74059295654297, 226.4584197998047, 56.141510009765625, -0.06400000303983688, 0.01600000075995922, 1.055999994277954, 0.0, 0.0, 0.0, 0.0, 0.0, 1.621865348949152E9, 2021-05-24 16:09:08.949
86.0, -136.87098693847656, 32.86997985839844, 146.34228515625, -8.977629661560059, -0.06400000303983688, 0.01600000075995922, 1.055999994277954, 0.0, 0.0, 0.0, 0.0, 0.0, 1.621865348964754E9, 2021-05-24 16:09:08.964
86.0, -265.3253173828125, -86.1635513305664, 2.505733013153076, -130.83853149414062, -0.06400000303983688, 0.01600000075995922, 1.055999994277954, 0.0, 0.0, 0.0, 0.0, 0.0, 1.621865348964754E9, 2021-05-24 16:09:08.964
87.0, -183.08119201660156, -26.3737735748291, 91.91178131103516, -65.61093139648438, -0.06400000303983688, 0.01600000075995922, 1.055999994277954, 0.0, 0.0, 0.0, 0.0, 0.0, 1.6218653489654908E9, 2021-05-24 16:09:08.965
87.0, -62.443241119384766, 90.40460205078125, 222.3108673095703, 53.452518463134766, -0.06400000303983688, 0.01600000075995922, 1.055999994277954, 0.0, 0.0, 0.0, 0.0, 0.0, 1.6218653489654908E9, 2021-05-24 16:09:08.965
88.0, -133.86036682128906, 33.139251708984375, 147.12767028808594, -5.6827778816223145, -0.06400000303983688, 0.01600000075995922, 1.055999994277954, 0.0, 0.0, 0.0, 0.0, 0.0, 1.6218653489790757E9, 2021-05-24 16:09:08.979
88.0, -260.51580810546875, -88.50099182128906, 5.000246047973633, -123.56068420410156, -0.06400000303983688, 0.01600000075995922, 1.055999994277954, 0.0, 0.0, 0.0, 0.0, 0.0, 1.6218653489790757E9, 2021-05-24 16:09:08.979
89.0, -181.35336303710938, -24.05129623413086, 97.01300811767578, -57.192420959472656, -0.06400000303983688, 0.01600000075995922, 1.055999994277954, 0.0, 0.0, 0.0, 0.0, 0.0, 1.6218653489956524E9, 2021-05-24 16:09:08.995
89.0, -65.94752502441406, 90.76737213134766, 223.25332641601562, 64.64604187011719, -0.06400000303983688, 0.01600000075995922, 1.055999994277954, 0.0, 0.0, 0.0, 0.0, 0.0, 1.6218653489956524E9, 2021-05-24 16:09:08.995
90.0, -133.52377319335938, 33.97325134277344, 145.8411407470703, 4.30649471282959, -0.06400000303983688, 0.01600000075995922, 1.055999994277954, 0.0, 0.0, 0.0, 0.0, 0.0, 1.621865348995682E9, 2021-05-24 16:09:08.995
90.0, -259.8501281738281, -96.55299377441406, 0.5048865079879761, -115.1571273803711, -0.06400000303983688, 0.01600000075995922, 1.055999994277954, 0.0, 0.0, 0.0, 0.0, 0.0, 1.621865348995682E9, 2021-05-24 16:09:08.995
91.0, -186.0992889404297, -33.23649215698242, 92.10625457763672, -52.81673812866211, -0.06400000303983688, 0.01600000075995922, 1.055999994277954, 0.0, 0.0, 0.0, 0.0, 0.0, 1.621865349009112E9, 2021-05-24 16:09:09.009
91.0, -65.4725570678711, 81.60836029052734, 216.85435485839844, 61.190372467041016, -0.06400000303983688, 0.01600000075995922, 1.055999994277954, 0.0, 0.0, 0.0, 0.0, 0.0, 1.621865349009112E9, 2021-05-24 16:09:09.009
92.0, -138.7446746826172, 27.69021987915039, 143.3690643310547, 2.0176761150360107, -0.06400000303983688, 0.01600000075995922, 1.055999994277954, 0.0, 0.0, 0.0, 0.0, 0.0, 1.621865349024819E9, 2021-05-24 16:09:09.024
92.0, -260.55322265625, -93.20952606201172, 3.2462332248687744, -118.7474365234375, -0.06400000303983688, 0.01600000075995922, 1.055999994277954, 0.0, 0.0, 0.0, 0.0, 0.0, 1.621865349024819E9, 2021-05-24 16:09:09.024
93.0, -186.68270874023438, -31.650774002075195, 91.50787353515625, -49.248870849609375, -0.06400000303983688, 0.01600000075995922, 1.055999994277954, 0.0, 0.0, 0.0, 0.0, 0.0, 1.6218653490255718E9, 2021-05-24 16:09:09.025
93.0, -63.98407745361328, 91.12266540527344, 222.3968963623047, 61.9794921875, -0.06400000303983688, 0.01600000075995922, 1.055999994277954, 0.0, 0.0, 0.0, 0.0, 0.0, 1.6218653490255718E9, 2021-05-24 16:09:09.025
94.0, -131.2386932373047, 37.89640808105469, 145.9570770263672, -2.2607696056365967, -0.06400000303983688, 0.01600000075995922, 1.055999994277954, 0.0, 0.0, 0.0, 0.0, 0.0, 1.6218653490390992E9, 2021-05-24 16:09:09.039
94.0, -262.2660827636719, -88.72538757324219, 3.291111946105957, -126.91163635253906, -0.06400000303983688, 0.01600000075995922, 1.055999994277954, 0.0, 0.0, 0.0, 0.0, 0.0, 1.6218653490390992E9, 2021-05-24 16:09:09.039
95.0, -181.89564514160156, -25.277984619140625, 91.96040344238281, -61.58306121826172, -0.06400000303983688, 0.01600000075995922, 1.055999994277954, 0.0, 0.0, 0.0, 0.0, 0.0, 1.621865349054754E9, 2021-05-24 16:09:09.054
95.0, -67.2789306640625, 94.24547576904297, 223.10372924804688, 52.4726676940918, -0.06400000303983688, 0.01600000075995922, 1.055999994277954, 0.0, 0.0, 0.0, 0.0, 0.0, 1.621865349054754E9, 2021-05-24 16:09:09.054
96.0, -138.63621520996094, 29.507810592651367, 145.61300659179688, -12.201423645019531, -0.06400000303983688, 0.01600000075995922, 1.055999994277954, 0.0, 0.0, 0.0, 0.0, 0.0, 1.621865349055477E9, 2021-05-24 16:09:09.055
96.0, -262.3708190917969, -90.74867248535156, 8.377375602722168, -136.86351013183594, -0.06400000303983688, 0.01600000075995922, 1.055999994277954, 0.0, 0.0, 0.0, 0.0, 0.0, 1.621865349055477E9, 2021-05-24 16:09:09.055
97.0, -182.7259063720703, -24.137313842773438, 96.60161590576172, -68.61407470703125, -0.06400000303983688, 0.01600000075995922, 1.055999994277954, 0.0, 0.0, 0.0, 0.0, 0.0, 1.6218653490690844E9, 2021-05-24 16:09:09.069
97.0, -60.93231964111328, 92.1399154663086, 224.58099365234375, 52.1136360168457, -0.06400000303983688, 0.01600000075995922, 1.055999994277954, 0.0, 0.0, 0.0, 0.0, 0.0, 1.6218653490690844E9, 2021-05-24 16:09:09.069
98.0, -127.47635650634766, 31.800369262695312, 146.5030975341797, -7.507849216461182, -0.06400000303983688, 0.01600000075995922, 1.055999994277954, 0.0, 0.0, 0.0, 0.0, 0.0, 1.6218653490848165E9, 2021-05-24 16:09:09.084
98.0, -257.7183837890625, -89.37612915039062, 4.558938026428223, -129.91477966308594, -0.06400000303983688, 0.01600000075995922, 1.055999994277954, 0.0, 0.0, 0.0, 0.0, 0.0, 1.6218653490848165E9, 2021-05-24 16:09:09.084
99.0, -177.90516662597656, -26.235397338867188, 95.56566619873047, -61.88973617553711, -0.06400000303983688, 0.01600000075995922, 1.055999994277954, 0.0, 0.0, 0.0, 0.0, 0.0, 1.6218653490855691E9, 2021-05-24 16:09:09.085
99.0, -63.8980598449707, 93.0262680053711, 223.51512145996094, 55.71516036987305, -0.06400000303983688, 0.01600000075995922, 1.055999994277954, 0.0, 0.0, 0.0, 0.0, 0.0, 1.6218653490855691E9, 2021-05-24 16:09:09.085
100.0, -131.0330047607422, 36.84549331665039, 151.40237426757812, 2.3430473804473877, -0.06400000303983688, 0.01600000075995922, 1.055999994277954, 0.0, 0.0, 0.0, 0.0, 0.0, 1.6218653490997992E9, 2021-05-24 16:09:09.099
100.0, -257.66229248046875, -85.23979949951172, 17.072643280029297, -115.26184844970703, -0.06400000303983688, 0.01600000075995922, 1.055999994277954, 0.0, 0.0, 0.0, 0.0, 0.0, 1.6218653490997992E9, 2021-05-24 16:09:09.099
0.0, -185.87303161621094, -27.426555633544922, 89.0507583618164, -59.05302047729492, -0.06400000303983688, 0.01600000075995922, 1.055999994277954, 0.0, 0.0, 0.0, 0.0, 0.0, 1.6218653491005485E9, 2021-05-24 16:09:09.100
1.0, -63.2940673828125, 94.2398681640625, 223.8704071044922, 59.01188278198242, -0.06400000303983688, 0.01600000075995922, 1.055999994277954, 0.0, 0.0, 0.0, 0.0, 0.0, 1.6218653491172748E9, 2021-05-24 16:09:09.117
1.0, -134.02679443359375, 34.19577407836914, 145.98326110839844, 0.34781068563461304, -0.06400000303983688, 0.01600000075995922, 1.055999994277954, 0.0, 0.0, 0.0, 0.0, 0.0, 1.6218653491172748E9, 2021-05-24 16:09:09.117
2.0, -263.5133361816406, -87.29487609863281, 4.850650310516357, -117.8143310546875, -0.06400000303983688, 0.01600000075995922, 1.055999994277954, 0.0, 0.0, 0.0, 0.0, 0.0, 1.6218653491298172E9, 2021-05-24 16:09:09.129
2.0, -184.14894104003906, -33.04014587402344, 94.55589294433594, -58.72016906738281, -0.06400000303983688, 0.01600000075995922, 1.055999994277954, 0.0, 0.0, 0.0, 0.0, 0.0, 1.6218653491298172E9, 2021-05-24 16:09:09.129
3.0, -66.12516784667969, 90.16337585449219, 227.75242614746094, 55.11864471435547, -0.06400000303983688, 0.01600000075995922, 1.055999994277954, 0.0, 0.0, 0.0, 0.0, 0.0, 1.6218653491305516E9, 2021-05-24 16:09:09.130
3.0, -132.03717041015625, 30.88970375061035, 146.6377410888672, -5.220900535583496, -0.06400000303983688, 0.01600000075995922, 1.055999994277954, 0.0, 0.0, 0.0, 0.0, 0.0, 1.6218653491305516E9, 2021-05-24 16:09:09.130
4.0, -256.0821838378906, -92.05950927734375, 7.289064884185791, -122.855712890625, -0.06400000303983688, 0.01600000075995922, 1.055999994277954, 0.0, 0.0, 0.0, 0.0, 0.0, 1.6218653491441371E9, 2021-05-24 16:09:09.144
4.0, -174.8440704345703, -26.592557907104492, 97.59642791748047, -62.026241302490234, -0.06400000303983688, 0.01600000075995922, 1.055999994277954, 0.0, 0.0, 0.0, 0.0, 0.0, 1.6218653491441371E9, 2021-05-24 16:09:09.144
5.0, -57.744056701660156, 87.71000671386719, 222.84942626953125, 58.25642013549805, -0.06400000303983688, 0.01600000075995922, 1.055999994277954, 0.0, 0.0, 0.0, 0.0, 0.0, 1.621865349159874E9, 2021-05-24 16:09:09.159
5.0, -124.43021392822266, 32.138832092285156, 145.14178466796875, -6.12221622467041, -0.06400000303983688, 0.01600000075995922, 1.055999994277954, 0.0, 0.0, 0.0, 0.0, 0.0, 1.621865349159874E9, 2021-05-24 16:09:09.159
6.0, -258.87213134765625, -95.23841857910156, 3.9904732704162598, -133.7986602783203, -0.06400000303983688, 0.01600000075995922, 1.055999994277954, 0.0, 0.0, 0.0, 0.0, 0.0, 1.6218653491605673E9, 2021-05-24 16:09:09.160
6.0, -178.50543212890625, -33.81056594848633, 96.75495147705078, -67.01900482177734, -0.06400000303983688, 0.01600000075995922, 1.055999994277954, 0.0, 0.0, 0.0, 0.0, 0.0, 1.6218653491605673E9, 2021-05-24 16:09:09.160
7.0, -62.77796173095703, 86.99568176269531, 224.22195434570312, 47.71364212036133, -0.06400000303983688, 0.01600000075995922, 1.055999994277954, 0.0, 0.0, 0.0, 0.0, 0.0, 1.6218653491741605E9, 2021-05-24 16:09:09.174
7.0, -129.6847686767578, 23.869911193847656, 142.2321319580078, -11.93402099609375, -0.06400000303983688, 0.01600000075995922, 1.055999994277954, 0.0, 0.0, 0.0, 0.0, 0.0, 1.6218653491741605E9, 2021-05-24 16:09:09.174
8.0, -256.0148620605469, -91.30404663085938, 6.144655704498291, -134.1801300048828, -0.06400000303983688, 0.01600000075995922, 1.055999994277954, 0.0, 0.0, 0.0, 0.0, 0.0, 1.6218653491898112E9, 2021-05-24 16:09:09.189
8.0, -173.75949096679688, -31.970535278320312, 91.5976333618164, -69.41254425048828, -0.06400000303983688, 0.01600000075995922, 1.055999994277954, 0.0, 0.0, 0.0, 0.0, 0.0, 1.6218653491898112E9, 2021-05-24 16:09:09.189
9.0, -58.82114791870117, 87.86708068847656, 220.16043090820312, 49.54993438720703, -0.06400000303983688, 0.01600000075995922, 1.055999994277954, 0.0, 0.0, 0.0, 0.0, 0.0, 1.6218653491905465E9, 2021-05-24 16:09:09.190
9.0, -128.86573791503906, 29.43488311767578, 153.032958984375, -7.060931205749512, -0.06400000303983688, 0.01600000075995922, 1.055999994277954, 0.0, 0.0, 0.0, 0.0, 0.0, 1.6218653491905465E9, 2021-05-24 16:09:09.190
10.0, -254.1822967529297, -84.02994537353516, 9.985532760620117, -128.94053649902344, -0.06400000303983688, 0.01600000075995922, 1.055999994277954, 0.0, 0.0, 0.0, 0.0, 0.0, 1.6218653492040973E9, 2021-05-24 16:09:09.204
10.0, -181.61328125, -31.918176651000977, 90.30736541748047, -72.71861267089844, -0.06400000303983688, 0.01600000075995922, 1.055999994277954, 0.0, 0.0, 0.0, 0.0, 0.0, 1.6218653492040973E9, 2021-05-24 16:09:09.204
11.0, -60.922969818115234, 90.00630187988281, 223.72080993652344, 49.14228439331055, -0.06400000303983688, 0.01600000075995922, 1.055999994277954, 0.0, 0.0, 0.0, 0.0, 0.0, 1.621865349219833E9, 2021-05-24 16:09:09.219
11.0, -130.4888458251953, 30.227741241455078, 144.96226501464844, -12.629642486572266, -0.06400000303983688, 0.01600000075995922, 1.055999994277954, 0.0, 0.0, 0.0, 0.0, 0.0, 1.621865349219833E9, 2021-05-24 16:09:09.219
12.0, -253.28846740722656, -90.7468032836914, 6.571004390716553, -128.454345703125, -0.06400000303983688, 0.01600000075995922, 1.055999994277954, 0.0, 0.0, 0.0, 0.0, 0.0, 1.621865349220548E9, 2021-05-24 16:09:09.220
12.0, -180.92140197753906, -30.50075340270996, 91.76966857910156, -62.9537353515625, -0.06400000303983688, 0.01600000075995922, 1.055999994277954, 0.0, 0.0, 0.0, 0.0, 0.0, 1.621865349220548E9, 2021-05-24 16:09:09.220
13.0, -62.38527297973633, 86.1691665649414, 219.33016967773438, 55.08498764038086, -0.06400000303983688, 0.01600000075995922, 1.055999994277954, 0.0, 0.0, 0.0, 0.0, 0.0, 1.6218653492340877E9, 2021-05-24 16:09:09.234
13.0, -132.83377075195312, 29.39374351501465, 142.54627990722656, -4.1999077796936035, -0.06400000303983688, 0.01600000075995922, 1.055999994277954, 0.0, 0.0, 0.0, 0.0, 0.0, 1.6218653492340877E9, 2021-05-24 16:09:09.234
14.0, -258.8048095703125, -85.21923065185547, 3.66884183883667, -118.1546630859375, -0.06400000303983688, 0.01600000075995922, 1.055999994277954, 0.0, 0.0, 0.0, 0.0, 0.0, 1.621865349249816E9, 2021-05-24 16:09:09.249
14.0, -184.0629119873047, -32.71477508544922, 87.31170654296875, -60.91175079345703, -0.06400000303983688, 0.01600000075995922, 1.055999994277954, 0.0, 0.0, 0.0, 0.0, 0.0, 1.621865349249816E9, 2021-05-24 16:09:09.249
15.0, -69.78279113769531, 86.76754760742188, 217.8529052734375, 59.64766311645508, -0.06400000303983688, 0.01600000075995922, 1.055999994277954, 0.0, 0.0, 0.0, 0.0, 0.0, 1.6218653492508323E9, 2021-05-24 16:09:09.250
15.0, -128.55906677246094, 31.061738967895508, 147.8644256591797, 8.594289779663086, -0.06400000303983688, 0.01600000075995922, 1.055999994277954, 0.0, 0.0, 0.0, 0.0, 0.0, 1.6218653492508323E9, 2021-05-24 16:09:09.250
16.0, -260.57379150390625, -90.75801849365234, 9.132835388183594, -121.48316955566406, -0.06400000303983688, 0.01600000075995922, 1.055999994277954, 0.0, 0.0, 0.0, 0.0, 0.0, 1.62186534926415E9, 2021-05-24 16:09:09.264
16.0, -183.7412872314453, -33.42535400390625, 91.62754821777344, -65.38092803955078, -0.06400000303983688, 0.01600000075995922, 1.055999994277954, 0.0, 0.0, 0.0, 0.0, 0.0, 1.62186534926415E9, 2021-05-24 16:09:09.264
17.0, -66.63005828857422, 83.73075103759766, 220.97572326660156, 49.18342590332031, -0.06400000303983688, 0.01600000075995922, 1.055999994277954, 0.0, 0.0, 0.0, 0.0, 0.0, 1.6218653492804568E9, 2021-05-24 16:09:09.280
17.0, -133.82858276367188, 27.617290496826172, 142.7706756591797, -8.205340385437012, -0.06400000303983688, 0.01600000075995922, 1.055999994277954, 0.0, 0.0, 0.0, 0.0, 0.0, 1.6218653492804568E9, 2021-05-24 16:09:09.280
18.0, -259.56402587890625, -83.8803482055664, 9.906994819641113, -126.19918060302734, -0.06400000303983688, 0.01600000075995922, 1.055999994277954, 0.0, 0.0, 0.0, 0.0, 0.0, 1.621865349281176E9, 2021-05-24 16:09:09.281
18.0, -185.03903198242188, -29.906110763549805, 92.28202819824219, -73.49651336669922, -0.06400000303983688, 0.01600000075995922, 1.055999994277954, 0.0, 0.0, 0.0, 0.0, 0.0, 1.621865349281176E9, 2021-05-24 16:09:09.281
19.0, -64.3375015258789, 90.8253402709961, 223.3842315673828, 46.374759674072266, -0.06400000303983688, 0.01600000075995922, 1.055999994277954, 0.0, 0.0, 0.0, 0.0, 0.0, 1.62186534929415E9, 2021-05-24 16:09:09.294
19.0, -124.17964172363281, 29.47228240966797, 147.01173400878906, -10.696113586425781, -0.06400000303983688, 0.01600000075995922, 1.055999994277954, 0.0, 0.0, 0.0, 0.0, 0.0, 1.62186534929415E9, 2021-05-24 16:09:09.294
20.0, -254.24961853027344, -82.71723937988281, 5.108703136444092, -135.55267333984375, -0.06400000303983688, 0.01600000075995922, 1.055999994277954, 0.0, 0.0, 0.0, 0.0, 0.0, 1.621865349309829E9, 2021-05-24 16:09:09.309
20.0, -186.2881622314453, -28.09225845336914, 89.56312561035156, -72.71487426757812, -0.06400000303983688, 0.01600000075995922, 1.055999994277954, 0.0, 0.0, 0.0, 0.0, 0.0, 1.621865349309829E9, 2021-05-24 16:09:09.309
21.0, -56.77168273925781, 92.11560821533203, 222.55023193359375, 50.346534729003906, -0.06400000303983688, 0.01600000075995922, 1.055999994277954, 0.0, 0.0, 0.0, 0.0, 0.0, 1.621865349310546E9, 2021-05-24 16:09:09.310
21.0, -131.2031707763672, 26.005393981933594, 145.239013671875, -14.017145156860352, -0.06400000303983688, 0.01600000075995922, 1.055999994277954, 0.0, 0.0, 0.0, 0.0, 0.0, 1.621865349310546E9, 2021-05-24 16:09:09.310
22.0, -253.98782348632812, -86.70771026611328, 3.3285109996795654, -131.10218811035156, -0.06400000303983688, 0.01600000075995922, 1.055999994277954, 0.0, 0.0, 0.0, 0.0, 0.0, 1.6218653493241282E9, 2021-05-24 16:09:09.324
22.0, -183.5767364501953, -33.00648880004883, 88.12699890136719, -74.86157989501953, -0.06400000303983688, 0.01600000075995922, 1.055999994277954, 0.0, 0.0, 0.0, 0.0, 0.0, 1.6218653493241282E9, 2021-05-24 16:09:09.324
23.0, -62.164615631103516, 89.87540435791016, 223.72830200195312, 48.03901672363281, -0.06400000303983688, 0.01600000075995922, 1.055999994277954, 0.0, 0.0, 0.0, 0.0, 0.0, 1.621865349356177E9, 2021-05-24 16:09:09.356
23.0, -127.69514465332031, 31.862077713012695, 142.1087188720703, -3.4145286083221436, -0.06400000303983688, 0.01600000075995922, 1.055999994277954, 0.0, 0.0, 0.0, 0.0, 0.0, 1.621865349356177E9, 2021-05-24 16:09:09.356
24.0, -254.04019165039062, -88.1176528930664, 5.93148136138916, -124.83786010742188, -0.06400000303983688, 0.01600000075995922, 1.055999994277954, 0.0, 0.0, 0.0, 0.0, 0.0, 1.6218653493568912E9, 2021-05-24 16:09:09.356
24.0, -182.55947875976562, -36.40605545043945, 84.2562026977539, -71.56298828125, -0.06400000303983688, 0.01600000075995922, 1.055999994277954, 0.0, 0.0, 0.0, 0.0, 0.0, 1.6218653493568912E9, 2021-05-24 16:09:09.356
25.0, -62.647064208984375, 94.67369842529297, 217.97259521484375, 57.246646881103516, -0.06400000303983688, 0.01600000075995922, 1.055999994277954, 0.0, 0.0, 0.0, 0.0, 0.0, 1.621865349357655E9, 2021-05-24 16:09:09.357
25.0, -134.8046875, 28.556005477905273, 143.29052734375, -1.335144281387329, -0.06400000303983688, 0.01600000075995922, 1.055999994277954, 0.0, 0.0, 0.0, 0.0, 0.0, 1.621865349357655E9, 2021-05-24 16:09:09.357
26.0, -251.216552734375, -83.940185546875, 7.07589054107666, -121.87960052490234, -0.06400000303983688, 0.01600000075995922, 1.055999994277954, 0.0, 0.0, 0.0, 0.0, 0.0, 1.6218653493584337E9, 2021-05-24 16:09:09.358
26.0, -182.4136199951172, -32.38566207885742, 91.64250946044922, -60.94915008544922, -0.06400000303983688, 0.01600000075995922, 1.055999994277954, 0.0, 0.0, 0.0, 0.0, 0.0, 1.6218653493584337E9, 2021-05-24 16:09:09.358
27.0, -65.19393920898438, 90.49249267578125, 218.9113006591797, 62.18331527709961, -0.06400000303983688, 0.01600000075995922, 1.055999994277954, 0.0, 0.0, 0.0, 0.0, 0.0, 1.6218653493691275E9, 2021-05-24 16:09:09.369
27.0, -131.53976440429688, 32.25102615356445, 150.744140625, 6.772958755493164, -0.06400000303983688, 0.01600000075995922, 1.055999994277954, 0.0, 0.0, 0.0, 0.0, 0.0, 1.6218653493691275E9, 2021-05-24 16:09:09.369
28.0, -259.39947509765625, -88.74595642089844, 8.474613189697266, -114.85980987548828, -0.06400000303983688, 0.01600000075995922, 1.055999994277954, 0.0, 0.0, 0.0, 0.0, 0.0, 1.621865349384104E9, 2021-05-24 16:09:09.384
28.0, -186.6097869873047, -31.727441787719727, 92.52886199951172, -60.38816452026367, -0.06400000303983688, 0.01600000075995922, 1.055999994277954, 0.0, 0.0, 0.0, 0.0, 0.0, 1.621865349384104E9, 2021-05-24 16:09:09.384
29.0, -60.646217346191406, 89.28823852539062, 229.2222137451172, 56.292972564697266, -0.06400000303983688, 0.01600000075995922, 1.055999994277954, 0.0, 0.0, 0.0, 0.0, 0.0, 1.6218653493998585E9, 2021-05-24 16:09:09.399
29.0, -133.12921142578125, 32.72225570678711, 148.4291534423828, -3.257452964782715, -0.06400000303983688, 0.01600000075995922, 1.055999994277954, 0.0, 0.0, 0.0, 0.0, 0.0, 1.6218653493998585E9, 2021-05-24 16:09:09.399
30.0, -261.5162353515625, -84.82279968261719, 7.936067581176758, -129.74087524414062, -0.06400000303983688, 0.01600000075995922, 1.055999994277954, 0.0, 0.0, 0.0, 0.0, 0.0, 1.6218653494005563E9, 2021-05-24 16:09:09.400
30.0, -184.23121643066406, -25.766040802001953, 90.61029815673828, -67.65479278564453, -0.06400000303983688, 0.01600000075995922, 1.055999994277954, 0.0, 0.0, 0.0, 0.0, 0.0, 1.6218653494005563E9, 2021-05-24 16:09:09.400
31.0, -65.06678009033203, 87.81098175048828, 219.2591094970703, 43.65959167480469, -0.06400000303983688, 0.01600000075995922, 1.055999994277954, 0.0, 0.0, 0.0, 0.0, 0.0, 1.6218653494141111E9, 2021-05-24 16:09:09.414
31.0, -128.33840942382812, 35.30652618408203, 145.414794921875, -10.07529067993164, -0.06400000303983688, 0.01600000075995922, 1.055999994277954, 0.0, 0.0, 0.0, 0.0, 0.0, 1.6218653494141111E9, 2021-05-24 16:09:09.414
32.0, -253.07528686523438, -87.0517807006836, -1.791412115097046, -128.16636657714844, -0.06400000303983688, 0.01600000075995922, 1.055999994277954, 0.0, 0.0, 0.0, 0.0, 0.0, 1.62186534942978E9, 2021-05-24 16:09:09.429
32.0, -186.6658935546875, -36.1629638671875, 86.70957946777344, -79.37937927246094, -0.06400000303983688, 0.01600000075995922, 1.055999994277954, 0.0, 0.0, 0.0, 0.0, 0.0, 1.62186534942978E9, 2021-05-24 16:09:09.429
33.0, -66.09899139404297, 86.9283676147461, 217.6509552001953, 48.49154281616211, -0.06400000303983688, 0.01600000075995922, 1.055999994277954, 0.0, 0.0, 0.0, 0.0, 0.0, 1.6218653494305153E9, 2021-05-24 16:09:09.430
33.0, -130.25697326660156, 31.465648651123047, 145.43348693847656, -8.67282772064209, -0.06400000303983688, 0.01600000075995922, 1.055999994277954, 0.0, 0.0, 0.0, 0.0, 0.0, 1.6218653494305153E9, 2021-05-24 16:09:09.430
34.0, -256.87127685546875, -85.89241027832031, 9.058037757873535, -129.0789031982422, -0.06400000303983688, 0.01600000075995922, 1.055999994277954, 0.0, 0.0, 0.0, 0.0, 0.0, 1.6218653494441311E9, 2021-05-24 16:09:09.444
34.0, -180.39781188964844, -26.540199279785156, 92.71959686279297, -69.39384460449219, -0.06400000303983688, 0.01600000075995922, 1.055999994277954, 0.0, 0.0, 0.0, 0.0, 0.0, 1.6218653494441311E9, 2021-05-24 16:09:09.444
35.0, -60.76589584350586, 96.59600830078125, 221.36842346191406, 46.715091705322266, -0.06400000303983688, 0.01600000075995922, 1.055999994277954, 0.0, 0.0, 0.0, 0.0, 0.0, 1.6218653494595325E9, 2021-05-24 16:09:09.459
35.0, -126.03462982177734, 36.24898147583008, 153.40321350097656, -8.642909049987793, -0.06400000303983688, 0.01600000075995922, 1.055999994277954, 0.0, 0.0, 0.0, 0.0, 0.0, 1.6218653494595325E9, 2021-05-24 16:09:09.459
36.0, -260.0464782714844, -88.82075500488281, 7.203047275543213, -130.50381469726562, -0.06400000303983688, 0.01600000075995922, 1.055999994277954, 0.0, 0.0, 0.0, 0.0, 0.0, 1.6218653494748018E9, 2021-05-24 16:09:09.474
36.0, -187.0885009765625, -29.184309005737305, 96.57917785644531, -66.37948608398438, -0.06400000303983688, 0.01600000075995922, 1.055999994277954, 0.0, 0.0, 0.0, 0.0, 0.0, 1.6218653494748018E9, 2021-05-24 16:09:09.474
37.0, -65.80728149414062, 91.81267547607422, 223.23089599609375, 47.369571685791016, -0.06400000303983688, 0.01600000075995922, 1.055999994277954, 0.0, 0.0, 0.0, 0.0, 0.0, 1.621865349475508E9, 2021-05-24 16:09:09.475
37.0, -132.04464721679688, 33.2234001159668, 147.21742248535156, 0.3515506088733673, -0.06400000303983688, 0.01600000075995922, 1.055999994277954, 0.0, 0.0, 0.0, 0.0, 0.0, 1.621865349475508E9, 2021-05-24 16:09:09.475
38.0, -259.2723083496094, -89.9427261352539, 15.853435516357422, -112.30171966552734, -0.06400000303983688, 0.01600000075995922, 1.055999994277954, 0.0, 0.0, 0.0, 0.0, 0.0, 1.621865349489814E9, 2021-05-24 16:09:09.489
38.0, -186.71824645996094, -36.948341369628906, 95.56940460205078, -55.14108657836914, -0.06400000303983688, 0.01600000075995922, 1.055999994277954, 0.0, 0.0, 0.0, 0.0, 0.0, 1.621865349489814E9, 2021-05-24 16:09:09.489
39.0, -63.08089065551758, 87.13780212402344, 224.82781982421875, 64.46839904785156, -0.06400000303983688, 0.01600000075995922, 1.055999994277954, 0.0, 0.0, 0.0, 0.0, 0.0, 1.6218653494904997E9, 2021-05-24 16:09:09.490
39.0, -124.38533020019531, 29.446102142333984, 152.07180786132812, 8.590550422668457, -0.06400000303983688, 0.01600000075995922, 1.055999994277954, 0.0, 0.0, 0.0, 0.0, 0.0, 1.6218653494904997E9, 2021-05-24 16:09:09.490
40.0, -255.91014099121094, -85.74281311035156, 17.222238540649414, -105.02387237548828, -0.06400000303983688, 0.01600000075995922, 1.055999994277954, 0.0, 0.0, 0.0, 0.0, 0.0, 1.6218653495041745E9, 2021-05-24 16:09:09.504
40.0, -185.4653778076172, -36.00962829589844, 96.72502899169922, -50.64572525024414, -0.06400000303983688, 0.01600000075995922, 1.055999994277954, 0.0, 0.0, 0.0, 0.0, 0.0, 1.6218653495041745E9, 2021-05-24 16:09:09.504
41.0, -64.95458221435547, 87.3734130859375, 231.2118377685547, 68.83660125732422, -0.06400000303983688, 0.01600000075995922, 1.055999994277954, 0.0, 0.0, 0.0, 0.0, 0.0, 1.621865349519754E9, 2021-05-24 16:09:09.519
41.0, -136.3866729736328, 26.906709671020508, 151.78384399414062, 10.684894561767578, -0.06400000303983688, 0.01600000075995922, 1.055999994277954, 0.0, 0.0, 0.0, 0.0, 0.0, 1.621865349519754E9, 2021-05-24 16:09:09.519
42.0, -259.0516357421875, -90.62712860107422, 19.02113151550293, -114.68402862548828, -0.06400000303983688, 0.01600000075995922, 1.055999994277954, 0.0, 0.0, 0.0, 0.0, 0.0, 1.6218653495204873E9, 2021-05-24 16:09:09.520
42.0, -184.59771728515625, -40.17961502075195, 97.9068374633789, -57.687957763671875, -0.06400000303983688, 0.01600000075995922, 1.055999994277954, 0.0, 0.0, 0.0, 0.0, 0.0, 1.6218653495204873E9, 2021-05-24 16:09:09.520
43.0, -61.71208953857422, 89.08628845214844, 232.906005859375, 63.91489028930664, -0.06400000303983688, 0.01600000075995922, 1.055999994277954, 0.0, 0.0, 0.0, 0.0, 0.0, 1.6218653495341692E9, 2021-05-24 16:09:09.534
43.0, -128.03173828125, 31.129056930541992, 161.4813995361328, 8.829903602600098, -0.06400000303983688, 0.01600000075995922, 1.055999994277954, 0.0, 0.0, 0.0, 0.0, 0.0, 1.6218653495341692E9, 2021-05-24 16:09:09.534
44.0, -255.53240966796875, -90.02873992919922, 23.449172973632812, -118.72686767578125, -0.06400000303983688, 0.01600000075995922, 1.055999994277954, 0.0, 0.0, 0.0, 0.0, 0.0, 1.62186534954975E9, 2021-05-24 16:09:09.549
44.0, -178.8233184814453, -32.894290924072266, 103.0604248046875, -61.121185302734375, -0.06400000303983688, 0.01600000075995922, 1.055999994277954, 0.0, 0.0, 0.0, 0.0, 0.0, 1.62186534954975E9, 2021-05-24 16:09:09.549
45.0, -58.47333526611328, 91.21428680419922, 228.9304962158203, 54.770835876464844, -0.06400000303983688, 0.01600000075995922, 1.055999994277954, 0.0, 0.0, 0.0, 0.0, 0.0, 1.621865349550497E9, 2021-05-24 16:09:09.550
45.0, -132.03717041015625, 34.40147018432617, 154.9141387939453, -5.953920841217041, -0.06400000303983688, 0.01600000075995922, 1.055999994277954, 0.0, 0.0, 0.0, 0.0, 0.0, 1.621865349550497E9, 2021-05-24 16:09:09.550
46.0, -259.8706970214844, -86.49079895019531, 18.467626571655273, -125.03607177734375, -0.06400000303983688, 0.01600000075995922, 1.055999994277954, 0.0, 0.0, 0.0, 0.0, 0.0, 1.6218653495641713E9, 2021-05-24 16:09:09.564
46.0, -186.3704376220703, -40.60222244262695, 94.44369506835938, -69.36018371582031, -0.06400000303983688, 0.01600000075995922, 1.055999994277954, 0.0, 0.0, 0.0, 0.0, 0.0, 1.6218653495641713E9, 2021-05-24 16:09:09.564
47.0, -58.57057189941406, 90.24191284179688, 227.67388916015625, 55.043846130371094, -0.06400000303983688, 0.01600000075995922, 1.055999994277954, 0.0, 0.0, 0.0, 0.0, 0.0, 1.6218653495797677E9, 2021-05-24 16:09:09.579
47.0, -129.40802001953125, 33.227142333984375, 149.41275024414062, -3.7324202060699463, -0.06400000303983688, 0.01600000075995922, 1.055999994277954, 0.0, 0.0, 0.0, 0.0, 0.0, 1.6218653495797677E9, 2021-05-24 16:09:09.579
48.0, -255.91761779785156, -89.51637268066406, 11.156121253967285, -129.02655029296875, -0.06400000303983688, 0.01600000075995922, 1.055999994277954, 0.0, 0.0, 0.0, 0.0, 0.0, 1.6218653495804973E9, 2021-05-24 16:09:09.580
48.0, -184.582763671875, -31.218814849853516, 87.43138122558594, -68.32049560546875, -0.06400000303983688, 0.01600000075995922, 1.055999994277954, 0.0, 0.0, 0.0, 0.0, 0.0, 1.6218653495804973E9, 2021-05-24 16:09:09.580
49.0, -58.914642333984375, 90.62712860107422, 228.1600799560547, 57.695438385009766, -0.06400000303983688, 0.01600000075995922, 1.055999994277954, 0.0, 0.0, 0.0, 0.0, 0.0, 1.6218653495940704E9, 2021-05-24 16:09:09.594
49.0, -129.06768798828125, 34.37528991699219, 151.28643798828125, -0.5983840227127075, -0.06400000303983688, 0.01600000075995922, 1.055999994277954, 0.0, 0.0, 0.0, 0.0, 0.0, 1.6218653495940704E9, 2021-05-24 16:09:09.594
50.0, -262.9112243652344, -92.45219421386719, 9.334790229797363, -121.87960052490234, -0.06400000303983688, 0.01600000075995922, 1.055999994277954, 0.0, 0.0, 0.0, 0.0, 0.0, 1.6218653496097617E9, 2021-05-24 16:09:09.609
50.0, -194.04470825195312, -35.63189697265625, 86.45153045654297, -59.70002365112305, -0.06400000303983688, 0.01600000075995922, 1.055999994277954, 0.0, 0.0, 0.0, 0.0, 0.0, 1.6218653496097617E9, 2021-05-24 16:09:09.609
51.0, -68.70944213867188, 84.3403549194336, 227.89454650878906, 65.6015853881836, -0.06400000303983688, 0.01600000075995922, 1.055999994277954, 0.0, 0.0, 0.0, 0.0, 0.0, 1.6218653496105099E9, 2021-05-24 16:09:09.610
51.0, -134.393310546875, 28.63828468322754, 150.4150390625, 11.354336738586426, -0.06400000303983688, 0.01600000075995922, 1.055999994277954, 0.0, 0.0, 0.0, 0.0, 0.0, 1.6218653496105099E9, 2021-05-24 16:09:09.610
52.0, -258.53179931640625, -93.32733154296875, 15.528064727783203, -111.32933807373047, -0.06400000303983688, 0.01600000075995922, 1.055999994277954, 0.0, 0.0, 0.0, 0.0, 0.0, 1.6218653496240804E9, 2021-05-24 16:09:09.624
52.0, -190.21505737304688, -45.75206756591797, 88.48977661132812, -62.03746032714844, -0.06400000303983688, 0.01600000075995922, 1.055999994277954, 0.0, 0.0, 0.0, 0.0, 0.0, 1.6218653496240804E9, 2021-05-24 16:09:09.624
53.0, -61.96266174316406, 86.15794372558594, 224.96994018554688, 61.786888122558594, -0.06400000303983688, 0.01600000075995922, 1.055999994277954, 0.0, 0.0, 0.0, 0.0, 0.0, 1.6218653496562164E9, 2021-05-24 16:09:09.656
53.0, -124.89395904541016, 27.134843826293945, 153.3882598876953, 4.831950664520264, -0.06400000303983688, 0.01600000075995922, 1.055999994277954, 0.0, 0.0, 0.0, 0.0, 0.0, 1.6218653496562164E9, 2021-05-24 16:09:09.656
54.0, -253.99156188964844, -91.32274627685547, 14.566910743713379, -114.19784545898438, -0.06400000303983688, 0.01600000075995922, 1.055999994277954, 0.0, 0.0, 0.0, 0.0, 0.0, 1.6218653496569052E9, 2021-05-24 16:09:09.656
54.0, -187.5073699951172, -38.54528045654297, 97.12894439697266, -64.4197769165039, -0.06400000303983688, 0.01600000075995922, 1.055999994277954, 0.0, 0.0, 0.0, 0.0, 0.0, 1.6218653496569052E9, 2021-05-24 16:09:09.656
55.0, -58.18536376953125, 87.8969955444336, 237.80528259277344, 56.89509963989258, -0.06400000303983688, 0.01600000075995922, 1.055999994277954, 0.0, 0.0, 0.0, 0.0, 0.0, 1.6218653496576793E9, 2021-05-24 16:09:09.657
55.0, -129.94656372070312, 26.760854721069336, 154.33819580078125, -5.950181007385254, -0.06400000303983688, 0.01600000075995922, 1.055999994277954, 0.0, 0.0, 0.0, 0.0, 0.0, 1.6218653496576793E9, 2021-05-24 16:09:09.657
56.0, -252.81723022460938, -84.7667007446289, 15.43830680847168, -125.45494079589844, -0.06400000303983688, 0.01600000075995922, 1.055999994277954, 0.0, 0.0, 0.0, 0.0, 0.0, 1.6218653496584153E9, 2021-05-24 16:09:09.658
56.0, -192.07003784179688, -37.30363082885742, 86.64974212646484, -73.2945556640625, -0.06400000303983688, 0.01600000075995922, 1.055999994277954, 0.0, 0.0, 0.0, 0.0, 0.0, 1.6218653496584153E9, 2021-05-24 16:09:09.658
57.0, -65.01815795898438, 91.39754486083984, 226.97079467773438, 52.21274185180664, -0.06400000303983688, 0.01600000075995922, 1.055999994277954, 0.0, 0.0, 0.0, 0.0, 0.0, 1.6218653496847963E9, 2021-05-24 16:09:09.684
57.0, -126.31512451171875, 34.48748779296875, 151.55197143554688, -5.49017333984375, -0.06400000303983688, 0.01600000075995922, 1.055999994277954, 0.0, 0.0, 0.0, 0.0, 0.0, 1.6218653496847963E9, 2021-05-24 16:09:09.684
58.0, -254.01400756835938, -87.42577362060547, 16.373281478881836, -121.50934600830078, -0.06400000303983688, 0.01600000075995922, 1.055999994277954, 0.0, 0.0, 0.0, 0.0, 0.0, 1.621865349685529E9, 2021-05-24 16:09:09.685
58.0, -189.76626586914062, -42.46843338012695, 87.55105590820312, -75.02239227294922, -0.06400000303983688, 0.01600000075995922, 1.055999994277954, 0.0, 0.0, 0.0, 0.0, 0.0, 1.621865349685529E9, 2021-05-24 16:09:09.685
59.0, -60.930450439453125, 84.24311828613281, 227.01193237304688, 47.91559982299805, -0.06400000303983688, 0.01600000075995922, 1.055999994277954, 0.0, 0.0, 0.0, 0.0, 0.0, 1.6218653496997838E9, 2021-05-24 16:09:09.699
59.0, -121.45325469970703, 27.53501319885254, 152.71881103515625, -5.2620391845703125, -0.06400000303983688, 0.01600000075995922, 1.055999994277954, 0.0, 0.0, 0.0, 0.0, 0.0, 1.6218653496997838E9, 2021-05-24 16:09:09.699
60.0, -247.85438537597656, -88.8357162475586, 14.933420181274414, -123.6822280883789, -0.06400000303983688, 0.01600000075995922, 1.055999994277954, 0.0, 0.0, 0.0, 0.0, 0.0, 1.621865349700559E9, 2021-05-24 16:09:09.700
60.0, -183.62161254882812, -39.5662727355957, 86.51884460449219, -73.36187744140625, -0.06400000303983688, 0.01600000075995922, 1.055999994277954, 0.0, 0.0, 0.0, 0.0, 0.0, 1.621865349700559E9, 2021-05-24 16:09:09.700
61.0, -56.85770034790039, 84.29173278808594, 225.4000244140625, 58.211544036865234, -0.06400000303983688, 0.01600000075995922, 1.055999994277954, 0.0, 0.0, 0.0, 0.0, 0.0, 1.6218653497143693E9, 2021-05-24 16:09:09.714
61.0, -124.6209487915039, 28.443809509277344, 153.8033905029297, -2.636629581451416, -0.06400000303983688, 0.01600000075995922, 1.055999994277954, 0.0, 0.0, 0.0, 0.0, 0.0, 1.6218653497143693E9, 2021-05-24 16:09:09.714
62.0, -251.1417694091797, -85.70541381835938, 19.72049331665039, -122.48171997070312, -0.06400000303983688, 0.01600000075995922, 1.055999994277954, 0.0, 0.0, 0.0, 0.0, 0.0, 1.621865349729884E9, 2021-05-24 16:09:09.729
62.0, -188.63681030273438, -40.45262908935547, 87.37902069091797, -73.70220947265625, -0.06400000303983688, 0.01600000075995922, 1.055999994277954, 0.0, 0.0, 0.0, 0.0, 0.0, 1.621865349729884E9, 2021-05-24 16:09:09.729
63.0, -60.62751770019531, 81.55413055419922, 231.49606323242188, 62.84901809692383, -0.06400000303983688, 0.01600000075995922, 1.055999994277954, 0.0, 0.0, 0.0, 0.0, 0.0, 1.6218653497305093E9, 2021-05-24 16:09:09.730
63.0, -129.75582885742188, 29.517160415649414, 152.04563903808594, 7.341423511505127, -0.06400000303983688, 0.01600000075995922, 1.055999994277954, 0.0, 0.0, 0.0, 0.0, 0.0, 1.6218653497305093E9, 2021-05-24 16:09:09.730
64.0, -251.58306884765625, -86.51697540283203, 20.16554069519043, -108.74507141113281, -0.06400000303983688, 0.01600000075995922, 1.055999994277954, 0.0, 0.0, 0.0, 0.0, 0.0, 1.6218653497441E9, 2021-05-24 16:09:09.744
64.0, -186.08619689941406, -42.27021789550781, 91.04786682128906, -54.01537322998047, -0.06400000303983688, 0.01600000075995922, 1.055999994277954, 0.0, 0.0, 0.0, 0.0, 0.0, 1.6218653497441E9, 2021-05-24 16:09:09.744
65.0, -57.6430778503418, 88.61132049560547, 226.44346618652344, 68.13349914550781, -0.06400000303983688, 0.01600000075995922, 1.055999994277954, 0.0, 0.0, 0.0, 0.0, 0.0, 1.6218653497597957E9, 2021-05-24 16:09:09.759
65.0, -124.27313232421875, 32.7708740234375, 157.79759216308594, 13.98348617553711, -0.06400000303983688, 0.01600000075995922, 1.055999994277954, 0.0, 0.0, 0.0, 0.0, 0.0, 1.6218653497597957E9, 2021-05-24 16:09:09.759
66.0, -255.9325714111328, -82.67610168457031, 20.939699172973633, -109.97924041748047, -0.06400000303983688, 0.01600000075995922, 1.055999994277954, 0.0, 0.0, 0.0, 0.0, 0.0, 1.6218653497605307E9, 2021-05-24 16:09:09.760
66.0, -187.1595458984375, -43.193973541259766, 90.30362701416016, -59.1390380859375, -0.06400000303983688, 0.01600000075995922, 1.055999994277954, 0.0, 0.0, 0.0, 0.0, 0.0, 1.6218653497605307E9, 2021-05-24 16:09:09.760
67.0, -58.66033172607422, 86.04200744628906, 236.0138702392578, 64.55815124511719, -0.06400000303983688, 0.01600000075995922, 1.055999994277954, 0.0, 0.0, 0.0, 0.0, 0.0, 1.6218653497741501E9, 2021-05-24 16:09:09.774
67.0, -125.2455062866211, 25.478069305419922, 161.6571807861328, 6.552304744720459, -0.06400000303983688, 0.01600000075995922, 1.055999994277954, 0.0, 0.0, 0.0, 0.0, 0.0, 1.6218653497741501E9, 2021-05-24 16:09:09.774
68.0, -244.95970153808594, -86.24396514892578, 21.16783332824707, -116.52780151367188, -0.06400000303983688, 0.01600000075995922, 1.055999994277954, 0.0, 0.0, 0.0, 0.0, 0.0, 1.621865349789778E9, 2021-05-24 16:09:09.789
68.0, -188.41615295410156, -42.10566329956055, 87.33788299560547, -72.19129180908203, -0.06400000303983688, 0.01600000075995922, 1.055999994277954, 0.0, 0.0, 0.0, 0.0, 0.0, 1.621865349789778E9, 2021-05-24 16:09:09.789
69.0, -56.109718322753906, 87.48561096191406, 231.61573791503906, 57.90861129760742, -0.06400000303983688, 0.01600000075995922, 1.055999994277954, 0.0, 0.0, 0.0, 0.0, 0.0, 1.6218653497904904E9, 2021-05-24 16:09:09.790
69.0, -133.42840576171875, 29.69667625427246, 158.8111114501953, -6.844017028808594, -0.06400000303983688, 0.01600000075995922, 1.055999994277954, 0.0, 0.0, 0.0, 0.0, 0.0, 1.6218653497904904E9, 2021-05-24 16:09:09.790
70.0, -251.4783477783203, -87.20511627197266, 14.34251594543457, -122.04789733886719, -0.06400000303983688, 0.01600000075995922, 1.055999994277954, 0.0, 0.0, 0.0, 0.0, 0.0, 1.6218653498205075E9, 2021-05-24 16:09:09.820
70.0, -181.70303344726562, -37.50558853149414, 91.00298309326172, -74.192138671875, -0.06400000303983688, 0.01600000075995922, 1.055999994277954, 0.0, 0.0, 0.0, 0.0, 0.0, 1.6218653498205075E9, 2021-05-24 16:09:09.820
71.0, -52.238922119140625, 82.47040557861328, 226.4172821044922, 48.8505744934082, -0.06400000303983688, 0.01600000075995922, 1.055999994277954, 0.0, 0.0, 0.0, 0.0, 0.0, 1.6218653498212192E9, 2021-05-24 16:09:09.821
71.0, -114.73265075683594, 34.19203567504883, 162.69313049316406, -4.903008937835693, -0.06400000303983688, 0.01600000075995922, 1.055999994277954, 0.0, 0.0, 0.0, 0.0, 0.0, 1.6218653498212192E9, 2021-05-24 16:09:09.821
72.0, -241.7733154296875, -95.82184600830078, 15.505624771118164, -126.38617706298828, -0.06400000303983688, 0.01600000075995922, 1.055999994277954, 0.0, 0.0, 0.0, 0.0, 0.0, 1.6218653498219757E9, 2021-05-24 16:09:09.821
72.0, -180.54367065429688, -50.2474250793457, 86.20843505859375, -74.34172821044922, -0.06400000303983688, 0.01600000075995922, 1.055999994277954, 0.0, 0.0, 0.0, 0.0, 0.0, 1.6218653498219757E9, 2021-05-24 16:09:09.821
73.0, -45.548240661621094, 82.1338119506836, 228.29470825195312, 53.84333801269531, -0.06400000303983688, 0.01600000075995922, 1.055999994277954, 0.0, 0.0, 0.0, 0.0, 0.0, 1.6218653498340783E9, 2021-05-24 16:09:09.834
73.0, -114.22776794433594, 25.261154174804688, 158.88217163085938, -3.938114643096924, -0.06400000303983688, 0.01600000075995922, 1.055999994277954, 0.0, 0.0, 0.0, 0.0, 0.0, 1.6218653498340783E9, 2021-05-24 16:09:09.834
74.0, -240.77476501464844, -98.68660736083984, 14.394874572753906, -127.3735122680664, -0.06400000303983688, 0.01600000075995922, 1.055999994277954, 0.0, 0.0, 0.0, 0.0, 0.0, 1.6218653498498335E9, 2021-05-24 16:09:09.849
