Sample Index, EXG Channel 0, EXG Channel 1, EXG Channel 2, EXG Channel 3, Accel Channel 0, Accel Channel 1, Accel Channel 2, Other, Other, Other, Other, Other, Timestamp, Timestamp (Formatted)
0.0, -118.71751403808594, -27.843555450439453, 165.39894104003906, 80.8229751586914, 0.0, 0.0, 0.0, 0.0, 0.0, 0.0, 0.0, 0.0, 1.6218605920878956E9, 2021-05-24 14:49:52.087
1.0, -174.39340209960938, -64.30384063720703, 105.26883697509766, 39.71399688720703, 0.0, 0.0, 0.0, 0.0, 0.0, 0.0, 0.0, 0.0, 1.621860592101422E9, 2021-05-24 14:49:52.101
1.0, -265.45623779296875, -140.39584350585938, 11.711496353149414, -39.74391555786133, 0.0, 0.0, 0.0, 0.0, 0.0, 0.0, 0.0, 0.0, 1.621860592101422E9, 2021-05-24 14:49:52.101
2.0, -140.41641235351562, -56.77915954589844, 140.21446228027344, 54.056514739990234, -0.08000000566244125, 0.0, 0.0, 0.0, 0.0, 0.0, 0.0, 0.0, 1.621860592117891E9, 2021-05-24 14:49:52.117
2.0, -114.3567886352539, -17.360614776611328, 177.4152374267578, 85.21736145019531, -0.08000000566244125, 0.0, 0.0, 0.0, 0.0, 0.0, 0.0, 0.0, 1.621860592117891E9, 2021-05-24 14:49:52.117
3.0, -180.1603240966797, -64.36741638183594, 107.49781799316406, 34.1378059387207, -0.08000000566244125, 0.0, 0.0, 0.0, 0.0, 0.0, 0.0, 0.0, 1.6218605921483102E9, 2021-05-24 14:49:52.148
3.0, -258.2831115722656, -134.90567016601562, 20.87799072265625, -41.52410888671875, -0.08000000566244125, 0.0, 0.0, 0.0, 0.0, 0.0, 0.0, 0.0, 1.6218605921483102E9, 2021-05-24 14:49:52.148
4.0, -141.82261657714844, -52.23518371582031, 138.4567108154297, 52.437137603759766, -0.08000000566244125, 0.0, 0.0, 0.0, 0.0, 0.0, 0.0, 0.0, 1.621860592148968E9, 2021-05-24 14:49:52.148
4.0, -112.01935577392578, -18.875274658203125, 168.1365509033203, 85.86810302734375, -0.08000000566244125, 0.0, 0.0, 0.0, 0.0, 0.0, 0.0, 0.0, 1.621860592148968E9, 2021-05-24 14:49:52.148
5.0, -172.3289794921875, -63.125770568847656, 101.910400390625, 36.52760314941406, -0.08000000566244125, 0.0, 0.0, 0.0, 0.0, 0.0, 0.0, 0.0, 1.6218605921498373E9, 2021-05-24 14:49:52.149
5.0, -262.17633056640625, -139.10557556152344, 12.309880256652832, -42.8068962097168, -0.08000000566244125, 0.0, 0.0, 0.0, 0.0, 0.0, 0.0, 0.0, 1.6218605921498373E9, 2021-05-24 14:49:52.149
6.0, -136.8148956298828, -53.18885803222656, 137.5628662109375, 53.03926086425781, -0.08000000566244125, 0.0, 0.0, 0.0, 0.0, 0.0, 0.0, 0.0, 1.6218605921506088E9, 2021-05-24 14:49:52.150
6.0, -112.849609375, -12.693220138549805, 170.8031005859375, 89.39856719970703, -0.08000000566244125, 0.0, 0.0, 0.0, 0.0, 0.0, 0.0, 0.0, 1.6218605921506088E9, 2021-05-24 14:49:52.150
7.0, -184.5322723388672, -59.32977294921875, 106.91812896728516, 36.927772521972656, -0.08000000566244125, 0.0, 0.0, 0.0, 0.0, 0.0, 0.0, 0.0, 1.621860592161277E9, 2021-05-24 14:49:52.161
7.0, -264.72320556640625, -138.48101806640625, 17.785093307495117, -46.79362869262695, -0.08000000566244125, 0.0, 0.0, 0.0, 0.0, 0.0, 0.0, 0.0, 1.621860592161277E9, 2021-05-24 14:49:52.161
8.0, -142.7388916015625, -52.422176361083984, 146.8116455078125, 53.8283805847168, -0.08000000566244125, 0.0, 0.0, 0.0, 0.0, 0.0, 0.0, 0.0, 1.621860592176942E9, 2021-05-24 14:49:52.176
8.0, -114.16605377197266, -13.78153133392334, 168.5105438232422, 85.68484497070312, -0.08000000566244125, 0.0, 0.0, 0.0, 0.0, 0.0, 0.0, 0.0, 1.621860592176942E9, 2021-05-24 14:49:52.176
9.0, -181.9031219482422, -62.463809967041016, 106.00933074951172, 32.342655181884766, -0.08000000566244125, 0.0, 0.0, 0.0, 0.0, 0.0, 0.0, 0.0, 1.6218605921776028E9, 2021-05-24 14:49:52.177
9.0, -269.8244323730469, -128.88442993164062, 25.119037628173828, -41.48670959472656, -0.08000000566244125, 0.0, 0.0, 0.0, 0.0, 0.0, 0.0, 0.0, 1.6218605921776028E9, 2021-05-24 14:49:52.177
10.0, -145.5475616455078, -44.68058395385742, 143.3335418701172, 52.736328125, -0.08000000566244125, 0.0, 1.055999994277954, 0.0, 0.0, 0.0, 0.0, 0.0, 1.6218605921912508E9, 2021-05-24 14:49:52.191
10.0, -134.38021850585938, -10.524078369140625, 169.28843688964844, 81.83274841308594, -0.08000000566244125, 0.0, 1.055999994277954, 0.0, 0.0, 0.0, 0.0, 0.0, 1.6218605921912508E9, 2021-05-24 14:49:52.191
11.0, -182.28085327148438, -60.623779296875, 111.51072692871094, 37.728111267089844, -0.08000000566244125, 0.0, 1.055999994277954, 0.0, 0.0, 0.0, 0.0, 0.0, 1.6218605922234647E9, 2021-05-24 14:49:52.223
11.0, -265.0897216796875, -132.7327880859375, 21.154743194580078, -43.80170822143555, -0.08000000566244125, 0.0, 1.055999994277954, 0.0, 0.0, 0.0, 0.0, 0.0, 1.6218605922234647E9, 2021-05-24 14:49:52.223
12.0, -143.965576171875, -48.34194564819336, 134.1820068359375, 45.67165756225586, -0.08000000566244125, 0.0, 1.055999994277954, 0.0, 0.0, 0.0, 0.0, 0.0, 1.6218605922241037E9, 2021-05-24 14:49:52.224
12.0, -112.56537628173828, -14.346256256103516, 168.7162322998047, 79.19612121582031, -0.08000000566244125, 0.0, 1.055999994277954, 0.0, 0.0, 0.0, 0.0, 0.0, 1.6218605922241037E9, 2021-05-24 14:49:52.224
13.0, -171.8502655029297, -57.60942077636719, 107.21358489990234, 37.00257110595703, -0.08000000566244125, 0.0, 1.055999994277954, 0.0, 0.0, 0.0, 0.0, 0.0, 1.6218605922247305E9, 2021-05-24 14:49:52.224
13.0, -259.3489685058594, -133.1927947998047, 26.727195739746094, -45.43230438232422, -0.08000000566244125, 0.0, 1.055999994277954, 0.0, 0.0, 0.0, 0.0, 0.0, 1.6218605922247305E9, 2021-05-24 14:49:52.224
14.0, -148.79005432128906, -59.296112060546875, 142.533203125, 46.16158676147461, -0.08000000566244125, 0.0, 1.055999994277954, 0.0, 0.0, 0.0, 0.0, 0.0, 1.62186059222547E9, 2021-05-24 14:49:52.225
14.0, -116.6418685913086, -17.383054733276367, 171.50245666503906, 88.23545837402344, -0.08000000566244125, 0.0, 1.055999994277954, 0.0, 0.0, 0.0, 0.0, 0.0, 1.62186059222547E9, 2021-05-24 14:49:52.225
15.0, -180.83724975585938, -63.92237091064453, 109.12093353271484, 36.67720031738281, -0.08000000566244125, 0.0, 1.055999994277954, 0.0, 0.0, 0.0, 0.0, 0.0, 1.621860592236164E9, 2021-05-24 14:49:52.236
15.0, -268.70245361328125, -138.2005157470703, 19.913097381591797, -39.639198303222656, -0.08000000566244125, 0.0, 1.055999994277954, 0.0, 0.0, 0.0, 0.0, 0.0, 1.621860592236164E9, 2021-05-24 14:49:52.236
16.0, -145.7457733154297, -50.8401985168457, 137.13278198242188, 51.719078063964844, -0.08000000566244125, 0.0, 1.055999994277954, 0.0, 0.0, 0.0, 0.0, 0.0, 1.6218605922512865E9, 2021-05-24 14:49:52.251
16.0, -114.74574279785156, -14.069503784179688, 168.67135620117188, 91.02168273925781, -0.08000000566244125, 0.0, 1.055999994277954, 0.0, 0.0, 0.0, 0.0, 0.0, 1.6218605922512865E9, 2021-05-24 14:49:52.251
17.0, -179.78634643554688, -59.02684020996094, 110.08956146240234, 40.73125076293945, -0.08000000566244125, 0.0, 1.055999994277954, 0.0, 0.0, 0.0, 0.0, 0.0, 1.6218605922668211E9, 2021-05-24 14:49:52.266
17.0, -263.37310791015625, -138.32394409179688, 19.987895965576172, -41.655006408691406, -0.08000000566244125, 0.0, 1.055999994277954, 0.0, 0.0, 0.0, 0.0, 0.0, 1.6218605922668211E9, 2021-05-24 14:49:52.266
18.0, -139.2607879638672, -53.30853271484375, 137.28237915039062, 45.45100402832031, -0.08000000566244125, 0.0, 1.055999994277954, 0.0, 0.0, 0.0, 0.0, 0.0, 1.6218605922675602E9, 2021-05-24 14:49:52.267
18.0, -115.60218048095703, -17.79070472717285, 167.05198669433594, 74.955078125, -0.08000000566244125, 0.0, 1.055999994277954, 0.0, 0.0, 0.0, 0.0, 0.0, 1.6218605922675602E9, 2021-05-24 14:49:52.267
19.0, -178.3464813232422, -68.04747772216797, 105.1566390991211, 21.631582260131836, -0.08000000566244125, 0.0, 1.055999994277954, 0.0, 0.0, 0.0, 0.0, 0.0, 1.621860592281268E9, 2021-05-24 14:49:52.281
19.0, -269.6748352050781, -140.56788635253906, 15.339200019836426, -52.728851318359375, -0.08000000566244125, 0.0, 1.055999994277954, 0.0, 0.0, 0.0, 0.0, 0.0, 1.621860592281268E9, 2021-05-24 14:49:52.281
20.0, -147.0547332763672, -58.47333526611328, 138.3819122314453, 43.30430221557617, -0.08000000566244125, 0.0, 1.055999994277954, 0.0, 0.0, 0.0, 0.0, 0.0, 1.6218605922969942E9, 2021-05-24 14:49:52.296
20.0, -115.73681640625, -22.992904663085938, 169.55397033691406, 76.33135986328125, -0.08000000566244125, 0.0, 1.055999994277954, 0.0, 0.0, 0.0, 0.0, 0.0, 1.6218605922969942E9, 2021-05-24 14:49:52.296
21.0, -177.13848876953125, -74.30059051513672, 102.83789825439453, 24.705780029296875, -0.08000000566244125, 0.0, 1.055999994277954, 0.0, 0.0, 0.0, 0.0, 0.0, 1.6218605922976372E9, 2021-05-24 14:49:52.297
21.0, -263.11505126953125, -141.2111358642578, 17.80379295349121, -44.747901916503906, -0.08000000566244125, 0.0, 1.055999994277954, 0.0, 0.0, 0.0, 0.0, 0.0, 1.6218605922976372E9, 2021-05-24 14:49:52.297
22.0, -145.7046356201172, -59.438228607177734, 140.6183624267578, 53.70496368408203, -0.08000000566244125, 0.0, 1.055999994277954, 0.0, 0.0, 0.0, 0.0, 0.0, 1.6218605923112235E9, 2021-05-24 14:49:52.311
22.0, -116.23796081542969, -23.045263290405273, 159.79656982421875, 85.37069702148438, -0.08000000566244125, 0.0, 1.055999994277954, 0.0, 0.0, 0.0, 0.0, 0.0, 1.6218605923112235E9, 2021-05-24 14:49:52.311
23.0, -175.0965118408203, -71.17403411865234, 105.69892120361328, 37.64583206176758, -0.08000000566244125, 0.0, 1.055999994277954, 0.0, 0.0, 0.0, 0.0, 0.0, 1.6218605923269272E9, 2021-05-24 14:49:52.326
23.0, -262.82708740234375, -144.88372802734375, 10.600746154785156, -37.99738311767578, -0.08000000566244125, 0.0, 1.055999994277954, 0.0, 0.0, 0.0, 0.0, 0.0, 1.6218605923269272E9, 2021-05-24 14:49:52.326
24.0, -144.1787567138672, -56.337852478027344, 138.6698760986328, 53.52170944213867, -0.08000000566244125, 0.0, 1.055999994277954, 0.0, 0.0, 0.0, 0.0, 0.0, 1.621860592327643E9, 2021-05-24 14:49:52.327
24.0, -120.30696868896484, -24.230812072753906, 169.52780151367188, 86.33184814453125, -0.08000000566244125, 0.0, 1.055999994277954, 0.0, 0.0, 0.0, 0.0, 0.0, 1.621860592327643E9, 2021-05-24 14:49:52.327
25.0, -178.3464813232422, -66.0877685546875, 108.83296203613281, 34.956844329833984, -0.08000000566244125, 0.0, 1.055999994277954, 0.0, 0.0, 0.0, 0.0, 0.0, 1.6218605923412635E9, 2021-05-24 14:49:52.341
25.0, -269.6785888671875, -142.83799743652344, 14.486502647399902, -47.44811248779297, -0.08000000566244125, 0.0, 1.055999994277954, 0.0, 0.0, 0.0, 0.0, 0.0, 1.6218605923412635E9, 2021-05-24 14:49:52.341
26.0, -141.91610717773438, -56.41638946533203, 140.9287872314453, 49.6845703125, -0.08000000566244125, 0.0, 1.055999994277954, 0.0, 0.0, 0.0, 0.0, 0.0, 1.621860592356901E9, 2021-05-24 14:49:52.356
26.0, -119.47671508789062, -18.246971130371094, 167.04075622558594, 83.77001953125, -0.08000000566244125, 0.0, 1.055999994277954, 0.0, 0.0, 0.0, 0.0, 0.0, 1.621860592356901E9, 2021-05-24 14:49:52.356
27.0, -173.5145263671875, -67.232177734375, 104.70410919189453, 29.481632232666016, -0.08000000566244125, 0.0, 1.055999994277954, 0.0, 0.0, 0.0, 0.0, 0.0, 1.621860592357676E9, 2021-05-24 14:49:52.357
27.0, -269.42425537109375, -144.7790069580078, 12.98680305480957, -49.325538635253906, -0.08000000566244125, 0.0, 1.055999994277954, 0.0, 0.0, 0.0, 0.0, 0.0, 1.621860592357676E9, 2021-05-24 14:49:52.357
28.0, -148.82745361328125, -55.290679931640625, 137.89198303222656, 46.849727630615234, -0.08000000566244125, 0.0, 1.055999994277954, 0.0, 0.0, 0.0, 0.0, 0.0, 1.6218605923712263E9, 2021-05-24 14:49:52.371
28.0, -117.14675903320312, -13.100869178771973, 173.49583435058594, 85.04906463623047, -0.08000000566244125, 0.0, 1.055999994277954, 0.0, 0.0, 0.0, 0.0, 0.0, 1.6218605923712263E9, 2021-05-24 14:49:52.371
29.0, -176.59620666503906, -59.61400604248047, 105.30623626708984, 37.900146484375, -0.08000000566244125, 0.0, 1.055999994277954, 0.0, 0.0, 0.0, 0.0, 0.0, 1.62186059238692E9, 2021-05-24 14:49:52.386
29.0, -273.26513671875, -141.166259765625, 17.19045066833496, -44.98725509643555, -0.08000000566244125, 0.0, 1.055999994277954, 0.0, 0.0, 0.0, 0.0, 0.0, 1.62186059238692E9, 2021-05-24 14:49:52.386
30.0, -142.6940155029297, -56.0573616027832, 141.26162719726562, 56.17703628540039, -0.08000000566244125, 0.0, 1.055999994277954, 0.0, 0.0, 0.0, 0.0, 0.0, 1.6218605923877447E9, 2021-05-24 14:49:52.387
30.0, -110.55705261230469, -18.13103485107422, 170.79562377929688, 81.75794982910156, -0.08000000566244125, 0.0, 1.055999994277954, 0.0, 0.0, 0.0, 0.0, 0.0, 1.6218605923877447E9, 2021-05-24 14:49:52.387
31.0, -167.31378173828125, -62.14591598510742, 112.48310089111328, 38.93235778808594, -0.08000000566244125, 0.0, 1.055999994277954, 0.0, 0.0, 0.0, 0.0, 0.0, 1.6218605924011369E9, 2021-05-24 14:49:52.401
31.0, -263.006591796875, -136.8840789794922, 18.72380828857422, -38.580806732177734, -0.08000000566244125, 0.0, 1.055999994277954, 0.0, 0.0, 0.0, 0.0, 0.0, 1.6218605924011369E9, 2021-05-24 14:49:52.401
32.0, -137.08790588378906, -55.26824188232422, 138.5389862060547, 57.90487289428711, -0.08000000566244125, 0.0, 1.055999994277954, 0.0, 0.0, 0.0, 0.0, 0.0, 1.6218605924169276E9, 2021-05-24 14:49:52.416
32.0, -115.27306365966797, -21.814836502075195, 162.96426391601562, 85.06776428222656, -0.08000000566244125, 0.0, 1.055999994277954, 0.0, 0.0, 0.0, 0.0, 0.0, 1.6218605924169276E9, 2021-05-24 14:49:52.416
33.0, -173.2602081298828, -64.07196807861328, 110.68421173095703, 39.48960494995117, -0.08000000566244125, 0.0, 1.055999994277954, 0.0, 0.0, 0.0, 0.0, 0.0, 1.6218605924176412E9, 2021-05-24 14:49:52.417
33.0, -260.4485168457031, -142.25083923339844, 26.656137466430664, -37.38029861450195, -0.08000000566244125, 0.0, 1.055999994277954, 0.0, 0.0, 0.0, 0.0, 0.0, 1.6218605924176412E9, 2021-05-24 14:49:52.417
34.0, -142.42100524902344, -57.628116607666016, 134.84396362304688, 55.08498764038086, -0.08000000566244125, 0.0, 1.055999994277954, 0.0, 0.0, 0.0, 0.0, 0.0, 1.62186059244764E9, 2021-05-24 14:49:52.447
34.0, -118.97930908203125, -23.23973846435547, 173.3873748779297, 83.29505157470703, -0.08000000566244125, 0.0, 1.055999994277954, 0.0, 0.0, 0.0, 0.0, 0.0, 1.62186059244764E9, 2021-05-24 14:49:52.447
35.0, -174.94691467285156, -69.48360443115234, 109.77167510986328, 44.11212158203125, -0.08000000566244125, 0.0, 1.055999994277954, 0.0, 0.0, 0.0, 0.0, 0.0, 1.6218605924484265E9, 2021-05-24 14:49:52.448
35.0, -263.2646484375, -135.8294219970703, 17.57939910888672, -39.972049713134766, -0.08000000566244125, 0.0, 1.055999994277954, 0.0, 0.0, 0.0, 0.0, 0.0, 1.6218605924484265E9, 2021-05-24 14:49:52.448
36.0, -143.1166229248047, -56.244354248046875, 140.39398193359375, 52.332420349121094, -0.08000000566244125, 0.0, 1.055999994277954, 0.0, 0.0, 0.0, 0.0, 0.0, 1.6218605924491868E9, 2021-05-24 14:49:52.449
36.0, -110.71038818359375, -14.510811805725098, 166.00106811523438, 87.76797485351562, -0.08000000566244125, 0.0, 1.055999994277954, 0.0, 0.0, 0.0, 0.0, 0.0, 1.6218605924491868E9, 2021-05-24 14:49:52.449
37.0, -177.40028381347656, -64.38985443115234, 112.68131256103516, 35.03164291381836, -0.08000000566244125, 0.0, 1.055999994277954, 0.0, 0.0, 0.0, 0.0, 0.0, 1.6218605924613495E9, 2021-05-24 14:49:52.461
37.0, -269.14752197265625, -140.20884704589844, 20.500261306762695, -43.753089904785156, -0.08000000566244125, 0.0, 1.055999994277954, 0.0, 0.0, 0.0, 0.0, 0.0, 1.6218605924613495E9, 2021-05-24 14:49:52.461
38.0, -148.65167236328125, -55.679630279541016, 137.88824462890625, 53.764801025390625, -0.08000000566244125, 0.0, 1.055999994277954, 0.0, 0.0, 0.0, 0.0, 0.0, 1.6218605924769475E9, 2021-05-24 14:49:52.476
38.0, -114.53630828857422, -16.792150497436523, 168.16273498535156, 91.8631591796875, -0.08000000566244125, 0.0, 1.055999994277954, 0.0, 0.0, 0.0, 0.0, 0.0, 1.6218605924769475E9, 2021-05-24 14:49:52.476
39.0, -181.63758850097656, -65.6015853881836, 106.95552825927734, 38.45738983154297, -0.08000000566244125, 0.0, 1.055999994277954, 0.0, 0.0, 0.0, 0.0, 0.0, 1.6218605924776473E9, 2021-05-24 14:49:52.477
39.0, -271.54852294921875, -141.30838012695312, 13.308433532714844, -39.27642822265625, -0.08000000566244125, 0.0, 1.055999994277954, 0.0, 0.0, 0.0, 0.0, 0.0, 1.6218605924776473E9, 2021-05-24 14:49:52.477
40.0, -146.92384338378906, -55.473934173583984, 138.4155731201172, 56.83525848388672, -0.08000000566244125, 0.0, 1.055999994277954, 0.0, 0.0, 0.0, 0.0, 0.0, 1.621860592491404E9, 2021-05-24 14:49:52.491
40.0, -115.7592544555664, -24.578622817993164, 166.1469268798828, 89.78377532958984, -0.08000000566244125, 0.0, 1.055999994277954, 0.0, 0.0, 0.0, 0.0, 0.0, 1.621860592491404E9, 2021-05-24 14:49:52.491
41.0, -172.96102905273438, -66.88063049316406, 110.06338500976562, 39.57188034057617, -0.08000000566244125, 0.0, 1.055999994277954, 0.0, 0.0, 0.0, 0.0, 0.0, 1.6218605925069566E9, 2021-05-24 14:49:52.506
41.0, -268.2349853515625, -144.30029296875, 14.01153564453125, -46.939483642578125, -0.08000000566244125, 0.0, 1.055999994277954, 0.0, 0.0, 0.0, 0.0, 0.0, 1.6218605925069566E9, 2021-05-24 14:49:52.506
42.0, -145.23715209960938, -59.1091194152832, 138.8381805419922, 48.805694580078125, -0.08000000566244125, 0.0, 1.055999994277954, 0.0, 0.0, 0.0, 0.0, 0.0, 1.6218605925076241E9, 2021-05-24 14:49:52.507
42.0, -116.43617248535156, -16.60515594482422, 166.88742065429688, 88.86002349853516, -0.08000000566244125, 0.0, 1.055999994277954, 0.0, 0.0, 0.0, 0.0, 0.0, 1.6218605925076241E9, 2021-05-24 14:49:52.507
43.0, -175.97164916992188, -62.216976165771484, 102.30683135986328, 37.75802993774414, -0.08000000566244125, 0.0, 1.055999994277954, 0.0, 0.0, 0.0, 0.0, 0.0, 1.6218605925211992E9, 2021-05-24 14:49:52.521
43.0, -262.6587829589844, -135.8817901611328, 14.916590690612793, -40.114166259765625, -0.08000000566244125, 0.0, 1.055999994277954, 0.0, 0.0, 0.0, 0.0, 0.0, 1.6218605925211992E9, 2021-05-24 14:49:52.521
44.0, -136.1977996826172, -55.60483169555664, 135.28152465820312, 48.31576919555664, -0.08000000566244125, 0.0, 1.055999994277954, 0.0, 0.0, 0.0, 0.0, 0.0, 1.6218605925368543E9, 2021-05-24 14:49:52.536
44.0, -107.8082275390625, -17.031503677368164, 169.33706665039062, 85.22109985351562, -0.08000000566244125, 0.0, 1.055999994277954, 0.0, 0.0, 0.0, 0.0, 0.0, 1.6218605925368543E9, 2021-05-24 14:49:52.536
45.0, -180.0855255126953, -69.84637451171875, 95.73583221435547, 35.3009147644043, -0.08000000566244125, 0.0, 1.055999994277954, 0.0, 0.0, 0.0, 0.0, 0.0, 1.6218605925375926E9, 2021-05-24 14:49:52.537
45.0, -270.6883544921875, -140.89324951171875, 4.49722957611084, -41.060359954833984, -0.08000000566244125, 0.0, 1.055999994277954, 0.0, 0.0, 0.0, 0.0, 0.0, 1.6218605925375926E9, 2021-05-24 14:49:52.537
46.0, -148.85736083984375, -59.76734161376953, 129.82501220703125, 49.98002243041992, -0.08000000566244125, 0.0, 1.055999994277954, 0.0, 0.0, 0.0, 0.0, 0.0, 1.6218605925512505E9, 2021-05-24 14:49:52.551
46.0, -120.55006408691406, -16.990365982055664, 167.4521484375, 86.57868194580078, -0.08000000566244125, 0.0, 1.055999994277954, 0.0, 0.0, 0.0, 0.0, 0.0, 1.6218605925512505E9, 2021-05-24 14:49:52.551
47.0, -183.80299377441406, -68.12227630615234, 97.58333587646484, 31.115966796875, -0.08000000566244125, 0.0, 1.055999994277954, 0.0, 0.0, 0.0, 0.0, 0.0, 1.6218605925668943E9, 2021-05-24 14:49:52.566
47.0, -271.3652648925781, -141.01666259765625, 11.128072738647461, -38.84634017944336, -0.08000000566244125, 0.0, 1.055999994277954, 0.0, 0.0, 0.0, 0.0, 0.0, 1.6218605925668943E9, 2021-05-24 14:49:52.566
48.0, -148.23280334472656, -55.399139404296875, 132.8580780029297, 47.77348327636719, -0.08000000566244125, 0.0, 1.055999994277954, 0.0, 0.0, 0.0, 0.0, 0.0, 1.6218605925675917E9, 2021-05-24 14:49:52.567
48.0, -121.11479187011719, -11.758245468139648, 172.1157989501953, 86.31689453125, -0.08000000566244125, 0.0, 1.055999994277954, 0.0, 0.0, 0.0, 0.0, 0.0, 1.6218605925675917E9, 2021-05-24 14:49:52.567
49.0, -182.0452423095703, -70.6018295288086, 104.09076690673828, 39.257728576660156, -0.08000000566244125, 0.0, 1.055999994277954, 0.0, 0.0, 0.0, 0.0, 0.0, 1.6218605925813289E9, 2021-05-24 14:49:52.581
49.0, -270.3816833496094, -137.46002197265625, 15.436436653137207, -43.704471588134766, -0.08000000566244125, 0.0, 1.055999994277954, 0.0, 0.0, 0.0, 0.0, 0.0, 1.6218605925813289E9, 2021-05-24 14:49:52.581
50.0, -144.31712341308594, -54.66611862182617, 139.84420776367188, 57.960968017578125, -0.08000000566244125, 0.0, 1.055999994277954, 0.0, 0.0, 0.0, 0.0, 0.0, 1.6218605926132724E9, 2021-05-24 14:49:52.613
50.0, -122.46863555908203, -16.63133430480957, 160.3650360107422, 85.75216674804688, -0.08000000566244125, 0.0, 1.055999994277954, 0.0, 0.0, 0.0, 0.0, 0.0, 1.6218605926132724E9, 2021-05-24 14:49:52.613
51.0, -187.27735900878906, -60.118892669677734, 96.09485626220703, 32.88119888305664, -0.08000000566244125, 0.0, 1.055999994277954, 0.0, 0.0, 0.0, 0.0, 0.0, 1.6218605926139603E9, 2021-05-24 14:49:52.613
51.0, -273.9682312011719, -132.93099975585938, 9.261861801147461, -40.544254302978516, -0.08000000566244125, 0.0, 1.055999994277954, 0.0, 0.0, 0.0, 0.0, 0.0, 1.6218605926139603E9, 2021-05-24 14:49:52.613
52.0, -151.6099395751953, -50.93743896484375, 133.25076293945312, 45.66791915893555, -0.06400000303983688, 0.0, 1.055999994277954, 0.0, 0.0, 0.0, 0.0, 0.0, 1.6218605926147316E9, 2021-05-24 14:49:52.614
52.0, -120.86421966552734, -16.833290100097656, 161.39724731445312, 81.64575958251953, -0.06400000303983688, 0.0, 1.055999994277954, 0.0, 0.0, 0.0, 0.0, 0.0, 1.6218605926147316E9, 2021-05-24 14:49:52.614
53.0, -183.95632934570312, -61.502655029296875, 101.745849609375, 31.284263610839844, -0.06400000303983688, 0.0, 1.055999994277954, 0.0, 0.0, 0.0, 0.0, 0.0, 1.621860592615544E9, 2021-05-24 14:49:52.615
53.0, -271.4288635253906, -130.5711212158203, 14.658537864685059, -42.70591735839844, -0.06400000303983688, 0.0, 1.055999994277954, 0.0, 0.0, 0.0, 0.0, 0.0, 1.621860592615544E9, 2021-05-24 14:49:52.615
54.0, -152.111083984375, -54.56888198852539, 134.16329956054688, 45.49214172363281, -0.06400000303983688, 0.0, 1.055999994277954, 0.0, 0.0, 0.0, 0.0, 0.0, 1.621860592626352E9, 2021-05-24 14:49:52.626
54.0, -119.9928207397461, -12.797937393188477, 162.68003845214844, 85.89427947998047, -0.06400000303983688, 0.0, 1.055999994277954, 0.0, 0.0, 0.0, 0.0, 0.0, 1.621860592626352E9, 2021-05-24 14:49:52.626
55.0, -183.97128295898438, -54.10139465332031, 108.46270751953125, 35.37197494506836, -0.06400000303983688, 0.0, 1.055999994277954, 0.0, 0.0, 0.0, 0.0, 0.0, 1.6218605926413283E9, 2021-05-24 14:49:52.641
55.0, -273.9944152832031, -132.35879516601562, 17.130611419677734, -41.95793914794922, -0.06400000303983688, 0.0, 1.055999994277954, 0.0, 0.0, 0.0, 0.0, 0.0, 1.6218605926413283E9, 2021-05-24 14:49:52.641
56.0, -154.85243225097656, -50.432552337646484, 133.7481689453125, 50.006202697753906, -0.06400000303983688, 0.0, 1.055999994277954, 0.0, 0.0, 0.0, 0.0, 0.0, 1.6218605926570225E9, 2021-05-24 14:49:52.657
56.0, -121.95626831054688, -13.904948234558105, 162.68377685546875, 84.24872589111328, -0.06400000303983688, 0.0, 1.055999994277954, 0.0, 0.0, 0.0, 0.0, 0.0, 1.6218605926570225E9, 2021-05-24 14:49:52.657
57.0, -184.94740295410156, -61.603633880615234, 100.71737670898438, 39.87107467651367, -0.06400000303983688, 0.0, 1.055999994277954, 0.0, 0.0, 0.0, 0.0, 0.0, 1.6218605926577065E9, 2021-05-24 14:49:52.657
57.0, -270.21337890625, -128.6974334716797, 11.842392921447754, -34.90448760986328, -0.06400000303983688, 0.0, 1.055999994277954, 0.0, 0.0, 0.0, 0.0, 0.0, 1.6218605926577065E9, 2021-05-24 14:49:52.657
58.0, -145.9626922607422, -51.954689025878906, 129.5669708251953, 52.295021057128906, -0.06400000303983688, 0.0, 1.055999994277954, 0.0, 0.0, 0.0, 0.0, 0.0, 1.6218605926711683E9, 2021-05-24 14:49:52.671
58.0, -116.49601745605469, -8.276398658752441, 165.48121643066406, 88.10456085205078, -0.06400000303983688, 0.0, 1.055999994277954, 0.0, 0.0, 0.0, 0.0, 0.0, 1.6218605926711683E9, 2021-05-24 14:49:52.671
59.0, -184.9324493408203, -60.51531982421875, 99.78240203857422, 39.740177154541016, -0.06400000303983688, 0.0, 1.055999994277954, 0.0, 0.0, 0.0, 0.0, 0.0, 1.6218605926869743E9, 2021-05-24 14:49:52.686
59.0, -278.6954650878906, -136.5100860595703, 6.744909763336182, -46.14662551879883, -0.06400000303983688, 0.0, 1.055999994277954, 0.0, 0.0, 0.0, 0.0, 0.0, 1.6218605926869743E9, 2021-05-24 14:49:52.686
60.0, -152.4065399169922, -49.16846466064453, 130.64405822753906, 38.09088134765625, -0.06400000303983688, 0.0, 1.040000081062317, 0.0, 0.0, 0.0, 0.0, 0.0, 1.6218605926877255E9, 2021-05-24 14:49:52.687
60.0, -120.0975341796875, -9.966833114624023, 169.3557586669922, 82.91358184814453, -0.06400000303983688, 0.0, 1.040000081062317, 0.0, 0.0, 0.0, 0.0, 0.0, 1.6218605926877255E9, 2021-05-24 14:49:52.687
61.0, -192.20654296875, -62.38901138305664, 108.64596557617188, 34.631473541259766, -0.06400000303983688, 0.0, 1.040000081062317, 0.0, 0.0, 0.0, 0.0, 0.0, 1.6218605927011735E9, 2021-05-24 14:49:52.701
61.0, -273.3661193847656, -134.11654663085938, 13.461770057678223, -40.80230712890625, -0.06400000303983688, 0.0, 1.040000081062317, 0.0, 0.0, 0.0, 0.0, 0.0, 1.6218605927011735E9, 2021-05-24 14:49:52.701
62.0, -147.51473999023438, -52.20900344848633, 131.46682739257812, 51.69663619995117, -0.08000000566244125, 0.0, 1.040000081062317, 0.0, 0.0, 0.0, 0.0, 0.0, 1.6218605927170217E9, 2021-05-24 14:49:52.717
62.0, -121.27560424804688, -20.173019409179688, 165.03244018554688, 85.61004638671875, -0.08000000566244125, 0.0, 1.040000081062317, 0.0, 0.0, 0.0, 0.0, 0.0, 1.6218605927170217E9, 2021-05-24 14:49:52.717
63.0, -179.93968200683594, -59.75612258911133, 106.43194580078125, 32.619407653808594, -0.08000000566244125, 0.0, 1.040000081062317, 0.0, 0.0, 0.0, 0.0, 0.0, 1.6218605927177498E9, 2021-05-24 14:49:52.717
63.0, -268.1078186035156, -129.73338317871094, 14.127471923828125, -43.214542388916016, -0.08000000566244125, 0.0, 1.040000081062317, 0.0, 0.0, 0.0, 0.0, 0.0, 1.6218605927177498E9, 2021-05-24 14:49:52.717
64.0, -146.48252868652344, -48.08015441894531, 146.2506561279297, 54.883033752441406, -0.08000000566244125, 0.0, 1.040000081062317, 0.0, 0.0, 0.0, 0.0, 0.0, 1.6218605927313185E9, 2021-05-24 14:49:52.731
64.0, -125.53160858154297, -12.367849349975586, 164.29193115234375, 87.25934600830078, -0.08000000566244125, 0.0, 1.040000081062317, 0.0, 0.0, 0.0, 0.0, 0.0, 1.6218605927313185E9, 2021-05-24 14:49:52.731
65.0, -182.10507202148438, -56.01622009277344, 109.96240997314453, 41.56898880004883, -0.08000000566244125, 0.0, 1.040000081062317, 0.0, 0.0, 0.0, 0.0, 0.0, 1.6218605927468855E9, 2021-05-24 14:49:52.746
65.0, -274.9368896484375, -136.10618591308594, 18.387218475341797, -37.1072883605957, -0.08000000566244125, 0.0, 1.040000081062317, 0.0, 0.0, 0.0, 0.0, 0.0, 1.6218605927468855E9, 2021-05-24 14:49:52.746
66.0, -148.37118530273438, -43.266902923583984, 132.71221923828125, 56.910057067871094, -0.08000000566244125, 0.0, 1.040000081062317, 0.0, 0.0, 0.0, 0.0, 0.0, 1.6218605927476945E9, 2021-05-24 14:49:52.747
66.0, -121.15966796875, -6.963693618774414, 167.874755859375, 88.15318298339844, -0.08000000566244125, 0.0, 1.040000081062317, 0.0, 0.0, 0.0, 0.0, 0.0, 1.6218605927476945E9, 2021-05-24 14:49:52.747
67.0, -185.40367126464844, -56.65948486328125, 104.53581237792969, 35.054080963134766, -0.08000000566244125, 0.0, 1.040000081062317, 0.0, 0.0, 0.0, 0.0, 0.0, 1.6218605927775671E9, 2021-05-24 14:49:52.777
67.0, -272.677978515625, -122.70985412597656, 14.037714958190918, -40.36473846435547, -0.08000000566244125, 0.0, 1.040000081062317, 0.0, 0.0, 0.0, 0.0, 0.0, 1.6218605927775671E9, 2021-05-24 14:49:52.777
68.0, -153.0011749267578, -48.39056396484375, 136.24642944335938, 51.5208625793457, -0.08000000566244125, 0.0, 1.040000081062317, 0.0, 0.0, 0.0, 0.0, 0.0, 1.6218605927783031E9, 2021-05-24 14:49:52.778
68.0, -122.51351165771484, -7.240446090698242, 170.51512145996094, 82.33015441894531, -0.08000000566244125, 0.0, 1.040000081062317, 0.0, 0.0, 0.0, 0.0, 0.0, 1.6218605927783031E9, 2021-05-24 14:49:52.778
69.0, -185.06333923339844, -51.610618591308594, 107.62496948242188, 32.335174560546875, -0.08000000566244125, 0.0, 1.040000081062317, 0.0, 0.0, 0.0, 0.0, 0.0, 1.6218605927790377E9, 2021-05-24 14:49:52.779
69.0, -276.3505554199219, -127.50814819335938, 18.49193572998047, -45.15555191040039, -0.08000000566244125, 0.0, 1.040000081062317, 0.0, 0.0, 0.0, 0.0, 0.0, 1.6218605927790377E9, 2021-05-24 14:49:52.779
70.0, -158.3828887939453, -44.00740432739258, 129.35379028320312, 47.93055725097656, -0.08000000566244125, 0.0, 1.040000081062317, 0.0, 0.0, 0.0, 0.0, 0.0, 1.6218605927912853E9, 2021-05-24 14:49:52.791
70.0, -126.49650573730469, -0.5946440696716309, 164.65097045898438, 83.49700927734375, -0.08000000566244125, 0.0, 1.040000081062317, 0.0, 0.0, 0.0, 0.0, 0.0, 1.6218605927912853E9, 2021-05-24 14:49:52.791
71.0, -195.32562255859375, -49.73693084716797, 91.5508804321289, 28.258684158325195, -0.08000000566244125, 0.0, 1.040000081062317, 0.0, 0.0, 0.0, 0.0, 0.0, 1.6218605928070164E9, 2021-05-24 14:49:52.807
71.0, -280.25128173828125, -127.1528549194336, 13.10647964477539, -44.93115997314453, -0.08000000566244125, 0.0, 1.040000081062317, 0.0, 0.0, 0.0, 0.0, 0.0, 1.6218605928070164E9, 2021-05-24 14:49:52.807
72.0, -162.07791137695312, -47.39201354980469, 133.5462188720703, 49.50879669189453, -0.08000000566244125, 0.0, 1.040000081062317, 0.0, 0.0, 0.0, 0.0, 0.0, 1.621860592807697E9, 2021-05-24 14:49:52.807
72.0, -135.13568115234375, -8.145502090454102, 161.11302185058594, 79.87678527832031, -0.08000000566244125, 0.0, 1.040000081062317, 0.0, 0.0, 0.0, 0.0, 0.0, 1.621860592807697E9, 2021-05-24 14:49:52.807
73.0, -189.6559295654297, -51.49468231201172, 105.09305572509766, 37.88518524169922, -0.08000000566244125, 0.0, 1.040000081062317, 0.0, 0.0, 0.0, 0.0, 0.0, 1.6218605928212852E9, 2021-05-24 14:49:52.821
73.0, -274.3459777832031, -124.24695587158203, 16.304094314575195, -36.4453239440918, -0.08000000566244125, 0.0, 1.040000081062317, 0.0, 0.0, 0.0, 0.0, 0.0, 1.6218605928212852E9, 2021-05-24 14:49:52.821
74.0, -147.7802734375, -41.748504638671875, 139.93771362304688, 59.76734161376953, -0.08000000566244125, 0.0, 1.040000081062317, 0.0, 0.0, 0.0, 0.0, 0.0, 1.6218605928368702E9, 2021-05-24 14:49:52.836
74.0, -130.30746459960938, -9.57788372039795, 162.93809509277344, 83.93457794189453, -0.08000000566244125, 0.0, 1.040000081062317, 0.0, 0.0, 0.0, 0.0, 0.0, 1.6218605928368702E9, 2021-05-24 14:49:52.836
75.0, -192.31500244140625, -51.96965026855469, 103.84767150878906, 34.14154815673828, -0.08000000566244125, 0.0, 1.040000081062317, 0.0, 0.0, 0.0, 0.0, 0.0, 1.6218605928375936E9, 2021-05-24 14:49:52.837
75.0, -273.78125, -125.97479248046875, 15.249442100524902, -41.20621871948242, -0.08000000566244125, 0.0, 1.040000081062317, 0.0, 0.0, 0.0, 0.0, 0.0, 1.6218605928375936E9, 2021-05-24 14:49:52.837
76.0, -146.23196411132812, -43.62967300415039, 136.99440002441406, 55.672149658203125, -0.08000000566244125, 0.0, 1.040000081062317, 0.0, 0.0, 0.0, 0.0, 0.0, 1.6218605928512754E9, 2021-05-24 14:49:52.851
76.0, -126.27584838867188, -3.5454251766204834, 162.46311950683594, 85.61004638671875, -0.08000000566244125, 0.0, 1.040000081062317, 0.0, 0.0, 0.0, 0.0, 0.0, 1.6218605928512754E9, 2021-05-24 14:49:52.851
77.0, -190.83026123046875, -57.022254943847656, 94.01547241210938, 29.35073471069336, -0.08000000566244125, 0.0, 1.040000081062317, 0.0, 0.0, 0.0, 0.0, 0.0, 1.6218605928668616E9, 2021-05-24 14:49:52.866
77.0, -268.3359375, -123.18482208251953, 12.994282722473145, -36.912811279296875, -0.08000000566244125, 0.0, 1.040000081062317, 0.0, 0.0, 0.0, 0.0, 0.0, 1.6218605928668616E9, 2021-05-24 14:49:52.866
78.0, -150.42063903808594, -44.276676177978516, 136.58302307128906, 53.27861404418945, -0.08000000566244125, 0.0, 1.040000081062317, 0.0, 0.0, 0.0, 0.0, 0.0, 1.621860592867584E9, 2021-05-24 14:49:52.867
78.0, -127.76058959960938, -2.887202739715576, 165.5447998046875, 86.31314849853516, -0.08000000566244125, 0.0, 1.040000081062317, 0.0, 0.0, 0.0, 0.0, 0.0, 1.621860592867584E9, 2021-05-24 14:49:52.867
79.0, -189.48390197753906, -47.040462493896484, 104.59564971923828, 40.09172821044922, -0.08000000566244125, 0.0, 1.040000081062317, 0.0, 0.0, 0.0, 0.0, 0.0, 1.6218605928813367E9, 2021-05-24 14:49:52.881
79.0, -278.17938232421875, -124.24321746826172, 19.262353897094727, -31.6320743560791, -0.08000000566244125, 0.0, 1.040000081062317, 0.0, 0.0, 0.0, 0.0, 0.0, 1.6218605928813367E9, 2021-05-24 14:49:52.881
80.0, -154.6504669189453, -34.84090805053711, 138.27345275878906, 60.48166275024414, -0.08000000566244125, 0.0, 1.040000081062317, 0.0, 0.0, 0.0, 0.0, 0.0, 1.6218605928970528E9, 2021-05-24 14:49:52.897
80.0, -128.35897827148438, -2.6553289890289307, 168.16647338867188, 91.36201477050781, -0.08000000566244125, 0.0, 1.040000081062317, 0.0, 0.0, 0.0, 0.0, 0.0, 1.6218605928970528E9, 2021-05-24 14:49:52.897
81.0, -197.6368865966797, -54.090171813964844, 104.00100708007812, 37.42144012451172, -0.08000000566244125, 0.0, 1.040000081062317, 0.0, 0.0, 0.0, 0.0, 0.0, 1.6218605928976452E9, 2021-05-24 14:49:52.897
81.0, -275.0191650390625, -130.96755981445312, 7.702323913574219, -45.039615631103516, -0.08000000566244125, 0.0, 1.040000081062317, 0.0, 0.0, 0.0, 0.0, 0.0, 1.6218605928976452E9, 2021-05-24 14:49:52.897
82.0, -154.12315368652344, -46.25882339477539, 132.3083038330078, 50.918739318847656, -0.08000000566244125, 0.0, 1.040000081062317, 0.0, 0.0, 0.0, 0.0, 0.0, 1.621860592911251E9, 2021-05-24 14:49:52.911
82.0, -124.28622436523438, -11.283278465270996, 160.750244140625, 83.16041564941406, -0.08000000566244125, 0.0, 1.040000081062317, 0.0, 0.0, 0.0, 0.0, 0.0, 1.621860592911251E9, 2021-05-24 14:49:52.911
83.0, -190.07479858398438, -56.57346725463867, 94.08653259277344, 32.45859146118164, -0.08000000566244125, 0.0, 1.040000081062317, 0.0, 0.0, 0.0, 0.0, 0.0, 1.621860592927055E9, 2021-05-24 14:49:52.927
83.0, -274.3459777832031, -129.4267120361328, 12.14532470703125, -43.19584274291992, -0.08000000566244125, 0.0, 1.040000081062317, 0.0, 0.0, 0.0, 0.0, 0.0, 1.621860592927055E9, 2021-05-24 14:49:52.927
84.0, -147.30531311035156, -39.66537857055664, 136.34365844726562, 51.46102523803711, -0.08000000566244125, 0.0, 1.040000081062317, 0.0, 0.0, 0.0, 0.0, 0.0, 1.6218605929277053E9, 2021-05-24 14:49:52.927
84.0, -123.01465606689453, -10.535298347473145, 161.0644073486328, 82.37877655029297, -0.08000000566244125, 0.0, 1.040000081062317, 0.0, 0.0, 0.0, 0.0, 0.0, 1.6218605929277053E9, 2021-05-24 14:49:52.927
85.0, -178.0659942626953, -57.37380599975586, 102.96505737304688, 35.97783660888672, -0.08000000566244125, 0.0, 1.040000081062317, 0.0, 0.0, 0.0, 0.0, 0.0, 1.6218605929411807E9, 2021-05-24 14:49:52.941
85.0, -264.69329833984375, -134.1315155029297, 11.973289489746094, -40.18522644042969, -0.08000000566244125, 0.0, 1.040000081062317, 0.0, 0.0, 0.0, 0.0, 0.0, 1.6218605929411807E9, 2021-05-24 14:49:52.941
86.0, -147.4137725830078, -45.039615631103516, 135.1094970703125, 47.418190002441406, -0.08000000566244125, 0.0, 1.040000081062317, 0.0, 0.0, 0.0, 0.0, 0.0, 1.6218605929568825E9, 2021-05-24 14:49:52.956
86.0, -120.84925842285156, -7.0534515380859375, 160.34634399414062, 85.22109985351562, -0.08000000566244125, 0.0, 1.040000081062317, 0.0, 0.0, 0.0, 0.0, 0.0, 1.6218605929568825E9, 2021-05-24 14:49:52.956
87.0, -182.3032989501953, -49.658390045166016, 99.8160629272461, 36.59492111206055, -0.08000000566244125, 0.0, 1.040000081062317, 0.0, 0.0, 0.0, 0.0, 0.0, 1.6218605929575722E9, 2021-05-24 14:49:52.957
87.0, -276.60113525390625, -127.97937774658203, 14.26210880279541, -45.95962905883789, -0.08000000566244125, 0.0, 1.040000081062317, 0.0, 0.0, 0.0, 0.0, 0.0, 1.6218605929575722E9, 2021-05-24 14:49:52.957
88.0, -151.17984008789062, -39.594322204589844, 136.31748962402344, 48.05771255493164, -0.08000000566244125, 0.0, 1.040000081062317, 0.0, 0.0, 0.0, 0.0, 0.0, 1.62186059297116E9, 2021-05-24 14:49:52.971
88.0, -123.3886489868164, -7.965986728668213, 161.442138671875, 79.27839660644531, -0.08000000566244125, 0.0, 1.040000081062317, 0.0, 0.0, 0.0, 0.0, 0.0, 1.62186059297116E9, 2021-05-24 14:49:52.971
89.0, -184.68560791015625, -51.87989044189453, 101.68975067138672, 33.670318603515625, -0.08000000566244125, 0.0, 1.040000081062317, 0.0, 0.0, 0.0, 0.0, 0.0, 1.6218605929869325E9, 2021-05-24 14:49:52.986
89.0, -281.5153503417969, -127.85221862792969, 8.566241264343262, -42.38802719116211, -0.08000000566244125, 0.0, 1.040000081062317, 0.0, 0.0, 0.0, 0.0, 0.0, 1.6218605929869325E9, 2021-05-24 14:49:52.986
90.0, -157.54515075683594, -43.880245208740234, 130.408447265625, 53.21503829956055, -0.08000000566244125, 0.0, 1.040000081062317, 0.0, 0.0, 0.0, 0.0, 0.0, 1.6218605929876237E9, 2021-05-24 14:49:52.987
90.0, -132.5177459716797, -4.259746074676514, 160.32015991210938, 85.30712127685547, -0.08000000566244125, 0.0, 1.040000081062317, 0.0, 0.0, 0.0, 0.0, 0.0, 1.6218605929876237E9, 2021-05-24 14:49:52.987
91.0, -190.7180633544922, -54.535221099853516, 101.79446411132812, 35.41311264038086, -0.08000000566244125, 0.0, 1.040000081062317, 0.0, 0.0, 0.0, 0.0, 0.0, 1.6218605930012207E9, 2021-05-24 14:49:53.001
91.0, -271.6495056152344, -124.64338684082031, 15.324239730834961, -32.578269958496094, -0.08000000566244125, 0.0, 1.040000081062317, 0.0, 0.0, 0.0, 0.0, 0.0, 1.6218605930012207E9, 2021-05-24 14:49:53.001
92.0, -161.39724731445312, -48.218528747558594, 133.6210174560547, 50.58214569091797, -0.08000000566244125, 0.0, 1.040000081062317, 0.0, 0.0, 0.0, 0.0, 0.0, 1.6218605930168605E9, 2021-05-24 14:49:53.016
92.0, -128.9087371826172, -6.0249786376953125, 163.37191772460938, 91.51908874511719, -0.08000000566244125, 0.0, 1.040000081062317, 0.0, 0.0, 0.0, 0.0, 0.0, 1.6218605930168605E9, 2021-05-24 14:49:53.016
93.0, -189.04632568359375, -55.66841125488281, 95.52639770507812, 34.867088317871094, -0.08000000566244125, 0.0, 1.040000081062317, 0.0, 0.0, 0.0, 0.0, 0.0, 1.6218605930175664E9, 2021-05-24 14:49:53.017
93.0, -268.0105895996094, -124.4825668334961, 15.754328727722168, -32.99713897705078, -0.08000000566244125, 0.0, 1.040000081062317, 0.0, 0.0, 0.0, 0.0, 0.0, 1.6218605930175664E9, 2021-05-24 14:49:53.017
94.0, -153.01239013671875, -46.31492233276367, 130.3598175048828, 52.79242706298828, -0.08000000566244125, 0.0, 1.040000081062317, 0.0, 0.0, 0.0, 0.0, 0.0, 1.621860593031174E9, 2021-05-24 14:49:53.031
94.0, -127.36790466308594, -10.688633918762207, 153.82769775390625, 87.2032470703125, -0.08000000566244125, 0.0, 1.040000081062317, 0.0, 0.0, 0.0, 0.0, 0.0, 1.621860593031174E9, 2021-05-24 14:49:53.031
95.0, -182.0789031982422, -45.851173400878906, 97.54219818115234, 40.106685638427734, -0.08000000566244125, 0.0, 1.040000081062317, 0.0, 0.0, 0.0, 0.0, 0.0, 1.6218605930468476E9, 2021-05-24 14:49:53.046
95.0, -266.5445251464844, -122.26107025146484, 10.791481018066406, -35.678646087646484, -0.08000000566244125, 0.0, 1.040000081062317, 0.0, 0.0, 0.0, 0.0, 0.0, 1.6218605930468476E9, 2021-05-24 14:49:53.046
96.0, -146.1309814453125, -43.1883659362793, 128.81524658203125, 48.599998474121094, -0.08000000566244125, 0.0, 1.040000081062317, 0.0, 0.0, 0.0, 0.0, 0.0, 1.62186059304761E9, 2021-05-24 14:49:53.047
96.0, -123.35498809814453, -7.27784538269043, 159.21688842773438, 88.57579040527344, -0.08000000566244125, 0.0, 1.040000081062317, 0.0, 0.0, 0.0, 0.0, 0.0, 1.62186059304761E9, 2021-05-24 14:49:53.047
97.0, -185.06333923339844, -54.03033447265625, 98.00968933105469, 40.18148422241211, -0.08000000566244125, 0.0, 1.040000081062317, 0.0, 0.0, 0.0, 0.0, 0.0, 1.6218605930611813E9, 2021-05-24 14:49:53.061
97.0, -272.0272216796875, -131.36024475097656, 8.955190658569336, -37.39899826049805, -0.08000000566244125, 0.0, 1.040000081062317, 0.0, 0.0, 0.0, 0.0, 0.0, 1.6218605930611813E9, 2021-05-24 14:49:53.061
98.0, -149.61656188964844, -44.14577865600586, 134.29420471191406, 52.12298583984375, -0.08000000566244125, 0.0, 1.040000081062317, 0.0, 0.0, 0.0, 0.0, 0.0, 1.6218605930769432E9, 2021-05-24 14:49:53.076
98.0, -118.63150024414062, -3.044278621673584, 164.1573028564453, 84.5105209350586, -0.08000000566244125, 0.0, 1.040000081062317, 0.0, 0.0, 0.0, 0.0, 0.0, 1.6218605930769432E9, 2021-05-24 14:49:53.076
99.0, -176.70840454101562, -49.849124908447266, 98.37993621826172, 33.03827667236328, -0.08000000566244125, 0.0, 1.040000081062317, 0.0, 0.0, 0.0, 0.0, 0.0, 1.621860593077663E9, 2021-05-24 14:49:53.077
99.0, -267.8871765136719, -132.45230102539062, 9.751789093017578, -37.33542251586914, -0.08000000566244125, 0.0, 1.040000081062317, 0.0, 0.0, 0.0, 0.0, 0.0, 1.621860593077663E9, 2021-05-24 14:49:53.077
100.0, -149.97186279296875, -41.883140563964844, 131.05918884277344, 49.385379791259766, -0.08000000566244125, 0.0, 1.040000081062317, 0.0, 0.0, 0.0, 0.0, 0.0, 1.6218605930919898E9, 2021-05-24 14:49:53.091
100.0, -119.65996551513672, -7.640615463256836, 162.68751525878906, 89.14425659179688, -0.08000000566244125, 0.0, 1.040000081062317, 0.0, 0.0, 0.0, 0.0, 0.0, 1.6218605930919898E9, 2021-05-24 14:49:53.091
0.0, -177.10482788085938, -53.11405944824219, 95.2739486694336, 35.77027130126953, -0.08000000566244125, 0.0, 1.040000081062317, 0.0, 0.0, 0.0, 0.0, 0.0, 1.6218605930926583E9, 2021-05-24 14:49:53.092
1.0, -261.60040283203125, -127.48571014404297, 11.877922058105469, -42.158023834228516, -0.08000000566244125, 0.0, 1.040000081062317, 0.0, 0.0, 0.0, 0.0, 0.0, 1.6218605931061616E9, 2021-05-24 14:49:53.106
1.0, -144.97161865234375, -46.54679489135742, 130.24949645996094, 47.65193557739258, -0.08000000566244125, 0.0, 1.040000081062317, 0.0, 0.0, 0.0, 0.0, 0.0, 1.6218605931061616E9, 2021-05-24 14:49:53.106
2.0, -117.37863159179688, -3.0405385494232178, 161.8030242919922, 84.79662322998047, -0.08000000566244125, 0.0, 1.040000081062317, 0.0, 0.0, 0.0, 0.0, 0.0, 1.6218605931220157E9, 2021-05-24 14:49:53.122
2.0, -178.8177032470703, -49.856605529785156, 99.16344451904297, 42.199161529541016, -0.08000000566244125, 0.0, 1.040000081062317, 0.0, 0.0, 0.0, 0.0, 0.0, 1.6218605931220157E9, 2021-05-24 14:49:53.122
3.0, -263.4366760253906, -132.28773498535156, 9.282431602478027, -37.240055084228516, -0.08000000566244125, 0.0, 1.040000081062317, 0.0, 0.0, 0.0, 0.0, 0.0, 1.6218605931227436E9, 2021-05-24 14:49:53.122
3.0, -151.28082275390625, -50.15953826904297, 133.72386169433594, 52.84291458129883, -0.08000000566244125, 0.0, 1.040000081062317, 0.0, 0.0, 0.0, 0.0, 0.0, 1.6218605931227436E9, 2021-05-24 14:49:53.122
4.0, -120.47152709960938, -7.77899169921875, 158.94949340820312, 90.35411071777344, -0.08000000566244125, 0.0, 1.040000081062317, 0.0, 0.0, 0.0, 0.0, 0.0, 1.6218605931361885E9, 2021-05-24 14:49:53.136
4.0, -183.74688720703125, -58.95578384399414, 96.47071838378906, 43.34730911254883, -0.08000000566244125, 0.0, 1.040000081062317, 0.0, 0.0, 0.0, 0.0, 0.0, 1.6218605931361885E9, 2021-05-24 14:49:53.136
5.0, -264.47637939453125, -127.79985809326172, 10.864409446716309, -30.358638763427734, -0.08000000566244125, 0.0, 1.040000081062317, 0.0, 0.0, 0.0, 0.0, 0.0, 1.6218605931519873E9, 2021-05-24 14:49:53.151
5.0, -143.49061584472656, -47.941776275634766, 131.9661102294922, 61.30257034301758, -0.08000000566244125, 0.0, 1.040000081062317, 0.0, 0.0, 0.0, 0.0, 0.0, 1.6218605931519873E9, 2021-05-24 14:49:53.151
6.0, -122.59578704833984, -12.842816352844238, 164.9969024658203, 92.58309173583984, -0.08000000566244125, 0.0, 1.040000081062317, 0.0, 0.0, 0.0, 0.0, 0.0, 1.6218605931527123E9, 2021-05-24 14:49:53.152
6.0, -181.98165893554688, -51.77143478393555, 106.5123519897461, 42.730228424072266, -0.08000000566244125, 0.0, 1.040000081062317, 0.0, 0.0, 0.0, 0.0, 0.0, 1.6218605931527123E9, 2021-05-24 14:49:53.152
7.0, -266.33135986328125, -129.31826782226562, 9.226333618164062, -31.10287857055664, -0.08000000566244125, 0.0, 1.040000081062317, 0.0, 0.0, 0.0, 0.0, 0.0, 1.621860593166288E9, 2021-05-24 14:49:53.166
7.0, -143.8384246826172, -45.76889419555664, 132.2727813720703, 58.80805587768555, -0.08000000566244125, 0.0, 1.040000081062317, 0.0, 0.0, 0.0, 0.0, 0.0, 1.621860593166288E9, 2021-05-24 14:49:53.166
8.0, -120.5949478149414, -9.772358894348145, 160.39683532714844, 84.83776092529297, -0.08000000566244125, 0.0, 1.040000081062317, 0.0, 0.0, 0.0, 0.0, 0.0, 1.6218605931818879E9, 2021-05-24 14:49:53.181
8.0, -178.215576171875, -50.7467041015625, 113.7191390991211, 39.727088928222656, -0.08000000566244125, 0.0, 1.040000081062317, 0.0, 0.0, 0.0, 0.0, 0.0, 1.6218605931818879E9, 2021-05-24 14:49:53.181
9.0, -271.9075622558594, -125.48860168457031, 16.197505950927734, -39.35683822631836, -0.08000000566244125, 0.0, 1.040000081062317, 0.0, 0.0, 0.0, 0.0, 0.0, 1.621860593182714E9, 2021-05-24 14:49:53.182
9.0, -147.54092407226562, -41.77094268798828, 132.44482421875, 48.97959899902344, -0.08000000566244125, 0.0, 1.040000081062317, 0.0, 0.0, 0.0, 0.0, 0.0, 1.621860593182714E9, 2021-05-24 14:49:53.182
10.0, -122.35643768310547, -1.8063716888427734, 164.5331573486328, 85.66801452636719, -0.08000000566244125, 0.0, 1.040000081062317, 0.0, 0.0, 0.0, 0.0, 0.0, 1.621860593212542E9, 2021-05-24 14:49:53.212
10.0, -189.60357666015625, -53.97423553466797, 99.02133178710938, 37.81599807739258, -0.08000000566244125, 0.0, 1.040000081062317, 0.0, 0.0, 0.0, 0.0, 0.0, 1.621860593212542E9, 2021-05-24 14:49:53.212
11.0, -271.6868896484375, -128.30474853515625, 19.484878540039062, -34.85399627685547, -0.08000000566244125, 0.0, 1.040000081062317, 0.0, 0.0, 0.0, 0.0, 0.0, 1.6218605932132683E9, 2021-05-24 14:49:53.213
11.0, -157.7358856201172, -44.452449798583984, 139.37484741210938, 53.89008712768555, -0.08000000566244125, 0.0, 1.040000081062317, 0.0, 0.0, 0.0, 0.0, 0.0, 1.6218605932132683E9, 2021-05-24 14:49:53.213
12.0, -127.61473846435547, -0.05983839929103851, 168.95745849609375, 90.48126983642578, -0.06400000303983688, 0.0, 1.040000081062317, 0.0, 0.0, 0.0, 0.0, 0.0, 1.6218605932140677E9, 2021-05-24 14:49:53.214
12.0, -189.6671600341797, -48.240970611572266, 105.92518615722656, 40.0300178527832, -0.06400000303983688, 0.0, 1.040000081062317, 0.0, 0.0, 0.0, 0.0, 0.0, 1.6218605932140677E9, 2021-05-24 14:49:53.214
13.0, -280.22882080078125, -121.00072479248047, 12.87647533416748, -43.826019287109375, -0.06400000303983688, 0.0, 1.040000081062317, 0.0, 0.0, 0.0, 0.0, 0.0, 1.6218605932262855E9, 2021-05-24 14:49:53.226
13.0, -152.62344360351562, -41.38947296142578, 133.82484436035156, 53.568458557128906, -0.06400000303983688, 0.0, 1.040000081062317, 0.0, 0.0, 0.0, 0.0, 0.0, 1.6218605932262855E9, 2021-05-24 14:49:53.226
14.0, -121.5224380493164, -6.75425910949707, 165.8907470703125, 89.41539764404297, -0.06400000303983688, 0.0, 1.040000081062317, 0.0, 0.0, 0.0, 0.0, 0.0, 1.621860593241927E9, 2021-05-24 14:49:53.241
14.0, -185.9422149658203, -51.97713088989258, 107.93350982666016, 39.30447769165039, -0.06400000303983688, 0.0, 1.040000081062317, 0.0, 0.0, 0.0, 0.0, 0.0, 1.621860593241927E9, 2021-05-24 14:49:53.241
15.0, -270.0899658203125, -126.23284149169922, 12.431427001953125, -32.61005783081055, -0.06400000303983688, 0.0, 1.040000081062317, 0.0, 0.0, 0.0, 0.0, 0.0, 1.6218605932426956E9, 2021-05-24 14:49:53.242
15.0, -145.73455810546875, -51.46476364135742, 128.876953125, 58.25455093383789, -0.06400000303983688, 0.0, 1.040000081062317, 0.0, 0.0, 0.0, 0.0, 0.0, 1.6218605932426956E9, 2021-05-24 14:49:53.242
16.0, -119.93672180175781, -13.553397178649902, 159.76104736328125, 91.93608856201172, -0.06400000303983688, 0.0, 1.040000081062317, 0.0, 0.0, 0.0, 0.0, 0.0, 1.6218605932563267E9, 2021-05-24 14:49:53.256
16.0, -183.88526916503906, -56.76420211791992, 100.5322494506836, 37.63648223876953, -0.06400000303983688, 0.0, 1.040000081062317, 0.0, 0.0, 0.0, 0.0, 0.0, 1.6218605932563267E9, 2021-05-24 14:49:53.256
17.0, -269.0315856933594, -126.76016998291016, 18.94259262084961, -31.48434829711914, -0.06400000303983688, 0.0, 1.040000081062317, 0.0, 0.0, 0.0, 0.0, 0.0, 1.6218605932716084E9, 2021-05-24 14:49:53.271
17.0, -151.57254028320312, -43.738128662109375, 129.30703735351562, 57.558929443359375, -0.06400000303983688, 0.0, 1.040000081062317, 0.0, 0.0, 0.0, 0.0, 0.0, 1.6218605932716084E9, 2021-05-24 14:49:53.271
18.0, -121.12226867675781, -5.441554546356201, 159.6974639892578, 92.23902130126953, -0.06400000303983688, 0.0, 1.040000081062317, 0.0, 0.0, 0.0, 0.0, 0.0, 1.6218605932868876E9, 2021-05-24 14:49:53.286
18.0, -183.79177856445312, -53.35715103149414, 101.01095581054688, 41.720455169677734, -0.06400000303983688, 0.0, 1.040000081062317, 0.0, 0.0, 0.0, 0.0, 0.0, 1.6218605932868876E9, 2021-05-24 14:49:53.286
19.0, -272.7939147949219, -129.34817504882812, 13.643155097961426, -35.53091812133789, -0.06400000303983688, 0.0, 1.040000081062317, 0.0, 0.0, 0.0, 0.0, 0.0, 1.621860593287688E9, 2021-05-24 14:49:53.287
19.0, -150.91806030273438, -39.4671630859375, 128.64134216308594, 59.72807312011719, -0.06400000303983688, 0.0, 1.040000081062317, 0.0, 0.0, 0.0, 0.0, 0.0, 1.621860593287688E9, 2021-05-24 14:49:53.287
20.0, -122.98847961425781, -1.443601369857788, 161.58985900878906, 93.86213684082031, -0.06400000303983688, 0.0, 1.040000081062317, 0.0, 0.0, 0.0, 0.0, 0.0, 1.6218605933019574E9, 2021-05-24 14:49:53.301
20.0, -188.1412811279297, -45.63800048828125, 99.00263214111328, 46.17841339111328, -0.06400000303983688, 0.0, 1.040000081062317, 0.0, 0.0, 0.0, 0.0, 0.0, 1.6218605933019574E9, 2021-05-24 14:49:53.301
21.0, -277.9961242675781, -115.05054473876953, 10.441801071166992, -34.48374938964844, -0.06400000303983688, 0.0, 1.040000081062317, 0.0, 0.0, 0.0, 0.0, 0.0, 1.621860593302606E9, 2021-05-24 14:49:53.302
21.0, -153.3415069580078, -34.343502044677734, 134.86453247070312, 59.12220764160156, -0.06400000303983688, 0.0, 1.040000081062317, 0.0, 0.0, 0.0, 0.0, 0.0, 1.621860593302606E9, 2021-05-24 14:49:53.302
22.0, -129.6716766357422, 5.714567184448242, 162.18824768066406, 87.76235961914062, -0.08000000566244125, 0.0, 1.040000081062317, 0.0, 0.0, 0.0, 0.0, 0.0, 1.621860593332657E9, 2021-05-24 14:49:53.332
22.0, -194.9740753173828, -48.34194564819336, 102.18902587890625, 38.717315673828125, -0.08000000566244125, 0.0, 1.040000081062317, 0.0, 0.0, 0.0, 0.0, 0.0, 1.621860593332657E9, 2021-05-24 14:49:53.332
23.0, -274.0804443359375, -114.17166900634766, 15.011958122253418, -34.77545928955078, -0.08000000566244125, 0.0, 1.040000081062317, 0.0, 0.0, 0.0, 0.0, 0.0, 1.6218605933334007E9, 2021-05-24 14:49:53.333
23.0, -165.2568359375, -39.10065460205078, 121.95813751220703, 45.04896545410156, -0.08000000566244125, 0.0, 1.040000081062317, 0.0, 0.0, 0.0, 0.0, 0.0, 1.6218605933334007E9, 2021-05-24 14:49:53.333
24.0, -127.90644836425781, 4.600077152252197, 160.4117889404297, 88.55522155761719, -0.08000000566244125, 0.0, 1.040000081062317, 0.0, 0.0, 0.0, 0.0, 0.0, 1.6218605933341527E9, 2021-05-24 14:49:53.334
24.0, -183.45892333984375, -44.51976776123047, 99.91516876220703, 40.018798828125, -0.08000000566244125, 0.0, 1.040000081062317, 0.0, 0.0, 0.0, 0.0, 0.0, 1.6218605933341527E9, 2021-05-24 14:49:53.334
25.0, -277.6483154296875, -119.803955078125, 6.866456508636475, -32.0378532409668, -0.08000000566244125, 0.0, 1.040000081062317, 0.0, 0.0, 0.0, 0.0, 0.0, 1.6218605933463533E9, 2021-05-24 14:49:53.346
25.0, -158.7157440185547, -39.93465042114258, 126.70407104492188, 54.23415756225586, -0.08000000566244125, 0.0, 1.040000081062317, 0.0, 0.0, 0.0, 0.0, 0.0, 1.6218605933463533E9, 2021-05-24 14:49:53.346
26.0, -128.98727416992188, -5.527572154998779, 156.88131713867188, 92.44097900390625, -0.08000000566244125, 0.0, 1.040000081062317, 0.0, 0.0, 0.0, 0.0, 0.0, 1.6218605933619037E9, 2021-05-24 14:49:53.361
26.0, -183.66087341308594, -50.49612808227539, 92.61862182617188, 43.46698760986328, -0.08000000566244125, 0.0, 1.040000081062317, 0.0, 0.0, 0.0, 0.0, 0.0, 1.6218605933619037E9, 2021-05-24 14:49:53.361
27.0, -267.2027587890625, -128.1177520751953, 12.562323570251465, -34.86895751953125, -0.08000000566244125, 0.0, 1.040000081062317, 0.0, 0.0, 0.0, 0.0, 0.0, 1.621860593362604E9, 2021-05-24 14:49:53.362
27.0, -144.6088409423828, -44.91993713378906, 131.56968688964844, 62.79853057861328, -0.08000000566244125, 0.0, 1.040000081062317, 0.0, 0.0, 0.0, 0.0, 0.0, 1.621860593362604E9, 2021-05-24 14:49:53.362
28.0, -123.28018951416016, -9.024378776550293, 157.4871826171875, 93.21513366699219, -0.08000000566244125, 0.0, 1.040000081062317, 0.0, 0.0, 0.0, 0.0, 0.0, 1.621860593376178E9, 2021-05-24 14:49:53.376
28.0, -185.0895233154297, -56.91379928588867, 96.6165771484375, 38.092750549316406, -0.08000000566244125, 0.0, 1.040000081062317, 0.0, 0.0, 0.0, 0.0, 0.0, 1.621860593376178E9, 2021-05-24 14:49:53.376
29.0, -272.2965087890625, -128.21873474121094, 8.526971817016602, -36.82866668701172, -0.08000000566244125, 0.0, 1.040000081062317, 0.0, 0.0, 0.0, 0.0, 0.0, 1.6218605933918743E9, 2021-05-24 14:49:53.391
29.0, -151.5500946044922, -39.57936096191406, 135.5751190185547, 54.7839241027832, -0.08000000566244125, 0.0, 1.040000081062317, 0.0, 0.0, 0.0, 0.0, 0.0, 1.6218605933918743E9, 2021-05-24 14:49:53.391
30.0, -130.21022033691406, -3.5716044902801514, 163.11573791503906, 94.37824249267578, -0.08000000566244125, 0.0, 1.055999994277954, 0.0, 0.0, 0.0, 0.0, 0.0, 1.6218605933926013E9, 2021-05-24 14:49:53.392
30.0, -190.90879821777344, -54.344486236572266, 103.66629028320312, 40.3479118347168, -0.08000000566244125, 0.0, 1.055999994277954, 0.0, 0.0, 0.0, 0.0, 0.0, 1.6218605933926013E9, 2021-05-24 14:49:53.392
31.0, -278.1531982421875, -130.54495239257812, 12.18459415435791, -30.72140884399414, -0.08000000566244125, 0.0, 1.055999994277954, 0.0, 0.0, 0.0, 0.0, 0.0, 1.6218605934061918E9, 2021-05-24 14:49:53.406
31.0, -150.17007446289062, -47.089080810546875, 130.49258422851562, 56.30606460571289, -0.08000000566244125, 0.0, 1.055999994277954, 0.0, 0.0, 0.0, 0.0, 0.0, 1.6218605934061918E9, 2021-05-24 14:49:53.406
32.0, -127.99994659423828, -7.554597854614258, 159.6151885986328, 91.30778503417969, -0.08000000566244125, 0.0, 1.055999994277954, 0.0, 0.0, 0.0, 0.0, 0.0, 1.6218605934219873E9, 2021-05-24 14:49:53.421
32.0, -189.05381774902344, -49.52375411987305, 99.2681655883789, 41.21930694580078, -0.08000000566244125, 0.0, 1.055999994277954, 0.0, 0.0, 0.0, 0.0, 0.0, 1.6218605934219873E9, 2021-05-24 14:49:53.421
33.0, -280.9132385253906, -127.68392181396484, 10.65871524810791, -40.665802001953125, -0.08000000566244125, 0.0, 1.055999994277954, 0.0, 0.0, 0.0, 0.0, 0.0, 1.62186059342275E9, 2021-05-24 14:49:53.422
33.0, -150.6300811767578, -40.71628952026367, 133.4957275390625, 52.124855041503906, -0.08000000566244125, 0.0, 1.055999994277954, 0.0, 0.0, 0.0, 0.0, 0.0, 1.62186059342275E9, 2021-05-24 14:49:53.422
34.0, -121.0998306274414, -4.641215801239014, 163.9272918701172, 85.29402923583984, -0.08000000566244125, 0.0, 1.055999994277954, 0.0, 0.0, 0.0, 0.0, 0.0, 1.6218605934361384E9, 2021-05-24 14:49:53.436
34.0, -189.00144958496094, -56.56598663330078, 97.17008209228516, 39.33439636230469, -0.08000000566244125, 0.0, 1.055999994277954, 0.0, 0.0, 0.0, 0.0, 0.0, 1.6218605934361384E9, 2021-05-24 14:49:53.436
35.0, -270.7781066894531, -123.5550765991211, 11.963939666748047, -30.242700576782227, -0.08000000566244125, 0.0, 1.055999994277954, 0.0, 0.0, 0.0, 0.0, 0.0, 1.621860593451914E9, 2021-05-24 14:49:53.451
35.0, -151.67724609375, -50.230594635009766, 125.63819885253906, 53.68439483642578, -0.08000000566244125, 0.0, 1.055999994277954, 0.0, 0.0, 0.0, 0.0, 0.0, 1.621860593451914E9, 2021-05-24 14:49:53.451
36.0, -120.02648162841797, -3.1676952838897705, 161.18594360351562, 92.74391174316406, -0.08000000566244125, 0.0, 1.055999994277954, 0.0, 0.0, 0.0, 0.0, 0.0, 1.6218605934526963E9, 2021-05-24 14:49:53.452
36.0, -177.49752807617188, -54.55392074584961, 96.28746795654297, 43.055599212646484, -0.08000000566244125, 0.0, 1.055999994277954, 0.0, 0.0, 0.0, 0.0, 0.0, 1.6218605934526963E9, 2021-05-24 14:49:53.452
37.0, -275.02288818359375, -133.76873779296875, 10.583916664123535, -40.58726501464844, -0.08000000566244125, 0.0, 1.055999994277954, 0.0, 0.0, 0.0, 0.0, 0.0, 1.6218605934662316E9, 2021-05-24 14:49:53.466
37.0, -154.01095581054688, -50.97483825683594, 131.94366455078125, 54.86994171142578, -0.08000000566244125, 0.0, 1.055999994277954, 0.0, 0.0, 0.0, 0.0, 0.0, 1.6218605934662316E9, 2021-05-24 14:49:53.466
38.0, -125.47925567626953, -9.559184074401855, 155.78927612304688, 89.48645782470703, -0.08000000566244125, 0.0, 1.055999994277954, 0.0, 0.0, 0.0, 0.0, 0.0, 1.6218605934819107E9, 2021-05-24 14:49:53.481
38.0, -185.71408081054688, -53.83586120605469, 98.95027160644531, 39.2147216796875, -0.08000000566244125, 0.0, 1.055999994277954, 0.0, 0.0, 0.0, 0.0, 0.0, 1.6218605934819107E9, 2021-05-24 14:49:53.481
39.0, -278.80767822265625, -127.8148193359375, 10.224886894226074, -44.82456970214844, -0.08000000566244125, 0.0, 1.055999994277954, 0.0, 0.0, 0.0, 0.0, 0.0, 1.6218605934826152E9, 2021-05-24 14:49:53.482
39.0, -154.73275756835938, -47.72860336303711, 131.05357360839844, 48.32137680053711, -0.08000000566244125, 0.0, 1.055999994277954, 0.0, 0.0, 0.0, 0.0, 0.0, 1.6218605934826152E9, 2021-05-24 14:49:53.482
40.0, -128.11587524414062, -11.81434440612793, 151.8175048828125, 86.11680603027344, -0.08000000566244125, 0.0, 1.040000081062317, 0.0, 0.0, 0.0, 0.0, 0.0, 1.6218605934962196E9, 2021-05-24 14:49:53.496
40.0, -186.73507690429688, -57.6243782043457, 102.27130126953125, 40.19831466674805, -0.08000000566244125, 0.0, 1.040000081062317, 0.0, 0.0, 0.0, 0.0, 0.0, 1.6218605934962196E9, 2021-05-24 14:49:53.496
41.0, -273.5718078613281, -130.45144653320312, 7.304024696350098, -38.477962493896484, -0.08000000566244125, 0.01600000075995922, 1.040000081062317, 0.0, 0.0, 0.0, 0.0, 0.0, 1.621860593511886E9, 2021-05-24 14:49:53.511
41.0, -152.7954864501953, -47.91559982299805, 129.25094604492188, 58.22089385986328, -0.08000000566244125, 0.01600000075995922, 1.040000081062317, 0.0, 0.0, 0.0, 0.0, 0.0, 1.621860593511886E9, 2021-05-24 14:49:53.511
42.0, -126.99765014648438, -11.414175033569336, 162.98858642578125, 94.40068817138672, -0.08000000566244125, 0.01600000075995922, 1.040000081062317, 0.0, 0.0, 0.0, 0.0, 0.0, 1.6218605935126307E9, 2021-05-24 14:49:53.512
42.0, -186.5331268310547, -52.859745025634766, 96.71381378173828, 38.75471496582031, -0.08000000566244125, 0.01600000075995922, 1.040000081062317, 0.0, 0.0, 0.0, 0.0, 0.0, 1.6218605935126307E9, 2021-05-24 14:49:53.512
43.0, -275.22857666015625, -125.8850326538086, 11.657268524169922, -38.21242904663086, -0.08000000566244125, 0.01600000075995922, 1.040000081062317, 0.0, 0.0, 0.0, 0.0, 0.0, 1.621860593526275E9, 2021-05-24 14:49:53.526
43.0, -150.80210876464844, -45.656700134277344, 128.5927276611328, 57.143802642822266, -0.08000000566244125, 0.01600000075995922, 1.040000081062317, 0.0, 0.0, 0.0, 0.0, 0.0, 1.621860593526275E9, 2021-05-24 14:49:53.526
44.0, -120.64356231689453, -14.215359687805176, 160.52772521972656, 93.50685119628906, -0.08000000566244125, 0.01600000075995922, 1.040000081062317, 0.0, 0.0, 0.0, 0.0, 0.0, 1.6218605935419185E9, 2021-05-24 14:49:53.541
44.0, -181.0167694091797, -54.860591888427734, 95.56940460205078, 41.42500305175781, -0.08000000566244125, 0.01600000075995922, 1.040000081062317, 0.0, 0.0, 0.0, 0.0, 0.0, 1.6218605935419185E9, 2021-05-24 14:49:53.541
45.0, -270.79681396484375, -125.14453125, 8.912181854248047, -39.59992980957031, -0.08000000566244125, 0.01600000075995922, 1.040000081062317, 0.0, 0.0, 0.0, 0.0, 0.0, 1.6218605935426428E9, 2021-05-24 14:49:53.542
45.0, -147.16693115234375, -42.71339797973633, 129.65110778808594, 49.84725570678711, -0.08000000566244125, 0.01600000075995922, 1.040000081062317, 0.0, 0.0, 0.0, 0.0, 0.0, 1.6218605935426428E9, 2021-05-24 14:49:53.542
46.0, -123.07075500488281, -7.9809465408325195, 162.03115844726562, 80.38728332519531, -0.08000000566244125, 0.01600000075995922, 1.040000081062317, 0.0, 0.0, 0.0, 0.0, 0.0, 1.621860593556314E9, 2021-05-24 14:49:53.556
46.0, -177.9276123046875, -49.12732696533203, 108.0419692993164, 38.49665832519531, -0.08000000566244125, 0.01600000075995922, 1.040000081062317, 0.0, 0.0, 0.0, 0.0, 0.0, 1.621860593556314E9, 2021-05-24 14:49:53.556
47.0, -271.2044677734375, -125.60079956054688, 9.390889167785645, -42.33005905151367, -0.08000000566244125, 0.01600000075995922, 1.040000081062317, 0.0, 0.0, 0.0, 0.0, 0.0, 1.6218605935719063E9, 2021-05-24 14:49:53.571
47.0, -145.9103240966797, -46.43459701538086, 131.09097290039062, 47.9174690246582, -0.08000000566244125, 0.01600000075995922, 1.040000081062317, 0.0, 0.0, 0.0, 0.0, 0.0, 1.6218605935719063E9, 2021-05-24 14:49:53.571
48.0, -118.0892105102539, -5.594890117645264, 162.51361083984375, 86.39356231689453, -0.08000000566244125, 0.01600000075995922, 1.040000081062317, 0.0, 0.0, 0.0, 0.0, 0.0, 1.6218605935726058E9, 2021-05-24 14:49:53.572
48.0, -183.37664794921875, -53.820899963378906, 103.75978088378906, 35.609458923339844, -0.08000000566244125, 0.01600000075995922, 1.040000081062317, 0.0, 0.0, 0.0, 0.0, 0.0, 1.6218605935726058E9, 2021-05-24 14:49:53.572
49.0, -277.0162658691406, -132.4709930419922, 9.555444717407227, -40.80418014526367, -0.08000000566244125, 0.01600000075995922, 1.040000081062317, 0.0, 0.0, 0.0, 0.0, 0.0, 1.62186059358622E9, 2021-05-24 14:49:53.586
49.0, -151.54261779785156, -43.24446487426758, 131.9661102294922, 54.125701904296875, -0.08000000566244125, 0.01600000075995922, 1.040000081062317, 0.0, 0.0, 0.0, 0.0, 0.0, 1.62186059358622E9, 2021-05-24 14:49:53.586
50.0, -113.83694458007812, -10.916768074035645, 157.6180877685547, 89.09376525878906, -0.08000000566244125, 0.01600000075995922, 1.055999994277954, 0.0, 0.0, 0.0, 0.0, 0.0, 1.621860593602648E9, 2021-05-24 14:49:53.602
50.0, -177.98744201660156, -51.66297912597656, 91.4405517578125, 39.43911361694336, -0.08000000566244125, 0.01600000075995922, 1.055999994277954, 0.0, 0.0, 0.0, 0.0, 0.0, 1.621860593602648E9, 2021-05-24 14:49:53.602
51.0, -260.26898193359375, -134.7785186767578, 11.61238956451416, -36.46589279174805, -0.08000000566244125, 0.01600000075995922, 1.055999994277954, 0.0, 0.0, 0.0, 0.0, 0.0, 1.6218605936034112E9, 2021-05-24 14:49:53.603
51.0, -142.02456665039062, -47.77348327636719, 131.2630157470703, 61.59428405761719, -0.08000000566244125, 0.01600000075995922, 1.055999994277954, 0.0, 0.0, 0.0, 0.0, 0.0, 1.6218605936034112E9, 2021-05-24 14:49:53.603
52.0, -116.01730346679688, -10.572697639465332, 161.82546997070312, 84.61710357666016, -0.06400000303983688, 0.01600000075995922, 1.055999994277954, 0.0, 0.0, 0.0, 0.0, 0.0, 1.6218605936163278E9, 2021-05-24 14:49:53.616
52.0, -179.7152862548828, -54.583839416503906, 97.12519836425781, 37.53550720214844, -0.06400000303983688, 0.01600000075995922, 1.055999994277954, 0.0, 0.0, 0.0, 0.0, 0.0, 1.6218605936163278E9, 2021-05-24 14:49:53.616
53.0, -271.95989990234375, -123.54759216308594, 8.99071979522705, -41.039791107177734, -0.06400000303983688, 0.01600000075995922, 1.055999994277954, 0.0, 0.0, 0.0, 0.0, 0.0, 1.6218605936319623E9, 2021-05-24 14:49:53.631
53.0, -150.27105712890625, -46.83102798461914, 130.90771484375, 52.401607513427734, -0.06400000303983688, 0.01600000075995922, 1.055999994277954, 0.0, 0.0, 0.0, 0.0, 0.0, 1.6218605936319623E9, 2021-05-24 14:49:53.631
54.0, -123.45222473144531, -8.538191795349121, 160.35943603515625, 89.35182189941406, -0.06400000303983688, 0.01600000075995922, 1.055999994277954, 0.0, 0.0, 0.0, 0.0, 0.0, 1.6218605936326723E9, 2021-05-24 14:49:53.632
54.0, -178.54843139648438, -57.07461166381836, 104.18987274169922, 39.618629455566406, -0.06400000303983688, 0.01600000075995922, 1.055999994277954, 0.0, 0.0, 0.0, 0.0, 0.0, 1.6218605936326723E9, 2021-05-24 14:49:53.632
55.0, -267.0980529785156, -132.4897003173828, 5.381716251373291, -39.97018051147461, -0.06400000303983688, 0.01600000075995922, 1.055999994277954, 0.0, 0.0, 0.0, 0.0, 0.0, 1.6218605936462636E9, 2021-05-24 14:49:53.646
55.0, -148.6217498779297, -41.640045166015625, 134.0791473388672, 54.54457092285156, -0.06400000303983688, 0.01600000075995922, 1.055999994277954, 0.0, 0.0, 0.0, 0.0, 0.0, 1.6218605936462636E9, 2021-05-24 14:49:53.646
56.0, -124.37598419189453, -5.220900535583496, 164.48080444335938, 82.48162078857422, -0.06400000303983688, 0.01600000075995922, 1.055999994277954, 0.0, 0.0, 0.0, 0.0, 0.0, 1.6218605936782997E9, 2021-05-24 14:49:53.678
56.0, -182.3406982421875, -53.858299255371094, 99.6047592163086, 34.90635681152344, -0.06400000303983688, 0.01600000075995922, 1.055999994277954, 0.0, 0.0, 0.0, 0.0, 0.0, 1.6218605936782997E9, 2021-05-24 14:49:53.678
57.0, -267.66278076171875, -125.91869354248047, 19.907487869262695, -40.482547760009766, -0.06400000303983688, 0.01600000075995922, 1.055999994277954, 0.0, 0.0, 0.0, 0.0, 0.0, 1.6218605936791189E9, 2021-05-24 14:49:53.679
57.0, -146.41896057128906, -42.24216842651367, 137.9873504638672, 53.10470962524414, -0.06400000303983688, 0.01600000075995922, 1.055999994277954, 0.0, 0.0, 0.0, 0.0, 0.0, 1.6218605936791189E9, 2021-05-24 14:49:53.679
58.0, -117.62920379638672, -4.603816986083984, 166.00294494628906, 86.30380249023438, -0.06400000303983688, 0.01600000075995922, 1.055999994277954, 0.0, 0.0, 0.0, 0.0, 0.0, 1.6218605936798744E9, 2021-05-24 14:49:53.679
58.0, -182.03402709960938, -54.51652145385742, 98.13497161865234, 30.54563331604004, -0.06400000303983688, 0.01600000075995922, 1.055999994277954, 0.0, 0.0, 0.0, 0.0, 0.0, 1.6218605936798744E9, 2021-05-24 14:49:53.679
59.0, -260.2203674316406, -129.12753295898438, 16.736051559448242, -43.18275451660156, -0.06400000303983688, 0.01600000075995922, 1.055999994277954, 0.0, 0.0, 0.0, 0.0, 0.0, 1.6218605936806152E9, 2021-05-24 14:49:53.680
59.0, -146.78172302246094, -53.22999572753906, 129.5576171875, 46.18963623046875, -0.06400000303983688, 0.01600000075995922, 1.055999994277954, 0.0, 0.0, 0.0, 0.0, 0.0, 1.6218605936806152E9, 2021-05-24 14:49:53.680
60.0, -108.81800079345703, -8.725186347961426, 165.5130157470703, 87.70626068115234, -0.06400000303983688, 0.01600000075995922, 1.055999994277954, 0.0, 0.0, 0.0, 0.0, 0.0, 1.6218605936912858E9, 2021-05-24 14:49:53.691
60.0, -180.7213134765625, -61.48021697998047, 101.317626953125, 40.134735107421875, -0.06400000303983688, 0.01600000075995922, 1.055999994277954, 0.0, 0.0, 0.0, 0.0, 0.0, 1.6218605936912858E9, 2021-05-24 14:49:53.691
61.0, -265.15704345703125, -133.12921142578125, 8.530712127685547, -41.088409423828125, -0.06400000303983688, 0.0, 1.055999994277954, 0.0, 0.0, 0.0, 0.0, 0.0, 1.6218605937367089E9, 2021-05-24 14:49:53.736
61.0, -141.9385528564453, -46.614112854003906, 131.47618103027344, 56.238746643066406, -0.06400000303983688, 0.0, 1.055999994277954, 0.0, 0.0, 0.0, 0.0, 0.0, 1.6218605937367089E9, 2021-05-24 14:49:53.736
62.0, -116.82512664794922, -7.154428482055664, 156.66441345214844, 88.52529907226562, -0.08000000566244125, 0.0, 1.055999994277954, 0.0, 0.0, 0.0, 0.0, 0.0, 1.621860593753886E9, 2021-05-24 14:49:53.753
62.0, -178.26046752929688, -55.7469482421875, 98.05643463134766, 40.64336395263672, -0.08000000566244125, 0.0, 1.055999994277954, 0.0, 0.0, 0.0, 0.0, 0.0, 1.621860593753886E9, 2021-05-24 14:49:53.753
63.0, -265.8489074707031, -134.75607299804688, 7.820130825042725, -41.79525375366211, -0.08000000566244125, 0.0, 1.055999994277954, 0.0, 0.0, 0.0, 0.0, 0.0, 1.6218605937546532E9, 2021-05-24 14:49:53.754
63.0, -147.58580017089844, -49.370418548583984, 128.85076904296875, 55.53564453125, -0.08000000566244125, 0.0, 1.055999994277954, 0.0, 0.0, 0.0, 0.0, 0.0, 1.6218605937546532E9, 2021-05-24 14:49:53.754
64.0, -117.13179779052734, -10.034152030944824, 157.98458862304688, 91.69673919677734, -0.08000000566244125, 0.0, 1.055999994277954, 0.0, 0.0, 0.0, 0.0, 0.0, 1.6218605937554667E9, 2021-05-24 14:49:53.755
64.0, -176.04644775390625, -54.41928482055664, 96.32112121582031, 44.439361572265625, -0.08000000566244125, 0.0, 1.055999994277954, 0.0, 0.0, 0.0, 0.0, 0.0, 1.6218605937554667E9, 2021-05-24 14:49:53.755
65.0, -268.5154724121094, -130.21583557128906, 8.253959655761719, -34.25187301635742, -0.08000000566244125, 0.0, 1.055999994277954, 0.0, 0.0, 0.0, 0.0, 0.0, 1.6218605937561476E9, 2021-05-24 14:49:53.756
65.0, -153.01239013671875, -51.93973159790039, 124.9612808227539, 50.77849197387695, -0.08000000566244125, 0.0, 1.055999994277954, 0.0, 0.0, 0.0, 0.0, 0.0, 1.6218605937561476E9, 2021-05-24 14:49:53.756
66.0, -123.39987182617188, -12.622162818908691, 159.49925231933594, 88.54774475097656, -0.08000000566244125, 0.0, 1.055999994277954, 0.0, 0.0, 0.0, 0.0, 0.0, 1.6218605937668924E9, 2021-05-24 14:49:53.766
66.0, -186.50320434570312, -57.9647102355957, 96.9756088256836, 38.97910690307617, -0.08000000566244125, 0.0, 1.055999994277954, 0.0, 0.0, 0.0, 0.0, 0.0, 1.6218605937668924E9, 2021-05-24 14:49:53.766
67.0, -269.626220703125, -126.74520874023438, 13.886248588562012, -35.040992736816406, -0.08000000566244125, 0.0, 1.055999994277954, 0.0, 0.0, 0.0, 0.0, 0.0, 1.6218605937677207E9, 2021-05-24 14:49:53.767
67.0, -153.7154998779297, -45.7988166809082, 130.04380798339844, 55.83857727050781, -0.08000000566244125, 0.0, 1.055999994277954, 0.0, 0.0, 0.0, 0.0, 0.0, 1.6218605937677207E9, 2021-05-24 14:49:53.767
68.0, -119.85444641113281, -8.392335891723633, 154.50274658203125, 87.14901733398438, -0.08000000566244125, 0.0, 1.055999994277954, 0.0, 0.0, 0.0, 0.0, 0.0, 1.6218605937819808E9, 2021-05-24 14:49:53.781
68.0, -182.78199768066406, -51.84623336791992, 92.95147705078125, 41.30158615112305, -0.08000000566244125, 0.0, 1.055999994277954, 0.0, 0.0, 0.0, 0.0, 0.0, 1.6218605937819808E9, 2021-05-24 14:49:53.781
69.0, -269.0240783691406, -129.86802673339844, 11.429134368896484, -36.989479064941406, -0.08000000566244125, 0.0, 1.055999994277954, 0.0, 0.0, 0.0, 0.0, 0.0, 1.6218605937826462E9, 2021-05-24 14:49:53.782
69.0, -147.40628051757812, -50.765403747558594, 125.60453796386719, 48.38495635986328, -0.08000000566244125, 0.0, 1.055999994277954, 0.0, 0.0, 0.0, 0.0, 0.0, 1.6218605937826462E9, 2021-05-24 14:49:53.782
70.0, -114.86167907714844, -8.822423934936523, 165.1689453125, 89.18352508544922, -0.08000000566244125, 0.0, 1.055999994277954, 0.0, 0.0, 0.0, 0.0, 0.0, 1.62186059379624E9, 2021-05-24 14:49:53.796
70.0, -179.01966857910156, -56.71184158325195, 101.41860961914062, 36.884761810302734, -0.08000000566244125, 0.0, 1.055999994277954, 0.0, 0.0, 0.0, 0.0, 0.0, 1.62186059379624E9, 2021-05-24 14:49:53.796
71.0, -266.7016296386719, -124.06744384765625, 14.230319023132324, -34.652042388916016, -0.08000000566244125, 0.0, 1.055999994277954, 0.0, 0.0, 0.0, 0.0, 0.0, 1.6218605938118584E9, 2021-05-24 14:49:53.811
71.0, -147.09213256835938, -43.01633071899414, 127.01448059082031, 52.162254333496094, -0.08000000566244125, 0.0, 1.055999994277954, 0.0, 0.0, 0.0, 0.0, 0.0, 1.6218605938118584E9, 2021-05-24 14:49:53.811
72.0, -116.499755859375, -3.2163140773773193, 163.5532989501953, 87.7735824584961, -0.08000000566244125, 0.0, 1.055999994277954, 0.0, 0.0, 0.0, 0.0, 0.0, 1.6218605938126397E9, 2021-05-24 14:49:53.812
72.0, -188.07769775390625, -53.09162139892578, 97.0167465209961, 35.889949798583984, -0.08000000566244125, 0.0, 1.055999994277954, 0.0, 0.0, 0.0, 0.0, 0.0, 1.6218605938126397E9, 2021-05-24 14:49:53.812
73.0, -270.92022705078125, -126.39366149902344, 9.289911270141602, -39.98139953613281, -0.08000000566244125, 0.0, 1.055999994277954, 0.0, 0.0, 0.0, 0.0, 0.0, 1.6218605938262749E9, 2021-05-24 14:49:53.826
73.0, -146.45260620117188, -35.93669891357422, 132.07083129882812, 52.08745574951172, -0.08000000566244125, 0.0, 1.055999994277954, 0.0, 0.0, 0.0, 0.0, 0.0, 1.6218605938262749E9, 2021-05-24 14:49:53.826
74.0, -121.38780212402344, -5.104963302612305, 162.1957244873047, 83.86912536621094, -0.08000000566244125, 0.0, 1.055999994277954, 0.0, 0.0, 0.0, 0.0, 0.0, 1.6218605938418615E9, 2021-05-24 14:49:53.841
74.0, -183.8553466796875, -56.378990173339844, 97.38325500488281, 33.365516662597656, -0.08000000566244125, 0.0, 1.055999994277954, 0.0, 0.0, 0.0, 0.0, 0.0, 1.6218605938418615E9, 2021-05-24 14:49:53.841
75.0, -271.4849548339844, -123.3007583618164, 13.669334411621094, -43.4819450378418, -0.08000000566244125, 0.0, 1.055999994277954, 0.0, 0.0, 0.0, 0.0, 0.0, 1.621860593842602E9, 2021-05-24 14:49:53.842
75.0, -149.2612762451172, -51.01223373413086, 124.34419250488281, 44.93302917480469, -0.08000000566244125, 0.0, 1.055999994277954, 0.0, 0.0, 0.0, 0.0, 0.0, 1.621860593842602E9, 2021-05-24 14:49:53.842
76.0, -113.23856353759766, -1.4623008966445923, 160.1537322998047, 81.3521728515625, -0.08000000566244125, 0.0, 1.055999994277954, 0.0, 0.0, 0.0, 0.0, 0.0, 1.6218605938562937E9, 2021-05-24 14:49:53.856
76.0, -171.06863403320312, -51.53582000732422, 99.48881530761719, 36.92964172363281, -0.08000000566244125, 0.0, 1.055999994277954, 0.0, 0.0, 0.0, 0.0, 0.0, 1.6218605938562937E9, 2021-05-24 14:49:53.856
77.0, -268.100341796875, -132.7290496826172, 0.5161061882972717, -46.42898941040039, -0.08000000566244125, 0.0, 1.055999994277954, 0.0, 0.0, 0.0, 0.0, 0.0, 1.621860593871915E9, 2021-05-24 14:49:53.871
77.0, -141.83009338378906, -47.11899948120117, 121.86090087890625, 56.3696403503418, -0.08000000566244125, 0.0, 1.055999994277954, 0.0, 0.0, 0.0, 0.0, 0.0, 1.621860593871915E9, 2021-05-24 14:49:53.871
78.0, -112.80473327636719, -11.829303741455078, 155.34796142578125, 86.22152709960938, -0.08000000566244125, 0.0, 1.055999994277954, 0.0, 0.0, 0.0, 0.0, 0.0, 1.6218605938725872E9, 2021-05-24 14:49:53.872
78.0, -179.0757598876953, -61.502655029296875, 95.6554183959961, 40.29555130004883, -0.08000000566244125, 0.0, 1.055999994277954, 0.0, 0.0, 0.0, 0.0, 0.0, 1.6218605938725872E9, 2021-05-24 14:49:53.872
79.0, -269.46539306640625, -142.6061248779297, 8.167941093444824, -37.479408264160156, -0.08000000566244125, 0.0, 1.055999994277954, 0.0, 0.0, 0.0, 0.0, 0.0, 1.6218605938862748E9, 2021-05-24 14:49:53.886
79.0, -140.3116912841797, -48.60374069213867, 126.80504608154297, 53.265525817871094, -0.08000000566244125, 0.0, 1.055999994277954, 0.0, 0.0, 0.0, 0.0, 0.0, 1.6218605938862748E9, 2021-05-24 14:49:53.886
80.0, -109.03117370605469, -9.263731956481934, 161.694580078125, 90.8253402709961, -0.08000000566244125, 0.0, 1.055999994277954, 0.0, 0.0, 0.0, 0.0, 0.0, 1.6218605939019516E9, 2021-05-24 14:49:53.901
80.0, -166.44985961914062, -52.6652717590332, 94.33897399902344, 35.30278396606445, -0.08000000566244125, 0.0, 1.055999994277954, 0.0, 0.0, 0.0, 0.0, 0.0, 1.6218605939019516E9, 2021-05-24 14:49:53.901
81.0, -255.82225036621094, -133.09181213378906, 6.309211254119873, -39.2446403503418, -0.08000000566244125, 0.0, 1.055999994277954, 0.0, 0.0, 0.0, 0.0, 0.0, 1.6218605939027052E9, 2021-05-24 14:49:53.902
81.0, -135.6293487548828, -45.795074462890625, 129.66607666015625, 51.06272506713867, -0.08000000566244125, 0.0, 1.055999994277954, 0.0, 0.0, 0.0, 0.0, 0.0, 1.6218605939027052E9, 2021-05-24 14:49:53.902
82.0, -109.96240997314453, -9.013158798217773, 165.86082458496094, 87.23129272460938, -0.06400000303983688, 0.0, 1.055999994277954, 0.0, 0.0, 0.0, 0.0, 0.0, 1.6218605939162512E9, 2021-05-24 14:49:53.916
82.0, -172.62069702148438, -59.883277893066406, 102.09178924560547, 32.389404296875, -0.06400000303983688, 0.0, 1.055999994277954, 0.0, 0.0, 0.0, 0.0, 0.0, 1.6218605939162512E9, 2021-05-24 14:49:53.916
83.0, -260.5307922363281, -128.7797088623047, 14.989519119262695, -41.544677734375, -0.06400000303983688, 0.0, 1.055999994277954, 0.0, 0.0, 0.0, 0.0, 0.0, 1.6218605939320736E9, 2021-05-24 14:49:53.932
83.0, -140.29673767089844, -39.42976379394531, 133.67898559570312, 53.63203430175781, -0.06400000303983688, 0.0, 1.055999994277954, 0.0, 0.0, 0.0, 0.0, 0.0, 1.6218605939320736E9, 2021-05-24 14:49:53.932
84.0, -115.30672454833984, -6.866456508636475, 162.4014129638672, 85.35760498046875, -0.06400000303983688, 0.0, 1.055999994277954, 0.0, 0.0, 0.0, 0.0, 0.0, 1.6218605939326653E9, 2021-05-24 14:49:53.932
84.0, -174.7150421142578, -51.004756927490234, 103.33717346191406, 36.40605545043945, -0.06400000303983688, 0.0, 1.055999994277954, 0.0, 0.0, 0.0, 0.0, 0.0, 1.6218605939326653E9, 2021-05-24 14:49:53.932
85.0, -261.1927490234375, -128.876953125, 4.843170642852783, -43.01445770263672, -0.06400000303983688, 0.0, 1.055999994277954, 0.0, 0.0, 0.0, 0.0, 0.0, 1.6218605939462504E9, 2021-05-24 14:49:53.946
85.0, -144.0179443359375, -45.652957916259766, 129.22476196289062, 43.07803726196289, -0.06400000303983688, 0.0, 1.055999994277954, 0.0, 0.0, 0.0, 0.0, 0.0, 1.6218605939462504E9, 2021-05-24 14:49:53.946
86.0, -111.84357452392578, -3.829657554626465, 162.4500274658203, 88.01293182373047, -0.06400000303983688, 0.0, 1.055999994277954, 0.0, 0.0, 0.0, 0.0, 0.0, 1.6218605939619985E9, 2021-05-24 14:49:53.961
86.0, -172.1083221435547, -46.849727630615234, 104.41053009033203, 35.24294662475586, -0.06400000303983688, 0.0, 1.055999994277954, 0.0, 0.0, 0.0, 0.0, 0.0, 1.6218605939619985E9, 2021-05-24 14:49:53.961
87.0, -256.398193359375, -124.26565551757812, 20.135622024536133, -35.747833251953125, -0.06400000303983688, 0.0, 1.055999994277954, 0.0, 0.0, 0.0, 0.0, 0.0, 1.6218605939627402E9, 2021-05-24 14:49:53.962
87.0, -141.84506225585938, -42.0439567565918, 134.48306274414062, 56.6276969909668, -0.06400000303983688, 0.0, 1.055999994277954, 0.0, 0.0, 0.0, 0.0, 0.0, 1.6218605939627402E9, 2021-05-24 14:49:53.962
88.0, -117.80497741699219, -3.9605541229248047, 166.2310791015625, 82.97528839111328, -0.06400000303983688, 0.0, 1.055999994277954, 0.0, 0.0, 0.0, 0.0, 0.0, 1.621860593976192E9, 2021-05-24 14:49:53.976
88.0, -179.36373901367188, -52.74007034301758, 104.73963928222656, 35.175628662109375, -0.06400000303983688, 0.0, 1.055999994277954, 0.0, 0.0, 0.0, 0.0, 0.0, 1.621860593976192E9, 2021-05-24 14:49:53.976
89.0, -258.8852233886719, -121.78236389160156, 18.23575210571289, -38.1413688659668, -0.06400000303983688, 0.0, 1.055999994277954, 0.0, 0.0, 0.0, 0.0, 0.0, 1.621860593992037E9, 2021-05-24 14:49:53.992
89.0, -143.35223388671875, -49.50131607055664, 131.86138916015625, 46.099876403808594, -0.06400000303983688, 0.0, 1.055999994277954, 0.0, 0.0, 0.0, 0.0, 0.0, 1.621860593992037E9, 2021-05-24 14:49:53.992
90.0, -121.70569610595703, -4.016652584075928, 166.9453887939453, 81.19883728027344, -0.06400000303983688, 0.0, 1.055999994277954, 0.0, 0.0, 0.0, 0.0, 0.0, 1.6218605939928067E9, 2021-05-24 14:49:53.992
90.0, -179.7078094482422, -53.54414749145508, 99.61597442626953, 36.77630615234375, -0.06400000303983688, 0.0, 1.055999994277954, 0.0, 0.0, 0.0, 0.0, 0.0, 1.6218605939928067E9, 2021-05-24 14:49:53.992
91.0, -261.1590881347656, -129.3818359375, 11.649787902832031, -39.54757308959961, -0.06400000303983688, 0.0, 1.055999994277954, 0.0, 0.0, 0.0, 0.0, 0.0, 1.6218605940062187E9, 2021-05-24 14:49:54.006
91.0, -142.76133728027344, -49.63969039916992, 129.14996337890625, 45.112545013427734, -0.06400000303983688, 0.0, 1.055999994277954, 0.0, 0.0, 0.0, 0.0, 0.0, 1.6218605940062187E9, 2021-05-24 14:49:54.006
92.0, -113.99775695800781, -6.993612766265869, 165.7598419189453, 90.25313568115234, -0.06400000303983688, 0.0, 1.055999994277954, 0.0, 0.0, 0.0, 0.0, 0.0, 1.6218605940219843E9, 2021-05-24 14:49:54.021
92.0, -169.9952850341797, -50.01742172241211, 104.3058090209961, 30.751327514648438, -0.06400000303983688, 0.0, 1.055999994277954, 0.0, 0.0, 0.0, 0.0, 0.0, 1.6218605940219843E9, 2021-05-24 14:49:54.021
93.0, -265.6768798828125, -125.38014221191406, 8.762585639953613, -41.88127136230469, -0.06400000303983688, 0.0, 1.055999994277954, 0.0, 0.0, 0.0, 0.0, 0.0, 1.6218605940227115E9, 2021-05-24 14:49:54.022
93.0, -146.25439453125, -45.421085357666016, 132.9123077392578, 50.75231170654297, -0.06400000303983688, 0.0, 1.055999994277954, 0.0, 0.0, 0.0, 0.0, 0.0, 1.6218605940227115E9, 2021-05-24 14:49:54.022
94.0, -115.81535339355469, -7.26662540435791, 161.45895385742188, 93.54425048828125, -0.06400000303983688, 0.0, 1.055999994277954, 0.0, 0.0, 0.0, 0.0, 0.0, 1.6218605940362215E9, 2021-05-24 14:49:54.036
94.0, -183.3916015625, -60.99028778076172, 100.09841918945312, 38.623817443847656, -0.06400000303983688, 0.0, 1.055999994277954, 0.0, 0.0, 0.0, 0.0, 0.0, 1.6218605940362215E9, 2021-05-24 14:49:54.036
95.0, -270.3293151855469, -124.2581787109375, 15.019437789916992, -33.27949905395508, -0.06400000303983688, 0.0, 1.055999994277954, 0.0, 0.0, 0.0, 0.0, 0.0, 1.6218605940519416E9, 2021-05-24 14:49:54.051
95.0, -147.43994140625, -54.445465087890625, 129.53143310546875, 54.12944030761719, -0.06400000303983688, 0.0, 1.055999994277954, 0.0, 0.0, 0.0, 0.0, 0.0, 1.6218605940519416E9, 2021-05-24 14:49:54.051
96.0, -115.68819427490234, -4.828210830688477, 167.09498596191406, 91.2068099975586, -0.06400000303983688, 0.0, 1.055999994277954, 0.0, 0.0, 0.0, 0.0, 0.0, 1.6218605940526276E9, 2021-05-24 14:49:54.052
96.0, -176.79441833496094, -53.90317916870117, 107.2752914428711, 40.871498107910156, -0.06400000303983688, 0.0, 1.055999994277954, 0.0, 0.0, 0.0, 0.0, 0.0, 1.6218605940526276E9, 2021-05-24 14:49:54.052
97.0, -267.6440734863281, -134.15394592285156, 14.522031784057617, -40.77425765991211, -0.06400000303983688, 0.0, 1.055999994277954, 0.0, 0.0, 0.0, 0.0, 0.0, 1.6218605940663805E9, 2021-05-24 14:49:54.066
97.0, -143.21385192871094, -47.57526779174805, 135.04405212402344, 49.86969757080078, -0.06400000303983688, 0.0, 1.055999994277954, 0.0, 0.0, 0.0, 0.0, 0.0, 1.6218605940663805E9, 2021-05-24 14:49:54.066
98.0, -113.96410369873047, -10.355782508850098, 164.05445861816406, 87.20511627197266, -0.06400000303983688, 0.0, 1.055999994277954, 0.0, 0.0, 0.0, 0.0, 0.0, 1.6218605940818937E9, 2021-05-24 14:49:54.081
98.0, -171.3640899658203, -59.172698974609375, 104.01783752441406, 34.91009521484375, -0.06400000303983688, 0.0, 1.055999994277954, 0.0, 0.0, 0.0, 0.0, 0.0, 1.6218605940818937E9, 2021-05-24 14:49:54.081
99.0, -259.0647277832031, -129.980224609375, 17.338176727294922, -41.04353332519531, -0.06400000303983688, 0.0, 1.055999994277954, 0.0, 0.0, 0.0, 0.0, 0.0, 1.6218605940826416E9, 2021-05-24 14:49:54.082
99.0, -139.29444885253906, -46.85346603393555, 138.05841064453125, 53.59089660644531, -0.06400000303983688, 0.0, 1.055999994277954, 0.0, 0.0, 0.0, 0.0, 0.0, 1.6218605940826416E9, 2021-05-24 14:49:54.082
100.0, -110.7964096069336, -9.37218952178955, 166.16749572753906, 86.46461486816406, -0.06400000303983688, 0.0, 1.040000081062317, 0.0, 0.0, 0.0, 0.0, 0.0, 1.6218605940969121E9, 2021-05-24 14:49:54.096
100.0, -174.1989288330078, -58.43967819213867, 105.2669677734375, 34.81659698486328, -0.06400000303983688, 0.0, 1.040000081062317, 0.0, 0.0, 0.0, 0.0, 0.0, 1.6218605940969121E9, 2021-05-24 14:49:54.096
0.0, -261.1590881347656, -125.04916381835938, 16.500438690185547, -38.984718322753906, -0.06400000303983688, 0.0, 1.040000081062317, 0.0, 0.0, 0.0, 0.0, 0.0, 1.6218605940976727E9, 2021-05-24 14:49:54.097
1.0, -139.8965606689453, -44.94424819946289, 138.84378051757812, 48.805694580078125, -0.06400000303983688, 0.0, 1.040000081062317, 0.0, 0.0, 0.0, 0.0, 0.0, 1.6218605941111672E9, 2021-05-24 14:49:54.111
1.0, -109.40516662597656, -7.818260669708252, 170.90594482421875, 83.04074096679688, -0.06400000303983688, 0.0, 1.040000081062317, 0.0, 0.0, 0.0, 0.0, 0.0, 1.6218605941111672E9, 2021-05-24 14:49:54.111
2.0, -177.9313507080078, -56.182647705078125, 104.61996459960938, 30.11367416381836, -0.08000000566244125, 0.0, 1.040000081062317, 0.0, 0.0, 0.0, 0.0, 0.0, 1.6218605941270297E9, 2021-05-24 14:49:54.127
2.0, -265.3552551269531, -134.1820068359375, 12.68574047088623, -43.068687438964844, -0.08000000566244125, 0.0, 1.040000081062317, 0.0, 0.0, 0.0, 0.0, 0.0, 1.6218605941270297E9, 2021-05-24 14:49:54.127
3.0, -146.95750427246094, -47.068511962890625, 132.58319091796875, 49.377899169921875, -0.08000000566244125, 0.0, 1.040000081062317, 0.0, 0.0, 0.0, 0.0, 0.0, 1.6218605941277597E9, 2021-05-24 14:49:54.127
3.0, -112.88327026367188, -5.61545991897583, 170.09812927246094, 87.7268295288086, -0.08000000566244125, 0.0, 1.040000081062317, 0.0, 0.0, 0.0, 0.0, 0.0, 1.6218605941277597E9, 2021-05-24 14:49:54.127
4.0, -183.46640014648438, -57.86186218261719, 98.42668914794922, 34.964324951171875, -0.08000000566244125, 0.0, 1.040000081062317, 0.0, 0.0, 0.0, 0.0, 0.0, 1.6218605941411853E9, 2021-05-24 14:49:54.141
4.0, -261.30120849609375, -130.32241821289062, 12.420207977294922, -38.057220458984375, -0.08000000566244125, 0.0, 1.040000081062317, 0.0, 0.0, 0.0, 0.0, 0.0, 1.6218605941411853E9, 2021-05-24 14:49:54.141
5.0, -141.94602966308594, -50.01555252075195, 134.40078735351562, 51.094512939453125, -0.08000000566244125, 0.0, 1.040000081062317, 0.0, 0.0, 0.0, 0.0, 0.0, 1.6218605941569493E9, 2021-05-24 14:49:54.156
5.0, -117.31130981445312, -10.626925468444824, 171.22384643554688, 91.7173080444336, -0.08000000566244125, 0.0, 1.040000081062317, 0.0, 0.0, 0.0, 0.0, 0.0, 1.6218605941569493E9, 2021-05-24 14:49:54.156
6.0, -177.9313507080078, -62.27494430541992, 102.08056640625, 40.58539581298828, -0.08000000566244125, 0.0, 1.040000081062317, 0.0, 0.0, 0.0, 0.0, 0.0, 1.6218605941577568E9, 2021-05-24 14:49:54.157
6.0, -261.6041259765625, -132.2372589111328, 15.576683044433594, -37.35786056518555, -0.08000000566244125, 0.0, 1.040000081062317, 0.0, 0.0, 0.0, 0.0, 0.0, 1.6218605941577568E9, 2021-05-24 14:49:54.157
7.0, -137.12156677246094, -51.51899337768555, 139.1392364501953, 54.84937286376953, -0.08000000566244125, 0.0, 1.040000081062317, 0.0, 0.0, 0.0, 0.0, 0.0, 1.6218605941713395E9, 2021-05-24 14:49:54.171
7.0, -109.06857299804688, -22.272974014282227, 163.7216033935547, 86.86665344238281, -0.08000000566244125, 0.0, 1.040000081062317, 0.0, 0.0, 0.0, 0.0, 0.0, 1.6218605941713395E9, 2021-05-24 14:49:54.171
8.0, -170.70211791992188, -64.42912292480469, 107.46976470947266, 35.917999267578125, -0.08000000566244125, 0.0, 1.040000081062317, 0.0, 0.0, 0.0, 0.0, 0.0, 1.6218605941869714E9, 2021-05-24 14:49:54.186
8.0, -256.2673034667969, -133.22833251953125, 13.635675430297852, -41.48670959472656, -0.08000000566244125, 0.0, 1.040000081062317, 0.0, 0.0, 0.0, 0.0, 0.0, 1.6218605941869714E9, 2021-05-24 14:49:54.186
9.0, -138.0004425048828, -58.97261428833008, 134.37086486816406, 47.50046920776367, -0.08000000566244125, 0.0, 1.040000081062317, 0.0, 0.0, 0.0, 0.0, 0.0, 1.621860594187628E9, 2021-05-24 14:49:54.187
9.0, -109.90257263183594, -11.887271881103516, 167.85792541503906, 84.77979278564453, -0.08000000566244125, 0.0, 1.040000081062317, 0.0, 0.0, 0.0, 0.0, 0.0, 1.621860594187628E9, 2021-05-24 14:49:54.187
10.0, -171.15838623046875, -63.40065383911133, 106.60211181640625, 34.32854080200195, -0.08000000566244125, 0.0, 1.040000081062317, 0.0, 0.0, 0.0, 0.0, 0.0, 1.6218605942012248E9, 2021-05-24 14:49:54.201
10.0, -257.8193664550781, -133.5462188720703, 17.061424255371094, -38.22551727294922, -0.08000000566244125, 0.0, 1.040000081062317, 0.0, 0.0, 0.0, 0.0, 0.0, 1.6218605942012248E9, 2021-05-24 14:49:54.201
11.0, -146.1758575439453, -58.57992172241211, 138.0359649658203, 52.47453689575195, -0.08000000566244125, 0.0, 1.040000081062317, 0.0, 0.0, 0.0, 0.0, 0.0, 1.621860594216998E9, 2021-05-24 14:49:54.216
11.0, -110.25785827636719, -10.365132331848145, 168.67697143554688, 90.9992446899414, -0.08000000566244125, 0.0, 1.040000081062317, 0.0, 0.0, 0.0, 0.0, 0.0, 1.621860594216998E9, 2021-05-24 14:49:54.216
12.0, -171.97743225097656, -59.77294921875, 104.04401397705078, 44.71050262451172, -0.06400000303983688, 0.0, 1.040000081062317, 0.0, 0.0, 0.0, 0.0, 0.0, 1.6218605942176347E9, 2021-05-24 14:49:54.217
12.0, -262.9205627441406, -133.8454132080078, 15.793597221374512, -45.16303253173828, -0.06400000303983688, 0.0, 1.040000081062317, 0.0, 0.0, 0.0, 0.0, 0.0, 1.6218605942176347E9, 2021-05-24 14:49:54.217
13.0, -141.94602966308594, -46.75061798095703, 137.47872924804688, 49.89774703979492, -0.06400000303983688, 0.0, 1.040000081062317, 0.0, 0.0, 0.0, 0.0, 0.0, 1.6218605942312036E9, 2021-05-24 14:49:54.231
13.0, -116.6830062866211, -13.585186958312988, 168.19825744628906, 88.99092102050781, -0.06400000303983688, 0.0, 1.040000081062317, 0.0, 0.0, 0.0, 0.0, 0.0, 1.6218605942312036E9, 2021-05-24 14:49:54.231
14.0, -176.1025390625, -61.78875732421875, 104.29833221435547, 37.13720703125, -0.06400000303983688, 0.0, 1.040000081062317, 0.0, 0.0, 0.0, 0.0, 0.0, 1.6218605942469528E9, 2021-05-24 14:49:54.246
14.0, -263.84808349609375, -140.14340209960938, 16.1451473236084, -46.655250549316406, -0.06400000303983688, 0.0, 1.040000081062317, 0.0, 0.0, 0.0, 0.0, 0.0, 1.6218605942469528E9, 2021-05-24 14:49:54.246
15.0, -140.43136596679688, -57.7945442199707, 134.30728149414062, 48.87675094604492, -0.06400000303983688, 0.0, 1.040000081062317, 0.0, 0.0, 0.0, 0.0, 0.0, 1.6218605942476628E9, 2021-05-24 14:49:54.247
15.0, -103.83271026611328, -14.598699569702148, 169.01730346679688, 88.99839782714844, -0.06400000303983688, 0.0, 1.040000081062317, 0.0, 0.0, 0.0, 0.0, 0.0, 1.6218605942476628E9, 2021-05-24 14:49:54.247
16.0, -178.2679443359375, -63.471710205078125, 102.30122375488281, 34.41830062866211, -0.06400000303983688, 0.0, 1.040000081062317, 0.0, 0.0, 0.0, 0.0, 0.0, 1.621860594261238E9, 2021-05-24 14:49:54.261
16.0, -269.3307800292969, -133.68084716796875, 13.130788803100586, -45.20417022705078, -0.06400000303983688, 0.0, 1.040000081062317, 0.0, 0.0, 0.0, 0.0, 0.0, 1.621860594261238E9, 2021-05-24 14:49:54.261
17.0, -142.32376098632812, -49.10675811767578, 138.09954833984375, 48.1175537109375, -0.06400000303983688, 0.0, 1.040000081062317, 0.0, 0.0, 0.0, 0.0, 0.0, 1.6218605942768695E9, 2021-05-24 14:49:54.276
17.0, -116.3015365600586, -14.112512588500977, 169.59698486328125, 88.85254669189453, -0.06400000303983688, 0.0, 1.040000081062317, 0.0, 0.0, 0.0, 0.0, 0.0, 1.6218605942768695E9, 2021-05-24 14:49:54.276
18.0, -169.5203094482422, -60.0833625793457, 107.39496612548828, 35.08774185180664, -0.06400000303983688, 0.0, 1.040000081062317, 0.0, 0.0, 0.0, 0.0, 0.0, 1.621860594277598E9, 2021-05-24 14:49:54.277
18.0, -257.9951171875, -129.0097198486328, 19.320323944091797, -39.0445556640625, -0.06400000303983688, 0.0, 1.040000081062317, 0.0, 0.0, 0.0, 0.0, 0.0, 1.621860594277598E9, 2021-05-24 14:49:54.277
19.0, -134.66444396972656, -55.277591705322266, 136.9252166748047, 52.429656982421875, -0.06400000303983688, 0.0, 1.040000081062317, 0.0, 0.0, 0.0, 0.0, 0.0, 1.6218605942912111E9, 2021-05-24 14:49:54.291
19.0, -106.3870620727539, -10.899938583374023, 171.41831970214844, 89.0470199584961, -0.06400000303983688, 0.0, 1.040000081062317, 0.0, 0.0, 0.0, 0.0, 0.0, 1.6218605942912111E9, 2021-05-24 14:49:54.291
20.0, -173.95584106445312, -63.729766845703125, 101.26901245117188, 31.613374710083008, -0.06400000303983688, 0.0, 1.055999994277954, 0.0, 0.0, 0.0, 0.0, 0.0, 1.6218605943233116E9, 2021-05-24 14:49:54.323
20.0, -265.7815856933594, -134.5485076904297, 9.802277565002441, -44.13829803466797, -0.06400000303983688, 0.0, 1.055999994277954, 0.0, 0.0, 0.0, 0.0, 0.0, 1.6218605943233116E9, 2021-05-24 14:49:54.323
21.0, -141.5496063232422, -48.493412017822266, 140.825927734375, 55.107425689697266, -0.06400000303983688, 0.0, 1.055999994277954, 0.0, 0.0, 0.0, 0.0, 0.0, 1.6218605943240411E9, 2021-05-24 14:49:54.324
21.0, -113.54149627685547, -12.97932243347168, 170.2103271484375, 93.6657943725586, -0.06400000303983688, 0.0, 1.055999994277954, 0.0, 0.0, 0.0, 0.0, 0.0, 1.6218605943240411E9, 2021-05-24 14:49:54.324
22.0, -171.79043579101562, -59.20822525024414, 107.67546081542969, 35.162540435791016, -0.06400000303983688, 0.0, 1.055999994277954, 0.0, 0.0, 0.0, 0.0, 0.0, 1.6218605943247333E9, 2021-05-24 14:49:54.324
22.0, -255.0406036376953, -131.39578247070312, 18.09363555908203, -40.5592155456543, -0.06400000303983688, 0.0, 1.055999994277954, 0.0, 0.0, 0.0, 0.0, 0.0, 1.6218605943247333E9, 2021-05-24 14:49:54.324
23.0, -134.2156524658203, -47.67063522338867, 139.61795043945312, 51.79761505126953, -0.06400000303983688, 0.0, 1.055999994277954, 0.0, 0.0, 0.0, 0.0, 0.0, 1.6218605943254998E9, 2021-05-24 14:49:54.325
23.0, -113.56393432617188, -17.033374786376953, 164.64535522460938, 80.38540649414062, -0.06400000303983688, 0.0, 1.055999994277954, 0.0, 0.0, 0.0, 0.0, 0.0, 1.6218605943254998E9, 2021-05-24 14:49:54.325
24.0, -172.44491577148438, -59.25684356689453, 104.16743469238281, 33.64039993286133, -0.06400000303983688, 0.0, 1.055999994277954, 0.0, 0.0, 0.0, 0.0, 0.0, 1.621860594336377E9, 2021-05-24 14:49:54.336
24.0, -252.38528442382812, -127.84661102294922, 20.367494583129883, -42.23094940185547, -0.06400000303983688, 0.0, 1.055999994277954, 0.0, 0.0, 0.0, 0.0, 0.0, 1.621860594336377E9, 2021-05-24 14:49:54.336
25.0, -138.01165771484375, -49.25261306762695, 142.1423797607422, 46.079307556152344, -0.06400000303983688, 0.0, 1.055999994277954, 0.0, 0.0, 0.0, 0.0, 0.0, 1.6218605943511858E9, 2021-05-24 14:49:54.351
25.0, -109.68939208984375, -5.10309362411499, 170.84237670898438, 84.03929138183594, -0.06400000303983688, 0.0, 1.055999994277954, 0.0, 0.0, 0.0, 0.0, 0.0, 1.6218605943511858E9, 2021-05-24 14:49:54.351
26.0, -170.32064819335938, -54.34635543823242, 104.38060760498047, 35.40563201904297, -0.06400000303983688, 0.0, 1.055999994277954, 0.0, 0.0, 0.0, 0.0, 0.0, 1.6218605943669424E9, 2021-05-24 14:49:54.366
26.0, -262.1800842285156, -126.65357971191406, 15.453266143798828, -44.72920227050781, -0.06400000303983688, 0.0, 1.055999994277954, 0.0, 0.0, 0.0, 0.0, 0.0, 1.6218605943669424E9, 2021-05-24 14:49:54.366
27.0, -130.1952667236328, -50.04547119140625, 134.4606170654297, 52.336158752441406, -0.06400000303983688, 0.0, 1.055999994277954, 0.0, 0.0, 0.0, 0.0, 0.0, 1.6218605943677804E9, 2021-05-24 14:49:54.367
27.0, -111.72016143798828, -6.281161785125732, 164.94454956054688, 86.86665344238281, -0.06400000303983688, 0.0, 1.055999994277954, 0.0, 0.0, 0.0, 0.0, 0.0, 1.6218605943677804E9, 2021-05-24 14:49:54.367
28.0, -167.9158935546875, -58.00397872924805, 102.00951385498047, 33.954551696777344, -0.06400000303983688, 0.0, 1.055999994277954, 0.0, 0.0, 0.0, 0.0, 0.0, 1.6218605943812375E9, 2021-05-24 14:49:54.381
28.0, -260.5233154296875, -131.5042266845703, 8.93462085723877, -51.1693115234375, -0.06400000303983688, 0.0, 1.055999994277954, 0.0, 0.0, 0.0, 0.0, 0.0, 1.6218605943812375E9, 2021-05-24 14:49:54.381
29.0, -135.76023864746094, -45.823123931884766, 138.7540283203125, 47.66502380371094, -0.06400000303983688, 0.0, 1.055999994277954, 0.0, 0.0, 0.0, 0.0, 0.0, 1.6218605943968785E9, 2021-05-24 14:49:54.396
29.0, -112.84213256835938, -7.866879463195801, 171.0181427001953, 87.75301361083984, -0.06400000303983688, 0.0, 1.055999994277954, 0.0, 0.0, 0.0, 0.0, 0.0, 1.6218605943968785E9, 2021-05-24 14:49:54.396
30.0, -176.25213623046875, -51.90793991088867, 108.72637176513672, 33.09437561035156, -0.06400000303983688, 0.0, 1.055999994277954, 0.0, 0.0, 0.0, 0.0, 0.0, 1.6218605943976884E9, 2021-05-24 14:49:54.397
30.0, -260.3026428222656, -137.75360107421875, 14.810004234313965, -47.844539642333984, -0.06400000303983688, 0.0, 1.055999994277954, 0.0, 0.0, 0.0, 0.0, 0.0, 1.6218605943976884E9, 2021-05-24 14:49:54.397
31.0, -138.59507751464844, -49.64904022216797, 140.59031677246094, 50.428810119628906, -0.06400000303983688, 0.0, 1.055999994277954, 0.0, 0.0, 0.0, 0.0, 0.0, 1.6218605944111693E9, 2021-05-24 14:49:54.411
31.0, -110.27281951904297, -10.978476524353027, 170.344970703125, 84.1327896118164, -0.06400000303983688, 0.0, 1.055999994277954, 0.0, 0.0, 0.0, 0.0, 0.0, 1.6218605944111693E9, 2021-05-24 14:49:54.411
32.0, -174.24754333496094, -55.01579666137695, 105.48387908935547, 39.56440353393555, -0.08000000566244125, 0.0, 1.055999994277954, 0.0, 0.0, 0.0, 0.0, 0.0, 1.621860594427065E9, 2021-05-24 14:49:54.427
32.0, -258.4888000488281, -133.27694702148438, 19.383901596069336, -41.53158950805664, -0.08000000566244125, 0.0, 1.055999994277954, 0.0, 0.0, 0.0, 0.0, 0.0, 1.621860594427065E9, 2021-05-24 14:49:54.427
33.0, -140.17332458496094, -51.90420150756836, 143.84402465820312, 54.097652435302734, -0.08000000566244125, 0.0, 1.055999994277954, 0.0, 0.0, 0.0, 0.0, 0.0, 1.6218605944278064E9, 2021-05-24 14:49:54.427
33.0, -114.67842102050781, -9.08234691619873, 170.4197540283203, 94.33897399902344, -0.08000000566244125, 0.0, 1.055999994277954, 0.0, 0.0, 0.0, 0.0, 0.0, 1.6218605944278064E9, 2021-05-24 14:49:54.427
34.0, -181.6562957763672, -61.02581787109375, 105.11737060546875, 39.34000778198242, -0.08000000566244125, 0.0, 1.055999994277954, 0.0, 0.0, 0.0, 0.0, 0.0, 1.6218605944412506E9, 2021-05-24 14:49:54.441
34.0, -269.89923095703125, -131.0404815673828, 15.917014122009277, -38.12453842163086, -0.08000000566244125, 0.0, 1.055999994277954, 0.0, 0.0, 0.0, 0.0, 0.0, 1.6218605944412506E9, 2021-05-24 14:49:54.441
35.0, -142.41351318359375, -41.5147590637207, 136.7270050048828, 58.36861801147461, -0.08000000566244125, 0.0, 1.055999994277954, 0.0, 0.0, 0.0, 0.0, 0.0, 1.6218605944569516E9, 2021-05-24 14:49:54.456
35.0, -112.59529876708984, -9.669511795043945, 173.65850830078125, 88.97222137451172, -0.08000000566244125, 0.0, 1.055999994277954, 0.0, 0.0, 0.0, 0.0, 0.0, 1.6218605944569516E9, 2021-05-24 14:49:54.456
36.0, -179.0346221923828, -55.15043640136719, 111.40788269042969, 38.494789123535156, -0.08000000566244125, 0.0, 1.055999994277954, 0.0, 0.0, 0.0, 0.0, 0.0, 1.6218605944576857E9, 2021-05-24 14:49:54.457
36.0, -262.7148742675781, -131.01431274414062, 17.562570571899414, -45.67165756225586, -0.08000000566244125, 0.0, 1.055999994277954, 0.0, 0.0, 0.0, 0.0, 0.0, 1.6218605944576857E9, 2021-05-24 14:49:54.457
37.0, -142.3200225830078, -49.24513244628906, 134.3147735595703, 50.77288055419922, -0.08000000566244125, 0.0, 1.055999994277954, 0.0, 0.0, 0.0, 0.0, 0.0, 1.6218605944712145E9, 2021-05-24 14:49:54.471
37.0, -109.68565368652344, -6.599053382873535, 167.8242645263672, 83.64659881591797, -0.08000000566244125, 0.0, 1.055999994277954, 0.0, 0.0, 0.0, 0.0, 0.0, 1.6218605944712145E9, 2021-05-24 14:49:54.471
38.0, -172.9647674560547, -55.81239700317383, 106.8938217163086, 35.11766052246094, -0.08000000566244125, 0.0, 1.055999994277954, 0.0, 0.0, 0.0, 0.0, 0.0, 1.6218605944875977E9, 2021-05-24 14:49:54.487
38.0, -264.33050537109375, -129.5669708251953, 13.306564331054688, -43.00136947631836, -0.08000000566244125, 0.0, 1.055999994277954, 0.0, 0.0, 0.0, 0.0, 0.0, 1.6218605944875977E9, 2021-05-24 14:49:54.487
39.0, -143.5803680419922, -46.69826126098633, 134.8570556640625, 52.395999908447266, -0.08000000566244125, 0.0, 1.055999994277954, 0.0, 0.0, 0.0, 0.0, 0.0, 1.621860594488309E9, 2021-05-24 14:49:54.488
39.0, -116.5221939086914, -5.278868675231934, 168.0897979736328, 85.67362976074219, -0.08000000566244125, 0.0, 1.055999994277954, 0.0, 0.0, 0.0, 0.0, 0.0, 1.621860594488309E9, 2021-05-24 14:49:54.488
40.0, -171.91384887695312, -64.26457214355469, 106.1757583618164, 41.2623176574707, -0.08000000566244125, 0.0, 1.055999994277954, 0.0, 0.0, 0.0, 0.0, 0.0, 1.6218605945012882E9, 2021-05-24 14:49:54.501
40.0, -266.48095703125, -137.91441345214844, 11.417914390563965, -40.166526794433594, -0.08000000566244125, 0.0, 1.055999994277954, 0.0, 0.0, 0.0, 0.0, 0.0, 1.6218605945012882E9, 2021-05-24 14:49:54.501
41.0, -153.83517456054688, -50.61019515991211, 132.84124755859375, 52.182823181152344, -0.08000000566244125, 0.0, 1.055999994277954, 0.0, 0.0, 0.0, 0.0, 0.0, 1.621860594517044E9, 2021-05-24 14:49:54.517
41.0, -122.1395263671875, -17.50834083557129, 166.2310791015625, 91.79210662841797, -0.08000000566244125, 0.0, 1.055999994277954, 0.0, 0.0, 0.0, 0.0, 0.0, 1.621860594517044E9, 2021-05-24 14:49:54.517
42.0, -188.75088500976562, -59.48497772216797, 100.4948501586914, 39.358707427978516, -0.08000000566244125, 0.0, 1.055999994277954, 0.0, 0.0, 0.0, 0.0, 0.0, 1.6218605945176091E9, 2021-05-24 14:49:54.517
42.0, -274.6863098144531, -133.55369567871094, 17.05768394470215, -39.930912017822266, -0.08000000566244125, 0.0, 1.055999994277954, 0.0, 0.0, 0.0, 0.0, 0.0, 1.6218605945176091E9, 2021-05-24 14:49:54.517
43.0, -146.22073364257812, -52.5138053894043, 142.30319213867188, 50.16701889038086, -0.08000000566244125, 0.0, 1.055999994277954, 0.0, 0.0, 0.0, 0.0, 0.0, 1.6218605945312724E9, 2021-05-24 14:49:54.531
43.0, -119.46549224853516, -11.157991409301758, 172.9666290283203, 84.28986358642578, -0.08000000566244125, 0.0, 1.055999994277954, 0.0, 0.0, 0.0, 0.0, 0.0, 1.6218605945312724E9, 2021-05-24 14:49:54.531
44.0, -182.62118530273438, -58.089996337890625, 107.0172348022461, 37.48127746582031, -0.08000000566244125, 0.0, 1.055999994277954, 0.0, 0.0, 0.0, 0.0, 0.0, 1.621860594546886E9, 2021-05-24 14:49:54.546
44.0, -260.4298095703125, -128.48239135742188, 20.015945434570312, -39.7962760925293, -0.08000000566244125, 0.0, 1.055999994277954, 0.0, 0.0, 0.0, 0.0, 0.0, 1.621860594546886E9, 2021-05-24 14:49:54.546
45.0, -144.07029724121094, -49.03943634033203, 136.9700927734375, 47.78470230102539, -0.08000000566244125, 0.0, 1.055999994277954, 0.0, 0.0, 0.0, 0.0, 0.0, 1.6218605945476E9, 2021-05-24 14:49:54.547
45.0, -111.61170196533203, -7.590126991271973, 165.1726837158203, 84.5927963256836, -0.08000000566244125, 0.0, 1.055999994277954, 0.0, 0.0, 0.0, 0.0, 0.0, 1.6218605945476E9, 2021-05-24 14:49:54.547
46.0, -180.1229248046875, -56.91940689086914, 107.27155303955078, 35.353275299072266, -0.08000000566244125, 0.0, 1.055999994277954, 0.0, 0.0, 0.0, 0.0, 0.0, 1.621860594561232E9, 2021-05-24 14:49:54.561
46.0, -269.64117431640625, -129.82875061035156, 20.431074142456055, -45.81377410888672, -0.08000000566244125, 0.0, 1.055999994277954, 0.0, 0.0, 0.0, 0.0, 0.0, 1.621860594561232E9, 2021-05-24 14:49:54.561
47.0, -150.27105712890625, -44.40944290161133, 144.33395385742188, 56.36777114868164, -0.08000000566244125, 0.0, 1.055999994277954, 0.0, 0.0, 0.0, 0.0, 0.0, 1.6218605945769005E9, 2021-05-24 14:49:54.576
47.0, -121.87024688720703, -6.079207420349121, 173.03768920898438, 88.39253234863281, -0.08000000566244125, 0.0, 1.055999994277954, 0.0, 0.0, 0.0, 0.0, 0.0, 1.6218605945769005E9, 2021-05-24 14:49:54.576
48.0, -179.21414184570312, -55.09059524536133, 105.57363891601562, 30.513843536376953, -0.08000000566244125, 0.0, 1.055999994277954, 0.0, 0.0, 0.0, 0.0, 0.0, 1.621860594577642E9, 2021-05-24 14:49:54.577
48.0, -267.53936767578125, -132.06895446777344, 19.634475708007812, -40.86588668823242, -0.08000000566244125, 0.0, 1.055999994277954, 0.0, 0.0, 0.0, 0.0, 0.0, 1.621860594577642E9, 2021-05-24 14:49:54.577
49.0, -144.7846221923828, -49.70888137817383, 137.3478240966797, 51.50216293334961, -0.08000000566244125, 0.0, 1.055999994277954, 0.0, 0.0, 0.0, 0.0, 0.0, 1.621860594591226E9, 2021-05-24 14:49:54.591
49.0, -117.53944396972656, -12.620292663574219, 159.3683624267578, 76.38372039794922, -0.08000000566244125, 0.0, 1.055999994277954, 0.0, 0.0, 0.0, 0.0, 0.0, 1.621860594591226E9, 2021-05-24 14:49:54.591
50.0, -184.48739624023438, -63.69610595703125, 100.76038360595703, 29.556428909301758, -0.08000000566244125, 0.0, 1.040000081062317, 0.0, 0.0, 0.0, 0.0, 0.0, 1.6218605946066995E9, 2021-05-24 14:49:54.606
50.0, -269.2634582519531, -130.25511169433594, 13.688034057617188, -44.7778205871582, -0.08000000566244125, 0.0, 1.040000081062317, 0.0, 0.0, 0.0, 0.0, 0.0, 1.6218605946066995E9, 2021-05-24 14:49:54.606
51.0, -145.18478393554688, -48.42609405517578, 130.9488525390625, 48.34568786621094, -0.08000000566244125, 0.0, 1.040000081062317, 0.0, 0.0, 0.0, 0.0, 0.0, 1.6218605946218975E9, 2021-05-24 14:49:54.621
51.0, -111.42471313476562, -14.007795333862305, 165.00064086914062, 85.51280975341797, -0.08000000566244125, 0.0, 1.040000081062317, 0.0, 0.0, 0.0, 0.0, 0.0, 1.6218605946218975E9, 2021-05-24 14:49:54.621
52.0, -180.07057189941406, -57.566410064697266, 104.44418334960938, 34.02560806274414, -0.08000000566244125, 0.0, 1.040000081062317, 0.0, 0.0, 0.0, 0.0, 0.0, 1.621860594622678E9, 2021-05-24 14:49:54.622
52.0, -273.1866149902344, -132.85060119628906, 5.329357624053955, -43.77927017211914, -0.08000000566244125, 0.0, 1.040000081062317, 0.0, 0.0, 0.0, 0.0, 0.0, 1.621860594622678E9, 2021-05-24 14:49:54.622
53.0, -142.06944274902344, -39.26333999633789, 139.7787628173828, 49.583595275878906, -0.08000000566244125, 0.0, 1.040000081062317, 0.0, 0.0, 0.0, 0.0, 0.0, 1.6218605946368864E9, 2021-05-24 14:49:54.636
53.0, -116.69049072265625, -13.985356330871582, 162.9212646484375, 80.75566101074219, -0.08000000566244125, 0.0, 1.040000081062317, 0.0, 0.0, 0.0, 0.0, 0.0, 1.6218605946368864E9, 2021-05-24 14:49:54.636
54.0, -177.77427673339844, -51.212318420410156, 106.57966613769531, 32.52217102050781, -0.08000000566244125, 0.0, 1.040000081062317, 0.0, 0.0, 0.0, 0.0, 0.0, 1.6218605946375716E9, 2021-05-24 14:49:54.637
54.0, -261.5256042480469, -133.800537109375, 16.062870025634766, -44.06724166870117, -0.08000000566244125, 0.0, 1.040000081062317, 0.0, 0.0, 0.0, 0.0, 0.0, 1.6218605946375716E9, 2021-05-24 14:49:54.637
55.0, -140.37527465820312, -47.65193557739258, 138.47354125976562, 51.28150939941406, -0.08000000566244125, 0.0, 1.040000081062317, 0.0, 0.0, 0.0, 0.0, 0.0, 1.621860594651364E9, 2021-05-24 14:49:54.651
55.0, -115.19078826904297, -12.03686809539795, 162.51361083984375, 82.63308715820312, -0.08000000566244125, 0.0, 1.040000081062317, 0.0, 0.0, 0.0, 0.0, 0.0, 1.621860594651364E9, 2021-05-24 14:49:54.651
56.0, -169.46421813964844, -61.108097076416016, 103.29977416992188, 32.35387420654297, -0.08000000566244125, 0.0, 1.040000081062317, 0.0, 0.0, 0.0, 0.0, 0.0, 1.621860594667014E9, 2021-05-24 14:49:54.667
56.0, -256.3794860839844, -128.0635223388672, 21.291250228881836, -42.115013122558594, -0.08000000566244125, 0.0, 1.040000081062317, 0.0, 0.0, 0.0, 0.0, 0.0, 1.621860594667014E9, 2021-05-24 14:49:54.667
57.0, -137.18887329101562, -54.10700225830078, 134.83087158203125, 45.49214172363281, -0.08000000566244125, 0.0, 1.040000081062317, 0.0, 0.0, 0.0, 0.0, 0.0, 1.6218605946677344E9, 2021-05-24 14:49:54.667
57.0, -115.70315551757812, -22.583385467529297, 162.023681640625, 73.88172149658203, -0.08000000566244125, 0.0, 1.040000081062317, 0.0, 0.0, 0.0, 0.0, 0.0, 1.6218605946677344E9, 2021-05-24 14:49:54.667
58.0, -171.47254943847656, -61.706478118896484, 102.26756286621094, 32.009803771972656, -0.08000000566244125, 0.0, 1.040000081062317, 0.0, 0.0, 0.0, 0.0, 0.0, 1.6218605946812253E9, 2021-05-24 14:49:54.681
58.0, -259.5097961425781, -136.83358764648438, 18.37786865234375, -43.00136947631836, -0.08000000566244125, 0.0, 1.040000081062317, 0.0, 0.0, 0.0, 0.0, 0.0, 1.6218605946812253E9, 2021-05-24 14:49:54.681
59.0, -136.57179260253906, -57.15127944946289, 136.62228393554688, 48.55512237548828, -0.08000000566244125, 0.0, 1.040000081062317, 0.0, 0.0, 0.0, 0.0, 0.0, 1.6218605946969442E9, 2021-05-24 14:49:54.696
59.0, -111.24519348144531, -16.034820556640625, 168.59469604492188, 91.1002197265625, -0.08000000566244125, 0.0, 1.040000081062317, 0.0, 0.0, 0.0, 0.0, 0.0, 1.6218605946969442E9, 2021-05-24 14:49:54.696
60.0, -176.29701232910156, -58.677162170410156, 102.97066497802734, 34.78480911254883, -0.08000000566244125, 0.0, 1.055999994277954, 0.0, 0.0, 0.0, 0.0, 0.0, 1.6218605946976445E9, 2021-05-24 14:49:54.697
60.0, -260.22412109375, -134.88510131835938, 10.07529067993164, -45.19295120239258, -0.08000000566244125, 0.0, 1.055999994277954, 0.0, 0.0, 0.0, 0.0, 0.0, 1.6218605946976445E9, 2021-05-24 14:49:54.697
61.0, -138.90174865722656, -41.46240234375, 136.36422729492188, 52.68770980834961, -0.08000000566244125, 0.0, 1.055999994277954, 0.0, 0.0, 0.0, 0.0, 0.0, 1.6218605947111938E9, 2021-05-24 14:49:54.711
61.0, -115.68071746826172, -11.247749328613281, 164.3648681640625, 83.26139068603516, -0.08000000566244125, 0.0, 1.055999994277954, 0.0, 0.0, 0.0, 0.0, 0.0, 1.6218605947111938E9, 2021-05-24 14:49:54.711
62.0, -182.23223876953125, -60.0422248840332, 99.03629302978516, 30.330589294433594, -0.08000000566244125, 0.0, 1.055999994277954, 0.0, 0.0, 0.0, 0.0, 0.0, 1.62186059472692E9, 2021-05-24 14:49:54.726
62.0, -274.1739501953125, -129.65672302246094, 14.810004234313965, -40.86588668823242, -0.08000000566244125, 0.0, 1.055999994277954, 0.0, 0.0, 0.0, 0.0, 0.0, 1.62186059472692E9, 2021-05-24 14:49:54.726
63.0, -151.49400329589844, -49.316192626953125, 131.99229431152344, 46.475738525390625, -0.08000000566244125, 0.0, 1.055999994277954, 0.0, 0.0, 0.0, 0.0, 0.0, 1.6218605947278097E9, 2021-05-24 14:49:54.727
63.0, -118.870849609375, -8.154851913452148, 163.3064727783203, 91.32087707519531, -0.08000000566244125, 0.0, 1.055999994277954, 0.0, 0.0, 0.0, 0.0, 0.0, 1.6218605947278097E9, 2021-05-24 14:49:54.727
64.0, -185.60935974121094, -52.614784240722656, 100.55843353271484, 40.72377014160156, -0.08000000566244125, 0.0, 1.055999994277954, 0.0, 0.0, 0.0, 0.0, 0.0, 1.6218605947412677E9, 2021-05-24 14:49:54.741
64.0, -275.0715026855469, -131.94927978515625, 17.760784149169922, -35.46547317504883, -0.08000000566244125, 0.0, 1.055999994277954, 0.0, 0.0, 0.0, 0.0, 0.0, 1.6218605947412677E9, 2021-05-24 14:49:54.741
65.0, -153.4649200439453, -54.55205154418945, 135.062744140625, 47.67624282836914, -0.08000000566244125, 0.0, 1.055999994277954, 0.0, 0.0, 0.0, 0.0, 0.0, 1.6218605947569575E9, 2021-05-24 14:49:54.756
65.0, -115.0374526977539, -17.081993103027344, 169.9522705078125, 88.65058898925781, -0.08000000566244125, 0.0, 1.055999994277954, 0.0, 0.0, 0.0, 0.0, 0.0, 1.6218605947569575E9, 2021-05-24 14:49:54.756
66.0, -183.70574951171875, -66.66558837890625, 104.33946990966797, 29.627487182617188, -0.08000000566244125, 0.0, 1.055999994277954, 0.0, 0.0, 0.0, 0.0, 0.0, 1.6218605947577565E9, 2021-05-24 14:49:54.757
66.0, -261.7611999511719, -132.4354705810547, 20.251558303833008, -36.21718978881836, -0.08000000566244125, 0.0, 1.055999994277954, 0.0, 0.0, 0.0, 0.0, 0.0, 1.6218605947577565E9, 2021-05-24 14:49:54.757
67.0, -136.23895263671875, -52.61852264404297, 138.64556884765625, 53.02056121826172, -0.08000000566244125, 0.0, 1.055999994277954, 0.0, 0.0, 0.0, 0.0, 0.0, 1.6218605947713466E9, 2021-05-24 14:49:54.771
67.0, -113.18246459960938, -16.08717918395996, 169.01730346679688, 83.14545440673828, -0.08000000566244125, 0.0, 1.055999994277954, 0.0, 0.0, 0.0, 0.0, 0.0, 1.6218605947713466E9, 2021-05-24 14:49:54.771
68.0, -182.53890991210938, -57.53649139404297, 105.83917236328125, 31.755491256713867, -0.08000000566244125, 0.0, 1.055999994277954, 0.0, 0.0, 0.0, 0.0, 0.0, 1.6218605947869544E9, 2021-05-24 14:49:54.786
68.0, -260.5083312988281, -141.69920349121094, 15.191473960876465, -44.744163513183594, -0.08000000566244125, 0.0, 1.055999994277954, 0.0, 0.0, 0.0, 0.0, 0.0, 1.6218605947869544E9, 2021-05-24 14:49:54.786
69.0, -135.831298828125, -56.549156188964844, 144.30404663085938, 45.43230438232422, -0.08000000566244125, 0.0, 1.055999994277954, 0.0, 0.0, 0.0, 0.0, 0.0, 1.6218605947876332E9, 2021-05-24 14:49:54.787
69.0, -109.48370361328125, -13.884378433227539, 179.0215301513672, 79.7197036743164, -0.08000000566244125, 0.0, 1.055999994277954, 0.0, 0.0, 0.0, 0.0, 0.0, 1.6218605947876332E9, 2021-05-24 14:49:54.787
70.0, -171.3977508544922, -60.93980026245117, 113.66677856445312, 31.90882682800293, -0.08000000566244125, 0.0, 1.055999994277954, 0.0, 0.0, 0.0, 0.0, 0.0, 1.621860594801266E9, 2021-05-24 14:49:54.801
70.0, -263.4591369628906, -133.12734985351562, 25.15456771850586, -46.038169860839844, -0.08000000566244125, 0.0, 1.055999994277954, 0.0, 0.0, 0.0, 0.0, 0.0, 1.621860594801266E9, 2021-05-24 14:49:54.801
71.0, -137.97425842285156, -51.18239974975586, 143.77297973632812, 49.21708297729492, -0.08000000566244125, 0.0, 1.055999994277954, 0.0, 0.0, 0.0, 0.0, 0.0, 1.6218605948170588E9, 2021-05-24 14:49:54.817
71.0, -112.09040832519531, -15.387818336486816, 170.1130828857422, 82.14690399169922, -0.08000000566244125, 0.0, 1.055999994277954, 0.0, 0.0, 0.0, 0.0, 0.0, 1.6218605948170588E9, 2021-05-24 14:49:54.817
72.0, -170.2944793701172, -60.760284423828125, 106.54975128173828, 36.108734130859375, -0.08000000566244125, 0.0, 1.055999994277954, 0.0, 0.0, 0.0, 0.0, 0.0, 1.6218605948177187E9, 2021-05-24 14:49:54.817
72.0, -261.28997802734375, -128.63198852539062, 20.76392364501953, -40.88832473754883, -0.08000000566244125, 0.0, 1.055999994277954, 0.0, 0.0, 0.0, 0.0, 0.0, 1.6218605948177187E9, 2021-05-24 14:49:54.817
73.0, -143.4195556640625, -51.739646911621094, 136.54000854492188, 50.25303649902344, -0.08000000566244125, 0.0, 1.055999994277954, 0.0, 0.0, 0.0, 0.0, 0.0, 1.6218605948312578E9, 2021-05-24 14:49:54.831
73.0, -120.86421966552734, -16.352712631225586, 170.16171264648438, 82.66300964355469, -0.08000000566244125, 0.0, 1.055999994277954, 0.0, 0.0, 0.0, 0.0, 0.0, 1.6218605948312578E9, 2021-05-24 14:49:54.831
74.0, -176.24839782714844, -57.26347732543945, 106.97235870361328, 34.23878479003906, -0.08000000566244125, 0.0, 1.055999994277954, 0.0, 0.0, 0.0, 0.0, 0.0, 1.6218605948468728E9, 2021-05-24 14:49:54.846
74.0, -266.2939758300781, -132.15122985839844, 20.326356887817383, -40.978084564208984, -0.08000000566244125, 0.0, 1.055999994277954, 0.0, 0.0, 0.0, 0.0, 0.0, 1.6218605948468728E9, 2021-05-24 14:49:54.846
75.0, -141.23919677734375, -50.95052719116211, 145.28762817382812, 44.59082794189453, -0.08000000566244125, 0.0, 1.055999994277954, 0.0, 0.0, 0.0, 0.0, 0.0, 1.6218605948475883E9, 2021-05-24 14:49:54.847
75.0, -105.41842651367188, -2.6085801124572754, 180.95880126953125, 90.10914611816406, -0.08000000566244125, 0.0, 1.055999994277954, 0.0, 0.0, 0.0, 0.0, 0.0, 1.6218605948475883E9, 2021-05-24 14:49:54.847
76.0, -173.6080322265625, -59.144649505615234, 103.78596496582031, 35.712303161621094, -0.08000000566244125, 0.0, 1.055999994277954, 0.0, 0.0, 0.0, 0.0, 0.0, 1.6218605948612735E9, 2021-05-24 14:49:54.861
76.0, -267.09429931640625, -140.68194580078125, 11.73206615447998, -50.238075256347656, -0.08000000566244125, 0.0, 1.055999994277954, 0.0, 0.0, 0.0, 0.0, 0.0, 1.6218605948612735E9, 2021-05-24 14:49:54.861
77.0, -137.92564392089844, -46.66834259033203, 136.341796875, 45.53328323364258, -0.08000000566244125, 0.0, 1.055999994277954, 0.0, 0.0, 0.0, 0.0, 0.0, 1.6218605948769035E9, 2021-05-24 14:49:54.876
77.0, -115.02249145507812, -8.087533950805664, 174.066162109375, 83.94579315185547, -0.08000000566244125, 0.0, 1.055999994277954, 0.0, 0.0, 0.0, 0.0, 0.0, 1.6218605948769035E9, 2021-05-24 14:49:54.876
78.0, -170.2122039794922, -59.55229568481445, 108.23644256591797, 33.3524284362793, -0.08000000566244125, 0.0, 1.055999994277954, 0.0, 0.0, 0.0, 0.0, 0.0, 1.6218605948776195E9, 2021-05-24 14:49:54.877
78.0, -255.5791473388672, -143.39337158203125, 10.030411720275879, -43.84284591674805, -0.08000000566244125, 0.0, 1.055999994277954, 0.0, 0.0, 0.0, 0.0, 0.0, 1.6218605948776195E9, 2021-05-24 14:49:54.877
79.0, -136.4334259033203, -59.41392135620117, 132.34010314941406, 46.68517303466797, -0.08000000566244125, 0.0, 1.055999994277954, 0.0, 0.0, 0.0, 0.0, 0.0, 1.6218605948913078E9, 2021-05-24 14:49:54.891
79.0, -111.5406494140625, -15.3466796875, 163.10826110839844, 77.84227752685547, -0.08000000566244125, 0.0, 1.055999994277954, 0.0, 0.0, 0.0, 0.0, 0.0, 1.6218605948913078E9, 2021-05-24 14:49:54.891
80.0, -174.20640563964844, -55.176612854003906, 105.24452209472656, 34.485618591308594, -0.08000000566244125, 0.0, 1.055999994277954, 0.0, 0.0, 0.0, 0.0, 0.0, 1.6218605949070115E9, 2021-05-24 14:49:54.907
80.0, -265.86761474609375, -131.9305877685547, 14.312597274780273, -43.9625244140625, -0.08000000566244125, 0.0, 1.055999994277954, 0.0, 0.0, 0.0, 0.0, 0.0, 1.6218605949070115E9, 2021-05-24 14:49:54.907
81.0, -144.0628204345703, -46.17467498779297, 132.4485626220703, 45.24156951904297, -0.08000000566244125, 0.0, 1.055999994277954, 0.0, 0.0, 0.0, 0.0, 0.0, 1.6218605949077237E9, 2021-05-24 14:49:54.907
81.0, -115.64331817626953, -17.852413177490234, 160.2921142578125, 73.0888671875, -0.08000000566244125, 0.0, 1.055999994277954, 0.0, 0.0, 0.0, 0.0, 0.0, 1.6218605949077237E9, 2021-05-24 14:49:54.907
82.0, -171.442626953125, -62.0094108581543, 106.20568084716797, 34.12284851074219, -0.08000000566244125, 0.0, 1.055999994277954, 0.0, 0.0, 0.0, 0.0, 0.0, 1.6218605949212952E9, 2021-05-24 14:49:54.921
82.0, -265.6357421875, -133.53126525878906, 15.408388137817383, -49.011390686035156, -0.08000000566244125, 0.0, 1.055999994277954, 0.0, 0.0, 0.0, 0.0, 0.0, 1.6218605949212952E9, 2021-05-24 14:49:54.921
83.0, -147.7353973388672, -51.65736770629883, 139.15794372558594, 46.658992767333984, -0.08000000566244125, 0.0, 1.055999994277954, 0.0, 0.0, 0.0, 0.0, 0.0, 1.6218605949370048E9, 2021-05-24 14:49:54.937
83.0, -119.79086303710938, -13.379491806030273, 158.54931640625, 78.089111328125, -0.08000000566244125, 0.0, 1.055999994277954, 0.0, 0.0, 0.0, 0.0, 0.0, 1.6218605949370048E9, 2021-05-24 14:49:54.937
84.0, -180.1790313720703, -56.754852294921875, 100.67810821533203, 30.727018356323242, -0.08000000566244125, 0.0, 1.055999994277954, 0.0, 0.0, 0.0, 0.0, 0.0, 1.6218605949377227E9, 2021-05-24 14:49:54.937
84.0, -266.00225830078125, -132.49903869628906, 11.335637092590332, -42.260868072509766, -0.08000000566244125, 0.0, 1.055999994277954, 0.0, 0.0, 0.0, 0.0, 0.0, 1.6218605949377227E9, 2021-05-24 14:49:54.937
85.0, -138.78955078125, -46.71696090698242, 131.7267608642578, 46.42711639404297, -0.08000000566244125, 0.0, 1.055999994277954, 0.0, 0.0, 0.0, 0.0, 0.0, 1.6218605949513388E9, 2021-05-24 14:49:54.951
85.0, -121.3990249633789, -9.912605285644531, 165.23626708984375, 85.92046356201172, -0.08000000566244125, 0.0, 1.055999994277954, 0.0, 0.0, 0.0, 0.0, 0.0, 1.6218605949513388E9, 2021-05-24 14:49:54.951
86.0, -183.03257751464844, -51.60874938964844, 102.74626922607422, 34.93440628051758, -0.08000000566244125, 0.0, 1.055999994277954, 0.0, 0.0, 0.0, 0.0, 0.0, 1.621860594967059E9, 2021-05-24 14:49:54.967
86.0, -270.8042907714844, -125.74478912353516, 13.946086883544922, -40.14408493041992, -0.08000000566244125, 0.0, 1.055999994277954, 0.0, 0.0, 0.0, 0.0, 0.0, 1.621860594967059E9, 2021-05-24 14:49:54.967
87.0, -148.51329040527344, -49.630340576171875, 140.38836669921875, 49.34798049926758, -0.08000000566244125, 0.0, 1.055999994277954, 0.0, 0.0, 0.0, 0.0, 0.0, 1.6218605949677672E9, 2021-05-24 14:49:54.967
87.0, -121.5224380493164, -14.265848159790039, 163.5645294189453, 83.60920715332031, -0.08000000566244125, 0.0, 1.055999994277954, 0.0, 0.0, 0.0, 0.0, 0.0, 1.6218605949677672E9, 2021-05-24 14:49:54.967
88.0, -175.7248077392578, -58.82675552368164, 96.77365112304688, 37.75802993774414, -0.08000000566244125, 0.0, 1.055999994277954, 0.0, 0.0, 0.0, 0.0, 0.0, 1.6218605949812825E9, 2021-05-24 14:49:54.981
88.0, -265.6133117675781, -142.8211669921875, 11.36181640625, -45.42482376098633, -0.08000000566244125, 0.0, 1.055999994277954, 0.0, 0.0, 0.0, 0.0, 0.0, 1.6218605949812825E9, 2021-05-24 14:49:54.981
89.0, -149.99803161621094, -56.30606460571289, 138.30897521972656, 51.333866119384766, -0.08000000566244125, 0.0, 1.055999994277954, 0.0, 0.0, 0.0, 0.0, 0.0, 1.621860594996919E9, 2021-05-24 14:49:54.996
89.0, -119.49915313720703, -11.96580982208252, 175.36016845703125, 87.63707733154297, -0.08000000566244125, 0.0, 1.055999994277954, 0.0, 0.0, 0.0, 0.0, 0.0, 1.621860594996919E9, 2021-05-24 14:49:54.996
90.0, -184.7491912841797, -54.72782516479492, 112.06610107421875, 37.111026763916016, -0.08000000566244125, 0.0, 1.055999994277954, 0.0, 0.0, 0.0, 0.0, 0.0, 1.6218605949975994E9, 2021-05-24 14:49:54.997
90.0, -270.81549072265625, -130.87966918945312, 22.641353607177734, -38.77528381347656, -0.08000000566244125, 0.0, 1.055999994277954, 0.0, 0.0, 0.0, 0.0, 0.0, 1.6218605949975994E9, 2021-05-24 14:49:54.997
91.0, -145.51390075683594, -56.223785400390625, 142.08253479003906, 49.2320442199707, -0.08000000566244125, 0.0, 1.055999994277954, 0.0, 0.0, 0.0, 0.0, 0.0, 1.6218605950112765E9, 2021-05-24 14:49:55.011
91.0, -121.417724609375, -15.896444320678711, 161.7394561767578, 81.34282684326172, -0.08000000566244125, 0.0, 1.055999994277954, 0.0, 0.0, 0.0, 0.0, 0.0, 1.6218605950112765E9, 2021-05-24 14:49:55.011
92.0, -188.15997314453125, -63.20991897583008, 104.48158264160156, 32.04346466064453, -0.08000000566244125, 0.0, 1.055999994277954, 0.0, 0.0, 0.0, 0.0, 0.0, 1.6218605950269213E9, 2021-05-24 14:49:55.026
92.0, -271.6083679199219, -139.5150909423828, 23.793243408203125, -45.12189483642578, -0.08000000566244125, 0.0, 1.055999994277954, 0.0, 0.0, 0.0, 0.0, 0.0, 1.6218605950269213E9, 2021-05-24 14:49:55.026
93.0, -147.46238708496094, -55.06815719604492, 140.74365234375, 48.457881927490234, -0.08000000566244125, 0.0, 1.055999994277954, 0.0, 0.0, 0.0, 0.0, 0.0, 1.6218605950276139E9, 2021-05-24 14:49:55.027
93.0, -114.3119125366211, -13.802101135253906, 167.67466735839844, 86.3580322265625, -0.08000000566244125, 0.0, 1.055999994277954, 0.0, 0.0, 0.0, 0.0, 0.0, 1.6218605950276139E9, 2021-05-24 14:49:55.027
94.0, -179.2515411376953, -72.46990966796875, 101.5981216430664, 29.960338592529297, -0.08000000566244125, 0.0, 1.055999994277954, 0.0, 0.0, 0.0, 0.0, 0.0, 1.621860595041364E9, 2021-05-24 14:49:55.041
