Sample Index, EXG Channel 0, EXG Channel 1, EXG Channel 2, EXG Channel 3, Accel Channel 0, Accel Channel 1, Accel Channel 2, Other, Other, Other, Other, Other, Timestamp, Timestamp (Formatted)
0.0, -275.9578552246094, -103.18009948730469, -9.394628524780273, -100.85948944091797, 0.0, 0.0, 0.0, 0.0, 0.0, 0.0, 0.0, 0.0, 1.6218630523368404E9, 2021-05-24 15:30:52.336
1.0, -58.837974548339844, 94.32402038574219, 224.83155822753906, 101.95902252197266, 0.0, 0.01600000075995922, 0.0, 0.0, 0.0, 0.0, 0.0, 0.0, 1.6218630523502808E9, 2021-05-24 15:30:52.350
1.0, -95.58997344970703, 76.58940887451172, 187.69436645507812, 82.2160873413086, 0.0, 0.01600000075995922, 0.0, 0.0, 0.0, 0.0, 0.0, 0.0, 1.6218630523502808E9, 2021-05-24 15:30:52.350
2.0, -199.69757080078125, -15.789857864379883, 86.91153717041016, -2.9339516162872314, -0.06400000303983688, 0.01600000075995922, 0.0, 0.0, 0.0, 0.0, 0.0, 0.0, 1.6218630523668437E9, 2021-05-24 15:30:52.366
2.0, -276.328125, -99.95256805419922, -1.3201847076416016, -98.82124328613281, -0.06400000303983688, 0.01600000075995922, 0.0, 0.0, 0.0, 0.0, 0.0, 0.0, 1.6218630523668437E9, 2021-05-24 15:30:52.366
3.0, -66.04102325439453, 96.96064758300781, 226.5855712890625, 104.00849151611328, -0.06400000303983688, 0.01600000075995922, 0.0, 0.0, 0.0, 0.0, 0.0, 0.0, 1.6218630523675437E9, 2021-05-24 15:30:52.367
3.0, -96.29307556152344, 86.43283081054688, 190.99668884277344, 92.3512191772461, -0.06400000303983688, 0.01600000075995922, 0.0, 0.0, 0.0, 0.0, 0.0, 0.0, 1.6218630523675437E9, 2021-05-24 15:30:52.367
4.0, -205.92076110839844, -17.435413360595703, 80.92021179199219, -7.582647323608398, -0.06400000303983688, 0.01600000075995922, 0.0, 0.0, 0.0, 0.0, 0.0, 0.0, 1.6218630523799107E9, 2021-05-24 15:30:52.379
4.0, -278.3401794433594, -97.69740295410156, 0.373989999294281, -88.84693145751953, -0.06400000303983688, 0.01600000075995922, 0.0, 0.0, 0.0, 0.0, 0.0, 0.0, 1.6218630523799107E9, 2021-05-24 15:30:52.379
5.0, -61.5980224609375, 100.76786804199219, 229.8991241455078, 103.28294372558594, -0.06400000303983688, 0.01600000075995922, 0.0, 0.0, 0.0, 0.0, 0.0, 0.0, 1.6218630523956065E9, 2021-05-24 15:30:52.395
5.0, -96.91389465332031, 84.19636535644531, 195.77627563476562, 84.7629623413086, -0.06400000303983688, 0.01600000075995922, 0.0, 0.0, 0.0, 0.0, 0.0, 0.0, 1.6218630523956065E9, 2021-05-24 15:30:52.395
6.0, -205.3074188232422, -16.193767547607422, 77.57300567626953, -11.995729446411133, -0.06400000303983688, 0.01600000075995922, 0.0, 0.0, 0.0, 0.0, 0.0, 0.0, 1.6218630523963437E9, 2021-05-24 15:30:52.396
6.0, -280.52801513671875, -101.64299774169922, -4.727233409881592, -90.59720611572266, -0.06400000303983688, 0.01600000075995922, 0.0, 0.0, 0.0, 0.0, 0.0, 0.0, 1.6218630523963437E9, 2021-05-24 15:30:52.396
7.0, -67.83991241455078, 98.08635711669922, 226.99322509765625, 94.1351547241211, -0.06400000303983688, 0.01600000075995922, 0.0, 0.0, 0.0, 0.0, 0.0, 0.0, 1.621863052409876E9, 2021-05-24 15:30:52.409
7.0, -97.76659393310547, 82.44235229492188, 191.42303466796875, 83.43904113769531, -0.06400000303983688, 0.01600000075995922, 0.0, 0.0, 0.0, 0.0, 0.0, 0.0, 1.621863052409876E9, 2021-05-24 15:30:52.409
8.0, -200.22116088867188, -14.873581886291504, 81.0997314453125, -13.704863548278809, -0.06400000303983688, 0.01600000075995922, 0.0, 0.0, 0.0, 0.0, 0.0, 0.0, 1.6218630524420106E9, 2021-05-24 15:30:52.442
8.0, -276.3804626464844, -99.74313354492188, -9.895774841308594, -98.4958724975586, -0.06400000303983688, 0.01600000075995922, 0.0, 0.0, 0.0, 0.0, 0.0, 0.0, 1.6218630524420106E9, 2021-05-24 15:30:52.442
9.0, -55.01579666137695, 98.18359375, 222.04908752441406, 101.49153137207031, -0.06400000303983688, 0.01600000075995922, 0.0, 0.0, 0.0, 0.0, 0.0, 0.0, 1.6218630524427283E9, 2021-05-24 15:30:52.442
9.0, -88.09895324707031, 81.1184310913086, 194.83009338378906, 83.6185531616211, -0.06400000303983688, 0.01600000075995922, 0.0, 0.0, 0.0, 0.0, 0.0, 0.0, 1.6218630524427283E9, 2021-05-24 15:30:52.442
10.0, -202.92884826660156, -14.297637939453125, 79.19985961914062, -12.956883430480957, -0.06400000303983688, 0.01600000075995922, 0.5600000023841858, 0.0, 0.0, 0.0, 0.0, 0.0, 1.6218630524434705E9, 2021-05-24 15:30:52.443
10.0, -280.3934020996094, -100.0086669921875, -3.1714351177215576, -97.32154846191406, -0.06400000303983688, 0.01600000075995922, 0.5600000023841858, 0.0, 0.0, 0.0, 0.0, 0.0, 1.6218630524434705E9, 2021-05-24 15:30:52.443
11.0, -62.56291580200195, 100.03484344482422, 226.91094970703125, 103.09595489501953, -0.06400000303983688, 0.0, 0.5600000023841858, 0.0, 0.0, 0.0, 0.0, 0.0, 1.6218630524442177E9, 2021-05-24 15:30:52.444
11.0, -94.01173400878906, 87.33040618896484, 187.30540466308594, 87.36967468261719, -0.06400000303983688, 0.0, 0.5600000023841858, 0.0, 0.0, 0.0, 0.0, 0.0, 1.6218630524442177E9, 2021-05-24 15:30:52.444
12.0, -206.2012481689453, -17.764524459838867, 77.44584655761719, -12.4033784866333, -0.03200000151991844, 0.0, 0.5600000023841858, 0.0, 0.0, 0.0, 0.0, 0.0, 1.6218630524870307E9, 2021-05-24 15:30:52.487
12.0, -275.389404296875, -95.8760757446289, -0.7255405783653259, -88.5813980102539, -0.03200000151991844, 0.0, 0.5600000023841858, 0.0, 0.0, 0.0, 0.0, 0.0, 1.6218630524870307E9, 2021-05-24 15:30:52.487
13.0, -61.2053337097168, 103.74856567382812, 225.6618194580078, 98.08074951171875, -0.03200000151991844, 0.0, 0.5600000023841858, 0.0, 0.0, 0.0, 0.0, 0.0, 1.6218630524877665E9, 2021-05-24 15:30:52.487
13.0, -93.99677276611328, 90.71127319335938, 188.96592712402344, 79.72905731201172, -0.03200000151991844, 0.0, 0.5600000023841858, 0.0, 0.0, 0.0, 0.0, 0.0, 1.6218630524877665E9, 2021-05-24 15:30:52.487
14.0, -196.72061157226562, -9.147795677185059, 81.1184310913086, -16.685564041137695, -0.03200000151991844, 0.0, 0.5600000023841858, 0.0, 0.0, 0.0, 0.0, 0.0, 1.6218630524885542E9, 2021-05-24 15:30:52.488
14.0, -275.7372131347656, -93.45262145996094, -4.682354927062988, -92.87480926513672, -0.03200000151991844, 0.0, 0.5600000023841858, 0.0, 0.0, 0.0, 0.0, 0.0, 1.6218630524885542E9, 2021-05-24 15:30:52.488
15.0, -64.52262115478516, 107.78392028808594, 219.53587341308594, 106.18136596679688, -0.03200000151991844, 0.0, 0.5600000023841858, 0.0, 0.0, 0.0, 0.0, 0.0, 1.6218630524892201E9, 2021-05-24 15:30:52.489
15.0, -92.75886535644531, 88.32147979736328, 192.7619171142578, 85.19305419921875, -0.03200000151991844, 0.0, 0.5600000023841858, 0.0, 0.0, 0.0, 0.0, 0.0, 1.6218630524892201E9, 2021-05-24 15:30:52.489
16.0, -195.78936767578125, -9.334790229797363, 84.33100128173828, -18.07306671142578, -0.03200000151991844, 0.0, 0.5600000023841858, 0.0, 0.0, 0.0, 0.0, 0.0, 1.6218630524999423E9, 2021-05-24 15:30:52.499
16.0, -273.3960266113281, -98.67726135253906, 1.0097730159759521, -91.9286117553711, -0.03200000151991844, 0.0, 0.5600000023841858, 0.0, 0.0, 0.0, 0.0, 0.0, 1.6218630524999423E9, 2021-05-24 15:30:52.499
17.0, -64.72457885742188, 100.82770538330078, 224.8951416015625, 100.26858520507812, -0.03200000151991844, 0.0, 0.5600000023841858, 0.0, 0.0, 0.0, 0.0, 0.0, 1.6218630525163302E9, 2021-05-24 15:30:52.516
17.0, -91.04225158691406, 87.41268157958984, 190.66757202148438, 84.78166198730469, -0.03200000151991844, 0.0, 0.5600000023841858, 0.0, 0.0, 0.0, 0.0, 0.0, 1.6218630525163302E9, 2021-05-24 15:30:52.516
18.0, -200.1388702392578, -15.213912963867188, 72.09405517578125, -24.00828742980957, -0.03200000151991844, 0.0, 0.5600000023841858, 0.0, 0.0, 0.0, 0.0, 0.0, 1.6218630525170054E9, 2021-05-24 15:30:52.517
18.0, -278.5570983886719, -98.05269622802734, 0.1458560973405838, -91.31526947021484, -0.03200000151991844, 0.0, 0.5600000023841858, 0.0, 0.0, 0.0, 0.0, 0.0, 1.6218630525170054E9, 2021-05-24 15:30:52.517
19.0, -60.54711151123047, 107.4398422241211, 227.16152954101562, 106.88072967529297, -0.03200000151991844, 0.0, 0.5600000023841858, 0.0, 0.0, 0.0, 0.0, 0.0, 1.62186305253001E9, 2021-05-24 15:30:52.530
19.0, -96.1247787475586, 80.85289764404297, 192.15231323242188, 82.3956069946289, -0.03200000151991844, 0.0, 0.5600000023841858, 0.0, 0.0, 0.0, 0.0, 0.0, 1.62186305253001E9, 2021-05-24 15:30:52.530
20.0, -203.41502380371094, -11.844263076782227, 74.08741760253906, -8.678438186645508, -0.03200000151991844, 0.0, 0.800000011920929, 0.0, 0.0, 0.0, 0.0, 0.0, 1.6218630525456517E9, 2021-05-24 15:30:52.545
20.0, -278.2429504394531, -97.45057678222656, -8.897221565246582, -99.04563903808594, -0.03200000151991844, 0.0, 0.800000011920929, 0.0, 0.0, 0.0, 0.0, 0.0, 1.6218630525456517E9, 2021-05-24 15:30:52.545
21.0, -61.388587951660156, 90.6140365600586, 222.50160217285156, 103.85514831542969, -0.03200000151991844, 0.0, 0.800000011920929, 0.0, 0.0, 0.0, 0.0, 0.0, 1.6218630525463595E9, 2021-05-24 15:30:52.546
21.0, -89.3854751586914, 79.34197998046875, 187.91500854492188, 89.42662048339844, -0.03200000151991844, 0.0, 0.800000011920929, 0.0, 0.0, 0.0, 0.0, 0.0, 1.6218630525463595E9, 2021-05-24 15:30:52.546
22.0, -197.36387634277344, -22.12898826599121, 74.2557144165039, -21.9962215423584, -0.06400000303983688, 0.0, 0.800000011920929, 0.0, 0.0, 0.0, 0.0, 0.0, 1.6218630525599256E9, 2021-05-24 15:30:52.559
22.0, -278.46734619140625, -99.08490753173828, -1.5146595239639282, -89.30693817138672, -0.06400000303983688, 0.0, 0.800000011920929, 0.0, 0.0, 0.0, 0.0, 0.0, 1.6218630525599256E9, 2021-05-24 15:30:52.559
23.0, -59.44757843017578, 103.59523010253906, 226.8398895263672, 101.73836517333984, -0.06400000303983688, 0.0, 0.800000011920929, 0.0, 0.0, 0.0, 0.0, 0.0, 1.621863052575726E9, 2021-05-24 15:30:52.575
23.0, -90.28679656982422, 92.28577423095703, 192.92648315429688, 84.86019897460938, -0.06400000303983688, 0.0, 0.800000011920929, 0.0, 0.0, 0.0, 0.0, 0.0, 1.621863052575726E9, 2021-05-24 15:30:52.575
24.0, -198.08567810058594, -13.104609489440918, 75.81525421142578, -13.035421371459961, -0.06400000303983688, 0.0, 0.800000011920929, 0.0, 0.0, 0.0, 0.0, 0.0, 1.6218630525764205E9, 2021-05-24 15:30:52.576
24.0, -276.7731628417969, -95.24029541015625, -4.069011211395264, -102.6509017944336, -0.06400000303983688, 0.0, 0.800000011920929, 0.0, 0.0, 0.0, 0.0, 0.0, 1.6218630525764205E9, 2021-05-24 15:30:52.576
25.0, -65.62589263916016, 110.0315933227539, 227.0231475830078, 101.74211120605469, -0.06400000303983688, 0.0, 0.800000011920929, 0.0, 0.0, 0.0, 0.0, 0.0, 1.6218630525899243E9, 2021-05-24 15:30:52.589
25.0, -91.80145263671875, 91.4181137084961, 185.45790100097656, 80.33492279052734, -0.06400000303983688, 0.0, 0.800000011920929, 0.0, 0.0, 0.0, 0.0, 0.0, 1.6218630525899243E9, 2021-05-24 15:30:52.589
26.0, -195.57620239257812, -10.864409446716309, 82.31893920898438, -12.635251998901367, -0.06400000303983688, 0.0, 0.800000011920929, 0.0, 0.0, 0.0, 0.0, 0.0, 1.6218630526058624E9, 2021-05-24 15:30:52.605
26.0, -277.8839111328125, -95.48338317871094, -4.974066734313965, -92.33251953125, -0.06400000303983688, 0.0, 0.800000011920929, 0.0, 0.0, 0.0, 0.0, 0.0, 1.6218630526058624E9, 2021-05-24 15:30:52.605
27.0, -57.824462890625, 106.35901641845703, 218.80657958984375, 101.4242172241211, -0.06400000303983688, 0.0, 0.800000011920929, 0.0, 0.0, 0.0, 0.0, 0.0, 1.6218630526063652E9, 2021-05-24 15:30:52.606
27.0, -91.32274627685547, 88.47107696533203, 190.61521911621094, 86.96576690673828, -0.06400000303983688, 0.0, 0.800000011920929, 0.0, 0.0, 0.0, 0.0, 0.0, 1.6218630526063652E9, 2021-05-24 15:30:52.606
28.0, -202.14346313476562, -12.539884567260742, 76.38745880126953, -10.671804428100586, -0.06400000303983688, 0.0, 0.800000011920929, 0.0, 0.0, 0.0, 0.0, 0.0, 1.6218630526198857E9, 2021-05-24 15:30:52.619
28.0, -280.0007019042969, -94.94110107421875, -14.335036277770996, -90.8477783203125, -0.06400000303983688, 0.0, 0.800000011920929, 0.0, 0.0, 0.0, 0.0, 0.0, 1.6218630526198857E9, 2021-05-24 15:30:52.619
29.0, -55.67028045654297, 106.99853515625, 223.94894409179688, 106.2599105834961, -0.06400000303983688, 0.0, 0.800000011920929, 0.0, 0.0, 0.0, 0.0, 0.0, 1.6218630526356573E9, 2021-05-24 15:30:52.635
29.0, -94.19125366210938, 87.50244140625, 184.91188049316406, 89.3817367553711, -0.06400000303983688, 0.0, 0.800000011920929, 0.0, 0.0, 0.0, 0.0, 0.0, 1.6218630526356573E9, 2021-05-24 15:30:52.635
30.0, -204.18545532226562, -16.365802764892578, 80.30686950683594, -10.092120170593262, -0.06400000303983688, 0.0, 0.9280000329017639, 0.0, 0.0, 0.0, 0.0, 0.0, 1.6218630526364963E9, 2021-05-24 15:30:52.636
30.0, -281.4031677246094, -96.79608917236328, -4.529018878936768, -89.7632064819336, -0.06400000303983688, 0.0, 0.9280000329017639, 0.0, 0.0, 0.0, 0.0, 0.0, 1.6218630526364963E9, 2021-05-24 15:30:52.636
31.0, -65.97744750976562, 99.36540222167969, 223.13739013671875, 105.17533874511719, -0.06400000303983688, 0.01600000075995922, 0.9280000329017639, 0.0, 0.0, 0.0, 0.0, 0.0, 1.6218630526499293E9, 2021-05-24 15:30:52.649
31.0, -98.7165298461914, 87.28926849365234, 195.07691955566406, 88.259765625, -0.06400000303983688, 0.01600000075995922, 0.9280000329017639, 0.0, 0.0, 0.0, 0.0, 0.0, 1.6218630526499293E9, 2021-05-24 15:30:52.649
32.0, -210.41238403320312, -11.107502937316895, 82.16934204101562, -11.26270866394043, -0.06400000303983688, 0.01600000075995922, 0.9280000329017639, 0.0, 0.0, 0.0, 0.0, 0.0, 1.6218630526655765E9, 2021-05-24 15:30:52.665
32.0, -283.97247314453125, -97.19252014160156, -2.3486571311950684, -90.55606842041016, -0.06400000303983688, 0.01600000075995922, 0.9280000329017639, 0.0, 0.0, 0.0, 0.0, 0.0, 1.6218630526655765E9, 2021-05-24 15:30:52.665
33.0, -66.29907989501953, 107.32765197753906, 228.89683532714844, 107.97652435302734, -0.06400000303983688, 0.01600000075995922, 0.9280000329017639, 0.0, 0.0, 0.0, 0.0, 0.0, 1.6218630526664383E9, 2021-05-24 15:30:52.666
33.0, -94.16880798339844, 88.33643341064453, 196.6215057373047, 86.18038177490234, -0.06400000303983688, 0.01600000075995922, 0.9280000329017639, 0.0, 0.0, 0.0, 0.0, 0.0, 1.6218630526664383E9, 2021-05-24 15:30:52.666
34.0, -199.22259521484375, -12.68574047088623, 79.88426208496094, -11.876051902770996, -0.06400000303983688, 0.01600000075995922, 0.9280000329017639, 0.0, 0.0, 0.0, 0.0, 0.0, 1.6218630526799417E9, 2021-05-24 15:30:52.679
34.0, -276.6908874511719, -93.79669189453125, -12.214512825012207, -100.40696716308594, -0.06400000303983688, 0.01600000075995922, 0.9280000329017639, 0.0, 0.0, 0.0, 0.0, 0.0, 1.6218630526799417E9, 2021-05-24 15:30:52.679
35.0, -64.9265365600586, 104.02157592773438, 223.94520568847656, 98.68286895751953, -0.06400000303983688, 0.01600000075995922, 0.9280000329017639, 0.0, 0.0, 0.0, 0.0, 0.0, 1.6218630526956792E9, 2021-05-24 15:30:52.695
35.0, -94.94670867919922, 91.59014892578125, 184.33218383789062, 86.46087646484375, -0.06400000303983688, 0.01600000075995922, 0.9280000329017639, 0.0, 0.0, 0.0, 0.0, 0.0, 1.6218630526956792E9, 2021-05-24 15:30:52.695
36.0, -205.41213989257812, -9.19641399383545, 82.07584381103516, -18.78738784790039, -0.06400000303983688, 0.01600000075995922, 0.9280000329017639, 0.0, 0.0, 0.0, 0.0, 0.0, 1.6218630526963568E9, 2021-05-24 15:30:52.696
36.0, -281.3882141113281, -88.08586120605469, -10.284725189208984, -94.31466674804688, -0.06400000303983688, 0.01600000075995922, 0.9280000329017639, 0.0, 0.0, 0.0, 0.0, 0.0, 1.6218630526963568E9, 2021-05-24 15:30:52.696
37.0, -63.864402770996094, 109.54914855957031, 219.4760284423828, 104.04214477539062, -0.06400000303983688, 0.01600000075995922, 0.9280000329017639, 0.0, 0.0, 0.0, 0.0, 0.0, 1.621863052709944E9, 2021-05-24 15:30:52.709
37.0, -98.39115905761719, 91.69486999511719, 187.4624786376953, 84.97239685058594, -0.06400000303983688, 0.01600000075995922, 0.9280000329017639, 0.0, 0.0, 0.0, 0.0, 0.0, 1.621863052709944E9, 2021-05-24 15:30:52.709
38.0, -203.62820434570312, -7.5171990394592285, 80.34426879882812, -11.165471076965332, -0.06400000303983688, 0.01600000075995922, 0.9280000329017639, 0.0, 0.0, 0.0, 0.0, 0.0, 1.6218630527255812E9, 2021-05-24 15:30:52.725
38.0, -286.19024658203125, -95.1093978881836, -13.011112213134766, -94.06409454345703, -0.06400000303983688, 0.01600000075995922, 0.9280000329017639, 0.0, 0.0, 0.0, 0.0, 0.0, 1.6218630527255812E9, 2021-05-24 15:30:52.725
39.0, -65.70817565917969, 109.79972076416016, 229.78318786621094, 103.6344985961914, -0.06400000303983688, 0.01600000075995922, 0.9280000329017639, 0.0, 0.0, 0.0, 0.0, 0.0, 1.6218630527263162E9, 2021-05-24 15:30:52.726
39.0, -95.3431396484375, 87.13592529296875, 190.0916290283203, 91.8463363647461, -0.06400000303983688, 0.01600000075995922, 0.9280000329017639, 0.0, 0.0, 0.0, 0.0, 0.0, 1.6218630527263162E9, 2021-05-24 15:30:52.726
40.0, -201.6572723388672, -10.423101425170898, 76.06956481933594, -10.634405136108398, -0.06400000303983688, 0.01600000075995922, 0.9920000433921814, 0.0, 0.0, 0.0, 0.0, 0.0, 1.6218630527399464E9, 2021-05-24 15:30:52.739
40.0, -280.7486877441406, -92.32691192626953, -9.327310562133789, -91.60697937011719, -0.06400000303983688, 0.01600000075995922, 0.9920000433921814, 0.0, 0.0, 0.0, 0.0, 0.0, 1.6218630527399464E9, 2021-05-24 15:30:52.739
41.0, -63.18000030517578, 109.72492218017578, 219.24789428710938, 102.9949722290039, -0.06400000303983688, 0.01600000075995922, 0.9920000433921814, 0.0, 0.0, 0.0, 0.0, 0.0, 1.621863052755582E9, 2021-05-24 15:30:52.755
41.0, -96.55487060546875, 89.8959732055664, 193.2705535888672, 92.90846252441406, -0.06400000303983688, 0.01600000075995922, 0.9920000433921814, 0.0, 0.0, 0.0, 0.0, 0.0, 1.621863052755582E9, 2021-05-24 15:30:52.755
42.0, -202.03126525878906, -14.04332447052002, 80.635986328125, -6.180184841156006, -0.06400000303983688, 0.01600000075995922, 0.9920000433921814, 0.0, 0.0, 0.0, 0.0, 0.0, 1.621863052756308E9, 2021-05-24 15:30:52.756
42.0, -276.2645263671875, -90.636474609375, -3.564124584197998, -89.47523498535156, -0.06400000303983688, 0.01600000075995922, 0.9920000433921814, 0.0, 0.0, 0.0, 0.0, 0.0, 1.621863052756308E9, 2021-05-24 15:30:52.756
43.0, -62.93316650390625, 109.68378448486328, 227.45323181152344, 104.8387451171875, -0.06400000303983688, 0.01600000075995922, 0.9920000433921814, 0.0, 0.0, 0.0, 0.0, 0.0, 1.6218630527698984E9, 2021-05-24 15:30:52.769
43.0, -92.44097900390625, 94.028564453125, 190.41326904296875, 90.44013214111328, -0.06400000303983688, 0.01600000075995922, 0.9920000433921814, 0.0, 0.0, 0.0, 0.0, 0.0, 1.6218630527698984E9, 2021-05-24 15:30:52.769
44.0, -201.10003662109375, -9.82845687866211, 83.91587829589844, -9.056167602539062, -0.06400000303983688, 0.01600000075995922, 0.9920000433921814, 0.0, 0.0, 0.0, 0.0, 0.0, 1.6218630527855847E9, 2021-05-24 15:30:52.785
44.0, -273.9794616699219, -94.7728042602539, -4.7160139083862305, -82.76959228515625, -0.06400000303983688, 0.01600000075995922, 0.9920000433921814, 0.0, 0.0, 0.0, 0.0, 0.0, 1.6218630527855847E9, 2021-05-24 15:30:52.785
45.0, -62.17022705078125, 102.38723754882812, 221.68630981445312, 106.93309020996094, -0.06400000303983688, 0.01600000075995922, 0.9920000433921814, 0.0, 0.0, 0.0, 0.0, 0.0, 1.6218630527863097E9, 2021-05-24 15:30:52.786
45.0, -89.20222473144531, 92.54008483886719, 192.54501342773438, 94.6849136352539, -0.06400000303983688, 0.01600000075995922, 0.9920000433921814, 0.0, 0.0, 0.0, 0.0, 0.0, 1.6218630527863097E9, 2021-05-24 15:30:52.786
46.0, -195.44155883789062, -7.240446090698242, 87.69317626953125, -8.109972953796387, -0.06400000303983688, 0.01600000075995922, 0.9920000433921814, 0.0, 0.0, 0.0, 0.0, 0.0, 1.6218630528001127E9, 2021-05-24 15:30:52.800
46.0, -279.3499450683594, -92.5849609375, -6.701900482177734, -89.83426666259766, -0.06400000303983688, 0.01600000075995922, 0.9920000433921814, 0.0, 0.0, 0.0, 0.0, 0.0, 1.6218630528001127E9, 2021-05-24 15:30:52.800
47.0, -60.65182876586914, 105.80177307128906, 224.56228637695312, 105.86721801757812, -0.06400000303983688, 0.01600000075995922, 0.9920000433921814, 0.0, 0.0, 0.0, 0.0, 0.0, 1.621863052815644E9, 2021-05-24 15:30:52.815
47.0, -87.72122192382812, 94.21182250976562, 196.6289825439453, 95.15614318847656, -0.06400000303983688, 0.01600000075995922, 0.9920000433921814, 0.0, 0.0, 0.0, 0.0, 0.0, 1.621863052815644E9, 2021-05-24 15:30:52.815
48.0, -199.05430603027344, -9.69756031036377, 78.53790283203125, -10.002362251281738, -0.06400000303983688, 0.01600000075995922, 0.9920000433921814, 0.0, 0.0, 0.0, 0.0, 0.0, 1.6218630528162987E9, 2021-05-24 15:30:52.816
48.0, -276.9676513671875, -96.2986831665039, -8.773805618286133, -95.6610336303711, -0.06400000303983688, 0.01600000075995922, 0.9920000433921814, 0.0, 0.0, 0.0, 0.0, 0.0, 1.6218630528162987E9, 2021-05-24 15:30:52.816
49.0, -62.77983093261719, 106.87886047363281, 218.92626953125, 100.24988555908203, -0.06400000303983688, 0.01600000075995922, 0.9920000433921814, 0.0, 0.0, 0.0, 0.0, 0.0, 1.6218630528299613E9, 2021-05-24 15:30:52.829
49.0, -86.31501770019531, 96.6801528930664, 187.799072265625, 88.18122863769531, -0.06400000303983688, 0.01600000075995922, 0.9920000433921814, 0.0, 0.0, 0.0, 0.0, 0.0, 1.6218630528299613E9, 2021-05-24 15:30:52.829
50.0, -197.1619110107422, -11.702146530151367, 76.2453384399414, -15.52619457244873, -0.06400000303983688, 0.01600000075995922, 1.0240000486373901, 0.0, 0.0, 0.0, 0.0, 0.0, 1.6218630528456001E9, 2021-05-24 15:30:52.845
50.0, -274.57037353515625, -94.02482604980469, -8.998199462890625, -95.26834106445312, -0.06400000303983688, 0.01600000075995922, 1.0240000486373901, 0.0, 0.0, 0.0, 0.0, 0.0, 1.6218630528456001E9, 2021-05-24 15:30:52.845
51.0, -58.10495376586914, 104.75833892822266, 223.47772216796875, 107.54269409179688, -0.06400000303983688, 0.01600000075995922, 1.0240000486373901, 0.0, 0.0, 0.0, 0.0, 0.0, 1.6218630528463187E9, 2021-05-24 15:30:52.846
51.0, -92.70276641845703, 89.78752136230469, 190.70497131347656, 87.92691802978516, -0.06400000303983688, 0.01600000075995922, 1.0240000486373901, 0.0, 0.0, 0.0, 0.0, 0.0, 1.6218630528463187E9, 2021-05-24 15:30:52.846
52.0, -196.279296875, -15.610342025756836, 78.92684936523438, -8.887872695922852, -0.06400000303983688, 0.01600000075995922, 1.0240000486373901, 0.0, 0.0, 0.0, 0.0, 0.0, 1.6218630528599083E9, 2021-05-24 15:30:52.859
52.0, -270.02264404296875, -93.76676940917969, -5.987579822540283, -93.53302764892578, -0.06400000303983688, 0.01600000075995922, 1.0240000486373901, 0.0, 0.0, 0.0, 0.0, 0.0, 1.6218630528599083E9, 2021-05-24 15:30:52.859
53.0, -55.74134063720703, 112.20073699951172, 224.266845703125, 109.06109619140625, -0.06400000303983688, 0.01600000075995922, 1.0240000486373901, 0.0, 0.0, 0.0, 0.0, 0.0, 1.6218630528755715E9, 2021-05-24 15:30:52.875
53.0, -90.87770080566406, 95.19915008544922, 189.35113525390625, 87.71000671386719, -0.06400000303983688, 0.01600000075995922, 1.0240000486373901, 0.0, 0.0, 0.0, 0.0, 0.0, 1.6218630528755715E9, 2021-05-24 15:30:52.875
54.0, -198.227783203125, -9.88455581665039, 70.72151184082031, -7.485409736633301, -0.06400000303983688, 0.01600000075995922, 1.0240000486373901, 0.0, 0.0, 0.0, 0.0, 0.0, 1.6218630528762908E9, 2021-05-24 15:30:52.876
54.0, -275.9279479980469, -90.67387390136719, -6.649542331695557, -91.73413848876953, -0.06400000303983688, 0.01600000075995922, 1.0240000486373901, 0.0, 0.0, 0.0, 0.0, 0.0, 1.6218630528762908E9, 2021-05-24 15:30:52.876
55.0, -57.955360412597656, 103.28482055664062, 222.905517578125, 102.79676055908203, -0.06400000303983688, 0.01600000075995922, 1.0240000486373901, 0.0, 0.0, 0.0, 0.0, 0.0, 1.621863052889896E9, 2021-05-24 15:30:52.889
55.0, -98.06204986572266, 93.17586517333984, 190.73489379882812, 90.45509338378906, -0.06400000303983688, 0.01600000075995922, 1.0240000486373901, 0.0, 0.0, 0.0, 0.0, 0.0, 1.621863052889896E9, 2021-05-24 15:30:52.889
56.0, -195.37423706054688, -6.320430755615234, 76.87364196777344, -5.4135050773620605, -0.06400000303983688, 0.01600000075995922, 1.0240000486373901, 0.0, 0.0, 0.0, 0.0, 0.0, 1.6218630529054997E9, 2021-05-24 15:30:52.905
56.0, -278.441162109375, -95.86485290527344, -5.314397811889648, -88.87311553955078, -0.06400000303983688, 0.01600000075995922, 1.0240000486373901, 0.0, 0.0, 0.0, 0.0, 0.0, 1.6218630529054997E9, 2021-05-24 15:30:52.905
57.0, -59.20074462890625, 105.98876190185547, 222.19866943359375, 96.31925201416016, -0.06400000303983688, 0.01600000075995922, 1.0240000486373901, 0.0, 0.0, 0.0, 0.0, 0.0, 1.62186305292058E9, 2021-05-24 15:30:52.920
57.0, -85.51467895507812, 90.33354187011719, 195.15171813964844, 89.59117126464844, -0.06400000303983688, 0.01600000075995922, 1.0240000486373901, 0.0, 0.0, 0.0, 0.0, 0.0, 1.62186305292058E9, 2021-05-24 15:30:52.920
58.0, -193.67259216308594, -7.984686374664307, 82.9472427368164, -8.39046573638916, -0.06400000303983688, 0.01600000075995922, 1.0240000486373901, 0.0, 0.0, 0.0, 0.0, 0.0, 1.6218630529213111E9, 2021-05-24 15:30:52.921
58.0, -273.1753845214844, -88.2466812133789, -3.0928971767425537, -100.61640167236328, -0.06400000303983688, 0.01600000075995922, 1.0240000486373901, 0.0, 0.0, 0.0, 0.0, 0.0, 1.6218630529213111E9, 2021-05-24 15:30:52.921
59.0, -54.23789978027344, 110.17745208740234, 226.9259033203125, 99.4794692993164, -0.06400000303983688, 0.01600000075995922, 1.0240000486373901, 0.0, 0.0, 0.0, 0.0, 0.0, 1.6218630529355743E9, 2021-05-24 15:30:52.935
59.0, -95.36931610107422, 84.40953826904297, 190.67880249023438, 77.70577239990234, -0.06400000303983688, 0.01600000075995922, 1.0240000486373901, 0.0, 0.0, 0.0, 0.0, 0.0, 1.6218630529355743E9, 2021-05-24 15:30:52.935
60.0, -197.01605224609375, -12.420207977294922, 72.45682525634766, -13.390711784362793, -0.06400000303983688, 0.01600000075995922, 1.0240000486373901, 0.0, 0.0, 0.0, 0.0, 0.0, 1.6218630529362924E9, 2021-05-24 15:30:52.936
60.0, -270.23956298828125, -96.6165771484375, -12.05369758605957, -92.30259704589844, -0.06400000303983688, 0.01600000075995922, 1.0240000486373901, 0.0, 0.0, 0.0, 0.0, 0.0, 1.6218630529362924E9, 2021-05-24 15:30:52.936
61.0, -52.599822998046875, 103.8046646118164, 223.22340393066406, 101.27088165283203, -0.06400000303983688, 0.01600000075995922, 1.0240000486373901, 0.0, 0.0, 0.0, 0.0, 0.0, 1.6218630529499352E9, 2021-05-24 15:30:52.949
61.0, -84.6432876586914, 88.01854705810547, 183.53933715820312, 85.64183807373047, -0.06400000303983688, 0.01600000075995922, 1.0240000486373901, 0.0, 0.0, 0.0, 0.0, 0.0, 1.6218630529499352E9, 2021-05-24 15:30:52.949
62.0, -188.88551330566406, -11.305717468261719, 76.9447021484375, -18.59665298461914, -0.08000000566244125, 0.01600000075995922, 1.0240000486373901, 0.0, 0.0, 0.0, 0.0, 0.0, 1.621863052965618E9, 2021-05-24 15:30:52.965
62.0, -267.6066589355469, -94.27539825439453, -9.072997093200684, -98.35002136230469, -0.08000000566244125, 0.01600000075995922, 1.0240000486373901, 0.0, 0.0, 0.0, 0.0, 0.0, 1.621863052965618E9, 2021-05-24 15:30:52.965
63.0, -50.636375427246094, 111.33308410644531, 217.95388793945312, 100.12647247314453, -0.08000000566244125, 0.01600000075995922, 1.0240000486373901, 0.0, 0.0, 0.0, 0.0, 0.0, 1.621863052966322E9, 2021-05-24 15:30:52.966
63.0, -86.6329116821289, 95.18793487548828, 189.91586303710938, 79.61312103271484, -0.08000000566244125, 0.01600000075995922, 1.0240000486373901, 0.0, 0.0, 0.0, 0.0, 0.0, 1.621863052966322E9, 2021-05-24 15:30:52.966
64.0, -194.2859344482422, -6.092297077178955, 76.91477966308594, -26.798254013061523, -0.08000000566244125, 0.01600000075995922, 1.0240000486373901, 0.0, 0.0, 0.0, 0.0, 0.0, 1.6218630529963272E9, 2021-05-24 15:30:52.996
64.0, -269.7458801269531, -89.60426330566406, -4.536498546600342, -105.78494262695312, -0.08000000566244125, 0.01600000075995922, 1.0240000486373901, 0.0, 0.0, 0.0, 0.0, 0.0, 1.6218630529963272E9, 2021-05-24 15:30:52.996
65.0, -56.739891052246094, 102.75375366210938, 221.9630584716797, 106.48804473876953, -0.08000000566244125, 0.01600000075995922, 1.0240000486373901, 0.0, 0.0, 0.0, 0.0, 0.0, 1.6218630529970453E9, 2021-05-24 15:30:52.997
65.0, -92.19788360595703, 89.87727355957031, 192.2084197998047, 92.56813049316406, -0.08000000566244125, 0.01600000075995922, 1.0240000486373901, 0.0, 0.0, 0.0, 0.0, 0.0, 1.6218630529970453E9, 2021-05-24 15:30:52.997
66.0, -195.78936767578125, -10.5315580368042, 77.78617858886719, -21.00514793395996, -0.08000000566244125, 0.01600000075995922, 1.0240000486373901, 0.0, 0.0, 0.0, 0.0, 0.0, 1.6218630529977727E9, 2021-05-24 15:30:52.997
66.0, -269.5140075683594, -95.77510070800781, -6.286771774291992, -100.46306610107422, -0.08000000566244125, 0.01600000075995922, 1.0240000486373901, 0.0, 0.0, 0.0, 0.0, 0.0, 1.6218630529977727E9, 2021-05-24 15:30:52.997
67.0, -61.16419219970703, 105.93640899658203, 224.61465454101562, 108.09246063232422, -0.08000000566244125, 0.01600000075995922, 1.0240000486373901, 0.0, 0.0, 0.0, 0.0, 0.0, 1.621863053009932E9, 2021-05-24 15:30:53.009
67.0, -94.84573364257812, 92.88041687011719, 194.0334930419922, 82.14877319335938, -0.08000000566244125, 0.01600000075995922, 1.0240000486373901, 0.0, 0.0, 0.0, 0.0, 0.0, 1.621863053009932E9, 2021-05-24 15:30:53.009
68.0, -201.960205078125, -8.99071979522705, 77.08307647705078, -9.15340518951416, -0.08000000566244125, 0.01600000075995922, 1.0240000486373901, 0.0, 0.0, 0.0, 0.0, 0.0, 1.621863053025623E9, 2021-05-24 15:30:53.025
68.0, -285.9845275878906, -97.07284545898438, -15.415867805480957, -100.78095245361328, -0.08000000566244125, 0.01600000075995922, 1.0240000486373901, 0.0, 0.0, 0.0, 0.0, 0.0, 1.621863053025623E9, 2021-05-24 15:30:53.025
69.0, -58.74821853637695, 111.5574722290039, 225.04473876953125, 95.2197265625, -0.08000000566244125, 0.01600000075995922, 1.0240000486373901, 0.0, 0.0, 0.0, 0.0, 0.0, 1.6218630530263267E9, 2021-05-24 15:30:53.026
69.0, -88.68611907958984, 96.3173828125, 191.3108367919922, 79.95345306396484, -0.08000000566244125, 0.01600000075995922, 1.0240000486373901, 0.0, 0.0, 0.0, 0.0, 0.0, 1.6218630530263267E9, 2021-05-24 15:30:53.026
70.0, -197.95851135253906, -5.295698165893555, 72.18754577636719, -12.044347763061523, -0.08000000566244125, 0.01600000075995922, 1.040000081062317, 0.0, 0.0, 0.0, 0.0, 0.0, 1.6218630530399003E9, 2021-05-24 15:30:53.039
70.0, -278.3102722167969, -96.24632263183594, -13.347702980041504, -95.69468688964844, -0.08000000566244125, 0.01600000075995922, 1.040000081062317, 0.0, 0.0, 0.0, 0.0, 0.0, 1.6218630530399003E9, 2021-05-24 15:30:53.039
71.0, -58.91277313232422, 101.5121078491211, 217.6434783935547, 99.8572006225586, -0.08000000566244125, 0.01600000075995922, 1.040000081062317, 0.0, 0.0, 0.0, 0.0, 0.0, 1.6218630530556004E9, 2021-05-24 15:30:53.055
71.0, -84.93499755859375, 85.84940338134766, 188.37127685546875, 80.9482650756836, -0.08000000566244125, 0.01600000075995922, 1.040000081062317, 0.0, 0.0, 0.0, 0.0, 0.0, 1.6218630530556004E9, 2021-05-24 15:30:53.055
72.0, -189.1697540283203, -5.748226165771484, 68.54488372802734, -13.955436706542969, -0.06400000303983688, 0.01600000075995922, 1.040000081062317, 0.0, 0.0, 0.0, 0.0, 0.0, 1.6218630530563273E9, 2021-05-24 15:30:53.056
72.0, -270.38916015625, -96.56795501708984, -10.153828620910645, -93.1365966796875, -0.06400000303983688, 0.01600000075995922, 1.040000081062317, 0.0, 0.0, 0.0, 0.0, 0.0, 1.6218630530563273E9, 2021-05-24 15:30:53.056
73.0, -54.44733428955078, 101.1942138671875, 218.23812866210938, 95.10752868652344, -0.06400000303983688, 0.01600000075995922, 1.040000081062317, 0.0, 0.0, 0.0, 0.0, 0.0, 1.6218630530698843E9, 2021-05-24 15:30:53.069
73.0, -79.27652740478516, 90.26622772216797, 187.90753173828125, 82.23478698730469, -0.06400000303983688, 0.01600000075995922, 1.040000081062317, 0.0, 0.0, 0.0, 0.0, 0.0, 1.6218630530698843E9, 2021-05-24 15:30:53.069
74.0, -187.07540893554688, -10.692374229431152, 66.91055297851562, -13.057860374450684, -0.06400000303983688, 0.01600000075995922, 1.040000081062317, 0.0, 0.0, 0.0, 0.0, 0.0, 1.621863053085601E9, 2021-05-24 15:30:53.085
74.0, -270.0263977050781, -95.38614654541016, -12.158414840698242, -98.15554809570312, -0.06400000303983688, 0.01600000075995922, 1.040000081062317, 0.0, 0.0, 0.0, 0.0, 0.0, 1.621863053085601E9, 2021-05-24 15:30:53.085
75.0, -51.358177185058594, 103.10530090332031, 219.06463623046875, 94.74849700927734, -0.06400000303983688, 0.01600000075995922, 1.040000081062317, 0.0, 0.0, 0.0, 0.0, 0.0, 1.6218630530863154E9, 2021-05-24 15:30:53.086
75.0, -83.95514678955078, 96.05558776855469, 190.96676635742188, 79.96466827392578, -0.06400000303983688, 0.01600000075995922, 1.040000081062317, 0.0, 0.0, 0.0, 0.0, 0.0, 1.6218630530863154E9, 2021-05-24 15:30:53.086
76.0, -193.67259216308594, -5.385456085205078, 72.35584259033203, -26.48784065246582, -0.06400000303983688, 0.01600000075995922, 1.040000081062317, 0.0, 0.0, 0.0, 0.0, 0.0, 1.6218630530999484E9, 2021-05-24 15:30:53.099
76.0, -274.2113342285156, -94.3053207397461, -10.20992660522461, -105.38477325439453, -0.06400000303983688, 0.01600000075995922, 1.040000081062317, 0.0, 0.0, 0.0, 0.0, 0.0, 1.6218630530999484E9, 2021-05-24 15:30:53.099
77.0, -56.938106536865234, 112.28302001953125, 220.71392822265625, 103.08099365234375, -0.06400000303983688, 0.01600000075995922, 1.040000081062317, 0.0, 0.0, 0.0, 0.0, 0.0, 1.6218630531156063E9, 2021-05-24 15:30:53.115
77.0, -88.81327056884766, 96.7998275756836, 189.4558563232422, 89.05636596679688, -0.06400000303983688, 0.01600000075995922, 1.040000081062317, 0.0, 0.0, 0.0, 0.0, 0.0, 1.6218630531156063E9, 2021-05-24 15:30:53.115
78.0, -191.76524353027344, -5.411635398864746, 80.67338562011719, -9.598453521728516, -0.06400000303983688, 0.01600000075995922, 1.040000081062317, 0.0, 0.0, 0.0, 0.0, 0.0, 1.6218630531163373E9, 2021-05-24 15:30:53.116
78.0, -274.97052001953125, -86.47770690917969, -1.2865256071090698, -90.64956665039062, -0.06400000303983688, 0.01600000075995922, 1.040000081062317, 0.0, 0.0, 0.0, 0.0, 0.0, 1.6218630531163373E9, 2021-05-24 15:30:53.116
79.0, -54.3613166809082, 106.48991394042969, 226.00962829589844, 98.34628295898438, -0.06400000303983688, 0.01600000075995922, 1.040000081062317, 0.0, 0.0, 0.0, 0.0, 0.0, 1.6218630531299555E9, 2021-05-24 15:30:53.129
79.0, -85.69046020507812, 92.8617172241211, 193.24436950683594, 82.91545104980469, -0.06400000303983688, 0.01600000075995922, 1.040000081062317, 0.0, 0.0, 0.0, 0.0, 0.0, 1.6218630531299555E9, 2021-05-24 15:30:53.129
80.0, -192.55435180664062, -0.5048865079879761, 78.10407257080078, -14.32194709777832, -0.06400000303983688, 0.01600000075995922, 1.040000081062317, 0.0, 0.0, 0.0, 0.0, 0.0, 1.6218630531455953E9, 2021-05-24 15:30:53.145
80.0, -271.1932373046875, -83.59424591064453, -4.659915447235107, -97.43000030517578, -0.06400000303983688, 0.01600000075995922, 1.040000081062317, 0.0, 0.0, 0.0, 0.0, 0.0, 1.6218630531455953E9, 2021-05-24 15:30:53.145
81.0, -54.215457916259766, 108.91710662841797, 222.1799774169922, 98.46221923828125, -0.06400000303983688, 0.01600000075995922, 1.040000081062317, 0.0, 0.0, 0.0, 0.0, 0.0, 1.6218630531463237E9, 2021-05-24 15:30:53.146
81.0, -86.77877044677734, 97.5216293334961, 190.70497131347656, 86.17290496826172, -0.06400000303983688, 0.01600000075995922, 1.040000081062317, 0.0, 0.0, 0.0, 0.0, 0.0, 1.6218630531463237E9, 2021-05-24 15:30:53.146
82.0, -194.9665985107422, -6.776698589324951, 77.58796691894531, -12.519314765930176, -0.06400000303983688, 0.01600000075995922, 1.040000081062317, 0.0, 0.0, 0.0, 0.0, 0.0, 1.6218630531598845E9, 2021-05-24 15:30:53.159
82.0, -274.2412414550781, -93.05619049072266, -7.1095499992370605, -103.30164337158203, -0.06400000303983688, 0.01600000075995922, 1.040000081062317, 0.0, 0.0, 0.0, 0.0, 0.0, 1.6218630531598845E9, 2021-05-24 15:30:53.159
83.0, -53.13462829589844, 112.69066619873047, 225.0746612548828, 94.28849029541016, -0.06400000303983688, 0.01600000075995922, 1.040000081062317, 0.0, 0.0, 0.0, 0.0, 0.0, 1.6218630531756058E9, 2021-05-24 15:30:53.175
83.0, -84.56475067138672, 91.51161193847656, 190.79473876953125, 83.38668060302734, -0.06400000303983688, 0.01600000075995922, 1.040000081062317, 0.0, 0.0, 0.0, 0.0, 0.0, 1.6218630531756058E9, 2021-05-24 15:30:53.175
84.0, -193.50802612304688, -15.475706100463867, 80.5200424194336, -26.3681640625, -0.06400000303983688, 0.01600000075995922, 1.040000081062317, 0.0, 0.0, 0.0, 0.0, 0.0, 1.621863053176321E9, 2021-05-24 15:30:53.176
84.0, -274.2823791503906, -95.30387115478516, -7.173128128051758, -105.2800521850586, -0.06400000303983688, 0.01600000075995922, 1.040000081062317, 0.0, 0.0, 0.0, 0.0, 0.0, 1.621863053176321E9, 2021-05-24 15:30:53.176
85.0, -58.05259704589844, 109.45938873291016, 222.3108673095703, 103.23432922363281, -0.06400000303983688, 0.01600000075995922, 1.040000081062317, 0.0, 0.0, 0.0, 0.0, 0.0, 1.6218630531899445E9, 2021-05-24 15:30:53.189
85.0, -85.27532958984375, 96.54177856445312, 193.59217834472656, 91.39754486083984, -0.06400000303983688, 0.01600000075995922, 1.040000081062317, 0.0, 0.0, 0.0, 0.0, 0.0, 1.6218630531899445E9, 2021-05-24 15:30:53.189
86.0, -195.351806640625, -1.1219699382781982, 82.13568115234375, -9.303001403808594, -0.06400000303983688, 0.01600000075995922, 1.040000081062317, 0.0, 0.0, 0.0, 0.0, 0.0, 1.6218630532056477E9, 2021-05-24 15:30:53.205
86.0, -268.74359130859375, -82.72284698486328, 2.0831241607666016, -94.47547912597656, -0.06400000303983688, 0.01600000075995922, 1.040000081062317, 0.0, 0.0, 0.0, 0.0, 0.0, 1.6218630532056477E9, 2021-05-24 15:30:53.205
87.0, -55.66279983520508, 115.25997924804688, 233.3024444580078, 100.62761688232422, -0.06400000303983688, 0.01600000075995922, 1.040000081062317, 0.0, 0.0, 0.0, 0.0, 0.0, 1.6218630532065089E9, 2021-05-24 15:30:53.206
87.0, -89.3817367553711, 95.26647186279297, 196.26620483398438, 77.55243682861328, -0.06400000303983688, 0.01600000075995922, 1.040000081062317, 0.0, 0.0, 0.0, 0.0, 0.0, 1.6218630532065089E9, 2021-05-24 15:30:53.206
88.0, -193.97926330566406, -2.202800989151001, 81.08477020263672, -8.382986068725586, -0.06400000303983688, 0.01600000075995922, 1.040000081062317, 0.0, 0.0, 0.0, 0.0, 0.0, 1.6218630532199333E9, 2021-05-24 15:30:53.219
88.0, -276.50390625, -91.57144927978516, -7.633135795593262, -103.26050567626953, -0.06400000303983688, 0.01600000075995922, 1.040000081062317, 0.0, 0.0, 0.0, 0.0, 0.0, 1.6218630532199333E9, 2021-05-24 15:30:53.219
89.0, -60.64808654785156, 106.04486083984375, 222.21363830566406, 102.09365844726562, -0.06400000303983688, 0.01600000075995922, 1.040000081062317, 0.0, 0.0, 0.0, 0.0, 0.0, 1.6218630532356083E9, 2021-05-24 15:30:53.235
89.0, -91.18437194824219, 96.3772201538086, 194.37008666992188, 82.92667388916016, -0.06400000303983688, 0.01600000075995922, 1.040000081062317, 0.0, 0.0, 0.0, 0.0, 0.0, 1.6218630532356083E9, 2021-05-24 15:30:53.235
90.0, -191.47726440429688, -2.2215006351470947, 76.29396057128906, -15.533674240112305, -0.06400000303983688, 0.01600000075995922, 1.055999994277954, 0.0, 0.0, 0.0, 0.0, 0.0, 1.6218630532363238E9, 2021-05-24 15:30:53.236
90.0, -271.90008544921875, -90.30736541748047, -7.696713924407959, -91.58454132080078, -0.06400000303983688, 0.01600000075995922, 1.055999994277954, 0.0, 0.0, 0.0, 0.0, 0.0, 1.6218630532363238E9, 2021-05-24 15:30:53.236
91.0, -54.56700897216797, 116.58016204833984, 229.3119659423828, 97.35520935058594, -0.06400000303983688, 0.01600000075995922, 1.055999994277954, 0.0, 0.0, 0.0, 0.0, 0.0, 1.6218630532499208E9, 2021-05-24 15:30:53.249
91.0, -88.11017608642578, 99.0512466430664, 194.55706787109375, 83.05008697509766, -0.06400000303983688, 0.01600000075995922, 1.055999994277954, 0.0, 0.0, 0.0, 0.0, 0.0, 1.6218630532499208E9, 2021-05-24 15:30:53.249
92.0, -194.5926055908203, -7.793951511383057, 76.27526092529297, -19.703662872314453, -0.06400000303983688, 0.01600000075995922, 1.055999994277954, 0.0, 0.0, 0.0, 0.0, 0.0, 1.621863053265364E9, 2021-05-24 15:30:53.265
92.0, -273.347412109375, -83.12301635742188, -7.2441864013671875, -105.29875183105469, -0.06400000303983688, 0.01600000075995922, 1.055999994277954, 0.0, 0.0, 0.0, 0.0, 0.0, 1.621863053265364E9, 2021-05-24 15:30:53.265
93.0, -51.20109939575195, 106.05982208251953, 224.24440002441406, 88.48789978027344, -0.06400000303983688, 0.01600000075995922, 1.055999994277954, 0.0, 0.0, 0.0, 0.0, 0.0, 1.6218630532819617E9, 2021-05-24 15:30:53.281
93.0, -85.4885025024414, 94.01360321044922, 193.21070861816406, 79.59442138671875, -0.06400000303983688, 0.01600000075995922, 1.055999994277954, 0.0, 0.0, 0.0, 0.0, 0.0, 1.6218630532819617E9, 2021-05-24 15:30:53.281
94.0, -188.87803649902344, -4.270965576171875, 80.72947692871094, -13.155097961425781, -0.06400000303983688, 0.01600000075995922, 1.055999994277954, 0.0, 0.0, 0.0, 0.0, 0.0, 1.6218630532826934E9, 2021-05-24 15:30:53.282
94.0, -272.66302490234375, -90.5728988647461, -7.412481784820557, -100.11151123046875, -0.06400000303983688, 0.01600000075995922, 1.055999994277954, 0.0, 0.0, 0.0, 0.0, 0.0, 1.6218630532826934E9, 2021-05-24 15:30:53.282
95.0, -57.49535369873047, 113.76775360107422, 223.86293029785156, 102.8079833984375, -0.06400000303983688, 0.01600000075995922, 1.055999994277954, 0.0, 0.0, 0.0, 0.0, 0.0, 1.6218630532834466E9, 2021-05-24 15:30:53.283
95.0, -86.62169647216797, 95.43850708007812, 191.71475219726562, 80.60419464111328, -0.06400000303983688, 0.01600000075995922, 1.055999994277954, 0.0, 0.0, 0.0, 0.0, 0.0, 1.6218630532834466E9, 2021-05-24 15:30:53.283
96.0, -188.50404357910156, -4.75341272354126, 80.9987564086914, -4.549588203430176, -0.06400000303983688, 0.01600000075995922, 1.055999994277954, 0.0, 0.0, 0.0, 0.0, 0.0, 1.6218630532949264E9, 2021-05-24 15:30:53.294
96.0, -270.1759948730469, -90.24378967285156, -5.950181007385254, -98.82498931884766, -0.06400000303983688, 0.01600000075995922, 1.055999994277954, 0.0, 0.0, 0.0, 0.0, 0.0, 1.6218630532949264E9, 2021-05-24 15:30:53.294
97.0, -52.24079132080078, 112.96741485595703, 225.93482971191406, 104.99955749511719, -0.06400000303983688, 0.01600000075995922, 1.055999994277954, 0.0, 0.0, 0.0, 0.0, 0.0, 1.6218630533099337E9, 2021-05-24 15:30:53.309
97.0, -82.5564193725586, 92.06511688232422, 199.65829467773438, 81.569091796875, -0.06400000303983688, 0.01600000075995922, 1.055999994277954, 0.0, 0.0, 0.0, 0.0, 0.0, 1.6218630533099337E9, 2021-05-24 15:30:53.309
98.0, -192.7076873779297, -7.704194068908691, 90.14654541015625, -16.95109748840332, -0.06400000303983688, 0.01600000075995922, 1.055999994277954, 0.0, 0.0, 0.0, 0.0, 0.0, 1.6218630533256156E9, 2021-05-24 15:30:53.325
98.0, -273.60174560546875, -90.78981018066406, 0.9200153946876526, -89.42662048339844, -0.06400000303983688, 0.01600000075995922, 1.055999994277954, 0.0, 0.0, 0.0, 0.0, 0.0, 1.6218630533256156E9, 2021-05-24 15:30:53.325
99.0, -56.620216369628906, 108.73384857177734, 231.8064727783203, 103.74295806884766, -0.06400000303983688, 0.01600000075995922, 1.055999994277954, 0.0, 0.0, 0.0, 0.0, 0.0, 1.6218630533262923E9, 2021-05-24 15:30:53.326
99.0, -88.35326385498047, 93.13846588134766, 195.944580078125, 91.1058349609375, -0.06400000303983688, 0.01600000075995922, 1.055999994277954, 0.0, 0.0, 0.0, 0.0, 0.0, 1.6218630533262923E9, 2021-05-24 15:30:53.326
100.0, -190.26553344726562, -5.505132675170898, 87.77919006347656, -5.06943416595459, -0.06400000303983688, 0.01600000075995922, 1.055999994277954, 0.0, 0.0, 0.0, 0.0, 0.0, 1.621863053340666E9, 2021-05-24 15:30:53.340
100.0, -276.1186828613281, -95.5133056640625, -5.437814712524414, -99.034423828125, -0.06400000303983688, 0.01600000075995922, 1.055999994277954, 0.0, 0.0, 0.0, 0.0, 0.0, 1.621863053340666E9, 2021-05-24 15:30:53.340
0.0, -55.99378204345703, 111.32186126708984, 222.3482666015625, 100.89315032958984, -0.06400000303983688, 0.01600000075995922, 1.055999994277954, 0.0, 0.0, 0.0, 0.0, 0.0, 1.6218630533413413E9, 2021-05-24 15:30:53.341
1.0, -81.7803955078125, 100.7491683959961, 195.34619140625, 83.51009368896484, -0.06400000303983688, 0.01600000075995922, 1.055999994277954, 0.0, 0.0, 0.0, 0.0, 0.0, 1.621863053354892E9, 2021-05-24 15:30:53.354
1.0, -189.48202514648438, -3.0667178630828857, 82.99211883544922, -5.798715114593506, -0.06400000303983688, 0.01600000075995922, 1.055999994277954, 0.0, 0.0, 0.0, 0.0, 0.0, 1.621863053354892E9, 2021-05-24 15:30:53.354
2.0, -273.6447448730469, -92.07633972167969, -5.463994026184082, -94.5988998413086, -0.06400000303983688, 0.01600000075995922, 1.055999994277954, 0.0, 0.0, 0.0, 0.0, 0.0, 1.6218630533705928E9, 2021-05-24 15:30:53.370
2.0, -55.631011962890625, 109.968017578125, 224.1322021484375, 98.93717956542969, -0.06400000303983688, 0.01600000075995922, 1.055999994277954, 0.0, 0.0, 0.0, 0.0, 0.0, 1.6218630533705928E9, 2021-05-24 15:30:53.370
3.0, -90.98054504394531, 95.36370849609375, 196.00067138671875, 89.83052825927734, -0.06400000303983688, 0.01600000075995922, 1.055999994277954, 0.0, 0.0, 0.0, 0.0, 0.0, 1.6218630533713279E9, 2021-05-24 15:30:53.371
3.0, -198.73080444335938, -3.833397388458252, 80.17223358154297, -10.088379859924316, -0.06400000303983688, 0.01600000075995922, 1.055999994277954, 0.0, 0.0, 0.0, 0.0, 0.0, 1.6218630533713279E9, 2021-05-24 15:30:53.371
4.0, -272.2946472167969, -89.40230560302734, -5.2657790184021, -91.23673248291016, -0.06400000303983688, 0.01600000075995922, 1.055999994277954, 0.0, 0.0, 0.0, 0.0, 0.0, 1.6218630533849447E9, 2021-05-24 15:30:53.384
4.0, -58.110565185546875, 103.6064453125, 223.7544708251953, 105.67274475097656, -0.06400000303983688, 0.01600000075995922, 1.055999994277954, 0.0, 0.0, 0.0, 0.0, 0.0, 1.6218630533849447E9, 2021-05-24 15:30:53.384
5.0, -84.35718536376953, 91.95291900634766, 187.62704467773438, 87.53797149658203, -0.06400000303983688, 0.01600000075995922, 1.055999994277954, 0.0, 0.0, 0.0, 0.0, 0.0, 1.6218630534005952E9, 2021-05-24 15:30:53.400
5.0, -193.58470153808594, -8.702747344970703, 70.81500244140625, -6.082947254180908, -0.06400000303983688, 0.01600000075995922, 1.055999994277954, 0.0, 0.0, 0.0, 0.0, 0.0, 1.6218630534005952E9, 2021-05-24 15:30:53.400
6.0, -273.0164489746094, -95.52826690673828, -8.54941177368164, -92.47837829589844, -0.06400000303983688, 0.01600000075995922, 1.055999994277954, 0.0, 0.0, 0.0, 0.0, 0.0, 1.6218630534013183E9, 2021-05-24 15:30:53.401
6.0, -58.55187225341797, 108.1616439819336, 225.53466796875, 102.33675384521484, -0.06400000303983688, 0.01600000075995922, 1.055999994277954, 0.0, 0.0, 0.0, 0.0, 0.0, 1.6218630534013183E9, 2021-05-24 15:30:53.401
7.0, -82.88740539550781, 92.1212158203125, 190.63766479492188, 97.55342102050781, -0.06400000303983688, 0.01600000075995922, 1.055999994277954, 0.0, 0.0, 0.0, 0.0, 0.0, 1.6218630534149055E9, 2021-05-24 15:30:53.414
7.0, -190.95555114746094, -10.26976490020752, 80.21337127685547, -19.008041381835938, -0.06400000303983688, 0.01600000075995922, 1.055999994277954, 0.0, 0.0, 0.0, 0.0, 0.0, 1.6218630534149055E9, 2021-05-24 15:30:53.414
8.0, -271.0268249511719, -91.2984390258789, -5.018945693969727, -97.5908203125, -0.06400000303983688, 0.01600000075995922, 1.055999994277954, 0.0, 0.0, 0.0, 0.0, 0.0, 1.6218630534305787E9, 2021-05-24 15:30:53.430
8.0, -51.77891540527344, 107.761474609375, 222.95413208007812, 97.55342102050781, -0.06400000303983688, 0.01600000075995922, 1.055999994277954, 0.0, 0.0, 0.0, 0.0, 0.0, 1.6218630534305787E9, 2021-05-24 15:30:53.430
9.0, -84.30108642578125, 95.30387115478516, 192.12240600585938, 89.99134063720703, -0.06400000303983688, 0.01600000075995922, 1.055999994277954, 0.0, 0.0, 0.0, 0.0, 0.0, 1.621863053431318E9, 2021-05-24 15:30:53.431
9.0, -195.85482788085938, -7.247926235198975, 83.25017547607422, -0.817168116569519, -0.06400000303983688, 0.01600000075995922, 1.055999994277954, 0.0, 0.0, 0.0, 0.0, 0.0, 1.621863053431318E9, 2021-05-24 15:30:53.431
10.0, -267.04754638671875, -91.8818588256836, -10.299684524536133, -87.24251556396484, -0.06400000303983688, 0.01600000075995922, 1.055999994277954, 0.0, 0.0, 0.0, 0.0, 0.0, 1.6218630534449215E9, 2021-05-24 15:30:53.444
10.0, -58.41349792480469, 102.91456604003906, 220.32498168945312, 107.71846771240234, -0.06400000303983688, 0.01600000075995922, 1.055999994277954, 0.0, 0.0, 0.0, 0.0, 0.0, 1.6218630534449215E9, 2021-05-24 15:30:53.444
11.0, -86.11493682861328, 89.10311889648438, 193.07981872558594, 90.38777160644531, -0.06400000303983688, 0.01600000075995922, 1.055999994277954, 0.0, 0.0, 0.0, 0.0, 0.0, 1.6218630534606302E9, 2021-05-24 15:30:53.460
11.0, -194.31024169921875, -6.963693618774414, 76.91104125976562, 0.06544824689626694, -0.06400000303983688, 0.01600000075995922, 1.055999994277954, 0.0, 0.0, 0.0, 0.0, 0.0, 1.6218630534606302E9, 2021-05-24 15:30:53.460
12.0, -274.280517578125, -87.68943786621094, -6.675721645355225, -87.3921127319336, -0.06400000303983688, 0.01600000075995922, 1.055999994277954, 0.0, 0.0, 0.0, 0.0, 0.0, 1.6218630534613087E9, 2021-05-24 15:30:53.461
12.0, -59.4793701171875, 106.8564224243164, 225.44491577148438, 104.89110565185547, -0.06400000303983688, 0.01600000075995922, 1.055999994277954, 0.0, 0.0, 0.0, 0.0, 0.0, 1.6218630534613087E9, 2021-05-24 15:30:53.461
13.0, -85.44175720214844, 93.17586517333984, 194.00730895996094, 91.61445617675781, -0.06400000303983688, 0.01600000075995922, 1.055999994277954, 0.0, 0.0, 0.0, 0.0, 0.0, 1.621863053474901E9, 2021-05-24 15:30:53.474
13.0, -190.4431915283203, -4.600077152252197, 75.59459686279297, -10.578307151794434, -0.06400000303983688, 0.01600000075995922, 1.055999994277954, 0.0, 0.0, 0.0, 0.0, 0.0, 1.621863053474901E9, 2021-05-24 15:30:53.474
14.0, -273.6709289550781, -87.23316955566406, -6.316690921783447, -94.16506958007812, -0.06400000303983688, 0.01600000075995922, 1.055999994277954, 0.0, 0.0, 0.0, 0.0, 0.0, 1.621863053490602E9, 2021-05-24 15:30:53.490
14.0, -53.80594253540039, 113.6593017578125, 227.37843322753906, 98.858642578125, -0.06400000303983688, 0.01600000075995922, 1.055999994277954, 0.0, 0.0, 0.0, 0.0, 0.0, 1.621863053490602E9, 2021-05-24 15:30:53.490
15.0, -87.34910583496094, 90.18394470214844, 191.9167022705078, 83.10992431640625, -0.06400000303983688, 0.01600000075995922, 1.055999994277954, 0.0, 0.0, 0.0, 0.0, 0.0, 1.6218630534913049E9, 2021-05-24 15:30:53.491
15.0, -193.37152099609375, -10.726033210754395, 84.6750717163086, -20.754575729370117, -0.06400000303983688, 0.01600000075995922, 1.055999994277954, 0.0, 0.0, 0.0, 0.0, 0.0, 1.6218630534913049E9, 2021-05-24 15:30:53.491
16.0, -272.7022705078125, -98.20977020263672, -6.881415843963623, -100.00679779052734, -0.06400000303983688, 0.01600000075995922, 1.055999994277954, 0.0, 0.0, 0.0, 0.0, 0.0, 1.6218630535049024E9, 2021-05-24 15:30:53.504
16.0, -57.059654235839844, 102.79489135742188, 222.17250061035156, 100.54534149169922, -0.06400000303983688, 0.01600000075995922, 1.055999994277954, 0.0, 0.0, 0.0, 0.0, 0.0, 1.6218630535049024E9, 2021-05-24 15:30:53.504
17.0, -87.37902069091797, 95.44224548339844, 190.263671875, 84.56475067138672, -0.06400000303983688, 0.01600000075995922, 1.055999994277954, 0.0, 0.0, 0.0, 0.0, 0.0, 1.6218630535206134E9, 2021-05-24 15:30:53.520
17.0, -192.1149139404297, -6.915074825286865, 81.9225082397461, -8.338107109069824, -0.06400000303983688, 0.01600000075995922, 1.055999994277954, 0.0, 0.0, 0.0, 0.0, 0.0, 1.6218630535206134E9, 2021-05-24 15:30:53.520
18.0, -267.1859436035156, -100.64444732666016, -6.986133098602295, -97.70301818847656, -0.06400000303983688, 0.01600000075995922, 1.055999994277954, 0.0, 0.0, 0.0, 0.0, 0.0, 1.621863053521308E9, 2021-05-24 15:30:53.521
18.0, -51.94721221923828, 99.0699462890625, 224.34164428710938, 96.66332244873047, -0.06400000303983688, 0.01600000075995922, 1.055999994277954, 0.0, 0.0, 0.0, 0.0, 0.0, 1.621863053521308E9, 2021-05-24 15:30:53.521
19.0, -81.24559020996094, 87.3453598022461, 191.07896423339844, 93.46945190429688, -0.06400000303983688, 0.01600000075995922, 1.055999994277954, 0.0, 0.0, 0.0, 0.0, 0.0, 1.6218630535349615E9, 2021-05-24 15:30:53.534
19.0, -192.27947998046875, -7.77899169921875, 77.09803771972656, -10.021061897277832, -0.06400000303983688, 0.01600000075995922, 1.055999994277954, 0.0, 0.0, 0.0, 0.0, 0.0, 1.6218630535349615E9, 2021-05-24 15:30:53.534
20.0, -275.0621643066406, -103.67002868652344, -10.40066146850586, -95.3655776977539, -0.06400000303983688, 0.01600000075995922, 1.055999994277954, 0.0, 0.0, 0.0, 0.0, 0.0, 1.6218630535505784E9, 2021-05-24 15:30:53.550
20.0, -57.01103591918945, 104.6461410522461, 220.11181640625, 104.99955749511719, -0.06400000303983688, 0.01600000075995922, 1.055999994277954, 0.0, 0.0, 0.0, 0.0, 0.0, 1.6218630535505784E9, 2021-05-24 15:30:53.550
21.0, -88.21302032470703, 87.34910583496094, 185.2222900390625, 81.29607391357422, -0.06400000303983688, 0.01600000075995922, 1.055999994277954, 0.0, 0.0, 0.0, 0.0, 0.0, 1.621863053551381E9, 2021-05-24 15:30:53.551
21.0, -198.18478393554688, -11.784424781799316, 75.87509155273438, -13.67868423461914, -0.06400000303983688, 0.01600000075995922, 1.055999994277954, 0.0, 0.0, 0.0, 0.0, 0.0, 1.621863053551381E9, 2021-05-24 15:30:53.551
22.0, -275.2790832519531, -94.97101593017578, -16.388240814208984, -93.36846923828125, -0.06400000303983688, 0.01600000075995922, 1.055999994277954, 0.0, 0.0, 0.0, 0.0, 0.0, 1.6218630535649636E9, 2021-05-24 15:30:53.564
22.0, -58.260162353515625, 105.0687484741211, 217.20216369628906, 102.26569366455078, -0.06400000303983688, 0.01600000075995922, 1.055999994277954, 0.0, 0.0, 0.0, 0.0, 0.0, 1.6218630535649636E9, 2021-05-24 15:30:53.564
23.0, -91.17127990722656, 88.43367767333984, 181.1495361328125, 84.00749969482422, -0.06400000303983688, 0.01600000075995922, 1.055999994277954, 0.0, 0.0, 0.0, 0.0, 0.0, 1.6218630535805848E9, 2021-05-24 15:30:53.580
23.0, -196.5279998779297, -10.97286605834961, 72.408203125, -14.363085746765137, -0.06400000303983688, 0.01600000075995922, 1.055999994277954, 0.0, 0.0, 0.0, 0.0, 0.0, 1.6218630535805848E9, 2021-05-24 15:30:53.580
24.0, -271.3708801269531, -95.98453521728516, -4.529018878936768, -94.3034439086914, -0.06400000303983688, 0.01600000075995922, 1.055999994277954, 0.0, 0.0, 0.0, 0.0, 0.0, 1.6218630535813148E9, 2021-05-24 15:30:53.581
24.0, -54.146270751953125, 105.29688262939453, 224.8914031982422, 106.91065216064453, -0.06400000303983688, 0.01600000075995922, 1.055999994277954, 0.0, 0.0, 0.0, 0.0, 0.0, 1.6218630535813148E9, 2021-05-24 15:30:53.581
25.0, -88.59449005126953, 95.2739486694336, 197.65745544433594, 92.83740997314453, -0.06400000303983688, 0.01600000075995922, 1.055999994277954, 0.0, 0.0, 0.0, 0.0, 0.0, 1.6218630535950074E9, 2021-05-24 15:30:53.595
25.0, -186.2470245361328, -8.60925006866455, 88.81888580322266, -15.41773796081543, -0.06400000303983688, 0.01600000075995922, 1.055999994277954, 0.0, 0.0, 0.0, 0.0, 0.0, 1.6218630535950074E9, 2021-05-24 15:30:53.595
26.0, -270.3087463378906, -99.0101089477539, -7.577037334442139, -84.0635986328125, -0.06400000303983688, 0.01600000075995922, 1.055999994277954, 0.0, 0.0, 0.0, 0.0, 0.0, 1.6218630536105976E9, 2021-05-24 15:30:53.610
26.0, -59.17643737792969, 106.10469818115234, 225.59449768066406, 102.75936126708984, -0.06400000303983688, 0.01600000075995922, 1.055999994277954, 0.0, 0.0, 0.0, 0.0, 0.0, 1.6218630536105976E9, 2021-05-24 15:30:53.610
27.0, -86.53006744384766, 93.67701721191406, 194.01104736328125, 92.12682342529297, -0.06400000303983688, 0.01600000075995922, 1.055999994277954, 0.0, 0.0, 0.0, 0.0, 0.0, 1.6218630536112735E9, 2021-05-24 15:30:53.611
27.0, -195.52197265625, -11.245879173278809, 78.80717468261719, -11.842392921447754, -0.06400000303983688, 0.01600000075995922, 1.055999994277954, 0.0, 0.0, 0.0, 0.0, 0.0, 1.6218630536112735E9, 2021-05-24 15:30:53.611
28.0, -271.33721923828125, -95.33753204345703, -4.1438093185424805, -102.35171508789062, -0.06400000303983688, 0.01600000075995922, 1.055999994277954, 0.0, 0.0, 0.0, 0.0, 0.0, 1.6218630536249435E9, 2021-05-24 15:30:53.624
28.0, -61.405418395996094, 103.09408569335938, 214.19529724121094, 99.96565246582031, -0.06400000303983688, 0.01600000075995922, 1.055999994277954, 0.0, 0.0, 0.0, 0.0, 0.0, 1.6218630536249435E9, 2021-05-24 15:30:53.624
29.0, -84.79849243164062, 94.09962463378906, 191.77084350585938, 89.32563781738281, -0.06400000303983688, 0.01600000075995922, 1.055999994277954, 0.0, 0.0, 0.0, 0.0, 0.0, 1.6218630536410844E9, 2021-05-24 15:30:53.641
29.0, -193.33412170410156, -13.272905349731445, 80.25077056884766, -13.379491806030273, -0.06400000303983688, 0.01600000075995922, 1.055999994277954, 0.0, 0.0, 0.0, 0.0, 0.0, 1.6218630536410844E9, 2021-05-24 15:30:53.641
30.0, -272.2834167480469, -96.22388458251953, -9.798538208007812, -92.91220092773438, -0.06400000303983688, 0.01600000075995922, 1.055999994277954, 0.0, 0.0, 0.0, 0.0, 0.0, 1.621863053655719E9, 2021-05-24 15:30:53.655
30.0, -56.12093734741211, 105.6671371459961, 221.83590698242188, 103.10343170166016, -0.06400000303983688, 0.01600000075995922, 1.055999994277954, 0.0, 0.0, 0.0, 0.0, 0.0, 1.621863053655719E9, 2021-05-24 15:30:53.655
31.0, -90.88704681396484, 95.33378601074219, 191.9952392578125, 88.52156066894531, -0.06400000303983688, 0.01600000075995922, 1.055999994277954, 0.0, 0.0, 0.0, 0.0, 0.0, 1.6218630536564832E9, 2021-05-24 15:30:53.656
31.0, -196.21385192871094, -6.499946117401123, 76.17053985595703, -13.330873489379883, -0.06400000303983688, 0.01600000075995922, 1.055999994277954, 0.0, 0.0, 0.0, 0.0, 0.0, 1.6218630536564832E9, 2021-05-24 15:30:53.656
32.0, -276.157958984375, -88.83384704589844, -12.74557876586914, -96.13600158691406, -0.06400000303983688, 0.01600000075995922, 1.055999994277954, 0.0, 0.0, 0.0, 0.0, 0.0, 1.6218630536706605E9, 2021-05-24 15:30:53.670
32.0, -60.72849655151367, 104.97898864746094, 222.4417724609375, 99.37474822998047, -0.06400000303983688, 0.01600000075995922, 1.055999994277954, 0.0, 0.0, 0.0, 0.0, 0.0, 1.6218630536706605E9, 2021-05-24 15:30:53.670
33.0, -90.28118133544922, 90.05679321289062, 192.78436279296875, 78.94741821289062, -0.06400000303983688, 0.01600000075995922, 1.055999994277954, 0.0, 0.0, 0.0, 0.0, 0.0, 1.6218630536713924E9, 2021-05-24 15:30:53.671
33.0, -188.84251403808594, -4.233566761016846, 86.9451904296875, -7.6649250984191895, -0.06400000303983688, 0.01600000075995922, 1.055999994277954, 0.0, 0.0, 0.0, 0.0, 0.0, 1.6218630536713924E9, 2021-05-24 15:30:53.671
34.0, -275.6717529296875, -98.86799621582031, -6.462547302246094, -103.11090850830078, -0.06400000303983688, 0.01600000075995922, 1.055999994277954, 0.0, 0.0, 0.0, 0.0, 0.0, 1.6218630536849437E9, 2021-05-24 15:30:53.684
34.0, -55.32807922363281, 101.00347900390625, 218.9150390625, 109.95118713378906, -0.06400000303983688, 0.01600000075995922, 1.055999994277954, 0.0, 0.0, 0.0, 0.0, 0.0, 1.6218630536849437E9, 2021-05-24 15:30:53.684
35.0, -82.10576629638672, 89.56312561035156, 188.0608673095703, 93.64522552490234, -0.06400000303983688, 0.01600000075995922, 1.055999994277954, 0.0, 0.0, 0.0, 0.0, 0.0, 1.6218630537008233E9, 2021-05-24 15:30:53.700
35.0, -188.7789306640625, -8.04078483581543, 84.90695190429688, -4.744062900543213, -0.06400000303983688, 0.01600000075995922, 1.055999994277954, 0.0, 0.0, 0.0, 0.0, 0.0, 1.6218630537008233E9, 2021-05-24 15:30:53.700
36.0, -271.6027526855469, -91.68738555908203, -13.355182647705078, -95.44037628173828, -0.06400000303983688, 0.01600000075995922, 1.055999994277954, 0.0, 0.0, 0.0, 0.0, 0.0, 1.6218630537016077E9, 2021-05-24 15:30:53.701
36.0, -55.7581672668457, 105.2482681274414, 218.05860900878906, 108.84417724609375, -0.06400000303983688, 0.01600000075995922, 1.055999994277954, 0.0, 0.0, 0.0, 0.0, 0.0, 1.6218630537016077E9, 2021-05-24 15:30:53.701
37.0, -91.8033218383789, 97.92928314208984, 188.4759979248047, 88.3944091796875, -0.06400000303983688, 0.01600000075995922, 1.055999994277954, 0.0, 0.0, 0.0, 0.0, 0.0, 1.6218630537149136E9, 2021-05-24 15:30:53.714
37.0, -200.58953857421875, -2.5393919944763184, 79.48783111572266, -11.116852760314941, -0.06400000303983688, 0.01600000075995922, 1.055999994277954, 0.0, 0.0, 0.0, 0.0, 0.0, 1.6218630537149136E9, 2021-05-24 15:30:53.714
38.0, -274.467529296875, -89.76133728027344, -9.963093757629395, -84.6844253540039, -0.06400000303983688, 0.01600000075995922, 1.055999994277954, 0.0, 0.0, 0.0, 0.0, 0.0, 1.62186305374696E9, 2021-05-24 15:30:53.746
38.0, -50.68312454223633, 110.41680908203125, 216.2410125732422, 96.3865737915039, -0.06400000303983688, 0.01600000075995922, 1.055999994277954, 0.0, 0.0, 0.0, 0.0, 0.0, 1.62186305374696E9, 2021-05-24 15:30:53.746
39.0, -90.2774429321289, 91.73974609375, 185.37936401367188, 95.20476531982422, -0.06400000303983688, 0.01600000075995922, 1.055999994277954, 0.0, 0.0, 0.0, 0.0, 0.0, 1.6218630537476776E9, 2021-05-24 15:30:53.747
39.0, -196.39337158203125, -6.608403205871582, 79.91792297363281, -12.141585350036621, -0.06400000303983688, 0.01600000075995922, 1.055999994277954, 0.0, 0.0, 0.0, 0.0, 0.0, 1.6218630537476776E9, 2021-05-24 15:30:53.747
40.0, -271.6027526855469, -93.49749755859375, -11.141161918640137, -96.8877182006836, -0.06400000303983688, 0.01600000075995922, 1.055999994277954, 0.0, 0.0, 0.0, 0.0, 0.0, 1.6218630537484655E9, 2021-05-24 15:30:53.748
40.0, -64.7601089477539, 102.83976745605469, 217.8192596435547, 97.25422668457031, -0.06400000303983688, 0.01600000075995922, 1.055999994277954, 0.0, 0.0, 0.0, 0.0, 0.0, 1.6218630537484655E9, 2021-05-24 15:30:53.748
41.0, -88.4486312866211, 98.18733215332031, 193.93251037597656, 92.09317016601562, -0.06400000303983688, 0.01600000075995922, 1.055999994277954, 0.0, 0.0, 0.0, 0.0, 0.0, 1.621863053749196E9, 2021-05-24 15:30:53.749
41.0, -198.50267028808594, 2.4571142196655273, 77.05690002441406, -16.027341842651367, -0.06400000303983688, 0.01600000075995922, 1.055999994277954, 0.0, 0.0, 0.0, 0.0, 0.0, 1.621863053749196E9, 2021-05-24 15:30:53.749
42.0, -282.8448791503906, -96.90828704833984, -11.604909896850586, -99.27003479003906, -0.06400000303983688, 0.01600000075995922, 1.055999994277954, 0.0, 0.0, 0.0, 0.0, 0.0, 1.621863053760054E9, 2021-05-24 15:30:53.760
42.0, -61.66720962524414, 105.0276107788086, 224.17333984375, 101.25218200683594, -0.06400000303983688, 0.01600000075995922, 1.055999994277954, 0.0, 0.0, 0.0, 0.0, 0.0, 1.621863053760054E9, 2021-05-24 15:30:53.760
43.0, -90.71501159667969, 92.36431121826172, 188.9921112060547, 87.76984405517578, -0.06400000303983688, 0.01600000075995922, 1.055999994277954, 0.0, 0.0, 0.0, 0.0, 0.0, 1.6218630537749455E9, 2021-05-24 15:30:53.774
43.0, -196.7935333251953, -7.173128128051758, 73.2758560180664, -12.115406036376953, -0.06400000303983688, 0.01600000075995922, 1.055999994277954, 0.0, 0.0, 0.0, 0.0, 0.0, 1.6218630537749455E9, 2021-05-24 15:30:53.774
44.0, -272.9902648925781, -92.3605728149414, -2.688987970352173, -101.5064926147461, -0.06400000303983688, 0.01600000075995922, 1.055999994277954, 0.0, 0.0, 0.0, 0.0, 0.0, 1.6218630538234534E9, 2021-05-24 15:30:53.823
44.0, -52.65031051635742, 109.96054077148438, 230.24319458007812, 103.63823699951172, -0.06400000303983688, 0.01600000075995922, 1.055999994277954, 0.0, 0.0, 0.0, 0.0, 0.0, 1.6218630538234534E9, 2021-05-24 15:30:53.823
45.0, -79.08766174316406, 92.28577423095703, 193.34535217285156, 96.21827697753906, -0.06400000303983688, 0.01600000075995922, 1.055999994277954, 0.0, 0.0, 0.0, 0.0, 0.0, 1.621863053824207E9, 2021-05-24 15:30:53.824
45.0, -188.1917724609375, -9.783577919006348, 79.42425537109375, -12.579153060913086, -0.06400000303983688, 0.01600000075995922, 1.055999994277954, 0.0, 0.0, 0.0, 0.0, 0.0, 1.621863053824207E9, 2021-05-24 15:30:53.824
46.0, -270.1890869140625, -93.99490356445312, -5.422854900360107, -94.48670196533203, -0.06400000303983688, 0.01600000075995922, 1.055999994277954, 0.0, 0.0, 0.0, 0.0, 0.0, 1.6218630538248627E9, 2021-05-24 15:30:53.824
46.0, -51.65549850463867, 105.57363891601562, 228.68740844726562, 106.86203002929688, -0.06400000303983688, 0.01600000075995922, 1.055999994277954, 0.0, 0.0, 0.0, 0.0, 0.0, 1.6218630538248627E9, 2021-05-24 15:30:53.824
47.0, -81.69437408447266, 95.44224548339844, 197.0478515625, 94.54280090332031, -0.06400000303983688, 0.01600000075995922, 1.055999994277954, 0.0, 0.0, 0.0, 0.0, 0.0, 1.6218630538255534E9, 2021-05-24 15:30:53.825
47.0, -188.87991333007812, -3.313551425933838, 82.27031707763672, -16.23677635192871, -0.06400000303983688, 0.01600000075995922, 1.055999994277954, 0.0, 0.0, 0.0, 0.0, 0.0, 1.6218630538255534E9, 2021-05-24 15:30:53.825
48.0, -268.5210876464844, -88.19058227539062, -3.6501424312591553, -84.74800109863281, -0.06400000303983688, 0.01600000075995922, 1.055999994277954, 0.0, 0.0, 0.0, 0.0, 0.0, 1.6218630538356948E9, 2021-05-24 15:30:53.835
48.0, -56.94371795654297, 104.63117980957031, 219.337646484375, 103.77287292480469, -0.06400000303983688, 0.01600000075995922, 1.055999994277954, 0.0, 0.0, 0.0, 0.0, 0.0, 1.6218630538356948E9, 2021-05-24 15:30:53.835
49.0, -82.09080505371094, 93.17961120605469, 191.6923065185547, 91.27787017822266, -0.06400000303983688, 0.01600000075995922, 1.055999994277954, 0.0, 0.0, 0.0, 0.0, 0.0, 1.6218630538363955E9, 2021-05-24 15:30:53.836
49.0, -192.5150909423828, 0.08975759893655777, 84.04302978515625, -6.355959892272949, -0.06400000303983688, 0.01600000075995922, 1.055999994277954, 0.0, 0.0, 0.0, 0.0, 0.0, 1.6218630538363955E9, 2021-05-24 15:30:53.836
50.0, -276.90966796875, -89.07693481445312, -5.80058479309082, -94.1762924194336, -0.06400000303983688, 0.01600000075995922, 1.055999994277954, 0.0, 0.0, 0.0, 0.0, 0.0, 1.6218630538826537E9, 2021-05-24 15:30:53.882
50.0, -59.85709762573242, 113.92483520507812, 226.06199645996094, 97.1083755493164, -0.06400000303983688, 0.01600000075995922, 1.055999994277954, 0.0, 0.0, 0.0, 0.0, 0.0, 1.6218630538826537E9, 2021-05-24 15:30:53.882
51.0, -95.34127044677734, 100.22931671142578, 195.66409301757812, 84.33661651611328, -0.06400000303983688, 0.01600000075995922, 1.055999994277954, 0.0, 0.0, 0.0, 0.0, 0.0, 1.6218630538833752E9, 2021-05-24 15:30:53.883
51.0, -205.62718200683594, 3.3322508335113525, 85.36695861816406, -7.822000980377197, -0.06400000303983688, 0.01600000075995922, 1.055999994277954, 0.0, 0.0, 0.0, 0.0, 0.0, 1.6218630538833752E9, 2021-05-24 15:30:53.883
52.0, -285.2945251464844, -88.08586120605469, -9.491866111755371, -90.55233001708984, -0.06400000303983688, 0.01600000075995922, 1.055999994277954, 0.0, 0.0, 0.0, 0.0, 0.0, 1.62186305388414E9, 2021-05-24 15:30:53.884
52.0, -68.04000091552734, 111.9576416015625, 223.94520568847656, 105.61290740966797, -0.06400000303983688, 0.01600000075995922, 1.055999994277954, 0.0, 0.0, 0.0, 0.0, 0.0, 1.62186305388414E9, 2021-05-24 15:30:53.884
53.0, -85.10890197753906, 97.3196792602539, 194.8787078857422, 97.11959075927734, -0.06400000303983688, 0.01600000075995922, 1.055999994277954, 0.0, 0.0, 0.0, 0.0, 0.0, 1.621863053884856E9, 2021-05-24 15:30:53.884
53.0, -199.26187133789062, 0.9237552881240845, 83.43716430664062, -0.9256252646446228, -0.06400000303983688, 0.01600000075995922, 1.055999994277954, 0.0, 0.0, 0.0, 0.0, 0.0, 1.621863053884856E9, 2021-05-24 15:30:53.884
54.0, -278.5589599609375, -84.60027313232422, -7.0272722244262695, -88.2784652709961, -0.06400000303983688, 0.01600000075995922, 1.055999994277954, 0.0, 0.0, 0.0, 0.0, 0.0, 1.6218630538956106E9, 2021-05-24 15:30:53.895
54.0, -63.92237091064453, 112.69066619873047, 226.61923217773438, 98.4135971069336, -0.06400000303983688, 0.01600000075995922, 1.055999994277954, 0.0, 0.0, 0.0, 0.0, 0.0, 1.6218630538956106E9, 2021-05-24 15:30:53.895
55.0, -89.54068756103516, 99.85906982421875, 198.94398498535156, 95.2197265625, -0.06400000303983688, 0.01600000075995922, 1.055999994277954, 0.0, 0.0, 0.0, 0.0, 0.0, 1.6218630538963144E9, 2021-05-24 15:30:53.896
55.0, -197.9342041015625, 0.04861870035529137, 81.60087585449219, -13.843239784240723, -0.06400000303983688, 0.01600000075995922, 1.055999994277954, 0.0, 0.0, 0.0, 0.0, 0.0, 1.6218630538963144E9, 2021-05-24 15:30:53.896
56.0, -285.5413513183594, -91.66120910644531, -5.602370262145996, -98.40237426757812, -0.06400000303983688, 0.01600000075995922, 1.055999994277954, 0.0, 0.0, 0.0, 0.0, 0.0, 1.6218630539105978E9, 2021-05-24 15:30:53.910
56.0, -69.01237487792969, 110.76461791992188, 221.93313598632812, 104.16182708740234, -0.06400000303983688, 0.01600000075995922, 1.055999994277954, 0.0, 0.0, 0.0, 0.0, 0.0, 1.6218630539105978E9, 2021-05-24 15:30:53.910
57.0, -97.68618774414062, 103.25863647460938, 195.03952026367188, 90.64582824707031, -0.06400000303983688, 0.01600000075995922, 1.055999994277954, 0.0, 0.0, 0.0, 0.0, 0.0, 1.6218630539113228E9, 2021-05-24 15:30:53.911
57.0, -202.41835021972656, 5.826764106750488, 81.66445922851562, -7.4480109214782715, -0.06400000303983688, 0.01600000075995922, 1.055999994277954, 0.0, 0.0, 0.0, 0.0, 0.0, 1.6218630539113228E9, 2021-05-24 15:30:53.911
58.0, -285.70965576171875, -88.87872314453125, -10.703593254089355, -92.3138198852539, -0.06400000303983688, 0.01600000075995922, 1.055999994277954, 0.0, 0.0, 0.0, 0.0, 0.0, 1.6218630539249084E9, 2021-05-24 15:30:53.924
58.0, -71.43209075927734, 114.4820785522461, 218.34657287597656, 105.40721130371094, -0.06400000303983688, 0.01600000075995922, 1.055999994277954, 0.0, 0.0, 0.0, 0.0, 0.0, 1.6218630539249084E9, 2021-05-24 15:30:53.924
59.0, -96.50437927246094, 105.58111572265625, 193.00502014160156, 92.50081634521484, -0.06400000303983688, 0.01600000075995922, 1.055999994277954, 0.0, 0.0, 0.0, 0.0, 0.0, 1.62186305394061E9, 2021-05-24 15:30:53.940
59.0, -197.71728515625, 3.051758289337158, 86.65721893310547, -13.342093467712402, -0.06400000303983688, 0.01600000075995922, 1.055999994277954, 0.0, 0.0, 0.0, 0.0, 0.0, 1.62186305394061E9, 2021-05-24 15:30:53.940
60.0, -285.05517578125, -88.29155731201172, -12.480046272277832, -98.13684844970703, -0.06400000303983688, 0.01600000075995922, 1.055999994277954, 0.0, 0.0, 0.0, 0.0, 0.0, 1.621863053941291E9, 2021-05-24 15:30:53.941
60.0, -66.93672943115234, 110.00541687011719, 219.82757568359375, 100.75477600097656, -0.06400000303983688, 0.01600000075995922, 1.055999994277954, 0.0, 0.0, 0.0, 0.0, 0.0, 1.621863053941291E9, 2021-05-24 15:30:53.941
61.0, -95.64420318603516, 98.82685852050781, 196.5728759765625, 88.57018280029297, -0.06400000303983688, 0.01600000075995922, 1.055999994277954, 0.0, 0.0, 0.0, 0.0, 0.0, 1.6218630539549348E9, 2021-05-24 15:30:53.954
61.0, -198.55502319335938, -1.9933667182922363, 74.96629333496094, -5.566841125488281, -0.06400000303983688, 0.01600000075995922, 1.055999994277954, 0.0, 0.0, 0.0, 0.0, 0.0, 1.6218630539549348E9, 2021-05-24 15:30:53.954
62.0, -276.5618591308594, -92.1212158203125, -7.715413570404053, -92.45594024658203, -0.06400000303983688, 0.01600000075995922, 1.055999994277954, 0.0, 0.0, 0.0, 0.0, 0.0, 1.6218630539702973E9, 2021-05-24 15:30:53.970
62.0, -62.24315643310547, 103.75230407714844, 221.65264892578125, 111.18535614013672, -0.06400000303983688, 0.01600000075995922, 1.055999994277954, 0.0, 0.0, 0.0, 0.0, 0.0, 1.6218630539702973E9, 2021-05-24 15:30:53.970
63.0, -89.0918960571289, 99.4289779663086, 196.00816345214844, 90.78046417236328, -0.06400000303983688, 0.01600000075995922, 1.055999994277954, 0.0, 0.0, 0.0, 0.0, 0.0, 1.6218630539855692E9, 2021-05-24 15:30:53.985
63.0, -194.17935180664062, -4.8843092918396, 79.40181732177734, -4.5682878494262695, -0.06400000303983688, 0.01600000075995922, 1.055999994277954, 0.0, 0.0, 0.0, 0.0, 0.0, 1.6218630539855692E9, 2021-05-24 15:30:53.985
64.0, -277.519287109375, -94.0884017944336, -8.22029972076416, -91.28534698486328, -0.06400000303983688, 0.01600000075995922, 1.055999994277954, 0.0, 0.0, 0.0, 0.0, 0.0, 1.6218630539862986E9, 2021-05-24 15:30:53.986
64.0, -64.7376708984375, 105.30810546875, 217.0226593017578, 107.1874008178711, -0.06400000303983688, 0.01600000075995922, 1.055999994277954, 0.0, 0.0, 0.0, 0.0, 0.0, 1.6218630539862986E9, 2021-05-24 15:30:53.986
65.0, -94.87752532958984, 92.4391098022461, 183.2999725341797, 91.569580078125, -0.06400000303983688, 0.01600000075995922, 1.055999994277954, 0.0, 0.0, 0.0, 0.0, 0.0, 1.6218630540006237E9, 2021-05-24 15:30:54.000
65.0, -193.24810791015625, -5.052604675292969, 76.39119720458984, -0.761069655418396, -0.06400000303983688, 0.01600000075995922, 1.055999994277954, 0.0, 0.0, 0.0, 0.0, 0.0, 1.6218630540006237E9, 2021-05-24 15:30:54.000
66.0, -270.6939697265625, -97.25235748291016, -14.585609436035156, -91.87998962402344, -0.06400000303983688, 0.01600000075995922, 1.055999994277954, 0.0, 0.0, 0.0, 0.0, 0.0, 1.6218630540013409E9, 2021-05-24 15:30:54.001
66.0, -62.06364059448242, 103.29229736328125, 220.33621215820312, 99.23263549804688, -0.06400000303983688, 0.01600000075995922, 1.055999994277954, 0.0, 0.0, 0.0, 0.0, 0.0, 1.6218630540013409E9, 2021-05-24 15:30:54.001
67.0, -94.23426055908203, 92.30821228027344, 188.92852783203125, 84.65076446533203, -0.06400000303983688, 0.01600000075995922, 1.055999994277954, 0.0, 0.0, 0.0, 0.0, 0.0, 1.6218630540148787E9, 2021-05-24 15:30:54.014
67.0, -195.02830505371094, -3.0367987155914307, 77.50568389892578, -10.589527130126953, -0.06400000303983688, 0.01600000075995922, 1.055999994277954, 0.0, 0.0, 0.0, 0.0, 0.0, 1.6218630540148787E9, 2021-05-24 15:30:54.014
68.0, -273.1809997558594, -93.11228942871094, -9.570404052734375, -99.41963195800781, -0.06400000303983688, 0.01600000075995922, 1.055999994277954, 0.0, 0.0, 0.0, 0.0, 0.0, 1.6218630540306628E9, 2021-05-24 15:30:54.030
68.0, -54.105133056640625, 108.23270416259766, 218.82528686523438, 95.83306884765625, -0.06400000303983688, 0.01600000075995922, 1.055999994277954, 0.0, 0.0, 0.0, 0.0, 0.0, 1.6218630540306628E9, 2021-05-24 15:30:54.030
69.0, -84.35718536376953, 97.39447784423828, 194.0372314453125, 90.6832275390625, -0.06400000303983688, 0.01600000075995922, 1.055999994277954, 0.0, 0.0, 0.0, 0.0, 0.0, 1.6218630540313518E9, 2021-05-24 15:30:54.031
69.0, -194.4972381591797, -5.224640369415283, 74.82791900634766, -13.345832824707031, -0.06400000303983688, 0.01600000075995922, 1.055999994277954, 0.0, 0.0, 0.0, 0.0, 0.0, 1.6218630540313518E9, 2021-05-24 15:30:54.031
70.0, -279.52386474609375, -94.82142639160156, -15.636521339416504, -97.41878509521484, -0.06400000303983688, 0.01600000075995922, 1.055999994277954, 0.0, 0.0, 0.0, 0.0, 0.0, 1.621863054044878E9, 2021-05-24 15:30:54.044
70.0, -66.47672271728516, 108.25888061523438, 214.7637481689453, 100.45932006835938, -0.06400000303983688, 0.01600000075995922, 1.055999994277954, 0.0, 0.0, 0.0, 0.0, 0.0, 1.621863054044878E9, 2021-05-24 15:30:54.044
71.0, -91.18250274658203, 103.28107452392578, 190.46188354492188, 99.28873443603516, -0.06400000303983688, 0.01600000075995922, 1.055999994277954, 0.0, 0.0, 0.0, 0.0, 0.0, 1.6218630540774665E9, 2021-05-24 15:30:54.077
71.0, -203.9180450439453, 0.7928587794303894, 74.80548095703125, -7.111419677734375, -0.06400000303983688, 0.01600000075995922, 1.055999994277954, 0.0, 0.0, 0.0, 0.0, 0.0, 1.6218630540774665E9, 2021-05-24 15:30:54.077
72.0, -278.9853210449219, -88.07838439941406, -12.81663703918457, -91.29283142089844, -0.06400000303983688, 0.01600000075995922, 1.055999994277954, 0.0, 0.0, 0.0, 0.0, 0.0, 1.621863054078228E9, 2021-05-24 15:30:54.078
72.0, -63.832611083984375, 104.67980194091797, 213.7876434326172, 106.0654296875, -0.06400000303983688, 0.01600000075995922, 1.055999994277954, 0.0, 0.0, 0.0, 0.0, 0.0, 1.621863054078228E9, 2021-05-24 15:30:54.078
73.0, -91.24607849121094, 91.0403823852539, 186.85287475585938, 89.84922790527344, -0.06400000303983688, 0.01600000075995922, 1.055999994277954, 0.0, 0.0, 0.0, 0.0, 0.0, 1.6218630540789542E9, 2021-05-24 15:30:54.078
73.0, -204.66229248046875, -11.10376262664795, 74.15473937988281, -6.1465253829956055, -0.06400000303983688, 0.01600000075995922, 1.055999994277954, 0.0, 0.0, 0.0, 0.0, 0.0, 1.6218630540789542E9, 2021-05-24 15:30:54.078
74.0, -281.1394958496094, -101.96463012695312, -15.026918411254883, -93.51432800292969, -0.06400000303983688, 0.01600000075995922, 1.055999994277954, 0.0, 0.0, 0.0, 0.0, 0.0, 1.6218630540906093E9, 2021-05-24 15:30:54.090
74.0, -60.52654266357422, 103.9879150390625, 212.224365234375, 103.64571380615234, -0.06400000303983688, 0.01600000075995922, 1.055999994277954, 0.0, 0.0, 0.0, 0.0, 0.0, 1.6218630540906093E9, 2021-05-24 15:30:54.090
75.0, -88.62066650390625, 90.88330841064453, 191.71475219726562, 81.81217956542969, -0.06400000303983688, 0.01600000075995922, 1.055999994277954, 0.0, 0.0, 0.0, 0.0, 0.0, 1.621863054091355E9, 2021-05-24 15:30:54.091
75.0, -190.1439971923828, -12.319230079650879, 79.44669342041016, -9.792927742004395, -0.06400000303983688, 0.01600000075995922, 1.055999994277954, 0.0, 0.0, 0.0, 0.0, 0.0, 1.621863054091355E9, 2021-05-24 15:30:54.091
76.0, -268.57342529296875, -96.72877502441406, -6.249372959136963, -93.79108428955078, -0.06400000303983688, 0.01600000075995922, 1.055999994277954, 0.0, 0.0, 0.0, 0.0, 0.0, 1.6218630541049204E9, 2021-05-24 15:30:54.104
76.0, -54.049034118652344, 111.5125961303711, 231.18191528320312, 105.49322509765625, -0.06400000303983688, 0.01600000075995922, 1.055999994277954, 0.0, 0.0, 0.0, 0.0, 0.0, 1.6218630541049204E9, 2021-05-24 15:30:54.104
77.0, -85.40809631347656, 101.86365509033203, 196.50930786132812, 87.68756103515625, -0.06400000303983688, 0.01600000075995922, 1.055999994277954, 0.0, 0.0, 0.0, 0.0, 0.0, 1.6218630541206267E9, 2021-05-24 15:30:54.120
77.0, -196.8758087158203, -4.959107398986816, 83.41472625732422, -10.832620620727539, -0.06400000303983688, 0.01600000075995922, 1.055999994277954, 0.0, 0.0, 0.0, 0.0, 0.0, 1.6218630541206267E9, 2021-05-24 15:30:54.120
78.0, -279.3144226074219, -95.22533416748047, -11.41043472290039, -95.75827026367188, -0.06400000303983688, 0.01600000075995922, 1.055999994277954, 0.0, 0.0, 0.0, 0.0, 0.0, 1.6218630541213381E9, 2021-05-24 15:30:54.121
78.0, -59.13155746459961, 111.01519012451172, 224.0125274658203, 96.90641784667969, -0.06400000303983688, 0.01600000075995922, 1.055999994277954, 0.0, 0.0, 0.0, 0.0, 0.0, 1.6218630541213381E9, 2021-05-24 15:30:54.121
79.0, -96.60909271240234, 98.03773498535156, 195.7014923095703, 90.62712860107422, -0.06400000303983688, 0.01600000075995922, 1.055999994277954, 0.0, 0.0, 0.0, 0.0, 0.0, 1.6218630541349568E9, 2021-05-24 15:30:54.134
79.0, -200.8101806640625, -0.6769219040870667, 85.18370056152344, -14.235929489135742, -0.06400000303983688, 0.01600000075995922, 1.055999994277954, 0.0, 0.0, 0.0, 0.0, 0.0, 1.6218630541349568E9, 2021-05-24 15:30:54.134
80.0, -278.43182373046875, -85.93916320800781, -3.833397388458252, -89.9015884399414, -0.06400000303983688, 0.01600000075995922, 1.055999994277954, 0.0, 0.0, 0.0, 0.0, 0.0, 1.6218630541506734E9, 2021-05-24 15:30:54.150
80.0, -63.95602798461914, 109.54541015625, 225.4374237060547, 103.66815948486328, -0.06400000303983688, 0.01600000075995922, 1.055999994277954, 0.0, 0.0, 0.0, 0.0, 0.0, 1.6218630541506734E9, 2021-05-24 15:30:54.150
81.0, -95.8349380493164, 100.62200927734375, 194.33642578125, 88.46172332763672, -0.06400000303983688, 0.01600000075995922, 1.055999994277954, 0.0, 0.0, 0.0, 0.0, 0.0, 1.6218630541513495E9, 2021-05-24 15:30:54.151
81.0, -205.39157104492188, -1.6754751205444336, 86.71331787109375, -6.606533050537109, -0.06400000303983688, 0.01600000075995922, 1.055999994277954, 0.0, 0.0, 0.0, 0.0, 0.0, 1.6218630541513495E9, 2021-05-24 15:30:54.151
82.0, -282.4447326660156, -90.2774429321289, -0.47122740745544434, -88.31212615966797, -0.06400000303983688, 0.01600000075995922, 1.055999994277954, 0.0, 0.0, 0.0, 0.0, 0.0, 1.6218630541649528E9, 2021-05-24 15:30:54.164
82.0, -67.4303970336914, 104.48158264160156, 221.9705352783203, 107.1051254272461, -0.06400000303983688, 0.01600000075995922, 1.055999994277954, 0.0, 0.0, 0.0, 0.0, 0.0, 1.6218630541649528E9, 2021-05-24 15:30:54.164
83.0, -93.89392852783203, 99.32426452636719, 195.17042541503906, 95.69843292236328, -0.06400000303983688, 0.01600000075995922, 1.055999994277954, 0.0, 0.0, 0.0, 0.0, 0.0, 1.6218630541805785E9, 2021-05-24 15:30:54.180
83.0, -200.2604217529297, -2.2775990962982178, 85.06402587890625, -0.6451327204704285, -0.06400000303983688, 0.01600000075995922, 1.055999994277954, 0.0, 0.0, 0.0, 0.0, 0.0, 1.6218630541805785E9, 2021-05-24 15:30:54.180
84.0, -280.0025634765625, -93.33294677734375, -5.766925811767578, -91.86503601074219, -0.06400000303983688, 0.01600000075995922, 1.055999994277954, 0.0, 0.0, 0.0, 0.0, 0.0, 1.6218630541813023E9, 2021-05-24 15:30:54.181
84.0, -61.54005432128906, 102.23390197753906, 218.17454528808594, 96.4651107788086, -0.06400000303983688, 0.01600000075995922, 1.055999994277954, 0.0, 0.0, 0.0, 0.0, 0.0, 1.6218630541813023E9, 2021-05-24 15:30:54.181
85.0, -83.78124237060547, 95.05329895019531, 192.94891357421875, 91.41624450683594, -0.06400000303983688, 0.01600000075995922, 1.055999994277954, 0.0, 0.0, 0.0, 0.0, 0.0, 1.621863054194929E9, 2021-05-24 15:30:54.194
85.0, -193.2780303955078, -1.8961292505264282, 82.3039779663086, -10.12951946258545, -0.06400000303983688, 0.01600000075995922, 1.055999994277954, 0.0, 0.0, 0.0, 0.0, 0.0, 1.621863054194929E9, 2021-05-24 15:30:54.194
86.0, -276.5693359375, -89.35369110107422, -4.521539211273193, -106.00933074951172, -0.06400000303983688, 0.01600000075995922, 1.055999994277954, 0.0, 0.0, 0.0, 0.0, 0.0, 1.621863054210575E9, 2021-05-24 15:30:54.210
86.0, -64.45343780517578, 108.95076751708984, 221.8583526611328, 86.15046691894531, -0.06400000303983688, 0.01600000075995922, 1.055999994277954, 0.0, 0.0, 0.0, 0.0, 0.0, 1.621863054210575E9, 2021-05-24 15:30:54.210
87.0, -88.68424987792969, 100.54347229003906, 189.09307861328125, 82.97528839111328, -0.06400000303983688, 0.01600000075995922, 1.055999994277954, 0.0, 0.0, 0.0, 0.0, 0.0, 1.621863054211285E9, 2021-05-24 15:30:54.211
87.0, -197.58265686035156, -3.6239631175994873, 79.66361236572266, -12.736228942871094, -0.06400000303983688, 0.01600000075995922, 1.055999994277954, 0.0, 0.0, 0.0, 0.0, 0.0, 1.621863054211285E9, 2021-05-24 15:30:54.211
88.0, -282.2689514160156, -89.77629852294922, -9.544224739074707, -99.77117919921875, -0.06400000303983688, 0.01600000075995922, 1.055999994277954, 0.0, 0.0, 0.0, 0.0, 0.0, 1.6218630542249787E9, 2021-05-24 15:30:54.224
88.0, -62.695682525634766, 106.24308013916016, 222.12762451171875, 98.12562561035156, -0.06400000303983688, 0.01600000075995922, 1.055999994277954, 0.0, 0.0, 0.0, 0.0, 0.0, 1.6218630542249787E9, 2021-05-24 15:30:54.224
89.0, -96.3360824584961, 98.37059020996094, 191.3632049560547, 89.15360260009766, -0.06400000303983688, 0.01600000075995922, 1.055999994277954, 0.0, 0.0, 0.0, 0.0, 0.0, 1.6218630542405713E9, 2021-05-24 15:30:54.240
89.0, -202.0032196044922, -3.616483211517334, 80.31060791015625, -9.766748428344727, -0.06400000303983688, 0.01600000075995922, 1.055999994277954, 0.0, 0.0, 0.0, 0.0, 0.0, 1.6218630542405713E9, 2021-05-24 15:30:54.240
90.0, -277.41082763671875, -92.81309509277344, -5.598630428314209, -90.57850646972656, -0.06400000303983688, 0.01600000075995922, 1.055999994277954, 0.0, 0.0, 0.0, 0.0, 0.0, 1.6218630542412784E9, 2021-05-24 15:30:54.241
90.0, -64.42725372314453, 108.1205062866211, 223.26828002929688, 101.58502960205078, -0.06400000303983688, 0.01600000075995922, 1.055999994277954, 0.0, 0.0, 0.0, 0.0, 0.0, 1.6218630542412784E9, 2021-05-24 15:30:54.241
91.0, -98.6286392211914, 98.00033569335938, 199.54983520507812, 84.22815704345703, -0.06400000303983688, 0.01600000075995922, 1.055999994277954, 0.0, 0.0, 0.0, 0.0, 0.0, 1.6218630542713125E9, 2021-05-24 15:30:54.271
91.0, -199.9761962890625, 5.7519659996032715, 80.35175323486328, -13.218676567077637, -0.06400000303983688, 0.01600000075995922, 1.055999994277954, 0.0, 0.0, 0.0, 0.0, 0.0, 1.6218630542713125E9, 2021-05-24 15:30:54.271
92.0, -279.45654296875, -88.37383270263672, -9.622762680053711, -99.6028823852539, -0.06400000303983688, 0.01600000075995922, 1.055999994277954, 0.0, 0.0, 0.0, 0.0, 0.0, 1.6218630542720048E9, 2021-05-24 15:30:54.272
92.0, -67.2508773803711, 116.32210540771484, 221.5965576171875, 100.6837158203125, -0.06400000303983688, 0.01600000075995922, 1.055999994277954, 0.0, 0.0, 0.0, 0.0, 0.0, 1.6218630542720048E9, 2021-05-24 15:30:54.272
93.0, -95.44598388671875, 99.62345123291016, 190.88075256347656, 87.94187927246094, -0.06400000303983688, 0.01600000075995922, 1.055999994277954, 0.0, 0.0, 0.0, 0.0, 0.0, 1.621863054272766E9, 2021-05-24 15:30:54.272
93.0, -205.08116149902344, -0.13837629556655884, 76.40989685058594, -12.934444427490234, -0.06400000303983688, 0.01600000075995922, 1.055999994277954, 0.0, 0.0, 0.0, 0.0, 0.0, 1.621863054272766E9, 2021-05-24 15:30:54.272
94.0, -286.7867431640625, -89.63792419433594, -13.714213371276855, -94.34458923339844, -0.06400000303983688, 0.01600000075995922, 1.055999994277954, 0.0, 0.0, 0.0, 0.0, 0.0, 1.621863054285001E9, 2021-05-24 15:30:54.285
94.0, -65.99053192138672, 112.39895629882812, 222.51657104492188, 102.96131896972656, -0.06400000303983688, 0.01600000075995922, 1.055999994277954, 0.0, 0.0, 0.0, 0.0, 0.0, 1.621863054285001E9, 2021-05-24 15:30:54.285
95.0, -94.26417541503906, 100.4088363647461, 190.70872497558594, 86.311279296875, -0.06400000303983688, 0.01600000075995922, 1.055999994277954, 0.0, 0.0, 0.0, 0.0, 0.0, 1.62186305430063E9, 2021-05-24 15:30:54.300
95.0, -197.36573791503906, -2.8236243724823, 86.21965026855469, -6.95060396194458, -0.06400000303983688, 0.01600000075995922, 1.055999994277954, 0.0, 0.0, 0.0, 0.0, 0.0, 1.62186305430063E9, 2021-05-24 15:30:54.300
96.0, -277.82220458984375, -93.55359649658203, -11.204740524291992, -94.28849029541016, -0.06400000303983688, 0.01600000075995922, 1.055999994277954, 0.0, 0.0, 0.0, 0.0, 0.0, 1.6218630543013477E9, 2021-05-24 15:30:54.301
96.0, -60.48166275024414, 109.72492218017578, 221.69004821777344, 101.82438659667969, -0.06400000303983688, 0.01600000075995922, 1.055999994277954, 0.0, 0.0, 0.0, 0.0, 0.0, 1.6218630543013477E9, 2021-05-24 15:30:54.301
97.0, -90.72997283935547, 96.07054901123047, 191.8344268798828, 89.65475463867188, -0.06400000303983688, 0.01600000075995922, 1.055999994277954, 0.0, 0.0, 0.0, 0.0, 0.0, 1.6218630543148975E9, 2021-05-24 15:30:54.314
97.0, -195.93710327148438, -0.7928587794303894, 78.7286376953125, -18.559253692626953, -0.06400000303983688, 0.01600000075995922, 1.055999994277954, 0.0, 0.0, 0.0, 0.0, 0.0, 1.6218630543148975E9, 2021-05-24 15:30:54.314
98.0, -275.6755065917969, -93.08985137939453, -17.252159118652344, -99.198974609375, -0.06400000303983688, 0.01600000075995922, 1.055999994277954, 0.0, 0.0, 0.0, 0.0, 0.0, 1.6218630543306677E9, 2021-05-24 15:30:54.330
98.0, -60.36198425292969, 107.89985656738281, 219.2516326904297, 99.34857177734375, -0.06400000303983688, 0.01600000075995922, 1.055999994277954, 0.0, 0.0, 0.0, 0.0, 0.0, 1.6218630543306677E9, 2021-05-24 15:30:54.330
99.0, -90.1502914428711, 91.69112396240234, 189.99440002441406, 85.03597259521484, -0.06400000303983688, 0.01600000075995922, 1.055999994277954, 0.0, 0.0, 0.0, 0.0, 0.0, 1.6218630543313608E9, 2021-05-24 15:30:54.331
99.0, -193.04241943359375, 1.5969372987747192, 83.1304931640625, -13.596405982971191, -0.06400000303983688, 0.01600000075995922, 1.055999994277954, 0.0, 0.0, 0.0, 0.0, 0.0, 1.6218630543313608E9, 2021-05-24 15:30:54.331
100.0, -276.3150329589844, -90.61029815673828, -13.725432395935059, -93.74993896484375, -0.06400000303983688, 0.01600000075995922, 1.055999994277954, 0.0, 0.0, 0.0, 0.0, 0.0, 1.6218630543463285E9, 2021-05-24 15:30:54.346
100.0, -65.38467407226562, 105.77932739257812, 215.74734497070312, 94.87191009521484, -0.06400000303983688, 0.01600000075995922, 1.055999994277954, 0.0, 0.0, 0.0, 0.0, 0.0, 1.6218630543463285E9, 2021-05-24 15:30:54.346
0.0, -92.64105987548828, 95.26647186279297, 188.66860961914062, 84.02619934082031, -0.06400000303983688, 0.01600000075995922, 1.055999994277954, 0.0, 0.0, 0.0, 0.0, 0.0, 1.621863054347028E9, 2021-05-24 15:30:54.347
1.0, -206.2442626953125, -1.8961292505264282, 76.17989349365234, -18.71632957458496, -0.06400000303983688, 0.01600000075995922, 1.055999994277954, 0.0, 0.0, 0.0, 0.0, 0.0, 1.6218630543599908E9, 2021-05-24 15:30:54.359
1.0, -281.06097412109375, -88.77400207519531, -11.479622840881348, -102.69578552246094, -0.06400000303983688, 0.01600000075995922, 1.055999994277954, 0.0, 0.0, 0.0, 0.0, 0.0, 1.6218630543599908E9, 2021-05-24 15:30:54.359
2.0, -66.06159210205078, 108.86848449707031, 220.9962921142578, 99.28125762939453, -0.06400000303983688, 0.01600000075995922, 1.055999994277954, 0.0, 0.0, 0.0, 0.0, 0.0, 1.6218630543756807E9, 2021-05-24 15:30:54.375
2.0, -94.30157470703125, 92.07633972167969, 193.16395568847656, 83.75318908691406, -0.06400000303983688, 0.01600000075995922, 1.055999994277954, 0.0, 0.0, 0.0, 0.0, 0.0, 1.6218630543756807E9, 2021-05-24 15:30:54.375
3.0, -195.439697265625, -4.18120813369751, 82.92667388916016, -10.252935409545898, -0.06400000303983688, 0.01600000075995922, 1.055999994277954, 0.0, 0.0, 0.0, 0.0, 0.0, 1.621863054376351E9, 2021-05-24 15:30:54.376
3.0, -277.2911376953125, -98.76702117919922, -12.46695613861084, -97.12332916259766, -0.06400000303983688, 0.01600000075995922, 1.055999994277954, 0.0, 0.0, 0.0, 0.0, 0.0, 1.621863054376351E9, 2021-05-24 15:30:54.376
4.0, -64.95458221435547, 103.44189453125, 218.7411346435547, 104.34507751464844, -0.06400000303983688, 0.01600000075995922, 1.055999994277954, 0.0, 0.0, 0.0, 0.0, 0.0, 1.6218630543898778E9, 2021-05-24 15:30:54.389
4.0, -89.70897674560547, 89.36490631103516, 187.58029174804688, 90.21199798583984, -0.06400000303983688, 0.01600000075995922, 1.055999994277954, 0.0, 0.0, 0.0, 0.0, 0.0, 1.6218630543898778E9, 2021-05-24 15:30:54.389
5.0, -197.32460021972656, -10.423101425170898, 81.93560028076172, -5.899692058563232, -0.06400000303983688, 0.01600000075995922, 1.055999994277954, 0.0, 0.0, 0.0, 0.0, 0.0, 1.6218630544055932E9, 2021-05-24 15:30:54.405
5.0, -279.74078369140625, -101.96089172363281, -14.348126411437988, -97.93862915039062, -0.06400000303983688, 0.01600000075995922, 1.055999994277954, 0.0, 0.0, 0.0, 0.0, 0.0, 1.6218630544055932E9, 2021-05-24 15:30:54.405
6.0, -61.7981071472168, 101.83373260498047, 217.34242248535156, 99.75247955322266, -0.06400000303983688, 0.01600000075995922, 1.055999994277954, 0.0, 0.0, 0.0, 0.0, 0.0, 1.621863054406337E9, 2021-05-24 15:30:54.406
6.0, -90.52801513671875, 94.29409790039062, 190.3141632080078, 95.50021362304688, -0.06400000303983688, 0.01600000075995922, 1.055999994277954, 0.0, 0.0, 0.0, 0.0, 0.0, 1.621863054406337E9, 2021-05-24 15:30:54.406
7.0, -191.06027221679688, -8.022085189819336, 73.55448150634766, -16.32279396057129, -0.06400000303983688, 0.01600000075995922, 1.055999994277954, 0.0, 0.0, 0.0, 0.0, 0.0, 1.6218630544200065E9, 2021-05-24 15:30:54.420
7.0, -277.07049560546875, -92.71959686279297, -13.308433532714844, -93.33855438232422, -0.06400000303983688, 0.01600000075995922, 1.055999994277954, 0.0, 0.0, 0.0, 0.0, 0.0, 1.6218630544200065E9, 2021-05-24 15:30:54.420
8.0, -66.29720306396484, 101.8973159790039, 219.425537109375, 97.34024810791016, -0.06400000303983688, 0.01600000075995922, 1.055999994277954, 0.0, 0.0, 0.0, 0.0, 0.0, 1.621863054435639E9, 2021-05-24 15:30:54.435
8.0, -89.96329498291016, 95.07573699951172, 191.12571716308594, 90.05492401123047, -0.06400000303983688, 0.01600000075995922, 1.055999994277954, 0.0, 0.0, 0.0, 0.0, 0.0, 1.621863054435639E9, 2021-05-24 15:30:54.435
9.0, -194.14569091796875, -5.093743801116943, 76.06021881103516, -5.716436862945557, -0.06400000303983688, 0.01600000075995922, 1.055999994277954, 0.0, 0.0, 0.0, 0.0, 0.0, 1.6218630544363725E9, 2021-05-24 15:30:54.436
9.0, -281.65185546875, -98.8455581665039, -12.687610626220703, -93.88457489013672, -0.06400000303983688, 0.01600000075995922, 1.055999994277954, 0.0, 0.0, 0.0, 0.0, 0.0, 1.6218630544363725E9, 2021-05-24 15:30:54.436
10.0, -63.97098922729492, 99.79549407958984, 218.44943237304688, 101.06144714355469, -0.06400000303983688, 0.01600000075995922, 1.055999994277954, 0.0, 0.0, 0.0, 0.0, 0.0, 1.6218630544500332E9, 2021-05-24 15:30:54.450
10.0, -88.0297622680664, 95.4123306274414, 186.11050415039062, 86.12054443359375, -0.06400000303983688, 0.01600000075995922, 1.055999994277954, 0.0, 0.0, 0.0, 0.0, 0.0, 1.6218630544500332E9, 2021-05-24 15:30:54.450
11.0, -193.8577117919922, -4.517799377441406, 78.6220474243164, -8.622339248657227, -0.06400000303983688, 0.01600000075995922, 1.055999994277954, 0.0, 0.0, 0.0, 0.0, 0.0, 1.6218630544655938E9, 2021-05-24 15:30:54.465
11.0, -279.2994689941406, -95.50208282470703, -16.023601531982422, -92.27642059326172, -0.06400000303983688, 0.01600000075995922, 1.055999994277954, 0.0, 0.0, 0.0, 0.0, 0.0, 1.6218630544655938E9, 2021-05-24 15:30:54.465
12.0, -59.494327545166016, 104.04776000976562, 213.3781280517578, 97.97976684570312, -0.06400000303983688, 0.01600000075995922, 1.055999994277954, 0.0, 0.0, 0.0, 0.0, 0.0, 1.621863054466329E9, 2021-05-24 15:30:54.466
12.0, -86.46648406982422, 94.57833099365234, 188.8518524169922, 82.81073760986328, -0.06400000303983688, 0.01600000075995922, 1.055999994277954, 0.0, 0.0, 0.0, 0.0, 0.0, 1.621863054466329E9, 2021-05-24 15:30:54.466
13.0, -197.32086181640625, -13.875028610229492, 74.22392272949219, -17.32508659362793, -0.06400000303983688, 0.01600000075995922, 1.055999994277954, 0.0, 0.0, 0.0, 0.0, 0.0, 1.6218630544963422E9, 2021-05-24 15:30:54.496
13.0, -271.8196716308594, -97.63382720947266, -13.947957038879395, -95.2010269165039, -0.06400000303983688, 0.01600000075995922, 1.055999994277954, 0.0, 0.0, 0.0, 0.0, 0.0, 1.6218630544963422E9, 2021-05-24 15:30:54.496
14.0, -61.00150680541992, 104.3095474243164, 221.44508361816406, 94.40068817138672, -0.06400000303983688, 0.01600000075995922, 1.055999994277954, 0.0, 0.0, 0.0, 0.0, 0.0, 1.621863054497E9, 2021-05-24 15:30:54.497
14.0, -85.90924072265625, 90.5130615234375, 195.11619567871094, 87.67634582519531, -0.06400000303983688, 0.01600000075995922, 1.055999994277954, 0.0, 0.0, 0.0, 0.0, 0.0, 1.621863054497E9, 2021-05-24 15:30:54.497
15.0, -193.89511108398438, -11.67222785949707, 80.21150207519531, -15.114805221557617, -0.06400000303983688, 0.01600000075995922, 1.055999994277954, 0.0, 0.0, 0.0, 0.0, 0.0, 1.6218630544977214E9, 2021-05-24 15:30:54.497
15.0, -274.41888427734375, -94.1295394897461, -6.183924674987793, -95.75827026367188, -0.06400000303983688, 0.01600000075995922, 1.055999994277954, 0.0, 0.0, 0.0, 0.0, 0.0, 1.6218630544977214E9, 2021-05-24 15:30:54.497
16.0, -56.4575309753418, 103.37083435058594, 222.44737243652344, 105.20899200439453, -0.06400000303983688, 0.01600000075995922, 1.055999994277954, 0.0, 0.0, 0.0, 0.0, 0.0, 1.6218630545099344E9, 2021-05-24 15:30:54.509
16.0, -87.09104919433594, 90.50557708740234, 195.55001831054688, 91.1694107055664, -0.06400000303983688, 0.01600000075995922, 1.055999994277954, 0.0, 0.0, 0.0, 0.0, 0.0, 1.6218630545099344E9, 2021-05-24 15:30:54.509
17.0, -193.84649658203125, -4.30088472366333, 78.01244354248047, -6.8234477043151855, -0.06400000303983688, 0.01600000075995922, 1.055999994277954, 0.0, 0.0, 0.0, 0.0, 0.0, 1.6218630545255797E9, 2021-05-24 15:30:54.525
17.0, -280.3765563964844, -95.89103698730469, -17.13435173034668, -100.12273406982422, -0.06400000303983688, 0.01600000075995922, 1.055999994277954, 0.0, 0.0, 0.0, 0.0, 0.0, 1.6218630545255797E9, 2021-05-24 15:30:54.525
18.0, -64.5431900024414, 102.73131561279297, 225.6898651123047, 103.90750885009766, -0.06400000303983688, 0.01600000075995922, 1.055999994277954, 0.0, 0.0, 0.0, 0.0, 0.0, 1.6218630545264187E9, 2021-05-24 15:30:54.526
18.0, -87.56975555419922, 94.19312286376953, 195.30319213867188, 87.8969955444336, -0.06400000303983688, 0.01600000075995922, 1.055999994277954, 0.0, 0.0, 0.0, 0.0, 0.0, 1.6218630545264187E9, 2021-05-24 15:30:54.526
19.0, -195.29010009765625, -8.43347454071045, 77.93016815185547, -7.15255880355835, -0.06400000303983688, 0.01600000075995922, 1.055999994277954, 0.0, 0.0, 0.0, 0.0, 0.0, 1.6218630545399456E9, 2021-05-24 15:30:54.539
19.0, -274.6619873046875, -100.56591033935547, -9.777968406677246, -100.71363830566406, -0.06400000303983688, 0.01600000075995922, 1.055999994277954, 0.0, 0.0, 0.0, 0.0, 0.0, 1.6218630545399456E9, 2021-05-24 15:30:54.539
20.0, -62.07859802246094, 105.15850830078125, 216.549560546875, 92.55691528320312, -0.06400000303983688, 0.01600000075995922, 1.055999994277954, 0.0, 0.0, 0.0, 0.0, 0.0, 1.6218630545556965E9, 2021-05-24 15:30:54.555
20.0, -87.73805236816406, 91.00672912597656, 193.08541870117188, 80.79866790771484, -0.06400000303983688, 0.01600000075995922, 1.055999994277954, 0.0, 0.0, 0.0, 0.0, 0.0, 1.6218630545556965E9, 2021-05-24 15:30:54.555
21.0, -194.30650329589844, -10.292204856872559, 78.6594467163086, -7.571427345275879, -0.06400000303983688, 0.01600000075995922, 1.055999994277954, 0.0, 0.0, 0.0, 0.0, 0.0, 1.6218630545564249E9, 2021-05-24 15:30:54.556
21.0, -279.8193054199219, -99.05499267578125, -16.99971580505371, -88.22611236572266, -0.06400000303983688, 0.01600000075995922, 1.055999994277954, 0.0, 0.0, 0.0, 0.0, 0.0, 1.6218630545564249E9, 2021-05-24 15:30:54.556
22.0, -60.52280044555664, 102.34984588623047, 217.47705078125, 95.87046813964844, -0.06400000303983688, 0.01600000075995922, 1.055999994277954, 0.0, 0.0, 0.0, 0.0, 0.0, 1.6218630545699084E9, 2021-05-24 15:30:54.569
22.0, -88.42245483398438, 86.7208023071289, 193.4893341064453, 92.5718765258789, -0.06400000303983688, 0.01600000075995922, 1.055999994277954, 0.0, 0.0, 0.0, 0.0, 0.0, 1.6218630545699084E9, 2021-05-24 15:30:54.569
23.0, -198.36802673339844, -11.058884620666504, 85.03597259521484, -5.7126970291137695, -0.06400000303983688, 0.01600000075995922, 1.055999994277954, 0.0, 0.0, 0.0, 0.0, 0.0, 1.6218630545856357E9, 2021-05-24 15:30:54.585
23.0, -279.3705139160156, -96.71381378173828, -9.254382133483887, -92.54943084716797, -0.06400000303983688, 0.01600000075995922, 1.055999994277954, 0.0, 0.0, 0.0, 0.0, 0.0, 1.6218630545856357E9, 2021-05-24 15:30:54.585
24.0, -63.832611083984375, 103.99166107177734, 224.66514587402344, 98.21538543701172, -0.06400000303983688, 0.01600000075995922, 1.055999994277954, 0.0, 0.0, 0.0, 0.0, 0.0, 1.6218630545862973E9, 2021-05-24 15:30:54.586
24.0, -85.26972198486328, 97.06536102294922, 193.2238006591797, 94.58767700195312, -0.06400000303983688, 0.01600000075995922, 1.055999994277954, 0.0, 0.0, 0.0, 0.0, 0.0, 1.6218630545862973E9, 2021-05-24 15:30:54.586
25.0, -194.6804962158203, -3.9867334365844727, 76.89421081542969, -7.14133882522583, -0.06400000303983688, 0.01600000075995922, 1.055999994277954, 0.0, 0.0, 0.0, 0.0, 0.0, 1.621863054599933E9, 2021-05-24 15:30:54.599
25.0, -279.57623291015625, -87.29674530029297, -8.764455795288086, -98.39863586425781, -0.06400000303983688, 0.01600000075995922, 1.055999994277954, 0.0, 0.0, 0.0, 0.0, 0.0, 1.621863054599933E9, 2021-05-24 15:30:54.599
26.0, -65.03685760498047, 107.34635162353516, 220.2857208251953, 94.55402374267578, -0.06400000303983688, 0.01600000075995922, 1.055999994277954, 0.0, 0.0, 0.0, 0.0, 0.0, 1.6218630546157537E9, 2021-05-24 15:30:54.615
26.0, -93.08611297607422, 88.56082916259766, 186.09555053710938, 88.71229553222656, -0.06400000303983688, 0.01600000075995922, 1.055999994277954, 0.0, 0.0, 0.0, 0.0, 0.0, 1.6218630546157537E9, 2021-05-24 15:30:54.615
27.0, -196.8870391845703, -9.12535572052002, 76.99144744873047, -2.3131282329559326, -0.06400000303983688, 0.01600000075995922, 1.055999994277954, 0.0, 0.0, 0.0, 0.0, 0.0, 1.621863054616429E9, 2021-05-24 15:30:54.616
27.0, -275.3426513671875, -100.64818572998047, -12.560454368591309, -104.0122299194336, -0.06400000303983688, 0.01600000075995922, 1.055999994277954, 0.0, 0.0, 0.0, 0.0, 0.0, 1.621863054616429E9, 2021-05-24 15:30:54.616
28.0, -62.400230407714844, 100.24053955078125, 221.13841247558594, 94.97663116455078, -0.06400000303983688, 0.01600000075995922, 1.055999994277954, 0.0, 0.0, 0.0, 0.0, 0.0, 1.6218630546463451E9, 2021-05-24 15:30:54.646
28.0, -87.97740936279297, 95.53948211669922, 193.76234436035156, 80.37979888916016, -0.06400000303983688, 0.01600000075995922, 1.055999994277954, 0.0, 0.0, 0.0, 0.0, 0.0, 1.6218630546463451E9, 2021-05-24 15:30:54.646
29.0, -203.62258911132812, -3.365910053253174, 84.5049057006836, -13.143877983093262, -0.06400000303983688, 0.01600000075995922, 1.055999994277954, 0.0, 0.0, 0.0, 0.0, 0.0, 1.6218630546470747E9, 2021-05-24 15:30:54.647
29.0, -282.4484558105469, -99.50751495361328, -11.76385498046875, -98.67913055419922, -0.06400000303983688, 0.01600000075995922, 1.055999994277954, 0.0, 0.0, 0.0, 0.0, 0.0, 1.6218630546470747E9, 2021-05-24 15:30:54.647
30.0, -70.20914459228516, 101.60186004638672, 225.5440216064453, 98.694091796875, -0.06400000303983688, 0.01600000075995922, 1.055999994277954, 0.0, 0.0, 0.0, 0.0, 0.0, 1.621863054647831E9, 2021-05-24 15:30:54.647
30.0, -91.93421936035156, 91.68738555908203, 199.85464477539062, 89.63605499267578, -0.06400000303983688, 0.01600000075995922, 1.055999994277954, 0.0, 0.0, 0.0, 0.0, 0.0, 1.621863054647831E9, 2021-05-24 15:30:54.647
31.0, -198.315673828125, -4.461700439453125, 87.86708068847656, -7.182477951049805, -0.06400000303983688, 0.01600000075995922, 1.055999994277954, 0.0, 0.0, 0.0, 0.0, 0.0, 1.6218630546601796E9, 2021-05-24 15:30:54.660
31.0, -287.4486999511719, -97.88066101074219, -9.78544807434082, -96.42022705078125, -0.06400000303983688, 0.01600000075995922, 1.055999994277954, 0.0, 0.0, 0.0, 0.0, 0.0, 1.6218630546601796E9, 2021-05-24 15:30:54.660
32.0, -62.84901809692383, 106.41511535644531, 227.92633056640625, 108.354248046875, -0.06400000303983688, 0.01600000075995922, 1.055999994277954, 0.0, 0.0, 0.0, 0.0, 0.0, 1.6218630546756232E9, 2021-05-24 15:30:54.675
32.0, -90.55046081542969, 93.20952606201172, 201.8405303955078, 93.64148712158203, -0.06400000303983688, 0.01600000075995922, 1.055999994277954, 0.0, 0.0, 0.0, 0.0, 0.0, 1.6218630546756232E9, 2021-05-24 15:30:54.675
33.0, -203.89935302734375, -8.497053146362305, 87.82219696044922, -1.643686056137085, -0.06400000303983688, 0.01600000075995922, 1.055999994277954, 0.0, 0.0, 0.0, 0.0, 0.0, 1.6218630546763127E9, 2021-05-24 15:30:54.676
33.0, -283.83221435546875, -100.0909423828125, -1.8456406593322754, -93.40586853027344, -0.06400000303983688, 0.01600000075995922, 1.055999994277954, 0.0, 0.0, 0.0, 0.0, 0.0, 1.6218630546763127E9, 2021-05-24 15:30:54.676
34.0, -65.37345123291016, 99.8104476928711, 230.88833618164062, 100.40696716308594, -0.06400000303983688, 0.01600000075995922, 1.055999994277954, 0.0, 0.0, 0.0, 0.0, 0.0, 1.6218630547064185E9, 2021-05-24 15:30:54.706
34.0, -88.52716827392578, 89.79499816894531, 207.24842834472656, 88.5589599609375, -0.06400000303983688, 0.01600000075995922, 1.055999994277954, 0.0, 0.0, 0.0, 0.0, 0.0, 1.6218630547064185E9, 2021-05-24 15:30:54.706
35.0, -200.26416015625, -12.846556663513184, 92.50455474853516, -9.246902465820312, -0.06400000303983688, 0.01600000075995922, 1.055999994277954, 0.0, 0.0, 0.0, 0.0, 0.0, 1.621863054707049E9, 2021-05-24 15:30:54.707
35.0, -280.78045654296875, -101.12689208984375, -4.549588203430176, -105.37355041503906, -0.06400000303983688, 0.01600000075995922, 1.055999994277954, 0.0, 0.0, 0.0, 0.0, 0.0, 1.621863054707049E9, 2021-05-24 15:30:54.707
36.0, -63.08837127685547, 97.60765075683594, 228.08714294433594, 91.05347442626953, -0.06400000303983688, 0.01600000075995922, 1.055999994277954, 0.0, 0.0, 0.0, 0.0, 0.0, 1.6218630547077875E9, 2021-05-24 15:30:54.707
36.0, -89.88101196289062, 93.27310180664062, 198.9944610595703, 82.48536682128906, -0.06400000303983688, 0.01600000075995922, 1.055999994277954, 0.0, 0.0, 0.0, 0.0, 0.0, 1.6218630547077875E9, 2021-05-24 15:30:54.707
37.0, -196.5728759765625, -2.4122354984283447, 87.96805572509766, -14.449103355407715, -0.06400000303983688, 0.01600000075995922, 1.055999994277954, 0.0, 0.0, 0.0, 0.0, 0.0, 1.6218630547199435E9, 2021-05-24 15:30:54.719
37.0, -284.61761474609375, -93.83409118652344, -6.786048412322998, -99.54304504394531, -0.06400000303983688, 0.01600000075995922, 1.055999994277954, 0.0, 0.0, 0.0, 0.0, 0.0, 1.6218630547199435E9, 2021-05-24 15:30:54.719
38.0, -63.87375259399414, 102.28252410888672, 227.24192810058594, 101.21852111816406, -0.06400000303983688, 0.01600000075995922, 1.055999994277954, 0.0, 0.0, 0.0, 0.0, 0.0, 1.621863054735617E9, 2021-05-24 15:30:54.735
38.0, -91.54153442382812, 89.86979675292969, 202.26687622070312, 96.96251678466797, -0.06400000303983688, 0.01600000075995922, 1.055999994277954, 0.0, 0.0, 0.0, 0.0, 0.0, 1.621863054735617E9, 2021-05-24 15:30:54.735
39.0, -197.88185119628906, -3.9007155895233154, 88.49164581298828, -2.5562217235565186, -0.06400000303983688, 0.01600000075995922, 1.055999994277954, 0.0, 0.0, 0.0, 0.0, 0.0, 1.6218630547363515E9, 2021-05-24 15:30:54.736
39.0, -280.384033203125, -92.07259368896484, -1.3669334650039673, -90.89266204833984, -0.06400000303983688, 0.01600000075995922, 1.055999994277954, 0.0, 0.0, 0.0, 0.0, 0.0, 1.6218630547363515E9, 2021-05-24 15:30:54.736
40.0, -59.98799514770508, 101.32884979248047, 227.6570587158203, 97.16072845458984, -0.06400000303983688, 0.01600000075995922, 1.040000081062317, 0.0, 0.0, 0.0, 0.0, 0.0, 1.6218630547499528E9, 2021-05-24 15:30:54.749
40.0, -82.86495971679688, 91.18997955322266, 204.56317138671875, 91.5920181274414, -0.06400000303983688, 0.01600000075995922, 1.040000081062317, 0.0, 0.0, 0.0, 0.0, 0.0, 1.6218630547499528E9, 2021-05-24 15:30:54.749
41.0, -190.69375610351562, -11.402955055236816, 87.8147201538086, -11.128072738647461, -0.06400000303983688, 0.01600000075995922, 1.040000081062317, 0.0, 0.0, 0.0, 0.0, 0.0, 1.621863054765714E9, 2021-05-24 15:30:54.765
41.0, -279.8342590332031, -99.61597442626953, -3.468757152557373, -96.62218475341797, -0.06400000303983688, 0.01600000075995922, 1.040000081062317, 0.0, 0.0, 0.0, 0.0, 0.0, 1.621863054765714E9, 2021-05-24 15:30:54.765
42.0, -69.98848724365234, 97.4804916381836, 226.55752563476562, 88.32708740234375, -0.06400000303983688, 0.01600000075995922, 1.040000081062317, 0.0, 0.0, 0.0, 0.0, 0.0, 1.6218630547663543E9, 2021-05-24 15:30:54.766
42.0, -95.42728424072266, 90.84217071533203, 198.24649047851562, 80.66029357910156, -0.06400000303983688, 0.01600000075995922, 1.040000081062317, 0.0, 0.0, 0.0, 0.0, 0.0, 1.6218630547663543E9, 2021-05-24 15:30:54.766
43.0, -200.0584716796875, -2.288818836212158, 87.76235961914062, -12.683870315551758, -0.06400000303983688, 0.01600000075995922, 1.040000081062317, 0.0, 0.0, 0.0, 0.0, 0.0, 1.6218630547799275E9, 2021-05-24 15:30:54.779
43.0, -283.02813720703125, -96.20144653320312, -2.37670636177063, -98.90726470947266, -0.06400000303983688, 0.01600000075995922, 1.040000081062317, 0.0, 0.0, 0.0, 0.0, 0.0, 1.6218630547799275E9, 2021-05-24 15:30:54.779
44.0, -68.82911682128906, 99.36166381835938, 224.19764709472656, 97.168212890625, -0.06400000303983688, 0.01600000075995922, 1.040000081062317, 0.0, 0.0, 0.0, 0.0, 0.0, 1.621863054795711E9, 2021-05-24 15:30:54.795
44.0, -91.82575988769531, 86.10746002197266, 195.86790466308594, 84.05238342285156, -0.06400000303983688, 0.01600000075995922, 1.040000081062317, 0.0, 0.0, 0.0, 0.0, 0.0, 1.621863054795711E9, 2021-05-24 15:30:54.795
45.0, -199.74432373046875, -7.0272722244262695, 84.37401580810547, -15.167163848876953, -0.06400000303983688, 0.01600000075995922, 1.040000081062317, 0.0, 0.0, 0.0, 0.0, 0.0, 1.6218630547962906E9, 2021-05-24 15:30:54.796
45.0, -282.085693359375, -102.34609985351562, -3.4537975788116455, -92.82618713378906, -0.06400000303983688, 0.01600000075995922, 1.040000081062317, 0.0, 0.0, 0.0, 0.0, 0.0, 1.6218630547962906E9, 2021-05-24 15:30:54.796
46.0, -60.496620178222656, 100.70054626464844, 229.19041442871094, 102.1048812866211, -0.06400000303983688, 0.01600000075995922, 1.040000081062317, 0.0, 0.0, 0.0, 0.0, 0.0, 1.6218630548100233E9, 2021-05-24 15:30:54.810
46.0, -91.58267211914062, 91.33209991455078, 204.23780822753906, 97.17195129394531, -0.06400000303983688, 0.01600000075995922, 1.040000081062317, 0.0, 0.0, 0.0, 0.0, 0.0, 1.6218630548100233E9, 2021-05-24 15:30:54.810
47.0, -198.84674072265625, -10.07529067993164, 86.43843841552734, -2.8628933429718018, -0.06400000303983688, 0.01600000075995922, 1.040000081062317, 0.0, 0.0, 0.0, 0.0, 0.0, 1.6218630548256085E9, 2021-05-24 15:30:54.825
47.0, -286.9812316894531, -96.33234405517578, -8.016475677490234, -94.03043365478516, -0.06400000303983688, 0.01600000075995922, 1.040000081062317, 0.0, 0.0, 0.0, 0.0, 0.0, 1.6218630548256085E9, 2021-05-24 15:30:54.825
48.0, -69.04977416992188, 103.60270690917969, 223.68154907226562, 104.20670318603516, -0.06400000303983688, 0.01600000075995922, 1.040000081062317, 0.0, 0.0, 0.0, 0.0, 0.0, 1.621863054826384E9, 2021-05-24 15:30:54.826
48.0, -93.19456481933594, 95.96957397460938, 196.34288024902344, 89.07880401611328, -0.06400000303983688, 0.01600000075995922, 1.040000081062317, 0.0, 0.0, 0.0, 0.0, 0.0, 1.621863054826384E9, 2021-05-24 15:30:54.826
49.0, -203.80584716796875, -4.080230712890625, 86.22900390625, -12.134105682373047, -0.06400000303983688, 0.01600000075995922, 1.040000081062317, 0.0, 0.0, 0.0, 0.0, 0.0, 1.621863054839944E9, 2021-05-24 15:30:54.839
49.0, -289.6253356933594, -95.34874725341797, -13.768442153930664, -95.52265167236328, -0.06400000303983688, 0.01600000075995922, 1.040000081062317, 0.0, 0.0, 0.0, 0.0, 0.0, 1.621863054839944E9, 2021-05-24 15:30:54.839
50.0, -68.12601470947266, 104.3095474243164, 220.08375549316406, 96.63340759277344, -0.06400000303983688, 0.01600000075995922, 1.040000081062317, 0.0, 0.0, 0.0, 0.0, 0.0, 1.6218630548557448E9, 2021-05-24 15:30:54.855
50.0, -95.01216125488281, 86.89657592773438, 198.41851806640625, 86.46461486816406, -0.06400000303983688, 0.01600000075995922, 1.040000081062317, 0.0, 0.0, 0.0, 0.0, 0.0, 1.6218630548557448E9, 2021-05-24 15:30:54.855
51.0, -198.21469116210938, -9.82845687866211, 89.9801254272461, -9.695691108703613, -0.06400000303983688, 0.01600000075995922, 1.040000081062317, 0.0, 0.0, 0.0, 0.0, 0.0, 1.6218630548563716E9, 2021-05-24 15:30:54.856
51.0, -287.32904052734375, -98.46782684326172, -6.341000556945801, -99.28125762939453, -0.06400000303983688, 0.01600000075995922, 1.040000081062317, 0.0, 0.0, 0.0, 0.0, 0.0, 1.6218630548563716E9, 2021-05-24 15:30:54.856
52.0, -58.38357925415039, 102.66399383544922, 228.28536987304688, 94.14636993408203, -0.06400000303983688, 0.01600000075995922, 1.040000081062317, 0.0, 0.0, 0.0, 0.0, 0.0, 1.6218630548699248E9, 2021-05-24 15:30:54.869
52.0, -89.33125305175781, 87.55854034423828, 195.06756591796875, 73.43106842041016, -0.06400000303983688, 0.01600000075995922, 1.040000081062317, 0.0, 0.0, 0.0, 0.0, 0.0, 1.6218630548699248E9, 2021-05-24 15:30:54.869
53.0, -188.80137634277344, -6.948734283447266, 85.47727966308594, -10.140738487243652, -0.06400000303983688, 0.01600000075995922, 1.040000081062317, 0.0, 0.0, 0.0, 0.0, 0.0, 1.6218630548857777E9, 2021-05-24 15:30:54.885
53.0, -277.3659362792969, -102.98188781738281, -6.0118889808654785, -97.16447448730469, -0.06400000303983688, 0.01600000075995922, 1.040000081062317, 0.0, 0.0, 0.0, 0.0, 0.0, 1.6218630548857777E9, 2021-05-24 15:30:54.885
54.0, -65.89703369140625, 102.00951385498047, 228.14698791503906, 101.3456802368164, -0.06400000303983688, 0.01600000075995922, 1.040000081062317, 0.0, 0.0, 0.0, 0.0, 0.0, 1.621863054886364E9, 2021-05-24 15:30:54.886
54.0, -86.64600372314453, 93.78546905517578, 202.11354064941406, 93.0730209350586, -0.06400000303983688, 0.01600000075995922, 1.040000081062317, 0.0, 0.0, 0.0, 0.0, 0.0, 1.621863054886364E9, 2021-05-24 15:30:54.886
55.0, -198.12867736816406, -10.78213119506836, 84.00749969482422, -11.71523666381836, -0.06400000303983688, 0.01600000075995922, 1.040000081062317, 0.0, 0.0, 0.0, 0.0, 0.0, 1.6218630548999329E9, 2021-05-24 15:30:54.899
55.0, -283.33856201171875, -100.50233459472656, -9.590973854064941, -94.16506958007812, -0.06400000303983688, 0.01600000075995922, 1.040000081062317, 0.0, 0.0, 0.0, 0.0, 0.0, 1.6218630548999329E9, 2021-05-24 15:30:54.899
56.0, -61.86168670654297, 103.16887664794922, 220.76815795898438, 98.65669250488281, -0.06400000303983688, 0.01600000075995922, 1.040000081062317, 0.0, 0.0, 0.0, 0.0, 0.0, 1.6218630549155948E9, 2021-05-24 15:30:54.915
56.0, -92.9477310180664, 89.7688217163086, 194.495361328125, 90.01752471923828, -0.06400000303983688, 0.01600000075995922, 1.040000081062317, 0.0, 0.0, 0.0, 0.0, 0.0, 1.6218630549155948E9, 2021-05-24 15:30:54.915
57.0, -198.32315063476562, -11.429134368896484, 84.56475067138672, 0.6675721406936646, -0.06400000303983688, 0.01600000075995922, 1.040000081062317, 0.0, 0.0, 0.0, 0.0, 0.0, 1.6218630549163127E9, 2021-05-24 15:30:54.916
57.0, -283.8883361816406, -98.44538879394531, -8.839253425598145, -101.6860122680664, -0.06400000303983688, 0.01600000075995922, 1.040000081062317, 0.0, 0.0, 0.0, 0.0, 0.0, 1.6218630549163127E9, 2021-05-24 15:30:54.916
58.0, -71.54802703857422, 101.71031951904297, 225.65248107910156, 101.11754608154297, -0.06400000303983688, 0.01600000075995922, 1.040000081062317, 0.0, 0.0, 0.0, 0.0, 0.0, 1.6218630549299293E9, 2021-05-24 15:30:54.929
58.0, -94.15946197509766, 94.05848693847656, 200.20619201660156, 82.08145141601562, -0.06400000303983688, 0.01600000075995922, 1.040000081062317, 0.0, 0.0, 0.0, 0.0, 0.0, 1.6218630549299293E9, 2021-05-24 15:30:54.929
59.0, -200.14822387695312, -3.971773862838745, 82.92667388916016, -8.18851089477539, -0.06400000303983688, 0.01600000075995922, 1.040000081062317, 0.0, 0.0, 0.0, 0.0, 0.0, 1.6218630549455817E9, 2021-05-24 15:30:54.945
59.0, -280.6645202636719, -97.18878173828125, -1.4866101741790771, -103.9710922241211, -0.06400000303983688, 0.01600000075995922, 1.040000081062317, 0.0, 0.0, 0.0, 0.0, 0.0, 1.6218630549455817E9, 2021-05-24 15:30:54.945
60.0, -68.44764709472656, 100.55094909667969, 223.0195770263672, 88.59262084960938, -0.06400000303983688, 0.01600000075995922, 1.055999994277954, 0.0, 0.0, 0.0, 0.0, 0.0, 1.6218630549463303E9, 2021-05-24 15:30:54.946
60.0, -91.86690521240234, 89.03953552246094, 198.84112548828125, 80.4471206665039, -0.06400000303983688, 0.01600000075995922, 1.055999994277954, 0.0, 0.0, 0.0, 0.0, 0.0, 1.6218630549463303E9, 2021-05-24 15:30:54.946
61.0, -199.00755310058594, -6.054898262023926, 83.03887176513672, -12.496875762939453, -0.06400000303983688, 0.01600000075995922, 1.055999994277954, 0.0, 0.0, 0.0, 0.0, 0.0, 1.621863054960094E9, 2021-05-24 15:30:54.960
61.0, -284.456787109375, -99.43646240234375, -14.95398998260498, -104.03092956542969, -0.06400000303983688, 0.01600000075995922, 1.055999994277954, 0.0, 0.0, 0.0, 0.0, 0.0, 1.621863054960094E9, 2021-05-24 15:30:54.960
62.0, -63.86252975463867, 102.55553436279297, 220.786865234375, 95.69094848632812, -0.06400000303983688, 0.01600000075995922, 1.055999994277954, 0.0, 0.0, 0.0, 0.0, 0.0, 1.6218630549756417E9, 2021-05-24 15:30:54.975
62.0, -85.58386993408203, 93.23570251464844, 194.26348876953125, 90.73184204101562, -0.06400000303983688, 0.01600000075995922, 1.055999994277954, 0.0, 0.0, 0.0, 0.0, 0.0, 1.6218630549756417E9, 2021-05-24 15:30:54.975
63.0, -196.56166076660156, -11.036444664001465, 82.56764221191406, -16.255475997924805, -0.06400000303983688, 0.01600000075995922, 1.055999994277954, 0.0, 0.0, 0.0, 0.0, 0.0, 1.6218630549762905E9, 2021-05-24 15:30:54.976
63.0, -278.49163818359375, -99.41776275634766, -10.765301704406738, -93.60782623291016, -0.06400000303983688, 0.01600000075995922, 1.055999994277954, 0.0, 0.0, 0.0, 0.0, 0.0, 1.6218630549762905E9, 2021-05-24 15:30:54.976
64.0, -58.24146270751953, 99.38410186767578, 227.6159210205078, 98.0321273803711, -0.06400000303983688, 0.01600000075995922, 1.055999994277954, 0.0, 0.0, 0.0, 0.0, 0.0, 1.6218630549899485E9, 2021-05-24 15:30:54.989
64.0, -90.84590911865234, 95.82745361328125, 196.42889404296875, 89.56873321533203, -0.06400000303983688, 0.01600000075995922, 1.055999994277954, 0.0, 0.0, 0.0, 0.0, 0.0, 1.6218630549899485E9, 2021-05-24 15:30:54.989
65.0, -193.77169799804688, -9.798538208007812, 83.41285705566406, -11.371166229248047, -0.06400000303983688, 0.01600000075995922, 1.055999994277954, 0.0, 0.0, 0.0, 0.0, 0.0, 1.6218630550060637E9, 2021-05-24 15:30:55.006
65.0, -278.3009033203125, -97.93302154541016, -4.037221908569336, -99.9432144165039, -0.06400000303983688, 0.01600000075995922, 1.055999994277954, 0.0, 0.0, 0.0, 0.0, 0.0, 1.6218630550060637E9, 2021-05-24 15:30:55.006
66.0, -60.10019302368164, 102.7387924194336, 228.88748168945312, 108.92645263671875, -0.06400000303983688, 0.01600000075995922, 1.055999994277954, 0.0, 0.0, 0.0, 0.0, 0.0, 1.6218630550207095E9, 2021-05-24 15:30:55.020
66.0, -81.7990951538086, 97.5253677368164, 196.85897827148438, 90.80290222167969, -0.06400000303983688, 0.01600000075995922, 1.055999994277954, 0.0, 0.0, 0.0, 0.0, 0.0, 1.6218630550207095E9, 2021-05-24 15:30:55.020
67.0, -190.02432250976562, -9.334790229797363, 80.27882385253906, -11.427264213562012, -0.06400000303983688, 0.01600000075995922, 1.055999994277954, 0.0, 0.0, 0.0, 0.0, 0.0, 1.6218630550213127E9, 2021-05-24 15:30:55.021
67.0, -276.5169677734375, -98.59123992919922, -9.59471321105957, -101.88048553466797, -0.06400000303983688, 0.01600000075995922, 1.055999994277954, 0.0, 0.0, 0.0, 0.0, 0.0, 1.6218630550213127E9, 2021-05-24 15:30:55.021
68.0, -64.93214416503906, 99.34296417236328, 216.23165893554688, 102.2320327758789, -0.06400000303983688, 0.01600000075995922, 1.055999994277954, 0.0, 0.0, 0.0, 0.0, 0.0, 1.6218630550356526E9, 2021-05-24 15:30:55.035
68.0, -89.43970489501953, 93.19082641601562, 193.8708038330078, 90.22695922851562, -0.06400000303983688, 0.01600000075995922, 1.055999994277954, 0.0, 0.0, 0.0, 0.0, 0.0, 1.6218630550356526E9, 2021-05-24 15:30:55.035
69.0, -192.810546875, -7.060931205749512, 86.42347717285156, -15.522455215454102, -0.06400000303983688, 0.01600000075995922, 1.055999994277954, 0.0, 0.0, 0.0, 0.0, 0.0, 1.6218630550363529E9, 2021-05-24 15:30:55.036
69.0, -280.7767333984375, -105.80177307128906, -8.839253425598145, -101.15494537353516, -0.06400000303983688, 0.01600000075995922, 1.055999994277954, 0.0, 0.0, 0.0, 0.0, 0.0, 1.6218630550363529E9, 2021-05-24 15:30:55.036
70.0, -56.569725036621094, 104.59378051757812, 222.8961639404297, 99.50564575195312, -0.06400000303983688, 0.01600000075995922, 1.055999994277954, 0.0, 0.0, 0.0, 0.0, 0.0, 1.6218630550498915E9, 2021-05-24 15:30:55.049
70.0, -87.16584777832031, 89.35369110107422, 198.01461791992188, 80.2713394165039, -0.06400000303983688, 0.01600000075995922, 1.055999994277954, 0.0, 0.0, 0.0, 0.0, 0.0, 1.6218630550498915E9, 2021-05-24 15:30:55.049
71.0, -190.39830017089844, -9.495606422424316, 88.42058563232422, -15.271881103515625, -0.06400000303983688, 0.01600000075995922, 1.055999994277954, 0.0, 0.0, 0.0, 0.0, 0.0, 1.621863055065612E9, 2021-05-24 15:30:55.065
71.0, -281.9548034667969, -98.78945922851562, -11.692797660827637, -98.42107391357422, -0.06400000303983688, 0.01600000075995922, 1.055999994277954, 0.0, 0.0, 0.0, 0.0, 0.0, 1.621863055065612E9, 2021-05-24 15:30:55.065
72.0, -61.0164680480957, 97.3196792602539, 224.7399444580078, 99.76744079589844, -0.06400000303983688, 0.01600000075995922, 1.055999994277954, 0.0, 0.0, 0.0, 0.0, 0.0, 1.6218630550663447E9, 2021-05-24 15:30:55.066
72.0, -94.71670532226562, 86.36177062988281, 199.4095916748047, 88.79457092285156, -0.06400000303983688, 0.01600000075995922, 1.055999994277954, 0.0, 0.0, 0.0, 0.0, 0.0, 1.6218630550663447E9, 2021-05-24 15:30:55.066
73.0, -199.60594177246094, -10.856929779052734, 84.75173950195312, -8.027695655822754, -0.06400000303983688, 0.01600000075995922, 1.055999994277954, 0.0, 0.0, 0.0, 0.0, 0.0, 1.6218630550971093E9, 2021-05-24 15:30:55.097
73.0, -287.1570129394531, -102.97066497802734, -5.99692964553833, -97.31781005859375, -0.06400000303983688, 0.01600000075995922, 1.055999994277954, 0.0, 0.0, 0.0, 0.0, 0.0, 1.6218630550971093E9, 2021-05-24 15:30:55.097
74.0, -70.04084777832031, 101.45226287841797, 225.46548461914062, 98.73149108886719, -0.06400000303983688, 0.01600000075995922, 1.055999994277954, 0.0, 0.0, 0.0, 0.0, 0.0, 1.6218630550978222E9, 2021-05-24 15:30:55.097
74.0, -96.88958740234375, 92.81683349609375, 200.29969787597656, 92.05950927734375, -0.06400000303983688, 0.01600000075995922, 1.055999994277954, 0.0, 0.0, 0.0, 0.0, 0.0, 1.6218630550978222E9, 2021-05-24 15:30:55.097
75.0, -203.42063903808594, -3.7137205600738525, 88.15131378173828, -7.814520835876465, -0.06400000303983688, 0.01600000075995922, 1.055999994277954, 0.0, 0.0, 0.0, 0.0, 0.0, 1.6218630550984776E9, 2021-05-24 15:30:55.098
75.0, -284.2884826660156, -103.95051574707031, -4.68796443939209, -95.53013610839844, -0.06400000303983688, 0.01600000075995922, 1.055999994277954, 0.0, 0.0, 0.0, 0.0, 0.0, 1.6218630550984776E9, 2021-05-24 15:30:55.098
76.0, -62.5610466003418, 100.70802307128906, 224.07797241210938, 89.05262756347656, -0.06400000303983688, 0.01600000075995922, 1.055999994277954, 0.0, 0.0, 0.0, 0.0, 0.0, 1.621863055126376E9, 2021-05-24 15:30:55.126
