Sample Index, EXG Channel 0, EXG Channel 1, EXG Channel 2, EXG Channel 3, Accel Channel 0, Accel Channel 1, Accel Channel 2, Other, Other, Other, Other, Other, Timestamp, Timestamp (Formatted)
37.0, 112.13716125488281, 94.26043701171875, 132.75897216796875, 104.08515930175781, 0.0, 0.0, 0.0, 0.0, 0.0, 0.0, 0.0, 0.0, 1.621859713771819E9, 2021-05-24 14:35:13.771
37.0, 272.9491271972656, 45.320106506347656, 0.3814697861671448, 66.60013580322266, 0.0, 0.0, 0.0, 0.0, 0.0, 0.0, 0.0, 0.0, 1.621859713771819E9, 2021-05-24 14:35:13.771
0.0, -149.58477783203125, -94.19499206542969, 174.1895751953125, 98.38742065429688, 0.0, 0.0, 0.0, 0.0, 0.0, 0.0, 0.0, 0.0, 1.621859713798674E9, 2021-05-24 14:35:13.798
1.0, -148.32443237304688, -79.8449935913086, 174.5448760986328, 104.457275390625, 0.0, 0.0, 0.0, 0.0, 0.0, 0.0, 0.0, 0.0, 1.6218597138121474E9, 2021-05-24 14:35:13.812
1.0, -202.95689392089844, -145.08006286621094, 107.56326293945312, 41.37638473510742, 0.0, 0.0, 0.0, 0.0, 0.0, 0.0, 0.0, 0.0, 1.6218597138121474E9, 2021-05-24 14:35:13.812
2.0, -283.3572692871094, -209.15203857421875, 38.52470779418945, -17.059553146362305, -0.03200000151991844, 0.0, 0.0, 0.0, 0.0, 0.0, 0.0, 0.0, 1.6218597138287823E9, 2021-05-24 14:35:13.828
2.0, -163.32891845703125, -101.83934783935547, 177.36849975585938, 102.77432250976562, -0.03200000151991844, 0.0, 0.0, 0.0, 0.0, 0.0, 0.0, 0.0, 1.6218597138287823E9, 2021-05-24 14:35:13.828
3.0, -149.02005004882812, -79.23538970947266, 178.22119140625, 110.99462127685547, -0.03200000151991844, 0.0, 0.0, 0.0, 0.0, 0.0, 0.0, 0.0, 1.6218597138296318E9, 2021-05-24 14:35:13.829
3.0, -218.36154174804688, -140.4538116455078, 101.38494873046875, 49.21895217895508, -0.03200000151991844, 0.0, 0.0, 0.0, 0.0, 0.0, 0.0, 0.0, 1.6218597138296318E9, 2021-05-24 14:35:13.829
4.0, -285.9602355957031, -204.78009033203125, 39.19415283203125, -19.299753189086914, -0.03200000151991844, 0.0, 0.0, 0.0, 0.0, 0.0, 0.0, 0.0, 1.621859713841904E9, 2021-05-24 14:35:13.841
4.0, -162.0685577392578, -102.1908950805664, 178.10525512695312, 92.39984130859375, -0.03200000151991844, 0.0, 0.0, 0.0, 0.0, 0.0, 0.0, 0.0, 1.621859713841904E9, 2021-05-24 14:35:13.841
5.0, -158.82232666015625, -83.18098449707031, 179.85926818847656, 108.14107513427734, -0.03200000151991844, 0.0, 0.0, 0.0, 0.0, 0.0, 0.0, 0.0, 1.6218597138575735E9, 2021-05-24 14:35:13.857
5.0, -230.06369018554688, -137.7760467529297, 108.64409637451172, 51.89672088623047, -0.03200000151991844, 0.0, 0.0, 0.0, 0.0, 0.0, 0.0, 0.0, 1.6218597138575735E9, 2021-05-24 14:35:13.857
6.0, -281.9136657714844, -203.03355407714844, 41.209957122802734, -21.371658325195312, -0.03200000151991844, 0.0, 0.0, 0.0, 0.0, 0.0, 0.0, 0.0, 1.6218597138582933E9, 2021-05-24 14:35:13.858
6.0, -163.9310302734375, -89.48271942138672, 173.53135681152344, 87.21633911132812, -0.03200000151991844, 0.0, 0.0, 0.0, 0.0, 0.0, 0.0, 0.0, 1.6218597138582933E9, 2021-05-24 14:35:13.858
7.0, -161.08123779296875, -72.48487091064453, 173.71835327148438, 98.91848754882812, -0.03200000151991844, 0.0, 0.0, 0.0, 0.0, 0.0, 0.0, 0.0, 1.6218597138719108E9, 2021-05-24 14:35:13.871
7.0, -230.89019775390625, -129.17800903320312, 105.02013397216797, 39.805625915527344, -0.03200000151991844, 0.0, 0.0, 0.0, 0.0, 0.0, 0.0, 0.0, 1.6218597138719108E9, 2021-05-24 14:35:13.871
8.0, -298.3953857421875, -198.01461791992188, 31.299222946166992, -22.819000244140625, -0.03200000151991844, 0.0, 0.0, 0.0, 0.0, 0.0, 0.0, 0.0, 1.6218597138877969E9, 2021-05-24 14:35:13.887
8.0, -168.3478546142578, -100.0030517578125, 170.61048889160156, 94.38946533203125, -0.03200000151991844, 0.0, 0.0, 0.0, 0.0, 0.0, 0.0, 0.0, 1.6218597138877969E9, 2021-05-24 14:35:13.887
9.0, -161.58238220214844, -86.11306762695312, 170.06446838378906, 98.85490417480469, -0.03200000151991844, 0.0, 0.0, 0.0, 0.0, 0.0, 0.0, 0.0, 1.6218597138883862E9, 2021-05-24 14:35:13.888
9.0, -227.3597412109375, -142.33123779296875, 105.52127838134766, 40.97621536254883, -0.03200000151991844, 0.0, 0.0, 0.0, 0.0, 0.0, 0.0, 0.0, 1.6218597138883862E9, 2021-05-24 14:35:13.888
10.0, -278.2298583984375, -201.96768188476562, 38.969757080078125, -17.362485885620117, -0.03200000151991844, 0.0, 0.527999997138977, 0.0, 0.0, 0.0, 0.0, 0.0, 1.6218597139019551E9, 2021-05-24 14:35:13.901
10.0, -158.13418579101562, -106.37584686279297, 171.6090545654297, 86.09436798095703, -0.03200000151991844, 0.0, 0.527999997138977, 0.0, 0.0, 0.0, 0.0, 0.0, 1.6218597139019551E9, 2021-05-24 14:35:13.901
11.0, -148.35435485839844, -82.28714752197266, 175.62196350097656, 99.77491760253906, -0.03200000151991844, 0.0, 0.527999997138977, 0.0, 0.0, 0.0, 0.0, 0.0, 1.6218597139173045E9, 2021-05-24 14:35:13.917
11.0, -216.5439453125, -140.6295928955078, 99.96004486083984, 43.30990982055664, -0.03200000151991844, 0.0, 0.527999997138977, 0.0, 0.0, 0.0, 0.0, 0.0, 1.6218597139173045E9, 2021-05-24 14:35:13.917
12.0, -281.0273132324219, -203.53469848632812, 39.874813079833984, -27.71078872680664, -0.04800000041723251, 0.0, 0.527999997138977, 0.0, 0.0, 0.0, 0.0, 0.0, 1.6218597139326208E9, 2021-05-24 14:35:13.932
12.0, -161.53375244140625, -111.42471313476562, 177.26377868652344, 88.28968811035156, -0.04800000041723251, 0.0, 0.527999997138977, 0.0, 0.0, 0.0, 0.0, 0.0, 1.6218597139326208E9, 2021-05-24 14:35:13.932
13.0, -151.36871337890625, -87.33975219726562, 180.45391845703125, 103.47367858886719, -0.04800000041723251, 0.0, 0.527999997138977, 0.0, 0.0, 0.0, 0.0, 0.0, 1.621859713933446E9, 2021-05-24 14:35:13.933
13.0, -226.80996704101562, -148.5469512939453, 104.70223999023438, 42.11314392089844, -0.04800000041723251, 0.0, 0.527999997138977, 0.0, 0.0, 0.0, 0.0, 0.0, 1.621859713933446E9, 2021-05-24 14:35:13.933
14.0, -284.0267028808594, -203.96853637695312, 40.162784576416016, -21.28190040588379, -0.04800000041723251, 0.0, 0.527999997138977, 0.0, 0.0, 0.0, 0.0, 0.0, 1.6218597139475594E9, 2021-05-24 14:35:13.947
14.0, -165.23626708984375, -109.85395050048828, 170.70773315429688, 94.90930938720703, -0.04800000041723251, 0.0, 0.527999997138977, 0.0, 0.0, 0.0, 0.0, 0.0, 1.6218597139475594E9, 2021-05-24 14:35:13.947
15.0, -157.7826385498047, -85.8699722290039, 171.9830322265625, 108.54498291015625, -0.04800000041723251, 0.0, 0.527999997138977, 0.0, 0.0, 0.0, 0.0, 0.0, 1.621859713948298E9, 2021-05-24 14:35:13.948
15.0, -229.44285583496094, -154.6841278076172, 100.38265228271484, 42.63298797607422, -0.04800000041723251, 0.0, 0.527999997138977, 0.0, 0.0, 0.0, 0.0, 0.0, 1.621859713948298E9, 2021-05-24 14:35:13.948
16.0, -289.2176818847656, -204.3051300048828, 40.88832473754883, -11.842392921447754, -0.04800000041723251, 0.0, 0.527999997138977, 0.0, 0.0, 0.0, 0.0, 0.0, 1.6218597139619725E9, 2021-05-24 14:35:13.961
16.0, -169.08460998535156, -108.35799407958984, 176.59059143066406, 96.25941467285156, -0.04800000041723251, 0.0, 0.527999997138977, 0.0, 0.0, 0.0, 0.0, 0.0, 1.6218597139619725E9, 2021-05-24 14:35:13.961
17.0, -165.18763732910156, -88.02789306640625, 178.1015167236328, 112.92066955566406, -0.04800000041723251, 0.0, 0.527999997138977, 0.0, 0.0, 0.0, 0.0, 0.0, 1.6218597139775488E9, 2021-05-24 14:35:13.977
17.0, -234.6488037109375, -154.8262481689453, 103.86824035644531, 52.607303619384766, -0.04800000041723251, 0.0, 0.527999997138977, 0.0, 0.0, 0.0, 0.0, 0.0, 1.6218597139775488E9, 2021-05-24 14:35:13.977
18.0, -301.4808044433594, -200.65872192382812, 38.27787780761719, -14.789434432983398, -0.04800000041723251, 0.0, 0.527999997138977, 0.0, 0.0, 0.0, 0.0, 0.0, 1.6218597139782555E9, 2021-05-24 14:35:13.978
18.0, -189.0818634033203, -102.06373596191406, 164.63787841796875, 91.03477478027344, -0.04800000041723251, 0.0, 0.527999997138977, 0.0, 0.0, 0.0, 0.0, 0.0, 1.6218597139782555E9, 2021-05-24 14:35:13.978
19.0, -168.31793212890625, -93.64148712158203, 169.11827087402344, 99.879638671875, -0.04800000041723251, 0.0, 0.527999997138977, 0.0, 0.0, 0.0, 0.0, 0.0, 1.6218597139919946E9, 2021-05-24 14:35:13.991
19.0, -235.18734741210938, -154.03338623046875, 94.91117858886719, 38.608856201171875, -0.04800000041723251, 0.0, 0.527999997138977, 0.0, 0.0, 0.0, 0.0, 0.0, 1.6218597139919946E9, 2021-05-24 14:35:13.991
20.0, -304.72705078125, -218.55787658691406, 23.43047332763672, -21.943862915039062, -0.04800000041723251, 0.0, 0.784000039100647, 0.0, 0.0, 0.0, 0.0, 0.0, 1.6218597140075636E9, 2021-05-24 14:35:14.007
20.0, -184.99789428710938, -114.71955871582031, 162.58840942382812, 94.07530975341797, -0.04800000041723251, 0.0, 0.784000039100647, 0.0, 0.0, 0.0, 0.0, 0.0, 1.6218597140075636E9, 2021-05-24 14:35:14.007
21.0, -174.0287628173828, -95.60867309570312, 170.8012237548828, 113.02164459228516, -0.04800000041723251, 0.0, 0.784000039100647, 0.0, 0.0, 0.0, 0.0, 0.0, 1.6218597140082657E9, 2021-05-24 14:35:14.008
21.0, -243.6769256591797, -147.29783630371094, 94.873779296875, 44.40944290161133, -0.04800000041723251, 0.0, 0.784000039100647, 0.0, 0.0, 0.0, 0.0, 0.0, 1.6218597140082657E9, 2021-05-24 14:35:14.008
22.0, -316.3132629394531, -212.54786682128906, 29.081462860107422, -17.42232322692871, -0.06400000303983688, 0.0, 0.784000039100647, 0.0, 0.0, 0.0, 0.0, 0.0, 1.6218597140219295E9, 2021-05-24 14:35:14.021
22.0, -188.34884643554688, -126.02902221679688, 164.1030731201172, 92.78878784179688, -0.06400000303983688, 0.0, 0.784000039100647, 0.0, 0.0, 0.0, 0.0, 0.0, 1.6218597140219295E9, 2021-05-24 14:35:14.021
23.0, -181.8339385986328, -98.74270629882812, 161.78807067871094, 98.26026153564453, -0.06400000303983688, 0.0, 0.784000039100647, 0.0, 0.0, 0.0, 0.0, 0.0, 1.6218597140375633E9, 2021-05-24 14:35:14.037
23.0, -245.76004028320312, -162.98670959472656, 89.87727355957031, 38.42934036254883, -0.06400000303983688, 0.0, 0.784000039100647, 0.0, 0.0, 0.0, 0.0, 0.0, 1.6218597140375633E9, 2021-05-24 14:35:14.037
24.0, -313.29888916015625, -212.91436767578125, 29.59756851196289, -14.269588470458984, -0.06400000303983688, 0.0, 0.784000039100647, 0.0, 0.0, 0.0, 0.0, 0.0, 1.62185971403828E9, 2021-05-24 14:35:14.038
24.0, -198.97389221191406, -122.73043060302734, 158.8485107421875, 81.70372772216797, -0.06400000303983688, 0.0, 0.784000039100647, 0.0, 0.0, 0.0, 0.0, 0.0, 1.62185971403828E9, 2021-05-24 14:35:14.038
25.0, -189.25389099121094, -96.45388793945312, 158.4633026123047, 97.47488403320312, -0.06400000303983688, 0.0, 0.784000039100647, 0.0, 0.0, 0.0, 0.0, 0.0, 1.6218597140519185E9, 2021-05-24 14:35:14.051
25.0, -259.45556640625, -154.21664428710938, 86.739501953125, 39.73830795288086, -0.06400000303983688, 0.0, 0.784000039100647, 0.0, 0.0, 0.0, 0.0, 0.0, 1.6218597140519185E9, 2021-05-24 14:35:14.051
26.0, -316.0140686035156, -221.2132110595703, 19.38016128540039, -23.19672966003418, -0.06400000303983688, 0.0, 0.784000039100647, 0.0, 0.0, 0.0, 0.0, 0.0, 1.6218597140997553E9, 2021-05-24 14:35:14.099
26.0, -203.9554443359375, -121.30926513671875, 147.01173400878906, 86.90218353271484, -0.06400000303983688, 0.0, 0.784000039100647, 0.0, 0.0, 0.0, 0.0, 0.0, 1.6218597140997553E9, 2021-05-24 14:35:14.099
27.0, -190.03927612304688, -94.77093505859375, 157.4834442138672, 103.2305908203125, -0.06400000303983688, 0.0, 0.784000039100647, 0.0, 0.0, 0.0, 0.0, 0.0, 1.621859714100474E9, 2021-05-24 14:35:14.100
27.0, -264.45953369140625, -158.56614685058594, 81.26802825927734, 42.64421081542969, -0.06400000303983688, 0.0, 0.784000039100647, 0.0, 0.0, 0.0, 0.0, 0.0, 1.621859714100474E9, 2021-05-24 14:35:14.100
28.0, -322.5140075683594, -215.96987915039062, 13.08965015411377, -21.4501953125, -0.06400000303983688, 0.0, 0.784000039100647, 0.0, 0.0, 0.0, 0.0, 0.0, 1.6218597141011589E9, 2021-05-24 14:35:14.101
28.0, -212.62452697753906, -115.7592544555664, 140.0667266845703, 94.31840515136719, -0.06400000303983688, 0.0, 0.784000039100647, 0.0, 0.0, 0.0, 0.0, 0.0, 1.6218597141011589E9, 2021-05-24 14:35:14.101
29.0, -189.23146057128906, -100.86323547363281, 151.70904541015625, 106.55162048339844, -0.06400000303983688, 0.0, 0.784000039100647, 0.0, 0.0, 0.0, 0.0, 0.0, 1.621859714101972E9, 2021-05-24 14:35:14.101
29.0, -250.65184020996094, -163.5963134765625, 75.24304962158203, 44.1439094543457, -0.06400000303983688, 0.0, 0.784000039100647, 0.0, 0.0, 0.0, 0.0, 0.0, 1.621859714101972E9, 2021-05-24 14:35:14.101
30.0, -320.77496337890625, -221.06361389160156, 8.186640739440918, -17.14183235168457, -0.06400000303983688, 0.0, 0.9120000600814819, 0.0, 0.0, 0.0, 0.0, 0.0, 1.6218597141125422E9, 2021-05-24 14:35:14.112
30.0, -200.50350952148438, -117.78253936767578, 146.8883056640625, 94.06783294677734, -0.06400000303983688, 0.0, 0.9120000600814819, 0.0, 0.0, 0.0, 0.0, 0.0, 1.6218597141125422E9, 2021-05-24 14:35:14.112
31.0, -214.9395294189453, -111.7276382446289, 142.47897338867188, 100.83705139160156, -0.06400000303983688, 0.0, 0.9120000600814819, 0.0, 0.0, 0.0, 0.0, 0.0, 1.621859714113279E9, 2021-05-24 14:35:14.113
31.0, -276.1504821777344, -163.70851135253906, 72.6886978149414, 41.866310119628906, -0.06400000303983688, 0.0, 0.9120000600814819, 0.0, 0.0, 0.0, 0.0, 0.0, 1.621859714113279E9, 2021-05-24 14:35:14.113
32.0, -336.5648193359375, -224.49684143066406, 12.098576545715332, -18.3572998046875, -0.06400000303983688, 0.0, 0.9120000600814819, 0.0, 0.0, 0.0, 0.0, 0.0, 1.62185971414394E9, 2021-05-24 14:35:14.143
32.0, -212.54225158691406, -119.16255950927734, 143.0063018798828, 91.51348114013672, -0.06400000303983688, 0.0, 0.9120000600814819, 0.0, 0.0, 0.0, 0.0, 0.0, 1.62185971414394E9, 2021-05-24 14:35:14.143
33.0, -200.41375732421875, -93.9219741821289, 151.32383728027344, 108.95263671875, -0.06400000303983688, 0.0, 0.9120000600814819, 0.0, 0.0, 0.0, 0.0, 0.0, 1.6218597141446395E9, 2021-05-24 14:35:14.144
33.0, -276.487060546875, -163.46542358398438, 77.25885009765625, 43.7923583984375, -0.06400000303983688, 0.0, 0.9120000600814819, 0.0, 0.0, 0.0, 0.0, 0.0, 1.6218597141446395E9, 2021-05-24 14:35:14.144
34.0, -337.30157470703125, -213.1612091064453, 14.465932846069336, -17.549480438232422, -0.06400000303983688, 0.0, 0.9120000600814819, 0.0, 0.0, 0.0, 0.0, 0.0, 1.6218597141454053E9, 2021-05-24 14:35:14.145
34.0, -214.4608154296875, -116.37259674072266, 140.8221893310547, 92.2913818359375, -0.06400000303983688, 0.0, 0.9120000600814819, 0.0, 0.0, 0.0, 0.0, 0.0, 1.6218597141454053E9, 2021-05-24 14:35:14.145
35.0, -203.17005920410156, -103.5522232055664, 151.67538452148438, 104.95094299316406, -0.06400000303983688, 0.0, 0.9120000600814819, 0.0, 0.0, 0.0, 0.0, 0.0, 1.6218597141461868E9, 2021-05-24 14:35:14.146
35.0, -262.90374755859375, -148.30386352539062, 80.71077728271484, 48.95716094970703, -0.06400000303983688, 0.0, 0.9120000600814819, 0.0, 0.0, 0.0, 0.0, 0.0, 1.6218597141461868E9, 2021-05-24 14:35:14.146
36.0, -333.7673645019531, -231.73728942871094, 15.453266143798828, -17.171751022338867, -0.06400000303983688, 0.0, 0.9120000600814819, 0.0, 0.0, 0.0, 0.0, 0.0, 1.6218597141568632E9, 2021-05-24 14:35:14.156
36.0, -210.6947479248047, -122.54717254638672, 153.86322021484375, 96.52494812011719, -0.06400000303983688, 0.0, 0.9120000600814819, 0.0, 0.0, 0.0, 0.0, 0.0, 1.6218597141568632E9, 2021-05-24 14:35:14.156
37.0, -199.34788513183594, -104.62557220458984, 157.73402404785156, 106.54414367675781, -0.06400000303983688, 0.0, 0.9120000600814819, 0.0, 0.0, 0.0, 0.0, 0.0, 1.6218597141719267E9, 2021-05-24 14:35:14.171
37.0, -260.3344421386719, -159.5198211669922, 88.99092102050781, 48.635528564453125, -0.06400000303983688, 0.0, 0.9120000600814819, 0.0, 0.0, 0.0, 0.0, 0.0, 1.6218597141719267E9, 2021-05-24 14:35:14.171
38.0, -334.5976257324219, -221.09727478027344, 14.929680824279785, -19.19129753112793, -0.06400000303983688, 0.0, 0.9120000600814819, 0.0, 0.0, 0.0, 0.0, 0.0, 1.621859714187654E9, 2021-05-24 14:35:14.187
38.0, -207.81875610351562, -124.76866912841797, 149.9438018798828, 94.49417877197266, -0.06400000303983688, 0.0, 0.9120000600814819, 0.0, 0.0, 0.0, 0.0, 0.0, 1.621859714187654E9, 2021-05-24 14:35:14.187
39.0, -198.9514617919922, -107.98400115966797, 155.9725341796875, 111.23397064208984, -0.06400000303983688, 0.0, 0.9120000600814819, 0.0, 0.0, 0.0, 0.0, 0.0, 1.6218597141882944E9, 2021-05-24 14:35:14.188
39.0, -262.26422119140625, -162.18637084960938, 86.94893646240234, 44.73855209350586, -0.06400000303983688, 0.0, 0.9120000600814819, 0.0, 0.0, 0.0, 0.0, 0.0, 1.6218597141882944E9, 2021-05-24 14:35:14.188
40.0, -325.7004089355469, -228.9585418701172, 14.611788749694824, -19.886917114257812, -0.06400000303983688, 0.0, 0.9760000705718994, 0.0, 0.0, 0.0, 0.0, 0.0, 1.6218597142019289E9, 2021-05-24 14:35:14.201
40.0, -210.41050720214844, -126.23845672607422, 151.05081176757812, 86.98446655273438, -0.06400000303983688, 0.0, 0.9760000705718994, 0.0, 0.0, 0.0, 0.0, 0.0, 1.6218597142019289E9, 2021-05-24 14:35:14.201
41.0, -198.55502319335938, -96.8914566040039, 158.22769165039062, 101.62617492675781, -0.06400000303983688, 0.0, 0.9760000705718994, 0.0, 0.0, 0.0, 0.0, 0.0, 1.6218597142175553E9, 2021-05-24 14:35:14.217
41.0, -269.6729736328125, -164.43405151367188, 86.54876708984375, 40.50872802734375, -0.06400000303983688, 0.0, 0.9760000705718994, 0.0, 0.0, 0.0, 0.0, 0.0, 1.6218597142175553E9, 2021-05-24 14:35:14.217
42.0, -335.656005859375, -225.9142608642578, 19.84764862060547, -16.270435333251953, -0.06400000303983688, 0.0, 0.9760000705718994, 0.0, 0.0, 0.0, 0.0, 0.0, 1.6218597142182472E9, 2021-05-24 14:35:14.218
42.0, -209.96546936035156, -115.5011978149414, 158.19029235839844, 97.37390899658203, -0.06400000303983688, 0.0, 0.9760000705718994, 0.0, 0.0, 0.0, 0.0, 0.0, 1.6218597142182472E9, 2021-05-24 14:35:14.218
43.0, -204.12747192382812, -104.88736724853516, 154.28582763671875, 105.24639129638672, -0.06400000303983688, 0.0, 0.9760000705718994, 0.0, 0.0, 0.0, 0.0, 0.0, 1.6218597142320094E9, 2021-05-24 14:35:14.232
43.0, -260.4690856933594, -159.45249938964844, 80.71077728271484, 38.68365478515625, -0.06400000303983688, 0.0, 0.9760000705718994, 0.0, 0.0, 0.0, 0.0, 0.0, 1.6218597142320094E9, 2021-05-24 14:35:14.232
44.0, -331.6244201660156, -218.19137573242188, 18.217052459716797, -20.754575729370117, -0.06400000303983688, 0.0, 0.9760000705718994, 0.0, 0.0, 0.0, 0.0, 0.0, 1.6218597142475953E9, 2021-05-24 14:35:14.247
44.0, -204.6809844970703, -120.31071472167969, 151.75765991210938, 86.77503204345703, -0.06400000303983688, 0.0, 0.9760000705718994, 0.0, 0.0, 0.0, 0.0, 0.0, 1.6218597142475953E9, 2021-05-24 14:35:14.247
45.0, -185.9403533935547, -97.97602844238281, 160.34446716308594, 91.2105484008789, -0.06400000303983688, 0.0, 0.9760000705718994, 0.0, 0.0, 0.0, 0.0, 0.0, 1.6218597142483075E9, 2021-05-24 14:35:14.248
45.0, -250.15817260742188, -159.3216094970703, 87.10601043701172, 40.49376678466797, -0.06400000303983688, 0.0, 0.9760000705718994, 0.0, 0.0, 0.0, 0.0, 0.0, 1.6218597142483075E9, 2021-05-24 14:35:14.248
46.0, -330.2742919921875, -219.62750244140625, 23.59876823425293, -25.268634796142578, -0.06400000303983688, 0.0, 0.9760000705718994, 0.0, 0.0, 0.0, 0.0, 0.0, 1.6218597142618823E9, 2021-05-24 14:35:14.261
46.0, -205.10733032226562, -117.91717529296875, 154.4092559814453, 84.02994537353516, -0.06400000303983688, 0.0, 0.9760000705718994, 0.0, 0.0, 0.0, 0.0, 0.0, 1.6218597142618823E9, 2021-05-24 14:35:14.261
47.0, -195.39480590820312, -100.07037353515625, 162.0760498046875, 98.3350601196289, -0.06400000303983688, 0.0, 0.9760000705718994, 0.0, 0.0, 0.0, 0.0, 0.0, 1.6218597142775896E9, 2021-05-24 14:35:14.277
47.0, -256.7104797363281, -166.35635375976562, 86.24209594726562, 42.55445098876953, -0.06400000303983688, 0.0, 0.9760000705718994, 0.0, 0.0, 0.0, 0.0, 0.0, 1.6218597142775896E9, 2021-05-24 14:35:14.277
48.0, -319.5408020019531, -224.24253845214844, 25.595874786376953, -19.23991584777832, -0.06400000303983688, 0.0, 0.9760000705718994, 0.0, 0.0, 0.0, 0.0, 0.0, 1.6218597142783144E9, 2021-05-24 14:35:14.278
48.0, -203.55152893066406, -118.11913299560547, 152.27001953125, 93.21139526367188, -0.06400000303983688, 0.0, 0.9760000705718994, 0.0, 0.0, 0.0, 0.0, 0.0, 1.6218597142783144E9, 2021-05-24 14:35:14.278
49.0, -190.20382690429688, -97.34398651123047, 158.4707794189453, 107.29212188720703, -0.06400000303983688, 0.0, 0.9760000705718994, 0.0, 0.0, 0.0, 0.0, 0.0, 1.6218597142918828E9, 2021-05-24 14:35:14.291
49.0, -267.18218994140625, -164.31063842773438, 79.07270812988281, 35.4299430847168, -0.06400000303983688, 0.0, 0.9760000705718994, 0.0, 0.0, 0.0, 0.0, 0.0, 1.6218597142918828E9, 2021-05-24 14:35:14.291
50.0, -318.7404479980469, -214.88156127929688, 21.078075408935547, -21.12482452392578, -0.06400000303983688, 0.0, 1.0240000486373901, 0.0, 0.0, 0.0, 0.0, 0.0, 1.6218597143077376E9, 2021-05-24 14:35:14.307
50.0, -199.47129821777344, -124.15532684326172, 151.57814025878906, 86.83860778808594, -0.06400000303983688, 0.0, 1.0240000486373901, 0.0, 0.0, 0.0, 0.0, 0.0, 1.6218597143077376E9, 2021-05-24 14:35:14.307
51.0, -179.0402374267578, -106.71243286132812, 158.91209411621094, 107.5501708984375, -0.06400000303983688, 0.0, 1.0240000486373901, 0.0, 0.0, 0.0, 0.0, 0.0, 1.6218597143084197E9, 2021-05-24 14:35:14.308
51.0, -249.37278747558594, -163.44297790527344, 87.27804565429688, 41.22678756713867, -0.06400000303983688, 0.0, 1.0240000486373901, 0.0, 0.0, 0.0, 0.0, 0.0, 1.6218597143084197E9, 2021-05-24 14:35:14.308
52.0, -321.0928649902344, -219.19740295410156, 16.75849151611328, -23.207948684692383, -0.06400000303983688, 0.0, 1.0240000486373901, 0.0, 0.0, 0.0, 0.0, 0.0, 1.6218597143219984E9, 2021-05-24 14:35:14.321
52.0, -189.93829345703125, -120.91657257080078, 152.07554626464844, 90.30549621582031, -0.06400000303983688, 0.0, 1.0240000486373901, 0.0, 0.0, 0.0, 0.0, 0.0, 1.6218597143219984E9, 2021-05-24 14:35:14.321
53.0, -184.7622833251953, -110.3775405883789, 157.0795440673828, 101.31201934814453, -0.06400000303983688, 0.0, 1.0240000486373901, 0.0, 0.0, 0.0, 0.0, 0.0, 1.6218597143377645E9, 2021-05-24 14:35:14.337
53.0, -257.75390625, -151.58001708984375, 87.69691467285156, 47.14704895019531, -0.06400000303983688, 0.0, 1.0240000486373901, 0.0, 0.0, 0.0, 0.0, 0.0, 1.6218597143377645E9, 2021-05-24 14:35:14.337
54.0, -318.8601379394531, -222.2566375732422, 16.8781681060791, -20.492782592773438, -0.06400000303983688, 0.0, 1.0240000486373901, 0.0, 0.0, 0.0, 0.0, 0.0, 1.6218597143384614E9, 2021-05-24 14:35:14.338
54.0, -202.28744506835938, -120.14989471435547, 151.4771728515625, 85.0845947265625, -0.06400000303983688, 0.0, 1.0240000486373901, 0.0, 0.0, 0.0, 0.0, 0.0, 1.6218597143384614E9, 2021-05-24 14:35:14.338
55.0, -177.72752380371094, -109.95118713378906, 159.3571319580078, 103.64197540283203, -0.06400000303983688, 0.0, 1.0240000486373901, 0.0, 0.0, 0.0, 0.0, 0.0, 1.6218597143519025E9, 2021-05-24 14:35:14.351
55.0, -245.7974395751953, -159.08973693847656, 87.06487274169922, 41.69801330566406, -0.06400000303983688, 0.0, 1.0240000486373901, 0.0, 0.0, 0.0, 0.0, 0.0, 1.6218597143519025E9, 2021-05-24 14:35:14.351
56.0, -316.22723388671875, -217.24517822265625, 20.457252502441406, -29.150650024414062, -0.06400000303983688, 0.0, 1.0240000486373901, 0.0, 0.0, 0.0, 0.0, 0.0, 1.621859714367638E9, 2021-05-24 14:35:14.367
56.0, -193.30421447753906, -117.59928131103516, 153.32467651367188, 89.65475463867188, -0.06400000303983688, 0.0, 1.0240000486373901, 0.0, 0.0, 0.0, 0.0, 0.0, 1.621859714367638E9, 2021-05-24 14:35:14.367
57.0, -183.3448486328125, -108.66466522216797, 159.37210083007812, 110.63932800292969, -0.06400000303983688, 0.0, 1.0240000486373901, 0.0, 0.0, 0.0, 0.0, 0.0, 1.6218597143683991E9, 2021-05-24 14:35:14.368
57.0, -246.0480194091797, -162.85581970214844, 86.65348052978516, 39.37553787231445, -0.06400000303983688, 0.0, 1.0240000486373901, 0.0, 0.0, 0.0, 0.0, 0.0, 1.6218597143683991E9, 2021-05-24 14:35:14.368
58.0, -309.0802917480469, -213.8755340576172, 23.329496383666992, -14.538861274719238, -0.06400000303983688, 0.0, 1.0240000486373901, 0.0, 0.0, 0.0, 0.0, 0.0, 1.6218597143818696E9, 2021-05-24 14:35:14.381
58.0, -195.77627563476562, -111.51820373535156, 158.2463836669922, 95.52265167236328, -0.06400000303983688, 0.0, 1.0240000486373901, 0.0, 0.0, 0.0, 0.0, 0.0, 1.6218597143818696E9, 2021-05-24 14:35:14.381
59.0, -179.50772094726562, -98.57067108154297, 160.98399353027344, 108.2944107055664, -0.06400000303983688, 0.0, 1.0240000486373901, 0.0, 0.0, 0.0, 0.0, 0.0, 1.6218597143976762E9, 2021-05-24 14:35:14.397
59.0, -258.02691650390625, -154.78884887695312, 78.85952758789062, 41.0921516418457, -0.06400000303983688, 0.0, 1.0240000486373901, 0.0, 0.0, 0.0, 0.0, 0.0, 1.6218597143976762E9, 2021-05-24 14:35:14.397
60.0, -322.2372741699219, -205.20269775390625, 14.907240867614746, -24.187803268432617, -0.06400000303983688, 0.0, 1.040000081062317, 0.0, 0.0, 0.0, 0.0, 0.0, 1.621859714398354E9, 2021-05-24 14:35:14.398
60.0, -200.36888122558594, -111.48080444335938, 148.56378173828125, 91.02729797363281, -0.06400000303983688, 0.0, 1.040000081062317, 0.0, 0.0, 0.0, 0.0, 0.0, 1.621859714398354E9, 2021-05-24 14:35:14.398
61.0, -185.03155517578125, -99.70760345458984, 159.97796630859375, 95.08134460449219, -0.06400000303983688, 0.0, 1.040000081062317, 0.0, 0.0, 0.0, 0.0, 0.0, 1.6218597144118967E9, 2021-05-24 14:35:14.411
61.0, -263.5769348144531, -143.93191528320312, 85.58386993408203, 33.642269134521484, -0.06400000303983688, 0.0, 1.040000081062317, 0.0, 0.0, 0.0, 0.0, 0.0, 1.6218597144118967E9, 2021-05-24 14:35:14.411
62.0, -311.7281494140625, -216.59817504882812, 15.090496063232422, -23.439823150634766, -0.08000000566244125, 0.0, 1.040000081062317, 0.0, 0.0, 0.0, 0.0, 0.0, 1.6218597144276795E9, 2021-05-24 14:35:14.427
62.0, -184.13023376464844, -106.85081481933594, 156.5559539794922, 90.76176452636719, -0.08000000566244125, 0.0, 1.040000081062317, 0.0, 0.0, 0.0, 0.0, 0.0, 1.6218597144276795E9, 2021-05-24 14:35:14.427
63.0, -185.1026153564453, -90.14842224121094, 159.0579376220703, 105.96819305419922, -0.08000000566244125, 0.0, 1.040000081062317, 0.0, 0.0, 0.0, 0.0, 0.0, 1.6218597144283297E9, 2021-05-24 14:35:14.428
63.0, -256.1382751464844, -144.96038818359375, 85.2771987915039, 39.79440689086914, -0.08000000566244125, 0.0, 1.040000081062317, 0.0, 0.0, 0.0, 0.0, 0.0, 1.6218597144283297E9, 2021-05-24 14:35:14.428
64.0, -322.8244323730469, -206.81834411621094, 21.31743049621582, -18.66023063659668, -0.08000000566244125, 0.0, 1.040000081062317, 0.0, 0.0, 0.0, 0.0, 0.0, 1.6218597144419525E9, 2021-05-24 14:35:14.441
64.0, -198.03892517089844, -111.57804870605469, 152.8235321044922, 89.26580047607422, -0.08000000566244125, 0.0, 1.040000081062317, 0.0, 0.0, 0.0, 0.0, 0.0, 1.6218597144419525E9, 2021-05-24 14:35:14.441
65.0, -183.2176971435547, -98.17050170898438, 155.1160888671875, 99.8160629272461, -0.08000000566244125, 0.0, 1.040000081062317, 0.0, 0.0, 0.0, 0.0, 0.0, 1.6218597144575713E9, 2021-05-24 14:35:14.457
65.0, -240.13523864746094, -161.0531768798828, 78.56781768798828, 43.41836929321289, -0.08000000566244125, 0.0, 1.040000081062317, 0.0, 0.0, 0.0, 0.0, 0.0, 1.6218597144575713E9, 2021-05-24 14:35:14.457
66.0, -307.96954345703125, -222.7353515625, 19.623254776000977, -13.693643569946289, -0.08000000566244125, 0.0, 1.040000081062317, 0.0, 0.0, 0.0, 0.0, 0.0, 1.6218597144583948E9, 2021-05-24 14:35:14.458
66.0, -194.90489196777344, -113.62003326416016, 149.2294921875, 95.2833023071289, -0.08000000566244125, 0.0, 1.040000081062317, 0.0, 0.0, 0.0, 0.0, 0.0, 1.6218597144583948E9, 2021-05-24 14:35:14.458
67.0, -184.1190185546875, -94.94670867919922, 157.19174194335938, 101.96276092529297, -0.08000000566244125, 0.0, 1.040000081062317, 0.0, 0.0, 0.0, 0.0, 0.0, 1.621859714471949E9, 2021-05-24 14:35:14.471
67.0, -258.2288818359375, -148.82745361328125, 80.54996490478516, 43.710079193115234, -0.08000000566244125, 0.0, 1.040000081062317, 0.0, 0.0, 0.0, 0.0, 0.0, 1.621859714471949E9, 2021-05-24 14:35:14.471
68.0, -317.4689025878906, -199.48065185546875, 25.5696964263916, -15.814167022705078, -0.08000000566244125, 0.0, 1.040000081062317, 0.0, 0.0, 0.0, 0.0, 0.0, 1.621859714487603E9, 2021-05-24 14:35:14.487
68.0, -197.470458984375, -103.5896224975586, 153.48175048828125, 90.79167938232422, -0.08000000566244125, 0.0, 1.040000081062317, 0.0, 0.0, 0.0, 0.0, 0.0, 1.621859714487603E9, 2021-05-24 14:35:14.487
69.0, -194.86000061035156, -87.87081909179688, 159.41697692871094, 103.32034301757812, -0.08000000566244125, 0.0, 1.040000081062317, 0.0, 0.0, 0.0, 0.0, 0.0, 1.6218597144883947E9, 2021-05-24 14:35:14.488
69.0, -254.35060119628906, -147.1407470703125, 84.5516586303711, 44.31594467163086, -0.08000000566244125, 0.0, 1.040000081062317, 0.0, 0.0, 0.0, 0.0, 0.0, 1.6218597144883947E9, 2021-05-24 14:35:14.488
70.0, -323.44525146484375, -208.46763610839844, 16.22368621826172, -20.844331741333008, -0.08000000566244125, 0.0, 1.040000081062317, 0.0, 0.0, 0.0, 0.0, 0.0, 1.6218597145019832E9, 2021-05-24 14:35:14.501
70.0, -199.78172302246094, -102.81172180175781, 146.87335205078125, 95.76948547363281, -0.08000000566244125, 0.0, 1.040000081062317, 0.0, 0.0, 0.0, 0.0, 0.0, 1.6218597145019832E9, 2021-05-24 14:35:14.501
71.0, -177.64151000976562, -84.93873596191406, 153.45932006835938, 108.62352752685547, -0.08000000566244125, 0.0, 1.040000081062317, 0.0, 0.0, 0.0, 0.0, 0.0, 1.6218597145175943E9, 2021-05-24 14:35:14.517
71.0, -253.6848907470703, -147.8700408935547, 72.4680404663086, 40.4301872253418, -0.08000000566244125, 0.0, 1.040000081062317, 0.0, 0.0, 0.0, 0.0, 0.0, 1.6218597145175943E9, 2021-05-24 14:35:14.517
72.0, -314.8958435058594, -208.69203186035156, 13.25794506072998, -20.545141220092773, -0.06400000303983688, 0.0, 1.040000081062317, 0.0, 0.0, 0.0, 0.0, 0.0, 1.6218597145182807E9, 2021-05-24 14:35:14.518
72.0, -189.77374267578125, -109.88387298583984, 145.10438537597656, 91.11705017089844, -0.06400000303983688, 0.0, 1.040000081062317, 0.0, 0.0, 0.0, 0.0, 0.0, 1.6218597145182807E9, 2021-05-24 14:35:14.518
73.0, -177.43955993652344, -87.87455749511719, 156.15203857421875, 112.46066284179688, -0.06400000303983688, 0.0, 1.040000081062317, 0.0, 0.0, 0.0, 0.0, 0.0, 1.621859714532068E9, 2021-05-24 14:35:14.532
73.0, -242.0986785888672, -154.5794219970703, 77.52812957763672, 38.855690002441406, -0.06400000303983688, 0.0, 1.040000081062317, 0.0, 0.0, 0.0, 0.0, 0.0, 1.621859714532068E9, 2021-05-24 14:35:14.532
74.0, -311.36163330078125, -207.28956604003906, 17.585010528564453, -19.587726593017578, -0.06400000303983688, 0.0, 1.040000081062317, 0.0, 0.0, 0.0, 0.0, 0.0, 1.6218597145475993E9, 2021-05-24 14:35:14.547
74.0, -188.984619140625, -101.33819580078125, 147.12393188476562, 85.53712463378906, -0.06400000303983688, 0.0, 1.040000081062317, 0.0, 0.0, 0.0, 0.0, 0.0, 1.6218597145475993E9, 2021-05-24 14:35:14.547
75.0, -188.8761749267578, -88.3944091796875, 155.3778839111328, 105.73258209228516, -0.06400000303983688, 0.0, 1.040000081062317, 0.0, 0.0, 0.0, 0.0, 0.0, 1.6218597145482843E9, 2021-05-24 14:35:14.548
75.0, -250.39752197265625, -151.8979034423828, 82.79764556884766, 45.99515914916992, -0.06400000303983688, 0.0, 1.040000081062317, 0.0, 0.0, 0.0, 0.0, 0.0, 1.6218597145482843E9, 2021-05-24 14:35:14.548
76.0, -314.14410400390625, -210.21417236328125, 16.040430068969727, -17.392404556274414, -0.06400000303983688, 0.0, 1.040000081062317, 0.0, 0.0, 0.0, 0.0, 0.0, 1.6218597145620196E9, 2021-05-24 14:35:14.562
76.0, -189.48951721191406, -100.61640167236328, 147.35205078125, 88.52529907226562, -0.06400000303983688, 0.0, 1.040000081062317, 0.0, 0.0, 0.0, 0.0, 0.0, 1.6218597145620196E9, 2021-05-24 14:35:14.562
77.0, -172.93296813964844, -83.26700592041016, 153.75851440429688, 99.0979995727539, -0.06400000303983688, 0.0, 1.040000081062317, 0.0, 0.0, 0.0, 0.0, 0.0, 1.6218597145776007E9, 2021-05-24 14:35:14.577
77.0, -241.60501098632812, -135.7415313720703, 81.73551177978516, 34.35285186767578, -0.06400000303983688, 0.0, 1.040000081062317, 0.0, 0.0, 0.0, 0.0, 0.0, 1.6218597145776007E9, 2021-05-24 14:35:14.577
78.0, -307.35992431640625, -197.60696411132812, 17.311996459960938, -28.514867782592773, -0.06400000303983688, 0.0, 1.040000081062317, 0.0, 0.0, 0.0, 0.0, 0.0, 1.6218597145783E9, 2021-05-24 14:35:14.578
78.0, -172.85069274902344, -91.80519104003906, 155.60601806640625, 86.03079223632812, -0.06400000303983688, 0.0, 1.040000081062317, 0.0, 0.0, 0.0, 0.0, 0.0, 1.6218597145783E9, 2021-05-24 14:35:14.578
79.0, -180.88400268554688, -73.80879211425781, 158.23143005371094, 97.04105377197266, -0.06400000303983688, 0.0, 1.040000081062317, 0.0, 0.0, 0.0, 0.0, 0.0, 1.6218597145919104E9, 2021-05-24 14:35:14.591
79.0, -247.54771423339844, -131.8370819091797, 85.37069702148438, 39.15114212036133, -0.06400000303983688, 0.0, 1.040000081062317, 0.0, 0.0, 0.0, 0.0, 0.0, 1.6218597145919104E9, 2021-05-24 14:35:14.591
80.0, -303.9977722167969, -176.72335815429688, 24.65715980529785, -16.853858947753906, -0.06400000303983688, 0.0, 1.040000081062317, 0.0, 0.0, 0.0, 0.0, 0.0, 1.6218597146077669E9, 2021-05-24 14:35:14.607
80.0, -179.54885864257812, -75.970458984375, 160.44171142578125, 92.83366394042969, -0.06400000303983688, 0.0, 1.040000081062317, 0.0, 0.0, 0.0, 0.0, 0.0, 1.6218597146077669E9, 2021-05-24 14:35:14.607
81.0, -172.51409912109375, -56.130287170410156, 161.53001403808594, 105.39972686767578, -0.06400000303983688, 0.0, 1.040000081062317, 0.0, 0.0, 0.0, 0.0, 0.0, 1.621859714608406E9, 2021-05-24 14:35:14.608
81.0, -239.91831970214844, -114.88037872314453, 92.71212005615234, 33.33559799194336, -0.06400000303983688, 0.0, 1.040000081062317, 0.0, 0.0, 0.0, 0.0, 0.0, 1.621859714608406E9, 2021-05-24 14:35:14.608
82.0, -300.85626220703125, -175.1675567626953, 23.793243408203125, -34.36033248901367, -0.06400000303983688, 0.0, 1.040000081062317, 0.0, 0.0, 0.0, 0.0, 0.0, 1.621859714621938E9, 2021-05-24 14:35:14.621
82.0, -180.6409149169922, -62.428279876708984, 159.07664489746094, 89.02645111083984, -0.06400000303983688, 0.0, 1.040000081062317, 0.0, 0.0, 0.0, 0.0, 0.0, 1.621859714621938E9, 2021-05-24 14:35:14.621
83.0, -174.4476318359375, -39.43911361694336, 164.72389221191406, 100.9417724609375, -0.06400000303983688, 0.0, 1.040000081062317, 0.0, 0.0, 0.0, 0.0, 0.0, 1.6218597146376472E9, 2021-05-24 14:35:14.637
83.0, -247.22235107421875, -103.7579116821289, 89.41352844238281, 39.71586608886719, -0.06400000303983688, 0.0, 1.040000081062317, 0.0, 0.0, 0.0, 0.0, 0.0, 1.6218597146376472E9, 2021-05-24 14:35:14.637
84.0, -300.04095458984375, -164.68836975097656, 27.114274978637695, -26.82069206237793, -0.06400000303983688, 0.0, 1.040000081062317, 0.0, 0.0, 0.0, 0.0, 0.0, 1.6218597146383471E9, 2021-05-24 14:35:14.638
84.0, -196.7112579345703, -77.57487487792969, 146.02066040039062, 74.9083251953125, -0.06400000303983688, 0.0, 1.040000081062317, 0.0, 0.0, 0.0, 0.0, 0.0, 1.6218597146383471E9, 2021-05-24 14:35:14.638
85.0, -181.63572692871094, -55.96573257446289, 161.1747283935547, 100.14517211914062, -0.06400000303983688, 0.0, 1.040000081062317, 0.0, 0.0, 0.0, 0.0, 0.0, 1.6218597146519043E9, 2021-05-24 14:35:14.651
85.0, -249.4027099609375, -108.2495346069336, 93.88270568847656, 37.752418518066406, -0.06400000303983688, 0.0, 1.040000081062317, 0.0, 0.0, 0.0, 0.0, 0.0, 1.6218597146519043E9, 2021-05-24 14:35:14.651
86.0, -313.9159851074219, -168.49183654785156, 25.1882266998291, -23.98210906982422, -0.06400000303983688, 0.0, 1.040000081062317, 0.0, 0.0, 0.0, 0.0, 0.0, 1.6218597146676764E9, 2021-05-24 14:35:14.667
86.0, -192.8030548095703, -65.5136947631836, 149.2743682861328, 83.10244750976562, -0.06400000303983688, 0.0, 1.040000081062317, 0.0, 0.0, 0.0, 0.0, 0.0, 1.6218597146676764E9, 2021-05-24 14:35:14.667
87.0, -182.45849609375, -48.63179016113281, 159.08412170410156, 97.48236083984375, -0.06400000303983688, 0.0, 1.040000081062317, 0.0, 0.0, 0.0, 0.0, 0.0, 1.621859714668362E9, 2021-05-24 14:35:14.668
87.0, -251.78128051757812, -125.88690185546875, 83.62042236328125, 39.77196502685547, -0.06400000303983688, 0.0, 1.040000081062317, 0.0, 0.0, 0.0, 0.0, 0.0, 1.621859714668362E9, 2021-05-24 14:35:14.668
88.0, -318.1009216308594, -177.39280700683594, 15.4495267868042, -21.39409828186035, -0.06400000303983688, 0.0, 1.040000081062317, 0.0, 0.0, 0.0, 0.0, 0.0, 1.6218597146984277E9, 2021-05-24 14:35:14.698
88.0, -202.5978546142578, -80.38728332519531, 145.42227172851562, 87.32105255126953, -0.06400000303983688, 0.0, 1.040000081062317, 0.0, 0.0, 0.0, 0.0, 0.0, 1.6218597146984277E9, 2021-05-24 14:35:14.698
89.0, -195.1405029296875, -63.015445709228516, 157.38995361328125, 98.19668579101562, -0.06400000303983688, 0.0, 1.040000081062317, 0.0, 0.0, 0.0, 0.0, 0.0, 1.6218597146991472E9, 2021-05-24 14:35:14.699
89.0, -252.58535766601562, -113.5901107788086, 93.6657943725586, 36.989479064941406, -0.06400000303983688, 0.0, 1.040000081062317, 0.0, 0.0, 0.0, 0.0, 0.0, 1.6218597146991472E9, 2021-05-24 14:35:14.699
90.0, -316.3431701660156, -180.9344940185547, 22.13646697998047, -23.611858367919922, -0.06400000303983688, 0.0, 1.040000081062317, 0.0, 0.0, 0.0, 0.0, 0.0, 1.6218597146998703E9, 2021-05-24 14:35:14.699
90.0, -191.9167022705078, -77.34674072265625, 152.16531372070312, 86.01956939697266, -0.06400000303983688, 0.0, 1.040000081062317, 0.0, 0.0, 0.0, 0.0, 0.0, 1.6218597146998703E9, 2021-05-24 14:35:14.699
91.0, -186.98004150390625, -61.49330520629883, 157.89483642578125, 97.6917953491211, -0.06400000303983688, 0.0, 1.040000081062317, 0.0, 0.0, 0.0, 0.0, 0.0, 1.6218597147119422E9, 2021-05-24 14:35:14.711
91.0, -242.10617065429688, -128.18319702148438, 85.96907806396484, 44.45058059692383, -0.06400000303983688, 0.0, 1.040000081062317, 0.0, 0.0, 0.0, 0.0, 0.0, 1.6218597147119422E9, 2021-05-24 14:35:14.711
92.0, -308.6651611328125, -192.78997802734375, 26.01474380493164, -17.844932556152344, -0.06400000303983688, 0.0, 1.040000081062317, 0.0, 0.0, 0.0, 0.0, 0.0, 1.6218597147275617E9, 2021-05-24 14:35:14.727
92.0, -188.1356658935547, -90.20451354980469, 155.19088745117188, 89.87914276123047, -0.06400000303983688, 0.0, 1.040000081062317, 0.0, 0.0, 0.0, 0.0, 0.0, 1.6218597147275617E9, 2021-05-24 14:35:14.727
93.0, -178.53907775878906, -67.50332641601562, 157.9584197998047, 109.0536117553711, -0.06400000303983688, 0.0, 1.040000081062317, 0.0, 0.0, 0.0, 0.0, 0.0, 1.6218597147282972E9, 2021-05-24 14:35:14.728
93.0, -253.03041076660156, -136.24642944335938, 87.04617309570312, 42.94340133666992, -0.06400000303983688, 0.0, 1.040000081062317, 0.0, 0.0, 0.0, 0.0, 0.0, 1.6218597147282972E9, 2021-05-24 14:35:14.728
94.0, -313.7701416015625, -188.41429138183594, 23.191120147705078, -19.770980834960938, -0.06400000303983688, 0.0, 1.040000081062317, 0.0, 0.0, 0.0, 0.0, 0.0, 1.6218597147419508E9, 2021-05-24 14:35:14.741
94.0, -203.6188507080078, -83.517578125, 157.7452392578125, 94.32962799072266, -0.06400000303983688, 0.0, 1.040000081062317, 0.0, 0.0, 0.0, 0.0, 0.0, 1.6218597147419508E9, 2021-05-24 14:35:14.741
95.0, -194.42617797851562, -66.34769439697266, 162.52857971191406, 112.79724884033203, -0.06400000303983688, 0.0, 1.040000081062317, 0.0, 0.0, 0.0, 0.0, 0.0, 1.6218597147575245E9, 2021-05-24 14:35:14.757
95.0, -254.5712432861328, -127.57733917236328, 82.89114379882812, 46.62346267700195, -0.06400000303983688, 0.0, 1.040000081062317, 0.0, 0.0, 0.0, 0.0, 0.0, 1.6218597147575245E9, 2021-05-24 14:35:14.757
96.0, -311.17462158203125, -185.79261779785156, 20.61058807373047, -12.59411334991455, -0.06400000303983688, 0.0, 1.040000081062317, 0.0, 0.0, 0.0, 0.0, 0.0, 1.6218597147583025E9, 2021-05-24 14:35:14.758
96.0, -193.37527465820312, -95.92656707763672, 152.0643310546875, 94.6400375366211, -0.06400000303983688, 0.0, 1.040000081062317, 0.0, 0.0, 0.0, 0.0, 0.0, 1.6218597147583025E9, 2021-05-24 14:35:14.758
97.0, -179.67227172851562, -69.5901870727539, 161.27197265625, 107.5501708984375, -0.06400000303983688, 0.0, 1.040000081062317, 0.0, 0.0, 0.0, 0.0, 0.0, 1.6218597147720509E9, 2021-05-24 14:35:14.772
97.0, -246.78103637695312, -132.79823303222656, 79.94036102294922, 36.899723052978516, -0.06400000303983688, 0.0, 1.040000081062317, 0.0, 0.0, 0.0, 0.0, 0.0, 1.6218597147720509E9, 2021-05-24 14:35:14.772
98.0, -310.0040588378906, -186.27133178710938, 22.757291793823242, -18.675189971923828, -0.06400000303983688, 0.0, 1.040000081062317, 0.0, 0.0, 0.0, 0.0, 0.0, 1.621859714787603E9, 2021-05-24 14:35:14.787
98.0, -196.48312377929688, -94.0977554321289, 150.38885498046875, 85.42866516113281, -0.06400000303983688, 0.0, 1.040000081062317, 0.0, 0.0, 0.0, 0.0, 0.0, 1.621859714787603E9, 2021-05-24 14:35:14.787
99.0, -183.15786743164062, -78.46497344970703, 160.77456665039062, 98.78384399414062, -0.06400000303983688, 0.0, 1.040000081062317, 0.0, 0.0, 0.0, 0.0, 0.0, 1.6218597147883947E9, 2021-05-24 14:35:14.788
99.0, -252.88455200195312, -131.47805786132812, 89.95207214355469, 39.77944564819336, -0.06400000303983688, 0.0, 1.040000081062317, 0.0, 0.0, 0.0, 0.0, 0.0, 1.6218597147883947E9, 2021-05-24 14:35:14.788
100.0, -310.43414306640625, -193.00314331054688, 17.37557601928711, -28.881378173828125, -0.06400000303983688, 0.0, 1.055999994277954, 0.0, 0.0, 0.0, 0.0, 0.0, 1.6218597148026848E9, 2021-05-24 14:35:14.802
100.0, -191.38937377929688, -88.54399871826172, 146.48440551757812, 87.21633911132812, -0.06400000303983688, 0.0, 1.055999994277954, 0.0, 0.0, 0.0, 0.0, 0.0, 1.6218597148026848E9, 2021-05-24 14:35:14.802
0.0, -176.98141479492188, -73.37123107910156, 157.94345092773438, 106.84333038330078, -0.06400000303983688, 0.0, 1.055999994277954, 0.0, 0.0, 0.0, 0.0, 0.0, 1.6218597148035212E9, 2021-05-24 14:35:14.803
1.0, -240.70556640625, -129.14810180664062, 85.48663330078125, 51.0103645324707, -0.06400000303983688, 0.0, 1.055999994277954, 0.0, 0.0, 0.0, 0.0, 0.0, 1.6218597148168755E9, 2021-05-24 14:35:14.816
1.0, -313.5849914550781, -200.06407165527344, 15.666440963745117, -15.514974594116211, -0.06400000303983688, 0.0, 1.055999994277954, 0.0, 0.0, 0.0, 0.0, 0.0, 1.6218597148168755E9, 2021-05-24 14:35:14.816
2.0, -176.92906188964844, -104.70784759521484, 146.589111328125, 90.5672836303711, -0.06400000303983688, 0.0, 1.055999994277954, 0.0, 0.0, 0.0, 0.0, 0.0, 1.6218597148327441E9, 2021-05-24 14:35:14.832
2.0, -171.8278350830078, -84.17953491210938, 152.9581756591797, 104.30767822265625, -0.06400000303983688, 0.0, 1.055999994277954, 0.0, 0.0, 0.0, 0.0, 0.0, 1.6218597148327441E9, 2021-05-24 14:35:14.832
3.0, -229.46717834472656, -133.3704376220703, 81.39892578125, 51.605010986328125, -0.06400000303983688, 0.0, 1.055999994277954, 0.0, 0.0, 0.0, 0.0, 0.0, 1.62185971483343E9, 2021-05-24 14:35:14.833
3.0, -302.2979736328125, -182.61744689941406, 13.145748138427734, -16.390111923217773, -0.06400000303983688, 0.0, 1.055999994277954, 0.0, 0.0, 0.0, 0.0, 0.0, 1.62185971483343E9, 2021-05-24 14:35:14.833
4.0, -175.79212951660156, -100.98664855957031, 147.61758422851562, 99.29621124267578, -0.06400000303983688, 0.0, 1.055999994277954, 0.0, 0.0, 0.0, 0.0, 0.0, 1.6218597148633316E9, 2021-05-24 14:35:14.863
4.0, -166.0122833251953, -77.156005859375, 153.50045776367188, 106.71991729736328, -0.06400000303983688, 0.0, 1.055999994277954, 0.0, 0.0, 0.0, 0.0, 0.0, 1.6218597148633316E9, 2021-05-24 14:35:14.863
5.0, -237.33218383789062, -134.3091583251953, 76.81754302978516, 40.50498580932617, -0.06400000303983688, 0.0, 1.055999994277954, 0.0, 0.0, 0.0, 0.0, 0.0, 1.6218597148640523E9, 2021-05-24 14:35:14.864
5.0, -292.4283752441406, -193.41079711914062, 11.907841682434082, -24.980661392211914, -0.06400000303983688, 0.0, 1.055999994277954, 0.0, 0.0, 0.0, 0.0, 0.0, 1.6218597148640523E9, 2021-05-24 14:35:14.864
6.0, -178.9934844970703, -88.00545501708984, 150.0186004638672, 89.363037109375, -0.06400000303983688, 0.0, 1.055999994277954, 0.0, 0.0, 0.0, 0.0, 0.0, 1.621859714864804E9, 2021-05-24 14:35:14.864
6.0, -166.42367553710938, -72.65316772460938, 150.65438842773438, 101.24095916748047, -0.06400000303983688, 0.0, 1.055999994277954, 0.0, 0.0, 0.0, 0.0, 0.0, 1.621859714864804E9, 2021-05-24 14:35:14.864
7.0, -230.1964569091797, -125.6737289428711, 79.67108917236328, 44.54781723022461, -0.06400000303983688, 0.0, 1.055999994277954, 0.0, 0.0, 0.0, 0.0, 0.0, 1.6218597148769467E9, 2021-05-24 14:35:14.876
7.0, -289.5860595703125, -185.53829956054688, 19.765371322631836, -19.123977661132812, -0.06400000303983688, 0.0, 1.055999994277954, 0.0, 0.0, 0.0, 0.0, 0.0, 1.6218597148769467E9, 2021-05-24 14:35:14.876
8.0, -179.0308837890625, -86.79747009277344, 151.02464294433594, 98.7127914428711, -0.06400000303983688, 0.0, 1.055999994277954, 0.0, 0.0, 0.0, 0.0, 0.0, 1.621859714892364E9, 2021-05-24 14:35:14.892
8.0, -170.98635864257812, -83.03138732910156, 148.78070068359375, 106.66007995605469, -0.06400000303983688, 0.0, 1.055999994277954, 0.0, 0.0, 0.0, 0.0, 0.0, 1.621859714892364E9, 2021-05-24 14:35:14.892
9.0, -236.79364013671875, -138.87184143066406, 74.09489440917969, 30.130504608154297, -0.06400000303983688, 0.0, 1.055999994277954, 0.0, 0.0, 0.0, 0.0, 0.0, 1.6218597149077144E9, 2021-05-24 14:35:14.907
9.0, -305.9668273925781, -198.22030639648438, 11.051403999328613, -18.473236083984375, -0.06400000303983688, 0.0, 1.055999994277954, 0.0, 0.0, 0.0, 0.0, 0.0, 1.6218597149077144E9, 2021-05-24 14:35:14.907
10.0, -185.83375549316406, -96.57730865478516, 145.3175506591797, 91.86128997802734, -0.06400000303983688, 0.0, 1.040000081062317, 0.0, 0.0, 0.0, 0.0, 0.0, 1.6218597149083133E9, 2021-05-24 14:35:14.908
10.0, -180.0518798828125, -83.74571228027344, 150.22430419921875, 98.53327178955078, -0.06400000303983688, 0.0, 1.040000081062317, 0.0, 0.0, 0.0, 0.0, 0.0, 1.6218597149083133E9, 2021-05-24 14:35:14.908
11.0, -244.42677307128906, -137.4020538330078, 79.34945678710938, 47.2555046081543, -0.06400000303983688, 0.0, 1.040000081062317, 0.0, 0.0, 0.0, 0.0, 0.0, 1.6218597149225852E9, 2021-05-24 14:35:14.922
11.0, -303.184326171875, -178.07720947265625, 14.738945960998535, -10.24919605255127, -0.06400000303983688, 0.0, 1.040000081062317, 0.0, 0.0, 0.0, 0.0, 0.0, 1.6218597149225852E9, 2021-05-24 14:35:14.922
12.0, -180.48944091796875, -100.19004821777344, 136.32308959960938, 104.24036407470703, -0.06400000303983688, 0.0, 1.040000081062317, 0.0, 0.0, 0.0, 0.0, 0.0, 1.62185971492329E9, 2021-05-24 14:35:14.923
12.0, -176.3979949951172, -78.74920654296875, 144.5172119140625, 109.17703247070312, -0.06400000303983688, 0.0, 1.040000081062317, 0.0, 0.0, 0.0, 0.0, 0.0, 1.62185971492329E9, 2021-05-24 14:35:14.923
13.0, -236.9806365966797, -132.10635375976562, 74.00140380859375, 52.18843460083008, -0.06400000303983688, 0.0, 1.040000081062317, 0.0, 0.0, 0.0, 0.0, 0.0, 1.62185971493689E9, 2021-05-24 14:35:14.936
13.0, -301.49017333984375, -197.77899169921875, 15.270011901855469, -8.727056503295898, -0.06400000303983688, 0.0, 1.040000081062317, 0.0, 0.0, 0.0, 0.0, 0.0, 1.62185971493689E9, 2021-05-24 14:35:14.936
14.0, -184.16201782226562, -98.06578826904297, 143.2344207763672, 98.2939224243164, -0.06400000303983688, 0.0, 1.040000081062317, 0.0, 0.0, 0.0, 0.0, 0.0, 1.621859714952544E9, 2021-05-24 14:35:14.952
14.0, -163.65240478515625, -63.8157844543457, 148.4104461669922, 109.96240997314453, -0.06400000303983688, 0.0, 1.040000081062317, 0.0, 0.0, 0.0, 0.0, 0.0, 1.621859714952544E9, 2021-05-24 14:35:14.952
15.0, -241.27777099609375, -138.67361450195312, 76.19298553466797, 46.066219329833984, -0.06400000303983688, 0.0, 1.040000081062317, 0.0, 0.0, 0.0, 0.0, 0.0, 1.621859714953246E9, 2021-05-24 14:35:14.953
15.0, -307.432861328125, -192.5207061767578, 12.809157371520996, -12.739969253540039, -0.06400000303983688, 0.0, 1.040000081062317, 0.0, 0.0, 0.0, 0.0, 0.0, 1.621859714953246E9, 2021-05-24 14:35:14.953
16.0, -179.86862182617188, -101.12128448486328, 144.2217559814453, 98.32009887695312, -0.06400000303983688, 0.0, 1.040000081062317, 0.0, 0.0, 0.0, 0.0, 0.0, 1.6218597149669917E9, 2021-05-24 14:35:14.966
16.0, -173.97079467773438, -64.9676742553711, 156.260498046875, 114.16231536865234, -0.06400000303983688, 0.0, 1.040000081062317, 0.0, 0.0, 0.0, 0.0, 0.0, 1.6218597149669917E9, 2021-05-24 14:35:14.966
17.0, -236.47947692871094, -127.32676696777344, 84.41702270507812, 51.937862396240234, -0.06400000303983688, 0.0, 1.040000081062317, 0.0, 0.0, 0.0, 0.0, 0.0, 1.621859714982571E9, 2021-05-24 14:35:14.982
17.0, -303.8425598144531, -181.30848693847656, 16.44808006286621, -14.3107271194458, -0.06400000303983688, 0.0, 1.040000081062317, 0.0, 0.0, 0.0, 0.0, 0.0, 1.621859714982571E9, 2021-05-24 14:35:14.982
18.0, -182.94654846191406, -85.31646728515625, 155.7107391357422, 101.7682876586914, -0.06400000303983688, 0.0, 1.040000081062317, 0.0, 0.0, 0.0, 0.0, 0.0, 1.6218597149832847E9, 2021-05-24 14:35:14.983
18.0, -162.92312622070312, -75.14019775390625, 157.33010864257812, 115.51242065429688, -0.06400000303983688, 0.0, 1.040000081062317, 0.0, 0.0, 0.0, 0.0, 0.0, 1.6218597149832847E9, 2021-05-24 14:35:14.983
19.0, -243.48057556152344, -134.22314453125, 86.74324035644531, 51.49281311035156, -0.06400000303983688, 0.0, 1.040000081062317, 0.0, 0.0, 0.0, 0.0, 0.0, 1.6218597149968662E9, 2021-05-24 14:35:14.996
19.0, -303.00482177734375, -193.4033203125, 18.246971130371094, -13.73852252960205, -0.06400000303983688, 0.0, 1.040000081062317, 0.0, 0.0, 0.0, 0.0, 0.0, 1.6218597149968662E9, 2021-05-24 14:35:14.996
20.0, -188.227294921875, -93.51058959960938, 146.8097686767578, 92.32504272460938, -0.06400000303983688, 0.0, 1.040000081062317, 0.0, 0.0, 0.0, 0.0, 0.0, 1.6218597150125566E9, 2021-05-24 14:35:15.012
20.0, -177.4152374267578, -73.0009765625, 154.55136108398438, 108.51506805419922, -0.06400000303983688, 0.0, 1.040000081062317, 0.0, 0.0, 0.0, 0.0, 0.0, 1.6218597150125566E9, 2021-05-24 14:35:15.012
21.0, -245.73199462890625, -128.8339385986328, 82.35633850097656, 46.8441162109375, -0.06400000303983688, 0.0, 1.040000081062317, 0.0, 0.0, 0.0, 0.0, 0.0, 1.6218597150132668E9, 2021-05-24 14:35:15.013
21.0, -310.7501525878906, -194.46170043945312, 18.078676223754883, -20.634897232055664, -0.06400000303983688, 0.0, 1.040000081062317, 0.0, 0.0, 0.0, 0.0, 0.0, 1.6218597150132668E9, 2021-05-24 14:35:15.013
22.0, -191.39498901367188, -88.65245819091797, 155.239501953125, 90.34663391113281, -0.06400000303983688, 0.0, 1.040000081062317, 0.0, 0.0, 0.0, 0.0, 0.0, 1.6218597150268953E9, 2021-05-24 14:35:15.026
22.0, -164.7033233642578, -68.000732421875, 158.3473663330078, 103.15579223632812, -0.06400000303983688, 0.0, 1.040000081062317, 0.0, 0.0, 0.0, 0.0, 0.0, 1.6218597150268953E9, 2021-05-24 14:35:15.026
23.0, -238.56634521484375, -126.9041519165039, 86.10371398925781, 43.73625946044922, -0.06400000303983688, 0.0, 1.040000081062317, 0.0, 0.0, 0.0, 0.0, 0.0, 1.6218597150427048E9, 2021-05-24 14:35:15.042
23.0, -306.60260009765625, -196.96743774414062, 18.071197509765625, -19.086580276489258, -0.06400000303983688, 0.0, 1.040000081062317, 0.0, 0.0, 0.0, 0.0, 0.0, 1.6218597150427048E9, 2021-05-24 14:35:15.042
24.0, -179.2739715576172, -100.79965209960938, 147.2660369873047, 99.55426788330078, -0.06400000303983688, 0.0, 1.040000081062317, 0.0, 0.0, 0.0, 0.0, 0.0, 1.6218597150433288E9, 2021-05-24 14:35:15.043
24.0, -165.3652801513672, -78.99604034423828, 152.69638061523438, 112.15025329589844, -0.06400000303983688, 0.0, 1.040000081062317, 0.0, 0.0, 0.0, 0.0, 0.0, 1.6218597150433288E9, 2021-05-24 14:35:15.043
25.0, -232.33567810058594, -137.58157348632812, 80.58736419677734, 49.95571517944336, -0.06400000303983688, 0.0, 1.040000081062317, 0.0, 0.0, 0.0, 0.0, 0.0, 1.6218597150568702E9, 2021-05-24 14:35:15.056
25.0, -307.7096252441406, -200.1089630126953, 10.292204856872559, -13.420631408691406, -0.06400000303983688, 0.0, 1.040000081062317, 0.0, 0.0, 0.0, 0.0, 0.0, 1.6218597150568702E9, 2021-05-24 14:35:15.056
26.0, -183.5636444091797, -94.621337890625, 149.75306701660156, 94.3034439086914, -0.06400000303983688, 0.0, 1.040000081062317, 0.0, 0.0, 0.0, 0.0, 0.0, 1.6218597150726323E9, 2021-05-24 14:35:15.072
26.0, -181.84703063964844, -90.23069763183594, 152.84971618652344, 107.30333709716797, -0.06400000303983688, 0.0, 1.040000081062317, 0.0, 0.0, 0.0, 0.0, 0.0, 1.6218597150726323E9, 2021-05-24 14:35:15.072
27.0, -237.93057250976562, -134.02867126464844, 83.59050750732422, 44.59269714355469, -0.06400000303983688, 0.0, 1.040000081062317, 0.0, 0.0, 0.0, 0.0, 0.0, 1.621859715073391E9, 2021-05-24 14:35:15.073
27.0, -313.7757263183594, -197.02728271484375, 19.271703720092773, -9.250642776489258, -0.06400000303983688, 0.0, 1.040000081062317, 0.0, 0.0, 0.0, 0.0, 0.0, 1.621859715073391E9, 2021-05-24 14:35:15.073
28.0, -190.20944213867188, -88.40562438964844, 150.5384521484375, 98.57067108154297, -0.06400000303983688, 0.0, 1.040000081062317, 0.0, 0.0, 0.0, 0.0, 0.0, 1.6218597150868633E9, 2021-05-24 14:35:15.086
28.0, -174.5803985595703, -71.20582580566406, 150.77780151367188, 110.08956146240234, -0.06400000303983688, 0.0, 1.040000081062317, 0.0, 0.0, 0.0, 0.0, 0.0, 1.6218597150868633E9, 2021-05-24 14:35:15.086
29.0, -241.39744567871094, -125.82706451416016, 88.18309783935547, 53.81155014038086, -0.06400000303983688, 0.0, 1.040000081062317, 0.0, 0.0, 0.0, 0.0, 0.0, 1.6218597151025512E9, 2021-05-24 14:35:15.102
29.0, -308.7904357910156, -194.47293090820312, 14.611788749694824, -14.912851333618164, -0.06400000303983688, 0.0, 1.040000081062317, 0.0, 0.0, 0.0, 0.0, 0.0, 1.6218597151025512E9, 2021-05-24 14:35:15.102
30.0, -175.1264190673828, -107.9092025756836, 148.9302978515625, 97.66188049316406, -0.06400000303983688, 0.0, 1.040000081062317, 0.0, 0.0, 0.0, 0.0, 0.0, 1.6218597151033008E9, 2021-05-24 14:35:15.103
30.0, -163.05029296875, -84.4637680053711, 151.1256103515625, 103.81027221679688, -0.06400000303983688, 0.0, 1.040000081062317, 0.0, 0.0, 0.0, 0.0, 0.0, 1.6218597151033008E9, 2021-05-24 14:35:15.103
31.0, -232.0177764892578, -135.26657104492188, 82.55455017089844, 46.53370666503906, -0.06400000303983688, 0.0, 1.040000081062317, 0.0, 0.0, 0.0, 0.0, 0.0, 1.621859715133328E9, 2021-05-24 14:35:15.133
31.0, -303.67425537109375, -206.85198974609375, 13.06721019744873, -16.68182373046875, -0.06400000303983688, 0.0, 1.040000081062317, 0.0, 0.0, 0.0, 0.0, 0.0, 1.621859715133328E9, 2021-05-24 14:35:15.133
32.0, -180.762451171875, -106.4244613647461, 143.66078186035156, 102.8902587890625, -0.06400000303983688, 0.0, 1.040000081062317, 0.0, 0.0, 0.0, 0.0, 0.0, 1.621859715134029E9, 2021-05-24 14:35:15.134
32.0, -171.69692993164062, -83.34554290771484, 152.363525390625, 112.50553894042969, -0.06400000303983688, 0.0, 1.040000081062317, 0.0, 0.0, 0.0, 0.0, 0.0, 1.621859715134029E9, 2021-05-24 14:35:15.134
33.0, -229.67286682128906, -136.0856170654297, 83.54562377929688, 52.13981628417969, -0.06400000303983688, 0.0, 1.040000081062317, 0.0, 0.0, 0.0, 0.0, 0.0, 1.621859715134798E9, 2021-05-24 14:35:15.134
33.0, -305.4918518066406, -191.55580139160156, 17.02776527404785, -9.587233543395996, -0.06400000303983688, 0.0, 1.040000081062317, 0.0, 0.0, 0.0, 0.0, 0.0, 1.621859715134798E9, 2021-05-24 14:35:15.134
34.0, -180.0406494140625, -107.03780364990234, 149.6483612060547, 95.4478530883789, -0.06400000303983688, 0.0, 1.040000081062317, 0.0, 0.0, 0.0, 0.0, 0.0, 1.6218597151468723E9, 2021-05-24 14:35:15.146
34.0, -176.79441833496094, -82.46292114257812, 153.60142517089844, 103.00245666503906, -0.06400000303983688, 0.0, 1.040000081062317, 0.0, 0.0, 0.0, 0.0, 0.0, 1.6218597151468723E9, 2021-05-24 14:35:15.146
35.0, -237.9679718017578, -139.7694091796875, 85.14630126953125, 55.56930160522461, -0.06400000303983688, 0.0, 1.040000081062317, 0.0, 0.0, 0.0, 0.0, 0.0, 1.6218597151626043E9, 2021-05-24 14:35:15.162
35.0, -298.47955322265625, -199.4619598388672, 22.9704647064209, -10.776521682739258, -0.06400000303983688, 0.0, 1.040000081062317, 0.0, 0.0, 0.0, 0.0, 0.0, 1.6218597151626043E9, 2021-05-24 14:35:15.162
36.0, -168.48809814453125, -102.74066162109375, 160.30706787109375, 96.87649536132812, -0.06400000303983688, 0.0, 1.040000081062317, 0.0, 0.0, 0.0, 0.0, 0.0, 1.6218597151633227E9, 2021-05-24 14:35:15.163
36.0, -172.1644287109375, -81.09786224365234, 153.82208251953125, 106.22624969482422, -0.06400000303983688, 0.0, 1.040000081062317, 0.0, 0.0, 0.0, 0.0, 0.0, 1.6218597151633227E9, 2021-05-24 14:35:15.163
37.0, -233.4688720703125, -150.29722595214844, 84.9144287109375, 45.63612747192383, -0.06400000303983688, 0.0, 1.040000081062317, 0.0, 0.0, 0.0, 0.0, 0.0, 1.6218597151770065E9, 2021-05-24 14:35:15.177
37.0, -304.07818603515625, -201.64979553222656, 19.64943504333496, -15.971242904663086, -0.06400000303983688, 0.0, 1.040000081062317, 0.0, 0.0, 0.0, 0.0, 0.0, 1.6218597151770065E9, 2021-05-24 14:35:15.177
38.0, -178.0061492919922, -92.17544555664062, 155.3778839111328, 98.79132843017578, -0.06400000303983688, 0.0, 1.040000081062317, 0.0, 0.0, 0.0, 0.0, 0.0, 1.6218597151926467E9, 2021-05-24 14:35:15.192
38.0, -175.15260314941406, -80.1441879272461, 164.4920196533203, 113.81450653076172, -0.06400000303983688, 0.0, 1.040000081062317, 0.0, 0.0, 0.0, 0.0, 0.0, 1.6218597151926467E9, 2021-05-24 14:35:15.192
39.0, -239.5985565185547, -135.84999084472656, 86.93023681640625, 51.403053283691406, -0.06400000303983688, 0.0, 1.040000081062317, 0.0, 0.0, 0.0, 0.0, 0.0, 1.621859715193398E9, 2021-05-24 14:35:15.193
39.0, -300.2859191894531, -192.15419006347656, 21.50068473815918, -17.250288009643555, -0.06400000303983688, 0.0, 1.040000081062317, 0.0, 0.0, 0.0, 0.0, 0.0, 1.621859715193398E9, 2021-05-24 14:35:15.193
40.0, -192.10183715820312, -95.64607238769531, 153.91558837890625, 93.52555084228516, -0.06400000303983688, 0.0, 1.055999994277954, 0.0, 0.0, 0.0, 0.0, 0.0, 1.621859715207002E9, 2021-05-24 14:35:15.207
40.0, -185.26528930664062, -84.01498413085938, 153.96046447753906, 105.40347290039062, -0.06400000303983688, 0.0, 1.055999994277954, 0.0, 0.0, 0.0, 0.0, 0.0, 1.621859715207002E9, 2021-05-24 14:35:15.207
41.0, -247.5346221923828, -135.3525848388672, 83.96449279785156, 45.11628341674805, -0.06400000303983688, 0.0, 1.055999994277954, 0.0, 0.0, 0.0, 0.0, 0.0, 1.6218597152227652E9, 2021-05-24 14:35:15.222
41.0, -311.6776428222656, -192.9844512939453, 21.231412887573242, -19.116498947143555, -0.06400000303983688, 0.0, 1.055999994277954, 0.0, 0.0, 0.0, 0.0, 0.0, 1.6218597152227652E9, 2021-05-24 14:35:15.222
42.0, -199.91448974609375, -92.30259704589844, 152.5692138671875, 102.01885986328125, -0.06400000303983688, 0.0, 1.055999994277954, 0.0, 0.0, 0.0, 0.0, 0.0, 1.6218597152234063E9, 2021-05-24 14:35:15.223
42.0, -185.2615509033203, -70.46906280517578, 163.6879425048828, 111.50698852539062, -0.06400000303983688, 0.0, 1.055999994277954, 0.0, 0.0, 0.0, 0.0, 0.0, 1.6218597152234063E9, 2021-05-24 14:35:15.223
43.0, -253.78399658203125, -127.63343811035156, 84.873291015625, 48.77390670776367, -0.06400000303983688, 0.0, 1.055999994277954, 0.0, 0.0, 0.0, 0.0, 0.0, 1.6218597152532084E9, 2021-05-24 14:35:15.253
43.0, -320.0662536621094, -192.15419006347656, 21.220191955566406, -9.452596664428711, -0.06400000303983688, 0.0, 1.055999994277954, 0.0, 0.0, 0.0, 0.0, 0.0, 1.6218597152532084E9, 2021-05-24 14:35:15.253
44.0, -198.50079345703125, -93.21887969970703, 153.32467651367188, 98.64173126220703, -0.06400000303983688, 0.0, 1.055999994277954, 0.0, 0.0, 0.0, 0.0, 0.0, 1.621859715253946E9, 2021-05-24 14:35:15.253
44.0, -177.5087432861328, -77.68333435058594, 158.971923828125, 113.6349868774414, -0.06400000303983688, 0.0, 1.055999994277954, 0.0, 0.0, 0.0, 0.0, 0.0, 1.621859715253946E9, 2021-05-24 14:35:15.253
45.0, -251.46900939941406, -133.72947692871094, 83.77001953125, 48.14560317993164, -0.06400000303983688, 0.0, 1.055999994277954, 0.0, 0.0, 0.0, 0.0, 0.0, 1.6218597152547226E9, 2021-05-24 14:35:15.254
45.0, -307.4927062988281, -202.2556610107422, 18.85283660888672, -17.766395568847656, -0.06400000303983688, 0.0, 1.055999994277954, 0.0, 0.0, 0.0, 0.0, 0.0, 1.6218597152547226E9, 2021-05-24 14:35:15.254
46.0, -185.8524627685547, -88.68238067626953, 151.6454620361328, 92.82244873046875, -0.06400000303983688, 0.0, 1.055999994277954, 0.0, 0.0, 0.0, 0.0, 0.0, 1.6218597152669733E9, 2021-05-24 14:35:15.266
46.0, -179.08323669433594, -78.29293823242188, 153.90809631347656, 105.0968017578125, -0.06400000303983688, 0.0, 1.055999994277954, 0.0, 0.0, 0.0, 0.0, 0.0, 1.6218597152669733E9, 2021-05-24 14:35:15.266
47.0, -233.1734161376953, -136.1678924560547, 88.49351501464844, 48.729026794433594, -0.06400000303983688, 0.0, 1.055999994277954, 0.0, 0.0, 0.0, 0.0, 0.0, 1.621859715282565E9, 2021-05-24 14:35:15.282
47.0, -301.3891906738281, -202.9849395751953, 12.83907699584961, -28.75048065185547, -0.06400000303983688, 0.0, 1.055999994277954, 0.0, 0.0, 0.0, 0.0, 0.0, 1.621859715282565E9, 2021-05-24 14:35:15.282
48.0, -179.7900848388672, -95.85550689697266, 152.60287475585938, 96.45388793945312, -0.06400000303983688, 0.0, 1.055999994277954, 0.0, 0.0, 0.0, 0.0, 0.0, 1.6218597152832656E9, 2021-05-24 14:35:15.283
48.0, -166.17684936523438, -83.14358520507812, 155.89773559570312, 107.4454574584961, -0.06400000303983688, 0.0, 1.055999994277954, 0.0, 0.0, 0.0, 0.0, 0.0, 1.6218597152832656E9, 2021-05-24 14:35:15.283
49.0, -239.2582244873047, -129.06207275390625, 79.24848175048828, 40.299293518066406, -0.06400000303983688, 0.0, 1.055999994277954, 0.0, 0.0, 0.0, 0.0, 0.0, 1.621859715296911E9, 2021-05-24 14:35:15.296
49.0, -300.2971496582031, -209.8065185546875, 18.789257049560547, -25.631404876708984, -0.06400000303983688, 0.0, 1.055999994277954, 0.0, 0.0, 0.0, 0.0, 0.0, 1.621859715296911E9, 2021-05-24 14:35:15.296
50.0, -173.46217346191406, -101.13624572753906, 150.44122314453125, 96.28933715820312, -0.06400000303983688, 0.0, 1.055999994277954, 0.0, 0.0, 0.0, 0.0, 0.0, 1.621859715312588E9, 2021-05-24 14:35:15.312
50.0, -179.49462890625, -82.11885070800781, 151.7801055908203, 93.97807312011719, -0.06400000303983688, 0.0, 1.055999994277954, 0.0, 0.0, 0.0, 0.0, 0.0, 1.621859715312588E9, 2021-05-24 14:35:15.312
51.0, -251.7794189453125, -146.14219665527344, 83.37732696533203, 34.322933197021484, -0.06400000303983688, 0.0, 1.055999994277954, 0.0, 0.0, 0.0, 0.0, 0.0, 1.6218597153133495E9, 2021-05-24 14:35:15.313
51.0, -308.54736328125, -205.96937561035156, 17.125001907348633, -24.947002410888672, -0.06400000303983688, 0.0, 1.055999994277954, 0.0, 0.0, 0.0, 0.0, 0.0, 1.6218597153133495E9, 2021-05-24 14:35:15.313
52.0, -188.11883544921875, -101.8879623413086, 155.9762725830078, 95.14492797851562, -0.06400000303983688, 0.0, 1.055999994277954, 0.0, 0.0, 0.0, 0.0, 0.0, 1.6218597153269584E9, 2021-05-24 14:35:15.326
52.0, -174.76365661621094, -90.19329833984375, 158.2239532470703, 97.98350524902344, -0.06400000303983688, 0.0, 1.055999994277954, 0.0, 0.0, 0.0, 0.0, 0.0, 1.6218597153269584E9, 2021-05-24 14:35:15.326
53.0, -220.6148223876953, -136.35113525390625, 89.64540100097656, 47.33404541015625, -0.06400000303983688, 0.0, 1.055999994277954, 0.0, 0.0, 0.0, 0.0, 0.0, 1.6218597153426516E9, 2021-05-24 14:35:15.342
53.0, -291.50836181640625, -200.5128631591797, 23.744625091552734, -25.407011032104492, -0.06400000303983688, 0.0, 1.055999994277954, 0.0, 0.0, 0.0, 0.0, 0.0, 1.6218597153426516E9, 2021-05-24 14:35:15.342
54.0, -183.73941040039062, -110.63932800292969, 149.82412719726562, 86.5880355834961, -0.06400000303983688, 0.0, 1.055999994277954, 0.0, 0.0, 0.0, 0.0, 0.0, 1.621859715343306E9, 2021-05-24 14:35:15.343
54.0, -178.37266540527344, -83.93270111083984, 162.01620483398438, 105.03695678710938, -0.06400000303983688, 0.0, 1.055999994277954, 0.0, 0.0, 0.0, 0.0, 0.0, 1.621859715343306E9, 2021-05-24 14:35:15.343
55.0, -246.57347106933594, -139.9003143310547, 90.09044647216797, 47.150787353515625, -0.06400000303983688, 0.0, 1.055999994277954, 0.0, 0.0, 0.0, 0.0, 0.0, 1.6218597153568714E9, 2021-05-24 14:35:15.356
55.0, -301.9090270996094, -205.96937561035156, 23.277137756347656, -23.806333541870117, -0.06400000303983688, 0.0, 1.055999994277954, 0.0, 0.0, 0.0, 0.0, 0.0, 1.6218597153568714E9, 2021-05-24 14:35:15.356
56.0, -178.38014221191406, -98.05830383300781, 160.14625549316406, 93.30863189697266, -0.06400000303983688, 0.0, 1.055999994277954, 0.0, 0.0, 0.0, 0.0, 0.0, 1.6218597153725815E9, 2021-05-24 14:35:15.372
56.0, -170.48895263671875, -85.58573913574219, 160.80821228027344, 109.09101104736328, -0.06400000303983688, 0.0, 1.055999994277954, 0.0, 0.0, 0.0, 0.0, 0.0, 1.6218597153725815E9, 2021-05-24 14:35:15.372
57.0, -240.10345458984375, -136.14918518066406, 90.19890594482422, 36.985740661621094, -0.06400000303983688, 0.0, 1.055999994277954, 0.0, 0.0, 0.0, 0.0, 0.0, 1.621859715373452E9, 2021-05-24 14:35:15.373
57.0, -295.41656494140625, -198.88601684570312, 25.921247482299805, -18.23014259338379, -0.06400000303983688, 0.0, 1.055999994277954, 0.0, 0.0, 0.0, 0.0, 0.0, 1.621859715373452E9, 2021-05-24 14:35:15.373
58.0, -183.96006774902344, -93.27497863769531, 155.01885986328125, 95.73583221435547, -0.06400000303983688, 0.0, 1.055999994277954, 0.0, 0.0, 0.0, 0.0, 0.0, 1.6218597153868585E9, 2021-05-24 14:35:15.386
58.0, -172.0821533203125, -78.05731964111328, 158.77745056152344, 98.12936401367188, -0.06400000303983688, 0.0, 1.055999994277954, 0.0, 0.0, 0.0, 0.0, 0.0, 1.6218597153868585E9, 2021-05-24 14:35:15.386
59.0, -247.3663330078125, -145.94772338867188, 84.85832977294922, 37.96933364868164, -0.06400000303983688, 0.0, 1.055999994277954, 0.0, 0.0, 0.0, 0.0, 0.0, 1.6218597154026783E9, 2021-05-24 14:35:15.402
59.0, -304.1679382324219, -201.52638244628906, 23.9091796875, -21.659629821777344, -0.06400000303983688, 0.0, 1.055999994277954, 0.0, 0.0, 0.0, 0.0, 0.0, 1.6218597154026783E9, 2021-05-24 14:35:15.402
60.0, -187.31849670410156, -109.43134307861328, 153.15264892578125, 93.20765686035156, -0.06400000303983688, 0.0, 1.040000081062317, 0.0, 0.0, 0.0, 0.0, 0.0, 1.621859715403491E9, 2021-05-24 14:35:15.403
60.0, -176.98141479492188, -87.07048034667969, 162.1209259033203, 108.78807830810547, -0.06400000303983688, 0.0, 1.040000081062317, 0.0, 0.0, 0.0, 0.0, 0.0, 1.621859715403491E9, 2021-05-24 14:35:15.403
61.0, -235.71653747558594, -139.67218017578125, 93.99116516113281, 44.529117584228516, -0.06400000303983688, 0.0, 1.040000081062317, 0.0, 0.0, 0.0, 0.0, 0.0, 1.6218597154168668E9, 2021-05-24 14:35:15.416
61.0, -292.8360290527344, -204.11439514160156, 17.932819366455078, -24.804885864257812, -0.06400000303983688, 0.0, 1.040000081062317, 0.0, 0.0, 0.0, 0.0, 0.0, 1.6218597154168668E9, 2021-05-24 14:35:15.416
62.0, -183.84039306640625, -109.86891174316406, 150.6768341064453, 82.60130310058594, -0.06400000303983688, 0.0, 1.040000081062317, 0.0, 0.0, 0.0, 0.0, 0.0, 1.621859715432556E9, 2021-05-24 14:35:15.432
62.0, -173.32752990722656, -86.05323028564453, 162.25555419921875, 98.3350601196289, -0.06400000303983688, 0.0, 1.040000081062317, 0.0, 0.0, 0.0, 0.0, 0.0, 1.621859715432556E9, 2021-05-24 14:35:15.432
63.0, -240.76914978027344, -142.08067321777344, 87.50244140625, 39.45781326293945, -0.06400000303983688, 0.0, 1.040000081062317, 0.0, 0.0, 0.0, 0.0, 0.0, 1.621859715433384E9, 2021-05-24 14:35:15.433
63.0, -304.88226318359375, -201.93402099609375, 22.155166625976562, -15.28684139251709, -0.06400000303983688, 0.0, 1.040000081062317, 0.0, 0.0, 0.0, 0.0, 0.0, 1.621859715433384E9, 2021-05-24 14:35:15.433
64.0, -184.9960174560547, -106.4655990600586, 149.28932189941406, 92.72521209716797, -0.06400000303983688, 0.0, 1.040000081062317, 0.0, 0.0, 0.0, 0.0, 0.0, 1.6218597154469657E9, 2021-05-24 14:35:15.446
64.0, -175.34707641601562, -92.1904067993164, 157.53955078125, 93.20018005371094, -0.06400000303983688, 0.0, 1.040000081062317, 0.0, 0.0, 0.0, 0.0, 0.0, 1.6218597154469657E9, 2021-05-24 14:35:15.446
65.0, -242.2389373779297, -146.05618286132812, 91.76966857910156, 38.616336822509766, -0.06400000303983688, 0.0, 1.040000081062317, 0.0, 0.0, 0.0, 0.0, 0.0, 1.6218597154627028E9, 2021-05-24 14:35:15.462
65.0, -301.89031982421875, -197.40127563476562, 22.211265563964844, -20.634897232055664, -0.06400000303983688, 0.0, 1.040000081062317, 0.0, 0.0, 0.0, 0.0, 0.0, 1.6218597154627028E9, 2021-05-24 14:35:15.462
66.0, -186.020751953125, -102.11983489990234, 154.42794799804688, 83.06878662109375, -0.06400000303983688, 0.0, 1.040000081062317, 0.0, 0.0, 0.0, 0.0, 0.0, 1.6218597154633567E9, 2021-05-24 14:35:15.463
66.0, -178.00241088867188, -87.88951873779297, 160.0303192138672, 93.46571350097656, -0.06400000303983688, 0.0, 1.040000081062317, 0.0, 0.0, 0.0, 0.0, 0.0, 1.6218597154633567E9, 2021-05-24 14:35:15.463
67.0, -239.8229522705078, -141.934814453125, 88.46359252929688, 37.853397369384766, -0.06400000303983688, 0.0, 1.040000081062317, 0.0, 0.0, 0.0, 0.0, 0.0, 1.621859715476952E9, 2021-05-24 14:35:15.476
67.0, -307.4515686035156, -202.11727905273438, 18.63218116760254, -28.514867782592773, -0.06400000303983688, 0.0, 1.040000081062317, 0.0, 0.0, 0.0, 0.0, 0.0, 1.621859715476952E9, 2021-05-24 14:35:15.476
68.0, -183.3130645751953, -95.61988830566406, 153.7510223388672, 86.2925796508789, -0.06400000303983688, 0.0, 1.040000081062317, 0.0, 0.0, 0.0, 0.0, 0.0, 1.6218597154925349E9, 2021-05-24 14:35:15.492
68.0, -169.76715087890625, -76.8568115234375, 161.53001403808594, 99.41214752197266, -0.06400000303983688, 0.0, 1.040000081062317, 0.0, 0.0, 0.0, 0.0, 0.0, 1.6218597154925349E9, 2021-05-24 14:35:15.492
69.0, -239.28814697265625, -133.68833923339844, 85.84566497802734, 45.3182373046875, -0.06400000303983688, 0.0, 1.040000081062317, 0.0, 0.0, 0.0, 0.0, 0.0, 1.6218597154932747E9, 2021-05-24 14:35:15.493
69.0, -316.7676696777344, -202.04248046875, 18.721939086914062, -25.713682174682617, -0.06400000303983688, 0.0, 1.040000081062317, 0.0, 0.0, 0.0, 0.0, 0.0, 1.6218597154932747E9, 2021-05-24 14:35:15.493
70.0, -198.53819274902344, -86.29631805419922, 147.84571838378906, 81.25493621826172, -0.06400000303983688, 0.0, 1.040000081062317, 0.0, 0.0, 0.0, 0.0, 0.0, 1.6218597155069551E9, 2021-05-24 14:35:15.506
70.0, -183.8104705810547, -84.75548553466797, 159.17388916015625, 102.72196197509766, -0.06400000303983688, 0.0, 1.040000081062317, 0.0, 0.0, 0.0, 0.0, 0.0, 1.6218597155069551E9, 2021-05-24 14:35:15.506
71.0, -244.60629272460938, -142.63417053222656, 83.24269104003906, 45.47531509399414, -0.06400000303983688, 0.0, 1.040000081062317, 0.0, 0.0, 0.0, 0.0, 0.0, 1.621859715522636E9, 2021-05-24 14:35:15.522
71.0, -302.9786376953125, -201.09628295898438, 22.196306228637695, -17.815013885498047, -0.06400000303983688, 0.0, 1.040000081062317, 0.0, 0.0, 0.0, 0.0, 0.0, 1.621859715522636E9, 2021-05-24 14:35:15.522
72.0, -183.96754455566406, -105.18281555175781, 146.5479736328125, 86.79373168945312, -0.06400000303983688, 0.0, 1.040000081062317, 0.0, 0.0, 0.0, 0.0, 0.0, 1.6218597155234048E9, 2021-05-24 14:35:15.523
72.0, -172.39256286621094, -90.75054168701172, 157.22164916992188, 97.87505340576172, -0.06400000303983688, 0.0, 1.040000081062317, 0.0, 0.0, 0.0, 0.0, 0.0, 1.6218597155234048E9, 2021-05-24 14:35:15.523
73.0, -246.85397338867188, -140.47625732421875, 89.0507583618164, 41.1108512878418, -0.06400000303983688, 0.0, 1.040000081062317, 0.0, 0.0, 0.0, 0.0, 0.0, 1.621859715536966E9, 2021-05-24 14:35:15.536
73.0, -309.392578125, -198.43348693847656, 16.545316696166992, -25.57904624938965, -0.06400000303983688, 0.0, 1.040000081062317, 0.0, 0.0, 0.0, 0.0, 0.0, 1.621859715536966E9, 2021-05-24 14:35:15.536
74.0, -189.18096923828125, -99.0979995727539, 154.03900146484375, 82.74341583251953, -0.06400000303983688, 0.0, 1.040000081062317, 0.0, 0.0, 0.0, 0.0, 0.0, 1.6218597155525956E9, 2021-05-24 14:35:15.552
74.0, -172.4935302734375, -75.96672058105469, 164.04322814941406, 101.31575775146484, -0.06400000303983688, 0.0, 1.040000081062317, 0.0, 0.0, 0.0, 0.0, 0.0, 1.6218597155525956E9, 2021-05-24 14:35:15.552
75.0, -249.14279174804688, -140.2032470703125, 83.00334167480469, 34.270572662353516, -0.06400000303983688, 0.0, 1.040000081062317, 0.0, 0.0, 0.0, 0.0, 0.0, 1.621859715553399E9, 2021-05-24 14:35:15.553
75.0, -309.3514404296875, -209.75790405273438, 15.311150550842285, -32.022891998291016, -0.06400000303983688, 0.0, 1.040000081062317, 0.0, 0.0, 0.0, 0.0, 0.0, 1.621859715553399E9, 2021-05-24 14:35:15.553
76.0, -190.40391540527344, -103.58213806152344, 148.84054565429688, 82.22731018066406, -0.06400000303983688, 0.0, 1.040000081062317, 0.0, 0.0, 0.0, 0.0, 0.0, 1.6218597155668747E9, 2021-05-24 14:35:15.566
76.0, -170.6422882080078, -83.67091369628906, 149.38282775878906, 101.6860122680664, -0.06400000303983688, 0.0, 1.040000081062317, 0.0, 0.0, 0.0, 0.0, 0.0, 1.6218597155668747E9, 2021-05-24 14:35:15.566
77.0, -234.04481506347656, -138.26223754882812, 80.34800720214844, 34.895137786865234, -0.06400000303983688, 0.0, 1.040000081062317, 0.0, 0.0, 0.0, 0.0, 0.0, 1.6218597155826151E9, 2021-05-24 14:35:15.582
77.0, -307.97515869140625, -193.0068817138672, 15.120415687561035, -30.91962242126465, -0.06400000303983688, 0.0, 1.040000081062317, 0.0, 0.0, 0.0, 0.0, 0.0, 1.6218597155826151E9, 2021-05-24 14:35:15.582
78.0, -187.53167724609375, -85.93729400634766, 146.83969116210938, 78.44627380371094, -0.06400000303983688, 0.0, 1.040000081062317, 0.0, 0.0, 0.0, 0.0, 0.0, 1.621859715583376E9, 2021-05-24 14:35:15.583
78.0, -181.5665283203125, -72.80276489257812, 159.34591674804688, 103.44376373291016, -0.06400000303983688, 0.0, 1.040000081062317, 0.0, 0.0, 0.0, 0.0, 0.0, 1.621859715583376E9, 2021-05-24 14:35:15.583
79.0, -253.78399658203125, -140.18080139160156, 85.7820816040039, 35.36262512207031, -0.06400000303983688, 0.0, 1.040000081062317, 0.0, 0.0, 0.0, 0.0, 0.0, 1.6218597155968547E9, 2021-05-24 14:35:15.596
79.0, -315.7728576660156, -194.9329376220703, 16.691173553466797, -32.42680358886719, -0.06400000303983688, 0.0, 1.040000081062317, 0.0, 0.0, 0.0, 0.0, 0.0, 1.6218597155968547E9, 2021-05-24 14:35:15.596
80.0, -181.9218292236328, -92.93090057373047, 152.13165283203125, 86.5880355834961, -0.06400000303983688, 0.0, 1.055999994277954, 0.0, 0.0, 0.0, 0.0, 0.0, 1.6218597156127534E9, 2021-05-24 14:35:15.612
80.0, -175.57894897460938, -70.371826171875, 154.3568878173828, 99.32613372802734, -0.06400000303983688, 0.0, 1.055999994277954, 0.0, 0.0, 0.0, 0.0, 0.0, 1.6218597156127534E9, 2021-05-24 14:35:15.612
81.0, -242.85601806640625, -133.38914489746094, 81.9636459350586, 37.943153381347656, -0.06400000303983688, 0.0, 1.055999994277954, 0.0, 0.0, 0.0, 0.0, 0.0, 1.6218597156134977E9, 2021-05-24 14:35:15.613
81.0, -318.4842834472656, -193.67259216308594, 15.535544395446777, -28.47372817993164, -0.06400000303983688, 0.0, 1.055999994277954, 0.0, 0.0, 0.0, 0.0, 0.0, 1.6218597156134977E9, 2021-05-24 14:35:15.613
82.0, -195.03016662597656, -97.43374633789062, 151.95960998535156, 85.80265808105469, -0.06400000303983688, 0.0, 1.055999994277954, 0.0, 0.0, 0.0, 0.0, 0.0, 1.6218597156271844E9, 2021-05-24 14:35:15.627
82.0, -181.8283233642578, -80.60045623779297, 156.06228637695312, 97.47862243652344, -0.06400000303983688, 0.0, 1.055999994277954, 0.0, 0.0, 0.0, 0.0, 0.0, 1.6218597156271844E9, 2021-05-24 14:35:15.627
83.0, -241.8125762939453, -137.3609161376953, 82.65178680419922, 42.00468444824219, -0.06400000303983688, 0.0, 1.055999994277954, 0.0, 0.0, 0.0, 0.0, 0.0, 1.621859715642788E9, 2021-05-24 14:35:15.642
83.0, -308.5361328125, -198.4073028564453, 17.360614776611328, -24.6365909576416, -0.06400000303983688, 0.0, 1.055999994277954, 0.0, 0.0, 0.0, 0.0, 0.0, 1.621859715642788E9, 2021-05-24 14:35:15.642
84.0, -185.06707763671875, -96.29681396484375, 153.18630981445312, 92.86732482910156, -0.06400000303983688, 0.0, 1.055999994277954, 0.0, 0.0, 0.0, 0.0, 0.0, 1.6218597156435745E9, 2021-05-24 14:35:15.643
84.0, -171.2219696044922, -82.16373443603516, 153.54159545898438, 103.13709259033203, -0.06400000303983688, 0.0, 1.055999994277954, 0.0, 0.0, 0.0, 0.0, 0.0, 1.6218597156435745E9, 2021-05-24 14:35:15.643
85.0, -248.82489013671875, -139.8965606689453, 78.50050354003906, 40.0075798034668, -0.06400000303983688, 0.0, 1.055999994277954, 0.0, 0.0, 0.0, 0.0, 0.0, 1.6218597156568751E9, 2021-05-24 14:35:15.656
85.0, -298.46832275390625, -195.57994079589844, 15.685140609741211, -27.419076919555664, -0.06400000303983688, 0.0, 1.055999994277954, 0.0, 0.0, 0.0, 0.0, 0.0, 1.6218597156568751E9, 2021-05-24 14:35:15.656
86.0, -189.4091033935547, -96.23323822021484, 150.4935760498047, 84.62832641601562, -0.06400000303983688, 0.0, 1.055999994277954, 0.0, 0.0, 0.0, 0.0, 0.0, 1.6218597156726396E9, 2021-05-24 14:35:15.672
86.0, -181.02798461914062, -74.37351989746094, 159.8582763671875, 101.66731262207031, -0.06400000303983688, 0.0, 1.055999994277954, 0.0, 0.0, 0.0, 0.0, 0.0, 1.6218597156726396E9, 2021-05-24 14:35:15.672
87.0, -246.2630615234375, -134.79908752441406, 87.81285095214844, 32.987789154052734, -0.06400000303983688, 0.0, 1.055999994277954, 0.0, 0.0, 0.0, 0.0, 0.0, 1.621859715673484E9, 2021-05-24 14:35:15.673
87.0, -306.3595275878906, -193.6912841796875, 22.364601135253906, -26.102632522583008, -0.06400000303983688, 0.0, 1.055999994277954, 0.0, 0.0, 0.0, 0.0, 0.0, 1.621859715673484E9, 2021-05-24 14:35:15.673
88.0, -184.0685272216797, -89.61360931396484, 156.02114868164062, 85.58573913574219, -0.06400000303983688, 0.0, 1.055999994277954, 0.0, 0.0, 0.0, 0.0, 0.0, 1.62185971568687E9, 2021-05-24 14:35:15.686
88.0, -185.86367797851562, -79.56824493408203, 153.23118591308594, 94.3221435546875, -0.06400000303983688, 0.0, 1.055999994277954, 0.0, 0.0, 0.0, 0.0, 0.0, 1.62185971568687E9, 2021-05-24 14:35:15.686
89.0, -251.15110778808594, -132.89173889160156, 87.45381927490234, 39.420413970947266, -0.06400000303983688, 0.0, 1.055999994277954, 0.0, 0.0, 0.0, 0.0, 0.0, 1.6218597157027369E9, 2021-05-24 14:35:15.702
89.0, -315.56341552734375, -201.197265625, 16.492958068847656, -23.62681770324707, -0.06400000303983688, 0.0, 1.055999994277954, 0.0, 0.0, 0.0, 0.0, 0.0, 1.6218597157027369E9, 2021-05-24 14:35:15.702
90.0, -185.3363494873047, -94.21369171142578, 153.51541137695312, 88.18122863769531, -0.06400000303983688, 0.0, 1.055999994277954, 0.0, 0.0, 0.0, 0.0, 0.0, 1.621859715703482E9, 2021-05-24 14:35:15.703
90.0, -177.35914611816406, -81.3521728515625, 154.78323364257812, 101.89918518066406, -0.06400000303983688, 0.0, 1.055999994277954, 0.0, 0.0, 0.0, 0.0, 0.0, 1.621859715703482E9, 2021-05-24 14:35:15.703
91.0, -244.07522583007812, -134.2268829345703, 87.43138122558594, 44.09529113769531, -0.06400000303983688, 0.0, 1.055999994277954, 0.0, 0.0, 0.0, 0.0, 0.0, 1.6218597157168653E9, 2021-05-24 14:35:15.716
91.0, -315.2567443847656, -196.97491455078125, 17.884201049804688, -22.05232048034668, -0.06400000303983688, 0.0, 1.055999994277954, 0.0, 0.0, 0.0, 0.0, 0.0, 1.6218597157168653E9, 2021-05-24 14:35:15.716
92.0, -193.37713623046875, -91.49104309082031, 158.07435607910156, 92.0146255493164, -0.06400000303983688, 0.0, 1.055999994277954, 0.0, 0.0, 0.0, 0.0, 0.0, 1.6218597157330992E9, 2021-05-24 14:35:15.733
92.0, -174.1166534423828, -80.29378509521484, 165.1689453125, 102.13105773925781, -0.06400000303983688, 0.0, 1.055999994277954, 0.0, 0.0, 0.0, 0.0, 0.0, 1.6218597157330992E9, 2021-05-24 14:35:15.733
93.0, -239.62847900390625, -150.749755859375, 83.51944732666016, 42.27396011352539, -0.06400000303983688, 0.0, 1.055999994277954, 0.0, 0.0, 0.0, 0.0, 0.0, 1.6218597157476923E9, 2021-05-24 14:35:15.747
93.0, -312.2161865234375, -214.1223602294922, 19.626995086669922, -18.11046600341797, -0.06400000303983688, 0.0, 1.055999994277954, 0.0, 0.0, 0.0, 0.0, 0.0, 1.6218597157476923E9, 2021-05-24 14:35:15.747
94.0, -184.82398986816406, -110.78518676757812, 153.8520050048828, 100.5827407836914, -0.06400000303983688, 0.0, 1.055999994277954, 0.0, 0.0, 0.0, 0.0, 0.0, 1.6218597157483883E9, 2021-05-24 14:35:15.748
94.0, -178.99722290039062, -92.27642059326172, 155.7967529296875, 107.65115356445312, -0.06400000303983688, 0.0, 1.055999994277954, 0.0, 0.0, 0.0, 0.0, 0.0, 1.6218597157483883E9, 2021-05-24 14:35:15.748
95.0, -253.78773498535156, -145.30819702148438, 87.0611343383789, 55.801177978515625, -0.06400000303983688, 0.0, 1.055999994277954, 0.0, 0.0, 0.0, 0.0, 0.0, 1.6218597157627225E9, 2021-05-24 14:35:15.762
95.0, -304.1641845703125, -197.8837127685547, 26.44483184814453, -19.434391021728516, -0.06400000303983688, 0.0, 1.055999994277954, 0.0, 0.0, 0.0, 0.0, 0.0, 1.6218597157627225E9, 2021-05-24 14:35:15.762
96.0, -199.35723876953125, -100.384521484375, 154.74209594726562, 88.78709411621094, -0.06400000303983688, 0.0, 1.055999994277954, 0.0, 0.0, 0.0, 0.0, 0.0, 1.6218597157633631E9, 2021-05-24 14:35:15.763
96.0, -187.4194793701172, -80.40223693847656, 156.8962860107422, 107.76334381103516, -0.06400000303983688, 0.0, 1.055999994277954, 0.0, 0.0, 0.0, 0.0, 0.0, 1.6218597157633631E9, 2021-05-24 14:35:15.763
97.0, -249.46815490722656, -141.40374755859375, 82.33015441894531, 42.101924896240234, -0.06400000303983688, 0.0, 1.055999994277954, 0.0, 0.0, 0.0, 0.0, 0.0, 1.6218597157770188E9, 2021-05-24 14:35:15.777
97.0, -303.03472900390625, -203.11209106445312, 22.065410614013672, -9.471296310424805, -0.06400000303983688, 0.0, 1.055999994277954, 0.0, 0.0, 0.0, 0.0, 0.0, 1.6218597157770188E9, 2021-05-24 14:35:15.777
98.0, -187.55784606933594, -104.8574447631836, 157.0234375, 102.62472534179688, -0.06400000303983688, 0.0, 1.055999994277954, 0.0, 0.0, 0.0, 0.0, 0.0, 1.6218597157925699E9, 2021-05-24 14:35:15.792
98.0, -180.61285400390625, -90.17086029052734, 156.5970916748047, 110.1980209350586, -0.06400000303983688, 0.0, 1.055999994277954, 0.0, 0.0, 0.0, 0.0, 0.0, 1.6218597157925699E9, 2021-05-24 14:35:15.792
99.0, -242.88218688964844, -139.27947998046875, 82.88740539550781, 41.189388275146484, -0.06400000303983688, 0.0, 1.055999994277954, 0.0, 0.0, 0.0, 0.0, 0.0, 1.6218597157933826E9, 2021-05-24 14:35:15.793
99.0, -304.94207763671875, -201.3206787109375, 15.995552062988281, -17.12687110900879, -0.06400000303983688, 0.0, 1.055999994277954, 0.0, 0.0, 0.0, 0.0, 0.0, 1.6218597157933826E9, 2021-05-24 14:35:15.793
100.0, -184.54348754882812, -99.40840911865234, 156.78782653808594, 90.9487533569336, -0.06400000303983688, 0.0, 1.055999994277954, 0.0, 0.0, 0.0, 0.0, 0.0, 1.6218597158077412E9, 2021-05-24 14:35:15.807
100.0, -177.1197967529297, -84.51612854003906, 157.3263702392578, 101.07266998291016, -0.06400000303983688, 0.0, 1.055999994277954, 0.0, 0.0, 0.0, 0.0, 0.0, 1.6218597158077412E9, 2021-05-24 14:35:15.807
0.0, -243.74610900878906, -136.25576782226562, 79.19425201416016, 43.73065185546875, -0.06400000303983688, 0.0, 1.055999994277954, 0.0, 0.0, 0.0, 0.0, 0.0, 1.6218597158084853E9, 2021-05-24 14:35:15.808
1.0, -311.3335876464844, -190.9405975341797, 12.635251998901367, -19.406341552734375, -0.06400000303983688, 0.0, 1.055999994277954, 0.0, 0.0, 0.0, 0.0, 0.0, 1.6218597158219452E9, 2021-05-24 14:35:15.821
1.0, -179.3225860595703, -109.9867172241211, 148.33004760742188, 92.95521545410156, -0.06400000303983688, 0.0, 1.055999994277954, 0.0, 0.0, 0.0, 0.0, 0.0, 1.6218597158219452E9, 2021-05-24 14:35:15.821
2.0, -170.05511474609375, -84.88825225830078, 155.7948760986328, 105.68209075927734, -0.06400000303983688, 0.0, 1.055999994277954, 0.0, 0.0, 0.0, 0.0, 0.0, 1.62185971583769E9, 2021-05-24 14:35:15.837
2.0, -243.11032104492188, -141.81326293945312, 80.6715087890625, 39.58684158325195, -0.06400000303983688, 0.0, 1.055999994277954, 0.0, 0.0, 0.0, 0.0, 0.0, 1.62185971583769E9, 2021-05-24 14:35:15.837
3.0, -312.13018798828125, -205.24945068359375, 16.334012985229492, -23.66982650756836, -0.06400000303983688, 0.0, 1.055999994277954, 0.0, 0.0, 0.0, 0.0, 0.0, 1.6218597158384485E9, 2021-05-24 14:35:15.838
3.0, -179.236572265625, -110.47664642333984, 146.35911560058594, 92.5849609375, -0.06400000303983688, 0.0, 1.055999994277954, 0.0, 0.0, 0.0, 0.0, 0.0, 1.6218597158384485E9, 2021-05-24 14:35:15.838
4.0, -182.23597717285156, -87.2256851196289, 153.99224853515625, 98.75205993652344, -0.06400000303983688, 0.0, 1.055999994277954, 0.0, 0.0, 0.0, 0.0, 0.0, 1.6218597158519156E9, 2021-05-24 14:35:15.851
4.0, -245.99378967285156, -148.70590209960938, 78.22187805175781, 39.3961067199707, -0.06400000303983688, 0.0, 1.055999994277954, 0.0, 0.0, 0.0, 0.0, 0.0, 1.6218597158519156E9, 2021-05-24 14:35:15.851
5.0, -297.9896240234375, -205.84783935546875, 11.539461135864258, -14.839922904968262, -0.06400000303983688, 0.0, 1.055999994277954, 0.0, 0.0, 0.0, 0.0, 0.0, 1.621859715867675E9, 2021-05-24 14:35:15.867
5.0, -180.3024444580078, -106.61332702636719, 148.13931274414062, 96.81852722167969, -0.06400000303983688, 0.0, 1.055999994277954, 0.0, 0.0, 0.0, 0.0, 0.0, 1.621859715867675E9, 2021-05-24 14:35:15.867
6.0, -171.89889526367188, -89.13677215576172, 157.50027465820312, 101.28771209716797, -0.06400000303983688, 0.0, 1.055999994277954, 0.0, 0.0, 0.0, 0.0, 0.0, 1.6218597158684149E9, 2021-05-24 14:35:15.868
6.0, -239.02635192871094, -147.3184051513672, 79.50092315673828, 39.493343353271484, -0.06400000303983688, 0.0, 1.055999994277954, 0.0, 0.0, 0.0, 0.0, 0.0, 1.6218597158684149E9, 2021-05-24 14:35:15.868
7.0, -301.2171630859375, -206.4462127685547, 8.106233596801758, -21.609142303466797, -0.06400000303983688, 0.0, 1.055999994277954, 0.0, 0.0, 0.0, 0.0, 0.0, 1.6218597158819342E9, 2021-05-24 14:35:15.881
7.0, -180.02569580078125, -108.66279602050781, 141.61317443847656, 79.7159652709961, -0.06400000303983688, 0.0, 1.055999994277954, 0.0, 0.0, 0.0, 0.0, 0.0, 1.6218597158819342E9, 2021-05-24 14:35:15.881
8.0, -167.46336364746094, -79.5102767944336, 153.18069458007812, 107.05089569091797, -0.06400000303983688, 0.0, 1.055999994277954, 0.0, 0.0, 0.0, 0.0, 0.0, 1.6218597158975892E9, 2021-05-24 14:35:15.897
8.0, -238.0726776123047, -146.57041931152344, 85.30150604248047, 43.33795928955078, -0.06400000303983688, 0.0, 1.055999994277954, 0.0, 0.0, 0.0, 0.0, 0.0, 1.6218597158975892E9, 2021-05-24 14:35:15.897
9.0, -305.9107360839844, -204.77073669433594, 17.527040481567383, -16.167587280273438, -0.06400000303983688, 0.0, 1.055999994277954, 0.0, 0.0, 0.0, 0.0, 0.0, 1.621859715898283E9, 2021-05-24 14:35:15.898
9.0, -190.65823364257812, -105.39411926269531, 146.6358642578125, 93.7480697631836, -0.06400000303983688, 0.0, 1.055999994277954, 0.0, 0.0, 0.0, 0.0, 0.0, 1.621859715898283E9, 2021-05-24 14:35:15.898
10.0, -185.50839233398438, -89.91841125488281, 151.37057495117188, 107.54830169677734, -0.06400000303983688, 0.0, 1.055999994277954, 0.0, 0.0, 0.0, 0.0, 0.0, 1.6218597159120998E9, 2021-05-24 14:35:15.912
10.0, -244.1425323486328, -140.77731323242188, 81.78600311279297, 43.66707229614258, -0.06400000303983688, 0.0, 1.055999994277954, 0.0, 0.0, 0.0, 0.0, 0.0, 1.6218597159120998E9, 2021-05-24 14:35:15.912
11.0, -317.30621337890625, -201.0644989013672, 22.699323654174805, -18.557384490966797, -0.06400000303983688, 0.0, 1.055999994277954, 0.0, 0.0, 0.0, 0.0, 0.0, 1.6218597159275763E9, 2021-05-24 14:35:15.927
11.0, -191.20425415039062, -105.37915802001953, 153.1619873046875, 99.24946594238281, -0.06400000303983688, 0.0, 1.055999994277954, 0.0, 0.0, 0.0, 0.0, 0.0, 1.6218597159275763E9, 2021-05-24 14:35:15.927
12.0, -189.94764709472656, -88.45985412597656, 154.67291259765625, 108.9058837890625, -0.08000000566244125, 0.0, 1.055999994277954, 0.0, 0.0, 0.0, 0.0, 0.0, 1.6218597159282668E9, 2021-05-24 14:35:15.928
12.0, -251.74575805664062, -154.26339721679688, 84.8078384399414, 46.03068923950195, -0.08000000566244125, 0.0, 1.055999994277954, 0.0, 0.0, 0.0, 0.0, 0.0, 1.6218597159282668E9, 2021-05-24 14:35:15.928
13.0, -315.5708923339844, -215.88198852539062, 20.19359016418457, -16.167587280273438, -0.08000000566244125, 0.0, 1.055999994277954, 0.0, 0.0, 0.0, 0.0, 0.0, 1.6218597159421277E9, 2021-05-24 14:35:15.942
13.0, -192.804931640625, -120.78006744384766, 152.46636962890625, 97.49545288085938, -0.08000000566244125, 0.0, 1.055999994277954, 0.0, 0.0, 0.0, 0.0, 0.0, 1.6218597159421277E9, 2021-05-24 14:35:15.942
14.0, -180.8185577392578, -98.04895782470703, 152.92637634277344, 110.49908447265625, -0.08000000566244125, 0.0, 1.055999994277954, 0.0, 0.0, 0.0, 0.0, 0.0, 1.6218597159575336E9, 2021-05-24 14:35:15.957
14.0, -244.8231964111328, -152.5692138671875, 83.00147247314453, 45.316368103027344, -0.08000000566244125, 0.0, 1.055999994277954, 0.0, 0.0, 0.0, 0.0, 0.0, 1.6218597159575336E9, 2021-05-24 14:35:15.957
15.0, -310.7090148925781, -221.05426025390625, 7.848180294036865, -15.101716041564941, -0.08000000566244125, 0.0, 1.055999994277954, 0.0, 0.0, 0.0, 0.0, 0.0, 1.621859715958248E9, 2021-05-24 14:35:15.958
15.0, -183.473876953125, -113.4236831665039, 139.9825897216797, 92.13617706298828, -0.08000000566244125, 0.0, 1.055999994277954, 0.0, 0.0, 0.0, 0.0, 0.0, 1.621859715958248E9, 2021-05-24 14:35:15.958
16.0, -173.74639892578125, -98.06017303466797, 147.94857788085938, 106.28421783447266, -0.08000000566244125, 0.0, 1.055999994277954, 0.0, 0.0, 0.0, 0.0, 0.0, 1.62185971597192E9, 2021-05-24 14:35:15.971
16.0, -242.42591857910156, -152.1017303466797, 82.64991760253906, 45.869873046875, -0.08000000566244125, 0.0, 1.055999994277954, 0.0, 0.0, 0.0, 0.0, 0.0, 1.62185971597192E9, 2021-05-24 14:35:15.971
17.0, -307.69091796875, -216.40931701660156, 14.44162368774414, -13.59079647064209, -0.08000000566244125, 0.0, 1.055999994277954, 0.0, 0.0, 0.0, 0.0, 0.0, 1.6218597159875433E9, 2021-05-24 14:35:15.987
17.0, -194.68983459472656, -106.83772277832031, 152.50750732421875, 101.96089172363281, -0.08000000566244125, 0.0, 1.055999994277954, 0.0, 0.0, 0.0, 0.0, 0.0, 1.6218597159875433E9, 2021-05-24 14:35:15.987
18.0, -194.52154541015625, -92.63358306884766, 154.02964782714844, 109.67256927490234, -0.08000000566244125, 0.0, 1.055999994277954, 0.0, 0.0, 0.0, 0.0, 0.0, 1.621859715988278E9, 2021-05-24 14:35:15.988
18.0, -266.5033874511719, -148.3281707763672, 81.54290771484375, 43.34918212890625, -0.08000000566244125, 0.0, 1.055999994277954, 0.0, 0.0, 0.0, 0.0, 0.0, 1.621859715988278E9, 2021-05-24 14:35:15.988
19.0, -329.1018371582031, -208.0244598388672, 20.67229652404785, -14.361215591430664, -0.08000000566244125, 0.0, 1.055999994277954, 0.0, 0.0, 0.0, 0.0, 0.0, 1.6218597160019653E9, 2021-05-24 14:35:16.001
19.0, -196.93751525878906, -106.52356719970703, 147.21929931640625, 95.03459930419922, -0.08000000566244125, 0.0, 1.055999994277954, 0.0, 0.0, 0.0, 0.0, 0.0, 1.6218597160019653E9, 2021-05-24 14:35:16.001
20.0, -195.1722869873047, -93.25440216064453, 152.0662078857422, 106.54601287841797, -0.08000000566244125, 0.0, 1.055999994277954, 0.0, 0.0, 0.0, 0.0, 0.0, 1.621859716017547E9, 2021-05-24 14:35:16.017
20.0, -260.7776184082031, -148.01776123046875, 83.80181121826172, 45.30888748168945, -0.08000000566244125, 0.0, 1.055999994277954, 0.0, 0.0, 0.0, 0.0, 0.0, 1.621859716017547E9, 2021-05-24 14:35:16.017
21.0, -321.2817077636719, -211.2445068359375, 18.21518325805664, -11.283278465270996, -0.08000000566244125, 0.0, 1.055999994277954, 0.0, 0.0, 0.0, 0.0, 0.0, 1.6218597160182583E9, 2021-05-24 14:35:16.018
21.0, -197.44615173339844, -120.53323364257812, 144.58265686035156, 95.59184265136719, -0.08000000566244125, 0.0, 1.055999994277954, 0.0, 0.0, 0.0, 0.0, 0.0, 1.6218597160182583E9, 2021-05-24 14:35:16.018
22.0, -185.43359375, -106.75918579101562, 150.91806030273438, 107.09203338623047, -0.06400000303983688, 0.0, 1.055999994277954, 0.0, 0.0, 0.0, 0.0, 0.0, 1.6218597160319636E9, 2021-05-24 14:35:16.031
22.0, -244.72596740722656, -154.7308807373047, 84.14588165283203, 49.38911819458008, -0.06400000303983688, 0.0, 1.055999994277954, 0.0, 0.0, 0.0, 0.0, 0.0, 1.6218597160319636E9, 2021-05-24 14:35:16.031
23.0, -317.2500915527344, -221.73492431640625, 15.126025199890137, -18.190874099731445, -0.06400000303983688, 0.0, 1.055999994277954, 0.0, 0.0, 0.0, 0.0, 0.0, 1.621859716047684E9, 2021-05-24 14:35:16.047
23.0, -194.61878967285156, -112.55976867675781, 147.4137725830078, 95.90599822998047, -0.06400000303983688, 0.0, 1.055999994277954, 0.0, 0.0, 0.0, 0.0, 0.0, 1.621859716047684E9, 2021-05-24 14:35:16.047
24.0, -190.27676391601562, -103.5428695678711, 152.7767791748047, 105.65591430664062, -0.06400000303983688, 0.0, 1.055999994277954, 0.0, 0.0, 0.0, 0.0, 0.0, 1.6218597160483568E9, 2021-05-24 14:35:16.048
24.0, -261.1478576660156, -154.3568878173828, 79.0633544921875, 42.81063461303711, -0.06400000303983688, 0.0, 1.055999994277954, 0.0, 0.0, 0.0, 0.0, 0.0, 1.6218597160483568E9, 2021-05-24 14:35:16.048
25.0, -322.37750244140625, -213.12193298339844, 21.132305145263672, -18.692020416259766, -0.06400000303983688, 0.0, 1.055999994277954, 0.0, 0.0, 0.0, 0.0, 0.0, 1.6218597160618608E9, 2021-05-24 14:35:16.061
25.0, -198.03330993652344, -115.48436737060547, 149.03688049316406, 92.01649475097656, -0.06400000303983688, 0.0, 1.055999994277954, 0.0, 0.0, 0.0, 0.0, 0.0, 1.6218597160618608E9, 2021-05-24 14:35:16.061
26.0, -187.5054931640625, -97.27479553222656, 149.4856719970703, 99.17092895507812, -0.06400000303983688, 0.0, 1.055999994277954, 0.0, 0.0, 0.0, 0.0, 0.0, 1.6218597160776496E9, 2021-05-24 14:35:16.077
26.0, -256.00177001953125, -160.14999389648438, 78.57342529296875, 40.19644546508789, -0.06400000303983688, 0.0, 1.055999994277954, 0.0, 0.0, 0.0, 0.0, 0.0, 1.6218597160776496E9, 2021-05-24 14:35:16.077
27.0, -320.7132568359375, -220.56434631347656, 3.8053481578826904, -26.175559997558594, -0.06400000303983688, 0.0, 1.055999994277954, 0.0, 0.0, 0.0, 0.0, 0.0, 1.6218597160783477E9, 2021-05-24 14:35:16.078
27.0, -186.525634765625, -112.73180389404297, 149.15655517578125, 90.06053161621094, -0.06400000303983688, 0.0, 1.055999994277954, 0.0, 0.0, 0.0, 0.0, 0.0, 1.6218597160783477E9, 2021-05-24 14:35:16.078
28.0, -180.49691772460938, -91.92300415039062, 151.95774841308594, 104.14873504638672, -0.06400000303983688, 0.0, 1.055999994277954, 0.0, 0.0, 0.0, 0.0, 0.0, 1.621859716091895E9, 2021-05-24 14:35:16.091
28.0, -257.4603271484375, -155.1123504638672, 80.9295654296875, 50.58588790893555, -0.06400000303983688, 0.0, 1.055999994277954, 0.0, 0.0, 0.0, 0.0, 0.0, 1.621859716091895E9, 2021-05-24 14:35:16.091
29.0, -327.71435546875, -217.4340362548828, 12.926963806152344, -15.427087783813477, -0.06400000303983688, 0.0, 1.055999994277954, 0.0, 0.0, 0.0, 0.0, 0.0, 1.6218597161075284E9, 2021-05-24 14:35:16.107
29.0, -207.08387756347656, -107.75773620605469, 150.2037353515625, 92.58870697021484, -0.06400000303983688, 0.0, 1.055999994277954, 0.0, 0.0, 0.0, 0.0, 0.0, 1.6218597161075284E9, 2021-05-24 14:35:16.107
30.0, -203.8675537109375, -90.72997283935547, 158.12109375, 101.45974731445312, -0.06400000303983688, 0.0, 1.055999994277954, 0.0, 0.0, 0.0, 0.0, 0.0, 1.6218597161084116E9, 2021-05-24 14:35:16.108
30.0, -264.3753967285156, -147.77467346191406, 84.3814926147461, 38.6743049621582, -0.06400000303983688, 0.0, 1.055999994277954, 0.0, 0.0, 0.0, 0.0, 0.0, 1.6218597161084116E9, 2021-05-24 14:35:16.108
31.0, -334.8201599121094, -213.72032165527344, 6.486856460571289, -22.27110481262207, -0.06400000303983688, 0.0, 1.055999994277954, 0.0, 0.0, 0.0, 0.0, 0.0, 1.6218597161218925E9, 2021-05-24 14:35:16.121
31.0, -211.30247497558594, -110.03907775878906, 144.71356201171875, 96.86341094970703, -0.06400000303983688, 0.0, 1.055999994277954, 0.0, 0.0, 0.0, 0.0, 0.0, 1.6218597161218925E9, 2021-05-24 14:35:16.121
32.0, -197.86875915527344, -98.5014877319336, 144.09274291992188, 105.45770263671875, -0.08000000566244125, 0.0, 1.055999994277954, 0.0, 0.0, 0.0, 0.0, 0.0, 1.6218597161376495E9, 2021-05-24 14:35:16.137
32.0, -261.9930725097656, -160.38934326171875, 68.79358673095703, 36.84175491333008, -0.08000000566244125, 0.0, 1.055999994277954, 0.0, 0.0, 0.0, 0.0, 0.0, 1.6218597161376495E9, 2021-05-24 14:35:16.137
33.0, -320.0812072753906, -222.03038024902344, 4.6505656242370605, -24.309349060058594, -0.08000000566244125, 0.0, 1.055999994277954, 0.0, 0.0, 0.0, 0.0, 0.0, 1.6218597161383677E9, 2021-05-24 14:35:16.138
33.0, -198.03330993652344, -122.38448333740234, 136.78871154785156, 83.95701599121094, -0.08000000566244125, 0.0, 1.055999994277954, 0.0, 0.0, 0.0, 0.0, 0.0, 1.6218597161383677E9, 2021-05-24 14:35:16.138
34.0, -182.65110778808594, -98.43790435791016, 144.80331420898438, 94.05474090576172, -0.08000000566244125, 0.0, 1.055999994277954, 0.0, 0.0, 0.0, 0.0, 0.0, 1.6218597161519938E9, 2021-05-24 14:35:16.151
34.0, -257.3593444824219, -166.50408935546875, 77.93390655517578, 34.96058654785156, -0.08000000566244125, 0.0, 1.055999994277954, 0.0, 0.0, 0.0, 0.0, 0.0, 1.6218597161519938E9, 2021-05-24 14:35:16.151
35.0, -317.79986572265625, -224.6333465576172, 8.124932289123535, -22.540376663208008, -0.08000000566244125, 0.0, 1.055999994277954, 0.0, 0.0, 0.0, 0.0, 0.0, 1.6218597161676967E9, 2021-05-24 14:35:16.167
35.0, -199.27870178222656, -116.61007690429688, 145.3680419921875, 85.92794036865234, -0.08000000566244125, 0.0, 1.055999994277954, 0.0, 0.0, 0.0, 0.0, 0.0, 1.6218597161676967E9, 2021-05-24 14:35:16.167
36.0, -185.69912719726562, -99.91143035888672, 144.75469970703125, 97.24861907958984, -0.08000000566244125, 0.0, 1.055999994277954, 0.0, 0.0, 0.0, 0.0, 0.0, 1.6218597161683767E9, 2021-05-24 14:35:16.168
36.0, -250.13760375976562, -153.81834411621094, 69.62010955810547, 28.38957977294922, -0.08000000566244125, 0.0, 1.055999994277954, 0.0, 0.0, 0.0, 0.0, 0.0, 1.6218597161683767E9, 2021-05-24 14:35:16.168
37.0, -312.93426513671875, -220.1155548095703, 6.232543468475342, -22.420700073242188, -0.08000000566244125, 0.0, 1.055999994277954, 0.0, 0.0, 0.0, 0.0, 0.0, 1.6218597161819978E9, 2021-05-24 14:35:16.181
37.0, -199.14405822753906, -121.43829345703125, 139.84420776367188, 88.03350830078125, -0.08000000566244125, 0.0, 1.055999994277954, 0.0, 0.0, 0.0, 0.0, 0.0, 1.6218597161819978E9, 2021-05-24 14:35:16.181
38.0, -193.08168029785156, -103.59896850585938, 149.4295654296875, 110.49160766601562, -0.08000000566244125, 0.0, 1.055999994277954, 0.0, 0.0, 0.0, 0.0, 0.0, 1.6218597161975505E9, 2021-05-24 14:35:16.197
38.0, -259.7154846191406, -168.1010284423828, 69.6313247680664, 42.305747985839844, -0.08000000566244125, 0.0, 1.055999994277954, 0.0, 0.0, 0.0, 0.0, 0.0, 1.6218597161975505E9, 2021-05-24 14:35:16.197
39.0, -318.8283386230469, -225.25418090820312, 9.553574562072754, -14.697806358337402, -0.08000000566244125, 0.0, 1.055999994277954, 0.0, 0.0, 0.0, 0.0, 0.0, 1.6218597161982434E9, 2021-05-24 14:35:16.198
39.0, -199.21511840820312, -124.20581817626953, 140.7904052734375, 98.76327514648438, -0.08000000566244125, 0.0, 1.055999994277954, 0.0, 0.0, 0.0, 0.0, 0.0, 1.6218597161982434E9, 2021-05-24 14:35:16.198
40.0, -195.16854858398438, -114.040771484375, 140.12844848632812, 95.94338989257812, -0.08000000566244125, 0.0, 1.055999994277954, 0.0, 0.0, 0.0, 0.0, 0.0, 1.6218597162120404E9, 2021-05-24 14:35:16.212
40.0, -263.3057861328125, -171.04432678222656, 71.1160659790039, 30.450265884399414, -0.08000000566244125, 0.0, 1.055999994277954, 0.0, 0.0, 0.0, 0.0, 0.0, 1.6218597162120404E9, 2021-05-24 14:35:16.212
41.0, -321.12091064453125, -228.8295135498047, 8.599900245666504, -18.796737670898438, -0.08000000566244125, 0.0, 1.055999994277954, 0.0, 0.0, 0.0, 0.0, 0.0, 1.6218597162275572E9, 2021-05-24 14:35:16.227
41.0, -205.74497985839844, -128.9629669189453, 138.17247009277344, 81.43632507324219, -0.08000000566244125, 0.0, 1.055999994277954, 0.0, 0.0, 0.0, 0.0, 0.0, 1.6218597162275572E9, 2021-05-24 14:35:16.227
42.0, -190.32537841796875, -92.5438232421875, 150.98162841796875, 100.12460327148438, -0.06400000303983688, 0.0, 1.055999994277954, 0.0, 0.0, 0.0, 0.0, 0.0, 1.6218597162282577E9, 2021-05-24 14:35:16.228
42.0, -262.5877380371094, -162.39393615722656, 69.64628601074219, 36.93525314331055, -0.06400000303983688, 0.0, 1.055999994277954, 0.0, 0.0, 0.0, 0.0, 0.0, 1.6218597162282577E9, 2021-05-24 14:35:16.228
43.0, -322.7926330566406, -220.97198486328125, 10.47732925415039, -31.142147064208984, -0.06400000303983688, 0.0, 1.055999994277954, 0.0, 0.0, 0.0, 0.0, 0.0, 1.6218597162419677E9, 2021-05-24 14:35:16.241
43.0, -199.3684539794922, -118.9774398803711, 137.0205841064453, 80.95387268066406, -0.06400000303983688, 0.0, 1.055999994277954, 0.0, 0.0, 0.0, 0.0, 0.0, 1.6218597162419677E9, 2021-05-24 14:35:16.241
44.0, -191.67922973632812, -106.2542953491211, 143.1988983154297, 94.82516479492188, -0.06400000303983688, 0.0, 1.055999994277954, 0.0, 0.0, 0.0, 0.0, 0.0, 1.6218597162575295E9, 2021-05-24 14:35:16.257
44.0, -260.4223327636719, -167.63352966308594, 66.41875457763672, 33.79747772216797, -0.06400000303983688, 0.0, 1.055999994277954, 0.0, 0.0, 0.0, 0.0, 0.0, 1.6218597162575295E9, 2021-05-24 14:35:16.257
45.0, -313.207275390625, -224.91758728027344, 11.786294937133789, -21.48572540283203, -0.06400000303983688, 0.0, 1.055999994277954, 0.0, 0.0, 0.0, 0.0, 0.0, 1.621859716258242E9, 2021-05-24 14:35:16.258
45.0, -191.4959716796875, -126.29267883300781, 140.19949340820312, 90.05679321289062, -0.06400000303983688, 0.0, 1.055999994277954, 0.0, 0.0, 0.0, 0.0, 0.0, 1.621859716258242E9, 2021-05-24 14:35:16.258
46.0, -185.06333923339844, -107.70537567138672, 145.8280487060547, 109.4444351196289, -0.06400000303983688, 0.0, 1.055999994277954, 0.0, 0.0, 0.0, 0.0, 0.0, 1.62185971627199E9, 2021-05-24 14:35:16.271
46.0, -255.8409423828125, -174.51121520996094, 69.8482437133789, 45.39864730834961, -0.06400000303983688, 0.0, 1.055999994277954, 0.0, 0.0, 0.0, 0.0, 0.0, 1.62185971627199E9, 2021-05-24 14:35:16.271
47.0, -319.8792419433594, -220.63539123535156, 11.281408309936523, -17.255897521972656, -0.06400000303983688, 0.0, 1.055999994277954, 0.0, 0.0, 0.0, 0.0, 0.0, 1.621859716288018E9, 2021-05-24 14:35:16.288
47.0, -205.80108642578125, -124.0636978149414, 139.1373748779297, 92.2034912109375, -0.06400000303983688, 0.0, 1.055999994277954, 0.0, 0.0, 0.0, 0.0, 0.0, 1.621859716288018E9, 2021-05-24 14:35:16.288
48.0, -190.38522338867188, -108.24018096923828, 141.23919677734375, 101.20917510986328, -0.06400000303983688, 0.0, 1.055999994277954, 0.0, 0.0, 0.0, 0.0, 0.0, 1.621859716302621E9, 2021-05-24 14:35:16.302
48.0, -266.2752685546875, -163.99087524414062, 75.7348403930664, 35.5814094543457, -0.06400000303983688, 0.0, 1.055999994277954, 0.0, 0.0, 0.0, 0.0, 0.0, 1.621859716302621E9, 2021-05-24 14:35:16.302
49.0, -328.7054138183594, -225.88247680664062, 9.149664878845215, -25.58465576171875, -0.06400000303983688, 0.0, 1.055999994277954, 0.0, 0.0, 0.0, 0.0, 0.0, 1.6218597163033533E9, 2021-05-24 14:35:16.303
49.0, -206.47427368164062, -120.90348815917969, 139.39541625976562, 90.15776824951172, -0.06400000303983688, 0.0, 1.055999994277954, 0.0, 0.0, 0.0, 0.0, 0.0, 1.6218597163033533E9, 2021-05-24 14:35:16.303
50.0, -197.4798126220703, -101.16803741455078, 141.56829833984375, 103.183837890625, -0.06400000303983688, 0.0, 1.055999994277954, 0.0, 0.0, 0.0, 0.0, 0.0, 1.621859716317994E9, 2021-05-24 14:35:16.317
50.0, -259.5322265625, -165.56536865234375, 67.06575775146484, 32.69794464111328, -0.06400000303983688, 0.0, 1.055999994277954, 0.0, 0.0, 0.0, 0.0, 0.0, 1.621859716317994E9, 2021-05-24 14:35:16.317
51.0, -322.1119689941406, -224.6408233642578, 0.6002539396286011, -29.631227493286133, -0.06400000303983688, 0.0, 1.055999994277954, 0.0, 0.0, 0.0, 0.0, 0.0, 1.6218597163326375E9, 2021-05-24 14:35:16.332
51.0, -201.81808471679688, -123.94402313232422, 135.8163299560547, 82.17681884765625, -0.06400000303983688, 0.0, 1.055999994277954, 0.0, 0.0, 0.0, 0.0, 0.0, 1.6218597163326375E9, 2021-05-24 14:35:16.332
52.0, -193.6052703857422, -105.0911865234375, 140.94747924804688, 98.07139587402344, -0.06400000303983688, 0.0, 1.055999994277954, 0.0, 0.0, 0.0, 0.0, 0.0, 1.6218597163332837E9, 2021-05-24 14:35:16.333
52.0, -264.50628662109375, -160.13504028320312, 68.38967895507812, 32.01728439331055, -0.06400000303983688, 0.0, 1.055999994277954, 0.0, 0.0, 0.0, 0.0, 0.0, 1.6218597163332837E9, 2021-05-24 14:35:16.333
53.0, -331.7945861816406, -227.28868103027344, 1.0453020334243774, -20.146841049194336, -0.06400000303983688, 0.0, 1.055999994277954, 0.0, 0.0, 0.0, 0.0, 0.0, 1.621859716363947E9, 2021-05-24 14:35:16.363
53.0, -210.94345092773438, -128.7984161376953, 128.99476623535156, 85.12760162353516, -0.06400000303983688, 0.0, 1.055999994277954, 0.0, 0.0, 0.0, 0.0, 0.0, 1.621859716363947E9, 2021-05-24 14:35:16.363
54.0, -205.2326202392578, -109.81094360351562, 132.3980712890625, 93.5423812866211, -0.06400000303983688, 0.0, 1.055999994277954, 0.0, 0.0, 0.0, 0.0, 0.0, 1.6218597163646357E9, 2021-05-24 14:35:16.364
54.0, -262.69244384765625, -155.8752899169922, 67.05827331542969, 38.70048522949219, -0.06400000303983688, 0.0, 1.055999994277954, 0.0, 0.0, 0.0, 0.0, 0.0, 1.6218597163646357E9, 2021-05-24 14:35:16.364
55.0, -332.2770080566406, -231.99346923828125, 2.7544362545013428, -21.534343719482422, -0.06400000303983688, 0.0, 1.055999994277954, 0.0, 0.0, 0.0, 0.0, 0.0, 1.621859716365383E9, 2021-05-24 14:35:16.365
55.0, -208.4451904296875, -133.21524047851562, 132.45042419433594, 89.0507583618164, -0.06400000303983688, 0.0, 1.055999994277954, 0.0, 0.0, 0.0, 0.0, 0.0, 1.621859716365383E9, 2021-05-24 14:35:16.365
56.0, -186.95947265625, -102.88838958740234, 150.38323974609375, 103.07164001464844, -0.06400000303983688, 0.0, 1.055999994277954, 0.0, 0.0, 0.0, 0.0, 0.0, 1.6218597163661382E9, 2021-05-24 14:35:16.366
56.0, -248.78749084472656, -161.1410675048828, 75.53289031982422, 37.451358795166016, -0.06400000303983688, 0.0, 1.055999994277954, 0.0, 0.0, 0.0, 0.0, 0.0, 1.6218597163661382E9, 2021-05-24 14:35:16.366
57.0, -321.7828674316406, -222.24356079101562, 11.980769157409668, -25.37896156311035, -0.06400000303983688, 0.0, 1.055999994277954, 0.0, 0.0, 0.0, 0.0, 0.0, 1.621859716376995E9, 2021-05-24 14:35:16.376
57.0, -202.75306701660156, -118.7605209350586, 143.47190856933594, 86.9638900756836, -0.06400000303983688, 0.0, 1.055999994277954, 0.0, 0.0, 0.0, 0.0, 0.0, 1.621859716376995E9, 2021-05-24 14:35:16.376
58.0, -193.16021728515625, -101.80007934570312, 144.66119384765625, 98.71092224121094, -0.06400000303983688, 0.0, 1.055999994277954, 0.0, 0.0, 0.0, 0.0, 0.0, 1.62185971639195E9, 2021-05-24 14:35:16.391
58.0, -260.646728515625, -158.3323974609375, 72.87007904052734, 39.8598518371582, -0.06400000303983688, 0.0, 1.055999994277954, 0.0, 0.0, 0.0, 0.0, 0.0, 1.62185971639195E9, 2021-05-24 14:35:16.391
59.0, -328.2828063964844, -217.79681396484375, 3.416398525238037, -25.749210357666016, -0.06400000303983688, 0.0, 1.055999994277954, 0.0, 0.0, 0.0, 0.0, 0.0, 1.6218597164077055E9, 2021-05-24 14:35:16.407
59.0, -200.6475067138672, -117.58245086669922, 137.04302978515625, 86.74324035644531, -0.06400000303983688, 0.0, 1.055999994277954, 0.0, 0.0, 0.0, 0.0, 0.0, 1.6218597164077055E9, 2021-05-24 14:35:16.407
60.0, -189.85415649414062, -102.30870056152344, 149.17152404785156, 107.29399108886719, -0.06400000303983688, 0.0, 1.055999994277954, 0.0, 0.0, 0.0, 0.0, 0.0, 1.621859716408404E9, 2021-05-24 14:35:16.408
60.0, -257.54632568359375, -162.4949188232422, 64.85547637939453, 36.243370056152344, -0.06400000303983688, 0.0, 1.055999994277954, 0.0, 0.0, 0.0, 0.0, 0.0, 1.621859716408404E9, 2021-05-24 14:35:16.408
61.0, -319.70721435546875, -227.05307006835938, 0.013089649379253387, -30.40912628173828, -0.06400000303983688, 0.0, 1.055999994277954, 0.0, 0.0, 0.0, 0.0, 0.0, 1.6218597164219215E9, 2021-05-24 14:35:16.421
61.0, -203.5833282470703, -126.247802734375, 137.04676818847656, 82.6480484008789, -0.06400000303983688, 0.0, 1.055999994277954, 0.0, 0.0, 0.0, 0.0, 0.0, 1.6218597164219215E9, 2021-05-24 14:35:16.421
62.0, -191.4398651123047, -104.81069946289062, 148.51329040527344, 102.2750473022461, -0.06400000303983688, 0.0, 1.055999994277954, 0.0, 0.0, 0.0, 0.0, 0.0, 1.6218597164379525E9, 2021-05-24 14:35:16.437
62.0, -267.86846923828125, -160.3295135498047, 65.3902816772461, 37.103546142578125, -0.06400000303983688, 0.0, 1.055999994277954, 0.0, 0.0, 0.0, 0.0, 0.0, 1.6218597164379525E9, 2021-05-24 14:35:16.437
63.0, -319.0115966796875, -226.73516845703125, 2.432804822921753, -20.131881713867188, -0.06400000303983688, 0.0, 1.055999994277954, 0.0, 0.0, 0.0, 0.0, 0.0, 1.6218597164526074E9, 2021-05-24 14:35:16.452
63.0, -201.1935272216797, -130.49632263183594, 135.831298828125, 85.01166534423828, -0.06400000303983688, 0.0, 1.055999994277954, 0.0, 0.0, 0.0, 0.0, 0.0, 1.6218597164526074E9, 2021-05-24 14:35:16.452
64.0, -185.26528930664062, -115.54046630859375, 135.6143798828125, 92.51764678955078, -0.06400000303983688, 0.0, 1.055999994277954, 0.0, 0.0, 0.0, 0.0, 0.0, 1.6218597164534109E9, 2021-05-24 14:35:16.453
64.0, -258.9787292480469, -172.6337890625, 61.82615661621094, 28.815929412841797, -0.06400000303983688, 0.0, 1.055999994277954, 0.0, 0.0, 0.0, 0.0, 0.0, 1.6218597164534109E9, 2021-05-24 14:35:16.453
65.0, -323.054443359375, -233.751220703125, 2.978830337524414, -21.964431762695312, -0.06400000303983688, 0.0, 1.055999994277954, 0.0, 0.0, 0.0, 0.0, 0.0, 1.621859716467549E9, 2021-05-24 14:35:16.467
65.0, -198.8710479736328, -124.12728118896484, 135.92478942871094, 80.15353393554688, -0.06400000303983688, 0.0, 1.055999994277954, 0.0, 0.0, 0.0, 0.0, 0.0, 1.621859716467549E9, 2021-05-24 14:35:16.467
66.0, -186.26010131835938, -111.75569152832031, 140.82406616210938, 93.95376586914062, -0.06400000303983688, 0.0, 1.055999994277954, 0.0, 0.0, 0.0, 0.0, 0.0, 1.6218597164683852E9, 2021-05-24 14:35:16.468
66.0, -254.22157287597656, -162.3677520751953, 83.35301971435547, 40.9631233215332, -0.06400000303983688, 0.0, 1.055999994277954, 0.0, 0.0, 0.0, 0.0, 0.0, 1.6218597164683852E9, 2021-05-24 14:35:16.468
67.0, -328.53338623046875, -235.6136932373047, 14.621138572692871, -18.381608963012695, -0.06400000303983688, 0.0, 1.055999994277954, 0.0, 0.0, 0.0, 0.0, 0.0, 1.6218597164819095E9, 2021-05-24 14:35:16.481
67.0, -199.17771911621094, -122.55278015136719, 146.19082641601562, 86.23834991455078, -0.06400000303983688, 0.0, 1.055999994277954, 0.0, 0.0, 0.0, 0.0, 0.0, 1.6218597164819095E9, 2021-05-24 14:35:16.481
68.0, -187.87200927734375, -105.67835235595703, 145.1548614501953, 95.65167999267578, -0.06400000303983688, 0.0, 1.055999994277954, 0.0, 0.0, 0.0, 0.0, 0.0, 1.6218597164976068E9, 2021-05-24 14:35:16.497
68.0, -253.7316436767578, -167.77565002441406, 73.67790222167969, 36.729557037353516, -0.06400000303983688, 0.0, 1.055999994277954, 0.0, 0.0, 0.0, 0.0, 0.0, 1.6218597164976068E9, 2021-05-24 14:35:16.497
69.0, -312.2348937988281, -227.54299926757812, 1.5277491807937622, -27.192811965942383, -0.06400000303983688, 0.0, 1.055999994277954, 0.0, 0.0, 0.0, 0.0, 0.0, 1.621859716498325E9, 2021-05-24 14:35:16.498
69.0, -193.4481964111328, -119.70671844482422, 130.84226989746094, 84.88825225830078, -0.06400000303983688, 0.0, 1.055999994277954, 0.0, 0.0, 0.0, 0.0, 0.0, 1.621859716498325E9, 2021-05-24 14:35:16.498
70.0, -182.55386352539062, -101.90853118896484, 135.38998413085938, 96.05184936523438, -0.06400000303983688, 0.0, 1.055999994277954, 0.0, 0.0, 0.0, 0.0, 0.0, 1.6218597165119205E9, 2021-05-24 14:35:16.511
70.0, -247.22421264648438, -166.51904296875, 69.0628662109375, 40.45823669433594, -0.06400000303983688, 0.0, 1.055999994277954, 0.0, 0.0, 0.0, 0.0, 0.0, 1.6218597165119205E9, 2021-05-24 14:35:16.511
71.0, -311.8122863769531, -223.26454162597656, -1.942878007888794, -29.593828201293945, -0.06400000303983688, 0.0, 1.055999994277954, 0.0, 0.0, 0.0, 0.0, 0.0, 1.621859716527524E9, 2021-05-24 14:35:16.527
71.0, -194.24105834960938, -131.06105041503906, 126.44789123535156, 89.7688217163086, -0.06400000303983688, 0.0, 1.055999994277954, 0.0, 0.0, 0.0, 0.0, 0.0, 1.621859716527524E9, 2021-05-24 14:35:16.527
72.0, -184.04234313964844, -110.02411651611328, 137.88824462890625, 103.68124389648438, -0.06400000303983688, 0.0, 1.055999994277954, 0.0, 0.0, 0.0, 0.0, 0.0, 1.621859716528272E9, 2021-05-24 14:35:16.528
72.0, -256.3794860839844, -170.4197540283203, 64.07009887695312, 38.6331672668457, -0.06400000303983688, 0.0, 1.055999994277954, 0.0, 0.0, 0.0, 0.0, 0.0, 1.621859716528272E9, 2021-05-24 14:35:16.528
73.0, -321.4836730957031, -218.7093505859375, -0.3197614550590515, -18.792997360229492, -0.06400000303983688, 0.0, 1.055999994277954, 0.0, 0.0, 0.0, 0.0, 0.0, 1.6218597165419955E9, 2021-05-24 14:35:16.541
73.0, -194.52154541015625, -126.03836822509766, 134.1820068359375, 93.61343383789062, -0.06400000303983688, 0.0, 1.055999994277954, 0.0, 0.0, 0.0, 0.0, 0.0, 1.6218597165419955E9, 2021-05-24 14:35:16.541
74.0, -184.2742156982422, -106.32535552978516, 136.7737579345703, 98.72213745117188, -0.06400000303983688, 0.0, 1.055999994277954, 0.0, 0.0, 0.0, 0.0, 0.0, 1.621859716557558E9, 2021-05-24 14:35:16.557
74.0, -255.5941162109375, -165.85708618164062, 61.960792541503906, 37.683231353759766, -0.06400000303983688, 0.0, 1.055999994277954, 0.0, 0.0, 0.0, 0.0, 0.0, 1.621859716557558E9, 2021-05-24 14:35:16.557
75.0, -315.0248718261719, -226.79501342773438, -0.33098113536834717, -24.874074935913086, -0.06400000303983688, 0.0, 1.055999994277954, 0.0, 0.0, 0.0, 0.0, 0.0, 1.6218597165583308E9, 2021-05-24 14:35:16.558
75.0, -202.4688262939453, -127.95319366455078, 139.72079467773438, 93.3666000366211, -0.06400000303983688, 0.0, 1.055999994277954, 0.0, 0.0, 0.0, 0.0, 0.0, 1.6218597165583308E9, 2021-05-24 14:35:16.558
76.0, -193.4893341064453, -109.57532501220703, 142.615478515625, 102.45082092285156, -0.06400000303983688, 0.0, 1.055999994277954, 0.0, 0.0, 0.0, 0.0, 0.0, 1.6218597165719223E9, 2021-05-24 14:35:16.571
76.0, -264.7942810058594, -167.13238525390625, 66.0709457397461, 38.023563385009766, -0.06400000303983688, 0.0, 1.055999994277954, 0.0, 0.0, 0.0, 0.0, 0.0, 1.6218597165719223E9, 2021-05-24 14:35:16.571
77.0, -326.3081359863281, -232.2627410888672, 4.482270240783691, -19.219345092773438, -0.06400000303983688, 0.0, 1.055999994277954, 0.0, 0.0, 0.0, 0.0, 0.0, 1.6218597165875328E9, 2021-05-24 14:35:16.587
77.0, -204.3051300048828, -123.0950698852539, 139.41412353515625, 92.25959014892578, -0.06400000303983688, 0.0, 1.055999994277954, 0.0, 0.0, 0.0, 0.0, 0.0, 1.6218597165875328E9, 2021-05-24 14:35:16.587
78.0, -190.78538513183594, -119.07841491699219, 138.4230499267578, 93.98368835449219, -0.06400000303983688, 0.0, 1.055999994277954, 0.0, 0.0, 0.0, 0.0, 0.0, 1.6218597165882487E9, 2021-05-24 14:35:16.588
78.0, -260.87860107421875, -175.06845092773438, 67.43600463867188, 32.2902946472168, -0.06400000303983688, 0.0, 1.055999994277954, 0.0, 0.0, 0.0, 0.0, 0.0, 1.6218597165882487E9, 2021-05-24 14:35:16.588
79.0, -317.7437744140625, -230.20579528808594, 8.958930015563965, -24.040077209472656, -0.06400000303983688, 0.0, 1.055999994277954, 0.0, 0.0, 0.0, 0.0, 0.0, 1.621859716601867E9, 2021-05-24 14:35:16.601
79.0, -203.35145568847656, -131.07601928710938, 135.97715759277344, 81.40640258789062, -0.06400000303983688, 0.0, 1.055999994277954, 0.0, 0.0, 0.0, 0.0, 0.0, 1.621859716601867E9, 2021-05-24 14:35:16.601
80.0, -197.9659881591797, -105.4315185546875, 145.1997528076172, 103.66629028320312, -0.06400000303983688, 0.0, 1.055999994277954, 0.0, 0.0, 0.0, 0.0, 0.0, 1.6218597166175573E9, 2021-05-24 14:35:16.617
80.0, -265.29541015625, -163.40745544433594, 76.5351791381836, 37.062408447265625, -0.06400000303983688, 0.0, 1.055999994277954, 0.0, 0.0, 0.0, 0.0, 0.0, 1.6218597166175573E9, 2021-05-24 14:35:16.617
81.0, -334.6593322753906, -228.67991638183594, 0.0729280486702919, -18.41900634765625, -0.06400000303983688, 0.0, 1.055999994277954, 0.0, 0.0, 0.0, 0.0, 0.0, 1.621859716618323E9, 2021-05-24 14:35:16.618
81.0, -204.9259490966797, -122.89311218261719, 135.14315795898438, 86.3355941772461, -0.06400000303983688, 0.0, 1.055999994277954, 0.0, 0.0, 0.0, 0.0, 0.0, 1.621859716618323E9, 2021-05-24 14:35:16.618
82.0, -198.11932373046875, -109.37711334228516, 139.43655395507812, 104.32450866699219, -0.06400000303983688, 0.0, 1.055999994277954, 0.0, 0.0, 0.0, 0.0, 0.0, 1.621859716631924E9, 2021-05-24 14:35:16.631
82.0, -256.891845703125, -160.17617797851562, 74.32490539550781, 44.7142448425293, -0.06400000303983688, 0.0, 1.055999994277954, 0.0, 0.0, 0.0, 0.0, 0.0, 1.621859716631924E9, 2021-05-24 14:35:16.631
83.0, -327.5572814941406, -229.4279022216797, -3.2032244205474854, -20.561969757080078, -0.06400000303983688, 0.0, 1.055999994277954, 0.0, 0.0, 0.0, 0.0, 0.0, 1.621859716647642E9, 2021-05-24 14:35:16.647
83.0, -201.8367919921875, -116.61382293701172, 141.83383178710938, 87.8652114868164, -0.06400000303983688, 0.0, 1.055999994277954, 0.0, 0.0, 0.0, 0.0, 0.0, 1.621859716647642E9, 2021-05-24 14:35:16.647
84.0, -196.05490112304688, -110.4317626953125, 146.71066284179688, 102.16658782958984, -0.06400000303983688, 0.0, 1.055999994277954, 0.0, 0.0, 0.0, 0.0, 0.0, 1.6218597166483543E9, 2021-05-24 14:35:16.648
84.0, -270.9800720214844, -160.9989471435547, 74.38848114013672, 37.649574279785156, -0.06400000303983688, 0.0, 1.055999994277954, 0.0, 0.0, 0.0, 0.0, 0.0, 1.6218597166483543E9, 2021-05-24 14:35:16.648
85.0, -334.8351135253906, -222.3968963623047, 10.574566841125488, -20.528310775756836, -0.06400000303983688, 0.0, 1.055999994277954, 0.0, 0.0, 0.0, 0.0, 0.0, 1.6218597166619627E9, 2021-05-24 14:35:16.661
85.0, -213.3369903564453, -128.52540588378906, 142.33872985839844, 87.8652114868164, -0.06400000303983688, 0.0, 1.055999994277954, 0.0, 0.0, 0.0, 0.0, 0.0, 1.6218597166619627E9, 2021-05-24 14:35:16.661
86.0, -203.68429565429688, -114.25394439697266, 143.3410186767578, 98.28083038330078, -0.06400000303983688, 0.0, 1.055999994277954, 0.0, 0.0, 0.0, 0.0, 0.0, 1.621859716677663E9, 2021-05-24 14:35:16.677
86.0, -277.78668212890625, -166.03285217285156, 71.92388916015625, 32.97843933105469, -0.06400000303983688, 0.0, 1.055999994277954, 0.0, 0.0, 0.0, 0.0, 0.0, 1.621859716677663E9, 2021-05-24 14:35:16.677
87.0, -340.003662109375, -223.59365844726562, 6.329780578613281, -20.700345993041992, -0.06400000303983688, 0.0, 1.055999994277954, 0.0, 0.0, 0.0, 0.0, 0.0, 1.6218597166784036E9, 2021-05-24 14:35:16.678
87.0, -213.25843811035156, -123.11376953125, 138.2397918701172, 87.05364990234375, -0.06400000303983688, 0.0, 1.055999994277954, 0.0, 0.0, 0.0, 0.0, 0.0, 1.6218597166784036E9, 2021-05-24 14:35:16.678
88.0, -203.6581268310547, -117.92652893066406, 138.89801025390625, 98.51270294189453, -0.06400000303983688, 0.0, 1.055999994277954, 0.0, 0.0, 0.0, 0.0, 0.0, 1.621859716691919E9, 2021-05-24 14:35:16.691
88.0, -269.5551452636719, -161.08123779296875, 68.46821594238281, 32.60818862915039, -0.06400000303983688, 0.0, 1.055999994277954, 0.0, 0.0, 0.0, 0.0, 0.0, 1.621859716691919E9, 2021-05-24 14:35:16.691
89.0, -339.30804443359375, -221.7573699951172, 8.71209716796875, -24.915212631225586, -0.06400000303983688, 0.0, 1.055999994277954, 0.0, 0.0, 0.0, 0.0, 0.0, 1.6218597167076225E9, 2021-05-24 14:35:16.707
89.0, -212.0504608154297, -130.71324157714844, 130.83853149414062, 83.52692413330078, -0.06400000303983688, 0.0, 1.055999994277954, 0.0, 0.0, 0.0, 0.0, 0.0, 1.6218597167076225E9, 2021-05-24 14:35:16.707
90.0, -188.93414306640625, -115.66014862060547, 142.97824096679688, 96.36225891113281, -0.06400000303983688, 0.0, 1.055999994277954, 0.0, 0.0, 0.0, 0.0, 0.0, 1.6218597167083533E9, 2021-05-24 14:35:16.708
90.0, -264.9476013183594, -168.53858947753906, 72.5970687866211, 34.923187255859375, -0.06400000303983688, 0.0, 1.055999994277954, 0.0, 0.0, 0.0, 0.0, 0.0, 1.6218597167083533E9, 2021-05-24 14:35:16.708
91.0, -335.50830078125, -229.09878540039062, 4.242916584014893, -24.660900115966797, -0.06400000303983688, 0.0, 1.055999994277954, 0.0, 0.0, 0.0, 0.0, 0.0, 1.621859716721858E9, 2021-05-24 14:35:16.721
91.0, -207.6037139892578, -132.5233612060547, 139.66094970703125, 86.64974212646484, -0.06400000303983688, 0.0, 1.055999994277954, 0.0, 0.0, 0.0, 0.0, 0.0, 1.621859716721858E9, 2021-05-24 14:35:16.721
92.0, -194.64495849609375, -115.29363250732422, 138.0640106201172, 92.94025421142578, -0.06400000303983688, 0.0, 1.055999994277954, 0.0, 0.0, 0.0, 0.0, 0.0, 1.621859716737626E9, 2021-05-24 14:35:16.737
92.0, -257.841796875, -171.04058837890625, 66.63566589355469, 35.47294998168945, -0.06400000303983688, 0.0, 1.055999994277954, 0.0, 0.0, 0.0, 0.0, 0.0, 1.621859716737626E9, 2021-05-24 14:35:16.737
93.0, -320.7244567871094, -232.3151092529297, 5.503262996673584, -31.848987579345703, -0.06400000303983688, 0.0, 1.055999994277954, 0.0, 0.0, 0.0, 0.0, 0.0, 1.6218597167383475E9, 2021-05-24 14:35:16.738
93.0, -193.9456024169922, -127.433349609375, 139.05508422851562, 85.2771987915039, -0.06400000303983688, 0.0, 1.055999994277954, 0.0, 0.0, 0.0, 0.0, 0.0, 1.6218597167383475E9, 2021-05-24 14:35:16.738
94.0, -192.51695251464844, -116.46048736572266, 138.625, 92.1212158203125, -0.06400000303983688, 0.0, 1.055999994277954, 0.0, 0.0, 0.0, 0.0, 0.0, 1.6218597167519057E9, 2021-05-24 14:35:16.751
94.0, -256.4468078613281, -172.53280639648438, 68.3635025024414, 38.69674301147461, -0.06400000303983688, 0.0, 1.055999994277954, 0.0, 0.0, 0.0, 0.0, 0.0, 1.6218597167519057E9, 2021-05-24 14:35:16.751
