Sample Index, EXG Channel 0, EXG Channel 1, EXG Channel 2, EXG Channel 3, Accel Channel 0, Accel Channel 1, Accel Channel 2, Other, Other, Other, Other, Other, Timestamp, Timestamp (Formatted)
0.0, -244.44920349121094, -130.21209716796875, 29.5956974029541, -33.94333267211914, 0.0, 0.0, 0.0, 0.0, 0.0, 0.0, 0.0, 0.0, 1.621860267967396E9, 2021-05-24 14:44:27.967
1.0, -196.64955139160156, -105.57363891601562, 91.75657653808594, -3.7099807262420654, 0.0, 0.01600000075995922, 0.0, 0.0, 0.0, 0.0, 0.0, 0.0, 1.6218602679681423E9, 2021-05-24 14:44:27.968
1.0, -83.25204467773438, -3.6875412464141846, 202.62591552734375, 104.80321502685547, 0.0, 0.01600000075995922, 0.0, 0.0, 0.0, 0.0, 0.0, 0.0, 1.6218602679681423E9, 2021-05-24 14:44:27.968
2.0, -144.5602264404297, -42.077613830566406, 133.4115753173828, 51.244110107421875, -0.08000000566244125, 0.01600000075995922, 0.0, 0.0, 0.0, 0.0, 0.0, 0.0, 1.6218602679829173E9, 2021-05-24 14:44:27.982
2.0, -251.22964477539062, -126.72277069091797, 27.44899559020996, -36.46028518676758, -0.08000000566244125, 0.01600000075995922, 0.0, 0.0, 0.0, 0.0, 0.0, 0.0, 1.6218602679829173E9, 2021-05-24 14:44:27.982
3.0, -187.7074432373047, -111.70706939697266, 90.60842895507812, -4.285925388336182, -0.08000000566244125, 0.01600000075995922, 0.0, 0.0, 0.0, 0.0, 0.0, 0.0, 1.6218602679841633E9, 2021-05-24 14:44:27.984
3.0, -73.17675018310547, -5.852943420410156, 200.08277893066406, 101.43356323242188, -0.08000000566244125, 0.01600000075995922, 0.0, 0.0, 0.0, 0.0, 0.0, 0.0, 1.6218602679841633E9, 2021-05-24 14:44:27.984
4.0, -134.74298095703125, -52.39225769042969, 141.2167510986328, 53.390811920166016, -0.08000000566244125, 0.01600000075995922, 0.0, 0.0, 0.0, 0.0, 0.0, 0.0, 1.6218602679964848E9, 2021-05-24 14:44:27.996
4.0, -246.27427673339844, -142.011474609375, 28.383970260620117, -40.24506378173828, -0.08000000566244125, 0.01600000075995922, 0.0, 0.0, 0.0, 0.0, 0.0, 0.0, 1.6218602679964848E9, 2021-05-24 14:44:27.996
5.0, -184.50608825683594, -105.78307342529297, 91.90617370605469, -1.0060330629348755, -0.08000000566244125, 0.01600000075995922, 0.0, 0.0, 0.0, 0.0, 0.0, 0.0, 1.6218602680285249E9, 2021-05-24 14:44:28.028
5.0, -80.87346649169922, -3.4332282543182373, 200.3146514892578, 104.39183044433594, -0.08000000566244125, 0.01600000075995922, 0.0, 0.0, 0.0, 0.0, 0.0, 0.0, 1.6218602680285249E9, 2021-05-24 14:44:28.028
6.0, -144.57144165039062, -48.36438751220703, 133.33303833007812, 55.12612533569336, -0.08000000566244125, 0.01600000075995922, 0.0, 0.0, 0.0, 0.0, 0.0, 0.0, 1.621860268029244E9, 2021-05-24 14:44:28.029
6.0, -254.3262939453125, -138.09207153320312, 24.131704330444336, -42.39924621582031, -0.08000000566244125, 0.01600000075995922, 0.0, 0.0, 0.0, 0.0, 0.0, 0.0, 1.621860268029244E9, 2021-05-24 14:44:28.029
7.0, -191.39498901367188, -111.8117904663086, 80.07312774658203, -10.445540428161621, -0.08000000566244125, 0.01600000075995922, 0.0, 0.0, 0.0, 0.0, 0.0, 0.0, 1.6218602680299911E9, 2021-05-24 14:44:28.029
7.0, -80.29378509521484, -4.779592037200928, 200.78213500976562, 96.84471130371094, -0.08000000566244125, 0.01600000075995922, 0.0, 0.0, 0.0, 0.0, 0.0, 0.0, 1.6218602680299911E9, 2021-05-24 14:44:28.029
8.0, -141.65806579589844, -55.870365142822266, 124.1889877319336, 46.34109878540039, -0.08000000566244125, 0.01600000075995922, 0.0, 0.0, 0.0, 0.0, 0.0, 0.0, 1.6218602680307448E9, 2021-05-24 14:44:28.030
8.0, -236.78240966796875, -142.2657928466797, 26.117591857910156, -35.08026123046875, -0.08000000566244125, 0.01600000075995922, 0.0, 0.0, 0.0, 0.0, 0.0, 0.0, 1.6218602680307448E9, 2021-05-24 14:44:28.030
9.0, -181.45433044433594, -120.49583435058594, 87.79228210449219, -4.304625034332275, -0.08000000566244125, 0.01600000075995922, 0.0, 0.0, 0.0, 0.0, 0.0, 0.0, 1.6218602680415037E9, 2021-05-24 14:44:28.041
9.0, -75.08409881591797, -12.360369682312012, 201.85923767089844, 107.0583724975586, -0.08000000566244125, 0.01600000075995922, 0.0, 0.0, 0.0, 0.0, 0.0, 0.0, 1.6218602680415037E9, 2021-05-24 14:44:28.041
10.0, -143.91322326660156, -50.574668884277344, 136.7139129638672, 53.136497497558594, -0.08000000566244125, 0.01600000075995922, 1.055999994277954, 0.0, 0.0, 0.0, 0.0, 0.0, 1.6218602680564947E9, 2021-05-24 14:44:28.056
10.0, -241.6068878173828, -128.74606323242188, 34.420169830322266, -31.96492576599121, -0.08000000566244125, 0.01600000075995922, 1.055999994277954, 0.0, 0.0, 0.0, 0.0, 0.0, 1.6218602680564947E9, 2021-05-24 14:44:28.056
11.0, -192.27760314941406, -108.37482452392578, 89.41913604736328, -0.7105810046195984, -0.08000000566244125, 0.0, 1.055999994277954, 0.0, 0.0, 0.0, 0.0, 0.0, 1.6218602680722415E9, 2021-05-24 14:44:28.072
11.0, -82.08893585205078, -3.6351828575134277, 209.00244140625, 104.05523681640625, -0.08000000566244125, 0.0, 1.055999994277954, 0.0, 0.0, 0.0, 0.0, 0.0, 1.6218602680722415E9, 2021-05-24 14:44:28.072
12.0, -148.87606811523438, -48.37934494018555, 141.5570831298828, 54.53895950317383, -0.06400000303983688, 0.0, 1.055999994277954, 0.0, 0.0, 0.0, 0.0, 0.0, 1.621860268073009E9, 2021-05-24 14:44:28.073
12.0, -254.3636932373047, -142.1461181640625, 29.360084533691406, -38.068443298339844, -0.06400000303983688, 0.0, 1.055999994277954, 0.0, 0.0, 0.0, 0.0, 0.0, 1.621860268073009E9, 2021-05-24 14:44:28.073
13.0, -191.64930725097656, -106.95365905761719, 97.07845306396484, 0.1645555943250656, -0.06400000303983688, 0.0, 1.055999994277954, 0.0, 0.0, 0.0, 0.0, 0.0, 1.6218602680865152E9, 2021-05-24 14:44:28.086
13.0, -78.83522033691406, -2.580530881881714, 204.6267547607422, 102.36479949951172, -0.06400000303983688, 0.0, 1.055999994277954, 0.0, 0.0, 0.0, 0.0, 0.0, 1.6218602680865152E9, 2021-05-24 14:44:28.086
14.0, -140.68568420410156, -56.39021301269531, 134.54103088378906, 50.36897277832031, -0.06400000303983688, 0.0, 1.055999994277954, 0.0, 0.0, 0.0, 0.0, 0.0, 1.6218602681021423E9, 2021-05-24 14:44:28.102
14.0, -243.48431396484375, -141.342041015625, 22.931196212768555, -40.42083740234375, -0.06400000303983688, 0.0, 1.055999994277954, 0.0, 0.0, 0.0, 0.0, 0.0, 1.6218602681021423E9, 2021-05-24 14:44:28.102
15.0, -190.24684143066406, -107.06959533691406, 87.19015502929688, -2.228980302810669, -0.06400000303983688, 0.0, 1.055999994277954, 0.0, 0.0, 0.0, 0.0, 0.0, 1.6218602681028893E9, 2021-05-24 14:44:28.102
15.0, -80.64159393310547, -6.630842685699463, 205.07180786132812, 100.1507797241211, -0.06400000303983688, 0.0, 1.055999994277954, 0.0, 0.0, 0.0, 0.0, 0.0, 1.6218602681028893E9, 2021-05-24 14:44:28.102
16.0, -142.79873657226562, -54.69977569580078, 134.05857849121094, 51.98086929321289, -0.06400000303983688, 0.0, 1.055999994277954, 0.0, 0.0, 0.0, 0.0, 0.0, 1.6218602681164978E9, 2021-05-24 14:44:28.116
16.0, -239.1796875, -135.58633422851562, 23.731534957885742, -41.85696029663086, -0.06400000303983688, 0.0, 1.055999994277954, 0.0, 0.0, 0.0, 0.0, 0.0, 1.6218602681164978E9, 2021-05-24 14:44:28.116
17.0, -183.38412475585938, -105.68209075927734, 88.04659271240234, -2.7937052249908447, -0.06400000303983688, 0.0, 1.055999994277954, 0.0, 0.0, 0.0, 0.0, 0.0, 1.6218602681321957E9, 2021-05-24 14:44:28.132
17.0, -83.3604965209961, -3.1676952838897705, 196.62710571289062, 93.43392181396484, -0.06400000303983688, 0.0, 1.055999994277954, 0.0, 0.0, 0.0, 0.0, 0.0, 1.6218602681321957E9, 2021-05-24 14:44:28.132
18.0, -139.59738159179688, -53.33097457885742, 135.41616821289062, 47.38079071044922, -0.06400000303983688, 0.0, 1.055999994277954, 0.0, 0.0, 0.0, 0.0, 0.0, 1.6218602681329885E9, 2021-05-24 14:44:28.132
18.0, -242.29129028320312, -144.49851989746094, 24.741308212280273, -39.3848876953125, -0.06400000303983688, 0.0, 1.055999994277954, 0.0, 0.0, 0.0, 0.0, 0.0, 1.6218602681329885E9, 2021-05-24 14:44:28.132
19.0, -184.51358032226562, -114.56061553955078, 89.75572967529297, 1.0546517372131348, -0.06400000303983688, 0.0, 1.055999994277954, 0.0, 0.0, 0.0, 0.0, 0.0, 1.6218602681464972E9, 2021-05-24 14:44:28.146
19.0, -80.17784881591797, -12.532404899597168, 203.650634765625, 103.42693328857422, -0.06400000303983688, 0.0, 1.055999994277954, 0.0, 0.0, 0.0, 0.0, 0.0, 1.6218602681464972E9, 2021-05-24 14:44:28.146
20.0, -142.30506896972656, -58.98944091796875, 133.59109497070312, 53.0467414855957, -0.06400000303983688, 0.0, 1.040000081062317, 0.0, 0.0, 0.0, 0.0, 0.0, 1.621860268162182E9, 2021-05-24 14:44:28.162
20.0, -251.7794189453125, -142.16856384277344, 24.696430206298828, -34.35845947265625, -0.06400000303983688, 0.0, 1.040000081062317, 0.0, 0.0, 0.0, 0.0, 0.0, 1.621860268162182E9, 2021-05-24 14:44:28.162
21.0, -181.5665283203125, -111.78186798095703, 92.92716217041016, 5.306918144226074, -0.06400000303983688, 0.0, 1.040000081062317, 0.0, 0.0, 0.0, 0.0, 0.0, 1.6218602681629171E9, 2021-05-24 14:44:28.162
21.0, -73.61431884765625, -3.317291259765625, 200.46424865722656, 104.08515930175781, -0.06400000303983688, 0.0, 1.040000081062317, 0.0, 0.0, 0.0, 0.0, 0.0, 1.6218602681629171E9, 2021-05-24 14:44:28.162
22.0, -133.30686950683594, -57.777713775634766, 137.80970764160156, 55.79182815551758, -0.06400000303983688, 0.0, 1.040000081062317, 0.0, 0.0, 0.0, 0.0, 0.0, 1.621860268176546E9, 2021-05-24 14:44:28.176
22.0, -239.97254943847656, -148.5076904296875, 30.553112030029297, -40.263763427734375, -0.06400000303983688, 0.0, 1.040000081062317, 0.0, 0.0, 0.0, 0.0, 0.0, 1.621860268176546E9, 2021-05-24 14:44:28.176
23.0, -180.8933563232422, -115.27867889404297, 92.83366394042969, 0.31789150834083557, -0.06400000303983688, 0.0, 1.040000081062317, 0.0, 0.0, 0.0, 0.0, 0.0, 1.621860268192151E9, 2021-05-24 14:44:28.192
23.0, -75.48426818847656, -21.863454818725586, 207.96275329589844, 104.2646713256836, -0.06400000303983688, 0.0, 1.040000081062317, 0.0, 0.0, 0.0, 0.0, 0.0, 1.621860268192151E9, 2021-05-24 14:44:28.192
24.0, -135.1880340576172, -60.642478942871094, 144.55648803710938, 57.9647102355957, -0.06400000303983688, 0.0, 1.040000081062317, 0.0, 0.0, 0.0, 0.0, 0.0, 1.621860268192908E9, 2021-05-24 14:44:28.192
24.0, -242.75877380371094, -148.81436157226562, 34.19577407836914, -35.626285552978516, -0.06400000303983688, 0.0, 1.040000081062317, 0.0, 0.0, 0.0, 0.0, 0.0, 1.621860268192908E9, 2021-05-24 14:44:28.192
25.0, -185.20919799804688, -115.86583709716797, 99.51313018798828, 4.816991329193115, -0.06400000303983688, 0.0, 1.040000081062317, 0.0, 0.0, 0.0, 0.0, 0.0, 1.6218602682065277E9, 2021-05-24 14:44:28.206
25.0, -78.60334777832031, -10.352043151855469, 204.3350372314453, 105.60729217529297, -0.06400000303983688, 0.0, 1.040000081062317, 0.0, 0.0, 0.0, 0.0, 0.0, 1.6218602682065277E9, 2021-05-24 14:44:28.206
26.0, -141.1681365966797, -54.868072509765625, 136.04446411132812, 60.52280044555664, -0.06400000303983688, 0.0, 1.040000081062317, 0.0, 0.0, 0.0, 0.0, 0.0, 1.6218602682221432E9, 2021-05-24 14:44:28.222
26.0, -246.40892028808594, -139.66656494140625, 25.354652404785156, -34.71001052856445, -0.06400000303983688, 0.0, 1.040000081062317, 0.0, 0.0, 0.0, 0.0, 0.0, 1.6218602682221432E9, 2021-05-24 14:44:28.222
27.0, -182.95404052734375, -113.21051025390625, 93.72002410888672, 7.124509334564209, -0.06400000303983688, 0.0, 1.040000081062317, 0.0, 0.0, 0.0, 0.0, 0.0, 1.6218602682229035E9, 2021-05-24 14:44:28.222
27.0, -82.578857421875, -11.253358840942383, 206.86322021484375, 107.89611053466797, -0.06400000303983688, 0.0, 1.040000081062317, 0.0, 0.0, 0.0, 0.0, 0.0, 1.6218602682229035E9, 2021-05-24 14:44:28.222
28.0, -145.98886108398438, -65.52678680419922, 130.38600158691406, 53.398292541503906, -0.06400000303983688, 0.0, 1.040000081062317, 0.0, 0.0, 0.0, 0.0, 0.0, 1.6218602682365327E9, 2021-05-24 14:44:28.236
28.0, -252.2020263671875, -149.0948486328125, 31.252473831176758, -37.926326751708984, -0.06400000303983688, 0.0, 1.040000081062317, 0.0, 0.0, 0.0, 0.0, 0.0, 1.6218602682365327E9, 2021-05-24 14:44:28.236
29.0, -181.0616455078125, -115.2898941040039, 89.80060577392578, 3.833397388458252, -0.06400000303983688, 0.0, 1.040000081062317, 0.0, 0.0, 0.0, 0.0, 0.0, 1.6218602682522635E9, 2021-05-24 14:44:28.252
29.0, -75.39451599121094, -16.80337142944336, 195.7744140625, 99.15970611572266, -0.06400000303983688, 0.0, 1.040000081062317, 0.0, 0.0, 0.0, 0.0, 0.0, 1.6218602682522635E9, 2021-05-24 14:44:28.252
30.0, -130.46453857421875, -58.723907470703125, 130.70762634277344, 54.924171447753906, -0.06400000303983688, 0.0, 1.040000081062317, 0.0, 0.0, 0.0, 0.0, 0.0, 1.6218602682530332E9, 2021-05-24 14:44:28.253
30.0, -240.5036163330078, -146.6377410888672, 22.69558334350586, -35.903038024902344, -0.06400000303983688, 0.0, 1.040000081062317, 0.0, 0.0, 0.0, 0.0, 0.0, 1.6218602682530332E9, 2021-05-24 14:44:28.253
31.0, -175.26853942871094, -114.07817077636719, 90.78046417236328, 4.1737284660339355, -0.06400000303983688, 0.0, 1.040000081062317, 0.0, 0.0, 0.0, 0.0, 0.0, 1.6218602682664433E9, 2021-05-24 14:44:28.266
31.0, -71.66583251953125, -8.55315113067627, 202.805419921875, 100.42005157470703, -0.06400000303983688, 0.0, 1.040000081062317, 0.0, 0.0, 0.0, 0.0, 0.0, 1.6218602682664433E9, 2021-05-24 14:44:28.266
32.0, -138.8680877685547, -50.0959587097168, 130.51315307617188, 51.244110107421875, -0.06400000303983688, 0.0, 1.040000081062317, 0.0, 0.0, 0.0, 0.0, 0.0, 1.6218602682822013E9, 2021-05-24 14:44:28.282
32.0, -241.73777770996094, -142.1087188720703, 28.952436447143555, -37.58225631713867, -0.06400000303983688, 0.0, 1.040000081062317, 0.0, 0.0, 0.0, 0.0, 0.0, 1.6218602682822013E9, 2021-05-24 14:44:28.282
33.0, -188.04029846191406, -117.50765991210938, 89.35182189941406, 0.508626401424408, -0.06400000303983688, 0.0, 1.040000081062317, 0.0, 0.0, 0.0, 0.0, 0.0, 1.6218602682828634E9, 2021-05-24 14:44:28.282
33.0, -75.15142059326172, -13.201847076416016, 207.7271270751953, 105.16224670410156, -0.06400000303983688, 0.0, 1.040000081062317, 0.0, 0.0, 0.0, 0.0, 0.0, 1.6218602682828634E9, 2021-05-24 14:44:28.282
34.0, -139.92274475097656, -58.30503845214844, 131.0928497314453, 52.02948760986328, -0.06400000303983688, 0.0, 1.040000081062317, 0.0, 0.0, 0.0, 0.0, 0.0, 1.6218602682964342E9, 2021-05-24 14:44:28.296
34.0, -250.2161407470703, -143.73558044433594, 20.421724319458008, -46.464515686035156, -0.06400000303983688, 0.0, 1.040000081062317, 0.0, 0.0, 0.0, 0.0, 0.0, 1.6218602682964342E9, 2021-05-24 14:44:28.296
35.0, -183.0886688232422, -114.23524475097656, 95.52639770507812, 2.3037784099578857, -0.06400000303983688, 0.0, 1.040000081062317, 0.0, 0.0, 0.0, 0.0, 0.0, 1.6218602683123658E9, 2021-05-24 14:44:28.312
35.0, -80.47329711914062, -8.871042251586914, 202.14720153808594, 105.8316879272461, -0.06400000303983688, 0.0, 1.040000081062317, 0.0, 0.0, 0.0, 0.0, 0.0, 1.6218602683123658E9, 2021-05-24 14:44:28.312
36.0, -135.3226776123047, -52.88218688964844, 136.43716430664062, 48.98521041870117, -0.06400000303983688, 0.0, 1.040000081062317, 0.0, 0.0, 0.0, 0.0, 0.0, 1.6218602683130133E9, 2021-05-24 14:44:28.313
36.0, -246.79412841796875, -143.46255493164062, 29.85749053955078, -39.0333366394043, -0.06400000303983688, 0.0, 1.040000081062317, 0.0, 0.0, 0.0, 0.0, 0.0, 1.6218602683130133E9, 2021-05-24 14:44:28.313
37.0, -186.18905639648438, -113.24417114257812, 95.93030548095703, -0.1682955026626587, -0.06400000303983688, 0.0, 1.040000081062317, 0.0, 0.0, 0.0, 0.0, 0.0, 1.621860268326486E9, 2021-05-24 14:44:28.326
37.0, -81.49054718017578, -15.535544395446777, 201.97142028808594, 101.78137969970703, -0.06400000303983688, 0.0, 1.040000081062317, 0.0, 0.0, 0.0, 0.0, 0.0, 1.621860268326486E9, 2021-05-24 14:44:28.326
38.0, -144.8519287109375, -53.7872428894043, 135.06088256835938, 53.286094665527344, -0.06400000303983688, 0.0, 1.040000081062317, 0.0, 0.0, 0.0, 0.0, 0.0, 1.6218602683584993E9, 2021-05-24 14:44:28.358
38.0, -248.94830322265625, -145.44845581054688, 22.351512908935547, -44.06724166870117, -0.06400000303983688, 0.0, 1.040000081062317, 0.0, 0.0, 0.0, 0.0, 0.0, 1.6218602683584993E9, 2021-05-24 14:44:28.358
39.0, -181.45806884765625, -117.50017547607422, 91.92487335205078, 6.772958755493164, -0.06400000303983688, 0.0, 1.040000081062317, 0.0, 0.0, 0.0, 0.0, 0.0, 1.6218602683592167E9, 2021-05-24 14:44:28.359
39.0, -77.76187133789062, -22.873228073120117, 199.18519592285156, 103.37831115722656, -0.06400000303983688, 0.0, 1.040000081062317, 0.0, 0.0, 0.0, 0.0, 0.0, 1.6218602683592167E9, 2021-05-24 14:44:28.359
40.0, -135.59194946289062, -60.833213806152344, 132.67481994628906, 52.717628479003906, -0.06400000303983688, 0.0, 1.040000081062317, 0.0, 0.0, 0.0, 0.0, 0.0, 1.6218602683599396E9, 2021-05-24 14:44:28.359
40.0, -244.59132385253906, -156.6382293701172, 21.031328201293945, -44.3327751159668, -0.06400000303983688, 0.0, 1.040000081062317, 0.0, 0.0, 0.0, 0.0, 0.0, 1.6218602683599396E9, 2021-05-24 14:44:28.359
41.0, -182.77078247070312, -116.84569549560547, 87.98675537109375, -4.910488605499268, -0.06400000303983688, 0.0, 1.040000081062317, 0.0, 0.0, 0.0, 0.0, 0.0, 1.621860268360701E9, 2021-05-24 14:44:28.360
41.0, -76.23225402832031, -10.153828620910645, 202.7792510986328, 102.06561279296875, -0.06400000303983688, 0.0, 1.040000081062317, 0.0, 0.0, 0.0, 0.0, 0.0, 1.621860268360701E9, 2021-05-24 14:44:28.360
42.0, -150.4056854248047, -63.656837463378906, 130.70388793945312, 47.88941955566406, -0.06400000303983688, 0.0, 1.040000081062317, 0.0, 0.0, 0.0, 0.0, 0.0, 1.621860268371524E9, 2021-05-24 14:44:28.371
42.0, -248.66033935546875, -143.2344207763672, 27.175983428955078, -34.291141510009766, -0.06400000303983688, 0.0, 1.040000081062317, 0.0, 0.0, 0.0, 0.0, 0.0, 1.621860268371524E9, 2021-05-24 14:44:28.371
43.0, -176.33067321777344, -112.66822814941406, 97.81895446777344, 12.562323570251465, -0.06400000303983688, 0.0, 1.040000081062317, 0.0, 0.0, 0.0, 0.0, 0.0, 1.6218602683865187E9, 2021-05-24 14:44:28.386
43.0, -84.21693420410156, -15.902054786682129, 200.1089630126953, 98.44912719726562, -0.06400000303983688, 0.0, 1.040000081062317, 0.0, 0.0, 0.0, 0.0, 0.0, 1.6218602683865187E9, 2021-05-24 14:44:28.386
44.0, -146.91261291503906, -54.138790130615234, 134.634521484375, 47.803401947021484, -0.06400000303983688, 0.0, 1.040000081062317, 0.0, 0.0, 0.0, 0.0, 0.0, 1.621860268402167E9, 2021-05-24 14:44:28.402
44.0, -253.6082305908203, -142.11619567871094, 22.96111488342285, -39.36244583129883, -0.06400000303983688, 0.0, 1.040000081062317, 0.0, 0.0, 0.0, 0.0, 0.0, 1.621860268402167E9, 2021-05-24 14:44:28.402
45.0, -193.23875427246094, -109.11157989501953, 90.28679656982422, 4.409341812133789, -0.06400000303983688, 0.0, 1.040000081062317, 0.0, 0.0, 0.0, 0.0, 0.0, 1.62186026840302E9, 2021-05-24 14:44:28.403
45.0, -83.24456024169922, -8.986979484558105, 200.52783203125, 101.9347152709961, -0.06400000303983688, 0.0, 1.040000081062317, 0.0, 0.0, 0.0, 0.0, 0.0, 1.62186026840302E9, 2021-05-24 14:44:28.403
46.0, -144.89682006835938, -51.53582000732422, 135.18429565429688, 51.68915557861328, -0.06400000303983688, 0.0, 1.040000081062317, 0.0, 0.0, 0.0, 0.0, 0.0, 1.6218602684164937E9, 2021-05-24 14:44:28.416
46.0, -256.98162841796875, -138.9298095703125, 21.607271194458008, -41.00800323486328, -0.06400000303983688, 0.0, 1.040000081062317, 0.0, 0.0, 0.0, 0.0, 0.0, 1.6218602684164937E9, 2021-05-24 14:44:28.416
47.0, -194.0054473876953, -110.55892181396484, 88.60758209228516, 4.386902809143066, -0.06400000303983688, 0.0, 1.040000081062317, 0.0, 0.0, 0.0, 0.0, 0.0, 1.6218602684321563E9, 2021-05-24 14:44:28.432
47.0, -90.7019271850586, -12.412728309631348, 199.92196655273438, 99.67955017089844, -0.06400000303983688, 0.0, 1.040000081062317, 0.0, 0.0, 0.0, 0.0, 0.0, 1.6218602684321563E9, 2021-05-24 14:44:28.432
48.0, -152.1372528076172, -50.656944274902344, 136.92709350585938, 49.284400939941406, -0.06400000303983688, 0.0, 1.040000081062317, 0.0, 0.0, 0.0, 0.0, 0.0, 1.6218602684329393E9, 2021-05-24 14:44:28.432
48.0, -252.80789184570312, -139.6142120361328, 30.063186645507812, -34.23878479003906, -0.06400000303983688, 0.0, 1.040000081062317, 0.0, 0.0, 0.0, 0.0, 0.0, 1.6218602684329393E9, 2021-05-24 14:44:28.432
49.0, -191.0771026611328, -108.25888061523438, 90.58224487304688, 4.428041458129883, -0.06400000303983688, 0.0, 1.040000081062317, 0.0, 0.0, 0.0, 0.0, 0.0, 1.6218602684628296E9, 2021-05-24 14:44:28.462
49.0, -84.93125915527344, -10.280984878540039, 202.27061462402344, 106.1346206665039, -0.06400000303983688, 0.0, 1.040000081062317, 0.0, 0.0, 0.0, 0.0, 0.0, 1.6218602684628296E9, 2021-05-24 14:44:28.462
50.0, -148.14305114746094, -52.803646087646484, 126.20105743408203, 51.89111328125, -0.06400000303983688, 0.0, 1.040000081062317, 0.0, 0.0, 0.0, 0.0, 0.0, 1.6218602684635444E9, 2021-05-24 14:44:28.463
50.0, -247.5757598876953, -141.9778289794922, 24.6253719329834, -37.56729507446289, -0.06400000303983688, 0.0, 1.040000081062317, 0.0, 0.0, 0.0, 0.0, 0.0, 1.6218602684635444E9, 2021-05-24 14:44:28.463
51.0, -183.02134704589844, -113.09831237792969, 89.96142578125, -0.6657021641731262, -0.06400000303983688, 0.0, 1.040000081062317, 0.0, 0.0, 0.0, 0.0, 0.0, 1.621860268464308E9, 2021-05-24 14:44:28.464
51.0, -86.53567504882812, -11.754505157470703, 201.1523895263672, 106.05608367919922, -0.06400000303983688, 0.0, 1.040000081062317, 0.0, 0.0, 0.0, 0.0, 0.0, 1.621860268464308E9, 2021-05-24 14:44:28.464
52.0, -151.83433532714844, -55.64971160888672, 131.73236083984375, 56.28175354003906, -0.08000000566244125, 0.0, 1.040000081062317, 0.0, 0.0, 0.0, 0.0, 0.0, 1.6218602684764607E9, 2021-05-24 14:44:28.476
52.0, -260.2989196777344, -143.67947387695312, 29.04593276977539, -40.64897155761719, -0.08000000566244125, 0.0, 1.040000081062317, 0.0, 0.0, 0.0, 0.0, 0.0, 1.6218602684764607E9, 2021-05-24 14:44:28.476
53.0, -191.02847290039062, -110.11013793945312, 97.12332916259766, 1.9447479248046875, -0.08000000566244125, 0.0, 1.040000081062317, 0.0, 0.0, 0.0, 0.0, 0.0, 1.6218602684921014E9, 2021-05-24 14:44:28.492
53.0, -94.14263153076172, -12.05369758605957, 203.88626098632812, 99.46263885498047, -0.08000000566244125, 0.0, 1.040000081062317, 0.0, 0.0, 0.0, 0.0, 0.0, 1.6218602684921014E9, 2021-05-24 14:44:28.492
54.0, -152.5710906982422, -59.48310852050781, 134.9711151123047, 51.475982666015625, -0.08000000566244125, 0.0, 1.040000081062317, 0.0, 0.0, 0.0, 0.0, 0.0, 1.6218602684928863E9, 2021-05-24 14:44:28.492
54.0, -257.6697692871094, -136.9326934814453, 28.245594024658203, -39.72147750854492, -0.08000000566244125, 0.0, 1.040000081062317, 0.0, 0.0, 0.0, 0.0, 0.0, 1.6218602684928863E9, 2021-05-24 14:44:28.492
55.0, -196.05490112304688, -110.06525421142578, 87.28739166259766, 2.445894479751587, -0.08000000566244125, 0.0, 1.040000081062317, 0.0, 0.0, 0.0, 0.0, 0.0, 1.621860268522836E9, 2021-05-24 14:44:28.522
55.0, -94.16133117675781, -6.533605098724365, 202.86900329589844, 104.02531433105469, -0.08000000566244125, 0.0, 1.040000081062317, 0.0, 0.0, 0.0, 0.0, 0.0, 1.621860268522836E9, 2021-05-24 14:44:28.522
56.0, -151.70716857910156, -51.83501434326172, 138.42678833007812, 55.687110900878906, -0.08000000566244125, 0.0, 1.040000081062317, 0.0, 0.0, 0.0, 0.0, 0.0, 1.6218602685235596E9, 2021-05-24 14:44:28.523
56.0, -251.3605499267578, -145.28762817382812, 28.701862335205078, -40.71255111694336, -0.08000000566244125, 0.0, 1.040000081062317, 0.0, 0.0, 0.0, 0.0, 0.0, 1.6218602685235596E9, 2021-05-24 14:44:28.523
57.0, -182.4229736328125, -110.9291763305664, 97.23926544189453, 0.13089649379253387, -0.08000000566244125, 0.0, 1.040000081062317, 0.0, 0.0, 0.0, 0.0, 0.0, 1.6218602685243227E9, 2021-05-24 14:44:28.524
57.0, -75.83956146240234, -11.440354347229004, 203.8825225830078, 106.10844421386719, -0.08000000566244125, 0.0, 1.040000081062317, 0.0, 0.0, 0.0, 0.0, 0.0, 1.6218602685243227E9, 2021-05-24 14:44:28.524
58.0, -146.10853576660156, -52.20900344848633, 137.36839294433594, 55.051326751708984, -0.08000000566244125, 0.0, 1.040000081062317, 0.0, 0.0, 0.0, 0.0, 0.0, 1.6218602685364573E9, 2021-05-24 14:44:28.536
58.0, -251.1847686767578, -150.1532440185547, 24.27756118774414, -37.64583206176758, -0.08000000566244125, 0.0, 1.040000081062317, 0.0, 0.0, 0.0, 0.0, 0.0, 1.6218602685364573E9, 2021-05-24 14:44:28.536
59.0, -190.61709594726562, -112.09602355957031, 91.04225158691406, 2.558091640472412, -0.08000000566244125, 0.0, 1.040000081062317, 0.0, 0.0, 0.0, 0.0, 0.0, 1.621860268552189E9, 2021-05-24 14:44:28.552
59.0, -80.83232879638672, -17.323217391967773, 202.63339233398438, 104.15247344970703, -0.08000000566244125, 0.0, 1.040000081062317, 0.0, 0.0, 0.0, 0.0, 0.0, 1.621860268552189E9, 2021-05-24 14:44:28.552
60.0, -139.96388244628906, -54.30708694458008, 134.90380859375, 55.6758918762207, -0.08000000566244125, 0.0, 1.055999994277954, 0.0, 0.0, 0.0, 0.0, 0.0, 1.6218602685529404E9, 2021-05-24 14:44:28.552
60.0, -242.8709716796875, -148.3880157470703, 28.98235511779785, -39.80001449584961, -0.08000000566244125, 0.0, 1.055999994277954, 0.0, 0.0, 0.0, 0.0, 0.0, 1.6218602685529404E9, 2021-05-24 14:44:28.552
61.0, -183.82168579101562, -113.21424865722656, 92.02584838867188, 1.6231166124343872, -0.08000000566244125, 0.0, 1.055999994277954, 0.0, 0.0, 0.0, 0.0, 0.0, 1.6218602685828557E9, 2021-05-24 14:44:28.582
61.0, -77.65715026855469, -8.945840835571289, 204.7202606201172, 106.67316436767578, -0.08000000566244125, 0.0, 1.055999994277954, 0.0, 0.0, 0.0, 0.0, 0.0, 1.6218602685828557E9, 2021-05-24 14:44:28.582
62.0, -152.16717529296875, -51.6218376159668, 133.17596435546875, 51.62931823730469, -0.08000000566244125, 0.0, 1.055999994277954, 0.0, 0.0, 0.0, 0.0, 0.0, 1.6218602685835824E9, 2021-05-24 14:44:28.583
62.0, -262.759765625, -141.48416137695312, 28.761699676513672, -44.19065856933594, -0.08000000566244125, 0.0, 1.055999994277954, 0.0, 0.0, 0.0, 0.0, 0.0, 1.6218602685835824E9, 2021-05-24 14:44:28.583
63.0, -192.00833129882812, -106.78162384033203, 94.5988998413086, -0.19447480142116547, -0.08000000566244125, 0.0, 1.055999994277954, 0.0, 0.0, 0.0, 0.0, 0.0, 1.6218602685843208E9, 2021-05-24 14:44:28.584
63.0, -86.06818389892578, -9.099176406860352, 201.90037536621094, 99.791748046875, -0.08000000566244125, 0.0, 1.055999994277954, 0.0, 0.0, 0.0, 0.0, 0.0, 1.6218602685843208E9, 2021-05-24 14:44:28.584
64.0, -148.1617431640625, -48.8505744934082, 133.59483337402344, 51.58818054199219, -0.08000000566244125, 0.0, 1.055999994277954, 0.0, 0.0, 0.0, 0.0, 0.0, 1.6218602685964525E9, 2021-05-24 14:44:28.596
64.0, -257.5538330078125, -138.9185791015625, 27.078744888305664, -43.274383544921875, -0.08000000566244125, 0.0, 1.055999994277954, 0.0, 0.0, 0.0, 0.0, 0.0, 1.6218602685964525E9, 2021-05-24 14:44:28.596
65.0, -189.13983154296875, -102.76870727539062, 102.2282943725586, 7.247926235198975, -0.08000000566244125, 0.0, 1.055999994277954, 0.0, 0.0, 0.0, 0.0, 0.0, 1.621860268612169E9, 2021-05-24 14:44:28.612
65.0, -82.95658874511719, -7.259145736694336, 211.60166931152344, 104.79199981689453, -0.08000000566244125, 0.0, 1.055999994277954, 0.0, 0.0, 0.0, 0.0, 0.0, 1.621860268612169E9, 2021-05-24 14:44:28.612
66.0, -151.1761016845703, -52.93828201293945, 135.47225952148438, 52.141685485839844, -0.08000000566244125, 0.0, 1.055999994277954, 0.0, 0.0, 0.0, 0.0, 0.0, 1.6218602686129563E9, 2021-05-24 14:44:28.612
66.0, -259.99224853515625, -144.28160095214844, 23.159330368041992, -39.56814193725586, -0.08000000566244125, 0.0, 1.055999994277954, 0.0, 0.0, 0.0, 0.0, 0.0, 1.6218602686129563E9, 2021-05-24 14:44:28.612
67.0, -187.44940185546875, -108.56929779052734, 96.07615661621094, 5.602370262145996, -0.08000000566244125, 0.0, 1.055999994277954, 0.0, 0.0, 0.0, 0.0, 0.0, 1.6218602686264691E9, 2021-05-24 14:44:28.626
67.0, -91.17314910888672, -8.687788009643555, 198.94210815429688, 102.843505859375, -0.08000000566244125, 0.0, 1.055999994277954, 0.0, 0.0, 0.0, 0.0, 0.0, 1.6218602686264691E9, 2021-05-24 14:44:28.626
68.0, -145.6223602294922, -54.9316520690918, 134.48867797851562, 47.39949035644531, -0.08000000566244125, 0.0, 1.055999994277954, 0.0, 0.0, 0.0, 0.0, 0.0, 1.6218602686422055E9, 2021-05-24 14:44:28.642
68.0, -253.11456298828125, -141.13633728027344, 28.443809509277344, -32.5595703125, -0.08000000566244125, 0.0, 1.055999994277954, 0.0, 0.0, 0.0, 0.0, 0.0, 1.6218602686422055E9, 2021-05-24 14:44:28.642
69.0, -197.3376922607422, -100.10216522216797, 92.72146606445312, 7.195567607879639, -0.08000000566244125, 0.0, 1.055999994277954, 0.0, 0.0, 0.0, 0.0, 0.0, 1.6218602686429281E9, 2021-05-24 14:44:28.642
69.0, -90.03996276855469, -5.606110095977783, 205.11294555664062, 114.58305358886719, -0.08000000566244125, 0.0, 1.055999994277954, 0.0, 0.0, 0.0, 0.0, 0.0, 1.6218602686429281E9, 2021-05-24 14:44:28.642
70.0, -156.71490478515625, -51.83127212524414, 138.542724609375, 58.90342330932617, -0.08000000566244125, 0.0, 1.055999994277954, 0.0, 0.0, 0.0, 0.0, 0.0, 1.621860268656476E9, 2021-05-24 14:44:28.656
70.0, -255.43704223632812, -133.98565673828125, 30.64286994934082, -25.44253921508789, -0.08000000566244125, 0.0, 1.055999994277954, 0.0, 0.0, 0.0, 0.0, 0.0, 1.621860268656476E9, 2021-05-24 14:44:28.656
71.0, -183.8553466796875, -107.58943939208984, 99.99931335449219, 15.460746765136719, -0.08000000566244125, 0.0, 1.055999994277954, 0.0, 0.0, 0.0, 0.0, 0.0, 1.621860268672125E9, 2021-05-24 14:44:28.672
71.0, -91.40128326416016, -13.168188095092773, 203.50852966308594, 111.31812286376953, -0.08000000566244125, 0.0, 1.055999994277954, 0.0, 0.0, 0.0, 0.0, 0.0, 1.621860268672125E9, 2021-05-24 14:44:28.672
72.0, -154.49713134765625, -52.3660774230957, 129.90354919433594, 60.223609924316406, -0.06400000303983688, 0.0, 1.055999994277954, 0.0, 0.0, 0.0, 0.0, 0.0, 1.6218602686728954E9, 2021-05-24 14:44:28.672
72.0, -262.69244384765625, -141.9030303955078, 25.324731826782227, -32.59322738647461, -0.06400000303983688, 0.0, 1.055999994277954, 0.0, 0.0, 0.0, 0.0, 0.0, 1.6218602686728954E9, 2021-05-24 14:44:28.672
73.0, -193.96804809570312, -105.10614776611328, 90.37281036376953, 8.99445915222168, -0.06400000303983688, 0.0, 1.055999994277954, 0.0, 0.0, 0.0, 0.0, 0.0, 1.6218602687029345E9, 2021-05-24 14:44:28.702
73.0, -86.37486267089844, -8.108102798461914, 199.26373291015625, 97.10649871826172, -0.06400000303983688, 0.0, 1.055999994277954, 0.0, 0.0, 0.0, 0.0, 0.0, 1.6218602687029345E9, 2021-05-24 14:44:28.702
74.0, -147.12579345703125, -50.787841796875, 135.33763122558594, 52.87470626831055, -0.06400000303983688, 0.0, 1.055999994277954, 0.0, 0.0, 0.0, 0.0, 0.0, 1.6218602687035265E9, 2021-05-24 14:44:28.703
74.0, -253.61944580078125, -132.57571411132812, 28.47372817993164, -39.72147750854492, -0.06400000303983688, 0.0, 1.055999994277954, 0.0, 0.0, 0.0, 0.0, 0.0, 1.6218602687035265E9, 2021-05-24 14:44:28.703
75.0, -187.0828857421875, -102.31244659423828, 89.83052825927734, -2.228980302810669, -0.06400000303983688, 0.0, 1.055999994277954, 0.0, 0.0, 0.0, 0.0, 0.0, 1.6218602687042923E9, 2021-05-24 14:44:28.704
75.0, -82.02161407470703, -6.178314685821533, 198.45965576171875, 103.49050903320312, -0.06400000303983688, 0.0, 1.055999994277954, 0.0, 0.0, 0.0, 0.0, 0.0, 1.6218602687042923E9, 2021-05-24 14:44:28.704
76.0, -148.47215270996094, -51.35630798339844, 134.305419921875, 51.34508514404297, -0.06400000303983688, 0.0, 1.055999994277954, 0.0, 0.0, 0.0, 0.0, 0.0, 1.6218602687165017E9, 2021-05-24 14:44:28.716
76.0, -255.8970489501953, -136.40162658691406, 33.00648880004883, -37.67949295043945, -0.06400000303983688, 0.0, 1.055999994277954, 0.0, 0.0, 0.0, 0.0, 0.0, 1.6218602687165017E9, 2021-05-24 14:44:28.716
77.0, -187.8420867919922, -101.38868713378906, 102.24699401855469, 6.268072128295898, -0.06400000303983688, 0.0, 1.055999994277954, 0.0, 0.0, 0.0, 0.0, 0.0, 1.6218602687321444E9, 2021-05-24 14:44:28.732
77.0, -81.2698974609375, -0.77415931224823, 207.4615936279297, 104.63117980957031, -0.06400000303983688, 0.0, 1.055999994277954, 0.0, 0.0, 0.0, 0.0, 0.0, 1.6218602687321444E9, 2021-05-24 14:44:28.732
78.0, -144.9416961669922, -47.97169494628906, 138.65492248535156, 57.770233154296875, -0.06400000303983688, 0.0, 1.055999994277954, 0.0, 0.0, 0.0, 0.0, 0.0, 1.6218602687328985E9, 2021-05-24 14:44:28.732
78.0, -255.5791473388672, -137.66197204589844, 27.576152801513672, -35.74596405029297, -0.06400000303983688, 0.0, 1.055999994277954, 0.0, 0.0, 0.0, 0.0, 0.0, 1.6218602687328985E9, 2021-05-24 14:44:28.732
79.0, -189.917724609375, -93.87896728515625, 101.4242172241211, 13.35144329071045, -0.06400000303983688, 0.0, 1.055999994277954, 0.0, 0.0, 0.0, 0.0, 0.0, 1.6218602687464838E9, 2021-05-24 14:44:28.746
79.0, -89.198486328125, -3.8184378147125244, 207.9029083251953, 103.78596496582031, -0.06400000303983688, 0.0, 1.055999994277954, 0.0, 0.0, 0.0, 0.0, 0.0, 1.6218602687464838E9, 2021-05-24 14:44:28.746
80.0, -144.89306640625, -51.898590087890625, 140.80162048339844, 59.15399932861328, -0.06400000303983688, 0.0, 1.055999994277954, 0.0, 0.0, 0.0, 0.0, 0.0, 1.6218602687621992E9, 2021-05-24 14:44:28.762
80.0, -248.14422607421875, -137.59091186523438, 33.24209976196289, -29.44797134399414, -0.06400000303983688, 0.0, 1.055999994277954, 0.0, 0.0, 0.0, 0.0, 0.0, 1.6218602687621992E9, 2021-05-24 14:44:28.762
81.0, -187.206298828125, -109.07791900634766, 95.52265167236328, 13.145748138427734, -0.06400000303983688, 0.0, 1.055999994277954, 0.0, 0.0, 0.0, 0.0, 0.0, 1.6218602687629197E9, 2021-05-24 14:44:28.762
81.0, -89.44157409667969, -2.2439398765563965, 204.0882110595703, 112.30171966552734, -0.06400000303983688, 0.0, 1.055999994277954, 0.0, 0.0, 0.0, 0.0, 0.0, 1.6218602687629197E9, 2021-05-24 14:44:28.762
82.0, -155.05438232421875, -45.01343536376953, 134.11842346191406, 54.66611862182617, -0.08000000566244125, 0.0, 1.055999994277954, 0.0, 0.0, 0.0, 0.0, 0.0, 1.6218602687764525E9, 2021-05-24 14:44:28.776
82.0, -262.1800842285156, -137.24684143066406, 26.3270263671875, -39.24650955200195, -0.08000000566244125, 0.0, 1.055999994277954, 0.0, 0.0, 0.0, 0.0, 0.0, 1.6218602687764525E9, 2021-05-24 14:44:28.776
83.0, -195.50888061523438, -100.62200927734375, 97.83765411376953, 10.142608642578125, -0.08000000566244125, 0.0, 1.055999994277954, 0.0, 0.0, 0.0, 0.0, 0.0, 1.6218602687921844E9, 2021-05-24 14:44:28.792
83.0, -88.93669128417969, 0.31789150834083557, 208.5312042236328, 107.68667602539062, -0.08000000566244125, 0.0, 1.055999994277954, 0.0, 0.0, 0.0, 0.0, 0.0, 1.6218602687921844E9, 2021-05-24 14:44:28.792
84.0, -147.09213256835938, -44.75912094116211, 141.56455993652344, 54.430503845214844, -0.08000000566244125, 0.0, 1.055999994277954, 0.0, 0.0, 0.0, 0.0, 0.0, 1.6218602687929025E9, 2021-05-24 14:44:28.792
84.0, -259.3489685058594, -138.4997100830078, 28.088518142700195, -39.02959442138672, -0.08000000566244125, 0.0, 1.055999994277954, 0.0, 0.0, 0.0, 0.0, 0.0, 1.6218602687929025E9, 2021-05-24 14:44:28.792
85.0, -187.66256713867188, -107.89985656738281, 99.26255798339844, 6.0511579513549805, -0.08000000566244125, 0.0, 1.055999994277954, 0.0, 0.0, 0.0, 0.0, 0.0, 1.6218602688064637E9, 2021-05-24 14:44:28.806
85.0, -84.47872924804688, -4.106410026550293, 204.49212646484375, 104.885498046875, -0.08000000566244125, 0.0, 1.055999994277954, 0.0, 0.0, 0.0, 0.0, 0.0, 1.6218602688064637E9, 2021-05-24 14:44:28.806
86.0, -150.14015197753906, -48.424224853515625, 134.83648681640625, 55.08498764038086, -0.08000000566244125, 0.0, 1.055999994277954, 0.0, 0.0, 0.0, 0.0, 0.0, 1.621860268822156E9, 2021-05-24 14:44:28.822
86.0, -253.6418914794922, -139.10931396484375, 25.665063858032227, -35.22611618041992, -0.08000000566244125, 0.0, 1.055999994277954, 0.0, 0.0, 0.0, 0.0, 0.0, 1.621860268822156E9, 2021-05-24 14:44:28.822
87.0, -192.0831298828125, -109.54167175292969, 99.88337707519531, 12.51744556427002, -0.08000000566244125, 0.0, 1.055999994277954, 0.0, 0.0, 0.0, 0.0, 0.0, 1.6218602688228965E9, 2021-05-24 14:44:28.822
87.0, -87.60902404785156, -9.525525093078613, 202.5062255859375, 105.00143432617188, -0.08000000566244125, 0.0, 1.055999994277954, 0.0, 0.0, 0.0, 0.0, 0.0, 1.6218602688228965E9, 2021-05-24 14:44:28.822
88.0, -149.17526245117188, -49.41156005859375, 136.1267547607422, 61.8504638671875, -0.08000000566244125, 0.0, 1.055999994277954, 0.0, 0.0, 0.0, 0.0, 0.0, 1.6218602688364513E9, 2021-05-24 14:44:28.836
88.0, -253.36138916015625, -140.01063537597656, 30.422216415405273, -36.62858200073242, -0.08000000566244125, 0.0, 1.055999994277954, 0.0, 0.0, 0.0, 0.0, 0.0, 1.6218602688364513E9, 2021-05-24 14:44:28.836
89.0, -183.45518493652344, -107.98587036132812, 98.90352630615234, 12.558584213256836, -0.08000000566244125, 0.0, 1.055999994277954, 0.0, 0.0, 0.0, 0.0, 0.0, 1.6218602688522027E9, 2021-05-24 14:44:28.852
89.0, -83.78311157226562, -7.550858020782471, 206.38824462890625, 105.18842315673828, -0.08000000566244125, 0.0, 1.055999994277954, 0.0, 0.0, 0.0, 0.0, 0.0, 1.6218602688522027E9, 2021-05-24 14:44:28.852
90.0, -148.94712829589844, -51.468502044677734, 140.55479431152344, 56.32289505004883, -0.08000000566244125, 0.0, 1.055999994277954, 0.0, 0.0, 0.0, 0.0, 0.0, 1.6218602688529596E9, 2021-05-24 14:44:28.852
90.0, -255.27621459960938, -139.37484741210938, 29.390003204345703, -40.72003173828125, -0.08000000566244125, 0.0, 1.055999994277954, 0.0, 0.0, 0.0, 0.0, 0.0, 1.6218602688529596E9, 2021-05-24 14:44:28.852
91.0, -194.48414611816406, -104.37686920166016, 97.86009216308594, 6.619622707366943, -0.08000000566244125, 0.0, 1.055999994277954, 0.0, 0.0, 0.0, 0.0, 0.0, 1.621860268866473E9, 2021-05-24 14:44:28.866
91.0, -96.10234069824219, -4.6636552810668945, 197.8500518798828, 102.44708251953125, -0.08000000566244125, 0.0, 1.055999994277954, 0.0, 0.0, 0.0, 0.0, 0.0, 1.621860268866473E9, 2021-05-24 14:44:28.866
92.0, -155.0394287109375, -49.38911819458008, 133.5462188720703, 55.52629470825195, -0.06400000303983688, 0.0, 1.055999994277954, 0.0, 0.0, 0.0, 0.0, 0.0, 1.6218602688821592E9, 2021-05-24 14:44:28.882
92.0, -261.08428955078125, -136.6334991455078, 18.237621307373047, -39.826194763183594, -0.06400000303983688, 0.0, 1.055999994277954, 0.0, 0.0, 0.0, 0.0, 0.0, 1.6218602688821592E9, 2021-05-24 14:44:28.882
93.0, -197.19183349609375, -107.59318542480469, 92.87854766845703, 5.897822380065918, -0.06400000303983688, 0.0, 1.055999994277954, 0.0, 0.0, 0.0, 0.0, 0.0, 1.6218602688828893E9, 2021-05-24 14:44:28.882
93.0, -91.95852661132812, -1.522139310836792, 200.42311096191406, 109.5267105102539, -0.06400000303983688, 0.0, 1.055999994277954, 0.0, 0.0, 0.0, 0.0, 0.0, 1.6218602688828893E9, 2021-05-24 14:44:28.882
94.0, -157.9939422607422, -49.08244705200195, 137.02806091308594, 58.252681732177734, -0.06400000303983688, 0.0, 1.055999994277954, 0.0, 0.0, 0.0, 0.0, 0.0, 1.621860268896464E9, 2021-05-24 14:44:28.896
94.0, -261.21893310546875, -135.22731018066406, 23.376245498657227, -34.68757247924805, -0.06400000303983688, 0.0, 1.055999994277954, 0.0, 0.0, 0.0, 0.0, 0.0, 1.621860268896464E9, 2021-05-24 14:44:28.896
95.0, -198.09689331054688, -109.20133972167969, 92.94212341308594, 5.823024272918701, -0.06400000303983688, 0.0, 1.055999994277954, 0.0, 0.0, 0.0, 0.0, 0.0, 1.6218602689121912E9, 2021-05-24 14:44:28.912
95.0, -88.39066314697266, -10.120169639587402, 199.68260192871094, 108.70393371582031, -0.06400000303983688, 0.0, 1.055999994277954, 0.0, 0.0, 0.0, 0.0, 0.0, 1.6218602689121912E9, 2021-05-24 14:44:28.912
96.0, -155.3236541748047, -54.916690826416016, 133.7444305419922, 49.011390686035156, -0.06400000303983688, 0.0, 1.055999994277954, 0.0, 0.0, 0.0, 0.0, 0.0, 1.6218602689129152E9, 2021-05-24 14:44:28.912
96.0, -258.1783752441406, -140.3771514892578, 26.409303665161133, -37.731849670410156, -0.06400000303983688, 0.0, 1.055999994277954, 0.0, 0.0, 0.0, 0.0, 0.0, 1.6218602689129152E9, 2021-05-24 14:44:28.912
97.0, -190.3104248046875, -106.8564224243164, 95.70964813232422, 14.791304588317871, -0.06400000303983688, 0.0, 1.055999994277954, 0.0, 0.0, 0.0, 0.0, 0.0, 1.6218602689264352E9, 2021-05-24 14:44:28.926
97.0, -87.3958511352539, -13.033551216125488, 212.26736450195312, 116.8120346069336, -0.06400000303983688, 0.0, 1.055999994277954, 0.0, 0.0, 0.0, 0.0, 0.0, 1.6218602689264352E9, 2021-05-24 14:44:28.926
98.0, -152.75808715820312, -57.530879974365234, 134.5559844970703, 61.311920166015625, -0.06400000303983688, 0.0, 1.055999994277954, 0.0, 0.0, 0.0, 0.0, 0.0, 1.6218602689425607E9, 2021-05-24 14:44:28.942
98.0, -262.8831787109375, -146.24130249023438, 26.798254013061523, -31.160846710205078, -0.06400000303983688, 0.0, 1.055999994277954, 0.0, 0.0, 0.0, 0.0, 0.0, 1.6218602689425607E9, 2021-05-24 14:44:28.942
99.0, -189.44650268554688, -106.90129852294922, 105.31745147705078, 15.81603717803955, -0.06400000303983688, 0.0, 1.055999994277954, 0.0, 0.0, 0.0, 0.0, 0.0, 1.621860268957887E9, 2021-05-24 14:44:28.957
99.0, -92.21284484863281, -10.243585586547852, 206.09654235839844, 112.41765594482422, -0.06400000303983688, 0.0, 1.055999994277954, 0.0, 0.0, 0.0, 0.0, 0.0, 1.621860268957887E9, 2021-05-24 14:44:28.957
100.0, -154.3026580810547, -53.0355224609375, 132.49903869628906, 66.21866607666016, -0.06400000303983688, 0.0, 1.055999994277954, 0.0, 0.0, 0.0, 0.0, 0.0, 1.621860268958582E9, 2021-05-24 14:44:28.958
100.0, -258.933837890625, -146.4208221435547, 22.467449188232422, -33.51324462890625, -0.06400000303983688, 0.0, 1.055999994277954, 0.0, 0.0, 0.0, 0.0, 0.0, 1.621860268958582E9, 2021-05-24 14:44:28.958
0.0, -191.026611328125, -109.66695404052734, 92.34748077392578, 8.435344696044922, -0.06400000303983688, 0.0, 1.055999994277954, 0.0, 0.0, 0.0, 0.0, 0.0, 1.62186026895934E9, 2021-05-24 14:44:28.959
1.0, -83.5306625366211, -11.790034294128418, 194.506591796875, 104.18426513671875, -0.06400000303983688, 0.01600000075995922, 1.055999994277954, 0.0, 0.0, 0.0, 0.0, 0.0, 1.6218602689714873E9, 2021-05-24 14:44:28.971
1.0, -148.3057403564453, -60.10580062866211, 127.19586944580078, 52.547462463378906, -0.06400000303983688, 0.01600000075995922, 1.055999994277954, 0.0, 0.0, 0.0, 0.0, 0.0, 1.6218602689714873E9, 2021-05-24 14:44:28.971
2.0, -250.44239807128906, -142.8623046875, 18.40591812133789, -36.07694625854492, -0.08000000566244125, 0.01600000075995922, 1.055999994277954, 0.0, 0.0, 0.0, 0.0, 0.0, 1.621860268987185E9, 2021-05-24 14:44:28.987
2.0, -190.88449096679688, -113.9715805053711, 81.96177673339844, 6.928164482116699, -0.08000000566244125, 0.01600000075995922, 1.055999994277954, 0.0, 0.0, 0.0, 0.0, 0.0, 1.621860268987185E9, 2021-05-24 14:44:28.987
3.0, -84.5105209350586, -13.895598411560059, 197.53216552734375, 108.94141387939453, -0.08000000566244125, 0.01600000075995922, 1.055999994277954, 0.0, 0.0, 0.0, 0.0, 0.0, 1.6218602689879289E9, 2021-05-24 14:44:28.987
3.0, -149.48379516601562, -57.63372802734375, 129.40988159179688, 55.06441879272461, -0.08000000566244125, 0.01600000075995922, 1.055999994277954, 0.0, 0.0, 0.0, 0.0, 0.0, 1.6218602689879289E9, 2021-05-24 14:44:28.987
4.0, -252.06552124023438, -149.17526245117188, 18.473236083984375, -36.563133239746094, -0.08000000566244125, 0.01600000075995922, 1.055999994277954, 0.0, 0.0, 0.0, 0.0, 0.0, 1.6218602690178394E9, 2021-05-24 14:44:29.017
4.0, -180.9774932861328, -107.76708984375, 92.78878784179688, 11.255228996276855, -0.08000000566244125, 0.01600000075995922, 1.055999994277954, 0.0, 0.0, 0.0, 0.0, 0.0, 1.6218602690178394E9, 2021-05-24 14:44:29.017
5.0, -81.0772933959961, -13.312173843383789, 204.24154663085938, 110.60567474365234, -0.08000000566244125, 0.01600000075995922, 1.055999994277954, 0.0, 0.0, 0.0, 0.0, 0.0, 1.62186026901855E9, 2021-05-24 14:44:29.018
5.0, -148.23468017578125, -55.21027374267578, 125.42689514160156, 56.365901947021484, -0.08000000566244125, 0.01600000075995922, 1.055999994277954, 0.0, 0.0, 0.0, 0.0, 0.0, 1.62186026901855E9, 2021-05-24 14:44:29.018
6.0, -252.1590118408203, -146.88270568847656, 23.45852279663086, -35.40376281738281, -0.08000000566244125, 0.01600000075995922, 1.055999994277954, 0.0, 0.0, 0.0, 0.0, 0.0, 1.6218602690192804E9, 2021-05-24 14:44:29.019
6.0, -182.5370330810547, -112.17269134521484, 90.23443603515625, 13.140138626098633, -0.08000000566244125, 0.01600000075995922, 1.055999994277954, 0.0, 0.0, 0.0, 0.0, 0.0, 1.6218602690192804E9, 2021-05-24 14:44:29.019
7.0, -78.429443359375, -12.949403762817383, 199.78732299804688, 105.19403839111328, -0.08000000566244125, 0.01600000075995922, 1.055999994277954, 0.0, 0.0, 0.0, 0.0, 0.0, 1.6218602690314474E9, 2021-05-24 14:44:29.031
7.0, -149.2145233154297, -55.554344177246094, 130.48324584960938, 61.83737564086914, -0.08000000566244125, 0.01600000075995922, 1.055999994277954, 0.0, 0.0, 0.0, 0.0, 0.0, 1.6218602690314474E9, 2021-05-24 14:44:29.031
8.0, -263.4123840332031, -144.810791015625, 22.381431579589844, -37.07175827026367, -0.08000000566244125, 0.01600000075995922, 1.055999994277954, 0.0, 0.0, 0.0, 0.0, 0.0, 1.6218602690471776E9, 2021-05-24 14:44:29.047
8.0, -192.6721649169922, -101.22225952148438, 99.92451477050781, 13.035421371459961, -0.08000000566244125, 0.01600000075995922, 1.055999994277954, 0.0, 0.0, 0.0, 0.0, 0.0, 1.6218602690471776E9, 2021-05-24 14:44:29.047
9.0, -85.88306427001953, -4.2690958976745605, 205.63278198242188, 112.71123504638672, -0.08000000566244125, 0.01600000075995922, 1.055999994277954, 0.0, 0.0, 0.0, 0.0, 0.0, 1.6218602690479E9, 2021-05-24 14:44:29.047
9.0, -159.7386016845703, -50.79344940185547, 133.53500366210938, 58.419105529785156, -0.08000000566244125, 0.01600000075995922, 1.055999994277954, 0.0, 0.0, 0.0, 0.0, 0.0, 1.6218602690479E9, 2021-05-24 14:44:29.047
10.0, -262.402587890625, -137.97799682617188, 26.82069206237793, -28.627063751220703, -0.08000000566244125, 0.01600000075995922, 1.055999994277954, 0.0, 0.0, 0.0, 0.0, 0.0, 1.6218602690778768E9, 2021-05-24 14:44:29.077
10.0, -196.61776733398438, -104.33011627197266, 95.09630584716797, 14.860492706298828, -0.08000000566244125, 0.01600000075995922, 1.055999994277954, 0.0, 0.0, 0.0, 0.0, 0.0, 1.6218602690778768E9, 2021-05-24 14:44:29.077
11.0, -87.11723327636719, -2.2532896995544434, 210.24783325195312, 117.89847564697266, -0.08000000566244125, 0.0, 1.055999994277954, 0.0, 0.0, 0.0, 0.0, 0.0, 1.621860269078622E9, 2021-05-24 14:44:29.078
11.0, -150.26544189453125, -48.396175384521484, 140.92129516601562, 67.0208740234375, -0.08000000566244125, 0.0, 1.055999994277954, 0.0, 0.0, 0.0, 0.0, 0.0, 1.621860269078622E9, 2021-05-24 14:44:29.078
12.0, -254.35060119628906, -141.8151397705078, 26.039052963256836, -38.433082580566406, -0.08000000566244125, 0.0, 1.055999994277954, 0.0, 0.0, 0.0, 0.0, 0.0, 1.6218602690793445E9, 2021-05-24 14:44:29.079
12.0, -191.6698760986328, -98.57440948486328, 102.4900894165039, 9.205763816833496, -0.08000000566244125, 0.0, 1.055999994277954, 0.0, 0.0, 0.0, 0.0, 0.0, 1.6218602690793445E9, 2021-05-24 14:44:29.079
13.0, -93.90888977050781, -8.528841972351074, 207.21102905273438, 105.53062438964844, -0.08000000566244125, 0.0, 1.055999994277954, 0.0, 0.0, 0.0, 0.0, 0.0, 1.6218602690914395E9, 2021-05-24 14:44:29.091
13.0, -157.6592254638672, -49.53684616088867, 138.40060424804688, 58.564964294433594, -0.08000000566244125, 0.0, 1.055999994277954, 0.0, 0.0, 0.0, 0.0, 0.0, 1.6218602690914395E9, 2021-05-24 14:44:29.091
14.0, -259.4742736816406, -139.33932495117188, 28.690643310546875, -33.56747055053711, -0.08000000566244125, 0.0, 1.055999994277954, 0.0, 0.0, 0.0, 0.0, 0.0, 1.6218602691218803E9, 2021-05-24 14:44:29.121
14.0, -190.06919860839844, -102.14228057861328, 99.9020767211914, 8.394205093383789, -0.08000000566244125, 0.0, 1.055999994277954, 0.0, 0.0, 0.0, 0.0, 0.0, 1.6218602691218803E9, 2021-05-24 14:44:29.121
15.0, -90.6776123046875, -10.522208213806152, 199.0692596435547, 108.84417724609375, -0.08000000566244125, 0.0, 1.055999994277954, 0.0, 0.0, 0.0, 0.0, 0.0, 1.6218602691385193E9, 2021-05-24 14:44:29.138
15.0, -151.18919372558594, -55.086856842041016, 132.80946350097656, 59.417659759521484, -0.08000000566244125, 0.0, 1.055999994277954, 0.0, 0.0, 0.0, 0.0, 0.0, 1.6218602691385193E9, 2021-05-24 14:44:29.138
16.0, -255.51370239257812, -133.48263549804688, 25.504247665405273, -28.365270614624023, -0.08000000566244125, 0.0, 1.055999994277954, 0.0, 0.0, 0.0, 0.0, 0.0, 1.621860269139228E9, 2021-05-24 14:44:29.139
16.0, -190.6825408935547, -103.271728515625, 97.11959075927734, 13.48794937133789, -0.08000000566244125, 0.0, 1.055999994277954, 0.0, 0.0, 0.0, 0.0, 0.0, 1.621860269139228E9, 2021-05-24 14:44:29.139
17.0, -95.69281768798828, -4.074621200561523, 199.49562072753906, 108.79556274414062, -0.08000000566244125, 0.0, 1.055999994277954, 0.0, 0.0, 0.0, 0.0, 0.0, 1.6218602691399493E9, 2021-05-24 14:44:29.139
17.0, -155.78927612304688, -48.66170883178711, 134.53729248046875, 55.894676208496094, -0.08000000566244125, 0.0, 1.055999994277954, 0.0, 0.0, 0.0, 0.0, 0.0, 1.6218602691399493E9, 2021-05-24 14:44:29.139
18.0, -260.4316711425781, -143.2886505126953, 25.216276168823242, -38.601375579833984, -0.08000000566244125, 0.0, 1.055999994277954, 0.0, 0.0, 0.0, 0.0, 0.0, 1.6218602691408234E9, 2021-05-24 14:44:29.140
18.0, -195.3873291015625, -104.88736724853516, 89.83052825927734, 6.206364154815674, -0.08000000566244125, 0.0, 1.055999994277954, 0.0, 0.0, 0.0, 0.0, 0.0, 1.6218602691408234E9, 2021-05-24 14:44:29.140
19.0, -90.64769744873047, -7.163778305053711, 202.11354064941406, 103.4549789428711, -0.08000000566244125, 0.0, 1.055999994277954, 0.0, 0.0, 0.0, 0.0, 0.0, 1.6218602691515372E9, 2021-05-24 14:44:29.151
19.0, -156.97108459472656, -52.169734954833984, 135.34884643554688, 56.15272903442383, -0.08000000566244125, 0.0, 1.055999994277954, 0.0, 0.0, 0.0, 0.0, 0.0, 1.6218602691515372E9, 2021-05-24 14:44:29.151
20.0, -264.51190185546875, -136.8822021484375, 28.110958099365234, -38.61259841918945, -0.08000000566244125, 0.0, 1.055999994277954, 0.0, 0.0, 0.0, 0.0, 0.0, 1.6218602691671257E9, 2021-05-24 14:44:29.167
20.0, -197.9903106689453, -102.46390533447266, 99.74126434326172, 9.852766036987305, -0.08000000566244125, 0.0, 1.055999994277954, 0.0, 0.0, 0.0, 0.0, 0.0, 1.6218602691671257E9, 2021-05-24 14:44:29.167
21.0, -94.709228515625, -10.567087173461914, 208.73690795898438, 111.02454376220703, -0.08000000566244125, 0.0, 1.055999994277954, 0.0, 0.0, 0.0, 0.0, 0.0, 1.6218602691678576E9, 2021-05-24 14:44:29.167
21.0, -163.19427490234375, -49.46952819824219, 141.14942932128906, 62.62275314331055, -0.08000000566244125, 0.0, 1.055999994277954, 0.0, 0.0, 0.0, 0.0, 0.0, 1.6218602691678576E9, 2021-05-24 14:44:29.167
22.0, -262.8401794433594, -139.69834899902344, 35.28408432006836, -32.18370819091797, -0.08000000566244125, 0.0, 1.055999994277954, 0.0, 0.0, 0.0, 0.0, 0.0, 1.6218602691815312E9, 2021-05-24 14:44:29.181
22.0, -198.89161682128906, -105.81485748291016, 103.64571380615234, 8.64103889465332, -0.08000000566244125, 0.0, 1.055999994277954, 0.0, 0.0, 0.0, 0.0, 0.0, 1.6218602691815312E9, 2021-05-24 14:44:29.181
23.0, -85.5352554321289, -3.633312702178955, 214.5225372314453, 105.67274475097656, -0.08000000566244125, 0.0, 1.055999994277954, 0.0, 0.0, 0.0, 0.0, 0.0, 1.6218602691971297E9, 2021-05-24 14:44:29.197
23.0, -150.97227478027344, -53.86764907836914, 142.63790893554688, 57.0316047668457, -0.08000000566244125, 0.0, 1.055999994277954, 0.0, 0.0, 0.0, 0.0, 0.0, 1.6218602691971297E9, 2021-05-24 14:44:29.197
24.0, -259.0254821777344, -140.68568420410156, 28.705602645874023, -38.19746780395508, -0.08000000566244125, 0.0, 1.055999994277954, 0.0, 0.0, 0.0, 0.0, 0.0, 1.6218602691978724E9, 2021-05-24 14:44:29.197
24.0, -191.625, -109.28922271728516, 99.83476257324219, 4.519669055938721, -0.08000000566244125, 0.0, 1.055999994277954, 0.0, 0.0, 0.0, 0.0, 0.0, 1.6218602691978724E9, 2021-05-24 14:44:29.197
25.0, -82.3675537109375, -12.197683334350586, 204.44349670410156, 105.10054016113281, -0.08000000566244125, 0.0, 1.055999994277954, 0.0, 0.0, 0.0, 0.0, 0.0, 1.6218602692114885E9, 2021-05-24 14:44:29.211
25.0, -152.12417602539062, -55.02701950073242, 131.28732299804688, 53.04861068725586, -0.08000000566244125, 0.0, 1.055999994277954, 0.0, 0.0, 0.0, 0.0, 0.0, 1.6218602692114885E9, 2021-05-24 14:44:29.211
26.0, -260.0128173828125, -140.85398864746094, 21.85410499572754, -37.838436126708984, -0.08000000566244125, 0.0, 1.055999994277954, 0.0, 0.0, 0.0, 0.0, 0.0, 1.621860269227157E9, 2021-05-24 14:44:29.227
26.0, -190.5516357421875, -104.8200454711914, 94.6811752319336, 13.398191452026367, -0.08000000566244125, 0.0, 1.055999994277954, 0.0, 0.0, 0.0, 0.0, 0.0, 1.621860269227157E9, 2021-05-24 14:44:29.227
27.0, -91.30965423583984, -0.7648095488548279, 204.86236572265625, 108.61604309082031, -0.08000000566244125, 0.0, 1.055999994277954, 0.0, 0.0, 0.0, 0.0, 0.0, 1.6218602692278895E9, 2021-05-24 14:44:29.227
27.0, -166.45921325683594, -52.37542724609375, 130.67771911621094, 57.136322021484375, -0.08000000566244125, 0.0, 1.055999994277954, 0.0, 0.0, 0.0, 0.0, 0.0, 1.6218602692278895E9, 2021-05-24 14:44:29.227
28.0, -267.0438232421875, -141.8899383544922, 25.519207000732422, -37.946895599365234, -0.08000000566244125, 0.0, 1.055999994277954, 0.0, 0.0, 0.0, 0.0, 0.0, 1.621860269258033E9, 2021-05-24 14:44:29.258
28.0, -191.10140991210938, -106.88821411132812, 98.2939224243164, 7.848180294036865, -0.08000000566244125, 0.0, 1.055999994277954, 0.0, 0.0, 0.0, 0.0, 0.0, 1.621860269258033E9, 2021-05-24 14:44:29.258
29.0, -92.24837493896484, -4.886179447174072, 206.26483154296875, 106.0841293334961, -0.08000000566244125, 0.0, 1.055999994277954, 0.0, 0.0, 0.0, 0.0, 0.0, 1.6218602692585413E9, 2021-05-24 14:44:29.258
29.0, -150.94236755371094, -48.40739440917969, 137.60400390625, 61.856075286865234, -0.08000000566244125, 0.0, 1.055999994277954, 0.0, 0.0, 0.0, 0.0, 0.0, 1.6218602692585413E9, 2021-05-24 14:44:29.258
30.0, -255.09483337402344, -142.9109344482422, 24.59545135498047, -29.9360294342041, -0.08000000566244125, 0.0, 1.055999994277954, 0.0, 0.0, 0.0, 0.0, 0.0, 1.6218602692593312E9, 2021-05-24 14:44:29.259
30.0, -180.9475860595703, -111.5219497680664, 101.45039367675781, 13.794620513916016, -0.08000000566244125, 0.0, 1.055999994277954, 0.0, 0.0, 0.0, 0.0, 0.0, 1.6218602692593312E9, 2021-05-24 14:44:29.259
31.0, -87.10974884033203, -7.799561500549316, 200.35205078125, 110.90486145019531, -0.08000000566244125, 0.0, 1.055999994277954, 0.0, 0.0, 0.0, 0.0, 0.0, 1.6218602692714372E9, 2021-05-24 14:44:29.271
31.0, -147.89434814453125, -48.88610076904297, 138.91671752929688, 59.574737548828125, -0.08000000566244125, 0.0, 1.055999994277954, 0.0, 0.0, 0.0, 0.0, 0.0, 1.6218602692714372E9, 2021-05-24 14:44:29.271
32.0, -257.7202453613281, -138.026611328125, 26.607519149780273, -38.44430160522461, -0.08000000566244125, 0.0, 1.055999994277954, 0.0, 0.0, 0.0, 0.0, 0.0, 1.6218602692872171E9, 2021-05-24 14:44:29.287
32.0, -182.5968780517578, -99.70760345458984, 100.97542572021484, 16.95109748840332, -0.08000000566244125, 0.0, 1.055999994277954, 0.0, 0.0, 0.0, 0.0, 0.0, 1.6218602692872171E9, 2021-05-24 14:44:29.287
33.0, -79.54766845703125, -6.2288031578063965, 200.37074279785156, 106.75357055664062, -0.08000000566244125, 0.0, 1.055999994277954, 0.0, 0.0, 0.0, 0.0, 0.0, 1.6218602692878778E9, 2021-05-24 14:44:29.287
33.0, -149.61843872070312, -49.929534912109375, 134.33908081054688, 54.903602600097656, -0.08000000566244125, 0.0, 1.055999994277954, 0.0, 0.0, 0.0, 0.0, 0.0, 1.6218602692878778E9, 2021-05-24 14:44:29.287
34.0, -256.54217529296875, -135.40121459960938, 27.793066024780273, -38.87065124511719, -0.08000000566244125, 0.0, 1.055999994277954, 0.0, 0.0, 0.0, 0.0, 0.0, 1.621860269301446E9, 2021-05-24 14:44:29.301
34.0, -186.108642578125, -104.08328247070312, 96.48007202148438, 3.6033935546875, -0.08000000566244125, 0.0, 1.055999994277954, 0.0, 0.0, 0.0, 0.0, 0.0, 1.621860269301446E9, 2021-05-24 14:44:29.301
35.0, -80.55370330810547, -5.394805908203125, 208.68829345703125, 107.07520294189453, -0.08000000566244125, 0.0, 1.055999994277954, 0.0, 0.0, 0.0, 0.0, 0.0, 1.6218602693171942E9, 2021-05-24 14:44:29.317
35.0, -158.126708984375, -56.279884338378906, 132.41302490234375, 52.162254333496094, -0.08000000566244125, 0.0, 1.055999994277954, 0.0, 0.0, 0.0, 0.0, 0.0, 1.6218602693171942E9, 2021-05-24 14:44:29.317
36.0, -254.55628967285156, -142.37237548828125, 36.21906280517578, -38.941707611083984, -0.08000000566244125, 0.0, 1.055999994277954, 0.0, 0.0, 0.0, 0.0, 0.0, 1.6218602693179529E9, 2021-05-24 14:44:29.317
36.0, -183.3448486328125, -105.94949340820312, 102.43399047851562, 15.081146240234375, -0.08000000566244125, 0.0, 1.055999994277954, 0.0, 0.0, 0.0, 0.0, 0.0, 1.6218602693179529E9, 2021-05-24 14:44:29.317
37.0, -83.31748962402344, -5.952050685882568, 204.66415405273438, 107.59130859375, -0.08000000566244125, 0.0, 1.055999994277954, 0.0, 0.0, 0.0, 0.0, 0.0, 1.621860269331441E9, 2021-05-24 14:44:29.331
37.0, -150.3365020751953, -53.16080856323242, 138.13880920410156, 53.19820785522461, -0.08000000566244125, 0.0, 1.055999994277954, 0.0, 0.0, 0.0, 0.0, 0.0, 1.621860269331441E9, 2021-05-24 14:44:29.331
38.0, -259.4854736328125, -145.3119354248047, 27.32931900024414, -39.92156219482422, -0.08000000566244125, 0.0, 1.055999994277954, 0.0, 0.0, 0.0, 0.0, 0.0, 1.6218602693471491E9, 2021-05-24 14:44:29.347
38.0, -186.93142700195312, -110.41119384765625, 97.56089782714844, 5.649118900299072, -0.08000000566244125, 0.0, 1.055999994277954, 0.0, 0.0, 0.0, 0.0, 0.0, 1.6218602693471491E9, 2021-05-24 14:44:29.347
39.0, -86.54502868652344, -12.220123291015625, 203.39633178710938, 95.98640441894531, -0.08000000566244125, 0.0, 1.055999994277954, 0.0, 0.0, 0.0, 0.0, 0.0, 1.6218602693479633E9, 2021-05-24 14:44:29.347
39.0, -145.31007385253906, -52.70827865600586, 132.15872192382812, 48.90480041503906, -0.08000000566244125, 0.0, 1.055999994277954, 0.0, 0.0, 0.0, 0.0, 0.0, 1.6218602693479633E9, 2021-05-24 14:44:29.347
40.0, -256.1046142578125, -148.11312866210938, 26.9553279876709, -43.14909744262695, -0.08000000566244125, 0.0, 1.055999994277954, 0.0, 0.0, 0.0, 0.0, 0.0, 1.621860269361487E9, 2021-05-24 14:44:29.361
40.0, -184.37332153320312, -111.97821807861328, 96.21453857421875, 6.696290969848633, -0.08000000566244125, 0.0, 1.055999994277954, 0.0, 0.0, 0.0, 0.0, 0.0, 1.621860269361487E9, 2021-05-24 14:44:29.361
41.0, -76.6679458618164, -10.11829948425293, 204.24154663085938, 109.0984878540039, -0.08000000566244125, 0.0, 1.055999994277954, 0.0, 0.0, 0.0, 0.0, 0.0, 1.6218602693771763E9, 2021-05-24 14:44:29.377
41.0, -144.3563995361328, -56.17890548706055, 138.86061096191406, 48.99829864501953, -0.08000000566244125, 0.0, 1.055999994277954, 0.0, 0.0, 0.0, 0.0, 0.0, 1.6218602693771763E9, 2021-05-24 14:44:29.377
42.0, -256.3439636230469, -136.8448028564453, 32.25102615356445, -41.380123138427734, -0.08000000566244125, 0.0, 1.055999994277954, 0.0, 0.0, 0.0, 0.0, 0.0, 1.6218602693778918E9, 2021-05-24 14:44:29.377
42.0, -184.0816192626953, -101.83186340332031, 107.25472259521484, 8.58120059967041, -0.08000000566244125, 0.0, 1.055999994277954, 0.0, 0.0, 0.0, 0.0, 0.0, 1.6218602693778918E9, 2021-05-24 14:44:29.377
43.0, -78.38082122802734, -13.098999977111816, 207.1736297607422, 108.2944107055664, -0.08000000566244125, 0.0, 1.055999994277954, 0.0, 0.0, 0.0, 0.0, 0.0, 1.6218602693914697E9, 2021-05-24 14:44:29.391
43.0, -147.63629150390625, -57.37941360473633, 138.83070373535156, 49.76498031616211, -0.08000000566244125, 0.0, 1.055999994277954, 0.0, 0.0, 0.0, 0.0, 0.0, 1.6218602693914697E9, 2021-05-24 14:44:29.391
44.0, -249.20823669433594, -144.23484802246094, 31.15897560119629, -43.0294189453125, -0.08000000566244125, 0.0, 1.055999994277954, 0.0, 0.0, 0.0, 0.0, 0.0, 1.621860269407164E9, 2021-05-24 14:44:29.407
44.0, -177.42832946777344, -104.98834228515625, 107.19862365722656, 5.346187114715576, -0.08000000566244125, 0.0, 1.055999994277954, 0.0, 0.0, 0.0, 0.0, 0.0, 1.621860269407164E9, 2021-05-24 14:44:29.407
45.0, -81.55973815917969, -3.977383613586426, 209.27919006347656, 103.72051239013672, -0.08000000566244125, 0.0, 1.055999994277954, 0.0, 0.0, 0.0, 0.0, 0.0, 1.6218602694078872E9, 2021-05-24 14:44:29.407
45.0, -148.94898986816406, -52.5362434387207, 139.74322509765625, 49.14041519165039, -0.08000000566244125, 0.0, 1.055999994277954, 0.0, 0.0, 0.0, 0.0, 0.0, 1.6218602694078872E9, 2021-05-24 14:44:29.407
46.0, -253.2959442138672, -134.73924255371094, 33.070064544677734, -40.460105895996094, -0.08000000566244125, 0.0, 1.055999994277954, 0.0, 0.0, 0.0, 0.0, 0.0, 1.6218602694215052E9, 2021-05-24 14:44:29.421
46.0, -186.64344787597656, -103.18570709228516, 97.55715942382812, 3.218183994293213, -0.08000000566244125, 0.0, 1.055999994277954, 0.0, 0.0, 0.0, 0.0, 0.0, 1.6218602694215052E9, 2021-05-24 14:44:29.421
47.0, -93.65083312988281, -1.7371835708618164, 207.50274658203125, 102.28813171386719, -0.08000000566244125, 0.0, 1.055999994277954, 0.0, 0.0, 0.0, 0.0, 0.0, 1.6218602694371817E9, 2021-05-24 14:44:29.437
47.0, -155.05999755859375, -57.4729118347168, 139.14859008789062, 53.157066345214844, -0.08000000566244125, 0.0, 1.055999994277954, 0.0, 0.0, 0.0, 0.0, 0.0, 1.6218602694371817E9, 2021-05-24 14:44:29.437
48.0, -268.8389587402344, -141.15316772460938, 29.580738067626953, -43.83723831176758, -0.08000000566244125, 0.0, 1.055999994277954, 0.0, 0.0, 0.0, 0.0, 0.0, 1.6218602694378817E9, 2021-05-24 14:44:29.437
48.0, -193.62957763671875, -103.72799682617188, 100.09654998779297, 9.340399742126465, -0.08000000566244125, 0.0, 1.055999994277954, 0.0, 0.0, 0.0, 0.0, 0.0, 1.6218602694378817E9, 2021-05-24 14:44:29.437
49.0, -86.87787628173828, -6.561654567718506, 202.32298278808594, 107.07894897460938, -0.08000000566244125, 0.0, 1.055999994277954, 0.0, 0.0, 0.0, 0.0, 0.0, 1.621860269451438E9, 2021-05-24 14:44:29.451
49.0, -158.19776916503906, -57.30087661743164, 133.6284942626953, 49.555545806884766, -0.08000000566244125, 0.0, 1.055999994277954, 0.0, 0.0, 0.0, 0.0, 0.0, 1.621860269451438E9, 2021-05-24 14:44:29.451
50.0, -264.0107727050781, -133.108642578125, 28.25681495666504, -38.25356674194336, -0.08000000566244125, 0.0, 1.055999994277954, 0.0, 0.0, 0.0, 0.0, 0.0, 1.621860269467174E9, 2021-05-24 14:44:29.467
50.0, -191.9503631591797, -99.1765365600586, 104.61808776855469, 8.308187484741211, -0.08000000566244125, 0.0, 1.055999994277954, 0.0, 0.0, 0.0, 0.0, 0.0, 1.621860269467174E9, 2021-05-24 14:44:29.467
51.0, -88.12326049804688, -7.866879463195801, 205.0493621826172, 102.52000427246094, -0.08000000566244125, 0.0, 1.055999994277954, 0.0, 0.0, 0.0, 0.0, 0.0, 1.6218602694678931E9, 2021-05-24 14:44:29.467
51.0, -152.85345458984375, -54.8250617980957, 142.9146728515625, 52.13607406616211, -0.08000000566244125, 0.0, 1.055999994277954, 0.0, 0.0, 0.0, 0.0, 0.0, 1.6218602694678931E9, 2021-05-24 14:44:29.467
52.0, -257.89227294921875, -143.93939208984375, 29.468542098999023, -40.953773498535156, -0.08000000566244125, 0.0, 1.055999994277954, 0.0, 0.0, 0.0, 0.0, 0.0, 1.6218602694814792E9, 2021-05-24 14:44:29.481
52.0, -185.77578735351562, -103.8177490234375, 98.09944915771484, 0.09162754565477371, -0.08000000566244125, 0.0, 1.055999994277954, 0.0, 0.0, 0.0, 0.0, 0.0, 1.6218602694814792E9, 2021-05-24 14:44:29.481
53.0, -83.50074768066406, -2.193451404571533, 210.2740020751953, 104.12068176269531, -0.08000000566244125, 0.0, 1.055999994277954, 0.0, 0.0, 0.0, 0.0, 0.0, 1.6218602694969063E9, 2021-05-24 14:44:29.496
53.0, -152.7075958251953, -51.76582336425781, 140.00502014160156, 46.13727569580078, -0.08000000566244125, 0.0, 1.055999994277954, 0.0, 0.0, 0.0, 0.0, 0.0, 1.6218602694969063E9, 2021-05-24 14:44:29.496
54.0, -259.5902099609375, -142.63043212890625, 28.339092254638672, -50.13148880004883, -0.08000000566244125, 0.0, 1.055999994277954, 0.0, 0.0, 0.0, 0.0, 0.0, 1.6218602695121474E9, 2021-05-24 14:44:29.512
54.0, -191.3258056640625, -94.39320373535156, 108.7170181274414, 5.368626594543457, -0.08000000566244125, 0.0, 1.055999994277954, 0.0, 0.0, 0.0, 0.0, 0.0, 1.6218602695121474E9, 2021-05-24 14:44:29.512
55.0, -94.55589294433594, -2.1186532974243164, 213.0377960205078, 99.75996398925781, -0.08000000566244125, 0.0, 1.055999994277954, 0.0, 0.0, 0.0, 0.0, 0.0, 1.6218602695129144E9, 2021-05-24 14:44:29.512
55.0, -161.93392944335938, -50.296043395996094, 141.19056701660156, 48.13812255859375, -0.08000000566244125, 0.0, 1.055999994277954, 0.0, 0.0, 0.0, 0.0, 0.0, 1.6218602695129144E9, 2021-05-24 14:44:29.512
56.0, -263.2066650390625, -143.8047637939453, 33.070064544677734, -45.97645950317383, -0.08000000566244125, 0.0, 1.055999994277954, 0.0, 0.0, 0.0, 0.0, 0.0, 1.6218602695271492E9, 2021-05-24 14:44:29.527
56.0, -189.14544677734375, -102.34796905517578, 106.69747924804688, 3.195744514465332, -0.08000000566244125, 0.0, 1.055999994277954, 0.0, 0.0, 0.0, 0.0, 0.0, 1.6218602695271492E9, 2021-05-24 14:44:29.527
57.0, -91.15631866455078, -4.49722957611084, 209.50732421875, 104.18426513671875, -0.08000000566244125, 0.0, 1.055999994277954, 0.0, 0.0, 0.0, 0.0, 0.0, 1.6218602695278668E9, 2021-05-24 14:44:29.527
57.0, -150.1195831298828, -47.07225036621094, 141.65057373046875, 52.89901351928711, -0.08000000566244125, 0.0, 1.055999994277954, 0.0, 0.0, 0.0, 0.0, 0.0, 1.6218602695278668E9, 2021-05-24 14:44:29.527
58.0, -258.53179931640625, -135.51341247558594, 37.77486038208008, -40.44514846801758, -0.08000000566244125, 0.0, 1.055999994277954, 0.0, 0.0, 0.0, 0.0, 0.0, 1.6218602695414252E9, 2021-05-24 14:44:29.541
58.0, -190.31976318359375, -93.67140197753906, 106.41698455810547, 6.367179870605469, -0.08000000566244125, 0.0, 1.055999994277954, 0.0, 0.0, 0.0, 0.0, 0.0, 1.6218602695414252E9, 2021-05-24 14:44:29.541
59.0, -91.18250274658203, -0.9854636192321777, 214.39537048339844, 105.43712615966797, -0.08000000566244125, 0.0, 1.055999994277954, 0.0, 0.0, 0.0, 0.0, 0.0, 1.621860269573674E9, 2021-05-24 14:44:29.573
59.0, -155.30308532714844, -50.53165817260742, 142.72019958496094, 49.58546447753906, -0.08000000566244125, 0.0, 1.055999994277954, 0.0, 0.0, 0.0, 0.0, 0.0, 1.621860269573674E9, 2021-05-24 14:44:29.573
60.0, -263.7713928222656, -138.7110137939453, 34.28179168701172, -42.049564361572266, -0.08000000566244125, 0.0, 1.055999994277954, 0.0, 0.0, 0.0, 0.0, 0.0, 1.6218602695743375E9, 2021-05-24 14:44:29.574
60.0, -188.36380004882812, -98.48465728759766, 109.04613494873047, 0.6563524603843689, -0.08000000566244125, 0.0, 1.055999994277954, 0.0, 0.0, 0.0, 0.0, 0.0, 1.6218602695743375E9, 2021-05-24 14:44:29.574
61.0, -88.97595977783203, -3.898845672607422, 211.3772735595703, 98.54823303222656, -0.08000000566244125, 0.0, 1.055999994277954, 0.0, 0.0, 0.0, 0.0, 0.0, 1.6218602695750408E9, 2021-05-24 14:44:29.575
61.0, -154.9515380859375, -46.290611267089844, 137.11782836914062, 45.45661544799805, -0.08000000566244125, 0.0, 1.055999994277954, 0.0, 0.0, 0.0, 0.0, 0.0, 1.6218602695750408E9, 2021-05-24 14:44:29.575
62.0, -255.94754028320312, -130.2700653076172, 36.5145149230957, -40.25067138671875, -0.08000000566244125, 0.0, 1.055999994277954, 0.0, 0.0, 0.0, 0.0, 0.0, 1.6218602695757842E9, 2021-05-24 14:44:29.575
62.0, -187.43630981445312, -93.19269561767578, 103.35400390625, 11.206610679626465, -0.08000000566244125, 0.0, 1.055999994277954, 0.0, 0.0, 0.0, 0.0, 0.0, 1.6218602695757842E9, 2021-05-24 14:44:29.575
63.0, -90.09793090820312, 3.7455098628997803, 208.62844848632812, 100.52664184570312, -0.08000000566244125, 0.0, 1.055999994277954, 0.0, 0.0, 0.0, 0.0, 0.0, 1.6218602695865536E9, 2021-05-24 14:44:29.586
63.0, -149.04249572753906, -42.56941223144531, 140.40145874023438, 52.020137786865234, -0.08000000566244125, 0.0, 1.055999994277954, 0.0, 0.0, 0.0, 0.0, 0.0, 1.6218602695865536E9, 2021-05-24 14:44:29.586
64.0, -253.77090454101562, -131.64260864257812, 33.25706100463867, -38.97910690307617, -0.08000000566244125, 0.0, 1.055999994277954, 0.0, 0.0, 0.0, 0.0, 0.0, 1.6218602696014488E9, 2021-05-24 14:44:29.601
64.0, -175.25918579101562, -93.53302764892578, 107.8680648803711, 10.589527130126953, -0.08000000566244125, 0.0, 1.055999994277954, 0.0, 0.0, 0.0, 0.0, 0.0, 1.6218602696014488E9, 2021-05-24 14:44:29.601
65.0, -82.18804168701172, 4.388772487640381, 207.45411682128906, 105.72510528564453, -0.08000000566244125, 0.0, 1.055999994277954, 0.0, 0.0, 0.0, 0.0, 0.0, 1.6218602696335428E9, 2021-05-24 14:44:29.633
65.0, -158.642822265625, -49.4844856262207, 135.89112854003906, 52.551204681396484, -0.08000000566244125, 0.0, 1.055999994277954, 0.0, 0.0, 0.0, 0.0, 0.0, 1.6218602696335428E9, 2021-05-24 14:44:29.633
66.0, -257.09942626953125, -138.85687255859375, 31.282392501831055, -39.139923095703125, -0.08000000566244125, 0.0, 1.055999994277954, 0.0, 0.0, 0.0, 0.0, 0.0, 1.621860269634251E9, 2021-05-24 14:44:29.634
66.0, -196.5841064453125, -93.69758605957031, 100.59395599365234, 13.817060470581055, -0.08000000566244125, 0.0, 1.055999994277954, 0.0, 0.0, 0.0, 0.0, 0.0, 1.621860269634251E9, 2021-05-24 14:44:29.634
67.0, -95.01963806152344, -12.470696449279785, 206.26109313964844, 103.53352355957031, -0.08000000566244125, 0.0, 1.055999994277954, 0.0, 0.0, 0.0, 0.0, 0.0, 1.621860269634974E9, 2021-05-24 14:44:29.634
67.0, -160.40057373046875, -50.00059127807617, 136.96823120117188, 50.76353073120117, -0.08000000566244125, 0.0, 1.055999994277954, 0.0, 0.0, 0.0, 0.0, 0.0, 1.621860269634974E9, 2021-05-24 14:44:29.634
68.0, -265.95550537109375, -139.84046936035156, 31.2861328125, -40.078636169433594, -0.08000000566244125, 0.0, 1.055999994277954, 0.0, 0.0, 0.0, 0.0, 0.0, 1.6218602696357303E9, 2021-05-24 14:44:29.635
68.0, -184.3658447265625, -99.29995727539062, 102.1497573852539, 10.223016738891602, -0.08000000566244125, 0.0, 1.055999994277954, 0.0, 0.0, 0.0, 0.0, 0.0, 1.6218602696357303E9, 2021-05-24 14:44:29.635
69.0, -90.2550048828125, -3.195744514465332, 206.57150268554688, 106.3459243774414, -0.08000000566244125, 0.0, 1.055999994277954, 0.0, 0.0, 0.0, 0.0, 0.0, 1.6218602696464603E9, 2021-05-24 14:44:29.646
69.0, -149.4314422607422, -49.58546447753906, 137.5740966796875, 50.318485260009766, -0.08000000566244125, 0.0, 1.055999994277954, 0.0, 0.0, 0.0, 0.0, 0.0, 1.6218602696464603E9, 2021-05-24 14:44:29.646
70.0, -251.67282104492188, -143.85711669921875, 32.08647155761719, -39.73082733154297, -0.08000000566244125, 0.0, 1.055999994277954, 0.0, 0.0, 0.0, 0.0, 0.0, 1.621860269661478E9, 2021-05-24 14:44:29.661
70.0, -182.95216369628906, -97.22056579589844, 107.73716735839844, 4.7852020263671875, -0.08000000566244125, 0.0, 1.055999994277954, 0.0, 0.0, 0.0, 0.0, 0.0, 1.621860269661478E9, 2021-05-24 14:44:29.661
71.0, -91.5976333618164, -7.376952648162842, 208.1011199951172, 98.27896118164062, -0.08000000566244125, 0.0, 1.055999994277954, 0.0, 0.0, 0.0, 0.0, 0.0, 1.6218602696936202E9, 2021-05-24 14:44:29.693
71.0, -146.5853729248047, -44.772212982177734, 145.68592834472656, 57.798282623291016, -0.08000000566244125, 0.0, 1.055999994277954, 0.0, 0.0, 0.0, 0.0, 0.0, 1.6218602696936202E9, 2021-05-24 14:44:29.693
72.0, -258.42333984375, -141.089599609375, 30.818645477294922, -43.87089538574219, -0.06400000303983688, 0.0, 1.055999994277954, 0.0, 0.0, 0.0, 0.0, 0.0, 1.621860269694337E9, 2021-05-24 14:44:29.694
72.0, -183.89088439941406, -104.30767822265625, 100.88941192626953, 4.24665641784668, -0.06400000303983688, 0.0, 1.055999994277954, 0.0, 0.0, 0.0, 0.0, 0.0, 1.621860269694337E9, 2021-05-24 14:44:29.694
73.0, -87.36780548095703, -2.380446434020996, 208.568603515625, 107.7072525024414, -0.06400000303983688, 0.0, 1.055999994277954, 0.0, 0.0, 0.0, 0.0, 0.0, 1.621860269695048E9, 2021-05-24 14:44:29.695
73.0, -153.77720642089844, -52.05379867553711, 135.20298767089844, 52.607303619384766, -0.06400000303983688, 0.0, 1.055999994277954, 0.0, 0.0, 0.0, 0.0, 0.0, 1.621860269695048E9, 2021-05-24 14:44:29.695
74.0, -260.3419189453125, -140.77545166015625, 25.137737274169922, -40.85279846191406, -0.06400000303983688, 0.0, 1.055999994277954, 0.0, 0.0, 0.0, 0.0, 0.0, 1.6218602696958196E9, 2021-05-24 14:44:29.695
74.0, -189.3698272705078, -108.55620574951172, 104.42361450195312, 8.742015838623047, -0.06400000303983688, 0.0, 1.055999994277954, 0.0, 0.0, 0.0, 0.0, 0.0, 1.6218602696958196E9, 2021-05-24 14:44:29.695
75.0, -85.36322021484375, -5.959530353546143, 206.52288818359375, 102.31805419921875, -0.06400000303983688, 0.0, 1.055999994277954, 0.0, 0.0, 0.0, 0.0, 0.0, 1.6218602697064705E9, 2021-05-24 14:44:29.706
75.0, -153.0292205810547, -47.28168487548828, 140.70065307617188, 52.940155029296875, -0.06400000303983688, 0.0, 1.055999994277954, 0.0, 0.0, 0.0, 0.0, 0.0, 1.6218602697064705E9, 2021-05-24 14:44:29.706
76.0, -262.5671691894531, -138.4641876220703, 31.33475112915039, -42.042083740234375, -0.06400000303983688, 0.0, 1.055999994277954, 0.0, 0.0, 0.0, 0.0, 0.0, 1.6218602697215693E9, 2021-05-24 14:44:29.721
76.0, -190.1439971923828, -97.6955337524414, 98.04335021972656, 7.025402069091797, -0.06400000303983688, 0.0, 1.055999994277954, 0.0, 0.0, 0.0, 0.0, 0.0, 1.6218602697215693E9, 2021-05-24 14:44:29.721
77.0, -85.98403930664062, -4.478530406951904, 206.63882446289062, 105.51192474365234, -0.06400000303983688, 0.0, 1.055999994277954, 0.0, 0.0, 0.0, 0.0, 0.0, 1.621860269737608E9, 2021-05-24 14:44:29.737
77.0, -156.0099334716797, -54.656768798828125, 138.67735290527344, 54.077083587646484, -0.06400000303983688, 0.0, 1.055999994277954, 0.0, 0.0, 0.0, 0.0, 0.0, 1.621860269737608E9, 2021-05-24 14:44:29.737
78.0, -257.4060974121094, -138.81947326660156, 32.0191535949707, -39.82058334350586, -0.06400000303983688, 0.0, 1.055999994277954, 0.0, 0.0, 0.0, 0.0, 0.0, 1.621860269752236E9, 2021-05-24 14:44:29.752
78.0, -186.21710205078125, -102.31805419921875, 105.20899200439453, 7.126379489898682, -0.06400000303983688, 0.0, 1.055999994277954, 0.0, 0.0, 0.0, 0.0, 0.0, 1.621860269752236E9, 2021-05-24 14:44:29.752
79.0, -81.8813705444336, -9.306740760803223, 210.36376953125, 101.0427474975586, -0.06400000303983688, 0.0, 1.055999994277954, 0.0, 0.0, 0.0, 0.0, 0.0, 1.621860269752952E9, 2021-05-24 14:44:29.752
79.0, -152.94320678710938, -51.249717712402344, 138.05279541015625, 51.3918342590332, -0.06400000303983688, 0.0, 1.055999994277954, 0.0, 0.0, 0.0, 0.0, 0.0, 1.621860269752952E9, 2021-05-24 14:44:29.752
80.0, -266.9615478515625, -139.45526123046875, 24.98440170288086, -46.481346130371094, -0.06400000303983688, 0.0, 1.055999994277954, 0.0, 0.0, 0.0, 0.0, 0.0, 1.6218602697675328E9, 2021-05-24 14:44:29.767
80.0, -186.74069213867188, -98.22286224365234, 99.55426788330078, 6.180184841156006, -0.06400000303983688, 0.0, 1.055999994277954, 0.0, 0.0, 0.0, 0.0, 0.0, 1.6218602697675328E9, 2021-05-24 14:44:29.767
81.0, -83.35488891601562, 1.5801076889038086, 207.9440460205078, 100.25363159179688, -0.06400000303983688, 0.0, 1.055999994277954, 0.0, 0.0, 0.0, 0.0, 0.0, 1.6218602697821867E9, 2021-05-24 14:44:29.782
81.0, -154.19607543945312, -45.65108871459961, 136.24642944335938, 47.02363204956055, -0.06400000303983688, 0.0, 1.055999994277954, 0.0, 0.0, 0.0, 0.0, 0.0, 1.6218602697821867E9, 2021-05-24 14:44:29.782
82.0, -250.7565460205078, -136.10057067871094, 22.789079666137695, -41.769073486328125, -0.06400000303983688, 0.0, 1.055999994277954, 0.0, 0.0, 0.0, 0.0, 0.0, 1.6218602697829432E9, 2021-05-24 14:44:29.782
82.0, -180.3417205810547, -97.04105377197266, 101.11006164550781, 3.0199692249298096, -0.06400000303983688, 0.0, 1.055999994277954, 0.0, 0.0, 0.0, 0.0, 0.0, 1.6218602697829432E9, 2021-05-24 14:44:29.782
83.0, -80.85663604736328, -5.035775184631348, 203.57958984375, 103.13709259033203, -0.06400000303983688, 0.0, 1.055999994277954, 0.0, 0.0, 0.0, 0.0, 0.0, 1.6218602697971416E9, 2021-05-24 14:44:29.797
83.0, -148.27955627441406, -54.8437614440918, 140.64454650878906, 54.07334518432617, -0.06400000303983688, 0.0, 1.055999994277954, 0.0, 0.0, 0.0, 0.0, 0.0, 1.6218602697971416E9, 2021-05-24 14:44:29.797
84.0, -257.69781494140625, -141.16065979003906, 26.25596809387207, -38.4218635559082, -0.06400000303983688, 0.0, 1.055999994277954, 0.0, 0.0, 0.0, 0.0, 0.0, 1.6218602697978756E9, 2021-05-24 14:44:29.797
84.0, -182.7576904296875, -99.44207000732422, 102.73318481445312, 10.851319313049316, -0.06400000303983688, 0.0, 1.055999994277954, 0.0, 0.0, 0.0, 0.0, 0.0, 1.6218602697978756E9, 2021-05-24 14:44:29.797
85.0, -85.58386993408203, -6.281161785125732, 213.2360076904297, 107.5277328491211, -0.06400000303983688, 0.0, 1.055999994277954, 0.0, 0.0, 0.0, 0.0, 0.0, 1.621860269811663E9, 2021-05-24 14:44:29.811
85.0, -146.10293579101562, -57.77958297729492, 141.84130859375, 53.66943359375, -0.06400000303983688, 0.0, 1.055999994277954, 0.0, 0.0, 0.0, 0.0, 0.0, 1.621860269811663E9, 2021-05-24 14:44:29.811
86.0, -249.20823669433594, -140.74179077148438, 25.717422485351562, -48.83748245239258, -0.06400000303983688, 0.0, 1.055999994277954, 0.0, 0.0, 0.0, 0.0, 0.0, 1.6218602698271258E9, 2021-05-24 14:44:29.827
86.0, -189.07064819335938, -109.3939437866211, 97.07845306396484, 1.2996152639389038, -0.06400000303983688, 0.0, 1.055999994277954, 0.0, 0.0, 0.0, 0.0, 0.0, 1.6218602698271258E9, 2021-05-24 14:44:29.827
87.0, -83.94579315185547, -3.270542621612549, 207.1399688720703, 105.52688598632812, -0.06400000303983688, 0.0, 1.055999994277954, 0.0, 0.0, 0.0, 0.0, 0.0, 1.62186026982796E9, 2021-05-24 14:44:29.827
87.0, -149.03501892089844, -53.800331115722656, 136.8148956298828, 51.38809585571289, -0.06400000303983688, 0.0, 1.055999994277954, 0.0, 0.0, 0.0, 0.0, 0.0, 1.62186026982796E9, 2021-05-24 14:44:29.827
88.0, -252.58535766601562, -138.39312744140625, 33.81430435180664, -41.00987243652344, -0.06400000303983688, 0.0, 1.055999994277954, 0.0, 0.0, 0.0, 0.0, 0.0, 1.6218602698415742E9, 2021-05-24 14:44:29.841
88.0, -180.03131103515625, -100.08907318115234, 104.74150848388672, 10.264155387878418, -0.06400000303983688, 0.0, 1.055999994277954, 0.0, 0.0, 0.0, 0.0, 0.0, 1.6218602698415742E9, 2021-05-24 14:44:29.841
89.0, -87.1845474243164, -5.402285575866699, 208.73690795898438, 101.828125, -0.06400000303983688, 0.0, 1.055999994277954, 0.0, 0.0, 0.0, 0.0, 0.0, 1.6218602698572004E9, 2021-05-24 14:44:29.857
89.0, -152.88711547851562, -43.21641540527344, 144.3507843017578, 49.491966247558594, -0.06400000303983688, 0.0, 1.055999994277954, 0.0, 0.0, 0.0, 0.0, 0.0, 1.6218602698572004E9, 2021-05-24 14:44:29.857
90.0, -265.2598876953125, -132.88050842285156, 32.830711364746094, -39.091304779052734, -0.06400000303983688, 0.0, 1.055999994277954, 0.0, 0.0, 0.0, 0.0, 0.0, 1.6218602698579497E9, 2021-05-24 14:44:29.857
90.0, -189.07064819335938, -102.13479614257812, 109.4986572265625, 11.692797660827637, -0.06400000303983688, 0.0, 1.055999994277954, 0.0, 0.0, 0.0, 0.0, 0.0, 1.6218602698579497E9, 2021-05-24 14:44:29.857
91.0, -85.73346710205078, 4.2952752113342285, 210.91726684570312, 106.6413803100586, -0.06400000303983688, 0.0, 1.055999994277954, 0.0, 0.0, 0.0, 0.0, 0.0, 1.6218602698714478E9, 2021-05-24 14:44:29.871
91.0, -148.98265075683594, -38.86690902709961, 144.58639526367188, 55.81987762451172, -0.06400000303983688, 0.0, 1.055999994277954, 0.0, 0.0, 0.0, 0.0, 0.0, 1.6218602698714478E9, 2021-05-24 14:44:29.871
92.0, -260.3905334472656, -132.4840850830078, 31.147756576538086, -40.42271041870117, -0.06400000303983688, 0.0, 1.055999994277954, 0.0, 0.0, 0.0, 0.0, 0.0, 1.6218602698872387E9, 2021-05-24 14:44:29.887
92.0, -185.75335693359375, -93.87335968017578, 109.30044555664062, 11.793774604797363, -0.06400000303983688, 0.0, 1.055999994277954, 0.0, 0.0, 0.0, 0.0, 0.0, 1.6218602698872387E9, 2021-05-24 14:44:29.887
93.0, -86.399169921875, -4.4860100746154785, 207.394287109375, 98.93717956542969, -0.06400000303983688, 0.0, 1.055999994277954, 0.0, 0.0, 0.0, 0.0, 0.0, 1.621860269887972E9, 2021-05-24 14:44:29.887
93.0, -138.46231079101562, -48.777645111083984, 141.34390258789062, 55.2065315246582, -0.06400000303983688, 0.0, 1.055999994277954, 0.0, 0.0, 0.0, 0.0, 0.0, 1.621860269887972E9, 2021-05-24 14:44:29.887
94.0, -252.69381713867188, -132.8655548095703, 30.145463943481445, -40.35165023803711, -0.06400000303983688, 0.0, 1.055999994277954, 0.0, 0.0, 0.0, 0.0, 0.0, 1.621860269901458E9, 2021-05-24 14:44:29.901
94.0, -188.6181182861328, -94.69613647460938, 107.51277160644531, 3.5547749996185303, -0.06400000303983688, 0.0, 1.055999994277954, 0.0, 0.0, 0.0, 0.0, 0.0, 1.621860269901458E9, 2021-05-24 14:44:29.901
95.0, -82.42739868164062, -4.508449554443359, 205.9918212890625, 96.06494140625, -0.06400000303983688, 0.0, 1.055999994277954, 0.0, 0.0, 0.0, 0.0, 0.0, 1.6218602699172163E9, 2021-05-24 14:44:29.917
95.0, -143.69068908691406, -53.89756774902344, 137.12530517578125, 46.58232498168945, -0.06400000303983688, 0.0, 1.055999994277954, 0.0, 0.0, 0.0, 0.0, 0.0, 1.6218602699172163E9, 2021-05-24 14:44:29.917
96.0, -260.2147521972656, -139.53753662109375, 27.778106689453125, -40.149696350097656, -0.06400000303983688, 0.0, 1.055999994277954, 0.0, 0.0, 0.0, 0.0, 0.0, 1.6218602699179733E9, 2021-05-24 14:44:29.917
96.0, -191.6287384033203, -99.48694610595703, 103.6943359375, 9.448857307434082, -0.06400000303983688, 0.0, 1.055999994277954, 0.0, 0.0, 0.0, 0.0, 0.0, 1.6218602699179733E9, 2021-05-24 14:44:29.917
97.0, -88.94229888916016, 1.1649788618087769, 208.93138122558594, 101.60372924804688, -0.06400000303983688, 0.0, 1.055999994277954, 0.0, 0.0, 0.0, 0.0, 0.0, 1.621860269931487E9, 2021-05-24 14:44:29.931
97.0, -157.54702758789062, -45.80442428588867, 132.8057098388672, 44.76099395751953, -0.06400000303983688, 0.0, 1.055999994277954, 0.0, 0.0, 0.0, 0.0, 0.0, 1.621860269931487E9, 2021-05-24 14:44:29.931
98.0, -264.0406799316406, -136.35113525390625, 27.2956600189209, -42.1954231262207, -0.06400000303983688, 0.0, 1.055999994277954, 0.0, 0.0, 0.0, 0.0, 0.0, 1.621860269947132E9, 2021-05-24 14:44:29.947
98.0, -193.08355712890625, -84.25059509277344, 104.06458282470703, 6.341000556945801, -0.06400000303983688, 0.0, 1.055999994277954, 0.0, 0.0, 0.0, 0.0, 0.0, 1.621860269947132E9, 2021-05-24 14:44:29.947
99.0, -89.70523834228516, 10.780261993408203, 207.84681701660156, 102.94261932373047, -0.06400000303983688, 0.0, 1.055999994277954, 0.0, 0.0, 0.0, 0.0, 0.0, 1.6218602699480097E9, 2021-05-24 14:44:29.948
99.0, -158.4259033203125, -36.1741828918457, 145.1997528076172, 56.77729034423828, -0.06400000303983688, 0.0, 1.055999994277954, 0.0, 0.0, 0.0, 0.0, 0.0, 1.6218602699480097E9, 2021-05-24 14:44:29.948
100.0, -258.15032958984375, -131.08909606933594, 27.815505981445312, -43.50812530517578, -0.06400000303983688, 0.0, 1.055999994277954, 0.0, 0.0, 0.0, 0.0, 0.0, 1.6218602699621835E9, 2021-05-24 14:44:29.962
100.0, -195.59303283691406, -86.12428283691406, 106.6862564086914, 8.05761432647705, -0.06400000303983688, 0.0, 1.055999994277954, 0.0, 0.0, 0.0, 0.0, 0.0, 1.6218602699621835E9, 2021-05-24 14:44:29.962
0.0, -89.38922119140625, 10.600746154785156, 215.0330352783203, 105.11737060546875, -0.06400000303983688, 0.0, 1.055999994277954, 0.0, 0.0, 0.0, 0.0, 0.0, 1.621860269962867E9, 2021-05-24 14:44:29.962
1.0, -157.52645874023438, -37.513065338134766, 140.09291076660156, 50.810279846191406, -0.06400000303983688, 0.0, 1.055999994277954, 0.0, 0.0, 0.0, 0.0, 0.0, 1.62186026997654E9, 2021-05-24 14:44:29.976
1.0, -265.26922607421875, -131.06292724609375, 32.391273498535156, -41.2810173034668, -0.06400000303983688, 0.0, 1.055999994277954, 0.0, 0.0, 0.0, 0.0, 0.0, 1.62186026997654E9, 2021-05-24 14:44:29.976
2.0, -194.65618896484375, -84.53482818603516, 109.05174255371094, 6.75425910949707, -0.08000000566244125, 0.0, 1.055999994277954, 0.0, 0.0, 0.0, 0.0, 0.0, 1.621860269992226E9, 2021-05-24 14:44:29.992
2.0, -97.55715942382812, 6.195144176483154, 208.14413452148438, 98.21725463867188, -0.08000000566244125, 0.0, 1.055999994277954, 0.0, 0.0, 0.0, 0.0, 0.0, 1.621860269992226E9, 2021-05-24 14:44:29.992
3.0, -164.0750274658203, -42.21411895751953, 138.2940216064453, 52.96446228027344, -0.08000000566244125, 0.0, 1.055999994277954, 0.0, 0.0, 0.0, 0.0, 0.0, 1.621860269992931E9, 2021-05-24 14:44:29.992
3.0, -271.4587707519531, -130.04566955566406, 30.035137176513672, -42.73209762573242, -0.08000000566244125, 0.0, 1.055999994277954, 0.0, 0.0, 0.0, 0.0, 0.0, 1.621860269992931E9, 2021-05-24 14:44:29.992
4.0, -197.73785400390625, -87.85211944580078, 101.35502624511719, 5.6173295974731445, -0.08000000566244125, 0.0, 1.055999994277954, 0.0, 0.0, 0.0, 0.0, 0.0, 1.62186027000647E9, 2021-05-24 14:44:30.006
4.0, -102.69578552246094, 9.254382133483887, 206.2405242919922, 107.12943267822266, -0.08000000566244125, 0.0, 1.055999994277954, 0.0, 0.0, 0.0, 0.0, 0.0, 1.62186027000647E9, 2021-05-24 14:44:30.006
5.0, -161.70018005371094, -37.06801986694336, 138.537109375, 47.605186462402344, -0.08000000566244125, 0.0, 1.055999994277954, 0.0, 0.0, 0.0, 0.0, 0.0, 1.6218602700222266E9, 2021-05-24 14:44:30.022
5.0, -266.7801513671875, -130.0718536376953, 26.58694839477539, -40.38718032836914, -0.08000000566244125, 0.0, 1.055999994277954, 0.0, 0.0, 0.0, 0.0, 0.0, 1.6218602700222266E9, 2021-05-24 14:44:30.022
6.0, -194.22982788085938, -91.9921875, 104.60126495361328, 7.5994768142700195, -0.08000000566244125, 0.0, 1.055999994277954, 0.0, 0.0, 0.0, 0.0, 0.0, 1.6218602700229256E9, 2021-05-24 14:44:30.022
6.0, -100.08533477783203, 7.758422374725342, 202.9905548095703, 100.4499740600586, -0.08000000566244125, 0.0, 1.055999994277954, 0.0, 0.0, 0.0, 0.0, 0.0, 1.6218602700229256E9, 2021-05-24 14:44:30.022
7.0, -163.31956481933594, -41.78403091430664, 132.93099975585938, 54.01911544799805, -0.08000000566244125, 0.0, 1.055999994277954, 0.0, 0.0, 0.0, 0.0, 0.0, 1.6218602700364635E9, 2021-05-24 14:44:30.036
7.0, -267.3747863769531, -134.5559844970703, 29.807003021240234, -36.0638542175293, -0.08000000566244125, 0.0, 1.055999994277954, 0.0, 0.0, 0.0, 0.0, 0.0, 1.6218602700364635E9, 2021-05-24 14:44:30.036
8.0, -196.08482360839844, -95.4254150390625, 103.64010620117188, 5.8604230880737305, -0.08000000566244125, 0.0, 1.055999994277954, 0.0, 0.0, 0.0, 0.0, 0.0, 1.6218602700521247E9, 2021-05-24 14:44:30.052
8.0, -96.8503189086914, 3.659492015838623, 198.0987548828125, 100.73046875, -0.08000000566244125, 0.0, 1.055999994277954, 0.0, 0.0, 0.0, 0.0, 0.0, 1.6218602700521247E9, 2021-05-24 14:44:30.052
9.0, -157.90419006347656, -42.89104080200195, 134.9019317626953, 50.282955169677734, -0.08000000566244125, 0.0, 1.055999994277954, 0.0, 0.0, 0.0, 0.0, 0.0, 1.621860270053E9, 2021-05-24 14:44:30.053
9.0, -263.9752197265625, -138.14630126953125, 31.811588287353516, -42.48152542114258, -0.08000000566244125, 0.0, 1.055999994277954, 0.0, 0.0, 0.0, 0.0, 0.0, 1.621860270053E9, 2021-05-24 14:44:30.053
10.0, -189.31185913085938, -101.31949615478516, 96.5567398071289, 6.047418117523193, -0.08000000566244125, 0.0, 1.055999994277954, 0.0, 0.0, 0.0, 0.0, 0.0, 1.6218602700664492E9, 2021-05-24 14:44:30.066
10.0, -91.05347442626953, -1.5053097009658813, 208.00949096679688, 102.80610656738281, -0.08000000566244125, 0.0, 1.055999994277954, 0.0, 0.0, 0.0, 0.0, 0.0, 1.6218602700664492E9, 2021-05-24 14:44:30.066
11.0, -150.03916931152344, -48.23162078857422, 140.17144775390625, 53.1290168762207, -0.08000000566244125, 0.0, 1.055999994277954, 0.0, 0.0, 0.0, 0.0, 0.0, 1.6218602700822778E9, 2021-05-24 14:44:30.082
11.0, -264.17718505859375, -137.78726196289062, 27.54062271118164, -42.537620544433594, -0.08000000566244125, 0.0, 1.055999994277954, 0.0, 0.0, 0.0, 0.0, 0.0, 1.6218602700822778E9, 2021-05-24 14:44:30.082
12.0, -194.4542236328125, -98.2901840209961, 95.07573699951172, 7.722893238067627, -0.08000000566244125, 0.0, 1.055999994277954, 0.0, 0.0, 0.0, 0.0, 0.0, 1.6218602700829542E9, 2021-05-24 14:44:30.082
12.0, -97.99846649169922, -7.8033013343811035, 200.99343872070312, 100.53973388671875, -0.08000000566244125, 0.0, 1.055999994277954, 0.0, 0.0, 0.0, 0.0, 0.0, 1.6218602700829542E9, 2021-05-24 14:44:30.082
13.0, -163.132568359375, -51.96030044555664, 130.50755310058594, 52.37730026245117, -0.08000000566244125, 0.0, 1.055999994277954, 0.0, 0.0, 0.0, 0.0, 0.0, 1.621860270096517E9, 2021-05-24 14:44:30.096
13.0, -262.8794250488281, -138.8045196533203, 22.00931167602539, -46.883384704589844, -0.08000000566244125, 0.0, 1.055999994277954, 0.0, 0.0, 0.0, 0.0, 0.0, 1.621860270096517E9, 2021-05-24 14:44:30.096
14.0, -186.81361389160156, -95.61241149902344, 102.12545013427734, 4.869349956512451, -0.08000000566244125, 0.0, 1.055999994277954, 0.0, 0.0, 0.0, 0.0, 0.0, 1.6218602701285057E9, 2021-05-24 14:44:30.128
14.0, -87.19015502929688, 4.994636535644531, 201.59556579589844, 104.69475555419922, -0.08000000566244125, 0.0, 1.055999994277954, 0.0, 0.0, 0.0, 0.0, 0.0, 1.6218602701285057E9, 2021-05-24 14:44:30.128
15.0, -159.04112243652344, -50.05669021606445, 124.43769073486328, 43.988704681396484, -0.08000000566244125, 0.0, 1.055999994277954, 0.0, 0.0, 0.0, 0.0, 0.0, 1.6218602701292105E9, 2021-05-24 14:44:30.129
15.0, -259.4836120605469, -130.71511840820312, 25.270503997802734, -43.31178283691406, -0.08000000566244125, 0.0, 1.055999994277954, 0.0, 0.0, 0.0, 0.0, 0.0, 1.6218602701292105E9, 2021-05-24 14:44:30.129
16.0, -181.92556762695312, -96.39778900146484, 102.7013931274414, 9.211373329162598, -0.08000000566244125, 0.0, 1.055999994277954, 0.0, 0.0, 0.0, 0.0, 0.0, 1.621860270129962E9, 2021-05-24 14:44:30.129
16.0, -94.76345825195312, 4.123239517211914, 202.48191833496094, 99.5673599243164, -0.08000000566244125, 0.0, 1.055999994277954, 0.0, 0.0, 0.0, 0.0, 0.0, 1.621860270129962E9, 2021-05-24 14:44:30.129
17.0, -151.0526885986328, -48.53455352783203, 133.56678771972656, 50.20067596435547, -0.08000000566244125, 0.0, 1.055999994277954, 0.0, 0.0, 0.0, 0.0, 0.0, 1.6218602701306884E9, 2021-05-24 14:44:30.130
17.0, -261.92950439453125, -141.30650329589844, 27.34988784790039, -42.975189208984375, -0.08000000566244125, 0.0, 1.055999994277954, 0.0, 0.0, 0.0, 0.0, 0.0, 1.6218602701306884E9, 2021-05-24 14:44:30.130
18.0, -186.619140625, -93.21139526367188, 109.62020874023438, 13.515998840332031, -0.08000000566244125, 0.0, 1.055999994277954, 0.0, 0.0, 0.0, 0.0, 0.0, 1.6218602701414716E9, 2021-05-24 14:44:30.141
18.0, -89.28823852539062, -2.702077627182007, 208.76121520996094, 101.54576110839844, -0.08000000566244125, 0.0, 1.055999994277954, 0.0, 0.0, 0.0, 0.0, 0.0, 1.6218602701414716E9, 2021-05-24 14:44:30.141
19.0, -151.07513427734375, -48.71406555175781, 141.9665985107422, 48.57756042480469, -0.08000000566244125, 0.0, 1.055999994277954, 0.0, 0.0, 0.0, 0.0, 0.0, 1.6218602701564715E9, 2021-05-24 14:44:30.156
19.0, -257.2770690917969, -142.37237548828125, 31.47125816345215, -42.361846923828125, -0.08000000566244125, 0.0, 1.055999994277954, 0.0, 0.0, 0.0, 0.0, 0.0, 1.6218602701564715E9, 2021-05-24 14:44:30.156
20.0, -184.7155303955078, -104.55077362060547, 100.92868041992188, 4.476660251617432, -0.08000000566244125, 0.0, 1.055999994277954, 0.0, 0.0, 0.0, 0.0, 0.0, 1.621860270188598E9, 2021-05-24 14:44:30.188
20.0, -82.86309051513672, -6.81970739364624, 205.62344360351562, 93.265625, -0.08000000566244125, 0.0, 1.055999994277954, 0.0, 0.0, 0.0, 0.0, 0.0, 1.621860270188598E9, 2021-05-24 14:44:30.188
21.0, -150.36080932617188, -45.909141540527344, 136.68212890625, 41.314674377441406, -0.08000000566244125, 0.0, 1.055999994277954, 0.0, 0.0, 0.0, 0.0, 0.0, 1.6218602701893036E9, 2021-05-24 14:44:30.189
21.0, -262.3708190917969, -144.5190887451172, 27.226470947265625, -52.87096405029297, -0.08000000566244125, 0.0, 1.055999994277954, 0.0, 0.0, 0.0, 0.0, 0.0, 1.6218602701893036E9, 2021-05-24 14:44:30.189
22.0, -190.08229064941406, -99.32239532470703, 101.35502624511719, 2.206541061401367, -0.08000000566244125, 0.0, 1.055999994277954, 0.0, 0.0, 0.0, 0.0, 0.0, 1.6218602701900115E9, 2021-05-24 14:44:30.190
22.0, -92.26145935058594, -8.053874969482422, 199.05242919921875, 93.98368835449219, -0.08000000566244125, 0.0, 1.055999994277954, 0.0, 0.0, 0.0, 0.0, 0.0, 1.6218602701900115E9, 2021-05-24 14:44:30.190
23.0, -146.0524444580078, -50.39702224731445, 138.5446014404297, 47.945518493652344, -0.08000000566244125, 0.0, 1.055999994277954, 0.0, 0.0, 0.0, 0.0, 0.0, 1.6218602701908257E9, 2021-05-24 14:44:30.190
23.0, -254.03457641601562, -144.51535034179688, 20.008464813232422, -48.30454635620117, -0.08000000566244125, 0.0, 1.055999994277954, 0.0, 0.0, 0.0, 0.0, 0.0, 1.6218602701908257E9, 2021-05-24 14:44:30.190
24.0, -188.062744140625, -99.29247283935547, 101.71031951904297, 0.7629395723342896, -0.08000000566244125, 0.0, 1.055999994277954, 0.0, 0.0, 0.0, 0.0, 0.0, 1.6218602702015424E9, 2021-05-24 14:44:30.201
24.0, -89.04515075683594, -4.1045403480529785, 201.08694458007812, 94.88874053955078, -0.08000000566244125, 0.0, 1.055999994277954, 0.0, 0.0, 0.0, 0.0, 0.0, 1.6218602702015424E9, 2021-05-24 14:44:30.201
25.0, -152.28311157226562, -48.03340530395508, 137.4300994873047, 48.648616790771484, -0.08000000566244125, 0.0, 1.055999994277954, 0.0, 0.0, 0.0, 0.0, 0.0, 1.6218602702165134E9, 2021-05-24 14:44:30.216
25.0, -258.088623046875, -143.89077758789062, 25.91002655029297, -47.605186462402344, -0.08000000566244125, 0.0, 1.055999994277954, 0.0, 0.0, 0.0, 0.0, 0.0, 1.6218602702165134E9, 2021-05-24 14:44:30.216
26.0, -185.0371551513672, -99.9806137084961, 96.36974334716797, 8.848603248596191, -0.08000000566244125, 0.0, 1.055999994277954, 0.0, 0.0, 0.0, 0.0, 0.0, 1.6218602702485888E9, 2021-05-24 14:44:30.248
26.0, -86.46087646484375, -4.5383687019348145, 207.9085235595703, 102.8210678100586, -0.08000000566244125, 0.0, 1.055999994277954, 0.0, 0.0, 0.0, 0.0, 0.0, 1.6218602702485888E9, 2021-05-24 14:44:30.248
27.0, -159.28421020507812, -51.272159576416016, 135.59754943847656, 53.4057731628418, -0.08000000566244125, 0.0, 1.055999994277954, 0.0, 0.0, 0.0, 0.0, 0.0, 1.6218602702492328E9, 2021-05-24 14:44:30.249
27.0, -262.4007263183594, -153.27792358398438, 25.90254783630371, -45.34254837036133, -0.08000000566244125, 0.0, 1.055999994277954, 0.0, 0.0, 0.0, 0.0, 0.0, 1.6218602702492328E9, 2021-05-24 14:44:30.249
28.0, -188.19363403320312, -105.983154296875, 102.95944213867188, 0.9948133826255798, -0.08000000566244125, 0.0, 1.055999994277954, 0.0, 0.0, 0.0, 0.0, 0.0, 1.621860270250001E9, 2021-05-24 14:44:30.250
28.0, -89.98760223388672, -7.3395538330078125, 208.43959045410156, 100.47988891601562, -0.08000000566244125, 0.0, 1.055999994277954, 0.0, 0.0, 0.0, 0.0, 0.0, 1.621860270250001E9, 2021-05-24 14:44:30.250
29.0, -153.977294921875, -47.18070602416992, 140.69129943847656, 44.983516693115234, -0.08000000566244125, 0.0, 1.055999994277954, 0.0, 0.0, 0.0, 0.0, 0.0, 1.621860270250786E9, 2021-05-24 14:44:30.250
29.0, -260.6691589355469, -135.09454345703125, 35.2186393737793, -41.696144104003906, -0.08000000566244125, 0.0, 1.055999994277954, 0.0, 0.0, 0.0, 0.0, 0.0, 1.621860270250786E9, 2021-05-24 14:44:30.250
30.0, -188.4404754638672, -95.15240478515625, 110.29712677001953, -3.4930665493011475, -0.08000000566244125, 0.0, 1.055999994277954, 0.0, 0.0, 0.0, 0.0, 0.0, 1.6218602702616282E9, 2021-05-24 14:44:30.261
30.0, -89.65475463867188, -0.48057714104652405, 211.11361694335938, 96.73251342773438, -0.08000000566244125, 0.0, 1.055999994277954, 0.0, 0.0, 0.0, 0.0, 0.0, 1.6218602702616282E9, 2021-05-24 14:44:30.261
31.0, -158.0874481201172, -45.96897888183594, 141.26724243164062, 43.663330078125, -0.08000000566244125, 0.0, 1.055999994277954, 0.0, 0.0, 0.0, 0.0, 0.0, 1.6218602702764194E9, 2021-05-24 14:44:30.276
31.0, -260.7252502441406, -132.45042419433594, 27.536884307861328, -53.484310150146484, -0.08000000566244125, 0.0, 1.055999994277954, 0.0, 0.0, 0.0, 0.0, 0.0, 1.6218602702764194E9, 2021-05-24 14:44:30.276
32.0, -183.08119201660156, -100.92681121826172, 102.0618667602539, 0.34407079219818115, -0.08000000566244125, 0.0, 1.055999994277954, 0.0, 0.0, 0.0, 0.0, 0.0, 1.6218602702918808E9, 2021-05-24 14:44:30.291
32.0, -83.01642608642578, -1.4230319261550903, 201.14303588867188, 99.9899673461914, -0.08000000566244125, 0.0, 1.055999994277954, 0.0, 0.0, 0.0, 0.0, 0.0, 1.6218602702918808E9, 2021-05-24 14:44:30.291
33.0, -156.86448669433594, -49.20399475097656, 138.77647399902344, 43.86154556274414, -0.08000000566244125, 0.0, 1.055999994277954, 0.0, 0.0, 0.0, 0.0, 0.0, 1.6218602703071675E9, 2021-05-24 14:44:30.307
33.0, -267.56927490234375, -139.0027313232422, 26.493452072143555, -50.3764533996582, -0.08000000566244125, 0.0, 1.055999994277954, 0.0, 0.0, 0.0, 0.0, 0.0, 1.6218602703071675E9, 2021-05-24 14:44:30.307
34.0, -183.05874633789062, -101.39804077148438, 106.26177978515625, 1.7727125883102417, -0.08000000566244125, 0.0, 1.055999994277954, 0.0, 0.0, 0.0, 0.0, 0.0, 1.621860270307896E9, 2021-05-24 14:44:30.307
34.0, -81.96925354003906, -7.836960315704346, 211.7119903564453, 96.53429412841797, -0.08000000566244125, 0.0, 1.055999994277954, 0.0, 0.0, 0.0, 0.0, 0.0, 1.621860270307896E9, 2021-05-24 14:44:30.307
35.0, -149.3622589111328, -52.19217300415039, 134.49427795410156, 43.91016387939453, -0.08000000566244125, 0.0, 1.055999994277954, 0.0, 0.0, 0.0, 0.0, 0.0, 1.621860270322227E9, 2021-05-24 14:44:30.322
35.0, -266.6754455566406, -148.10565185546875, 33.48332595825195, -45.26026916503906, -0.08000000566244125, 0.0, 1.055999994277954, 0.0, 0.0, 0.0, 0.0, 0.0, 1.621860270322227E9, 2021-05-24 14:44:30.322
36.0, -187.95802307128906, -102.88652038574219, 106.2168960571289, 5.796844959259033, -0.08000000566244125, 0.0, 1.055999994277954, 0.0, 0.0, 0.0, 0.0, 0.0, 1.621860270322945E9, 2021-05-24 14:44:30.322
36.0, -86.9695053100586, -2.0662946701049805, 206.01612854003906, 104.65736389160156, -0.08000000566244125, 0.0, 1.055999994277954, 0.0, 0.0, 0.0, 0.0, 0.0, 1.621860270322945E9, 2021-05-24 14:44:30.322
37.0, -154.6616973876953, -48.05958557128906, 145.22032165527344, 52.6951904296875, -0.08000000566244125, 0.0, 1.055999994277954, 0.0, 0.0, 0.0, 0.0, 0.0, 1.6218602703364637E9, 2021-05-24 14:44:30.336
37.0, -258.88897705078125, -140.41641235351562, 36.13491439819336, -43.73439025878906, -0.08000000566244125, 0.0, 1.055999994277954, 0.0, 0.0, 0.0, 0.0, 0.0, 1.6218602703364637E9, 2021-05-24 14:44:30.336
38.0, -186.4994659423828, -97.87505340576172, 116.97659301757812, -0.3141515851020813, -0.08000000566244125, 0.0, 1.055999994277954, 0.0, 0.0, 0.0, 0.0, 0.0, 1.6218602703521972E9, 2021-05-24 14:44:30.352
38.0, -89.74825286865234, -4.661785125732422, 210.6536102294922, 97.33089447021484, -0.08000000566244125, 0.0, 1.055999994277954, 0.0, 0.0, 0.0, 0.0, 0.0, 1.6218602703521972E9, 2021-05-24 14:44:30.352
39.0, -151.2135009765625, -43.61284255981445, 141.39065551757812, 44.800262451171875, -0.08000000566244125, 0.0, 1.055999994277954, 0.0, 0.0, 0.0, 0.0, 0.0, 1.6218602703529582E9, 2021-05-24 14:44:30.352
39.0, -261.9556884765625, -138.31832885742188, 36.55752182006836, -51.77891540527344, -0.08000000566244125, 0.0, 1.055999994277954, 0.0, 0.0, 0.0, 0.0, 0.0, 1.6218602703529582E9, 2021-05-24 14:44:30.352
40.0, -190.3066864013672, -100.02923583984375, 101.08949279785156, 0.9050557613372803, -0.08000000566244125, 0.0, 1.040000081062317, 0.0, 0.0, 0.0, 0.0, 0.0, 1.6218602703665237E9, 2021-05-24 14:44:30.366
40.0, -92.41105651855469, -1.0939207077026367, 203.10275268554688, 97.20748138427734, -0.08000000566244125, 0.0, 1.040000081062317, 0.0, 0.0, 0.0, 0.0, 0.0, 1.6218602703665237E9, 2021-05-24 14:44:30.366
41.0, -161.101806640625, -49.86969757080078, 137.67320251464844, 37.36907958984375, -0.08000000566244125, 0.0, 1.040000081062317, 0.0, 0.0, 0.0, 0.0, 0.0, 1.6218602703821313E9, 2021-05-24 14:44:30.382
41.0, -267.4271545410156, -136.51943969726562, 26.44109344482422, -51.973388671875, -0.08000000566244125, 0.0, 1.040000081062317, 0.0, 0.0, 0.0, 0.0, 0.0, 1.6218602703821313E9, 2021-05-24 14:44:30.382
42.0, -189.66342163085938, -91.00111389160156, 104.73590087890625, 1.3201847076416016, -0.08000000566244125, 0.0, 1.040000081062317, 0.0, 0.0, 0.0, 0.0, 0.0, 1.621860270382881E9, 2021-05-24 14:44:30.382
42.0, -86.86104583740234, -4.654305458068848, 204.5164337158203, 92.43162536621094, -0.08000000566244125, 0.0, 1.040000081062317, 0.0, 0.0, 0.0, 0.0, 0.0, 1.621860270382881E9, 2021-05-24 14:44:30.382
43.0, -155.15162658691406, -46.22703170776367, 137.55726623535156, 44.029842376708984, -0.08000000566244125, 0.0, 1.040000081062317, 0.0, 0.0, 0.0, 0.0, 0.0, 1.6218602703965707E9, 2021-05-24 14:44:30.396
43.0, -263.4104919433594, -141.7178955078125, 23.849342346191406, -53.42073059082031, -0.08000000566244125, 0.0, 1.040000081062317, 0.0, 0.0, 0.0, 0.0, 0.0, 1.6218602703965707E9, 2021-05-24 14:44:30.396
44.0, -185.27651977539062, -102.26569366455078, 99.66085052490234, -3.373389720916748, -0.08000000566244125, 0.0, 1.040000081062317, 0.0, 0.0, 0.0, 0.0, 0.0, 1.6218602704122655E9, 2021-05-24 14:44:30.412
44.0, -87.4369888305664, -8.64103889465332, 203.74600219726562, 97.47675323486328, -0.08000000566244125, 0.0, 1.040000081062317, 0.0, 0.0, 0.0, 0.0, 0.0, 1.6218602704122655E9, 2021-05-24 14:44:30.412
45.0, -154.7439727783203, -54.282779693603516, 138.80638122558594, 36.81183624267578, -0.08000000566244125, 0.0, 1.040000081062317, 0.0, 0.0, 0.0, 0.0, 0.0, 1.6218602704131148E9, 2021-05-24 14:44:30.413
45.0, -254.17294311523438, -148.93215942382812, 27.940792083740234, -53.8695182800293, -0.08000000566244125, 0.0, 1.040000081062317, 0.0, 0.0, 0.0, 0.0, 0.0, 1.6218602704131148E9, 2021-05-24 14:44:30.413
46.0, -180.07057189941406, -102.07495880126953, 106.75170135498047, -8.43347454071045, -0.08000000566244125, 0.0, 1.040000081062317, 0.0, 0.0, 0.0, 0.0, 0.0, 1.6218602704265764E9, 2021-05-24 14:44:30.426
46.0, -82.5190200805664, -4.029742240905762, 212.5085906982422, 95.68534088134766, -0.08000000566244125, 0.0, 1.040000081062317, 0.0, 0.0, 0.0, 0.0, 0.0, 1.6218602704265764E9, 2021-05-24 14:44:30.426
47.0, -149.8671417236328, -49.17781448364258, 137.5310821533203, 38.99967575073242, -0.08000000566244125, 0.0, 1.040000081062317, 0.0, 0.0, 0.0, 0.0, 0.0, 1.6218602704421985E9, 2021-05-24 14:44:30.442
47.0, -260.4933776855469, -137.00563049316406, 34.92692565917969, -55.18222427368164, -0.08000000566244125, 0.0, 1.040000081062317, 0.0, 0.0, 0.0, 0.0, 0.0, 1.6218602704421985E9, 2021-05-24 14:44:30.442
48.0, -188.46664428710938, -103.82523345947266, 108.09432983398438, -9.75365924835205, -0.08000000566244125, 0.0, 1.040000081062317, 0.0, 0.0, 0.0, 0.0, 0.0, 1.6218602704428856E9, 2021-05-24 14:44:30.442
48.0, -85.75029754638672, -4.826340675354004, 212.72177124023438, 91.88934326171875, -0.08000000566244125, 0.0, 1.040000081062317, 0.0, 0.0, 0.0, 0.0, 0.0, 1.6218602704428856E9, 2021-05-24 14:44:30.442
49.0, -150.10275268554688, -51.90420150756836, 140.90072631835938, 42.47404479980469, -0.08000000566244125, 0.0, 1.040000081062317, 0.0, 0.0, 0.0, 0.0, 0.0, 1.6218602704565427E9, 2021-05-24 14:44:30.456
49.0, -258.4102478027344, -139.77688598632812, 33.341209411621094, -56.18451690673828, -0.08000000566244125, 0.0, 1.040000081062317, 0.0, 0.0, 0.0, 0.0, 0.0, 1.6218602704565427E9, 2021-05-24 14:44:30.456
50.0, -188.08517456054688, -103.40262603759766, 106.2767333984375, 0.6208233833312988, -0.08000000566244125, 0.0, 1.055999994277954, 0.0, 0.0, 0.0, 0.0, 0.0, 1.6218602704721324E9, 2021-05-24 14:44:30.472
50.0, -91.40128326416016, -4.833820819854736, 209.06040954589844, 93.39652252197266, -0.08000000566244125, 0.0, 1.055999994277954, 0.0, 0.0, 0.0, 0.0, 0.0, 1.6218602704721324E9, 2021-05-24 14:44:30.472
51.0, -155.47325134277344, -50.217506408691406, 140.4407196044922, 43.5810546875, -0.08000000566244125, 0.0, 1.055999994277954, 0.0, 0.0, 0.0, 0.0, 0.0, 1.6218602704728487E9, 2021-05-24 14:44:30.472
51.0, -258.32049560546875, -143.97305297851562, 33.47584533691406, -47.036720275878906, -0.08000000566244125, 0.0, 1.055999994277954, 0.0, 0.0, 0.0, 0.0, 0.0, 1.6218602704728487E9, 2021-05-24 14:44:30.472
52.0, -180.5567626953125, -100.05915069580078, 111.87162780761719, 6.937514305114746, -0.06400000303983688, 0.0, 1.055999994277954, 0.0, 0.0, 0.0, 0.0, 0.0, 1.6218602704866166E9, 2021-05-24 14:44:30.486
52.0, -87.08170318603516, -8.06883430480957, 211.42776489257812, 95.4534683227539, -0.06400000303983688, 0.0, 1.055999994277954, 0.0, 0.0, 0.0, 0.0, 0.0, 1.6218602704866166E9, 2021-05-24 14:44:30.486
53.0, -147.3539276123047, -53.84894943237305, 144.66680908203125, 43.53617477416992, -0.06400000303983688, 0.0, 1.055999994277954, 0.0, 0.0, 0.0, 0.0, 0.0, 1.6218602705021956E9, 2021-05-24 14:44:30.502
53.0, -252.55357360839844, -142.06570434570312, 33.386085510253906, -51.128173828125, -0.06400000303983688, 0.0, 1.055999994277954, 0.0, 0.0, 0.0, 0.0, 0.0, 1.6218602705021956E9, 2021-05-24 14:44:30.502
54.0, -183.11859130859375, -100.55655670166016, 111.0488510131836, 1.2266871929168701, -0.06400000303983688, 0.0, 1.055999994277954, 0.0, 0.0, 0.0, 0.0, 0.0, 1.62186027050294E9, 2021-05-24 14:44:30.502
54.0, -78.43878936767578, -12.687610626220703, 212.49737548828125, 95.97331237792969, -0.06400000303983688, 0.0, 1.055999994277954, 0.0, 0.0, 0.0, 0.0, 0.0, 1.62186027050294E9, 2021-05-24 14:44:30.502
55.0, -147.89620971679688, -59.02497100830078, 143.24191284179688, 44.78904342651367, -0.06400000303983688, 0.0, 1.055999994277954, 0.0, 0.0, 0.0, 0.0, 0.0, 1.6218602705164876E9, 2021-05-24 14:44:30.516
55.0, -255.31736755371094, -140.34161376953125, 33.59178161621094, -52.02200698852539, -0.06400000303983688, 0.0, 1.055999994277954, 0.0, 0.0, 0.0, 0.0, 0.0, 1.6218602705164876E9, 2021-05-24 14:44:30.516
56.0, -182.69224548339844, -103.90377044677734, 108.61417388916016, -5.000246047973633, -0.06400000303983688, 0.0, 1.055999994277954, 0.0, 0.0, 0.0, 0.0, 0.0, 1.621860270532562E9, 2021-05-24 14:44:30.532
56.0, -76.23599243164062, -7.2049174308776855, 211.98501586914062, 92.21845245361328, -0.06400000303983688, 0.0, 1.055999994277954, 0.0, 0.0, 0.0, 0.0, 0.0, 1.621860270532562E9, 2021-05-24 14:44:30.532
57.0, -148.1767120361328, -58.463985443115234, 140.04055786132812, 37.32046127319336, -0.06400000303983688, 0.0, 1.055999994277954, 0.0, 0.0, 0.0, 0.0, 0.0, 1.621860270547166E9, 2021-05-24 14:44:30.547
57.0, -252.3665771484375, -141.45236206054688, 32.05842208862305, -50.77288055419922, -0.06400000303983688, 0.0, 1.055999994277954, 0.0, 0.0, 0.0, 0.0, 0.0, 1.621860270547166E9, 2021-05-24 14:44:30.547
58.0, -174.20640563964844, -100.7846908569336, 110.00541687011719, -5.665948390960693, -0.06400000303983688, 0.0, 1.055999994277954, 0.0, 0.0, 0.0, 0.0, 0.0, 1.621860270547866E9, 2021-05-24 14:44:30.547
58.0, -86.59551239013672, -7.773382186889648, 206.18067932128906, 81.69437408447266, -0.06400000303983688, 0.0, 1.055999994277954, 0.0, 0.0, 0.0, 0.0, 0.0, 1.621860270547866E9, 2021-05-24 14:44:30.547
59.0, -150.8694305419922, -58.24333190917969, 141.0391082763672, 35.74596405029297, -0.06400000303983688, 0.0, 1.055999994277954, 0.0, 0.0, 0.0, 0.0, 0.0, 1.6218602705621657E9, 2021-05-24 14:44:30.562
59.0, -251.99258422851562, -147.54092407226562, 30.461484909057617, -58.95204162597656, -0.06400000303983688, 0.0, 1.055999994277954, 0.0, 0.0, 0.0, 0.0, 0.0, 1.6218602705621657E9, 2021-05-24 14:44:30.562
60.0, -185.69912719726562, -110.21672058105469, 100.28167724609375, -8.575590133666992, -0.06400000303983688, 0.0, 1.055999994277954, 0.0, 0.0, 0.0, 0.0, 0.0, 1.6218602705628734E9, 2021-05-24 14:44:30.562
60.0, -83.86538696289062, -8.846733093261719, 204.24342346191406, 85.84192657470703, -0.06400000303983688, 0.0, 1.055999994277954, 0.0, 0.0, 0.0, 0.0, 0.0, 1.6218602705628734E9, 2021-05-24 14:44:30.562
61.0, -149.89706420898438, -62.54421615600586, 138.04718017578125, 37.55233383178711, -0.06400000303983688, 0.0, 1.055999994277954, 0.0, 0.0, 0.0, 0.0, 0.0, 1.6218602705764694E9, 2021-05-24 14:44:30.576
61.0, -259.62945556640625, -151.62863159179688, 24.86285400390625, -59.5317268371582, -0.06400000303983688, 0.0, 1.055999994277954, 0.0, 0.0, 0.0, 0.0, 0.0, 1.6218602705764694E9, 2021-05-24 14:44:30.576
62.0, -181.6600341796875, -111.9445571899414, 107.22293090820312, -6.675721645355225, -0.08000000566244125, 0.0, 1.055999994277954, 0.0, 0.0, 0.0, 0.0, 0.0, 1.621860270592254E9, 2021-05-24 14:44:30.592
62.0, -87.26121520996094, -13.057860374450684, 206.3415069580078, 88.58326721191406, -0.08000000566244125, 0.0, 1.055999994277954, 0.0, 0.0, 0.0, 0.0, 0.0, 1.621860270592254E9, 2021-05-24 14:44:30.592
63.0, -142.8772735595703, -54.12944030761719, 145.39608764648438, 41.85696029663086, -0.08000000566244125, 0.0, 1.055999994277954, 0.0, 0.0, 0.0, 0.0, 0.0, 1.6218602705930588E9, 2021-05-24 14:44:30.593
63.0, -255.87086486816406, -150.4131622314453, 33.74885559082031, -54.004154205322266, -0.08000000566244125, 0.0, 1.055999994277954, 0.0, 0.0, 0.0, 0.0, 0.0, 1.6218602705930588E9, 2021-05-24 14:44:30.593
64.0, -187.1651611328125, -106.25242614746094, 109.08914184570312, -4.409341812133789, -0.08000000566244125, 0.0, 1.055999994277954, 0.0, 0.0, 0.0, 0.0, 0.0, 1.6218602706066272E9, 2021-05-24 14:44:30.606
64.0, -84.14962005615234, -12.508095741271973, 204.95399475097656, 89.65662384033203, -0.08000000566244125, 0.0, 1.055999994277954, 0.0, 0.0, 0.0, 0.0, 0.0, 1.6218602706066272E9, 2021-05-24 14:44:30.606
65.0, -154.306396484375, -49.65278244018555, 137.98361206054688, 39.650421142578125, -0.08000000566244125, 0.0, 1.055999994277954, 0.0, 0.0, 0.0, 0.0, 0.0, 1.621860270622196E9, 2021-05-24 14:44:30.622
65.0, -260.964599609375, -141.70294189453125, 34.4370002746582, -59.42327117919922, -0.08000000566244125, 0.0, 1.055999994277954, 0.0, 0.0, 0.0, 0.0, 0.0, 1.621860270622196E9, 2021-05-24 14:44:30.622
66.0, -182.99143981933594, -102.6097640991211, 106.23934173583984, -4.603816986083984, -0.08000000566244125, 0.0, 1.055999994277954, 0.0, 0.0, 0.0, 0.0, 0.0, 1.6218602706229377E9, 2021-05-24 14:44:30.622
66.0, -90.62338256835938, -3.872666358947754, 214.0531768798828, 87.2630844116211, -0.08000000566244125, 0.0, 1.055999994277954, 0.0, 0.0, 0.0, 0.0, 0.0, 1.6218602706229377E9, 2021-05-24 14:44:30.622
67.0, -157.017822265625, -55.11677551269531, 138.89988708496094, 38.50226974487305, -0.08000000566244125, 0.0, 1.055999994277954, 0.0, 0.0, 0.0, 0.0, 0.0, 1.6218602706364846E9, 2021-05-24 14:44:30.636
67.0, -263.16741943359375, -151.6735076904297, 25.14708709716797, -58.308780670166016, -0.08000000566244125, 0.0, 1.055999994277954, 0.0, 0.0, 0.0, 0.0, 0.0, 1.6218602706364846E9, 2021-05-24 14:44:30.636
68.0, -189.2744598388672, -101.828125, 103.35213470458984, -4.080230712890625, -0.08000000566244125, 0.0, 1.055999994277954, 0.0, 0.0, 0.0, 0.0, 0.0, 1.6218602706522133E9, 2021-05-24 14:44:30.652
68.0, -88.40562438964844, -13.383232116699219, 206.43499755859375, 88.50099182128906, -0.08000000566244125, 0.0, 1.055999994277954, 0.0, 0.0, 0.0, 0.0, 0.0, 1.6218602706522133E9, 2021-05-24 14:44:30.652
69.0, -146.1683807373047, -63.239837646484375, 134.95428466796875, 34.73619079589844, -0.08000000566244125, 0.0, 1.055999994277954, 0.0, 0.0, 0.0, 0.0, 0.0, 1.6218602706528537E9, 2021-05-24 14:44:30.652
69.0, -250.5976104736328, -146.66204833984375, 28.210065841674805, -55.99378204345703, -0.08000000566244125, 0.0, 1.055999994277954, 0.0, 0.0, 0.0, 0.0, 0.0, 1.6218602706528537E9, 2021-05-24 14:44:30.652
70.0, -175.69488525390625, -107.59130859375, 104.87427520751953, 1.4062024354934692, -0.08000000566244125, 0.0, 1.055999994277954, 0.0, 0.0, 0.0, 0.0, 0.0, 1.6218602706829128E9, 2021-05-24 14:44:30.682
70.0, -83.8766098022461, -13.136398315429688, 202.07054138183594, 85.56517028808594, -0.08000000566244125, 0.0, 1.055999994277954, 0.0, 0.0, 0.0, 0.0, 0.0, 1.6218602706829128E9, 2021-05-24 14:44:30.682
71.0, -149.30615234375, -60.79020309448242, 137.7779083251953, 38.031044006347656, -0.08000000566244125, 0.0, 1.055999994277954, 0.0, 0.0, 0.0, 0.0, 0.0, 1.6218602706837013E9, 2021-05-24 14:44:30.683
71.0, -260.6654052734375, -152.01010131835938, 27.10305404663086, -60.14881134033203, -0.08000000566244125, 0.0, 1.055999994277954, 0.0, 0.0, 0.0, 0.0, 0.0, 1.6218602706837013E9, 2021-05-24 14:44:30.683
72.0, -187.00808715820312, -109.52110290527344, 105.74567413330078, 0.13837629556655884, -0.08000000566244125, 0.0, 1.055999994277954, 0.0, 0.0, 0.0, 0.0, 0.0, 1.6218602706844273E9, 2021-05-24 14:44:30.684
72.0, -88.56644439697266, -12.777368545532227, 205.79547119140625, 89.44345092773438, -0.08000000566244125, 0.0, 1.055999994277954, 0.0, 0.0, 0.0, 0.0, 0.0, 1.6218602706844273E9, 2021-05-24 14:44:30.684
73.0, -159.77413940429688, -60.41621398925781, 141.02415466308594, 38.588287353515625, -0.08000000566244125, 0.0, 1.055999994277954, 0.0, 0.0, 0.0, 0.0, 0.0, 1.6218602706964636E9, 2021-05-24 14:44:30.696
73.0, -259.64068603515625, -149.61282348632812, 31.97240447998047, -55.79930877685547, -0.08000000566244125, 0.0, 1.055999994277954, 0.0, 0.0, 0.0, 0.0, 0.0, 1.6218602706964636E9, 2021-05-24 14:44:30.696
74.0, -190.41139221191406, -105.03695678710938, 109.87078094482422, -6.731820106506348, -0.08000000566244125, 0.0, 1.055999994277954, 0.0, 0.0, 0.0, 0.0, 0.0, 1.6218602707121918E9, 2021-05-24 14:44:30.712
74.0, -91.00485229492188, -5.469603538513184, 208.84722900390625, 90.80850982666016, -0.08000000566244125, 0.0, 1.055999994277954, 0.0, 0.0, 0.0, 0.0, 0.0, 1.6218602707121918E9, 2021-05-24 14:44:30.712
75.0, -149.15655517578125, -54.854984283447266, 137.8227996826172, 37.784210205078125, -0.08000000566244125, 0.0, 1.055999994277954, 0.0, 0.0, 0.0, 0.0, 0.0, 1.6218602707129033E9, 2021-05-24 14:44:30.712
75.0, -258.2456970214844, -146.3404083251953, 31.938745498657227, -55.96760177612305, -0.08000000566244125, 0.0, 1.055999994277954, 0.0, 0.0, 0.0, 0.0, 0.0, 1.6218602707129033E9, 2021-05-24 14:44:30.712
76.0, -187.0828857421875, -100.81835174560547, 116.21739196777344, -4.959107398986816, -0.08000000566244125, 0.0, 1.055999994277954, 0.0, 0.0, 0.0, 0.0, 0.0, 1.62186027074288E9, 2021-05-24 14:44:30.742
76.0, -86.56185150146484, -7.620046138763428, 214.0344696044922, 86.51884460449219, -0.08000000566244125, 0.0, 1.055999994277954, 0.0, 0.0, 0.0, 0.0, 0.0, 1.62186027074288E9, 2021-05-24 14:44:30.742
77.0, -148.5058135986328, -59.02497100830078, 139.86477661132812, 33.06071472167969, -0.08000000566244125, 0.0, 1.055999994277954, 0.0, 0.0, 0.0, 0.0, 0.0, 1.6218602707436197E9, 2021-05-24 14:44:30.743
77.0, -256.8095703125, -140.6595001220703, 31.119707107543945, -58.11430358886719, -0.08000000566244125, 0.0, 1.055999994277954, 0.0, 0.0, 0.0, 0.0, 0.0, 1.6218602707436197E9, 2021-05-24 14:44:30.743
78.0, -184.7566680908203, -103.54473876953125, 105.85038757324219, -6.986133098602295, -0.08000000566244125, 0.0, 1.055999994277954, 0.0, 0.0, 0.0, 0.0, 0.0, 1.6218602707443414E9, 2021-05-24 14:44:30.744
78.0, -89.27702331542969, -5.880992889404297, 204.65853881835938, 83.99815368652344, -0.08000000566244125, 0.0, 1.055999994277954, 0.0, 0.0, 0.0, 0.0, 0.0, 1.6218602707443414E9, 2021-05-24 14:44:30.744
79.0, -149.24258422851562, -46.245731353759766, 143.57850646972656, 34.848388671875, -0.08000000566244125, 0.0, 1.055999994277954, 0.0, 0.0, 0.0, 0.0, 0.0, 1.621860270756739E9, 2021-05-24 14:44:30.756
79.0, -255.65394592285156, -142.69775390625, 33.50576400756836, -59.01188278198242, -0.08000000566244125, 0.0, 1.055999994277954, 0.0, 0.0, 0.0, 0.0, 0.0, 1.621860270756739E9, 2021-05-24 14:44:30.756
80.0, -184.70057678222656, -104.00100708007812, 108.8011703491211, -8.665348052978516, -0.08000000566244125, 0.0, 1.055999994277954, 0.0, 0.0, 0.0, 0.0, 0.0, 1.6218602707721925E9, 2021-05-24 14:44:30.772
80.0, -89.7669448852539, -12.380938529968262, 209.1763458251953, 84.62271881103516, -0.08000000566244125, 0.0, 1.055999994277954, 0.0, 0.0, 0.0, 0.0, 0.0, 1.6218602707721925E9, 2021-05-24 14:44:30.772
81.0, -159.99853515625, -61.75883865356445, 133.82110595703125, 30.3118896484375, -0.08000000566244125, 0.0, 1.055999994277954, 0.0, 0.0, 0.0, 0.0, 0.0, 1.621860270772895E9, 2021-05-24 14:44:30.772
81.0, -263.5713195800781, -146.52366638183594, 28.673812866210938, -57.78893280029297, -0.08000000566244125, 0.0, 1.055999994277954, 0.0, 0.0, 0.0, 0.0, 0.0, 1.621860270772895E9, 2021-05-24 14:44:30.772
82.0, -191.51092529296875, -105.69518280029297, 107.0396728515625, -7.33768367767334, -0.06400000303983688, 0.0, 1.055999994277954, 0.0, 0.0, 0.0, 0.0, 0.0, 1.6218602708028903E9, 2021-05-24 14:44:30.802
82.0, -96.2481918334961, -6.2549824714660645, 208.12168884277344, 87.72309112548828, -0.06400000303983688, 0.0, 1.055999994277954, 0.0, 0.0, 0.0, 0.0, 0.0, 1.6218602708028903E9, 2021-05-24 14:44:30.802
83.0, -161.62538146972656, -57.39811325073242, 132.95718383789062, 26.92728042602539, -0.06400000303983688, 0.0, 1.055999994277954, 0.0, 0.0, 0.0, 0.0, 0.0, 1.621860270803578E9, 2021-05-24 14:44:30.803
83.0, -265.1383361816406, -144.35826110839844, 26.239137649536133, -62.71812057495117, -0.06400000303983688, 0.0, 1.055999994277954, 0.0, 0.0, 0.0, 0.0, 0.0, 1.621860270803578E9, 2021-05-24 14:44:30.803
84.0, -186.20774841308594, -100.33216857910156, 106.833984375, -8.646648406982422, -0.06400000303983688, 0.0, 1.055999994277954, 0.0, 0.0, 0.0, 0.0, 0.0, 1.62186027080434E9, 2021-05-24 14:44:30.804
84.0, -92.45594024658203, -5.499522686004639, 210.08140563964844, 85.98403930664062, -0.06400000303983688, 0.0, 1.055999994277954, 0.0, 0.0, 0.0, 0.0, 0.0, 1.62186027080434E9, 2021-05-24 14:44:30.804
85.0, -151.6847381591797, -50.04173278808594, 137.62457275390625, 31.890127182006836, -0.06400000303983688, 0.0, 1.055999994277954, 0.0, 0.0, 0.0, 0.0, 0.0, 1.6218602708329115E9, 2021-05-24 14:44:30.832
85.0, -266.6455078125, -146.2917938232422, 31.508657455444336, -55.346778869628906, -0.06400000303983688, 0.0, 1.055999994277954, 0.0, 0.0, 0.0, 0.0, 0.0, 1.6218602708329115E9, 2021-05-24 14:44:30.832
86.0, -191.46604919433594, -106.828369140625, 103.09782409667969, -4.992766380310059, -0.06400000303983688, 0.0, 1.055999994277954, 0.0, 0.0, 0.0, 0.0, 0.0, 1.6218602708335724E9, 2021-05-24 14:44:30.833
86.0, -92.54195404052734, -12.134105682373047, 206.65939331054688, 83.77375793457031, -0.06400000303983688, 0.0, 1.055999994277954, 0.0, 0.0, 0.0, 0.0, 0.0, 1.6218602708335724E9, 2021-05-24 14:44:30.833
87.0, -158.2557373046875, -62.611534118652344, 136.86163330078125, 37.61217498779297, -0.06400000303983688, 0.0, 1.055999994277954, 0.0, 0.0, 0.0, 0.0, 0.0, 1.6218602708343296E9, 2021-05-24 14:44:30.834
87.0, -257.5351257324219, -152.26815795898438, 30.917753219604492, -62.6134033203125, -0.06400000303983688, 0.0, 1.055999994277954, 0.0, 0.0, 0.0, 0.0, 0.0, 1.6218602708343296E9, 2021-05-24 14:44:30.834
88.0, -185.40740966796875, -109.59963989257812, 102.6191177368164, -5.793105125427246, -0.06400000303983688, 0.0, 1.055999994277954, 0.0, 0.0, 0.0, 0.0, 0.0, 1.6218602708629391E9, 2021-05-24 14:44:30.862
88.0, -85.61192321777344, -16.767841339111328, 206.47239685058594, 87.97366333007812, -0.06400000303983688, 0.0, 1.055999994277954, 0.0, 0.0, 0.0, 0.0, 0.0, 1.6218602708629391E9, 2021-05-24 14:44:30.862
89.0, -155.61163330078125, -58.224632263183594, 137.75921630859375, 38.449913024902344, -0.06400000303983688, 0.0, 1.055999994277954, 0.0, 0.0, 0.0, 0.0, 0.0, 1.6218602708635335E9, 2021-05-24 14:44:30.863
89.0, -259.73419189453125, -154.24282836914062, 27.61168098449707, -60.13011169433594, -0.06400000303983688, 0.0, 1.055999994277954, 0.0, 0.0, 0.0, 0.0, 0.0, 1.6218602708635335E9, 2021-05-24 14:44:30.863
90.0, -193.12281799316406, -109.3528060913086, 107.04341888427734, -4.570157527923584, -0.06400000303983688, 0.0, 1.055999994277954, 0.0, 0.0, 0.0, 0.0, 0.0, 1.6218602708643053E9, 2021-05-24 14:44:30.864
90.0, -91.33770751953125, -10.914897918701172, 210.59376525878906, 91.5003890991211, -0.06400000303983688, 0.0, 1.055999994277954, 0.0, 0.0, 0.0, 0.0, 0.0, 1.6218602708643053E9, 2021-05-24 14:44:30.864
91.0, -160.7876434326172, -66.02232360839844, 135.3619384765625, 33.83861541748047, -0.06400000303983688, 0.0, 1.055999994277954, 0.0, 0.0, 0.0, 0.0, 0.0, 1.621860270876464E9, 2021-05-24 14:44:30.876
91.0, -261.0244445800781, -155.2413787841797, 32.16687774658203, -56.74924087524414, -0.06400000303983688, 0.0, 1.055999994277954, 0.0, 0.0, 0.0, 0.0, 0.0, 1.621860270876464E9, 2021-05-24 14:44:30.876
92.0, -182.23223876953125, -108.51880645751953, 106.3926773071289, -3.4407079219818115, -0.06400000303983688, 0.0, 1.055999994277954, 0.0, 0.0, 0.0, 0.0, 0.0, 1.621860270892347E9, 2021-05-24 14:44:30.892
92.0, -84.02619934082031, -17.91973114013672, 208.50315856933594, 90.6140365600586, -0.06400000303983688, 0.0, 1.055999994277954, 0.0, 0.0, 0.0, 0.0, 0.0, 1.621860270892347E9, 2021-05-24 14:44:30.892
93.0, -151.4341583251953, -64.65351867675781, 140.1116180419922, 37.13346481323242, -0.06400000303983688, 0.0, 1.055999994277954, 0.0, 0.0, 0.0, 0.0, 0.0, 1.6218602708930013E9, 2021-05-24 14:44:30.893
93.0, -253.07716369628906, -148.8461456298828, 29.64618682861328, -52.381038665771484, -0.06400000303983688, 0.0, 1.055999994277954, 0.0, 0.0, 0.0, 0.0, 0.0, 1.6218602708930013E9, 2021-05-24 14:44:30.893
94.0, -183.78428649902344, -99.58418273925781, 107.3575668334961, -4.809511184692383, -0.06400000303983688, 0.0, 1.055999994277954, 0.0, 0.0, 0.0, 0.0, 0.0, 1.6218602709064648E9, 2021-05-24 14:44:30.906
